set title 'mp-235 - Density of States'
set xlabel 'Energy (eV)'
set ylabel 'DOS (states/eV)'
set grid
set xrange [-10:10]
set yrange [0:14.036]
set xzeroaxis lt -1
set terminal png size 800,600
set output 'mp-235_dos_gnuplot.png'
plot '-' using 1:2 with lines title 'DOS'
-20.936300 0.000000
-20.917100 0.000000
-20.898000 0.000000
-20.878900 0.000000
-20.859700 0.000000
-20.840600 0.000000
-20.821500 0.000000
-20.802300 0.000000
-20.783200 0.000000
-20.764100 0.000000
-20.744900 0.000000
-20.725800 0.000000
-20.706700 0.000000
-20.687500 0.000000
-20.668400 0.000000
-20.649200 0.000000
-20.630100 0.000000
-20.611000 0.000000
-20.591800 0.000000
-20.572700 0.000000
-20.553600 0.000000
-20.534400 0.000000
-20.515300 0.000000
-20.496200 0.000000
-20.477000 0.000000
-20.457900 0.000000
-20.438800 0.000000
-20.419600 0.000000
-20.400500 0.000000
-20.381300 0.000000
-20.362200 0.000000
-20.343100 0.000000
-20.323900 0.000000
-20.304800 0.000000
-20.285700 0.000000
-20.266500 0.000000
-20.247400 0.000000
-20.228300 0.000000
-20.209100 0.000000
-20.190000 0.000000
-20.170900 0.000000
-20.151700 0.000000
-20.132600 0.000000
-20.113400 0.000000
-20.094300 0.000000
-20.075200 0.000000
-20.056000 0.000000
-20.036900 0.000000
-20.017800 0.000000
-19.998600 0.000000
-19.979500 0.000000
-19.960400 0.000000
-19.941200 0.000000
-19.922100 0.000000
-19.903000 0.000000
-19.883800 0.000000
-19.864700 0.000000
-19.845500 0.000000
-19.826400 0.000000
-19.807300 0.000000
-19.788100 0.000000
-19.769000 0.000000
-19.749900 0.000000
-19.730700 0.000000
-19.711600 0.000000
-19.692500 0.000000
-19.673300 0.000000
-19.654200 0.000000
-19.635100 0.000000
-19.615900 0.000000
-19.596800 0.000000
-19.577600 0.000000
-19.558500 0.000000
-19.539400 0.000000
-19.520200 0.000000
-19.501100 0.000000
-19.482000 0.000000
-19.462800 0.000000
-19.443700 0.000000
-19.424600 0.000000
-19.405400 0.000000
-19.386300 0.000000
-19.367100 0.000000
-19.348000 0.000000
-19.328900 0.000000
-19.309700 0.000000
-19.290600 0.000000
-19.271500 0.000000
-19.252300 0.000000
-19.233200 0.000000
-19.214100 0.000000
-19.194900 0.099500
-19.175800 3.455100
-19.156700 9.469300
-19.137500 15.468700
-19.118400 12.000700
-19.099200 6.871000
-19.080100 5.788000
-19.061000 5.788100
-19.041800 5.788100
-19.022700 5.692700
-19.003600 5.182000
-18.984400 4.359200
-18.965300 3.499800
-18.946200 3.499800
-18.927000 3.499900
-18.907900 3.499900
-18.888800 3.499900
-18.869600 3.499900
-18.850500 3.499900
-18.831300 3.499900
-18.812200 3.441600
-18.793100 3.201900
-18.773900 2.824200
-18.754800 2.530800
-18.735700 2.530800
-18.716500 2.530800
-18.697400 2.530800
-18.678300 2.530800
-18.659100 2.530800
-18.640000 2.530800
-18.620900 2.530800
-18.601700 2.530800
-18.582600 2.530800
-18.563400 2.530800
-18.544300 2.530800
-18.525200 2.505400
-18.506000 2.373400
-18.486900 2.163600
-18.467800 2.003900
-18.448600 2.003900
-18.429500 2.003900
-18.410400 2.003900
-18.391200 2.003900
-18.372100 2.003900
-18.353000 2.003900
-18.333800 2.003900
-18.314700 2.003900
-18.295500 2.003900
-18.276400 2.003900
-18.257300 2.003900
-18.238100 2.003900
-18.219000 2.003900
-18.199900 2.003900
-18.180700 2.003900
-18.161600 5.446300
-18.142500 7.958800
-18.123300 11.562500
-18.104200 0.000000
-18.085100 0.000000
-18.065900 0.000000
-18.046800 0.000000
-18.027600 0.000000
-18.008500 0.000000
-17.989400 0.000000
-17.970200 0.000000
-17.951100 0.000000
-17.932000 0.000000
-17.912800 0.000000
-17.893700 0.000000
-17.874600 0.000000
-17.855400 0.000000
-17.836300 0.000000
-17.817200 0.000000
-17.798000 0.000000
-17.778900 0.000000
-17.759700 0.000000
-17.740600 0.000000
-17.721500 4.668800
-17.702300 8.814200
-17.683200 10.085500
-17.664100 1.472500
-17.644900 1.472500
-17.625800 1.472500
-17.606700 1.472500
-17.587500 1.472500
-17.568400 1.472500
-17.549200 1.472500
-17.530100 1.472500
-17.511000 1.472500
-17.491800 1.472500
-17.472700 1.472500
-17.453600 1.472500
-17.434400 1.472500
-17.415300 1.472500
-17.396200 1.472500
-17.377000 1.472500
-17.357900 1.472500
-17.338800 1.472500
-17.319600 1.472500
-17.300500 1.472500
-17.281300 1.472500
-17.262200 1.472500
-17.243100 1.472500
-17.223900 1.454300
-17.204800 1.404500
-17.185700 1.343400
-17.166500 1.343400
-17.147400 1.343400
-17.128300 1.343400
-17.109100 1.343400
-17.090000 1.343400
-17.070900 1.343400
-17.051700 1.343400
-17.032600 1.343400
-17.013400 1.343400
-16.994300 1.343400
-16.975200 1.343400
-16.956000 1.343400
-16.936900 1.343400
-16.917800 1.343400
-16.898600 1.343400
-16.879500 1.343400
-16.860400 1.343400
-16.841200 1.343400
-16.822100 1.343400
-16.803000 1.343400
-16.783800 1.343400
-16.764700 1.343400
-16.745500 1.343400
-16.726400 1.343400
-16.707300 1.343400
-16.688100 1.340800
-16.669000 1.319500
-16.649900 1.295800
-16.630700 1.291700
-16.611600 1.291700
-16.592500 1.291700
-16.573300 1.291700
-16.554200 1.291700
-16.535100 1.291700
-16.515900 1.291700
-16.496800 1.291700
-16.477600 1.291700
-16.458500 1.291700
-16.439400 1.291700
-16.420200 1.291700
-16.401100 1.291700
-16.382000 1.291700
-16.362800 1.291700
-16.343700 1.291700
-16.324600 1.291700
-16.305400 1.291700
-16.286300 1.291700
-16.267200 1.291700
-16.248000 1.291700
-16.228900 1.291700
-16.209700 1.291700
-16.190600 1.291700
-16.171500 1.291700
-16.152300 1.291700
-16.133200 1.291700
-16.114100 1.317600
-16.094900 1.369800
-16.075800 1.402200
-16.056700 1.402200
-16.037500 1.402200
-16.018400 1.402200
-15.999300 1.402200
-15.980100 1.402200
-15.961000 1.402200
-15.941800 1.402200
-15.922700 1.402200
-15.903600 1.402200
-15.884400 1.402200
-15.865300 1.402200
-15.846200 1.402200
-15.827000 1.402200
-15.807900 1.402200
-15.788800 1.402200
-15.769600 1.402200
-15.750500 1.402200
-15.731400 1.402200
-15.712200 1.402200
-15.693100 1.402200
-15.673900 1.402200
-15.654800 1.402200
-15.635700 1.402200
-15.616500 1.402200
-15.597400 1.711500
-15.578300 2.274100
-15.559100 2.792500
-15.540000 2.819700
-15.520900 2.819700
-15.501700 2.819600
-15.482600 2.819600
-15.463400 2.819600
-15.444300 2.819600
-15.425200 2.819600
-15.406000 2.819600
-15.386900 2.819600
-15.367800 2.819600
-15.348600 2.541800
-15.329500 1.421900
-15.310400 0.497900
-15.291200 0.000000
-15.272100 0.000000
-15.253000 0.000000
-15.233800 0.000000
-15.214700 0.000000
-15.195500 0.000000
-15.176400 0.000000
-15.157300 0.000000
-15.138100 0.000000
-15.119000 0.000000
-15.099900 0.000000
-15.080700 0.000000
-15.061600 0.000000
-15.042500 0.000000
-15.023300 0.000000
-15.004200 0.000000
-14.985100 0.000000
-14.965900 0.000000
-14.946800 0.000000
-14.927600 0.000000
-14.908500 0.000000
-14.889400 0.000000
-14.870200 0.000000
-14.851100 0.000000
-14.832000 0.000000
-14.812800 0.000000
-14.793700 0.000000
-14.774600 0.000000
-14.755400 0.000000
-14.736300 0.000000
-14.717200 0.000000
-14.698000 0.000000
-14.678900 0.000000
-14.659700 0.000000
-14.640600 0.000000
-14.621500 0.000000
-14.602300 0.000000
-14.583200 0.000000
-14.564100 0.000000
-14.544900 0.000000
-14.525800 0.000000
-14.506700 0.000000
-14.487500 0.000000
-14.468400 0.000000
-14.449300 0.000000
-14.430100 0.000000
-14.411000 0.000000
-14.391800 0.000000
-14.372700 0.000000
-14.353600 0.000000
-14.334400 0.000000
-14.315300 0.000000
-14.296200 0.000000
-14.277000 0.000000
-14.257900 0.000000
-14.238800 0.000000
-14.219600 0.000000
-14.200500 0.000000
-14.181400 0.000000
-14.162200 0.000000
-14.143100 0.000000
-14.123900 0.000000
-14.104800 0.000000
-14.085700 0.000000
-14.066500 0.000000
-14.047400 0.000000
-14.028300 0.000000
-14.009100 0.000000
-13.990000 0.000000
-13.970900 0.000000
-13.951700 0.000000
-13.932600 0.000000
-13.913500 0.000000
-13.894300 0.000000
-13.875200 0.000000
-13.856000 0.000000
-13.836900 0.000000
-13.817800 0.000000
-13.798600 0.000000
-13.779500 0.000000
-13.760400 0.539800
-13.741200 1.989500
-13.722100 2.681500
-13.703000 2.681500
-13.683800 2.681500
-13.664700 2.681500
-13.645500 2.681500
-13.626400 2.681500
-13.607300 2.681500
-13.588100 2.681500
-13.569000 2.681500
-13.549900 2.681500
-13.530700 2.681600
-13.511600 2.681600
-13.492500 2.277400
-13.473300 1.949100
-13.454200 1.297600
-13.435100 1.297600
-13.415900 1.297600
-13.396800 1.297600
-13.377600 1.297600
-13.358500 1.297600
-13.339400 1.297600
-13.320200 1.297600
-13.301100 1.297600
-13.282000 1.297600
-13.262800 1.297600
-13.243700 1.297600
-13.224600 1.297600
-13.205400 1.297600
-13.186300 1.297600
-13.167200 1.297600
-13.148000 1.297600
-13.128900 1.297600
-13.109700 1.297600
-13.090600 1.297600
-13.071500 1.297600
-13.052300 1.297600
-13.033200 1.297600
-13.014100 1.297600
-12.994900 1.297600
-12.975800 1.297600
-12.956700 1.297600
-12.937500 1.251600
-12.918400 1.217200
-12.899300 1.185500
-12.880100 1.141100
-12.861000 1.139400
-12.841800 1.139400
-12.822700 1.139400
-12.803600 1.139400
-12.784400 1.139400
-12.765300 1.139400
-12.746200 1.139400
-12.727000 1.139400
-12.707900 1.139400
-12.688800 1.139400
-12.669600 1.139400
-12.650500 1.139400
-12.631400 1.139400
-12.612200 1.139400
-12.593100 1.139400
-12.573900 1.139400
-12.554800 1.139400
-12.535700 1.139400
-12.516500 1.139400
-12.497400 1.139400
-12.478300 1.139400
-12.459100 1.139400
-12.440000 1.139400
-12.420900 1.139400
-12.401700 1.139400
-12.382600 1.139400
-12.363500 1.139400
-12.344300 1.139400
-12.325200 1.139400
-12.306000 1.129500
-12.286900 1.122000
-12.267800 1.118300
-12.248600 1.110100
-12.229500 1.105000
-12.210400 1.104400
-12.191200 1.104400
-12.172100 1.104400
-12.153000 1.104400
-12.133800 1.104400
-12.114700 1.104400
-12.095600 1.104400
-12.076400 1.104400
-12.057300 1.104400
-12.038100 1.104400
-12.019000 1.104400
-11.999900 1.104400
-11.980700 1.104400
-11.961600 1.104400
-11.942500 1.104400
-11.923300 1.104400
-11.904200 1.104400
-11.885100 1.104400
-11.865900 1.104400
-11.846800 1.104400
-11.827600 1.104400
-11.808500 1.104400
-11.789400 1.104400
-11.770200 1.104400
-11.751100 1.104400
-11.732000 1.104400
-11.712800 1.104400
-11.693700 1.104400
-11.674600 1.104400
-11.655400 1.101500
-11.636300 1.099500
-11.617200 1.098700
-11.598000 1.097500
-11.578900 1.096300
-11.559700 1.095900
-11.540600 1.095900
-11.521500 1.095900
-11.502300 1.095900
-11.483200 1.095900
-11.464100 1.095900
-11.444900 1.095900
-11.425800 1.095900
-11.406700 1.095900
-11.387500 1.095900
-11.368400 1.095900
-11.349300 1.095900
-11.330100 1.095900
-11.311000 1.095900
-11.291800 1.095800
-11.272700 1.095800
-11.253600 1.095800
-11.234400 1.095800
-11.215300 1.095800
-11.196200 1.095800
-11.177000 1.095800
-11.157900 1.095800
-11.138800 1.095800
-11.119600 1.095800
-11.100500 1.095800
-11.081400 1.095800
-11.062200 1.095800
-11.043100 1.095800
-11.023900 1.095800
-11.004800 9.198400
-10.985700 3.862300
-10.966500 1.928900
-10.947400 2.955500
-10.928300 4.343500
-10.909100 2.426600
-10.890000 1.979400
-10.870900 0.000000
-10.851700 0.000000
-10.832600 0.000000
-10.813500 0.000000
-10.794300 0.000000
-10.775200 0.000000
-10.756000 0.000000
-10.736900 0.000000
-10.717800 0.000000
-10.698600 0.000000
-10.679500 0.000000
-10.660400 0.000000
-10.641200 0.000000
-10.622100 0.000000
-10.603000 0.000000
-10.583800 0.000000
-10.564700 0.000000
-10.545600 0.000000
-10.526400 0.000000
-10.507300 0.000000
-10.488100 0.000000
-10.469000 0.000000
-10.449900 0.000000
-10.430700 0.000000
-10.411600 0.000000
-10.392500 0.000000
-10.373300 0.000000
-10.354200 0.000000
-10.335100 3.936100
-10.315900 4.121200
-10.296800 1.730000
-10.277700 3.573700
-10.258500 4.498200
-10.239400 3.006800
-10.220200 2.772000
-10.201100 1.094900
-10.182000 1.094900
-10.162800 1.094900
-10.143700 1.094900
-10.124600 1.094900
-10.105400 1.094900
-10.086300 1.094900
-10.067200 1.094900
-10.048000 1.094900
-10.028900 1.094900
-10.009800 1.094900
-9.990600 1.094900
-9.971500 1.094900
-9.952300 1.094900
-9.933200 1.094900
-9.914100 1.094900
-9.894900 1.094900
-9.875800 1.094900
-9.856700 1.094900
-9.837500 1.094900
-9.818400 1.094900
-9.799300 1.094900
-9.780100 1.094900
-9.761000 1.094900
-9.741800 1.094900
-9.722700 1.094900
-9.703600 1.094900
-9.684400 1.094900
-9.665300 1.097600
-9.646200 1.100300
-9.627000 1.101700
-9.607900 1.104100
-9.588800 1.107900
-9.569600 1.110800
-9.550500 1.112800
-9.531400 1.112800
-9.512200 1.112800
-9.493100 1.112800
-9.473900 1.112800
-9.454800 1.112800
-9.435700 1.112800
-9.416500 1.112800
-9.397400 1.112800
-9.378300 1.112800
-9.359100 1.112800
-9.340000 1.112800
-9.320900 1.112800
-9.301700 1.112800
-9.282600 1.112800
-9.263500 1.112800
-9.244300 1.112800
-9.225200 1.112800
-9.206000 1.112800
-9.186900 1.112800
-9.167800 1.112800
-9.148600 1.112800
-9.129500 1.112800
-9.110400 1.112800
-9.091200 1.112800
-9.072100 1.112800
-9.053000 1.112800
-9.033800 1.112800
-9.014700 1.118300
-8.995600 1.136400
-8.976400 1.146000
-8.957300 1.154100
-8.938100 1.168100
-8.919000 1.177100
-8.899900 1.179700
-8.880700 1.179700
-8.861600 1.179700
-8.842500 1.179700
-8.823300 1.179700
-8.804200 1.179700
-8.785100 1.179700
-8.765900 1.179700
-8.746800 1.179700
-8.727700 1.179700
-8.708500 1.179700
-8.689400 1.179800
-8.670200 1.179800
-8.651100 1.179800
-8.632000 1.179800
-8.612800 1.179800
-8.593700 1.179800
-8.574600 1.179800
-8.555400 1.179800
-8.536300 1.179800
-8.517200 1.179800
-8.498000 1.179800
-8.478900 1.179800
-8.459800 1.179800
-8.440600 1.179800
-8.421500 1.179800
-8.402300 1.181600
-8.383200 1.254700
-8.364100 1.310100
-8.344900 1.332300
-8.325800 1.390700
-8.306700 1.430400
-8.287500 1.430400
-8.268400 1.430300
-8.249300 1.430300
-8.230100 1.430300
-8.211000 1.430300
-8.191900 1.430300
-8.172700 1.430300
-8.153600 1.430300
-8.134400 1.430300
-8.115300 1.430300
-8.096200 1.430300
-8.077000 1.430300
-8.057900 1.430300
-8.038800 1.430300
-8.019600 1.430300
-8.000500 1.430300
-7.981400 1.430300
-7.962200 1.430300
-7.943100 1.430300
-7.923900 1.430300
-7.904800 1.456900
-7.885700 1.865800
-7.866500 2.198400
-7.847400 2.413200
-7.828300 2.626400
-7.809100 2.893200
-7.790000 3.264100
-7.770900 3.264000
-7.751700 3.263900
-7.732600 3.263900
-7.713500 3.263900
-7.694300 3.239000
-7.675200 2.541200
-7.656000 2.084200
-7.636900 1.622100
-7.617800 1.522500
-7.598600 1.132200
-7.579500 0.783100
-7.560400 0.236300
-7.541200 0.000000
-7.522100 0.000000
-7.503000 0.000000
-7.483800 0.000000
-7.464700 0.000000
-7.445600 0.000000
-7.426400 0.000000
-7.407300 0.000000
-7.388100 0.000000
-7.369000 0.000000
-7.349900 0.000000
-7.330700 0.000000
-7.311600 0.000000
-7.292500 0.000000
-7.273300 0.000000
-7.254200 0.000000
-7.235100 0.000000
-7.215900 0.000000
-7.196800 0.000000
-7.177700 0.000000
-7.158500 0.000000
-7.139400 0.000000
-7.120200 0.000000
-7.101100 0.000000
-7.082000 0.000000
-7.062800 0.000000
-7.043700 0.000000
-7.024600 0.000000
-7.005400 0.000000
-6.986300 0.000000
-6.967200 0.000000
-6.948000 0.000000
-6.928900 0.000000
-6.909800 0.000000
-6.890600 0.000000
-6.871500 0.000000
-6.852300 0.000000
-6.833200 0.000000
-6.814100 0.000000
-6.794900 0.000000
-6.775800 0.000000
-6.756700 0.000000
-6.737500 0.000000
-6.718400 0.000000
-6.699300 0.000000
-6.680100 0.000000
-6.661000 0.000000
-6.641900 0.000000
-6.622700 0.000000
-6.603600 0.000000
-6.584400 0.000000
-6.565300 0.000000
-6.546200 0.000000
-6.527000 0.000000
-6.507900 0.000000
-6.488800 0.000000
-6.469600 0.000000
-6.450500 0.000000
-6.431400 0.000000
-6.412200 0.000000
-6.393100 0.000000
-6.374000 0.000000
-6.354800 0.000000
-6.335700 0.000000
-6.316500 0.000000
-6.297400 0.000000
-6.278300 0.000000
-6.259100 0.000000
-6.240000 0.000000
-6.220900 0.000000
-6.201700 0.000000
-6.182600 0.000000
-6.163500 0.000000
-6.144300 0.000000
-6.125200 0.000000
-6.106000 0.349000
-6.086900 1.475800
-6.067800 2.144900
-6.048600 2.683200
-6.029500 3.246000
-6.010400 3.316900
-5.991200 2.851500
-5.972100 2.639100
-5.953000 2.725200
-5.933800 2.758900
-5.914700 2.802600
-5.895600 2.979900
-5.876400 3.204700
-5.857300 3.369200
-5.838100 3.535000
-5.819000 3.652500
-5.799900 3.634000
-5.780700 3.529100
-5.761600 3.399000
-5.742500 3.259000
-5.723300 3.253700
-5.704200 3.319600
-5.685100 3.646500
-5.665900 4.278400
-5.646800 4.960700
-5.627700 5.902600
-5.608500 6.456500
-5.589400 6.469700
-5.570200 6.249400
-5.551100 5.991200
-5.532000 5.713600
-5.512800 5.446300
-5.493700 5.206100
-5.474600 4.921000
-5.455400 4.534100
-5.436300 4.200700
-5.417200 3.848400
-5.398000 3.830600
-5.378900 3.820100
-5.359800 3.813500
-5.340600 3.792400
-5.321500 3.817300
-5.302300 4.045200
-5.283200 4.289000
-5.264100 4.360000
-5.244900 4.371000
-5.225800 4.453700
-5.206700 4.549700
-5.187500 4.632100
-5.168400 4.718700
-5.149300 4.822600
-5.130100 4.952800
-5.111000 5.111900
-5.091900 5.284600
-5.072700 5.473500
-5.053600 5.691700
-5.034400 5.972600
-5.015300 6.227800
-4.996200 6.254000
-4.977000 6.193800
-4.957900 6.211300
-4.938800 6.233800
-4.919600 6.227200
-4.900500 6.228400
-4.881400 6.251300
-4.862200 6.269800
-4.843100 6.291700
-4.824000 6.393300
-4.804800 6.517300
-4.785700 6.630800
-4.766500 6.738800
-4.747400 6.984700
-4.728300 7.334800
-4.709100 7.638500
-4.690000 7.715700
-4.670900 7.677100
-4.651700 7.715500
-4.632600 7.799400
-4.613500 7.927000
-4.594300 7.873000
-4.575200 7.507700
-4.556100 7.217300
-4.536900 7.109500
-4.517800 7.006900
-4.498600 6.886000
-4.479500 6.789800
-4.460400 6.689100
-4.441200 7.659400
-4.422100 8.566200
-4.403000 12.760000
-4.383800 8.236200
-4.364700 8.023500
-4.345600 8.058000
-4.326400 7.128000
-4.307300 4.764100
-4.288200 4.479500
-4.269000 4.466300
-4.249900 4.595800
-4.230700 4.830000
-4.211600 4.755100
-4.192500 4.850800
-4.173300 4.970600
-4.154200 5.100300
-4.135100 5.300000
-4.115900 5.769800
-4.096800 6.559300
-4.077700 6.527000
-4.058500 6.757300
-4.039400 6.499200
-4.020200 5.209900
-4.001100 5.085700
-3.982000 6.157500
-3.962800 5.805400
-3.943700 3.689000
-3.924600 3.177800
-3.905400 2.256500
-3.886300 1.974600
-3.867200 1.872700
-3.848000 1.724800
-3.828900 1.601700
-3.809800 2.199300
-3.790600 1.366100
-3.771500 1.185900
-3.752300 0.998800
-3.733200 1.573200
-3.714100 1.663400
-3.694900 1.653700
-3.675800 1.495500
-3.656700 1.373600
-3.637500 1.212700
-3.618400 1.268700
-3.599300 1.547000
-3.580100 1.405000
-3.561000 1.312500
-3.541900 1.369900
-3.522700 1.398400
-3.503600 1.403300
-3.484400 1.428700
-3.465300 1.469800
-3.446200 1.520400
-3.427000 1.676900
-3.407900 1.738900
-3.388800 1.800100
-3.369600 1.932200
-3.350500 2.249200
-3.331400 2.362200
-3.312200 2.176200
-3.293100 2.124700
-3.274000 2.122200
-3.254800 2.069200
-3.235700 1.572100
-3.216500 1.564200
-3.197400 1.556100
-3.178300 1.548000
-3.159100 1.538900
-3.140000 1.527300
-3.120900 1.517700
-3.101700 1.509900
-3.082600 1.503500
-3.063500 1.497400
-3.044300 1.492100
-3.025200 1.487000
-3.006100 1.482200
-2.986900 1.477300
-2.967800 1.471500
-2.948600 1.465500
-2.929500 1.459400
-2.910400 1.453100
-2.891200 1.444700
-2.872100 1.435600
-2.853000 1.429400
-2.833800 1.424300
-2.814700 1.419800
-2.795600 1.418100
-2.776400 1.418200
-2.757300 1.418400
-2.738200 1.417500
-2.719000 1.415500
-2.699900 1.413400
-2.680700 1.411000
-2.661600 1.408200
-2.642500 1.404800
-2.623300 1.400900
-2.604200 1.398000
-2.585100 1.395000
-2.565900 1.392400
-2.546800 1.390600
-2.527700 1.388800
-2.508500 1.386900
-2.489400 1.384800
-2.470300 1.381800
-2.451100 1.378900
-2.432000 1.375900
-2.412800 1.373000
-2.393700 1.369300
-2.374600 1.381800
-2.355400 1.669000
-2.336300 1.869800
-2.317200 1.873000
-2.298000 2.510600
-2.278900 2.977100
-2.259800 3.983800
-2.240600 4.433500
-2.221500 4.827800
-2.202300 4.739200
-2.183200 4.944900
-2.164100 5.254200
-2.144900 4.893300
-2.125800 4.533600
-2.106700 4.258400
-2.087500 3.782600
-2.068400 3.777200
-2.049300 3.767500
-2.030100 3.760000
-2.011000 3.751600
-1.991900 3.740800
-1.972700 3.720000
-1.953600 3.688300
-1.934400 4.613100
-1.915300 5.848000
-1.896200 6.197900
-1.877000 6.104600
-1.857900 6.242300
-1.838800 6.489200
-1.819600 6.986000
-1.800500 8.035800
-1.781400 7.503300
-1.762200 7.435600
-1.743100 6.053800
-1.724000 6.053700
-1.704800 6.053900
-1.685700 6.122600
