set title 'mp-1080826 - Density of States'
set xlabel 'Energy (eV)'
set ylabel 'DOS (states/eV)'
set grid
set xrange [-10:10]
set yrange [0:4.089]
set xzeroaxis lt -1
set terminal png size 800,600
set output 'mp-1080826_dos_gnuplot.png'
plot '-' using 1:2 with lines title 'DOS'
-15.125500 0.000000
-15.094600 0.000000
-15.063800 0.000000
-15.032900 0.000000
-15.002100 0.000000
-14.971200 0.000000
-14.940300 0.000000
-14.909500 0.000000
-14.878600 0.000000
-14.847800 0.000000
-14.816900 0.000000
-14.786000 0.000000
-14.755200 0.000000
-14.724300 0.000000
-14.693500 0.000000
-14.662600 0.000000
-14.631700 0.000000
-14.600900 0.000000
-14.570000 0.000000
-14.539200 0.000000
-14.508300 0.000000
-14.477500 0.000000
-14.446600 0.000000
-14.415700 0.000000
-14.384900 0.000000
-14.354000 0.000000
-14.323200 0.000000
-14.292300 0.000000
-14.261400 0.000000
-14.230600 0.000000
-14.199700 0.000000
-14.168900 0.000000
-14.138000 0.000000
-14.107100 0.000000
-14.076300 0.000000
-14.045400 0.000000
-14.014600 0.000000
-13.983700 0.000000
-13.952800 0.000000
-13.922000 0.000000
-13.891100 0.000000
-13.860300 0.000000
-13.829400 0.000000
-13.798500 0.000000
-13.767700 0.000000
-13.736800 0.000000
-13.706000 0.000000
-13.675100 0.000000
-13.644200 0.000000
-13.613400 0.000000
-13.582500 0.000000
-13.551700 0.000000
-13.520800 0.000000
-13.489900 0.000000
-13.459100 0.000000
-13.428200 0.000000
-13.397400 0.000000
-13.366500 0.000000
-13.335600 0.000000
-13.304800 0.000000
-13.273900 0.000000
-13.243100 0.000000
-13.212200 0.000000
-13.181300 0.000000
-13.150500 0.000000
-13.119600 0.000000
-13.088800 0.000000
-13.057900 0.000000
-13.027000 0.000000
-12.996200 0.000000
-12.965300 0.000000
-12.934500 0.000000
-12.903600 0.000000
-12.872700 0.000000
-12.841900 0.000000
-12.811000 0.000000
-12.780200 0.000000
-12.749300 0.000000
-12.718400 0.000000
-12.687600 0.000000
-12.656700 0.000000
-12.625900 0.000000
-12.595000 0.000000
-12.564100 0.000000
-12.533300 0.000000
-12.502400 0.000000
-12.471600 0.000000
-12.440700 0.000000
-12.409800 0.000000
-12.379000 0.000000
-12.348100 0.000000
-12.317300 0.000100
-12.286400 0.007300
-12.255500 0.027000
-12.224700 0.058900
-12.193800 0.092700
-12.163000 0.122200
-12.132100 0.148200
-12.101200 0.173800
-12.070400 0.199900
-12.039500 0.227100
-12.008700 0.255300
-11.977800 0.284500
-11.947000 0.314800
-11.916100 0.343000
-11.885200 0.358300
-11.854400 0.370500
-11.823500 0.380900
-11.792700 0.393800
-11.761800 0.406600
-11.730900 0.419100
-11.700100 0.432100
-11.669200 0.446200
-11.638400 0.461100
-11.607500 0.476400
-11.576600 0.503900
-11.545800 0.531900
-11.514900 0.555400
-11.484100 0.572600
-11.453200 0.587400
-11.422300 0.602300
-11.391500 0.617000
-11.360600 0.629800
-11.329800 0.640600
-11.298900 0.650000
-11.268000 0.657700
-11.237200 0.663500
-11.206300 0.667300
-11.175500 0.669500
-11.144600 0.671300
-11.113700 0.676900
-11.082900 0.686700
-11.052000 0.695700
-11.021200 0.701700
-10.990300 0.706300
-10.959400 0.708900
-10.928600 0.710300
-10.897700 0.711000
-10.866900 0.711100
-10.836000 0.712000
-10.805100 0.711300
-10.774300 0.705200
-10.743400 0.693800
-10.712600 0.677500
-10.681700 0.657900
-10.650800 0.637400
-10.620000 0.618200
-10.589100 0.600300
-10.558300 0.582500
-10.527400 0.563000
-10.496500 0.540400
-10.465700 0.519200
-10.434800 0.500900
-10.404000 0.485700
-10.373100 0.473400
-10.342200 0.464100
-10.311400 0.457600
-10.280500 0.453500
-10.249700 0.450300
-10.218800 0.449500
-10.187900 0.451300
-10.157100 0.455100
-10.126200 0.459900
-10.095400 0.509800
-10.064500 0.532500
-10.033600 0.558000
-10.002800 0.586300
-9.971900 0.616500
-9.941100 0.642200
-9.910200 0.672900
-9.879300 0.712500
-9.848500 0.758700
-9.817600 0.811700
-9.786800 0.846700
-9.755900 0.875300
-9.725000 0.899300
-9.694200 0.924100
-9.663300 0.949100
-9.632500 0.968200
-9.601600 0.981600
-9.570700 0.989800
-9.539900 0.991900
-9.509000 0.988100
-9.478200 0.978200
-9.447300 0.952800
-9.416500 0.932200
-9.385600 0.922500
-9.354700 0.912300
-9.323900 0.902100
-9.293000 0.894200
-9.262200 0.887500
-9.231300 0.881800
-9.200400 0.876900
-9.169600 0.871900
-9.138700 0.866800
-9.107900 0.861500
-9.077000 0.855200
-9.046100 0.854700
-9.015300 0.855700
-8.984400 0.859000
-8.953600 0.870100
-8.922700 0.885400
-8.891800 0.903700
-8.861000 0.922200
-8.830100 0.942300
-8.799300 0.975400
-8.768400 1.029900
-8.737500 1.078500
-8.706700 1.105800
-8.675800 1.110100
-8.645000 1.103300
-8.614100 1.094100
-8.583200 1.081900
-8.552400 1.068400
-8.521500 1.055300
-8.490700 1.039100
-8.459800 1.019800
-8.428900 0.999000
-8.398100 0.974600
-8.367200 0.947900
-8.336400 0.924900
-8.305500 0.902100
-8.274600 0.878900
-8.243800 0.854800
-8.212900 0.842200
-8.182100 0.841400
-8.151200 0.845100
-8.120300 0.850000
-8.089500 0.856600
-8.058600 0.864500
-8.027800 0.874200
-7.996900 0.886100
-7.966000 0.899800
-7.935200 0.912200
-7.904300 0.920500
-7.873500 0.927800
-7.842600 0.931900
-7.811700 0.928000
-7.780900 0.913200
-7.750000 0.889300
-7.719200 0.864700
-7.688300 0.826300
-7.657400 0.776900
-7.626600 0.736200
-7.595700 0.712800
-7.564900 0.706200
-7.534000 0.711200
-7.503100 0.728100
-7.472300 0.707800
-7.441400 0.696700
-7.410600 0.699800
-7.379700 0.711200
-7.348800 0.720200
-7.318000 0.712200
-7.287100 0.710600
-7.256300 0.720300
-7.225400 0.730300
-7.194500 0.740700
-7.163700 0.751500
-7.132800 0.764600
-7.102000 0.793500
-7.071100 0.828300
-7.040200 0.869600
-7.009400 0.917600
-6.978500 0.970400
-6.947700 1.032700
-6.916800 1.107200
-6.886000 1.178000
-6.855100 1.241400
-6.824200 1.294200
-6.793400 1.340400
-6.762500 1.385000
-6.731700 1.446400
-6.700800 1.494900
-6.669900 1.525200
-6.639100 1.528500
-6.608200 1.509700
-6.577400 1.509700
-6.546500 1.532400
-6.515600 1.558700
-6.484800 1.588100
-6.453900 1.627300
-6.423100 1.691100
-6.392200 1.785500
-6.361300 1.895400
-6.330500 1.925400
-6.299600 1.806800
-6.268800 1.694600
-6.237900 1.623300
-6.207000 1.572400
-6.176200 1.509000
-6.145300 1.465300
-6.114500 1.432100
-6.083600 1.407600
-6.052700 1.393400
-6.021900 1.385400
-5.991000 1.377700
-5.960200 1.425400
-5.929300 1.374400
-5.898400 1.368700
-5.867600 1.397800
-5.836700 1.427100
-5.805900 1.453400
-5.775000 1.459200
-5.744100 1.441800
-5.713300 1.411400
-5.682400 1.383200
-5.651600 1.375300
-5.620700 1.381100
-5.589800 1.398200
-5.559000 1.427400
-5.528100 1.459800
-5.497300 1.496100
-5.466400 1.491600
-5.435500 1.470100
-5.404700 1.442800
-5.373800 1.421600
-5.343000 1.400500
-5.312100 1.374600
-5.281200 1.344100
-5.250400 1.292300
-5.219500 1.242000
-5.188700 1.188000
-5.157800 1.140100
-5.126900 1.098900
-5.096100 1.063100
-5.065200 1.032000
-5.034400 0.994500
-5.003500 0.944500
-4.972600 0.901900
-4.941800 0.865300
-4.910900 0.818600
-4.880100 0.762200
-4.849200 0.705300
-4.818300 0.698700
-4.787500 0.694500
-4.756600 0.692700
-4.725800 0.693200
-4.694900 0.695800
-4.664000 0.702900
-4.633200 0.719500
-4.602300 0.754200
-4.571500 0.807200
-4.540600 0.881700
-4.509700 1.022200
-4.478900 1.169300
-4.448000 1.358500
-4.417200 1.595600
-4.386300 1.776200
-4.355500 1.865400
-4.324600 1.916400
-4.293700 1.915600
-4.262900 1.724600
-4.232000 1.457900
-4.201200 1.281700
-4.170300 1.181400
-4.139400 1.093500
-4.108600 0.995500
-4.077700 0.902500
-4.046900 0.843700
-4.016000 0.801800
-3.985100 0.770100
-3.954300 0.738200
-3.923400 0.709400
-3.892600 0.688300
-3.861700 0.672400
-3.830800 0.658900
-3.800000 0.655800
-3.769100 0.670500
-3.738300 0.703500
-3.707400 0.809600
-3.676500 1.036000
-3.645700 1.134500
-3.614800 1.188900
-3.584000 1.325500
-3.553100 1.437800
-3.522200 1.530000
-3.491400 1.606000
-3.460500 1.675300
-3.429700 1.737900
-3.398800 1.792500
-3.367900 1.823200
-3.337100 1.720900
-3.306200 1.643800
-3.275400 1.645000
-3.244500 1.680400
-3.213600 1.729900
-3.182800 1.733500
-3.151900 1.654500
-3.121100 1.682300
-3.090200 1.725100
-3.059300 1.744200
-3.028500 1.740000
-2.997600 1.711500
-2.966800 1.682600
-2.935900 1.673000
-2.905000 1.644100
-2.874200 1.619600
-2.843300 1.594100
-2.812500 1.587600
-2.781600 1.674800
-2.750700 1.656300
-2.719900 1.623900
-2.689000 1.598700
-2.658200 1.602800
-2.627300 1.584300
-2.596400 1.541800
-2.565600 1.461300
-2.534700 1.353300
-2.503900 1.259300
-2.473000 1.170400
-2.442100 1.095200
-2.411300 1.034700
-2.380400 0.984900
-2.349600 0.946300
-2.318700 0.917400
-2.287800 0.893600
-2.257000 0.902000
-2.226100 0.950500
-2.195300 0.962300
-2.164400 0.982200
-2.133500 1.017900
-2.102700 1.072400
-2.071800 1.147500
-2.041000 1.239800
-2.010100 1.333400
-1.979200 1.438000
-1.948400 1.559100
-1.917500 1.643100
-1.886700 1.608000
-1.855800 1.611000
-1.825000 1.639700
-1.794100 1.674300
-1.763200 1.704000
-1.732400 1.728400
-1.701500 1.753100
-1.670700 1.789100
-1.639800 1.851600
-1.608900 1.865200
-1.578100 1.851200
-1.547200 1.809400
-1.516400 1.738800
-1.485500 1.664100
-1.454600 1.653300
-1.423800 1.613000
-1.392900 1.558100
-1.362100 1.490600
-1.331200 1.430000
-1.300300 1.380900
-1.269500 1.327500
-1.238600 1.272300
-1.207800 1.220800
-1.176900 1.171900
-1.146000 1.175200
-1.115200 1.223200
-1.084300 1.321400
-1.053500 1.134300
-1.022600 1.138200
-0.991700 1.157100
-0.960900 1.186600
-0.930000 1.228800
-0.899200 1.274000
-0.868300 1.319400
-0.837400 1.360500
-0.806600 1.372500
-0.775700 1.383000
-0.744900 1.391100
-0.714000 1.399300
-0.683100 1.405800
-0.652300 1.405600
-0.621400 1.401200
-0.590600 1.407800
-0.559700 1.429600
-0.528800 1.461600
-0.498000 1.513300
-0.467100 1.584200
-0.436300 1.659400
-0.405400 1.727600
-0.374500 1.779900
-0.343700 1.812200
-0.312800 1.825600
-0.282000 1.830300
-0.251100 1.822200
-0.220200 1.811500
-0.189400 1.825100
-0.158500 1.846400
-0.127700 1.857300
-0.096800 1.870000
-0.065900 1.882600
-0.035100 1.902900
-0.004200 1.920100
0.026600 1.907800
0.057500 1.863300
0.088400 1.815100
0.119200 1.775900
0.150100 1.757200
0.180900 1.793000
0.211800 1.813100
0.242700 1.858100
0.273500 1.914200
0.304400 1.974300
0.335200 2.026600
0.366100 2.069900
0.397000 2.076400
0.427800 2.089900
0.458700 2.110800
0.489500 2.139000
0.520400 2.171100
0.551300 2.151900
0.582100 2.135100
0.613000 2.146700
0.643800 2.179100
0.674700 2.215100
0.705500 2.243300
0.736400 2.259900
0.767300 2.277700
0.798100 2.268000
0.829000 2.193000
0.859800 2.186300
0.890700 2.152600
0.921600 2.109100
0.952400 2.068500
0.983300 2.030500
1.014100 1.996100
1.045000 1.925700
1.075900 1.864400
1.106700 1.825100
1.137600 1.772000
1.168400 1.755300
1.199300 1.812800
1.230200 1.825600
1.261000 1.697500
1.291900 1.678000
1.322700 1.679900
1.353600 1.695400
1.384500 1.724100
1.415300 1.763300
1.446200 1.783800
1.477000 1.847200
1.507900 1.937000
1.538800 2.015600
1.569600 2.078900
1.600500 2.136500
1.631300 2.197400
1.662200 2.291300
1.693100 2.378800
1.723900 2.088600
1.754800 2.012700
1.785600 1.996200
1.816500 2.007900
1.847400 2.019400
1.878200 2.026700
1.909100 2.030400
1.939900 2.033000
1.970800 2.046400
2.001700 2.098200
2.032500 2.067200
2.063400 2.056000
2.094200 2.097600
2.125100 2.118500
2.156000 2.151500
2.186800 2.192100
2.217700 2.207300
2.248500 2.263600
2.279400 2.390300
2.310300 2.314200
2.341100 2.278900
2.372000 2.294100
2.402800 2.292100
2.433700 2.278800
2.464600 2.261600
2.495400 2.239100
2.526300 2.211000
2.557100 2.205400
2.588000 2.207100
2.618900 2.224100
2.649700 2.258800
2.680600 2.326700
2.711400 2.401600
2.742300 2.438000
2.773200 2.464300
2.804000 2.481800
2.834900 2.463100
2.865700 2.496900
2.896600 2.597300
2.927500 2.670100
2.958300 2.742800
2.989200 2.832600
3.020000 2.912400
3.050900 2.955400
3.081800 2.958600
3.112600 2.984600
3.143500 2.855700
3.174300 2.755200
3.205200 2.689900
3.236100 2.648500
3.266900 2.661300
3.297800 2.672800
3.328600 2.647100
3.359500 2.635700
3.390300 2.660400
3.421200 2.708900
3.452100 2.772100
3.482900 2.847200
3.513800 2.899900
3.544600 3.002100
3.575500 3.031200
3.606400 3.062500
3.637200 3.095500
3.668100 3.086400
3.698900 3.052200
3.729800 3.017600
3.760700 2.980700
3.791500 2.928900
3.822400 2.850300
3.853200 2.782100
3.884100 2.716900
3.915000 2.659400
3.945800 2.617000
3.976700 2.608800
4.007500 2.618000
4.038400 2.654100
4.069300 2.726300
4.100100 2.839500
4.131000 2.858500
4.161800 2.846200
4.192700 2.895400
4.223600 2.961500
4.254400 3.007200
4.285300 2.948100
4.316100 2.852700
4.347000 2.779900
4.377900 2.768600
4.408700 2.764800
4.439600 2.776000
4.470400 2.801400
4.501300 2.826300
4.532200 2.869900
4.563000 2.929300
4.593900 2.961500
4.624700 3.020900
4.655600 3.144600
4.686500 3.271800
4.717300 3.404500
4.748200 3.684000
4.779000 3.717300
4.809900 3.402300
4.840800 3.190300
4.871600 3.101600
4.902500 3.041800
4.933300 3.001600
4.964200 2.960300
4.995100 2.961200
5.025900 2.981300
5.056800 3.023500
5.087600 3.091100
5.118500 3.023900
5.149400 2.985000
5.180200 2.953100
5.211100 2.906200
5.241900 2.862800
5.272800 2.857200
5.303700 2.901300
5.334500 2.866400
5.365400 2.787800
5.396200 2.798800
5.427100 2.819600
5.458000 2.833300
5.488800 2.853400
5.519700 2.877200
5.550500 2.981500
5.581400 2.956300
5.612300 2.942100
5.643100 2.956900
5.674000 2.978000
5.704800 3.003800
5.735700 3.035200
5.766600 3.072600
5.797400 3.103500
5.828300 3.114100
5.859100 3.110600
5.890000 3.112800
5.920800 3.065500
5.951700 3.026600
5.982600 3.000800
6.013400 2.984400
6.044300 2.994600
6.075100 2.937100
6.106000 2.837200
6.136900 2.790900
6.167700 2.727900
6.198600 2.692300
6.229400 2.653800
6.260300 2.597900
6.291200 2.521700
6.322000 2.448600
6.352900 2.403700
6.383700 2.374700
6.414600 2.351600
6.445500 2.328300
6.476300 2.304800
6.507200 2.279900
6.538000 2.250200
6.568900 2.217700
6.599800 2.182400
6.630600 2.141100
6.661500 2.097200
6.692300 2.037200
6.723200 1.973200
6.754100 1.911300
6.784900 1.853500
6.815800 1.821800
6.846600 1.799200
6.877500 1.779400
6.908400 1.770400
6.939200 1.760500
6.970100 1.734600
7.000900 1.719600
7.031800 1.677000
7.062700 1.624300
7.093500 1.570500
7.124400 1.538900
7.155200 1.530100
7.186100 1.525800
7.217000 1.509500
7.247800 1.462000
7.278700 1.405100
7.309500 1.351600
7.340400 1.304000
7.371300 1.253400
7.402100 1.212700
7.433000 1.174600
7.463800 1.129200
7.494700 1.072100
7.525600 1.021100
7.556400 0.986200
7.587300 0.952500
7.618100 0.919700
7.649000 0.885400
7.679900 0.838100
7.710700 0.793200
7.741600 0.755200
7.772400 0.715800
7.803300 0.672000
7.834200 0.629800
7.865000 0.589800
7.895900 0.556100
7.926700 0.524700
7.957600 0.493300
7.988500 0.462300
8.019300 0.431000
8.050200 0.400300
8.081000 0.370600
8.111900 0.345500
8.142800 0.321700
8.173600 0.298400
8.204500 0.273900
8.235300 0.250100
8.266200 0.227800
8.297100 0.206700
8.327900 0.186600
8.358800 0.166400
8.389600 0.146000
8.420500 0.125500
8.451300 0.105200
8.482200 0.085200
8.513100 0.066800
8.543900 0.051300
8.574800 0.038800
8.605600 0.029000
8.636500 0.021000
8.667400 0.014200
8.698200 0.008800
8.729100 0.004600
8.759900 0.001800
8.790800 0.000300
8.821700 0.000000
8.852500 0.000000
8.883400 0.000000
8.914200 0.000000
8.945100 0.000000
8.976000 0.000000
9.006800 0.000000
9.037700 0.000000
9.068500 0.000000
9.099400 0.000000
9.130300 0.000000
9.161100 0.000000
9.192000 0.000000
9.222800 0.000000
9.253700 0.000000
9.284600 0.000000
9.315400 0.000000
9.346300 0.000000
9.377100 0.000000
9.408000 0.000000
9.438900 0.000000
9.469700 0.000000
9.500600 0.000000
9.531400 0.000000
9.562300 0.000000
9.593200 0.000000
9.624000 0.000000
9.654900 0.000000
9.685700 0.000000
9.716600 0.000000
9.747500 0.000000
9.778300 0.000000
9.809200 0.000000
9.840000 0.000000
9.870900 0.000000
9.901800 0.000000
9.932600 0.000000
9.963500 0.000000
9.994300 0.000000
10.025200 0.000000
10.056100 0.000000
10.086900 0.000000
10.117800 0.000000
10.148600 0.000000
10.179500 0.000000
10.210400 0.000000
10.241200 0.000000
10.272100 0.000000
10.302900 0.000000
10.333800 0.000000
10.364700 0.000000
10.395500 0.000000
10.426400 0.000000
10.457200 0.000000
10.488100 0.000000
10.519000 0.000000
10.549800 0.000000
10.580700 0.000000
10.611500 0.000000
10.642400 0.000000
10.673300 0.000000
10.704100 0.000000
10.735000 0.000000
10.765800 0.000000
10.796700 0.000000
10.827600 0.000000
10.858400 0.000000
10.889300 0.000000
10.920100 0.000000
10.951000 0.000000
10.981800 0.000000
11.012700 0.000000
11.043600 0.000000
11.074400 0.000000
11.105300 0.000000
11.136100 0.000000
11.167000 0.000000
11.197900 0.000000
11.228700 0.000000
11.259600 0.000000
11.290400 0.000000
11.321300 0.000000
11.352200 0.000000
11.383000 0.000000
11.413900 0.000000
11.444700 0.000000
11.475600 0.000000
11.506500 0.000000
11.537300 0.000000
11.568200 0.000000
11.599000 0.000000
11.629900 0.000000
11.660800 0.000000
11.691600 0.000000
11.722500 0.000000
11.753300 0.000000
11.784200 0.000000
11.815100 0.000000
11.845900 0.000000
11.876800 0.000000
11.907600 0.000000
11.938500 0.000000
11.969400 0.000000
12.000200 0.000000
12.031100 0.000000
12.061900 0.000000
12.092800 0.000000
12.123700 0.000000
12.154500 0.000000
12.185400 0.000000
12.216200 0.000000
12.247100 0.000000
12.278000 0.000000
12.308800 0.000000
12.339700 0.000000
12.370500 0.007400
12.401400 0.014800
12.432300 0.020600
12.463100 0.026700
12.494000 0.033100
12.524800 0.039900
12.555700 0.047000
12.586600 0.054400
12.617400 0.062100
12.648300 0.069900
12.679100 0.078000
12.710000 0.086200
12.740900 0.094800
12.771700 0.103800
12.802600 0.113200
12.833400 0.123200
12.864300 0.133600
12.895200 0.144600
12.926000 0.156000
12.956900 0.168000
12.987700 0.180800
13.018600 0.195200
13.049500 0.212100
13.080300 0.234500
13.111200 0.260900
13.142000 0.291200
13.172900 0.323200
13.203800 0.356400
13.234600 0.387900
13.265500 0.417200
13.296300 0.452200
13.327200 0.513800
13.358100 0.623900
13.388900 0.746600
13.419800 0.880600
13.450600 1.037900
13.481500 1.258400
13.512300 1.497000
13.543200 1.735900
13.574100 1.852600
13.604900 1.946000
13.635800 2.040700
13.666600 2.209000
13.697500 1.981100
13.728400 1.892900
13.759200 1.858500
13.790100 1.781300
13.820900 1.692900
13.851800 1.516500
13.882700 1.471900
13.913500 1.431500
13.944400 1.400100
13.975200 1.375500
14.006100 1.357100
14.037000 1.344800
14.067800 1.339100
14.098700 1.340800
14.129500 1.348700
14.160400 1.362500
14.191300 1.387000
14.222100 1.420700
14.253000 1.458200
14.283800 1.504600
14.314700 1.564700
14.345600 1.608000
14.376400 1.627900
14.407300 1.611700
14.438100 1.624600
14.469000 1.634600
14.499900 1.654000
14.530700 1.684900
14.561600 1.731200
14.592400 1.792400
14.623300 1.880400
14.654200 2.001500
14.685000 2.155000
14.715900 2.431800
14.746700 2.667200
14.777600 2.939500
14.808500 3.037400
14.839300 3.037300
14.870200 3.057600
14.901000 3.015100
14.931900 2.779800
14.962800 2.490500
14.993600 2.345800
15.024500 2.288400
15.055300 2.225900
15.086200 2.146500
15.117100 2.011200
15.147900 1.903400
15.178800 1.918500
15.209600 2.036500
15.240500 2.205900
15.271400 2.354300
15.302200 2.512500
15.333100 2.723900
15.363900 2.529600
15.394800 2.577400
15.425700 2.640800
15.456500 2.715400
15.487400 2.803000
15.518200 2.799900
15.549100 2.919500
15.580000 3.191600
15.610800 3.315600
15.641700 3.351800
15.672500 3.483500
15.703400 3.412300
15.734300 3.531700
15.765100 3.511900
15.796000 3.187600
15.826800 3.012200
15.857700 2.880500
15.888600 2.751200
15.919400 2.622300
15.950300 2.505400
15.981100 2.359000
16.012000 2.238300
16.042800 2.099400
16.073700 1.953500
16.104600 1.865400
16.135400 1.953000
16.166300 2.080200
16.197100 2.039100
16.228000 2.023800
16.258900 2.029500
16.289700 2.047100
16.320600 2.115300
16.351400 2.144100
16.382300 2.180200
16.413200 2.272800
16.444000 2.347200
16.474900 2.405200
16.505700 2.515400
16.536600 2.684000
16.567500 2.821400
16.598300 2.910500
16.629200 3.028400
16.660000 3.153800
16.690900 3.286900
16.721800 3.433100
16.752600 3.594800
16.783500 3.900700
16.814300 4.041500
16.845200 4.036400
16.876100 3.758400
16.906900 3.510100
16.937800 3.493700
16.968600 3.565100
16.999500 3.588100
17.030400 3.598800
17.061200 3.583900
17.092100 3.498700
17.122900 3.498800
