set title 'mp-1079720 - Density of States'
set xlabel 'Energy (eV)'
set ylabel 'DOS (states/eV)'
set grid
set xrange [-10:10]
set yrange [0:23.832]
set xzeroaxis lt -1
set terminal png size 800,600
set output 'mp-1079720_dos_gnuplot.png'
plot '-' using 1:2 with lines title 'DOS'
-19.057100 0.000000
-19.030500 0.000000
-19.003900 0.000000
-18.977300 0.000000
-18.950700 0.000000
-18.924200 0.000000
-18.897600 0.000000
-18.871000 0.000000
-18.844400 0.000000
-18.817800 0.000000
-18.791300 0.000000
-18.764700 0.000000
-18.738100 0.000000
-18.711500 0.000000
-18.684900 0.000000
-18.658400 0.000000
-18.631800 0.000000
-18.605200 0.000000
-18.578600 0.000000
-18.552000 0.000000
-18.525500 0.000000
-18.498900 0.000000
-18.472300 0.000000
-18.445700 0.000000
-18.419100 0.000000
-18.392600 0.000000
-18.366000 0.000000
-18.339400 0.000000
-18.312800 0.000000
-18.286300 0.000000
-18.259700 0.000000
-18.233100 0.000000
-18.206500 0.000000
-18.179900 0.000000
-18.153400 0.000000
-18.126800 0.000000
-18.100200 0.000000
-18.073600 0.000000
-18.047000 0.000000
-18.020500 0.000000
-17.993900 0.000000
-17.967300 0.000000
-17.940700 0.000000
-17.914100 0.000000
-17.887600 0.000000
-17.861000 0.000000
-17.834400 0.000000
-17.807800 0.000000
-17.781200 0.000000
-17.754700 0.000000
-17.728100 0.000000
-17.701500 0.000000
-17.674900 0.000000
-17.648300 0.000000
-17.621800 0.000000
-17.595200 0.000000
-17.568600 0.000000
-17.542000 0.000000
-17.515400 0.000000
-17.488900 0.000000
-17.462300 0.000000
-17.435700 0.000000
-17.409100 0.000000
-17.382600 0.000000
-17.356000 0.000000
-17.329400 0.000000
-17.302800 0.000000
-17.276200 0.000000
-17.249700 0.000000
-17.223100 0.000000
-17.196500 0.000000
-17.169900 0.000000
-17.143300 0.000000
-17.116800 0.000000
-17.090200 0.000000
-17.063600 0.000000
-17.037000 0.000000
-17.010400 0.000000
-16.983900 0.000000
-16.957300 0.000000
-16.930700 0.000000
-16.904100 0.000000
-16.877500 0.000000
-16.851000 0.000000
-16.824400 0.000000
-16.797800 0.000000
-16.771200 0.000000
-16.744600 0.000000
-16.718100 0.000000
-16.691500 0.000000
-16.664900 0.000000
-16.638300 0.008500
-16.611700 0.897700
-16.585200 1.306700
-16.558600 1.756400
-16.532000 2.240600
-16.505400 2.809500
-16.478800 3.603700
-16.452300 3.846700
-16.425700 4.077900
-16.399100 4.356200
-16.372500 4.544700
-16.346000 4.867100
-16.319400 5.395800
-16.292800 6.259000
-16.266200 7.494100
-16.239600 6.923100
-16.213100 9.327000
-16.186500 6.671000
-16.159900 8.688700
-16.133300 12.569000
-16.106700 10.050900
-16.080200 7.690700
-16.053600 7.293400
-16.027000 7.867500
-16.000400 7.519600
-15.973800 15.028000
-15.947300 8.365800
-15.920700 22.327900
-15.894100 22.097800
-15.867500 34.765200
-15.840900 32.817900
-15.814400 24.842700
-15.787800 5.170000
-15.761200 0.000000
-15.734600 0.000000
-15.708000 0.000000
-15.681500 0.000000
-15.654900 0.000000
-15.628300 0.000000
-15.601700 0.000000
-15.575100 0.000000
-15.548600 0.000000
-15.522000 0.000000
-15.495400 0.000000
-15.468800 0.000000
-15.442300 0.000000
-15.415700 0.000000
-15.389100 0.000000
-15.362500 0.000000
-15.335900 0.000000
-15.309400 0.000000
-15.282800 0.000000
-15.256200 0.000000
-15.229600 0.000000
-15.203000 0.000000
-15.176500 0.000000
-15.149900 0.000000
-15.123300 0.000000
-15.096700 0.000000
-15.070100 0.000000
-15.043600 0.000000
-15.017000 0.000000
-14.990400 0.000000
-14.963800 0.000000
-14.937200 0.000000
-14.910700 0.000000
-14.884100 0.000000
-14.857500 0.000000
-14.830900 0.000000
-14.804300 0.000000
-14.777800 0.000000
-14.751200 0.000000
-14.724600 0.000000
-14.698000 0.000000
-14.671400 0.000000
-14.644900 0.000000
-14.618300 0.000000
-14.591700 0.000000
-14.565100 0.000000
-14.538600 0.000000
-14.512000 0.000000
-14.485400 0.000000
-14.458800 0.000000
-14.432200 0.000000
-14.405700 0.000000
-14.379100 0.000000
-14.352500 0.000000
-14.325900 0.000000
-14.299300 0.000000
-14.272800 0.000000
-14.246200 0.000000
-14.219600 0.000000
-14.193000 0.000000
-14.166400 0.000000
-14.139900 0.000000
-14.113300 0.000000
-14.086700 0.000000
-14.060100 0.000000
-14.033500 0.000000
-14.007000 0.000000
-13.980400 0.000000
-13.953800 0.000000
-13.927200 0.000000
-13.900600 0.000000
-13.874100 0.000000
-13.847500 0.000000
-13.820900 0.000000
-13.794300 0.000000
-13.767700 0.000000
-13.741200 0.000000
-13.714600 0.000000
-13.688000 0.000000
-13.661400 0.000000
-13.634800 0.000000
-13.608300 0.000000
-13.581700 0.000000
-13.555100 0.000000
-13.528500 0.000000
-13.502000 0.000000
-13.475400 0.000000
-13.448800 0.000000
-13.422200 0.000000
-13.395600 0.000000
-13.369100 0.000000
-13.342500 0.000000
-13.315900 0.000000
-13.289300 0.000000
-13.262700 0.000000
-13.236200 0.000000
-13.209600 0.000000
-13.183000 0.000000
-13.156400 0.000000
-13.129800 0.000000
-13.103300 0.000000
-13.076700 0.000000
-13.050100 0.000000
-13.023500 0.000000
-12.996900 0.000000
-12.970400 0.000000
-12.943800 0.000000
-12.917200 0.000000
-12.890600 0.000000
-12.864000 0.000000
-12.837500 0.000000
-12.810900 0.000000
-12.784300 0.000000
-12.757700 0.000000
-12.731100 0.000000
-12.704600 0.000000
-12.678000 0.000000
-12.651400 0.000000
-12.624800 0.000000
-12.598300 0.000000
-12.571700 0.000000
-12.545100 0.000000
-12.518500 0.000000
-12.491900 0.000000
-12.465400 0.000000
-12.438800 0.000000
-12.412200 0.000000
-12.385600 0.000000
-12.359000 0.000000
-12.332500 0.000000
-12.305900 0.000000
-12.279300 0.000000
-12.252700 0.000000
-12.226100 0.000000
-12.199600 0.000000
-12.173000 0.000000
-12.146400 0.000000
-12.119800 0.000000
-12.093200 0.000000
-12.066700 0.000000
-12.040100 0.000000
-12.013500 0.000000
-11.986900 0.000000
-11.960300 0.000000
-11.933800 0.000000
-11.907200 0.000000
-11.880600 0.000000
-11.854000 0.000000
-11.827400 0.000000
-11.800900 0.000000
-11.774300 0.000000
-11.747700 0.000000
-11.721100 0.000000
-11.694500 0.000000
-11.668000 0.000000
-11.641400 0.000000
-11.614800 0.000000
-11.588200 0.000000
-11.561700 0.000000
-11.535100 0.000000
-11.508500 0.000000
-11.481900 0.000000
-11.455300 0.000000
-11.428800 0.000000
-11.402200 0.000000
-11.375600 0.000000
-11.349000 0.000000
-11.322400 0.000000
-11.295900 0.000000
-11.269300 0.000000
-11.242700 0.000000
-11.216100 0.000000
-11.189500 0.000000
-11.163000 0.000000
-11.136400 0.000000
-11.109800 0.000000
-11.083200 0.000000
-11.056600 0.000000
-11.030100 0.000000
-11.003500 0.000000
-10.976900 0.000000
-10.950300 0.000000
-10.923700 0.000000
-10.897200 0.000000
-10.870600 0.000000
-10.844000 0.000000
-10.817400 0.000000
-10.790800 0.000000
-10.764300 0.000000
-10.737700 0.000000
-10.711100 0.000000
-10.684500 0.000000
-10.658000 0.000000
-10.631400 0.000000
-10.604800 0.000000
-10.578200 0.000000
-10.551600 0.000000
-10.525100 0.000000
-10.498500 0.000000
-10.471900 0.000000
-10.445300 0.000000
-10.418700 0.000000
-10.392200 0.000000
-10.365600 0.000000
-10.339000 0.000000
-10.312400 0.000000
-10.285800 0.000000
-10.259300 0.000000
-10.232700 0.000000
-10.206100 0.000000
-10.179500 0.000000
-10.152900 0.000000
-10.126400 0.000000
-10.099800 0.000000
-10.073200 0.000000
-10.046600 0.000000
-10.020000 0.000000
-9.993500 0.000000
-9.966900 0.000000
-9.940300 0.000000
-9.913700 0.000000
-9.887100 0.000000
-9.860600 0.000000
-9.834000 0.000000
-9.807400 0.000000
-9.780800 0.000000
-9.754300 0.000000
-9.727700 0.000000
-9.701100 0.000000
-9.674500 0.000000
-9.647900 0.000000
-9.621400 0.000000
-9.594800 0.000000
-9.568200 0.000000
-9.541600 0.000000
-9.515000 0.000000
-9.488500 0.000000
-9.461900 0.000000
-9.435300 0.000000
-9.408700 0.000000
-9.382100 0.000000
-9.355600 0.000000
-9.329000 0.000000
-9.302400 0.000000
-9.275800 0.000000
-9.249200 0.000000
-9.222700 0.000000
-9.196100 0.000000
-9.169500 0.000000
-9.142900 0.000000
-9.116300 0.000000
-9.089800 0.000000
-9.063200 0.000000
-9.036600 0.000000
-9.010000 0.000000
-8.983400 0.000000
-8.956900 0.000000
-8.930300 0.000000
-8.903700 0.000000
-8.877100 0.000000
-8.850500 0.000000
-8.824000 0.000000
-8.797400 0.000000
-8.770800 0.000000
-8.744200 0.000000
-8.717700 0.000000
-8.691100 0.000000
-8.664500 0.000000
-8.637900 0.000000
-8.611300 0.000000
-8.584800 0.000000
-8.558200 0.000000
-8.531600 0.000000
-8.505000 0.000000
-8.478400 0.000000
-8.451900 0.000000
-8.425300 0.000000
-8.398700 0.000000
-8.372100 0.000000
-8.345500 0.000000
-8.319000 0.000000
-8.292400 0.000000
-8.265800 0.000000
-8.239200 0.000000
-8.212600 0.000000
-8.186100 0.000000
-8.159500 0.000000
-8.132900 0.000000
-8.106300 0.000000
-8.079700 0.000000
-8.053200 0.000000
-8.026600 0.000000
-8.000000 0.000000
-7.973400 0.000000
-7.946800 0.000000
-7.920300 0.000000
-7.893700 0.000000
-7.867100 0.000000
-7.840500 0.000000
-7.814000 0.000000
-7.787400 0.000000
-7.760800 0.000000
-7.734200 0.000000
-7.707600 0.000000
-7.681100 0.000000
-7.654500 0.000000
-7.627900 0.000000
-7.601300 0.000000
-7.574700 0.000000
-7.548200 0.000000
-7.521600 0.000000
-7.495000 0.000000
-7.468400 0.000000
-7.441800 0.000000
-7.415300 0.000000
-7.388700 0.000000
-7.362100 0.000000
-7.335500 0.000000
-7.308900 0.000000
-7.282400 0.000000
-7.255800 0.000000
-7.229200 0.000000
-7.202600 0.000000
-7.176000 0.000000
-7.149500 0.000000
-7.122900 0.000000
-7.096300 0.000000
-7.069700 0.000000
-7.043100 0.000000
-7.016600 0.000000
-6.990000 0.000000
-6.963400 0.000000
-6.936800 0.000000
-6.910200 0.000000
-6.883700 0.000000
-6.857100 0.000000
-6.830500 0.000000
-6.803900 0.000000
-6.777400 0.000000
-6.750800 0.000000
-6.724200 0.000000
-6.697600 0.000000
-6.671000 0.000000
-6.644500 0.000000
-6.617900 0.000000
-6.591300 0.000000
-6.564700 0.000000
-6.538100 0.000000
-6.511600 0.000000
-6.485000 0.000000
-6.458400 0.000000
-6.431800 0.000000
-6.405200 0.000000
-6.378700 0.000000
-6.352100 0.000000
-6.325500 0.000000
-6.298900 0.000000
-6.272300 0.000000
-6.245800 0.000000
-6.219200 0.000000
-6.192600 0.000000
-6.166000 0.000000
-6.139400 0.000000
-6.112900 0.000000
-6.086300 0.000000
-6.059700 0.000000
-6.033100 0.000000
-6.006500 0.000000
-5.980000 0.000000
-5.953400 0.000000
-5.926800 0.000000
-5.900200 0.000000
-5.873700 0.000000
-5.847100 0.000000
-5.820500 0.000000
-5.793900 0.000000
-5.767300 0.000000
-5.740800 0.000000
-5.714200 0.000000
-5.687600 0.000000
-5.661000 0.000000
-5.634400 0.000000
-5.607900 0.000000
-5.581300 0.000000
-5.554700 0.000000
-5.528100 0.000000
-5.501500 0.000000
-5.475000 0.000000
-5.448400 0.000000
-5.421800 0.000000
-5.395200 0.000000
-5.368600 0.000000
-5.342100 0.000000
-5.315500 0.000000
-5.288900 0.000000
-5.262300 0.000000
-5.235700 0.000000
-5.209200 0.000000
-5.182600 0.000000
-5.156000 0.000000
-5.129400 0.000000
-5.102800 0.000000
-5.076300 0.000000
-5.049700 0.000000
-5.023100 0.263000
-4.996500 1.516400
-4.970000 2.115000
-4.943400 3.379200
-4.916800 5.124300
-4.890200 7.938100
-4.863600 12.002300
-4.837100 13.141900
-4.810500 12.032400
-4.783900 9.654200
-4.757300 7.813800
-4.730700 7.199400
-4.704200 7.581700
-4.677600 7.374800
-4.651000 7.242400
-4.624400 6.847400
-4.597800 6.400300
-4.571300 6.096600
-4.544700 5.824800
-4.518100 5.477900
-4.491500 5.319100
-4.464900 6.062400
-4.438400 6.455800
-4.411800 7.049700
-4.385200 7.133000
-4.358600 6.410300
-4.332000 7.878900
-4.305500 10.118400
-4.278900 11.351400
-4.252300 11.016900
-4.225700 11.341500
-4.199100 12.656000
-4.172600 10.876700
-4.146000 10.420500
-4.119400 9.356500
-4.092800 9.132100
-4.066200 8.787200
-4.039700 8.342700
-4.013100 8.454100
-3.986500 9.218200
-3.959900 9.017300
-3.933400 8.106400
-3.906800 6.844800
-3.880200 5.613300
-3.853600 5.228300
-3.827000 4.838800
-3.800500 4.768000
-3.773900 4.821900
-3.747300 5.133000
-3.720700 5.501900
-3.694100 6.124000
-3.667600 7.289700
-3.641000 8.292200
-3.614400 9.278500
-3.587800 10.054900
-3.561200 10.282100
-3.534700 9.386100
-3.508100 7.351200
-3.481500 6.875300
-3.454900 6.369500
-3.428300 6.381100
-3.401800 7.127800
-3.375200 8.179500
-3.348600 8.955800
-3.322000 9.016500
-3.295400 8.893500
-3.268900 8.040100
-3.242300 7.786600
-3.215700 8.167900
-3.189100 9.146500
-3.162500 10.039900
-3.136000 9.190300
-3.109400 7.781800
-3.082800 7.134100
-3.056200 6.791800
-3.029700 6.658300
-3.003100 7.042600
-2.976500 6.811500
-2.949900 6.273900
-2.923300 6.002700
-2.896800 6.714700
-2.870200 7.826400
-2.843600 8.147700
-2.817000 9.102900
-2.790400 10.430400
-2.763900 9.919800
-2.737300 9.775500
-2.710700 9.524300
-2.684100 9.094800
-2.657500 8.325400
-2.631000 7.994700
-2.604400 8.023000
-2.577800 8.363900
-2.551200 8.317700
-2.524600 8.711100
-2.498100 10.455000
-2.471500 10.567800
-2.444900 9.697800
-2.418300 8.553200
-2.391700 7.320500
-2.365200 7.039500
-2.338600 7.399200
-2.312000 7.918000
-2.285400 8.211300
-2.258800 8.217900
-2.232300 7.639000
-2.205700 7.527000
-2.179100 7.951100
-2.152500 9.199000
-2.126000 10.030300
-2.099400 9.307900
-2.072800 9.705500
-2.046200 11.852400
-2.019600 12.875300
-1.993100 13.664600
-1.966500 14.775100
-1.939900 16.289800
-1.913300 17.088400
-1.886700 15.277600
-1.860200 14.999000
-1.833600 15.017700
-1.807000 14.960800
-1.780400 15.866600
-1.753800 16.921500
-1.727300 16.416600
-1.700700 15.721100
-1.674100 15.320900
-1.647500 16.866900
-1.620900 18.712000
-1.594400 14.305300
-1.567800 14.224500
-1.541200 11.702800
-1.514600 6.085200
-1.488000 5.500600
-1.461500 10.386600
-1.434900 13.846500
-1.408300 14.951600
-1.381700 16.516300
-1.355100 16.491600
-1.328600 14.470600
-1.302000 13.816400
-1.275400 11.606700
-1.248800 10.594300
-1.222200 10.028000
-1.195700 9.033100
-1.169100 9.593700
-1.142500 12.777400
-1.115900 15.111100
-1.089400 16.726700
-1.062800 17.012700
-1.036200 21.665800
-1.009600 21.159400
-0.983000 16.983300
-0.956500 13.321000
-0.929900 6.808700
-0.903300 8.877900
-0.876700 12.996000
-0.850100 14.851300
-0.823600 16.313600
-0.797000 11.519700
-0.770400 10.488300
-0.743800 12.373700
-0.717200 14.934100
-0.690700 15.526300
-0.664100 17.280400
-0.637500 15.493100
-0.610900 15.248100
-0.584300 11.563400
-0.557800 10.457400
-0.531200 11.369200
-0.504600 13.075500
-0.478000 12.321100
-0.451400 13.004100
-0.424900 13.944700
-0.398300 13.102000
-0.371700 14.867700
-0.345100 14.715600
-0.318500 12.440300
-0.292000 10.001300
-0.265400 8.513800
-0.238800 8.783000
-0.212200 8.101800
-0.185700 9.768000
-0.159100 9.133300
-0.132500 8.283100
-0.105900 7.976200
-0.079300 7.542400
-0.052800 7.726500
-0.026200 8.272700
0.000400 9.259400
0.027000 9.541700
0.053600 10.730400
0.080100 11.433400
0.106700 12.110500
0.133300 12.649200
0.159900 12.886100
0.186500 12.153500
0.213000 12.048700
0.239600 14.179700
0.266200 15.849200
0.292800 16.136700
0.319400 17.388000
0.345900 17.669100
0.372500 12.198300
0.399100 6.029200
0.425700 4.160000
0.452300 1.765500
0.478800 0.634500
0.505400 0.209300
0.532000 0.128700
0.558600 0.263600
0.585200 0.657400
0.611700 1.614500
0.638300 2.457500
0.664900 3.042800
0.691500 3.172100
0.718100 3.374700
0.744600 3.576100
0.771200 4.063300
0.797800 4.306000
0.824400 4.545800
0.850900 5.119200
0.877500 5.907600
0.904100 6.873700
0.930700 7.736200
0.957300 7.374200
0.983800 7.292200
1.010400 7.213300
1.037000 6.977100
1.063600 6.659100
1.090200 6.795200
1.116700 6.795100
1.143300 6.147300
1.169900 5.321300
1.196500 4.983400
1.223100 4.548600
1.249600 3.932100
1.276200 3.482200
1.302800 2.926400
1.329400 2.624300
1.356000 2.338700
1.382500 2.069700
1.409100 1.941800
1.435700 1.681800
1.462300 1.242300
1.488900 0.802000
1.515400 0.257600
1.542000 0.078000
1.568600 0.000000
1.595200 0.002900
1.621800 0.062800
1.648300 0.172400
1.674900 0.338200
1.701500 0.912000
1.728100 1.390900
1.754600 1.985400
1.781200 1.748800
1.807800 1.844600
1.834400 2.141900
1.861000 2.353000
1.887500 2.550300
1.914100 2.669700
1.940700 2.672100
1.967300 2.676400
1.993900 2.711000
2.020400 2.984300
2.047000 3.120900
2.073600 3.135200
2.100200 3.374600
2.126800 3.667400
2.153300 4.023000
2.179900 4.335600
2.206500 5.059500
2.233100 5.441300
2.259700 6.517000
2.286200 5.980900
2.312800 6.068900
2.339400 5.880300
2.366000 5.890200
2.392600 6.093700
2.419100 5.807800
2.445700 5.869100
2.472300 5.846100
2.498900 5.794400
2.525500 4.788900
2.552000 3.804300
2.578600 2.947500
2.605200 2.493200
2.631800 2.035600
2.658300 1.818000
2.684900 1.622400
2.711500 1.568300
2.738100 1.524300
2.764700 1.405200
2.791200 1.273500
2.817800 1.124500
2.844400 0.892000
2.871000 0.686700
2.897600 0.491800
2.924100 0.318900
2.950700 0.159900
2.977300 0.004000
3.003900 0.000000
3.030500 0.000000
3.057000 0.000000
3.083600 0.000000
3.110200 0.005400
3.136800 0.022700
3.163400 0.052000
3.189900 0.089500
3.216500 0.127600
3.243100 0.145400
3.269700 0.151700
3.296300 0.153100
3.322800 0.151000
3.349400 0.161700
3.376000 0.173700
3.402600 0.186000
3.429200 0.198600
3.455700 0.211600
3.482300 0.224400
3.508900 0.236500
3.535500 0.247500
3.562100 0.257000
3.588600 0.264400
3.615200 0.269700
3.641800 0.276800
3.668400 0.284000
3.694900 0.291900
3.721500 0.300500
3.748100 0.309700
3.774700 0.319000
3.801300 0.328400
3.827800 0.338100
3.854400 0.348000
3.881000 0.358000
3.907600 0.368100
3.934200 0.378300
3.960700 0.389000
3.987300 0.399900
4.013900 0.411000
4.040500 0.421700
4.067100 0.432400
4.093600 0.443400
4.120200 0.454900
4.146800 0.466500
4.173400 0.478300
4.200000 0.490100
4.226500 0.502100
4.253100 0.514100
4.279700 0.526400
4.306300 0.539000
4.332900 0.552100
4.359400 0.566000
4.386000 0.581000
4.412600 0.596800
4.439200 0.612900
4.465800 0.629500
4.492300 0.646200
4.518900 0.663000
4.545500 0.681400
4.572100 0.708800
4.598600 0.743400
4.625200 0.775200
4.651800 0.803400
4.678400 0.825700
4.705000 0.850000
4.731500 0.879000
4.758100 0.898300
4.784700 0.886300
4.811300 0.879100
4.837900 0.899500
4.864400 0.919900
4.891000 0.937100
4.917600 0.950500
4.944200 0.962500
4.970800 0.977900
4.997300 0.999900
5.023900 1.024800
5.050500 1.051900
5.077100 1.082600
5.103700 1.124100
5.130200 1.180100
5.156800 1.201400
5.183400 1.222800
5.210000 1.206500
5.236600 1.213900
5.263100 1.223900
5.289700 1.230500
5.316300 1.232800
5.342900 1.232800
5.369500 1.234700
5.396000 1.247800
5.422600 1.268800
5.449200 1.294200
5.475800 1.327700
5.502400 1.363600
5.528900 1.405400
5.555500 1.453200
5.582100 1.506900
5.608700 1.569100
5.635200 1.629700
5.661800 1.651700
5.688400 1.661300
5.715000 1.676700
5.741600 1.689100
5.768100 1.693100
5.794700 1.697300
5.821300 1.709000
5.847900 2.039400
5.874500 1.999400
5.901000 1.981900
5.927600 1.970200
5.954200 2.019200
5.980800 1.944200
6.007400 1.819600
6.033900 1.847400
6.060500 1.878300
6.087100 1.903400
6.113700 1.924600
6.140300 1.941200
6.166800 1.923800
6.193400 1.883000
6.220000 1.845400
6.246600 1.904500
6.273200 1.747000
6.299700 1.749800
6.326300 1.739500
6.352900 1.758700
6.379500 1.796900
6.406100 1.837100
6.432600 2.097600
6.459200 3.041900
6.485800 2.879100
6.512400 2.449100
6.538900 2.398700
6.565500 2.354800
6.592100 2.294800
6.618700 2.286900
6.645300 2.251400
6.671800 2.230400
6.698400 2.218400
6.725000 2.267200
6.751600 2.241600
6.778200 2.174300
6.804700 2.099800
6.831300 2.028300
6.857900 1.968400
6.884500 1.927100
6.911100 1.920900
6.937600 1.947600
6.964200 1.971400
6.990800 2.006900
7.017400 2.002100
7.044000 2.024700
7.070500 1.987400
7.097100 1.929700
7.123700 1.893300
7.150300 1.977400
7.176900 1.936600
7.203400 1.793300
7.230000 1.814600
7.256600 1.905500
7.283200 2.062300
7.309800 2.279100
7.336300 2.454100
7.362900 2.724700
7.389500 2.968700
7.416100 2.979700
7.442600 2.926700
7.469200 2.947800
7.495800 2.878600
7.522400 2.677900
7.549000 2.508300
7.575500 2.371100
7.602100 2.243600
7.628700 2.097200
7.655300 1.936500
7.681900 1.976600
7.708400 1.960500
7.735000 1.944600
7.761600 1.923500
7.788200 1.937700
7.814800 1.995000
7.841300 2.070400
7.867900 2.169100
7.894500 2.330600
7.921100 2.485200
7.947700 2.617600
7.974200 2.758200
8.000800 2.696100
8.027400 2.677600
8.054000 2.712100
8.080600 2.660700
8.107100 2.535500
8.133700 2.394800
8.160300 2.197600
8.186900 2.054100
8.213500 1.979700
8.240000 1.940400
8.266600 1.925600
8.293200 1.934500
8.319800 2.040900
