set title 'mp-82 - Density of States'
set xlabel 'Energy (eV)'
set ylabel 'DOS (states/eV)'
set grid
set xrange [-10:10]
set yrange [0:64.185]
set xzeroaxis lt -1
set terminal png size 800,600
set output 'mp-82_dos_gnuplot.png'
plot '-' using 1:2 with lines title 'DOS'
-7.571500 0.000000
-7.555300 0.000000
-7.539200 0.000000
-7.523000 0.000000
-7.506800 0.000000
-7.490700 0.000000
-7.474500 0.000000
-7.458300 0.000000
-7.442200 0.000000
-7.426000 0.000000
-7.409900 0.000000
-7.393700 0.000000
-7.377500 0.000000
-7.361400 0.000000
-7.345200 0.000000
-7.329000 0.000000
-7.312900 0.000000
-7.296700 0.000000
-7.280500 0.000000
-7.264400 0.000000
-7.248200 0.000000
-7.232100 0.000000
-7.215900 0.000000
-7.199700 0.000000
-7.183600 0.000000
-7.167400 0.000000
-7.151200 0.000000
-7.135100 0.000000
-7.118900 0.000000
-7.102700 0.000000
-7.086600 0.000000
-7.070400 0.000000
-7.054300 0.000000
-7.038100 0.000000
-7.021900 0.000000
-7.005800 0.000000
-6.989600 0.000000
-6.973400 0.000000
-6.957300 0.000000
-6.941100 0.000000
-6.924900 0.000000
-6.908800 0.000000
-6.892600 0.000000
-6.876500 0.000000
-6.860300 0.000000
-6.844100 0.000000
-6.828000 0.000000
-6.811800 0.000000
-6.795600 0.000000
-6.779500 0.000000
-6.763300 0.000000
-6.747100 0.000000
-6.731000 0.000000
-6.714800 0.000000
-6.698700 0.000000
-6.682500 0.000000
-6.666300 0.000000
-6.650200 0.000000
-6.634000 0.000000
-6.617800 0.000000
-6.601700 0.000000
-6.585500 0.000000
-6.569300 0.000000
-6.553200 0.000000
-6.537000 0.000000
-6.520900 0.000000
-6.504700 0.000000
-6.488500 0.000000
-6.472400 0.000000
-6.456200 0.000000
-6.440000 0.000000
-6.423900 0.000000
-6.407700 0.000000
-6.391500 0.000000
-6.375400 0.000000
-6.359200 0.000000
-6.343100 0.000000
-6.326900 0.000000
-6.310700 0.000000
-6.294600 0.000000
-6.278400 0.000000
-6.262200 0.000000
-6.246100 0.000000
-6.229900 0.000000
-6.213700 0.000000
-6.197600 0.000000
-6.181400 0.000000
-6.165300 0.000000
-6.149100 0.000000
-6.132900 0.000000
-6.116800 0.000000
-6.100600 0.042800
-6.084400 2.173100
-6.068300 3.311600
-6.052100 4.659700
-6.035900 5.890400
-6.019800 7.485500
-6.003600 14.103400
-5.987500 22.865500
-5.971300 29.730400
-5.955100 35.334500
-5.939000 37.785400
-5.922800 28.851300
-5.906600 28.233400
-5.890500 25.120400
-5.874300 32.949300
-5.858100 51.943000
-5.842000 34.198800
-5.825800 40.989700
-5.809700 41.756300
-5.793500 34.198900
-5.777300 30.478100
-5.761200 26.829000
-5.745000 28.411000
-5.728800 28.405600
-5.712700 26.220700
-5.696500 22.771900
-5.680300 16.708700
-5.664200 25.690000
-5.648000 39.313400
-5.631900 28.683800
-5.615700 34.895600
-5.599500 30.610000
-5.583400 30.823800
-5.567200 28.458900
-5.551000 29.854500
-5.534900 32.560700
-5.518700 31.290500
-5.502500 29.150000
-5.486400 35.658700
-5.470200 39.141300
-5.454100 44.801200
-5.437900 58.350200
-5.421700 38.285200
-5.405600 13.019400
-5.389400 0.000000
-5.373200 0.000000
-5.357100 0.000000
-5.340900 0.000000
-5.324700 0.000000
-5.308600 0.000000
-5.292400 0.000000
-5.276300 0.000000
-5.260100 0.000000
-5.243900 0.000000
-5.227800 0.000000
-5.211600 0.000000
-5.195400 0.000000
-5.179300 0.000000
-5.163100 0.000000
-5.146900 0.000000
-5.130800 0.000000
-5.114600 0.000000
-5.098400 0.000000
-5.082300 0.000000
-5.066100 0.000000
-5.050000 0.000000
-5.033800 0.000000
-5.017600 0.000000
-5.001500 0.000000
-4.985300 0.000000
-4.969100 0.000000
-4.953000 0.000000
-4.936800 0.000000
-4.920600 0.000000
-4.904500 0.000000
-4.888300 0.000000
-4.872200 0.000000
-4.856000 0.000000
-4.839800 0.000000
-4.823700 0.000000
-4.807500 0.000000
-4.791300 0.000000
-4.775200 0.000000
-4.759000 0.000000
-4.742800 0.000000
-4.726700 0.000000
-4.710500 0.000000
-4.694400 0.000000
-4.678200 0.000000
-4.662000 0.000000
-4.645900 0.000000
-4.629700 0.000000
-4.613500 0.000000
-4.597400 0.000000
-4.581200 0.000000
-4.565000 0.000000
-4.548900 0.000000
-4.532700 0.000000
-4.516600 0.000000
-4.500400 0.000000
-4.484200 0.000000
-4.468100 0.000000
-4.451900 0.000000
-4.435700 0.000000
-4.419600 0.000000
-4.403400 0.000000
-4.387200 0.000000
-4.371100 0.000000
-4.354900 0.000000
-4.338800 0.000000
-4.322600 0.000000
-4.306400 0.000000
-4.290300 0.000000
-4.274100 0.000000
-4.257900 0.000000
-4.241800 0.000000
-4.225600 0.000000
-4.209400 0.000000
-4.193300 0.000000
-4.177100 0.000000
-4.161000 0.000000
-4.144800 0.000000
-4.128600 0.000000
-4.112500 0.000000
-4.096300 0.000000
-4.080100 0.000000
-4.064000 0.000000
-4.047800 0.000000
-4.031600 0.000000
-4.015500 0.000000
-3.999300 0.000000
-3.983200 0.000000
-3.967000 0.000000
-3.950800 0.000000
-3.934700 0.000000
-3.918500 0.000000
-3.902300 0.000000
-3.886200 0.000000
-3.870000 0.000000
-3.853800 0.000000
-3.837700 0.000000
-3.821500 0.000000
-3.805400 0.000000
-3.789200 0.000000
-3.773000 0.000000
-3.756900 0.000000
-3.740700 0.000000
-3.724500 0.001600
-3.708400 0.015700
-3.692200 0.044600
-3.676000 0.080700
-3.659900 0.091900
-3.643700 0.094600
-3.627600 0.099600
-3.611400 0.111100
-3.595200 0.123000
-3.579100 0.135300
-3.562900 0.147700
-3.546700 0.156900
-3.530600 0.161700
-3.514400 0.162900
-3.498200 0.166200
-3.482100 0.171300
-3.465900 0.177400
-3.449800 0.183800
-3.433600 0.190100
-3.417400 0.196400
-3.401300 0.202600
-3.385100 0.209100
-3.368900 0.215900
-3.352800 0.223000
-3.336600 0.227200
-3.320400 0.230100
-3.304300 0.232300
-3.288100 0.236000
-3.272000 0.239800
-3.255800 0.243500
-3.239600 0.247000
-3.223500 0.250500
-3.207300 0.254200
-3.191100 0.258000
-3.175000 0.262000
-3.158800 0.266400
-3.142600 0.270900
-3.126500 0.275600
-3.110300 0.280300
-3.094200 0.285100
-3.078000 0.289900
-3.061800 0.294500
-3.045700 0.298300
-3.029500 0.300800
-3.013300 0.302700
-2.997200 0.304700
-2.981000 0.307400
-2.964800 0.310300
-2.948700 0.313300
-2.932500 0.316200
-2.916400 0.319100
-2.900200 0.322000
-2.884000 0.324900
-2.867900 0.327900
-2.851700 0.331100
-2.835500 0.334400
-2.819400 0.337800
-2.803200 0.341300
-2.787000 0.344800
-2.770900 0.348300
-2.754700 0.351800
-2.738600 0.355300
-2.722400 0.358900
-2.706200 0.362400
-2.690100 0.366000
-2.673900 0.368800
-2.657700 0.387900
-2.641600 0.406600
-2.625400 0.424100
-2.609200 0.401500
-2.593100 0.403200
-2.576900 0.404700
-2.560800 0.406100
-2.544600 0.407500
-2.528400 0.408900
-2.512300 0.410200
-2.496100 0.408700
-2.479900 0.406800
-2.463800 0.405100
-2.447600 0.404500
-2.431400 0.405400
-2.415300 0.406200
-2.399100 0.407000
-2.383000 0.407700
-2.366800 0.408500
-2.350600 0.409200
-2.334500 0.409900
-2.318300 0.410700
-2.302100 0.411400
-2.286000 0.408900
-2.269800 0.409300
-2.253600 0.409700
-2.237500 0.410100
-2.221300 0.410200
-2.205200 0.410000
-2.189000 0.425500
-2.172800 0.445700
-2.156700 0.467300
-2.140500 0.449500
-2.124300 0.453300
-2.108200 0.457200
-2.092000 0.461200
-2.075800 0.465100
-2.059700 0.469200
-2.043500 0.473400
-2.027400 0.474700
-2.011200 0.474900
-1.995000 0.474600
-1.978900 0.475600
-1.962700 0.478000
-1.946500 0.481100
-1.930400 0.484200
-1.914200 0.487400
-1.898000 0.490600
-1.881900 0.493900
-1.865700 0.497200
-1.849600 0.500600
-1.833400 0.504000
-1.817200 0.503900
-1.801100 0.506500
-1.784900 0.509300
-1.768700 0.512000
-1.752600 0.514700
-1.736400 0.517400
-1.720200 0.520100
-1.704100 0.523200
-1.687900 0.526000
-1.671800 0.528700
-1.655600 0.531500
-1.639400 0.533300
-1.623300 0.535800
-1.607100 0.538300
-1.590900 0.540700
-1.574800 0.543300
-1.558600 0.545900
-1.542400 0.547600
-1.526300 0.549400
-1.510100 0.551200
-1.494000 0.553500
-1.477800 0.556100
-1.461600 0.558700
-1.445500 0.561300
-1.429300 0.564000
-1.413100 0.566600
-1.397000 0.569200
-1.380800 0.571900
-1.364600 0.574600
-1.348500 0.577200
-1.332300 0.580100
-1.316200 0.582900
-1.300000 0.585800
-1.283800 0.588800
-1.267700 0.591700
-1.251500 0.594700
-1.235300 0.597700
-1.219200 0.600700
-1.203000 0.603500
-1.186800 0.605200
-1.170700 0.607700
-1.154500 0.610200
-1.138400 0.613000
-1.122200 0.615700
-1.106000 0.618400
-1.089900 0.621100
-1.073700 0.623800
-1.057500 0.626600
-1.041400 0.629600
-1.025200 0.632500
-1.009000 0.635400
-0.992900 0.638300
-0.976700 0.641300
-0.960600 0.644300
-0.944400 0.647300
-0.928200 0.650300
-0.912100 0.653400
-0.895900 0.656500
-0.879700 0.659600
-0.863600 0.662800
-0.847400 0.666000
-0.831200 0.669300
-0.815100 0.672600
-0.798900 0.675900
-0.782800 0.679200
-0.766600 0.682400
-0.750400 0.685500
-0.734300 0.688500
-0.718100 0.691600
-0.701900 0.694900
-0.685800 0.698000
-0.669600 0.701300
-0.653400 0.704700
-0.637300 0.708200
-0.621100 0.711800
-0.605000 0.715400
-0.588800 0.719000
-0.572600 0.722800
-0.556500 0.726600
-0.540300 0.730500
-0.524100 0.734400
-0.508000 0.738400
-0.491800 0.742400
-0.475600 0.746500
-0.459500 0.750700
-0.443300 0.755100
-0.427200 0.759400
-0.411000 0.763800
-0.394800 0.768300
-0.378700 0.772900
-0.362500 0.777700
-0.346300 0.782900
-0.330200 0.788200
-0.314000 0.793800
-0.297800 0.799500
-0.281700 0.805300
-0.265500 0.811300
-0.249400 0.817300
-0.233200 0.823600
-0.217000 0.830100
-0.200900 0.837000
-0.184700 0.844500
-0.168500 0.852200
-0.152400 0.860300
-0.136200 0.868600
-0.120000 0.877200
-0.103900 0.886100
-0.087700 0.895200
-0.071600 0.904500
-0.055400 0.914100
-0.039200 0.923900
-0.023100 0.946600
-0.006900 0.991700
0.009300 1.024900
0.025400 1.027700
0.041600 1.027600
0.057800 1.024500
0.073900 1.018400
0.090100 1.011300
0.106200 1.008000
0.122400 1.005100
0.138600 0.999700
0.154700 0.995200
0.170900 0.992100
0.187100 0.990700
0.203200 0.992000
0.219400 1.044500
0.235600 1.083300
0.251700 1.061100
0.267900 1.030900
0.284000 1.034100
0.300200 1.035500
0.316400 1.037000
0.332500 1.038700
0.348700 1.038400
0.364900 1.031600
0.381000 1.034000
0.397200 1.036600
0.413400 1.039200
0.429500 1.041800
0.445700 1.045200
0.461800 1.048200
0.478000 1.051100
0.494200 1.054000
0.510300 1.053700
0.526500 1.045900
0.542700 1.039500
0.558800 1.035300
0.575000 1.030900
0.591200 1.027600
0.607300 1.025900
0.623500 1.025400
0.639600 1.026100
0.655800 1.028100
0.672000 1.031000
0.688100 1.034300
0.704300 1.038200
0.720500 1.033700
0.736600 1.021500
0.752800 1.013000
0.769000 1.009300
0.785100 1.005000
0.801300 1.051100
0.817400 1.018900
0.833600 0.988900
0.849800 0.963100
0.865900 0.949100
0.882100 0.944400
0.898300 0.940300
0.914400 0.936800
0.930600 0.933900
0.946800 0.931800
0.962900 0.933400
0.979100 0.964500
0.995200 0.998000
1.011400 0.949500
1.027600 0.956000
1.043700 0.962500
1.059900 0.969500
1.076100 1.058800
1.092200 1.016000
1.108400 0.983800
1.124600 0.979600
1.140700 0.974500
1.156900 0.969000
1.173000 0.966000
1.189200 0.972000
1.205400 1.003300
1.221500 1.048900
1.237700 1.108200
1.253900 1.157000
1.270000 1.250100
1.286200 1.414700
1.302400 1.598100
1.318500 1.635000
1.334700 1.684600
1.350800 1.797800
1.367000 1.888400
1.383200 1.622900
1.399300 1.616700
1.415500 1.631500
1.431700 1.774900
1.447800 1.939500
1.464000 1.952000
1.480200 2.109000
1.496300 2.203800
1.512500 2.198500
1.528700 2.094800
1.544800 1.995900
1.561000 1.919000
1.577100 1.602700
1.593300 1.480700
1.609500 1.386400
1.625600 1.305800
1.641800 1.232400
1.658000 1.164600
1.674100 1.105300
1.690300 1.132000
1.706500 1.140900
1.722600 1.073700
1.738800 0.998900
1.754900 0.927300
1.771100 0.798100
1.787300 0.692700
1.803400 0.659300
1.819600 0.582200
1.835800 0.498700
1.851900 0.423300
1.868100 0.356400
1.884300 0.298300
1.900400 0.246500
1.916600 0.189600
1.932700 0.058400
1.948900 0.000000
1.965100 0.000000
1.981200 0.000000
1.997400 0.000000
2.013600 0.000000
2.029700 0.000000
2.045900 0.000000
2.062100 0.000000
2.078200 0.000000
2.094400 0.000000
2.110500 0.000000
2.126700 0.000000
2.142900 0.000000
2.159000 0.000000
2.175200 0.000000
2.191400 0.000000
2.207500 0.000000
2.223700 0.000000
2.239900 0.000000
2.256000 0.000000
2.272200 0.000000
2.288300 0.000000
2.304500 0.000000
2.320700 0.000000
2.336800 0.000000
2.353000 0.000000
2.369200 0.000000
2.385300 0.000000
2.401500 0.000000
2.417700 0.000000
2.433800 0.000000
2.450000 0.000000
2.466100 0.000000
2.482300 0.000000
2.498500 0.000000
2.514600 0.000000
2.530800 0.000000
2.547000 0.000000
2.563100 0.000000
2.579300 0.000000
2.595500 0.000000
2.611600 0.000000
2.627800 0.000000
2.643900 0.000000
2.660100 0.000000
2.676300 0.000000
2.692400 0.000000
2.708600 0.000000
2.724800 0.000000
2.740900 0.000000
2.757100 0.000000
2.773300 0.000000
2.789400 0.000000
2.805600 0.000000
2.821700 0.000000
2.837900 0.000000
2.854100 0.000000
2.870200 0.000000
2.886400 0.000000
2.902600 0.000000
2.918700 0.000000
2.934900 0.000000
2.951100 0.000000
2.967200 0.000000
2.983400 0.000000
2.999500 0.000000
3.015700 0.000000
3.031900 0.000000
3.048000 0.000000
3.064200 0.000000
3.080400 0.000000
3.096500 0.000000
3.112700 0.000000
3.128900 0.000000
3.145000 0.000000
3.161200 0.000000
3.177300 0.000000
3.193500 0.000300
3.209700 0.001700
3.225800 0.004000
3.242000 0.007400
3.258200 0.010500
3.274300 0.012900
3.290500 0.015300
3.306700 0.017800
3.322800 0.020500
3.339000 0.023200
3.355100 0.026000
3.371300 0.028900
3.387500 0.031900
3.403600 0.034900
3.419800 0.037800
3.436000 0.040600
3.452100 0.043300
3.468300 0.046000
3.484500 0.048700
3.500600 0.051500
3.516800 0.054300
3.532900 0.059100
3.549100 0.069600
3.565300 0.085500
3.581400 0.106500
3.597600 0.134200
3.613800 0.162500
3.629900 0.192600
3.646100 0.222500
3.662300 0.249800
3.678400 0.274400
3.694600 0.296500
3.710700 0.315900
3.726900 0.332700
3.743100 0.366800
3.759200 0.359800
3.775400 0.338700
3.791600 0.320100
3.807700 0.328800
3.823900 0.339100
3.840100 0.349900
3.856200 0.361200
3.872400 0.373100
3.888500 0.385600
3.904700 0.402200
3.920900 0.419600
3.937000 0.438100
3.953200 0.458100
3.969400 0.476100
3.985500 0.491400
4.001700 0.503800
4.017900 0.515900
4.034000 0.528800
4.050200 0.645900
4.066300 0.590800
4.082500 0.564100
4.098700 0.577200
4.114800 0.589000
4.131000 0.595100
4.147200 0.605600
4.163300 0.614500
4.179500 0.625000
4.195700 0.635800
4.211800 0.646500
4.228000 0.657000
4.244100 0.668000
4.260300 0.679800
4.276500 0.692200
4.292600 0.705200
4.308800 0.718700
4.325000 0.732800
4.341100 0.747300
4.357300 0.762400
4.373500 0.778300
4.389600 0.794900
4.405800 0.817900
4.421900 0.833000
4.438100 0.847900
4.454300 0.861300
4.470400 0.873900
4.486600 0.888100
4.502800 0.904700
4.518900 0.919900
4.535100 0.938000
4.551300 0.957900
4.567400 0.979700
4.583600 1.003000
4.599700 1.028200
4.615900 1.059200
4.632100 1.094600
4.648200 1.126300
4.664400 1.160800
4.680600 1.198000
4.696700 1.237300
4.712900 1.278700
4.729100 1.323900
4.745200 1.375100
4.761400 1.430200
4.777500 1.557500
4.793700 1.638700
4.809900 1.682400
4.826000 1.712200
4.842200 1.724900
4.858400 1.717800
4.874500 1.683000
4.890700 1.636000
4.906900 1.609400
4.923000 1.565600
4.939200 1.600800
4.955300 1.562400
4.971500 1.499600
4.987700 1.412800
5.003800 1.332000
5.020000 1.295900
5.036200 1.270800
5.052300 1.250100
5.068500 1.234900
5.084700 1.229200
5.100800 1.234800
5.117000 1.242200
5.133100 1.247200
5.149300 1.253000
5.165500 1.257400
5.181600 1.257800
5.197800 1.247400
5.214000 1.242200
5.230100 1.234000
5.246300 1.225300
5.262500 1.213900
5.278600 1.200800
5.294800 1.186100
5.310900 1.172100
5.327100 1.159700
5.343300 1.148400
5.359400 1.140400
5.375600 1.140200
5.391800 1.141700
5.407900 1.140500
5.424100 1.134700
5.440300 1.124800
5.456400 1.111500
5.472600 1.095300
5.488700 1.078200
5.504900 1.070600
5.521100 1.053700
5.537200 1.030700
5.553400 1.002600
5.569600 0.969500
5.585700 0.942800
5.601900 0.926200
5.618100 0.906700
5.634200 0.873700
5.650400 0.854200
5.666500 0.847800
5.682700 0.842100
5.698900 0.837200
5.715000 0.833000
5.731200 0.829600
5.747400 0.826900
5.763500 0.825100
5.779700 0.824300
5.795900 0.824900
5.812000 0.826900
5.828200 0.829500
5.844300 0.832400
5.860500 0.836700
5.876700 0.844500
5.892800 0.856600
5.909000 0.872300
5.925200 0.891300
5.941300 0.905200
5.957500 0.908400
5.973700 0.915900
5.989800 0.920700
6.006000 0.927900
6.022100 0.940000
6.038300 0.953300
6.054500 0.967700
6.070600 0.983200
6.086800 0.999700
6.103000 1.018200
6.119100 1.045300
6.135300 1.062600
6.151500 1.077100
6.167600 1.089300
6.183800 1.099200
6.199900 1.093800
6.216100 1.099200
6.232300 1.108400
6.248400 1.119500
6.264600 1.132400
6.280800 1.137100
6.296900 1.142800
6.313100 1.149300
6.329300 1.147600
6.345400 1.152000
6.361600 1.162600
6.377700 1.174500
6.393900 1.187600
6.410100 1.201900
6.426200 1.215500
6.442400 1.227700
6.458600 1.241900
6.474700 1.250300
6.490900 1.252000
6.507100 1.245700
6.523200 1.235400
6.539400 1.220700
6.555500 1.201400
6.571700 1.177400
6.587900 1.148800
6.604000 1.118100
6.620200 1.084800
6.636400 1.045300
6.652500 1.009300
6.668700 0.973600
6.684900 0.939600
6.701000 0.914500
6.717200 0.899900
6.733300 0.889600
6.749500 0.881100
6.765700 0.872200
6.781800 0.866400
6.798000 0.863600
6.814200 0.863600
6.830300 0.866300
6.846500 0.871800
6.862700 0.880000
6.878800 0.902200
6.895000 0.923700
6.911100 0.947600
6.927300 0.969300
6.943500 0.988800
6.959600 1.007300
6.975800 1.024800
6.992000 1.041700
7.008100 1.064200
7.024300 1.082500
7.040500 1.097800
7.056600 1.112700
7.072800 1.127900
7.088900 1.143900
7.105100 1.159700
7.121300 1.175300
7.137400 1.190700
7.153600 1.206100
7.169800 1.222100
7.185900 1.276800
7.202100 1.308300
7.218300 1.322100
7.234400 1.333600
7.250600 1.340200
7.266700 1.331500
7.282900 1.319600
7.299100 1.304700
7.315200 1.287400
7.331400 1.265900
7.347600 1.241100
7.363700 1.215100
7.379900 1.189700
7.396100 1.164500
7.412200 1.146800
7.428400 1.134400
7.444500 1.129000
7.460700 1.123700
7.476900 1.120400
7.493000 1.116200
7.509200 1.112100
7.525400 1.109500
7.541500 1.105200
7.557700 1.097200
7.573900 1.085400
7.590000 1.059300
7.606200 1.048200
7.622300 1.037300
7.638500 1.026500
7.654700 1.016000
7.670800 1.005600
7.687000 0.995500
7.703200 0.985600
7.719300 0.975900
7.735500 0.968200
7.751700 0.964700
7.767800 0.964000
7.784000 0.965500
7.800100 0.967300
7.816300 0.968400
7.832500 0.971400
7.848600 0.975600
7.864800 0.981800
7.881000 0.989800
7.897100 0.999300
7.913300 1.016300
7.929500 1.027900
7.945600 1.039800
7.961800 1.081300
7.977900 1.136300
7.994100 1.129600
8.010300 1.147600
8.026400 1.165300
8.042600 1.177900
8.058800 1.186000
8.074900 1.198900
8.091100 1.214100
8.107300 1.229900
8.123400 1.244800
8.139600 1.278600
8.155700 1.545500
8.171900 1.171900
8.188100 1.082500
8.204200 1.087300
8.220400 1.092400
8.236600 1.097300
8.252700 1.102100
8.268900 1.106600
8.285100 1.109800
8.301200 1.111700
8.317400 1.112400
8.333600 1.111900
8.349700 1.110000
8.365900 1.105900
8.382000 1.099500
8.398200 1.090600
8.414400 1.079100
8.430500 1.065400
8.446700 1.065700
8.462900 1.066000
8.479000 1.064200
8.495200 1.062500
8.511400 1.060700
8.527500 1.058700
8.543700 1.056300
8.559800 1.053300
8.576000 1.050900
8.592200 1.048500
8.608300 1.046100
8.624500 1.042400
8.640700 1.039000
8.656800 1.036300
8.673000 1.036000
8.689200 1.040000
8.705300 1.052100
8.721500 1.072900
8.737600 1.089100
8.753800 1.092000
8.770000 1.093900
8.786100 1.096600
8.802300 1.098400
8.818500 1.099200
8.834600 1.098700
8.850800 1.097000
8.867000 1.094600
8.883100 1.092400
8.899300 1.089700
8.915400 1.086600
8.931600 1.084200
8.947800 1.084500
8.963900 1.084900
8.980100 1.084800
8.996300 1.086900
9.012400 1.089200
9.028600 1.091600
9.044800 1.094300
9.060900 1.097200
9.077100 1.100200
9.093200 1.104300
9.109400 1.109500
9.125600 1.115300
9.141700 1.122800
9.157900 1.130500
9.174100 1.141100
9.190200 1.156200
9.206400 1.170600
9.222600 1.184200
9.238700 1.188800
9.254900 1.200000
9.271000 1.213400
9.287200 1.226000
9.303400 1.236900
9.319500 1.249400
9.335700 1.341000
9.351900 1.364800
9.368000 1.425800
9.384200 1.489000
9.400400 1.795600
9.416500 1.314800
9.432700 1.329900
9.448800 1.345200
9.465000 1.358000
9.481200 1.369400
9.497300 1.381000
9.513500 1.409000
9.529700 1.427000
9.545800 1.435800
9.562000 1.442700
9.578200 1.447000
9.594300 1.449800
9.610500 1.466600
9.626600 1.482800
9.642800 1.494000
9.659000 1.497100
