set title 'mp-1176403 - Density of States'
set xlabel 'Energy (eV)'
set ylabel 'DOS (states/eV)'
set grid
set xrange [-10:10]
set yrange [0:4.708]
set xzeroaxis lt -1
set terminal png size 800,600
set output 'mp-1176403_dos_gnuplot.png'
plot '-' using 1:2 with lines title 'DOS'
-27.547300 0.000000
-27.510400 0.000000
-27.473500 0.000000
-27.436700 0.000000
-27.399800 0.000000
-27.362900 0.000000
-27.326100 0.000000
-27.289200 0.000000
-27.252300 0.000000
-27.215400 0.000000
-27.178600 0.000000
-27.141700 0.000000
-27.104800 0.000000
-27.068000 0.000000
-27.031100 0.000000
-26.994200 0.000000
-26.957300 0.000000
-26.920500 0.000000
-26.883600 0.000000
-26.846700 0.000000
-26.809900 0.000000
-26.773000 0.000000
-26.736100 0.000000
-26.699300 0.000000
-26.662400 0.000000
-26.625500 0.000000
-26.588600 0.000000
-26.551800 0.000000
-26.514900 0.000000
-26.478000 0.000000
-26.441200 0.000000
-26.404300 0.000000
-26.367400 0.000000
-26.330500 0.000000
-26.293700 0.000000
-26.256800 0.000000
-26.219900 0.000000
-26.183100 0.000000
-26.146200 0.000000
-26.109300 0.000000
-26.072500 0.000000
-26.035600 0.000000
-25.998700 0.000000
-25.961800 0.000000
-25.925000 0.000000
-25.888100 0.000000
-25.851200 0.000000
-25.814400 0.000000
-25.777500 0.000000
-25.740600 0.000000
-25.703700 0.000000
-25.666900 0.000000
-25.630000 0.000000
-25.593100 0.000000
-25.556300 0.000000
-25.519400 0.000000
-25.482500 0.000000
-25.445700 0.000000
-25.408800 0.000000
-25.371900 0.000000
-25.335000 0.000000
-25.298200 0.000000
-25.261300 0.000000
-25.224400 0.000000
-25.187600 0.000000
-25.150700 0.000000
-25.113800 0.000000
-25.076900 0.000000
-25.040100 0.000000
-25.003200 0.000000
-24.966300 0.000000
-24.929500 0.000000
-24.892600 0.000000
-24.855700 0.000000
-24.818900 0.000000
-24.782000 0.000000
-24.745100 0.000000
-24.708200 0.000000
-24.671400 0.000000
-24.634500 0.000000
-24.597600 0.000000
-24.560800 0.000000
-24.523900 0.000000
-24.487000 0.000000
-24.450100 0.000000
-24.413300 0.000000
-24.376400 0.000000
-24.339500 0.000000
-24.302700 0.000000
-24.265800 0.000000
-24.228900 0.000000
-24.192100 1.259400
-24.155200 2.470600
-24.118300 3.139900
-24.081400 3.807800
-24.044600 3.093700
-24.007700 2.695000
-23.970800 1.999400
-23.934000 1.999400
-23.897100 1.842600
-23.860200 1.690300
-23.823300 1.554800
-23.786500 1.334500
-23.749600 1.334600
-23.712700 1.334600
-23.675900 1.334600
-23.639000 1.310400
-23.602100 1.207000
-23.565300 1.139600
-23.528400 1.051000
-23.491500 1.002700
-23.454600 1.002800
-23.417800 1.002800
-23.380900 1.002800
-23.344000 1.002800
-23.307200 1.002800
-23.270300 0.978300
-23.233400 0.920000
-23.196600 0.879000
-23.159700 0.804200
-23.122800 0.804300
-23.085900 0.804300
-23.049100 0.804300
-23.012200 0.804300
-22.975300 0.804300
-22.938500 0.804300
-22.901600 0.804300
-22.864700 0.804300
-22.827800 0.801200
-22.791000 0.757400
-22.754100 0.729000
-22.717200 0.693800
-22.680400 0.672400
-22.643500 0.672400
-22.606600 0.672400
-22.569800 0.672400
-22.532900 0.672400
-22.496000 0.672400
-22.459100 0.672400
-22.422300 0.672400
-22.385400 0.672400
-22.348500 0.672400
-22.311700 0.672400
-22.274800 0.661000
-22.237900 0.632400
-22.201000 0.611800
-22.164200 0.578800
-22.127300 0.578800
-22.090400 0.578800
-22.053600 0.578800
-22.016700 0.578800
-21.979800 0.578800
-21.943000 0.578800
-21.906100 0.578800
-21.869200 0.578800
-21.832300 0.578800
-21.795500 0.578800
-21.758600 0.578800
-21.721700 0.578800
-21.684900 0.578800
-21.648000 0.573300
-21.611100 0.549900
-21.574200 0.534000
-21.537400 0.509200
-21.500500 0.509200
-21.463600 0.509200
-21.426800 0.509200
-21.389900 0.509200
-21.353000 0.509200
-21.316200 0.509200
-21.279300 0.509200
-21.242400 0.509200
-21.205500 0.509200
-21.168700 0.509200
-21.131800 0.509200
-21.094900 0.509200
-21.058100 0.509200
-21.021200 0.509200
-20.984300 0.509200
-20.947400 0.509200
-20.910600 0.492200
-20.873700 0.479200
-20.836800 0.462600
-20.800000 0.455700
-20.763100 0.455700
-20.726200 0.455700
-20.689400 0.455700
-20.652500 0.455700
-20.615600 0.455700
-20.578700 0.455700
-20.541900 0.455700
-20.505000 0.455700
-20.468100 0.455700
-20.431300 0.455700
-20.394400 0.455700
-20.357500 0.455700
-20.320600 0.455700
-20.283800 0.455700
-20.246900 0.455700
-20.210000 0.455700
-20.173200 0.455700
-20.136300 0.454200
-20.099400 0.438700
-20.062600 0.428200
-20.025700 0.413700
-19.988800 0.413700
-19.951900 0.413700
-19.915100 0.413700
-19.878200 0.413700
-19.841300 0.413700
-19.804500 0.413700
-19.767600 0.413700
-19.730700 0.413700
-19.693800 0.413700
-19.657000 0.413700
-19.620100 0.413700
-19.583200 0.413700
-19.546400 0.413700
-19.509500 0.413700
-19.472600 0.413700
-19.435800 0.413700
-19.398900 0.413700
-19.362000 0.413700
-19.325100 0.413700
-19.288300 0.413700
-19.251400 1.810100
-19.214500 1.516000
-19.177700 1.699300
-19.140800 0.000000
-19.103900 0.000000
-19.067000 0.000000
-19.030200 0.000000
-18.993300 0.000000
-18.956400 0.000000
-18.919600 0.000000
-18.882700 0.000000
-18.845800 0.000000
-18.809000 0.000000
-18.772100 0.000000
-18.735200 0.000000
-18.698300 0.000000
-18.661500 0.000000
-18.624600 0.000000
-18.587700 0.000000
-18.550900 0.000000
-18.514000 0.000000
-18.477100 0.000000
-18.440200 0.000000
-18.403400 0.000000
-18.366500 0.000000
-18.329600 0.000000
-18.292800 1.533400
-18.255900 1.523500
-18.219000 1.942900
-18.182200 0.353500
-18.145300 0.353500
-18.108400 0.353500
-18.071500 0.353500
-18.034700 0.353500
-17.997800 0.353500
-17.960900 0.353500
-17.924100 0.353500
-17.887200 0.353500
-17.850300 0.353500
-17.813400 0.353500
-17.776600 0.353500
-17.739700 0.353500
-17.702800 0.353500
-17.666000 0.353500
-17.629100 0.353500
-17.592200 0.353500
-17.555400 0.353500
-17.518500 0.353500
-17.481600 0.353500
-17.444700 0.353500
-17.407900 0.353500
-17.371000 0.353500
-17.334100 0.353500
-17.297300 0.353500
-17.260400 0.351800
-17.223500 0.343300
-17.186600 0.336100
-17.149800 0.332500
-17.112900 0.332500
-17.076000 0.332500
-17.039200 0.332500
-17.002300 0.332500
-16.965400 0.332500
-16.928600 0.332500
-16.891700 0.332500
-16.854800 0.332500
-16.817900 0.332500
-16.781100 0.332500
-16.744200 0.332500
-16.707300 0.332500
-16.670500 0.332500
-16.633600 0.332500
-16.596700 0.332500
-16.559800 0.332500
-16.523000 0.332500
-16.486100 0.332500
-16.449200 0.332500
-16.412400 0.332500
-16.375500 0.332500
-16.338600 0.332500
-16.301800 0.332500
-16.264900 0.332500
-16.228000 0.332500
-16.191100 0.332500
-16.154300 0.328500
-16.117400 0.323100
-16.080500 0.316500
-16.043700 0.316500
-16.006800 0.316500
-15.969900 0.316500
-15.933000 0.316500
-15.896200 0.316500
-15.859300 0.316500
-15.822400 0.316500
-15.785600 0.316500
-15.748700 0.316500
-15.711800 0.316500
-15.675000 0.316500
-15.638100 0.316500
-15.601200 0.316500
-15.564300 0.316500
-15.527500 0.316500
-15.490600 0.316500
-15.453700 0.316500
-15.416900 0.316500
-15.380000 0.316500
-15.343100 0.316500
-15.306300 0.316500
-15.269400 0.316500
-15.232500 0.316500
-15.195600 0.316500
-15.158800 0.316500
-15.121900 0.316500
-15.085000 0.316500
-15.048200 0.316500
-15.011300 0.315400
-14.974400 0.310700
-14.937500 0.305700
-14.900700 0.305700
-14.863800 0.305700
-14.826900 0.305700
-14.790100 0.305700
-14.753200 0.305700
-14.716300 0.305700
-14.679500 0.305700
-14.642600 0.305700
-14.605700 0.305700
-14.568800 0.305700
-14.532000 0.305700
-14.495100 0.305700
-14.458200 0.305700
-14.421400 0.305700
-14.384500 0.305700
-14.347600 0.305700
-14.310700 0.305700
-14.273900 0.305700
-14.237000 0.305700
-14.200100 0.305700
-14.163300 0.305700
-14.126400 0.305700
-14.089500 0.305700
-14.052700 0.305700
-14.015800 0.305700
-13.978900 0.305700
-13.942000 0.305700
-13.905200 0.305700
-13.868300 0.305700
-13.831400 0.305700
-13.794600 0.303500
-13.757700 0.301000
-13.720800 0.300800
-13.683900 0.300800
-13.647100 0.300800
-13.610200 0.300800
-13.573300 0.300800
-13.536500 0.300800
-13.499600 0.300800
-13.462700 0.300800
-13.425900 0.300800
-13.389000 0.300800
-13.352100 0.300800
-13.315200 0.300800
-13.278400 0.300800
-13.241500 0.300800
-13.204600 0.300800
-13.167800 0.300800
-13.130900 0.300800
-13.094000 0.300800
-13.057100 0.300800
-13.020300 0.300800
-12.983400 0.300800
-12.946500 0.300800
-12.909700 0.300800
-12.872800 0.300800
-12.835900 0.300800
-12.799100 0.300800
-12.762200 0.300800
-12.725300 0.300800
-12.688400 0.300800
-12.651600 0.300800
-12.614700 0.300800
-12.577800 0.302500
-12.541000 0.304100
-12.504100 0.304100
-12.467200 0.304100
-12.430300 0.304100
-12.393500 0.304100
-12.356600 0.304100
-12.319700 0.304100
-12.282900 0.304100
-12.246000 0.304100
-12.209100 0.304100
-12.172300 0.304100
-12.135400 0.304100
-12.098500 0.304100
-12.061600 0.304100
-12.024800 0.304100
-11.987900 0.304100
-11.951000 0.304100
-11.914200 0.304100
-11.877300 0.304100
-11.840400 0.304100
-11.803500 0.304100
-11.766700 0.304100
-11.729800 0.304100
-11.692900 0.304100
-11.656100 0.304100
-11.619200 0.304100
-11.582300 0.304100
-11.545500 0.304100
-11.508600 0.304100
-11.471700 0.304100
-11.434800 0.304100
-11.398000 0.309300
-11.361100 0.319100
-11.324200 0.320700
-11.287400 0.320700
-11.250500 0.320700
-11.213600 0.320700
-11.176700 0.320700
-11.139900 0.320700
-11.103000 0.320700
-11.066100 0.320700
-11.029300 0.320700
-10.992400 0.320700
-10.955500 0.320700
-10.918700 0.320700
-10.881800 0.320700
-10.844900 0.320700
-10.808000 0.320700
-10.771200 0.320700
-10.734300 0.320700
-10.697400 0.320700
-10.660600 0.320700
-10.623700 0.320700
-10.586800 0.320700
-10.549900 0.320700
-10.513100 0.320700
-10.476200 0.320700
-10.439300 0.320700
-10.402500 0.320700
-10.365600 0.320700
-10.328700 0.320700
-10.291900 0.320700
-10.255000 0.338700
-10.218100 0.366400
-10.181200 0.366400
-10.144400 0.366400
-10.107500 0.366400
-10.070600 0.366400
-10.033800 0.366400
-9.996900 0.366400
-9.960000 0.366400
-9.923100 0.366400
-9.886300 0.366400
-9.849400 0.366400
-9.812500 0.366400
-9.775700 0.366400
-9.738800 0.366400
-9.701900 0.366400
-9.665100 0.366400
-9.628200 0.366400
-9.591300 0.366400
-9.554400 0.366400
-9.517600 0.366400
-9.480700 0.366400
-9.443800 0.366400
-9.407000 0.366400
-9.370100 0.366400
-9.333200 0.366400
-9.296300 0.366400
-9.259500 1.567700
-9.222600 1.959600
-9.185700 1.407800
-9.148900 1.309800
-9.112000 1.063300
-9.075100 0.879500
-9.038300 0.770500
-9.001400 0.748200
-8.964500 0.725900
-8.927600 0.914900
-8.890800 0.998100
-8.853900 1.039900
-8.817000 1.087400
-8.780200 1.124700
-8.743300 1.172100
-8.706400 1.179200
-8.669500 1.208700
-8.632700 1.238100
-8.595800 1.267600
-8.558900 1.333500
-8.522100 1.797400
-8.485200 1.619400
-8.448300 1.694800
-8.411500 1.671900
-8.374600 1.748500
-8.337700 1.720600
-8.300800 1.698800
-8.264000 1.677200
-8.227100 1.675800
-8.190200 1.689800
-8.153400 1.875900
-8.116500 1.946100
-8.079600 2.028200
-8.042800 4.280300
-8.005900 1.794800
-7.969000 1.808400
-7.932100 2.044000
-7.895300 2.140000
-7.858400 2.473100
-7.821500 2.882200
-7.784700 3.171800
-7.747800 4.127300
-7.710900 3.414600
-7.674000 3.232800
-7.637200 2.908300
-7.600300 2.703200
-7.563400 2.702400
-7.526600 2.680500
-7.489700 3.012200
-7.452800 2.622000
-7.416000 2.371300
-7.379100 2.212500
-7.342200 2.168400
-7.305300 2.112600
-7.268500 2.042100
-7.231600 1.972700
-7.194700 1.933500
-7.157900 1.883000
-7.121000 1.819600
-7.084100 1.745500
-7.047200 1.717400
-7.010400 1.681200
-6.973500 1.667000
-6.936600 1.650500
-6.899800 1.630400
-6.862900 1.615400
-6.826000 1.597100
-6.789200 1.568900
-6.752300 1.538200
-6.715400 1.475400
-6.678500 1.435000
-6.641700 1.420900
-6.604800 1.416500
-6.567900 1.412100
-6.531100 1.407500
-6.494200 1.399800
-6.457300 1.390200
-6.420400 1.379800
-6.383600 1.365000
-6.346700 1.344200
-6.309800 1.329000
-6.273000 1.314300
-6.236100 1.295800
-6.199200 1.276800
-6.162400 1.253500
-6.125500 1.235300
-6.088600 1.231600
-6.051700 1.228000
-6.014900 1.225300
-5.978000 1.222600
-5.941100 1.223700
-5.904300 1.211000
-5.867400 1.201300
-5.830500 1.193900
-5.793600 1.185600
-5.756800 1.180100
-5.719900 1.173200
-5.683000 1.165200
-5.646200 1.156200
-5.609300 1.143500
-5.572400 1.128500
-5.535600 1.110500
-5.498700 1.106400
-5.461800 1.102500
-5.424900 1.095900
-5.388100 1.093500
-5.351200 1.091200
-5.314300 1.089500
-5.277500 1.087800
-5.240600 1.086100
-5.203700 1.083600
-5.166800 1.079400
-5.130000 1.075400
-5.093100 1.070500
-5.056200 1.065900
-5.019400 1.061100
-4.982500 1.055000
-4.945600 1.048000
-4.908800 1.037700
-4.871900 1.028200
-4.835000 1.016200
-4.798100 1.014100
-4.761300 1.013700
-4.724400 1.013300
-4.687500 1.012900
-4.650700 1.288800
-4.613800 1.255200
-4.576900 1.077200
-4.540000 1.058300
-4.503200 1.039400
-4.466300 1.011900
-4.429400 0.962500
-4.392600 0.946400
-4.355700 0.929100
-4.318800 0.912500
-4.282000 0.893100
-4.245100 0.871300
-4.208200 0.853700
-4.171300 0.835500
-4.134500 0.816400
-4.097600 0.795200
-4.060700 0.793500
-4.023900 0.770300
-3.987000 0.751300
-3.950100 0.732300
-3.913200 0.778500
-3.876400 1.280200
-3.839500 1.295700
-3.802600 0.805600
-3.765800 0.839100
-3.728900 0.872600
-3.692000 0.861600
-3.655200 0.900000
-3.618300 0.938400
-3.581400 0.984600
-3.544500 1.062300
-3.507700 1.171500
-3.470800 1.432900
-3.433900 1.722700
-3.397100 1.715300
-3.360200 1.550500
-3.323300 1.745600
-3.286400 1.718800
-3.249600 0.609000
-3.212700 0.165600
-3.175800 0.000000
-3.139000 0.000000
-3.102100 0.000000
-3.065200 0.139500
-3.028400 0.242100
-2.991500 0.321500
-2.954600 0.400900
-2.917700 0.479900
-2.880900 0.576600
-2.844000 0.691800
-2.807100 0.902100
-2.770300 1.227300
-2.733400 1.379400
-2.696500 1.379300
-2.659600 1.379200
-2.622800 1.379100
-2.585900 1.379000
-2.549000 1.600300
-2.512200 1.548000
-2.475300 1.581400
-2.438400 1.388500
-2.401600 1.546600
-2.364700 1.619300
-2.327800 2.163100
-2.290900 1.857900
-2.254100 0.710600
-2.217200 0.716100
-2.180300 0.714800
-2.143500 0.713600
-2.106600 0.712300
-2.069700 0.724300
-2.032800 0.930900
-1.996000 1.019100
-1.959100 1.122300
-1.922200 1.245800
-1.885400 1.291300
-1.848500 1.549700
-1.811600 1.816700
-1.774800 1.917400
-1.737900 1.905600
-1.701000 1.950900
-1.664100 2.007800
-1.627300 2.066200
-1.590400 1.639500
-1.553500 1.907800
-1.516700 1.912000
-1.479800 1.868000
-1.442900 2.096800
-1.406000 2.211300
-1.369200 2.973400
-1.332300 1.501600
-1.295400 1.485400
-1.258600 1.469200
-1.221700 1.442500
-1.184800 1.421800
-1.148000 1.398600
-1.111100 1.382000
-1.074200 1.363300
-1.037300 1.344500
-1.000500 1.326300
-0.963600 1.305500
-0.926700 1.287700
-0.889900 1.264000
-0.853000 1.246000
-0.816100 1.232300
-0.779200 1.219200
-0.742400 1.209100
-0.705500 1.199000
-0.668600 1.188900
-0.631800 1.177900
-0.594900 1.164100
-0.558000 1.149100
-0.521200 1.136500
-0.484300 1.124300
-0.447400 1.120900
-0.410500 1.118700
-0.373700 1.116500
-0.336800 1.110900
-0.299900 1.103400
-0.263100 1.095200
-0.226200 1.087300
-0.189300 1.084200
-0.152500 1.072800
-0.115600 1.062100
-0.078700 1.054100
-0.041800 1.046100
-0.005000 1.038100
0.031900 1.029700
0.068800 1.019400
0.105600 1.007400
0.142500 0.998600
0.179400 0.992300
0.216300 0.994000
0.253100 0.996000
0.290000 1.008800
0.326900 1.008300
0.363700 0.999200
0.400600 0.987200
0.437500 0.977800
0.474300 0.974900
0.511200 0.975900
0.548100 0.976200
0.585000 0.973400
0.621800 0.968600
0.658700 0.961000
0.695600 0.971600
0.732400 0.956000
0.769300 0.947400
0.806200 0.944700
0.843100 0.947300
0.879900 0.955300
0.916800 0.950500
0.953700 0.980000
0.990500 0.983200
1.027400 0.940700
1.064300 0.898100
1.101100 0.855600
1.138000 0.920200
1.174900 0.881700
1.211800 0.678700
1.248600 0.404500
1.285500 0.404500
1.322400 0.404500
1.359200 0.418500
1.396100 0.435000
1.433000 0.443700
1.469900 0.448900
1.506700 0.453200
1.543600 0.456100
1.580500 0.456600
1.617300 0.456600
1.654200 0.456600
1.691100 0.456600
1.727900 0.456500
1.764800 0.456500
1.801700 0.456500
1.838600 0.456500
1.875400 0.456400
1.912300 0.456400
1.949200 0.456400
1.986000 0.456400
2.022900 0.456300
2.059800 0.456300
2.096700 0.482500
2.133500 0.498600
2.170400 0.509900
2.207300 0.519400
2.244100 0.528300
2.281000 0.538300
2.317900 0.545600
2.354700 0.550200
2.391600 0.554700
2.428500 0.557500
2.465400 0.557300
2.502200 0.557200
2.539100 0.557000
2.576000 0.556900
2.612800 0.556700
2.649700 0.590400
2.686600 0.619800
2.723500 0.637900
2.760300 0.653200
2.797200 0.665800
2.834100 0.676600
2.870900 0.686500
2.907800 0.695700
2.944700 0.704100
2.981500 0.712400
3.018400 0.751900
3.055300 0.833300
3.092200 0.885200
3.129000 0.916100
3.165900 0.944400
3.202800 0.968700
3.239600 1.061800
3.276500 1.227400
3.313400 1.343400
3.350300 1.704800
3.387100 2.705500
3.424000 2.107700
3.460900 1.955100
3.497700 1.663400
3.534600 1.427800
3.571500 1.363400
3.608300 1.329900
3.645200 1.289600
3.682100 1.230500
3.719000 1.149400
3.755800 1.088800
3.792700 1.063700
3.829600 1.042800
3.866400 1.018000
3.903300 0.980900
3.940200 0.953200
3.977100 0.928800
4.013900 0.898600
4.050800 0.871900
4.087700 0.854800
4.124500 0.840000
4.161400 0.826600
4.198300 0.810700
4.235100 0.799300
4.272000 0.786600
4.308900 0.771400
4.345800 0.755400
4.382600 0.734400
4.419500 0.714200
4.456400 0.704900
4.493200 0.684800
4.530100 0.670800
4.567000 0.667500
4.603900 0.671700
4.640700 0.665300
4.677600 0.629800
4.714500 0.585100
4.751300 0.445000
4.788200 0.369000
4.825100 0.258400
4.861900 0.249900
4.898800 0.184400
4.935700 0.138400
4.972600 0.000000
5.009400 0.000000
5.046300 0.000000
5.083200 0.000000
5.120000 0.000000
5.156900 0.000000
5.193800 0.000000
5.230700 0.000000
5.267500 0.000000
5.304400 0.000000
5.341300 0.000000
5.378100 0.000000
5.415000 0.000000
5.451900 0.000000
5.488700 0.000000
5.525600 0.000000
5.562500 0.000000
5.599400 0.000000
5.636200 0.000000
5.673100 0.000000
5.710000 0.000000
5.746800 0.000000
5.783700 0.000000
5.820600 0.000000
5.857500 0.000000
5.894300 0.000000
5.931200 0.000000
5.968100 0.061800
6.004900 0.107100
6.041800 0.161300
6.078700 0.207600
6.115500 0.210500
6.152400 0.231400
6.189300 0.252100
6.226200 0.277800
6.263000 0.298800
6.299900 0.338200
6.336800 0.352400
6.373600 0.363800
6.410500 0.364500
6.447400 0.375100
6.484300 0.378500
6.521100 0.384200
6.558000 0.387000
6.594900 0.440600
6.631700 0.457100
6.668600 0.479300
6.705500 0.489900
6.742300 0.510200
6.779200 0.532400
6.816100 0.546500
6.853000 0.568000
6.889800 0.589600
6.926700 0.608700
6.963600 0.631700
7.000400 0.654400
7.037300 0.693000
7.074200 0.710800
7.111100 0.728100
7.147900 0.734500
7.184800 0.753600
7.221700 0.769400
7.258500 0.784100
7.295400 0.797000
7.332300 0.811400
7.369100 0.825000
7.406000 0.854600
7.442900 0.879800
7.479800 0.969400
7.516600 3.275900
7.553500 2.086400
7.590400 1.726800
7.627200 1.564100
7.664100 1.542100
7.701000 1.521000
7.737800 1.499800
7.774700 1.502600
7.811600 1.504700
7.848500 1.508900
7.885300 1.514800
7.922200 1.522600
7.959100 1.528700
7.995900 1.531400
8.032800 1.551900
8.069700 1.401800
8.106600 1.338500
8.143400 1.345100
8.180300 1.331300
8.217200 1.311400
8.254000 1.293500
8.290900 1.282100
8.327800 1.268200
8.364600 1.261200
8.401500 1.255300
8.438400 1.250900
8.475300 1.248100
8.512100 1.248500
8.549000 1.250200
8.585900 1.252700
8.622700 1.254900
8.659600 1.257900
8.696500 1.260700
8.733400 1.266700
8.770200 1.296600
8.807100 1.294700
8.844000 1.319100
8.880800 1.356800
8.917700 1.387000
8.954600 1.414300
8.991400 1.457000
9.028300 1.414000
9.065200 1.399900
9.102100 1.419900
9.138900 1.423600
9.175800 1.476200
9.212700 1.351700
9.249500 1.240900
9.286400 1.185100
9.323300 1.178400
9.360200 1.181900
9.397000 1.152800
9.433900 1.130700
9.470800 1.105900
9.507600 1.089900
9.544500 1.076300
9.581400 1.060600
9.618200 1.036800
9.655100 1.066900
9.692000 1.114200
9.728900 1.158600
9.765700 1.205600
9.802600 1.258700
9.839500 1.288200
9.876300 1.321400
9.913200 1.361300
9.950100 1.407800
9.987000 1.420500
10.023800 1.473000
10.060700 1.622300
10.097600 1.491000
10.134400 1.611000
10.171300 1.593900
10.208200 1.611800
10.245000 2.261500
10.281900 2.240600
