set title 'mp-1078666 - Density of States'
set xlabel 'Energy (eV)'
set ylabel 'DOS (states/eV)'
set grid
set xrange [-10:10]
set yrange [0:520.119]
set xzeroaxis lt -1
set terminal png size 800,600
set output 'mp-1078666_dos_gnuplot.png'
plot '-' using 1:2 with lines title 'DOS'
-9.466600 0.000000
-9.450100 0.000000
-9.433600 0.000000
-9.417100 0.000000
-9.400700 0.000000
-9.384200 0.000000
-9.367700 0.000000
-9.351200 0.000000
-9.334700 0.000000
-9.318200 0.000000
-9.301700 0.000000
-9.285200 0.000000
-9.268700 0.000000
-9.252200 0.000000
-9.235700 0.000000
-9.219200 0.000000
-9.202700 0.000000
-9.186200 0.000000
-9.169800 0.000000
-9.153300 0.000000
-9.136800 0.000000
-9.120300 0.000000
-9.103800 0.000000
-9.087300 0.000000
-9.070800 0.000000
-9.054300 0.000000
-9.037800 0.000000
-9.021300 0.000000
-9.004800 0.000000
-8.988300 0.000000
-8.971800 0.000000
-8.955300 0.000000
-8.938800 0.000000
-8.922400 0.000000
-8.905900 0.000000
-8.889400 0.000000
-8.872900 0.000000
-8.856400 0.000000
-8.839900 0.000000
-8.823400 0.000000
-8.806900 0.000000
-8.790400 0.000000
-8.773900 0.000000
-8.757400 0.000000
-8.740900 0.000000
-8.724400 0.000000
-8.707900 0.000000
-8.691400 0.000000
-8.675000 0.000000
-8.658500 0.000000
-8.642000 0.000000
-8.625500 0.000000
-8.609000 0.000000
-8.592500 0.000000
-8.576000 0.000000
-8.559500 0.000000
-8.543000 0.000000
-8.526500 0.000000
-8.510000 0.000000
-8.493500 0.000000
-8.477000 0.000000
-8.460500 0.000000
-8.444100 0.000000
-8.427600 0.000000
-8.411100 0.000000
-8.394600 0.000000
-8.378100 0.000000
-8.361600 0.000000
-8.345100 0.000000
-8.328600 0.000000
-8.312100 0.000000
-8.295600 0.000000
-8.279100 0.000000
-8.262600 0.000000
-8.246100 0.000000
-8.229600 0.000000
-8.213100 0.000000
-8.196700 0.000000
-8.180200 0.000000
-8.163700 0.000000
-8.147200 0.000000
-8.130700 0.000000
-8.114200 0.000000
-8.097700 0.000000
-8.081200 0.000000
-8.064700 0.000000
-8.048200 0.000000
-8.031700 0.000000
-8.015200 0.000000
-7.998700 0.000000
-7.982200 0.000000
-7.965700 25.136900
-7.949300 379.778600
-7.932800 472.835200
-7.916300 58.431700
-7.899800 122.834900
-7.883300 6.541500
-7.866800 0.000000
-7.850300 0.000000
-7.833800 0.000000
-7.817300 0.000000
-7.800800 0.000000
-7.784300 0.000000
-7.767800 0.000000
-7.751300 0.000000
-7.734800 0.000000
-7.718400 0.000000
-7.701900 0.000000
-7.685400 0.000000
-7.668900 0.000000
-7.652400 0.000000
-7.635900 0.000000
-7.619400 0.000000
-7.602900 0.000000
-7.586400 0.000000
-7.569900 0.000000
-7.553400 0.000000
-7.536900 0.000000
-7.520400 0.000000
-7.503900 0.000000
-7.487400 0.000000
-7.471000 0.000000
-7.454500 0.000000
-7.438000 0.000000
-7.421500 0.000000
-7.405000 0.000000
-7.388500 0.000000
-7.372000 0.000000
-7.355500 0.000000
-7.339000 0.000000
-7.322500 0.000000
-7.306000 0.000000
-7.289500 0.000000
-7.273000 0.000000
-7.256500 0.000000
-7.240000 0.000000
-7.223600 0.000000
-7.207100 0.000000
-7.190600 0.000000
-7.174100 0.000000
-7.157600 0.000000
-7.141100 0.000000
-7.124600 0.000000
-7.108100 0.000000
-7.091600 0.000000
-7.075100 0.000000
-7.058600 0.000000
-7.042100 0.000000
-7.025600 0.000000
-7.009100 0.000000
-6.992700 0.000000
-6.976200 0.000000
-6.959700 0.000000
-6.943200 0.000000
-6.926700 0.000000
-6.910200 0.000000
-6.893700 0.000000
-6.877200 0.000000
-6.860700 0.000000
-6.844200 0.000000
-6.827700 0.000000
-6.811200 0.000000
-6.794700 0.000000
-6.778200 0.000000
-6.761700 0.000000
-6.745300 0.000000
-6.728800 0.000000
-6.712300 0.000000
-6.695800 0.000000
-6.679300 0.000000
-6.662800 0.000000
-6.646300 0.000000
-6.629800 0.000000
-6.613300 0.000000
-6.596800 0.000000
-6.580300 0.000000
-6.563800 0.000000
-6.547300 0.000000
-6.530800 0.000000
-6.514300 0.000000
-6.497900 0.000000
-6.481400 0.000000
-6.464900 0.000000
-6.448400 0.000000
-6.431900 0.000000
-6.415400 0.000000
-6.398900 0.000000
-6.382400 0.000000
-6.365900 0.000000
-6.349400 0.000000
-6.332900 0.000000
-6.316400 0.000000
-6.299900 0.000000
-6.283400 0.000000
-6.267000 0.000000
-6.250500 0.000000
-6.234000 0.000000
-6.217500 0.000000
-6.201000 0.000000
-6.184500 0.000000
-6.168000 0.000000
-6.151500 0.000000
-6.135000 0.000000
-6.118500 0.000000
-6.102000 0.000000
-6.085500 0.000000
-6.069000 0.000000
-6.052500 0.000000
-6.036000 0.000000
-6.019600 0.000000
-6.003100 0.000000
-5.986600 0.000000
-5.970100 0.000000
-5.953600 0.000000
-5.937100 0.000000
-5.920600 0.000000
-5.904100 0.000000
-5.887600 0.000000
-5.871100 0.000000
-5.854600 0.000000
-5.838100 0.000000
-5.821600 0.000000
-5.805100 0.000000
-5.788700 0.000000
-5.772200 0.000000
-5.755700 0.000000
-5.739200 0.000000
-5.722700 0.000000
-5.706200 0.000000
-5.689700 0.000000
-5.673200 0.000000
-5.656700 0.000000
-5.640200 0.000000
-5.623700 0.000000
-5.607200 0.000000
-5.590700 0.000000
-5.574200 0.000000
-5.557700 0.000000
-5.541300 0.000000
-5.524800 0.000000
-5.508300 0.000000
-5.491800 0.000000
-5.475300 0.000000
-5.458800 0.000000
-5.442300 0.000000
-5.425800 0.000000
-5.409300 0.000000
-5.392800 0.000000
-5.376300 0.000000
-5.359800 0.000000
-5.343300 0.000000
-5.326800 0.000000
-5.310300 0.000000
-5.293900 0.000000
-5.277400 0.000000
-5.260900 0.000000
-5.244400 0.000000
-5.227900 0.000000
-5.211400 0.000000
-5.194900 0.000000
-5.178400 0.000000
-5.161900 0.000000
-5.145400 0.000000
-5.128900 0.000000
-5.112400 0.000000
-5.095900 0.000000
-5.079400 0.000000
-5.063000 0.000000
-5.046500 0.000000
-5.030000 0.000000
-5.013500 0.000000
-4.997000 0.000000
-4.980500 0.000000
-4.964000 0.000000
-4.947500 0.000000
-4.931000 0.000000
-4.914500 0.000000
-4.898000 0.000000
-4.881500 0.000000
-4.865000 0.000000
-4.848500 0.000000
-4.832000 0.000000
-4.815600 0.000000
-4.799100 0.000000
-4.782600 0.000000
-4.766100 0.000000
-4.749600 0.000000
-4.733100 0.000000
-4.716600 0.000000
-4.700100 0.000000
-4.683600 0.000000
-4.667100 0.000000
-4.650600 0.000000
-4.634100 0.000000
-4.617600 0.000000
-4.601100 0.000000
-4.584600 0.000000
-4.568200 0.000000
-4.551700 0.000000
-4.535200 0.000000
-4.518700 0.000000
-4.502200 0.000000
-4.485700 0.000000
-4.469200 0.000000
-4.452700 0.000000
-4.436200 0.000000
-4.419700 0.000000
-4.403200 0.000000
-4.386700 0.000000
-4.370200 0.000000
-4.353700 0.000000
-4.337300 0.000000
-4.320800 0.000000
-4.304300 0.000000
-4.287800 0.000000
-4.271300 0.000000
-4.254800 0.000000
-4.238300 0.000000
-4.221800 0.000000
-4.205300 0.000000
-4.188800 0.000000
-4.172300 0.000000
-4.155800 0.000000
-4.139300 0.000000
-4.122800 0.000000
-4.106300 0.000000
-4.089900 0.000000
-4.073400 0.000000
-4.056900 0.000000
-4.040400 0.000000
-4.023900 0.000000
-4.007400 0.000000
-3.990900 0.000000
-3.974400 0.000000
-3.957900 0.000000
-3.941400 0.000000
-3.924900 0.000000
-3.908400 0.000000
-3.891900 0.000000
-3.875400 0.000300
-3.858900 0.013000
-3.842500 0.044400
-3.826000 0.094100
-3.809500 0.140200
-3.793000 0.167500
-3.776500 0.176400
-3.760000 0.180300
-3.743500 0.190500
-3.727000 0.207200
-3.710500 0.227300
-3.694000 0.248100
-3.677500 0.269400
-3.661000 0.287300
-3.644500 0.298800
-3.628000 0.303700
-3.611600 0.307300
-3.595100 0.313500
-3.578600 0.323100
-3.562100 0.333900
-3.545600 0.344800
-3.529100 0.355500
-3.512600 0.366000
-3.496100 0.376500
-3.479600 0.386800
-3.463100 0.397700
-3.446600 0.409500
-3.430100 0.421600
-3.413600 0.432200
-3.397100 0.440700
-3.380600 0.447200
-3.364200 0.453300
-3.347700 0.459600
-3.331200 0.466700
-3.314700 0.474200
-3.298200 0.481800
-3.281700 0.489200
-3.265200 0.496500
-3.248700 0.503500
-3.232200 0.510700
-3.215700 0.518600
-3.199200 0.527300
-3.182700 0.536400
-3.166200 0.545600
-3.149700 0.554900
-3.133300 0.564400
-3.116800 0.574000
-3.100300 0.583100
-3.083800 0.591100
-3.067300 0.598000
-3.050800 0.604600
-3.034300 0.611500
-3.017800 0.618100
-3.001300 0.624100
-2.984800 0.630100
-2.968300 0.636600
-2.951800 0.643500
-2.935300 0.650600
-2.918800 0.657700
-2.902300 0.664900
-2.885900 0.672300
-2.869400 0.679800
-2.852900 0.687400
-2.836400 0.695200
-2.819900 0.703200
-2.803400 0.711200
-2.786900 0.719200
-2.770400 0.727300
-2.753900 0.735400
-2.737400 0.743400
-2.720900 0.751600
-2.704400 0.792800
-2.687900 0.866700
-2.671400 0.935200
-2.654900 0.931300
-2.638500 0.903700
-2.622000 0.878200
-2.605500 0.884800
-2.589000 0.890500
-2.572500 0.895200
-2.556000 0.899000
-2.539500 0.902300
-2.523000 0.893600
-2.506500 0.878600
-2.490000 0.864500
-2.473500 0.862600
-2.457000 0.861000
-2.440500 0.859200
-2.424000 0.857200
-2.407600 0.855100
-2.391100 0.853000
-2.374600 0.850700
-2.358100 0.848600
-2.341600 0.848400
-2.325100 0.848400
-2.308600 0.844600
-2.292100 0.837000
-2.275600 0.829800
-2.259100 0.826600
-2.242600 0.844200
-2.226100 0.932400
-2.209600 1.026400
-2.193100 1.040200
-2.176600 1.022100
-2.160200 1.012000
-2.143700 1.031100
-2.127200 1.051000
-2.110700 1.071500
-2.094200 1.092600
-2.077700 1.103800
-2.061200 1.103600
-2.044700 1.104700
-2.028200 1.114300
-2.011700 1.125400
-1.995200 1.137100
-1.978700 1.150700
-1.962200 1.165000
-1.945700 1.179400
-1.929200 1.194400
-1.912800 1.211300
-1.896300 1.225000
-1.879800 1.238500
-1.863300 1.250500
-1.846800 1.263800
-1.830300 1.278500
-1.813800 1.294600
-1.797300 1.311100
-1.780800 1.327900
-1.764300 1.345000
-1.747800 1.362500
-1.731300 1.382000
-1.714800 1.401700
-1.698300 1.421900
-1.681900 1.493200
-1.665400 1.503200
-1.648900 1.478300
-1.632400 1.498000
-1.615900 1.550400
-1.599400 1.606000
-1.582900 1.686200
-1.566400 1.789700
-1.549900 1.813000
-1.533400 1.820000
-1.516900 1.855000
-1.500400 1.895100
-1.483900 1.931500
-1.467400 2.004400
-1.450900 1.939300
-1.434500 1.968200
-1.418000 2.016900
-1.401500 2.027300
-1.385000 2.099000
-1.368500 2.268100
-1.352000 2.336600
-1.335500 2.425100
-1.319000 2.515300
-1.302500 2.592500
-1.286000 2.692300
-1.269500 2.779600
-1.253000 2.863500
-1.236500 2.960200
-1.220000 3.087800
-1.203500 3.243600
-1.187100 3.468400
-1.170600 3.780100
-1.154100 4.440500
-1.137600 4.644800
-1.121100 4.560800
-1.104600 4.473900
-1.088100 4.408600
-1.071600 4.365700
-1.055100 4.334500
-1.038600 3.884000
-1.022100 3.480100
-1.005600 3.066200
-0.989100 2.637700
-0.972600 2.380600
-0.956200 2.188200
-0.939700 2.032800
-0.923200 1.904100
-0.906700 1.777100
-0.890200 1.656200
-0.873700 1.519400
-0.857200 1.447800
-0.840700 1.375600
-0.824200 1.344000
-0.807700 1.265600
-0.791200 1.191100
-0.774700 1.092500
-0.758200 1.024300
-0.741700 0.960100
-0.725200 0.914300
-0.708800 0.918400
-0.692300 0.924800
-0.675800 0.905900
-0.659300 0.863500
-0.642800 0.877600
-0.626300 0.860800
-0.609800 0.839400
-0.593300 0.847700
-0.576800 0.867100
-0.560300 0.836500
-0.543800 0.779000
-0.527300 0.717100
-0.510800 0.680400
-0.494300 0.655500
-0.477800 0.590800
-0.461400 0.541600
-0.444900 0.558900
-0.428400 0.580300
-0.411900 0.602100
-0.395400 0.629800
-0.378900 0.656500
-0.362400 0.681200
-0.345900 0.705900
-0.329400 0.758200
-0.312900 0.821600
-0.296400 0.831100
-0.279900 0.841000
-0.263400 0.868200
-0.246900 0.899000
-0.230500 0.931100
-0.214000 0.964900
-0.197500 0.996700
-0.181000 1.035000
-0.164500 1.119100
-0.148000 1.268900
-0.131500 1.403400
-0.115000 1.475100
-0.098500 1.538900
-0.082000 1.627700
-0.065500 1.727000
-0.049000 1.832000
-0.032500 1.925700
-0.016000 2.015600
0.000500 2.136100
0.016900 2.292500
0.033400 2.539900
0.049900 2.658800
0.066400 2.874000
0.082900 2.991300
0.099400 3.127700
0.115900 3.170200
0.132400 3.303800
0.148900 3.661300
0.165400 4.492100
0.181900 5.600500
0.198400 6.340000
0.214900 6.896100
0.231400 7.393000
0.247800 7.335000
0.264300 6.963000
0.280800 6.875600
0.297300 6.328300
0.313800 6.057600
0.330300 5.896500
0.346800 5.939400
0.363300 6.127900
0.379800 6.570400
0.396300 7.220900
0.412800 7.762700
0.429300 8.562900
0.445800 8.950400
0.462300 7.093200
0.478800 5.440900
0.495200 5.215500
0.511700 4.791300
0.528200 4.523600
0.544700 4.137200
0.561200 3.826500
0.577700 3.578100
0.594200 3.316700
0.610700 3.094200
0.627200 3.008300
0.643700 2.350200
0.660200 2.347900
0.676700 1.804600
0.693200 1.211200
0.709700 0.702800
0.726200 0.421700
0.742600 1.408400
0.759100 2.759200
0.775600 3.864800
0.792100 4.562700
0.808600 4.974200
0.825100 4.907300
0.841600 4.328000
0.858100 4.189000
0.874600 3.694100
0.891100 3.663700
0.907600 3.487500
0.924100 3.420300
0.940600 3.354700
0.957100 3.456000
0.973500 3.515300
0.990000 3.634100
1.006500 3.715100
1.023000 4.004900
1.039500 4.286100
1.056000 4.512500
1.072500 4.813900
1.089000 5.368900
1.105500 5.874300
1.122000 6.202500
1.138500 6.581200
1.155000 6.974200
1.171500 7.223500
1.188000 7.467400
1.204500 7.389400
1.220900 6.343200
1.237400 7.346600
1.253900 7.740300
1.270400 8.435400
1.286900 8.636300
1.303400 8.307100
1.319900 7.636600
1.336400 7.069300
1.352900 7.102600
1.369400 7.192300
1.385900 7.640900
1.402400 10.724600
1.418900 13.158900
1.435400 7.886200
1.451900 6.478100
1.468300 9.855100
1.484800 11.376300
1.501300 10.974000
1.517800 10.142000
1.534300 9.322500
1.550800 8.691100
1.567300 8.267900
1.583800 8.109400
1.600300 9.231700
1.616800 10.664000
1.633300 11.137700
1.649800 11.989000
1.666300 12.825000
1.682800 12.853700
1.699200 12.243500
1.715700 12.185700
1.732200 12.151700
1.748700 12.883400
1.765200 12.438700
1.781700 10.826400
1.798200 11.119200
1.814700 11.337700
1.831200 12.894100
1.847700 14.284400
1.864200 15.839900
1.880700 16.196700
1.897200 14.446700
1.913700 15.106600
1.930200 15.836700
1.946600 15.630300
1.963100 15.422000
1.979600 15.311900
1.996100 14.120900
2.012600 12.808100
2.029100 11.404900
2.045600 12.127600
2.062100 10.878700
2.078600 10.425600
2.095100 11.061400
2.111600 11.280300
2.128100 11.228000
2.144600 11.149300
2.161100 10.320600
2.177600 10.376200
2.194000 10.420900
2.210500 9.856500
2.227000 9.954500
2.243500 9.953700
2.260000 10.075200
2.276500 10.723400
2.293000 10.469700
2.309500 9.335800
2.326000 9.494900
2.342500 9.248300
2.359000 8.699700
2.375500 8.526100
2.392000 8.339500
2.408500 8.078600
2.424900 7.624600
2.441400 6.790300
2.457900 7.320800
2.474400 7.904600
2.490900 8.285100
2.507400 8.856100
2.523900 8.773500
2.540400 8.733500
2.556900 8.127300
2.573400 8.185400
2.589900 8.461200
2.606400 9.813600
2.622900 10.121200
2.639400 9.434300
2.655900 9.734600
2.672300 10.069000
2.688800 10.415600
2.705300 11.063900
2.721800 10.591200
2.738300 10.716900
2.754800 9.733200
2.771300 9.438500
2.787800 9.230000
2.804300 9.072700
2.820800 8.933100
2.837300 8.965900
2.853800 9.243900
2.870300 9.975300
2.886800 10.646900
2.903300 10.715200
2.919700 10.704700
2.936200 11.040100
2.952700 11.167500
2.969200 11.715500
2.985700 12.011100
3.002200 12.179500
3.018700 12.477300
3.035200 12.594900
3.051700 12.491600
3.068200 12.930700
3.084700 12.559200
3.101200 12.574100
3.117700 11.759300
3.134200 12.250000
3.150600 13.111000
3.167100 13.440300
3.183600 12.414800
3.200100 12.229900
3.216600 13.311000
3.233100 13.378400
3.249600 13.486400
3.266100 13.293400
3.282600 13.505400
3.299100 14.130900
3.315600 13.638100
3.332100 17.361700
3.348600 13.612300
3.365100 12.346300
3.381600 12.140300
3.398000 12.244600
3.414500 12.169900
3.431000 12.630400
3.447500 12.281700
3.464000 12.421100
3.480500 10.796000
3.497000 10.152200
3.513500 9.649900
3.530000 8.649600
3.546500 8.630000
3.563000 8.705100
3.579500 8.938600
3.596000 7.308400
3.612500 6.525500
3.628900 6.397000
3.645400 6.398000
3.661900 6.889500
3.678400 6.713500
3.694900 6.792600
3.711400 6.597100
3.727900 6.751300
3.744400 6.428800
3.760900 6.157400
3.777400 6.092100
3.793900 6.091100
3.810400 6.030500
3.826900 6.077600
3.843400 6.117600
3.859900 6.162100
3.876300 6.332900
3.892800 6.600100
3.909300 7.449200
3.925800 7.745200
3.942300 7.690400
3.958800 8.770000
3.975300 7.797800
3.991800 7.308200
4.008300 7.188000
4.024800 7.753200
4.041300 7.007100
4.057800 6.495600
4.074300 6.165400
4.090800 6.311200
4.107300 5.925600
4.123700 5.721100
4.140200 5.958100
4.156700 7.166000
4.173200 6.278300
4.189700 6.112700
4.206200 5.926800
4.222700 6.654700
4.239200 6.565500
4.255700 6.596500
4.272200 6.641900
4.288700 6.749500
4.305200 7.071900
4.321700 7.626800
4.338200 8.053800
4.354600 8.408500
4.371100 8.237500
4.387600 8.594500
4.404100 7.764200
4.420600 8.085300
4.437100 8.856400
4.453600 8.965000
4.470100 9.318900
4.486600 9.809000
4.503100 10.416400
4.519600 10.917200
4.536100 10.931000
4.552600 10.549600
4.569100 10.453600
4.585600 10.888800
4.602000 10.696800
4.618500 10.776500
4.635000 10.605400
4.651500 10.886700
4.668000 11.846800
4.684500 13.810300
4.701000 13.470600
4.717500 13.236700
4.734000 12.911800
4.750500 13.091600
4.767000 13.589600
4.783500 14.593000
4.800000 16.410200
4.816500 18.092400
4.833000 18.609400
4.849400 18.162100
4.865900 18.523100
4.882400 19.340500
4.898900 18.870100
4.915400 18.998900
4.931900 17.016000
4.948400 15.717300
4.964900 15.940000
4.981400 15.621100
4.997900 14.730200
5.014400 14.860600
5.030900 13.424500
5.047400 11.696700
5.063900 11.272400
5.080300 11.244200
5.096800 12.337800
5.113300 11.013200
5.129800 11.014800
5.146300 11.392700
5.162800 12.285300
5.179300 13.794500
5.195800 14.921400
5.212300 16.841600
5.228800 17.925800
5.245300 16.597400
5.261800 13.793100
5.278300 12.964000
5.294800 13.506700
5.311300 15.209000
5.327700 13.988500
5.344200 13.178500
5.360700 13.227700
5.377200 14.031000
5.393700 15.209800
5.410200 15.783800
5.426700 15.364500
5.443200 14.932700
5.459700 14.100500
5.476200 13.703600
5.492700 13.074200
5.509200 12.542000
5.525700 12.659700
5.542200 12.032300
5.558700 11.557100
5.575100 10.978200
5.591600 10.328100
5.608100 10.112400
5.624600 9.872600
5.641100 9.649800
5.657600 9.746300
5.674100 9.907200
5.690600 9.585600
5.707100 9.440800
5.723600 8.835400
5.740100 7.498800
5.756600 7.194400
5.773100 6.524600
5.789600 6.325800
5.806000 6.451600
5.822500 6.804000
5.839000 7.519200
5.855500 7.806400
5.872000 8.021800
5.888500 8.574300
5.905000 9.051000
5.921500 9.861000
5.938000 10.137800
5.954500 10.206900
5.971000 10.208100
5.987500 11.045800
6.004000 10.972400
6.020500 10.543600
6.037000 9.440000
6.053400 8.850400
6.069900 7.710100
6.086400 6.859300
6.102900 6.247000
6.119400 5.985800
6.135900 6.183800
6.152400 6.396100
6.168900 6.739100
6.185400 6.910000
6.201900 6.745900
6.218400 6.520600
6.234900 6.564100
6.251400 6.416800
6.267900 6.041300
6.284300 5.790600
6.300800 5.568700
6.317300 5.339100
6.333800 5.230600
6.350300 5.165900
6.366800 5.131000
6.383300 5.133700
6.399800 5.210300
6.416300 5.288600
6.432800 5.287600
6.449300 5.366100
6.465800 5.373800
6.482300 5.401900
6.498800 5.418000
6.515300 5.406300
6.531700 5.395200
6.548200 5.377000
6.564700 5.410900
6.581200 5.465600
6.597700 5.510000
6.614200 5.577300
6.630700 5.811100
6.647200 5.952000
6.663700 6.116800
6.680200 6.451900
6.696700 6.792900
6.713200 6.651100
6.729700 6.532600
6.746200 6.442300
6.762700 6.333400
6.779100 6.219000
6.795600 6.138400
6.812100 6.062000
6.828600 5.983300
6.845100 6.047000
6.861600 5.681500
6.878100 5.564700
6.894600 5.196700
6.911100 4.876100
6.927600 4.720300
6.944100 4.529300
6.960600 4.563700
6.977100 4.277900
6.993600 4.228400
7.010000 4.044700
7.026500 3.956800
7.043000 3.787200
7.059500 3.692300
7.076000 3.530200
7.092500 3.270200
7.109000 3.072900
7.125500 2.858700
7.142000 2.558000
7.158500 2.433400
7.175000 2.332700
7.191500 2.229100
7.208000 2.153400
7.224500 2.087400
7.241000 2.051800
7.257400 2.000000
7.273900 1.970800
7.290400 2.026600
7.306900 2.146800
7.323400 2.092500
7.339900 1.979700
7.356400 1.879600
7.372900 1.684100
7.389400 1.289200
7.405900 0.797100
7.422400 0.596400
7.438900 0.580000
7.455400 0.561000
7.471900 0.544900
7.488400 0.536200
7.504800 0.535800
7.521300 0.544600
7.537800 0.554300
7.554300 0.564800
7.570800 0.577200
7.587300 0.592900
7.603800 0.609700
7.620300 0.627200
7.636800 0.647500
7.653300 0.670800
7.669800 0.696500
7.686300 0.703300
7.702800 0.720700
7.719300 0.741500
7.735700 0.761300
7.752200 0.781700
7.768700 0.806100
7.785200 0.833000
7.801700 0.862600
7.818200 0.892300
7.834700 0.921300
7.851200 0.950500
7.867700 0.979700
7.884200 1.019500
7.900700 1.049800
