set title 'mp-971928 - Density of States'
set xlabel 'Energy (eV)'
set ylabel 'DOS (states/eV)'
set grid
set xrange [-10:10]
set yrange [0:42.860]
set xzeroaxis lt -1
set terminal png size 800,600
set output 'mp-971928_dos_gnuplot.png'
plot '-' using 1:2 with lines title 'DOS'
-22.348300 0.000000
-22.319600 0.000000
-22.290900 0.000000
-22.262100 0.000000
-22.233400 0.000000
-22.204700 0.000000
-22.176000 0.000000
-22.147200 0.000000
-22.118500 0.000000
-22.089800 0.000000
-22.061000 0.000000
-22.032300 0.000000
-22.003600 0.000000
-21.974900 0.000000
-21.946100 0.000000
-21.917400 0.000000
-21.888700 0.000000
-21.859900 0.000000
-21.831200 0.000000
-21.802500 0.000000
-21.773800 0.000000
-21.745000 0.000000
-21.716300 0.000000
-21.687600 0.000000
-21.658900 0.000000
-21.630100 0.000000
-21.601400 0.000000
-21.572700 0.000000
-21.543900 0.000000
-21.515200 0.000000
-21.486500 0.000000
-21.457800 0.000000
-21.429000 0.000000
-21.400300 0.000000
-21.371600 0.000000
-21.342800 0.000000
-21.314100 0.000000
-21.285400 0.000000
-21.256700 0.000000
-21.227900 0.000000
-21.199200 0.000000
-21.170500 0.000000
-21.141800 0.000000
-21.113000 0.000000
-21.084300 0.000000
-21.055600 0.000000
-21.026800 0.000000
-20.998100 0.000000
-20.969400 0.000000
-20.940700 0.000000
-20.911900 0.000000
-20.883200 0.000000
-20.854500 0.000000
-20.825800 0.000000
-20.797000 0.000000
-20.768300 0.000000
-20.739600 0.000000
-20.710800 0.000000
-20.682100 0.000000
-20.653400 0.000000
-20.624700 0.000000
-20.595900 0.000000
-20.567200 0.000000
-20.538500 0.000000
-20.509700 0.000000
-20.481000 0.000000
-20.452300 0.000000
-20.423600 0.000000
-20.394800 0.000000
-20.366100 0.000000
-20.337400 0.000000
-20.308700 0.000000
-20.279900 0.000000
-20.251200 0.000000
-20.222500 0.000000
-20.193700 0.000000
-20.165000 0.000000
-20.136300 0.000000
-20.107600 0.000000
-20.078800 0.000000
-20.050100 0.000000
-20.021400 0.000000
-19.992600 0.000000
-19.963900 0.000000
-19.935200 0.000000
-19.906500 0.000100
-19.877700 0.006600
-19.849000 0.158000
-19.820300 2.002600
-19.791600 13.583500
-19.762800 49.524700
-19.734100 97.410500
-19.705400 103.630400
-19.676600 59.706800
-19.647900 18.628800
-19.619200 3.143600
-19.590500 0.286300
-19.561700 0.014000
-19.533000 0.000400
-19.504300 0.000000
-19.475500 0.000000
-19.446800 0.000000
-19.418100 0.000000
-19.389400 0.000000
-19.360600 0.000000
-19.331900 0.000000
-19.303200 0.000000
-19.274500 0.000000
-19.245700 0.000000
-19.217000 0.000000
-19.188300 0.000000
-19.159500 0.000000
-19.130800 0.000000
-19.102100 0.000000
-19.073400 0.000000
-19.044600 0.000000
-19.015900 0.000000
-18.987200 0.000000
-18.958500 0.000000
-18.929700 0.000000
-18.901000 0.000000
-18.872300 0.000000
-18.843500 0.000000
-18.814800 0.000000
-18.786100 0.000000
-18.757400 0.000000
-18.728600 0.000000
-18.699900 0.000000
-18.671200 0.000000
-18.642400 0.000000
-18.613700 0.000000
-18.585000 0.000000
-18.556300 0.000000
-18.527500 0.000000
-18.498800 0.000000
-18.470100 0.000000
-18.441400 0.000000
-18.412600 0.000000
-18.383900 0.000000
-18.355200 0.000000
-18.326400 0.000000
-18.297700 0.000000
-18.269000 0.000000
-18.240300 0.000000
-18.211500 0.000000
-18.182800 0.000000
-18.154100 0.000000
-18.125300 0.000000
-18.096600 0.000000
-18.067900 0.000000
-18.039200 0.000000
-18.010400 0.000000
-17.981700 0.000000
-17.953000 0.000000
-17.924300 0.000000
-17.895500 0.000000
-17.866800 0.000000
-17.838100 0.000000
-17.809300 0.000000
-17.780600 0.000000
-17.751900 0.000000
-17.723200 0.000000
-17.694400 0.000000
-17.665700 0.000000
-17.637000 0.000000
-17.608300 0.000000
-17.579500 0.000000
-17.550800 0.000000
-17.522100 0.000000
-17.493300 0.000000
-17.464600 0.000000
-17.435900 0.000000
-17.407200 0.000000
-17.378400 0.000000
-17.349700 0.000000
-17.321000 0.000000
-17.292200 0.000000
-17.263500 0.000000
-17.234800 0.000000
-17.206100 0.000000
-17.177300 0.000000
-17.148600 0.000000
-17.119900 0.000000
-17.091200 0.000000
-17.062400 0.000000
-17.033700 0.000000
-17.005000 0.000000
-16.976200 0.000000
-16.947500 0.000000
-16.918800 0.000000
-16.890100 0.000000
-16.861300 0.000000
-16.832600 0.000000
-16.803900 0.000000
-16.775100 0.000000
-16.746400 0.000000
-16.717700 0.000000
-16.689000 0.000000
-16.660200 0.000000
-16.631500 0.000000
-16.602800 0.000000
-16.574100 0.000000
-16.545300 0.000000
-16.516600 0.000000
-16.487900 0.000000
-16.459100 0.000000
-16.430400 0.000000
-16.401700 0.000000
-16.373000 0.000000
-16.344200 0.000000
-16.315500 0.000000
-16.286800 0.000000
-16.258000 0.000000
-16.229300 0.000000
-16.200600 0.000000
-16.171900 0.000000
-16.143100 0.000000
-16.114400 0.000000
-16.085700 0.000000
-16.057000 0.000000
-16.028200 0.000000
-15.999500 0.000000
-15.970800 0.000000
-15.942000 0.000000
-15.913300 0.000000
-15.884600 0.000000
-15.855900 0.000000
-15.827100 0.000000
-15.798400 0.000000
-15.769700 0.000000
-15.741000 0.000000
-15.712200 0.000000
-15.683500 0.000000
-15.654800 0.000000
-15.626000 0.000000
-15.597300 0.000000
-15.568600 0.000000
-15.539900 0.000000
-15.511100 0.000000
-15.482400 0.000000
-15.453700 0.000000
-15.424900 0.000000
-15.396200 0.000000
-15.367500 0.000000
-15.338800 0.000000
-15.310000 0.000000
-15.281300 0.000000
-15.252600 0.000000
-15.223900 0.000000
-15.195100 0.000000
-15.166400 0.000000
-15.137700 0.000000
-15.108900 0.000000
-15.080200 0.000000
-15.051500 0.000000
-15.022800 0.000000
-14.994000 0.000000
-14.965300 0.000000
-14.936600 0.000000
-14.907800 0.000000
-14.879100 0.000000
-14.850400 0.000000
-14.821700 0.000000
-14.792900 0.000000
-14.764200 0.000000
-14.735500 0.000000
-14.706800 0.000000
-14.678000 0.000000
-14.649300 0.000000
-14.620600 0.000000
-14.591800 0.000000
-14.563100 0.000000
-14.534400 0.000000
-14.505700 0.000000
-14.476900 0.000000
-14.448200 0.000000
-14.419500 0.000000
-14.390800 0.000000
-14.362000 0.000000
-14.333300 0.000000
-14.304600 0.000000
-14.275800 0.000000
-14.247100 0.000000
-14.218400 0.000000
-14.189700 0.000000
-14.160900 0.000000
-14.132200 0.000000
-14.103500 0.000000
-14.074700 0.000000
-14.046000 0.000000
-14.017300 0.000000
-13.988600 0.000000
-13.959800 0.000000
-13.931100 0.000000
-13.902400 0.000000
-13.873700 0.000000
-13.844900 0.000000
-13.816200 0.000000
-13.787500 0.000000
-13.758700 0.000000
-13.730000 0.000000
-13.701300 0.000000
-13.672600 0.000000
-13.643800 0.000000
-13.615100 0.000000
-13.586400 0.000000
-13.557600 0.000000
-13.528900 0.000000
-13.500200 0.000000
-13.471500 0.000000
-13.442700 0.000000
-13.414000 0.000000
-13.385300 0.000000
-13.356600 0.000000
-13.327800 0.000000
-13.299100 0.000000
-13.270400 0.000000
-13.241600 0.000000
-13.212900 0.000000
-13.184200 0.000000
-13.155500 0.000000
-13.126700 0.000000
-13.098000 0.000000
-13.069300 0.000000
-13.040600 0.000000
-13.011800 0.000000
-12.983100 0.000000
-12.954400 0.000000
-12.925600 0.000000
-12.896900 0.000000
-12.868200 0.000000
-12.839500 0.000000
-12.810700 0.000000
-12.782000 0.000000
-12.753300 0.000000
-12.724500 0.000000
-12.695800 0.000000
-12.667100 0.000000
-12.638400 0.000000
-12.609600 0.000000
-12.580900 0.000000
-12.552200 0.000000
-12.523500 0.000000
-12.494700 0.000000
-12.466000 0.000000
-12.437300 0.000000
-12.408500 0.000000
-12.379800 0.000000
-12.351100 0.000000
-12.322400 0.000000
-12.293600 0.000000
-12.264900 0.000000
-12.236200 0.000000
-12.207400 0.000000
-12.178700 0.000000
-12.150000 0.000000
-12.121300 0.000000
-12.092500 0.000000
-12.063800 0.000000
-12.035100 0.000000
-12.006400 0.000000
-11.977600 0.000000
-11.948900 0.000000
-11.920200 0.000000
-11.891400 0.000000
-11.862700 0.000000
-11.834000 0.000000
-11.805300 0.000000
-11.776500 0.000000
-11.747800 0.000000
-11.719100 0.000000
-11.690300 0.000000
-11.661600 0.000000
-11.632900 0.000000
-11.604200 0.000000
-11.575400 0.000000
-11.546700 0.000000
-11.518000 0.000000
-11.489300 0.000000
-11.460500 0.000000
-11.431800 0.000000
-11.403100 0.000000
-11.374300 0.000000
-11.345600 0.000000
-11.316900 0.000000
-11.288200 0.000000
-11.259400 0.000000
-11.230700 0.000000
-11.202000 0.000000
-11.173300 0.000000
-11.144500 0.000000
-11.115800 0.000000
-11.087100 0.000000
-11.058300 0.000000
-11.029600 0.000000
-11.000900 0.000000
-10.972200 0.000000
-10.943400 0.000000
-10.914700 0.000000
-10.886000 0.000000
-10.857200 0.000000
-10.828500 0.000000
-10.799800 0.000000
-10.771100 0.000000
-10.742300 0.000000
-10.713600 0.000000
-10.684900 0.000000
-10.656200 0.000000
-10.627400 0.000000
-10.598700 0.000000
-10.570000 0.000000
-10.541200 0.000000
-10.512500 0.000000
-10.483800 0.000000
-10.455100 0.000000
-10.426300 0.000000
-10.397600 0.000000
-10.368900 0.000000
-10.340100 0.000000
-10.311400 0.000000
-10.282700 0.000000
-10.254000 0.000000
-10.225200 0.000000
-10.196500 0.000000
-10.167800 0.000000
-10.139100 0.000000
-10.110300 0.000000
-10.081600 0.000000
-10.052900 0.000000
-10.024100 0.000000
-9.995400 0.000000
-9.966700 0.000000
-9.938000 0.000000
-9.909200 0.000000
-9.880500 0.000000
-9.851800 0.000000
-9.823100 0.000000
-9.794300 0.000000
-9.765600 0.000000
-9.736900 0.000000
-9.708100 0.000000
-9.679400 0.000000
-9.650700 0.000000
-9.622000 0.000000
-9.593200 0.000000
-9.564500 0.000000
-9.535800 0.000000
-9.507000 0.000000
-9.478300 0.000000
-9.449600 0.000000
-9.420900 0.000000
-9.392100 0.000000
-9.363400 0.000000
-9.334700 0.000000
-9.306000 0.000000
-9.277200 0.000000
-9.248500 0.000000
-9.219800 0.000000
-9.191000 0.000000
-9.162300 0.000000
-9.133600 0.000000
-9.104900 0.000000
-9.076100 0.000000
-9.047400 0.000000
-9.018700 0.000000
-8.989900 0.000000
-8.961200 0.000000
-8.932500 0.000000
-8.903800 0.000000
-8.875000 0.000000
-8.846300 0.000000
-8.817600 0.000000
-8.788900 0.000000
-8.760100 0.000000
-8.731400 0.000000
-8.702700 0.000000
-8.673900 0.000000
-8.645200 0.000000
-8.616500 0.000000
-8.587800 0.000000
-8.559000 0.000000
-8.530300 0.000000
-8.501600 0.000000
-8.472800 0.000000
-8.444100 0.000000
-8.415400 0.000000
-8.386700 0.000000
-8.357900 0.000000
-8.329200 0.000000
-8.300500 0.000000
-8.271800 0.000000
-8.243000 0.000000
-8.214300 0.000000
-8.185600 0.000000
-8.156800 0.000000
-8.128100 0.000000
-8.099400 0.000000
-8.070700 0.000000
-8.041900 0.000000
-8.013200 0.000000
-7.984500 0.000000
-7.955800 0.000000
-7.927000 0.000000
-7.898300 0.000000
-7.869600 0.000000
-7.840800 0.000000
-7.812100 0.000000
-7.783400 0.000000
-7.754700 0.000000
-7.725900 0.000000
-7.697200 0.000000
-7.668500 0.000000
-7.639700 0.000000
-7.611000 0.000000
-7.582300 0.000000
-7.553600 0.000000
-7.524800 0.000000
-7.496100 0.000000
-7.467400 0.000200
-7.438700 0.001700
-7.409900 0.008500
-7.381200 0.025100
-7.352500 0.050200
-7.323700 0.081700
-7.295000 0.132100
-7.266300 0.204000
-7.237600 0.230500
-7.208800 0.165000
-7.180100 0.105300
-7.151400 0.157700
-7.122600 0.283600
-7.093900 0.359400
-7.065200 0.362100
-7.036500 0.375300
-7.007700 0.374800
-6.979000 0.272900
-6.950300 0.165300
-6.921600 0.182100
-6.892800 0.301000
-6.864100 0.436400
-6.835400 0.512300
-6.806600 0.542900
-6.777900 0.564700
-6.749200 0.484700
-6.720500 0.306000
-6.691700 0.227100
-6.663000 0.342300
-6.634300 0.549700
-6.605600 0.690900
-6.576800 0.671500
-6.548100 0.550100
-6.519400 0.450800
-6.490600 0.427400
-6.461900 0.453800
-6.433200 0.513100
-6.404500 0.585300
-6.375700 0.615100
-6.347000 0.645400
-6.318300 0.719100
-6.289500 0.723700
-6.260800 0.652900
-6.232100 0.735600
-6.203400 1.009000
-6.174600 1.117100
-6.145900 0.904300
-6.117200 0.617200
-6.088500 0.429700
-6.059700 0.375700
-6.031000 0.528500
-6.002300 0.898500
-5.973500 1.264300
-5.944800 1.424100
-5.916100 1.365200
-5.887400 1.147900
-5.858600 1.009700
-5.829900 1.023500
-5.801200 1.011000
-5.772400 1.018300
-5.743700 1.092600
-5.715000 1.205200
-5.686300 1.359100
-5.657500 1.310300
-5.628800 1.083400
-5.600100 1.152200
-5.571400 1.636600
-5.542600 2.101300
-5.513900 2.147300
-5.485200 1.985300
-5.456400 1.995200
-5.427700 2.110300
-5.399000 2.103900
-5.370300 2.031300
-5.341500 1.986300
-5.312800 1.844400
-5.284100 1.608800
-5.255400 1.567200
-5.226600 1.746500
-5.197900 1.786900
-5.169200 1.644900
-5.140400 1.382800
-5.111700 0.885200
-5.083000 0.364600
-5.054300 0.090000
-5.025500 0.013000
-4.996800 0.001100
-4.968100 0.000000
-4.939300 0.000000
-4.910600 0.000000
-4.881900 0.000000
-4.853200 0.000000
-4.824400 0.000000
-4.795700 0.000000
-4.767000 0.000000
-4.738300 0.000000
-4.709500 0.000000
-4.680800 0.000000
-4.652100 0.000000
-4.623300 0.000000
-4.594600 0.000000
-4.565900 0.000000
-4.537200 0.000000
-4.508400 0.000000
-4.479700 0.000000
-4.451000 0.000000
-4.422200 0.000000
-4.393500 0.000000
-4.364800 0.000300
-4.336100 0.002800
-4.307300 0.014500
-4.278600 0.046300
-4.249900 0.105500
-4.221200 0.193900
-4.192400 0.288800
-4.163700 0.368200
-4.135000 0.504100
-4.106200 0.730600
-4.077500 0.969800
-4.048800 1.257700
-4.020100 1.890900
-3.991300 3.182900
-3.962600 5.042700
-3.933900 7.265000
-3.905100 9.600400
-3.876400 11.190100
-3.847700 11.418500
-3.819000 11.270700
-3.790200 12.900600
-3.761500 17.423600
-3.732800 23.755600
-3.704100 30.191500
-3.675300 35.060000
-3.646600 36.386000
-3.617900 33.973300
-3.589100 29.747000
-3.560400 25.388100
-3.531700 21.865400
-3.503000 20.328500
-3.474200 21.698700
-3.445500 25.318100
-3.416800 28.843300
-3.388100 30.418900
-3.359300 30.382600
-3.330600 30.274300
-3.301900 30.610000
-3.273100 31.073200
-3.244400 32.123600
-3.215700 34.426600
-3.187000 37.262700
-3.158200 38.926800
-3.129500 38.963600
-3.100800 37.524500
-3.072000 34.872700
-3.043300 32.075000
-3.014600 29.445100
-2.985900 26.867300
-2.957100 25.188100
-2.928400 24.307200
-2.899700 21.800300
-2.871000 16.678500
-2.842200 11.030300
-2.813500 6.894300
-2.784800 4.240900
-2.756000 2.414400
-2.727300 1.453400
-2.698600 1.242900
-2.669900 1.210000
-2.641100 1.064400
-2.612400 0.904300
-2.583700 0.802600
-2.554900 0.750900
-2.526200 0.774300
-2.497500 0.863600
-2.468800 0.957000
-2.440000 1.015600
-2.411300 1.031000
-2.382600 1.073000
-2.353900 1.163700
-2.325100 1.133800
-2.296400 0.975600
-2.267700 0.930100
-2.238900 1.025200
-2.210200 1.128900
-2.181500 1.215400
-2.152800 1.217300
-2.124000 1.212600
-2.095300 1.395600
-2.066600 1.539500
-2.037900 1.296600
-2.009100 0.953000
-1.980400 0.844900
-1.951700 0.841300
-1.922900 0.763500
-1.894200 0.704600
-1.865500 0.872900
-1.836800 1.232800
-1.808000 1.458300
-1.779300 1.375000
-1.750600 1.208600
-1.721800 1.077000
-1.693100 0.907900
-1.664400 0.835200
-1.635700 1.037800
-1.606900 1.444500
-1.578200 1.664600
-1.549500 1.437900
-1.520800 1.078600
-1.492000 0.906700
-1.463300 0.875600
-1.434600 0.931200
-1.405800 0.995300
-1.377100 1.022400
-1.348400 1.008800
-1.319700 0.893900
-1.290900 0.791600
-1.262200 0.924300
-1.233500 1.251500
-1.204700 1.425200
-1.176000 1.265300
-1.147300 1.088400
-1.118600 1.138800
-1.089800 1.146000
-1.061100 0.910100
-1.032400 0.788100
-1.003700 1.011900
-0.974900 1.258900
-0.946200 1.325800
-0.917500 1.345600
-0.888700 1.381700
-0.860000 1.447900
-0.831300 1.554700
-0.802600 1.476600
-0.773800 1.122500
-0.745100 0.851400
-0.716400 0.793400
-0.687600 0.691000
-0.658900 0.557600
-0.630200 0.660200
-0.601500 1.003100
-0.572700 1.250000
-0.544000 1.211800
-0.515300 1.043600
-0.486600 0.997900
-0.457800 1.251600
-0.429100 1.619300
-0.400400 1.653800
-0.371600 1.313000
-0.342900 1.024300
-0.314200 1.056600
-0.285500 1.171500
-0.256700 1.098300
-0.228000 0.871800
-0.199300 0.711200
-0.170600 0.755300
-0.141800 0.896900
-0.113100 1.052300
-0.084400 1.303100
-0.055600 1.547200
-0.026900 1.509800
0.001800 1.169000
0.030500 0.791300
0.059300 0.619700
0.088000 0.779500
0.116700 1.216900
0.145500 1.643800
0.174200 1.779100
0.202900 1.529000
0.231600 1.181000
0.260400 1.124900
0.289100 1.366100
0.317800 1.607600
0.346500 1.570200
0.375300 1.349800
0.404000 1.159400
0.432700 0.912100
0.461500 0.626800
0.490200 0.554900
0.518900 0.749400
0.547600 1.063600
0.576400 1.348400
0.605100 1.594000
0.633800 1.742500
0.662600 1.568600
0.691300 1.178500
0.720000 0.947800
0.748700 0.986900
0.777500 1.134000
0.806200 1.200800
0.834900 1.098700
0.863600 0.907500
0.892400 0.925700
0.921100 1.255800
0.949800 1.495400
0.978600 1.350700
1.007300 1.154500
1.036000 1.164100
1.064700 1.161500
1.093500 1.038100
1.122200 0.900200
1.150900 0.850900
1.179600 0.948200
1.208400 1.185200
1.237100 1.474300
1.265800 1.579700
1.294600 1.357600
1.323300 1.053600
1.352000 1.058400
1.380700 1.289700
1.409500 1.352900
1.438200 1.160700
1.466900 0.861700
1.495700 0.716500
1.524400 0.877100
1.553100 1.113100
1.581800 1.173700
1.610600 1.118200
1.639300 1.056000
1.668000 0.997700
1.696700 0.884900
1.725500 0.789400
1.754200 0.991000
1.782900 1.513400
1.811700 1.934800
1.840400 1.912700
1.869100 1.685200
1.897800 1.567400
1.926600 1.538800
1.955300 1.743300
1.984000 2.095600
2.012800 2.027600
2.041500 1.482700
2.070200 1.091300
2.098900 1.109400
2.127700 1.166900
2.156400 1.153100
2.185100 1.320200
2.213800 1.479900
2.242600 1.296200
2.271300 0.977700
2.300000 0.907200
2.328800 1.150600
2.357500 1.441100
2.386200 1.551000
2.414900 1.503300
2.443700 1.412300
2.472400 1.321500
2.501100 1.189300
2.529800 0.963600
2.558600 0.752900
2.587300 0.782200
2.616000 1.016000
2.644800 1.215700
2.673500 1.357800
2.702200 1.564000
2.730900 1.734200
2.759700 1.651000
2.788400 1.310800
2.817100 1.029500
2.845900 1.044300
2.874600 1.197600
2.903300 1.212400
2.932000 1.051900
2.960800 0.893800
2.989500 0.979100
3.018200 1.283600
3.046900 1.492200
3.075700 1.501100
3.104400 1.325700
3.133100 1.068300
3.161900 1.054200
3.190600 1.299500
3.219300 1.480600
3.248000 1.568800
3.276800 1.734600
3.305500 1.834600
3.334200 1.675600
3.363000 1.415200
3.391700 1.262800
3.420400 1.291700
3.449100 1.439700
3.477900 1.453100
3.506600 1.206900
3.535300 0.854200
3.564000 0.597000
3.592800 0.572300
3.621500 0.703100
3.650200 0.834200
3.679000 0.983600
3.707700 1.274200
3.736400 1.571700
3.765100 1.595600
3.793900 1.474500
3.822600 1.461100
3.851300 1.420600
3.880100 1.310900
3.908800 1.254000
3.937500 1.222600
3.966200 1.326900
3.995000 1.608300
4.023700 1.768500
4.052400 1.677900
4.081100 1.566600
4.109900 1.674700
4.138600 1.954700
4.167300 1.952100
4.196100 1.513200
4.224800 1.154000
4.253500 1.151400
4.282200 1.197900
4.311000 1.181400
4.339700 1.287400
4.368400 1.507900
4.397100 1.667300
4.425900 1.547400
4.454600 1.234800
4.483300 1.135800
4.512100 1.341400
4.540800 1.490200
4.569500 1.370900
4.598200 1.175600
4.627000 1.105200
4.655700 1.227100
4.684400 1.349300
4.713200 1.228700
4.741900 0.962200
4.770600 0.801600
4.799300 0.841900
4.828100 0.909000
4.856800 0.962600
4.885500 1.147400
4.914200 1.309800
4.943000 1.281700
4.971700 1.206500
5.000400 1.223700
5.029200 1.373000
5.057900 1.553900
5.086600 1.499100
5.115300 1.223800
5.144100 1.052700
5.172800 1.104600
5.201500 1.297600
5.230300 1.480800
5.259000 1.607800
5.287700 1.674600
5.316400 1.515600
5.345200 1.250300
5.373900 1.280600
5.402600 1.609700
5.431300 1.859200
5.460100 1.895800
5.488800 1.911800
5.517500 1.854800
5.546300 1.575300
5.575000 1.230900
5.603700 1.015000
5.632400 1.000000
5.661200 1.153500
5.689900 1.342700
5.718600 1.424800
5.747300 1.334300
5.776100 1.164700
5.804800 1.084100
5.833500 1.121300
5.862300 1.140700
5.891000 1.169400
5.919700 1.391000
5.948400 1.736000
5.977200 1.965000
6.005900 2.039100
6.034600 2.155600
6.063400 2.263700
6.092100 2.115000
6.120800 2.063700
6.149500 2.350800
6.178300 2.438400
6.207000 2.002700
6.235700 1.427600
6.264400 1.062100
6.293200 0.806600
6.321900 0.629500
6.350600 0.628200
6.379400 0.734200
6.408100 1.012800
6.436800 1.600200
6.465500 2.219700
6.494300 2.401500
6.523000 2.162700
6.551700 1.893700
6.580500 1.707500
6.609200 1.537300
6.637900 1.433300
6.666600 1.405300
6.695400 1.438700
6.724100 1.396200
6.752800 1.232000
6.781500 1.203600
6.810300 1.412000
6.839000 1.680000
6.867700 1.740900
6.896500 1.599300
6.925200 1.580300
6.953900 1.696900
6.982600 1.825300
7.011400 1.992500
7.040100 2.064400
7.068800 1.945500
7.097600 1.830600
