set title 'mp-34 - Density of States'
set xlabel 'Energy (eV)'
set ylabel 'DOS (states/eV)'
set grid
set xrange [-10:10]
set yrange [0:0.570]
set xzeroaxis lt -1
set terminal png size 800,600
set output 'mp-34_dos_gnuplot.png'
plot '-' using 1:2 with lines title 'DOS'
-7.173400 0.000000
-7.144500 0.000000
-7.115600 0.000000
-7.086800 0.000000
-7.057900 0.000000
-7.029000 0.000000
-7.000100 0.000000
-6.971300 0.000000
-6.942400 0.000000
-6.913500 0.000000
-6.884600 0.000000
-6.855800 0.000000
-6.826900 0.000000
-6.798000 0.000000
-6.769100 0.000000
-6.740300 0.000000
-6.711400 0.000000
-6.682500 0.000000
-6.653600 0.000000
-6.624800 0.000000
-6.595900 0.000000
-6.567000 0.000000
-6.538100 0.000000
-6.509300 0.000000
-6.480400 0.000000
-6.451500 0.000000
-6.422600 0.000000
-6.393800 0.000000
-6.364900 0.000000
-6.336000 0.000000
-6.307100 0.000000
-6.278300 0.000000
-6.249400 0.000000
-6.220500 0.000000
-6.191600 0.000000
-6.162800 0.000000
-6.133900 0.000000
-6.105000 0.000000
-6.076100 0.000000
-6.047300 0.000000
-6.018400 0.000000
-5.989500 0.000000
-5.960600 0.000000
-5.931800 0.000000
-5.902900 0.000000
-5.874000 0.000000
-5.845100 0.000000
-5.816300 0.000000
-5.787400 0.000000
-5.758500 0.000000
-5.729600 0.000000
-5.700800 0.000000
-5.671900 0.000000
-5.643000 0.000000
-5.614100 0.000000
-5.585300 0.000000
-5.556400 0.000000
-5.527500 0.000000
-5.498600 0.000000
-5.469800 0.000000
-5.440900 0.000000
-5.412000 0.000000
-5.383100 0.000000
-5.354300 0.000000
-5.325400 0.000000
-5.296500 0.000000
-5.267600 0.000000
-5.238800 0.000000
-5.209900 0.000000
-5.181000 0.000000
-5.152100 0.000000
-5.123300 0.000000
-5.094400 0.000000
-5.065500 0.000000
-5.036600 0.000000
-5.007800 0.000000
-4.978900 0.000000
-4.950000 0.000000
-4.921100 0.000000
-4.892300 0.000000
-4.863400 0.000000
-4.834500 0.000000
-4.805600 0.000000
-4.776800 0.000000
-4.747900 0.000000
-4.719000 0.000000
-4.690100 0.000000
-4.661300 0.000000
-4.632400 0.000000
-4.603500 0.000000
-4.574700 0.000000
-4.545800 0.000100
-4.516900 0.010200
-4.488000 0.025000
-4.459200 0.027200
-4.430300 0.034000
-4.401400 0.041100
-4.372500 0.044900
-4.343700 0.046600
-4.314800 0.050000
-4.285900 0.053800
-4.257000 0.057500
-4.228200 0.061500
-4.199300 0.064200
-4.170400 0.066000
-4.141500 0.068400
-4.112700 0.070500
-4.083800 0.072800
-4.054900 0.075400
-4.026000 0.078200
-3.997200 0.081100
-3.968300 0.083700
-3.939400 0.085400
-3.910500 0.086800
-3.881700 0.088500
-3.852800 0.090300
-3.823900 0.092100
-3.795000 0.094100
-3.766200 0.096100
-3.737300 0.098200
-3.708400 0.100400
-3.679500 0.102500
-3.650700 0.104300
-3.621800 0.105800
-3.592900 0.107200
-3.564000 0.108700
-3.535200 0.110000
-3.506300 0.111500
-3.477400 0.113100
-3.448500 0.114700
-3.419700 0.116400
-3.390800 0.118000
-3.361900 0.119700
-3.333000 0.121400
-3.304200 0.123100
-3.275300 0.124700
-3.246400 0.126300
-3.217500 0.127500
-3.188700 0.128600
-3.159800 0.129900
-3.130900 0.131100
-3.102000 0.132400
-3.073200 0.133700
-3.044300 0.135100
-3.015400 0.136400
-2.986500 0.137800
-2.957700 0.139300
-2.928800 0.140700
-2.899900 0.142200
-2.871000 0.143700
-2.842200 0.145000
-2.813300 0.146400
-2.784400 0.147700
-2.755500 0.148700
-2.726700 0.149800
-2.697800 0.150900
-2.668900 0.152000
-2.640000 0.153200
-2.611200 0.154400
-2.582300 0.155500
-2.553400 0.156700
-2.524500 0.157900
-2.495700 0.159100
-2.466800 0.160400
-2.437900 0.161600
-2.409000 0.162900
-2.380200 0.164200
-2.351300 0.165500
-2.322400 0.166600
-2.293500 0.167800
-2.264700 0.169000
-2.235800 0.170100
-2.206900 0.171000
-2.178000 0.172100
-2.149200 0.173100
-2.120300 0.174100
-2.091400 0.175100
-2.062500 0.176200
-2.033700 0.177300
-2.004800 0.178300
-1.975900 0.179400
-1.947000 0.180500
-1.918200 0.181700
-1.889300 0.182800
-1.860400 0.183900
-1.831500 0.185100
-1.802700 0.186200
-1.773800 0.187300
-1.744900 0.188400
-1.716000 0.189500
-1.687200 0.190600
-1.658300 0.191700
-1.629400 0.192600
-1.600500 0.193500
-1.571700 0.194500
-1.542800 0.195400
-1.513900 0.196400
-1.485000 0.197400
-1.456200 0.198400
-1.427300 0.199400
-1.398400 0.200400
-1.369500 0.201400
-1.340700 0.202400
-1.311800 0.203400
-1.282900 0.204500
-1.254000 0.205500
-1.225200 0.206600
-1.196300 0.207600
-1.167400 0.208700
-1.138500 0.209700
-1.109700 0.210700
-1.080800 0.211800
-1.051900 0.212800
-1.023000 0.213900
-0.994200 0.214900
-0.965300 0.215800
-0.936400 0.216800
-0.907500 0.217700
-0.878700 0.218700
-0.849800 0.219600
-0.820900 0.220600
-0.792000 0.221500
-0.763200 0.222500
-0.734300 0.223500
-0.705400 0.224400
-0.676500 0.225400
-0.647700 0.226400
-0.618800 0.227400
-0.589900 0.228400
-0.561000 0.229500
-0.532200 0.230600
-0.503300 0.231700
-0.474400 0.232800
-0.445500 0.233900
-0.416700 0.235000
-0.387800 0.236100
-0.358900 0.237300
-0.330000 0.238400
-0.301200 0.239500
-0.272300 0.240700
-0.243400 0.241700
-0.214500 0.242700
-0.185700 0.243700
-0.156800 0.244800
-0.127900 0.245800
-0.099000 0.246900
-0.070200 0.247900
-0.041300 0.249000
-0.012400 0.250100
0.016500 0.251200
0.045300 0.253100
0.074200 0.255200
0.103100 0.257300
0.132000 0.259400
0.160800 0.261600
0.189700 0.263700
0.218600 0.265700
0.247500 0.267800
0.276300 0.269900
0.305200 0.272100
0.334100 0.273200
0.363000 0.273100
0.391800 0.273400
0.420700 0.273600
0.449600 0.273600
0.478500 0.273700
0.507300 0.273900
0.536200 0.274200
0.565100 0.274300
0.594000 0.274400
0.622800 0.274400
0.651700 0.274500
0.680600 0.274600
0.709500 0.274800
0.738300 0.275000
0.767200 0.275200
0.796100 0.275400
0.825000 0.275600
0.853800 0.275800
0.882700 0.275900
0.911600 0.276200
0.940500 0.276400
0.969300 0.276700
0.998200 0.277000
1.027100 0.277300
1.056000 0.277600
1.084800 0.277900
1.113700 0.278300
1.142600 0.278700
1.171500 0.279100
1.200300 0.279500
1.229200 0.280100
1.258100 0.280800
1.287000 0.281500
1.315800 0.282300
1.344700 0.283200
1.373600 0.284100
1.402500 0.285000
1.431300 0.285900
1.460200 0.286800
1.489100 0.287800
1.518000 0.288900
1.546800 0.294300
1.575700 0.302100
1.604600 0.303500
1.633500 0.304300
1.662300 0.304500
1.691200 0.303100
1.720100 0.301000
1.749000 0.298500
1.777800 0.296700
1.806700 0.295400
1.835600 0.310900
1.864500 0.307000
1.893300 0.298000
1.922200 0.294300
1.951100 0.291300
1.980000 0.287200
2.008800 0.284500
2.037700 0.282700
2.066600 0.280900
2.095500 0.278900
2.124300 0.276300
2.153200 0.273500
2.182100 0.271300
2.211000 0.269400
2.239800 0.267500
2.268700 0.265600
2.297600 0.265100
2.326500 0.272000
2.355300 0.277400
2.384200 0.268300
2.413100 0.267800
2.442000 0.267400
2.470800 0.265800
2.499700 0.264900
2.528600 0.264700
2.557500 0.264600
2.586300 0.264600
2.615200 0.264400
2.644100 0.263600
2.673000 0.263100
2.701800 0.262600
2.730700 0.261900
2.759600 0.261900
2.788500 0.262200
2.817300 0.262700
2.846200 0.263500
2.875100 0.266400
2.904000 0.271100
2.932800 0.277100
2.961700 0.284600
2.990600 0.293800
3.019500 0.291900
3.048300 0.291700
3.077200 0.294300
3.106100 0.296400
3.135000 0.295000
3.163800 0.296100
3.192700 0.296900
3.221600 0.297500
3.250500 0.298700
3.279300 0.325600
3.308200 0.309200
3.337100 0.310200
3.366000 0.311000
3.394800 0.308100
3.423700 0.308300
3.452600 0.308500
3.481500 0.308500
3.510300 0.308300
3.539200 0.308000
3.568100 0.306800
3.597000 0.307100
3.625800 0.307600
3.654700 0.308200
3.683600 0.309000
3.712500 0.309800
3.741300 0.310700
3.770200 0.310900
3.799100 0.311700
3.828000 0.318500
3.856800 0.323200
3.885700 0.324200
3.914600 0.324300
3.943500 0.323500
3.972300 0.322900
4.001200 0.323000
4.030100 0.323500
4.059000 0.323900
4.087800 0.325000
4.116700 0.325700
4.145600 0.326500
4.174500 0.327600
4.203300 0.328800
4.232200 0.330200
4.261100 0.331500
4.290000 0.332800
4.318800 0.334200
4.347700 0.335400
4.376600 0.336600
4.405500 0.337800
4.434300 0.339300
4.463200 0.340600
4.492100 0.342000
4.521000 0.343500
4.549800 0.345100
4.578700 0.346700
4.607600 0.355000
4.636500 0.360400
4.665300 0.363100
4.694200 0.365600
4.723100 0.367100
4.752000 0.367700
4.780800 0.367900
4.809700 0.368000
4.838600 0.367800
4.867500 0.367400
4.896300 0.366400
4.925200 0.366000
4.954100 0.365900
4.983000 0.366000
5.011800 0.366200
5.040700 0.366600
5.069600 0.367200
5.098500 0.367700
5.127300 0.368000
5.156200 0.368500
5.185100 0.369000
5.214000 0.369500
5.242800 0.370000
5.271700 0.370700
5.300600 0.371400
5.329400 0.372100
5.358300 0.372800
5.387200 0.373600
5.416100 0.374400
5.444900 0.375400
5.473800 0.376600
5.502700 0.377800
5.531600 0.379000
5.560400 0.380300
5.589300 0.381700
5.618200 0.383000
5.647100 0.384500
5.675900 0.386000
5.704800 0.387500
5.733700 0.388900
5.762600 0.390300
5.791400 0.391500
5.820300 0.393300
5.849200 0.394700
5.878100 0.396000
5.906900 0.397400
5.935800 0.398700
5.964700 0.400000
5.993600 0.401200
6.022400 0.402500
6.051300 0.404100
6.080200 0.405700
6.109100 0.407200
6.137900 0.408700
6.166800 0.410200
6.195700 0.411800
6.224600 0.413300
6.253400 0.414900
6.282300 0.416400
6.311200 0.418200
6.340100 0.419900
6.368900 0.421100
6.397800 0.422000
6.426700 0.422700
6.455600 0.423700
6.484400 0.425000
6.513300 0.426600
6.542200 0.428400
6.571100 0.430800
6.599900 0.432600
6.628800 0.432900
6.657700 0.434800
6.686600 0.438300
6.715400 0.442200
6.744300 0.446600
6.773200 0.451600
6.802100 0.457600
6.830900 0.465200
6.859800 0.474000
6.888700 0.483700
6.917600 0.493800
6.946400 0.504100
6.975300 0.513200
7.004200 0.515400
7.033100 0.516200
7.061900 0.518100
7.090800 0.517800
7.119700 0.515500
7.148600 0.511500
7.177400 0.502500
7.206300 0.497700
7.235200 0.495300
7.264100 0.495600
7.292900 0.494700
7.321800 0.490200
7.350700 0.483700
7.379600 0.477100
7.408400 0.474700
7.437300 0.474300
7.466200 0.470500
7.495100 0.464900
7.523900 0.460100
7.552800 0.458400
7.581700 0.455300
7.610600 0.454800
7.639400 0.457600
7.668300 0.459900
7.697200 0.459400
7.726100 0.457200
7.754900 0.450600
7.783800 0.445600
7.812700 0.441900
7.841600 0.438300
7.870400 0.435600
7.899300 0.434300
7.928200 0.432500
7.957100 0.430600
7.985900 0.430200
8.014800 0.427200
8.043700 0.423700
8.072600 0.422200
8.101400 0.415900
8.130300 0.411900
8.159200 0.404300
8.188100 0.375900
8.216900 0.364200
8.245800 0.357700
8.274700 0.353100
8.303600 0.350200
8.332400 0.347500
8.361300 0.345700
8.390200 0.345800
8.419100 0.344500
8.447900 0.341300
8.476800 0.341500
8.505700 0.340400
8.534600 0.338900
8.563400 0.337100
8.592300 0.336000
8.621200 0.335800
8.650100 0.336300
8.678900 0.337500
8.707800 0.339500
8.736700 0.342800
8.765600 0.344700
8.794400 0.346000
8.823300 0.346700
8.852200 0.347000
8.881100 0.348100
8.909900 0.351600
8.938800 0.356800
8.967700 0.361300
8.996600 0.365800
9.025400 0.371400
9.054300 0.379200
9.083200 0.368300
9.112100 0.371200
9.140900 0.373500
9.169800 0.373900
9.198700 0.373800
9.227600 0.373200
9.256400 0.372400
9.285300 0.371800
9.314200 0.371800
9.343100 0.373200
9.371900 0.378600
9.400800 0.386800
9.429700 0.389800
9.458600 0.390100
9.487400 0.390900
9.516300 0.392500
9.545200 0.388400
9.574100 0.383500
9.602900 0.383400
9.631800 0.383700
9.660700 0.384600
9.689600 0.386000
9.718400 0.388000
9.747300 0.391000
9.776200 0.390500
9.805100 0.386400
9.833900 0.388500
9.862800 0.391900
9.891700 0.396200
9.920600 0.398600
9.949400 0.402100
9.978300 0.406200
10.007200 0.402200
10.036100 0.400900
10.064900 0.397900
10.093800 0.394500
10.122700 0.392700
10.151600 0.390700
10.180400 0.389200
10.209300 0.388800
10.238200 0.389300
10.267100 0.390100
10.295900 0.381700
10.324800 0.379100
10.353700 0.377600
10.382600 0.376300
10.411400 0.375300
10.440300 0.374700
10.469200 0.374500
10.498100 0.375200
10.526900 0.380300
10.555800 0.378600
10.584700 0.378800
10.613600 0.381900
10.642400 0.386200
10.671300 0.385100
10.700200 0.386600
10.729100 0.386300
10.757900 0.383600
10.786800 0.380400
10.815700 0.378700
10.844600 0.377100
10.873400 0.375900
10.902300 0.374500
10.931200 0.372700
10.960100 0.371500
10.988900 0.371500
11.017800 0.372900
11.046700 0.375300
11.075600 0.381600
11.104400 0.384700
11.133300 0.388200
11.162200 0.390900
11.191100 0.393700
11.219900 0.396100
11.248800 0.396400
11.277700 0.394700
11.306600 0.396400
11.335400 0.399300
11.364300 0.402600
11.393200 0.411800
11.422100 0.419700
11.450900 0.421700
11.479800 0.422500
11.508700 0.423100
11.537600 0.423900
11.566400 0.426700
11.595300 0.429900
11.624200 0.431100
11.653100 0.432300
11.681900 0.434700
11.710800 0.437900
11.739700 0.442100
11.768600 0.445800
11.797400 0.449100
11.826300 0.452500
11.855200 0.456900
11.884100 0.463000
11.912900 0.466500
11.941800 0.465300
11.970700 0.463300
11.999600 0.460800
12.028400 0.460900
12.057300 0.457400
12.086200 0.455500
12.115100 0.456300
12.143900 0.457000
12.172800 0.457300
12.201700 0.457500
12.230600 0.457700
12.259400 0.458200
12.288300 0.467700
12.317200 0.456200
12.346100 0.456200
12.374900 0.456800
12.403800 0.458100
12.432700 0.460700
12.461600 0.464200
12.490400 0.468400
12.519300 0.473300
12.548200 0.478900
12.577100 0.485100
12.605900 0.492000
12.634800 0.496600
12.663700 0.497700
12.692600 0.498100
12.721400 0.500800
12.750300 0.502200
12.779200 0.502100
12.808100 0.501900
12.836900 0.502100
12.865800 0.502900
12.894700 0.506200
12.923600 0.504200
12.952400 0.502100
12.981300 0.500000
13.010200 0.498400
13.039100 0.498400
13.067900 0.496700
13.096800 0.494300
13.125700 0.493500
13.154600 0.493000
13.183400 0.492900
13.212300 0.493100
13.241200 0.493300
13.270100 0.493400
13.298900 0.493900
13.327800 0.494800
13.356700 0.495800
13.385600 0.497200
13.414400 0.499300
13.443300 0.501800
13.472200 0.504000
13.501100 0.506800
13.529900 0.506700
13.558800 0.507000
13.587700 0.507600
13.616600 0.509200
13.645400 0.509000
13.674300 0.511300
13.703200 0.512600
13.732100 0.513700
13.760900 0.515300
13.789800 0.515800
13.818700 0.515400
13.847600 0.514800
13.876400 0.514400
13.905300 0.515200
13.934200 0.516600
13.963100 0.517900
13.991900 0.519000
14.020800 0.520300
14.049700 0.522000
14.078600 0.523700
14.107400 0.525600
14.136300 0.527600
14.165200 0.528900
14.194100 0.529700
14.222900 0.530600
14.251800 0.531600
14.280700 0.533100
14.309600 0.535200
14.338400 0.535200
14.367300 0.533700
14.396200 0.533000
14.425100 0.532200
14.453900 0.530200
14.482800 0.530000
14.511700 0.529400
14.540600 0.528500
14.569400 0.527600
14.598300 0.526600
14.627200 0.525400
14.656100 0.525700
14.684900 0.522800
14.713800 0.520300
14.742700 0.517900
14.771600 0.516200
14.800400 0.514900
14.829300 0.514300
14.858200 0.513700
14.887100 0.512900
14.915900 0.512800
14.944800 0.514100
14.973700 0.516500
15.002600 0.519600
15.031400 0.521700
15.060300 0.527100
15.089200 0.535700
15.118000 0.557500
15.146900 0.576200
15.175800 0.589800
15.204700 0.598100
15.233500 0.605000
15.262400 0.621400
15.291300 0.621500
15.320200 0.621000
15.349000 0.616700
15.377900 0.609500
15.406800 0.599900
15.435700 0.592000
15.464500 0.586200
15.493400 0.581300
15.522300 0.577500
15.551200 0.575100
15.580000 0.574500
15.608900 0.574500
15.637800 0.574600
15.666700 0.575300
15.695500 0.577400
15.724400 0.579100
15.753300 0.580100
15.782200 0.580200
15.811000 0.581900
15.839900 0.584600
15.868800 0.584500
15.897700 0.585900
15.926500 0.586500
15.955400 0.586800
15.984300 0.586900
16.013200 0.586800
16.042000 0.586800
16.070900 0.586600
16.099800 0.586400
16.128700 0.586300
16.157500 0.586800
16.186400 0.587200
16.215300 0.587300
16.244200 0.587600
16.273000 0.588100
16.301900 0.588000
16.330800 0.589400
16.359700 0.592700
16.388500 0.590400
16.417400 0.586800
16.446300 0.584400
16.475200 0.582300
16.504000 0.580600
16.532900 0.579300
16.561800 0.578400
16.590700 0.577700
16.619500 0.576900
16.648400 0.575900
16.677300 0.574600
16.706200 0.572800
16.735000 0.570600
16.763900 0.567900
16.792800 0.564700
16.821700 0.562700
16.850500 0.560800
16.879400 0.559200
16.908300 0.558000
16.937200 0.557300
16.966000 0.557000
16.994900 0.556500
17.023800 0.555800
17.052700 0.555200
17.081500 0.554300
17.110400 0.553200
17.139300 0.551800
17.168200 0.550100
17.197000 0.548700
17.225900 0.547700
17.254800 0.546600
17.283700 0.545600
17.312500 0.545200
17.341400 0.545200
17.370300 0.545400
17.399200 0.546000
17.428000 0.548200
17.456900 0.549000
17.485800 0.548300
17.514700 0.545600
17.543500 0.541900
17.572400 0.538300
17.601300 0.535800
17.630200 0.533800
17.659000 0.532800
17.687900 0.531200
17.716800 0.528300
17.745700 0.523900
17.774500 0.518900
17.803400 0.514000
17.832300 0.509000
17.861200 0.503800
17.890000 0.498700
17.918900 0.493800
17.947800 0.488700
17.976700 0.484700
18.005500 0.481400
18.034400 0.478500
18.063300 0.476200
18.092200 0.474000
18.121000 0.472100
18.149900 0.470400
18.178800 0.469400
18.207700 0.468900
18.236500 0.468900
18.265400 0.469400
18.294300 0.470400
18.323200 0.472500
18.352000 0.475000
18.380900 0.476900
18.409800 0.478900
18.438700 0.481200
18.467500 0.483600
18.496400 0.486400
18.525300 0.489800
18.554200 0.493000
18.583000 0.495800
18.611900 0.498800
18.640800 0.502500
18.669700 0.507300
18.698500 0.514600
18.727400 0.521900
18.756300 0.527700
18.785200 0.532300
18.814000 0.535900
18.842900 0.539200
18.871800 0.541800
18.900700 0.544000
18.929500 0.545900
18.958400 0.546500
18.987300 0.548200
19.016200 0.548900
19.045000 0.547300
19.073900 0.544600
19.102800 0.541400
19.131700 0.540600
19.160500 0.540600
19.189400 0.540600
19.218300 0.540600
19.247200 0.540500
19.276000 0.540500
19.304900 0.541500
19.333800 0.538100
19.362700 0.536600
19.391500 0.536700
19.420400 0.536900
19.449300 0.537600
19.478200 0.538300
19.507000 0.539100
19.535900 0.540200
19.564800 0.541500
19.593700 0.543000
19.622500 0.542400
19.651400 0.543300
19.680300 0.544100
19.709200 0.544700
19.738000 0.545300
19.766900 0.545700
19.795800 0.546100
19.824700 0.546300
19.853500 0.546300
19.882400 0.546100
19.911300 0.546200
19.940200 0.546100
19.969000 0.544200
19.997900 0.542900
20.026800 0.542800
20.055700 0.542900
20.084500 0.542900
20.113400 0.542800
20.142300 0.543000
20.171200 0.543200
20.200000 0.543300
20.228900 0.543600
20.257800 0.544000
20.286700 0.544400
20.315500 0.544700
20.344400 0.545100
20.373300 0.545600
20.402200 0.546100
20.431000 0.546700
20.459900 0.547100
20.488800 0.547600
20.517700 0.548100
20.546500 0.548500
20.575400 0.549100
20.604300 0.549800
20.633200 0.550700
20.662000 0.551700
20.690900 0.552800
20.719800 0.554000
20.748700 0.555300
20.777500 0.556700
20.806400 0.558200
20.835300 0.559900
20.864200 0.561700
20.893000 0.563700
20.921900 0.565300
20.950800 0.567100
20.979700 0.569000
21.008500 0.571500
21.037400 0.575100
21.066300 0.579400
21.095200 0.583400
21.124000 0.588200
21.152900 0.593500
21.181800 0.598800
21.210700 0.604900
21.239500 0.610200
21.268400 0.614700
21.297300 0.618400
21.326200 0.621300
21.355000 0.623400
21.383900 0.623900
21.412800 0.621600
21.441700 0.617500
21.470500 0.670300
21.499400 0.676600
21.528300 0.669500
21.557200 0.664400
21.586000 0.662000
21.614900 0.650800
21.643800 0.646600
21.672700 0.645300
21.701500 0.646800
21.730400 0.648300
21.759300 0.649000
21.788200 0.649200
21.817000 0.655900
21.845900 0.660800
21.874800 0.664600
21.903700 0.667400
21.932500 0.664600
21.961400 0.664700
21.990300 0.663700
22.019200 0.661200
22.048000 0.656800
22.076900 0.652200
22.105800 0.648700
22.134700 0.647100
22.163500 0.645500
22.192400 0.642600
22.221300 0.642700
22.250200 0.641900
22.279000 0.640500
22.307900 0.638500
22.336800 0.638300
22.365700 0.642900
22.394500 0.643700
22.423400 0.643600
22.452300 0.642300
22.481200 0.640700
22.510000 0.639800
22.538900 0.636600
22.567800 0.635100
22.596700 0.633600
22.625500 0.632200
22.654400 0.631100
22.683300 0.630200
22.712200 0.629600
22.741000 0.628900
22.769900 0.628700
22.798800 0.629000
22.827700 0.629100
22.856500 0.623800
22.885400 0.618200
22.914300 0.615800
22.943200 0.614400
22.972000 0.614000
23.000900 0.613600
23.029800 0.612000
23.058700 0.611000
23.087500 0.611600
23.116400 0.613400
23.145300 0.616900
23.174200 0.622200
23.203000 0.628000
23.231900 0.633100
23.260800 0.635100
23.289700 0.633900
