set title 'mp-2071 - Density of States'
set xlabel 'Energy (eV)'
set ylabel 'DOS (states/eV)'
set grid
set xrange [-10:10]
set yrange [0:927.995]
set xzeroaxis lt -1
set terminal png size 800,600
set output 'mp-2071_dos_gnuplot.png'
plot '-' using 1:2 with lines title 'DOS'
-9.941500 0.000000
-9.928500 0.000000
-9.915600 0.000000
-9.902600 0.000000
-9.889700 0.000000
-9.876700 0.000000
-9.863800 0.000000
-9.850900 0.000000
-9.837900 0.000000
-9.825000 0.000000
-9.812000 0.000000
-9.799100 0.000000
-9.786100 0.000000
-9.773200 0.000000
-9.760200 0.000000
-9.747300 0.000000
-9.734300 0.000000
-9.721400 0.000000
-9.708400 0.000000
-9.695500 0.000000
-9.682500 0.000000
-9.669600 0.000000
-9.656600 0.000000
-9.643700 0.000000
-9.630700 0.000000
-9.617800 0.000000
-9.604900 0.000000
-9.591900 0.000000
-9.579000 0.000000
-9.566000 0.000000
-9.553100 0.000000
-9.540100 0.000000
-9.527200 0.000000
-9.514200 0.000000
-9.501300 0.000000
-9.488300 0.000000
-9.475400 0.000000
-9.462400 0.000000
-9.449500 0.000000
-9.436500 0.000000
-9.423600 0.000000
-9.410600 0.000000
-9.397700 0.000000
-9.384700 0.000000
-9.371800 0.000000
-9.358800 0.000000
-9.345900 0.000000
-9.333000 0.000000
-9.320000 0.000000
-9.307100 0.000000
-9.294100 0.000000
-9.281200 0.000000
-9.268200 0.000000
-9.255300 0.000000
-9.242300 0.000000
-9.229400 0.000000
-9.216400 0.000000
-9.203500 0.000000
-9.190500 0.000000
-9.177600 0.000000
-9.164600 0.000000
-9.151700 0.000000
-9.138700 0.000000
-9.125800 0.000000
-9.112800 0.000000
-9.099900 0.000000
-9.087000 0.000000
-9.074000 0.000000
-9.061100 0.000000
-9.048100 0.000000
-9.035200 0.000000
-9.022200 0.000000
-9.009300 0.000000
-8.996300 0.000000
-8.983400 0.000000
-8.970400 0.000000
-8.957500 0.000000
-8.944500 0.000000
-8.931600 0.000000
-8.918600 0.000000
-8.905700 0.000000
-8.892700 0.000000
-8.879800 0.000000
-8.866800 0.000000
-8.853900 0.000000
-8.840900 0.000000
-8.828000 0.000000
-8.815100 0.000000
-8.802100 0.000000
-8.789200 0.000000
-8.776200 0.000000
-8.763300 0.981600
-8.750300 1.283900
-8.737400 1.614700
-8.724400 1.974200
-8.711500 2.362200
-8.698500 2.778800
-8.685600 3.224000
-8.672600 3.292700
-8.659700 3.908100
-8.646700 4.084400
-8.633800 4.231400
-8.620800 4.348800
-8.607900 4.436900
-8.594900 4.499900
-8.582000 4.238300
-8.569000 4.296700
-8.556100 4.364000
-8.543200 4.440300
-8.530200 4.525600
-8.517300 5.640100
-8.504300 5.721500
-8.491400 5.782400
-8.478400 6.860900
-8.465500 7.081600
-8.452500 7.279400
-8.439600 7.454400
-8.426600 6.770800
-8.413700 6.400100
-8.400700 6.281100
-8.387800 6.204600
-8.374800 6.170600
-8.361900 6.179000
-8.348900 6.033000
-8.336000 6.279700
-8.323000 6.551200
-8.310100 6.839000
-8.297200 10.098600
-8.284200 10.182000
-8.271300 10.074800
-8.258300 9.916100
-8.245400 9.706100
-8.232400 10.431600
-8.219500 9.927000
-8.206500 8.701500
-8.193600 8.269400
-8.180600 6.047000
-8.167700 6.733400
-8.154700 6.212800
-8.141800 5.802700
-8.128800 5.516800
-8.115900 5.523300
-8.102900 7.686300
-8.090000 4.322800
-8.077000 4.977600
-8.064100 5.670900
-8.051100 9.202400
-8.038200 10.136100
-8.025300 14.180800
-8.012300 15.914800
-7.999400 16.793100
-7.986400 17.926700
-7.973500 15.985100
-7.960500 15.452600
-7.947600 13.615800
-7.934600 11.965200
-7.921700 11.025400
-7.908700 11.448200
-7.895800 13.172100
-7.882800 17.943800
-7.869900 19.020800
-7.856900 15.258300
-7.844000 12.094400
-7.831000 10.546200
-7.818100 11.975300
-7.805100 15.371000
-7.792200 13.308600
-7.779300 13.979700
-7.766300 14.415900
-7.753400 13.631700
-7.740400 14.778700
-7.727500 17.752500
-7.714500 25.147900
-7.701600 20.037300
-7.688600 20.090800
-7.675700 20.970400
-7.662700 37.122600
-7.649800 24.259700
-7.636800 21.851700
-7.623900 21.415900
-7.610900 21.020100
-7.598000 24.821000
-7.585000 25.075000
-7.572100 27.095100
-7.559100 30.556800
-7.546200 33.460200
-7.533200 32.139500
-7.520300 26.261700
-7.507400 29.430700
-7.494400 32.063900
-7.481500 34.376100
-7.468500 38.999000
-7.455600 32.374500
-7.442600 32.002500
-7.429700 37.557300
-7.416700 39.124600
-7.403800 39.314600
-7.390800 50.818800
-7.377900 33.256300
-7.364900 18.740200
-7.352000 34.807200
-7.339000 25.943500
-7.326100 24.518800
-7.313100 25.687100
-7.300200 30.453900
-7.287200 44.931300
-7.274300 39.306200
-7.261300 41.969000
-7.248400 42.389100
-7.235500 48.075900
-7.222500 52.971500
-7.209600 52.039100
-7.196600 48.555000
-7.183700 48.340600
-7.170700 52.909300
-7.157800 62.400100
-7.144800 66.040400
-7.131900 35.694900
-7.118900 19.000300
-7.106000 0.000000
-7.093000 0.000000
-7.080100 0.000000
-7.067100 0.000000
-7.054200 0.000000
-7.041200 0.000000
-7.028300 0.000000
-7.015300 0.000000
-7.002400 0.000000
-6.989500 0.000000
-6.976500 0.000000
-6.963600 0.000000
-6.950600 0.000000
-6.937700 0.000000
-6.924700 0.000000
-6.911800 0.000000
-6.898800 0.000000
-6.885900 0.000000
-6.872900 0.000000
-6.860000 0.000000
-6.847000 0.000000
-6.834100 0.000000
-6.821100 0.000000
-6.808200 0.000000
-6.795200 0.000000
-6.782300 0.000000
-6.769300 0.000000
-6.756400 0.000000
-6.743400 0.000000
-6.730500 0.000000
-6.717600 0.000000
-6.704600 0.000000
-6.691700 0.000000
-6.678700 0.000000
-6.665800 0.000000
-6.652800 0.000000
-6.639900 0.000000
-6.626900 0.000000
-6.614000 0.000000
-6.601000 0.000000
-6.588100 0.000000
-6.575100 0.000000
-6.562200 0.000000
-6.549200 0.000000
-6.536300 0.000000
-6.523300 0.000000
-6.510400 0.000000
-6.497400 0.000000
-6.484500 0.000000
-6.471600 0.000000
-6.458600 0.000000
-6.445700 0.000000
-6.432700 0.000000
-6.419800 0.000000
-6.406800 0.000000
-6.393900 0.000000
-6.380900 0.000000
-6.368000 0.000000
-6.355000 0.000000
-6.342100 0.000000
-6.329100 0.000000
-6.316200 0.000000
-6.303200 0.000000
-6.290300 0.000000
-6.277300 0.000000
-6.264400 0.000000
-6.251400 0.000000
-6.238500 0.000000
-6.225500 0.000000
-6.212600 0.000000
-6.199700 0.000000
-6.186700 0.000000
-6.173800 0.000000
-6.160800 0.000000
-6.147900 0.000000
-6.134900 0.000000
-6.122000 0.000000
-6.109000 0.000000
-6.096100 0.000000
-6.083100 0.000000
-6.070200 0.000000
-6.057200 0.000000
-6.044300 0.000000
-6.031300 0.000000
-6.018400 0.000000
-6.005400 0.000000
-5.992500 0.000000
-5.979500 0.000000
-5.966600 0.000000
-5.953600 0.000000
-5.940700 0.000000
-5.927800 0.000000
-5.914800 0.000000
-5.901900 0.000000
-5.888900 0.000000
-5.876000 0.000000
-5.863000 0.000000
-5.850100 0.000000
-5.837100 0.000000
-5.824200 0.000000
-5.811200 0.000000
-5.798300 0.000000
-5.785300 0.000000
-5.772400 0.000000
-5.759400 0.000000
-5.746500 0.000000
-5.733500 0.000000
-5.720600 0.000000
-5.707600 0.000000
-5.694700 0.000000
-5.681800 0.000000
-5.668800 0.000000
-5.655900 0.000000
-5.642900 0.000000
-5.630000 0.000000
-5.617000 0.000000
-5.604100 0.000000
-5.591100 0.000000
-5.578200 0.000000
-5.565200 0.000000
-5.552300 0.000000
-5.539300 0.000000
-5.526400 0.000000
-5.513400 0.000000
-5.500500 0.000000
-5.487500 0.000000
-5.474600 0.000000
-5.461600 0.000000
-5.448700 0.000000
-5.435700 0.000000
-5.422800 0.000000
-5.409900 0.000000
-5.396900 0.000000
-5.384000 0.000000
-5.371000 0.000000
-5.358100 0.000000
-5.345100 0.000000
-5.332200 0.000000
-5.319200 0.000000
-5.306300 0.000000
-5.293300 0.000000
-5.280400 0.000000
-5.267400 0.000000
-5.254500 0.000000
-5.241500 0.000000
-5.228600 0.000000
-5.215600 0.000000
-5.202700 0.000000
-5.189700 0.000000
-5.176800 0.000000
-5.163900 0.000000
-5.150900 0.000000
-5.138000 0.000000
-5.125000 0.000000
-5.112100 0.000000
-5.099100 0.000000
-5.086200 0.000000
-5.073200 0.000000
-5.060300 0.000000
-5.047300 0.000000
-5.034400 0.000000
-5.021400 0.000000
-5.008500 0.000000
-4.995500 0.000000
-4.982600 0.000000
-4.969600 0.000000
-4.956700 0.000000
-4.943700 0.000000
-4.930800 0.000000
-4.917800 0.000000
-4.904900 0.000000
-4.892000 0.000000
-4.879000 0.000000
-4.866100 0.000000
-4.853100 0.000000
-4.840200 0.000000
-4.827200 0.000000
-4.814300 0.000000
-4.801300 0.000000
-4.788400 0.000000
-4.775400 0.000000
-4.762500 0.000000
-4.749500 0.000000
-4.736600 0.000000
-4.723600 0.000000
-4.710700 0.000000
-4.697700 0.000000
-4.684800 0.000000
-4.671800 0.000000
-4.658900 0.000000
-4.646000 0.000000
-4.633000 0.000000
-4.620100 0.000000
-4.607100 0.000000
-4.594200 0.000000
-4.581200 0.000000
-4.568300 0.000000
-4.555300 0.000000
-4.542400 0.000000
-4.529400 0.000000
-4.516500 0.000000
-4.503500 0.000000
-4.490600 0.000000
-4.477600 0.000000
-4.464700 0.000000
-4.451700 0.000000
-4.438800 0.000000
-4.425800 0.000000
-4.412900 0.000000
-4.399900 0.000000
-4.387000 0.000000
-4.374100 0.000000
-4.361100 12.329400
-4.348200 42.032800
-4.335200 78.586700
-4.322300 155.955100
-4.309300 98.633800
-4.296400 188.310100
-4.283400 122.845600
-4.270500 181.557600
-4.257500 167.212100
-4.244600 124.390500
-4.231600 216.201800
-4.218700 179.168600
-4.205700 170.830900
-4.192800 201.989500
-4.179800 224.739100
-4.166900 293.655300
-4.153900 255.547300
-4.141000 240.656200
-4.128000 298.153000
-4.115100 237.649700
-4.102200 305.704000
-4.089200 251.124500
-4.076300 262.794300
-4.063300 331.667100
-4.050400 430.626500
-4.037400 578.826700
-4.024500 242.261000
-4.011500 396.048300
-3.998600 307.680000
-3.985600 348.972900
-3.972700 186.177100
-3.959700 73.622400
-3.946800 179.968600
-3.933800 292.371000
-3.920900 387.224200
-3.907900 294.059800
-3.895000 338.927500
-3.882000 336.326800
-3.869100 498.431800
-3.856200 374.668000
-3.843200 463.107700
-3.830300 590.877100
-3.817300 509.224800
-3.804400 441.998700
-3.791400 843.631400
-3.778500 394.298500
-3.765500 397.513900
-3.752600 524.799500
-3.739600 187.096800
-3.726700 461.675000
-3.713700 222.280300
-3.700800 126.194200
-3.687800 53.812900
-3.674900 54.026800
-3.661900 106.235200
-3.649000 195.075500
-3.636000 258.387900
-3.623100 231.309800
-3.610100 111.022200
-3.597200 75.734700
-3.584300 75.641100
-3.571300 57.917100
-3.558400 46.502400
-3.545400 46.495700
-3.532500 47.019400
-3.519500 40.852000
-3.506600 33.633500
-3.493600 36.470000
-3.480700 38.168500
-3.467700 20.246200
-3.454800 55.912000
-3.441800 51.480300
-3.428900 59.819100
-3.415900 84.214200
-3.403000 43.027700
-3.390000 39.248300
-3.377100 44.616600
-3.364100 53.273500
-3.351200 66.867000
-3.338300 55.519600
-3.325300 45.315900
-3.312400 52.277500
-3.299400 59.323400
-3.286500 47.975100
-3.273500 34.844000
-3.260600 18.902100
-3.247600 12.416800
-3.234700 2.637500
-3.221700 0.000000
-3.208800 0.000000
-3.195800 0.000000
-3.182900 0.000000
-3.169900 0.000000
-3.157000 0.000000
-3.144000 0.000000
-3.131100 0.000000
-3.118100 0.000000
-3.105200 0.000000
-3.092200 0.000000
-3.079300 0.000000
-3.066400 0.000000
-3.053400 0.000000
-3.040500 0.000000
-3.027500 0.000000
-3.014600 0.000000
-3.001600 0.000000
-2.988700 0.000000
-2.975700 0.000000
-2.962800 0.000000
-2.949800 0.000000
-2.936900 0.000000
-2.923900 0.000000
-2.911000 0.000000
-2.898000 0.000000
-2.885100 0.000000
-2.872100 0.000000
-2.859200 0.000000
-2.846200 0.000000
-2.833300 0.000000
-2.820300 0.580200
-2.807400 0.678200
-2.794500 0.782100
-2.781500 0.891700
-2.768600 1.007200
-2.755600 1.556700
-2.742700 1.751600
-2.729700 1.956300
-2.716800 2.170700
-2.703800 2.394800
-2.690900 2.628700
-2.677900 2.650700
-2.665000 2.924900
-2.652000 3.605800
-2.639100 4.546900
-2.626100 4.822200
-2.613200 5.313100
-2.600200 6.018600
-2.587300 6.358400
-2.574300 6.692400
-2.561400 6.371100
-2.548500 6.681600
-2.535500 7.005100
-2.522600 7.372100
-2.509600 6.969600
-2.496700 6.970400
-2.483700 6.979800
-2.470800 7.305300
-2.457800 7.207400
-2.444900 7.262900
-2.431900 7.359500
-2.419000 7.501300
-2.406000 7.645800
-2.393100 7.793000
-2.380100 7.943000
-2.367200 8.095300
-2.354200 8.249200
-2.341300 8.388900
-2.328300 8.649500
-2.315400 9.799500
-2.302400 10.248100
-2.289500 11.026900
-2.276600 10.429900
-2.263600 10.588900
-2.250700 10.099600
-2.237700 10.288800
-2.224800 10.502000
-2.211800 10.739200
-2.198900 11.980100
-2.185900 12.479400
-2.173000 12.226300
-2.160000 12.199000
-2.147100 11.333600
-2.134100 11.229000
-2.121200 12.296400
-2.108200 13.062800
-2.095300 13.429700
-2.082300 13.836100
-2.069400 14.095600
-2.056400 17.846700
-2.043500 18.689300
-2.030600 17.928400
-2.017600 18.292900
-2.004700 18.306400
-1.991700 19.621800
-1.978800 20.007000
-1.965800 24.840700
-1.952900 22.490700
-1.939900 24.696900
-1.927000 21.851500
-1.914000 24.096000
-1.901100 21.437100
-1.888100 20.738100
-1.875200 19.936700
-1.862200 18.953900
-1.849300 17.979200
-1.836300 16.384200
-1.823400 19.124300
-1.810400 21.672600
-1.797500 22.156100
-1.784500 14.058200
-1.771600 13.463200
-1.758700 12.579100
-1.745700 12.098800
-1.732800 13.564300
-1.719800 15.202100
-1.706900 14.258200
-1.693900 13.933200
-1.681000 16.569500
-1.668000 18.141100
-1.655100 15.206000
-1.642100 16.403600
-1.629200 16.821200
-1.616200 16.404100
-1.603300 17.010700
-1.590300 17.684700
-1.577400 18.950700
-1.564400 20.826400
-1.551500 22.025400
-1.538500 23.001000
-1.525600 21.563800
-1.512600 21.087100
-1.499700 20.207600
-1.486800 22.431300
-1.473800 23.140600
-1.460900 18.062700
-1.447900 18.224500
-1.435000 18.261300
-1.422000 24.768000
-1.409100 17.645500
-1.396100 17.671900
-1.383200 17.997200
-1.370200 18.337300
-1.357300 19.519100
-1.344300 22.792500
-1.331400 21.774800
-1.318400 19.938800
-1.305500 19.260800
-1.292500 13.473800
-1.279600 14.565600
-1.266600 9.746700
-1.253700 10.472600
-1.240800 10.951700
-1.227800 11.346800
-1.214900 13.717600
-1.201900 15.335900
-1.189000 17.300300
-1.176000 13.132600
-1.163100 11.939400
-1.150100 12.385100
-1.137200 12.770700
-1.124200 12.745500
-1.111300 14.569600
-1.098300 16.252600
-1.085400 17.824400
-1.072400 16.928900
-1.059500 16.375400
-1.046500 13.420900
-1.033600 11.762900
-1.020600 12.692300
-1.007700 13.289300
-0.994700 13.577600
-0.981800 19.203100
-0.968900 17.081300
-0.955900 13.777300
-0.943000 14.217300
-0.930000 14.562000
-0.917100 14.341800
-0.904100 13.034100
-0.891200 13.445900
-0.878200 14.255300
-0.865300 13.958000
-0.852300 9.917600
-0.839400 10.778200
-0.826400 21.812500
-0.813500 20.161300
-0.800500 16.483100
-0.787600 14.101600
-0.774600 10.805900
-0.761700 10.652500
-0.748700 12.641000
-0.735800 13.056300
-0.722900 14.404600
-0.709900 15.979800
-0.697000 11.811500
-0.684000 11.468800
-0.671100 11.173900
-0.658100 12.406000
-0.645200 12.632600
-0.632200 10.206300
-0.619300 11.347400
-0.606300 11.539500
-0.593400 11.170000
-0.580400 11.400700
-0.567500 12.917400
-0.554500 13.516200
-0.541600 12.926700
-0.528600 12.897100
-0.515700 12.789900
-0.502700 9.547900
-0.489800 8.559700
-0.476800 8.883900
-0.463900 9.205000
-0.451000 11.412200
-0.438000 10.884000
-0.425100 11.821400
-0.412100 12.869500
-0.399200 14.041700
-0.386200 14.214300
-0.373300 16.201600
-0.360300 13.634200
-0.347400 13.846200
-0.334400 13.885500
-0.321500 13.663000
-0.308500 13.398800
-0.295600 14.994300
-0.282600 14.195900
-0.269700 13.281400
-0.256700 13.134500
-0.243800 11.126900
-0.230800 11.163900
-0.217900 16.857600
-0.204900 11.149200
-0.192000 10.504400
-0.179100 10.379100
-0.166100 10.255800
-0.153200 10.029200
-0.140200 14.264800
-0.127300 12.483300
-0.114300 12.540600
-0.101400 13.136700
-0.088400 13.253500
-0.075500 13.929000
-0.062500 13.844500
-0.049600 16.685000
-0.036600 17.610400
-0.023700 15.363600
-0.010700 15.372500
0.002200 15.226600
0.015200 15.111100
0.028100 14.657900
0.041100 18.146800
0.054000 13.963300
0.066900 12.525100
0.079900 12.101500
0.092800 13.065800
0.105800 13.322700
0.118700 13.671900
0.131700 13.261700
0.144600 14.107300
0.157600 13.424500
0.170500 13.305600
0.183500 15.890900
0.196400 14.750400
0.209400 15.288300
0.222300 16.129700
0.235300 17.110600
0.248200 15.816000
0.261200 14.415500
0.274100 14.990400
0.287100 14.830700
0.300000 14.673000
0.313000 14.837600
0.325900 15.888400
0.338800 16.272800
0.351800 17.637800
0.364700 19.141600
0.377700 21.867300
0.390600 22.495100
0.403600 23.555200
0.416500 30.943500
0.429500 21.395300
0.442400 21.187900
0.455400 20.828100
0.468300 19.294400
0.481300 19.163600
0.494200 18.885000
0.507200 18.406500
0.520100 18.492600
0.533100 15.081500
0.546000 17.080500
0.559000 17.948200
0.571900 19.425600
0.584800 24.911600
0.597800 25.068700
0.610700 30.285500
0.623700 33.003600
0.636600 30.747400
0.649600 29.836200
0.662500 28.022300
0.675500 23.837700
0.688400 21.410100
0.701400 18.929900
0.714300 18.492500
0.727300 18.219900
0.740200 18.480800
0.753200 17.813600
0.766100 19.635100
0.779100 21.085200
0.792000 22.188100
0.805000 18.275600
0.817900 17.621100
0.830900 17.941200
0.843800 17.095600
0.856700 18.780100
0.869700 19.963000
0.882600 20.625600
0.895600 23.931800
0.908500 44.906700
0.921500 21.471100
0.934400 24.818800
0.947400 22.931100
0.960300 18.855800
0.973300 17.415600
0.986200 18.075600
0.999200 22.101900
1.012100 23.794700
1.025100 29.964100
1.038000 26.191300
1.051000 18.295500
1.063900 26.745400
1.076900 17.187900
1.089800 16.670700
1.102800 17.317200
1.115700 17.448600
1.128600 18.888300
1.141600 20.050800
1.154500 21.368400
1.167500 21.392600
1.180400 26.168100
1.193400 18.243100
1.206300 17.592000
1.219300 16.882300
1.232200 18.877400
1.245200 16.805900
1.258100 15.872800
1.271100 20.363400
1.284000 28.605100
1.297000 32.192900
1.309900 22.486200
1.322900 24.802700
1.335800 25.248100
1.348800 23.444800
1.361700 23.620400
1.374600 20.129800
1.387600 24.089400
1.400500 21.185600
1.413500 15.896600
1.426400 15.781600
1.439400 17.748800
1.452300 17.619800
1.465300 17.533000
1.478200 17.270800
1.491200 17.214900
1.504100 26.206800
1.517100 21.124100
1.530000 21.454500
1.543000 21.708300
1.555900 23.268900
1.568900 23.835900
1.581800 22.466800
1.594800 22.375900
1.607700 25.967800
1.620700 27.897000
1.633600 22.366500
1.646500 21.838000
1.659500 21.034000
1.672400 21.572100
1.685400 21.995900
1.698300 21.845300
1.711300 21.370900
1.724200 21.239100
1.737200 23.213800
1.750100 22.528600
1.763100 22.604200
1.776000 19.573400
1.789000 19.214900
1.801900 16.198700
1.814900 19.787200
1.827800 17.473400
1.840800 17.132100
1.853700 16.261400
1.866700 16.028400
1.879600 16.278100
1.892500 17.936900
1.905500 17.300200
1.918400 16.715300
1.931400 18.265700
1.944300 19.898800
1.957300 23.533600
1.970200 24.006400
1.983200 26.403600
1.996100 26.749000
2.009100 23.646800
2.022000 21.438000
2.035000 19.319600
2.047900 18.475000
2.060900 18.149200
2.073800 20.532400
2.086800 17.927400
2.099700 18.522400
2.112700 19.526800
2.125600 19.402200
2.138600 19.404000
2.151500 18.252700
2.164400 16.781300
2.177400 17.199900
2.190300 15.884600
2.203300 23.460800
2.216200 24.386100
2.229200 25.652800
2.242100 25.694900
2.255100 15.655600
2.268000 14.310800
2.281000 13.409100
2.293900 12.775200
2.306900 12.359600
2.319800 11.456400
2.332800 10.800800
2.345700 16.949900
2.358700 11.635400
2.371600 11.190200
2.384600 10.742600
2.397500 11.814800
2.410500 12.022500
2.423400 12.069300
2.436300 11.952200
2.449300 10.749100
2.462200 10.081900
2.475200 10.339300
2.488100 10.210900
2.501100 10.322300
2.514000 10.484000
2.527000 8.855400
2.539900 8.742100
2.552900 9.321600
2.565800 9.586200
2.578800 9.439600
2.591700 9.321800
2.604700 9.186700
2.617600 8.371700
2.630600 8.291300
2.643500 8.198300
2.656500 8.086700
2.669400 8.313100
2.682300 7.901800
2.695300 7.523900
2.708200 7.909800
2.721200 6.435600
2.734100 6.742800
2.747100 7.068200
2.760000 7.411800
2.773000 15.779500
2.785900 12.203600
2.798900 11.226600
2.811800 9.335200
2.824800 9.150100
2.837700 7.708500
2.850700 7.247300
2.863600 6.781300
2.876600 6.310400
2.889500 5.834700
2.902500 5.505300
2.915400 5.273700
2.928400 5.070600
2.941300 4.875300
2.954200 4.762700
2.967200 4.609300
2.980100 4.472200
2.993100 4.344000
3.006000 4.224800
3.019000 5.410500
3.031900 6.919700
3.044900 7.432700
3.057800 8.081300
3.070800 2.963000
3.083700 2.673600
3.096700 2.398700
3.109600 2.138400
3.122600 1.521900
3.135500 1.336900
3.148500 1.163300
3.161400 1.001200
3.174400 0.850500
3.187300 0.711300
3.200200 0.583600
3.213200 0.000000
3.226100 0.000000
3.239100 0.000000
3.252000 0.000000
