set title 'mp-1219908 - Density of States'
set xlabel 'Energy (eV)'
set ylabel 'DOS (states/eV)'
set grid
set xrange [-10:10]
set yrange [0:6.331]
set xzeroaxis lt -1
set terminal png size 800,600
set output 'mp-1219908_dos_gnuplot.png'
plot '-' using 1:2 with lines title 'DOS'
-4.995900 0.000000
-4.970700 0.000000
-4.945500 0.000000
-4.920300 0.000000
-4.895100 0.000000
-4.869900 0.000000
-4.844800 0.000000
-4.819600 0.000000
-4.794400 0.000000
-4.769200 0.000000
-4.744000 0.000000
-4.718800 0.000000
-4.693600 0.000000
-4.668400 0.000000
-4.643300 0.000000
-4.618100 0.000000
-4.592900 0.000000
-4.567700 0.000000
-4.542500 0.000000
-4.517300 0.000000
-4.492100 0.000000
-4.467000 0.000000
-4.441800 0.000000
-4.416600 0.000000
-4.391400 0.000000
-4.366200 0.000000
-4.341000 0.000000
-4.315800 0.000000
-4.290600 0.000000
-4.265500 0.000000
-4.240300 0.000000
-4.215100 0.000000
-4.189900 0.000000
-4.164700 0.000000
-4.139500 0.000000
-4.114300 0.000000
-4.089200 0.000000
-4.064000 0.000000
-4.038800 0.000000
-4.013600 0.000000
-3.988400 0.000000
-3.963200 0.000000
-3.938000 0.000000
-3.912800 0.000000
-3.887700 0.000000
-3.862500 0.000000
-3.837300 0.000000
-3.812100 0.000000
-3.786900 0.000000
-3.761700 0.000000
-3.736500 0.000000
-3.711400 0.000000
-3.686200 0.000000
-3.661000 0.000000
-3.635800 0.000000
-3.610600 0.000000
-3.585400 0.000000
-3.560200 0.000000
-3.535100 0.000000
-3.509900 0.000000
-3.484700 0.000000
-3.459500 0.000000
-3.434300 0.000000
-3.409100 0.000000
-3.383900 0.000000
-3.358700 0.000000
-3.333600 0.000000
-3.308400 0.000000
-3.283200 0.000000
-3.258000 0.000000
-3.232800 0.000000
-3.207600 0.000000
-3.182400 0.000000
-3.157300 0.000000
-3.132100 0.000000
-3.106900 0.000000
-3.081700 0.000000
-3.056500 0.000000
-3.031300 0.000000
-3.006100 0.000000
-2.980900 0.000000
-2.955800 0.000000
-2.930600 0.000000
-2.905400 0.000000
-2.880200 0.000000
-2.855000 0.000000
-2.829800 0.000000
-2.804600 0.000000
-2.779500 0.000000
-2.754300 0.000000
-2.729100 0.000000
-2.703900 0.000000
-2.678700 0.003600
-2.653500 0.011900
-2.628300 0.022000
-2.603100 0.033700
-2.578000 0.047100
-2.552800 0.061800
-2.527600 0.059600
-2.502400 0.062300
-2.477200 0.065200
-2.452000 0.069600
-2.426800 0.074500
-2.401700 0.079400
-2.376500 0.083800
-2.351300 0.088000
-2.326100 0.092600
-2.300900 0.097400
-2.275700 0.102400
-2.250500 0.107400
-2.225400 0.112100
-2.200200 0.116000
-2.175000 0.119300
-2.149800 0.122400
-2.124600 0.125500
-2.099400 0.128400
-2.074200 0.131700
-2.049000 0.135300
-2.023900 0.139000
-1.998700 0.142900
-1.973500 0.147100
-1.948300 0.151300
-1.923100 0.155700
-1.897900 0.160200
-1.872700 0.164700
-1.847600 0.169400
-1.822400 0.174200
-1.797200 0.179300
-1.772000 0.185600
-1.746800 0.192200
-1.721600 0.199100
-1.696400 0.206800
-1.671200 0.215700
-1.646100 0.224000
-1.620900 0.231600
-1.595700 0.238000
-1.570500 0.240200
-1.545300 0.236100
-1.520100 0.232100
-1.494900 0.234500
-1.469800 0.236900
-1.444600 0.239100
-1.419400 0.241400
-1.394200 0.243700
-1.369000 0.246000
-1.343800 0.248300
-1.318600 0.250400
-1.293400 0.252400
-1.268300 0.254400
-1.243100 0.256200
-1.217900 0.257500
-1.192700 0.258900
-1.167500 0.260400
-1.142300 0.262200
-1.117100 0.264300
-1.092000 0.266900
-1.066800 0.269800
-1.041600 0.272700
-1.016400 0.275600
-0.991200 0.278500
-0.966000 0.281400
-0.940800 0.284400
-0.915700 0.287700
-0.890500 0.291300
-0.865300 0.295100
-0.840100 0.299100
-0.814900 0.303300
-0.789700 0.307700
-0.764500 0.312200
-0.739300 0.316900
-0.714200 0.321600
-0.689000 0.326900
-0.663800 0.333000
-0.638600 0.339500
-0.613400 0.346400
-0.588200 0.353700
-0.563000 0.361400
-0.537900 0.369700
-0.512700 0.378600
-0.487500 0.388000
-0.462300 0.397800
-0.437100 0.408000
-0.411900 0.418800
-0.386700 0.430600
-0.361500 0.527600
-0.336400 0.646100
-0.311200 0.886800
-0.286000 1.026500
-0.260800 1.123800
-0.235600 1.151800
-0.210400 1.147600
-0.185200 1.114000
-0.160100 1.108900
-0.134900 1.111700
-0.109700 1.132500
-0.084500 1.158700
-0.059300 1.183000
-0.034100 1.206400
-0.008900 1.232800
0.016300 1.260600
0.041400 1.290500
0.066600 1.323700
0.091800 1.358800
0.117000 1.463000
0.142200 1.518000
0.167400 1.640200
0.192600 1.644200
0.217700 1.632200
0.242900 1.633600
0.268100 1.578100
0.293300 1.549600
0.318500 1.565900
0.343700 1.606000
0.368900 1.645900
0.394000 1.690300
0.419200 1.739000
0.444400 1.791900
0.469600 1.847100
0.494800 1.895700
0.520000 1.941700
0.545200 1.981700
0.570400 2.023400
0.595500 2.057100
0.620700 2.100000
0.645900 2.225300
0.671100 2.397400
0.696300 2.617500
0.721500 2.700600
0.746700 2.781200
0.771800 2.872400
0.797000 2.999300
0.822200 3.073000
0.847400 3.149900
0.872600 3.319100
0.897800 3.514600
0.923000 3.575700
0.948200 3.608600
0.973300 3.599400
0.998500 3.606700
1.023700 3.594400
1.048900 3.705300
1.074100 3.728100
1.099300 3.728400
1.124500 3.674900
1.149600 3.689600
1.174800 3.683000
1.200000 3.612100
1.225200 3.644500
1.250400 3.623500
1.275600 3.608600
1.300800 3.620700
1.326000 3.744000
1.351100 3.572800
1.376300 3.533100
1.401500 3.543900
1.426700 3.319200
1.451900 2.946100
1.477100 2.599700
1.502300 2.356500
1.527400 2.385200
1.552600 2.256100
1.577800 2.324100
1.603000 2.196600
1.628200 2.191400
1.653400 2.306000
1.678600 2.381400
1.703700 2.448900
1.728900 2.441000
1.754100 2.589000
1.779300 2.617800
1.804500 2.441100
1.829700 2.287500
1.854900 1.945500
1.880100 1.774300
1.905200 1.766700
1.930400 2.203400
1.955600 2.518500
1.980800 3.226500
2.006000 3.651300
2.031200 4.076600
2.056400 4.168700
2.081500 4.110200
2.106700 3.954300
2.131900 3.823700
2.157100 3.470800
2.182300 3.278900
2.207500 3.379000
2.232700 3.323700
2.257900 3.077400
2.283000 2.876900
2.308200 2.767600
2.333400 2.800100
2.358600 2.844500
2.383800 2.871600
2.409000 2.942200
2.434200 2.962600
2.459300 2.974700
2.484500 3.028000
2.509700 2.966600
2.534900 2.957900
2.560100 2.993500
2.585300 3.083500
2.610500 3.279200
2.635700 3.368100
2.660800 3.538000
2.686000 3.795700
2.711200 4.332200
2.736400 4.629500
2.761600 4.429500
2.786800 4.569300
2.812000 4.392100
2.837100 4.184500
2.862300 4.516600
2.887500 4.468000
2.912700 3.997200
2.937900 3.650300
2.963100 3.618800
2.988300 3.685300
3.013400 4.074700
3.038600 4.301500
3.063800 4.172400
3.089000 4.262600
3.114200 4.618100
3.139400 5.110700
3.164600 5.608700
3.189800 5.023800
3.214900 5.693600
3.240100 5.755900
3.265300 5.493500
3.290500 4.649800
3.315700 3.959600
3.340900 3.738100
3.366100 3.770700
3.391200 4.275400
3.416400 3.911900
3.441600 3.614900
3.466800 3.310000
3.492000 3.288000
3.517200 3.395000
3.542400 3.569500
3.567600 3.685800
3.592700 3.473400
3.617900 3.324700
3.643100 3.255600
3.668300 3.063000
3.693500 2.717200
3.718700 2.622700
3.743900 2.608400
3.769000 2.612300
3.794200 2.646100
3.819400 2.722300
3.844600 2.730000
3.869800 2.843000
3.895000 2.940400
3.920200 3.179900
3.945400 3.427100
3.970500 3.545700
3.995700 3.585000
4.020900 3.607700
4.046100 3.452400
4.071300 3.417200
4.096500 3.428100
4.121700 3.460200
4.146800 3.480500
4.172000 3.569700
4.197200 3.603900
4.222400 3.503600
4.247600 3.503400
4.272800 3.517700
4.298000 3.270700
4.323100 3.097600
4.348300 2.987300
4.373500 3.006900
4.398700 3.265900
4.423900 3.687200
4.449100 4.267000
4.474300 4.382400
4.499500 4.205300
4.524600 3.953500
4.549800 3.566600
4.575000 3.432400
4.600200 3.431800
4.625400 3.198700
4.650600 3.252000
4.675800 3.387700
4.700900 3.366200
4.726100 3.292300
4.751300 3.191600
4.776500 3.125500
4.801700 3.074900
4.826900 3.035200
4.852100 2.968400
4.877300 2.906200
4.902400 2.842000
4.927600 2.811300
4.952800 2.819100
4.978000 2.847900
5.003200 2.874600
5.028400 2.870200
5.053600 2.853400
5.078700 2.833800
5.103900 2.830100
5.129100 2.815700
5.154300 2.822200
5.179500 2.840100
5.204700 2.857500
5.229900 2.866800
5.255100 2.879600
5.280200 2.896800
5.305400 2.915300
5.330600 2.942900
5.355800 2.976700
5.381000 3.016600
5.406200 3.067800
5.431400 3.123300
5.456500 3.191100
5.481700 3.302000
5.506900 3.402200
5.532100 3.449600
5.557300 3.456700
5.582500 3.441800
5.607700 3.493500
5.632800 3.593100
5.658000 3.619000
5.683200 3.753600
5.708400 4.017100
5.733600 4.298600
5.758800 4.798300
5.784000 5.331000
5.809200 5.298800
5.834300 5.354300
5.859500 5.569500
5.884700 5.702600
5.909900 4.057600
5.935100 3.574400
5.960300 3.368700
5.985500 3.252700
6.010600 3.183200
6.035800 3.193400
6.061000 3.107300
6.086200 3.102300
6.111400 3.137900
6.136600 2.917000
6.161800 2.561300
6.187000 2.446800
6.212100 2.351600
6.237300 2.824700
6.262500 1.197100
6.287700 0.914000
6.312900 0.629900
6.338100 0.566000
6.363300 0.552900
6.388400 0.543900
6.413600 0.535300
6.438800 0.526000
6.464000 0.523800
6.489200 0.524900
6.514400 0.526100
6.539600 0.527300
6.564800 0.528300
6.589900 0.528900
6.615100 0.529100
6.640300 0.529200
6.665500 0.529300
6.690700 0.529400
6.715900 0.529500
6.741100 0.529700
6.766200 0.529800
6.791400 0.530000
6.816600 0.530100
6.841800 0.529800
6.867000 0.529300
6.892200 0.528600
6.917400 0.525800
6.942500 0.526200
6.967700 0.524600
6.992900 0.525000
7.018100 0.526100
7.043300 0.527200
7.068500 0.528200
7.093700 0.529200
7.118900 0.530000
7.144000 0.530800
7.169200 0.531500
7.194400 0.532300
7.219600 0.532900
7.244800 0.533600
7.270000 0.534300
7.295200 0.535300
7.320300 0.536300
7.345500 0.537500
7.370700 0.538800
7.395900 0.539900
7.421100 0.539500
7.446300 0.537500
7.471500 0.535900
7.496700 0.534800
7.521800 0.534000
7.547000 0.533300
7.572200 0.532800
7.597400 0.532400
7.622600 0.531900
7.647800 0.531700
7.673000 0.534700
7.698100 0.537300
7.723300 0.538500
7.748500 0.538300
7.773700 0.538400
7.798900 0.538900
7.824100 0.539300
7.849300 0.539700
7.874500 0.540100
7.899600 0.540600
7.924800 0.541100
7.950000 0.541500
7.975200 0.542000
8.000400 0.542400
8.025600 0.542900
8.050800 0.543500
8.075900 0.544300
8.101100 0.545400
8.126300 0.546600
8.151500 0.549500
8.176700 0.551700
8.201900 0.551700
8.227100 0.549500
8.252200 0.546800
8.277400 0.544000
8.302600 0.541700
8.327800 0.539700
8.353000 0.538000
8.378200 0.536500
8.403400 0.535200
8.428600 0.534200
8.453700 0.533500
8.478900 0.533000
8.504100 0.532600
8.529300 0.532200
8.554500 0.531800
8.579700 0.531700
8.604900 0.531700
8.630000 0.531900
8.655200 0.532300
8.680400 0.533000
8.705600 0.533200
8.730800 0.533600
8.756000 0.534500
8.781200 0.535800
8.806400 0.537800
8.831500 0.540400
8.856700 0.543800
8.881900 0.551600
8.907100 0.563500
8.932300 0.569500
8.957500 0.569500
8.982700 0.559600
9.007800 0.538400
9.033000 0.523600
9.058200 0.516100
9.083400 0.510400
9.108600 0.506300
9.133800 0.505100
9.159000 0.505300
9.184200 0.505400
9.209300 0.504300
9.234500 0.503400
9.259700 0.503200
9.284900 0.503000
9.310100 0.502600
9.335300 0.501800
9.360500 0.500800
9.385600 0.500000
9.410800 0.499800
9.436000 0.499900
9.461200 0.500400
9.486400 0.501200
9.511600 0.500700
9.536800 0.497500
9.561900 0.494400
9.587100 0.494300
9.612300 0.494900
9.637500 0.498900
9.662700 0.497600
9.687900 0.495400
9.713100 0.493700
9.738300 0.494400
9.763400 0.496700
9.788600 0.499800
9.813800 0.503700
9.839000 0.508700
9.864200 0.514800
9.889400 0.535400
9.914600 0.548000
9.939700 0.546700
9.964900 0.525800
9.990100 0.503700
10.015300 0.493300
10.040500 0.489900
10.065700 0.487000
10.090900 0.484300
10.116100 0.481800
10.141200 0.479200
10.166400 0.476600
10.191600 0.473900
10.216800 0.471100
10.242000 0.468100
10.267200 0.465200
10.292400 0.462500
10.317500 0.461000
10.342700 0.453000
10.367900 0.452100
10.393100 0.451800
10.418300 0.451700
10.443500 0.451800
10.468700 0.454800
10.493900 0.461800
10.519000 0.472700
10.544200 0.484900
10.569400 0.486800
10.594600 0.486000
10.619800 0.482500
10.645000 0.474200
10.670200 0.460800
10.695300 0.442800
10.720500 0.428900
10.745700 0.413700
10.770900 0.418800
10.796100 0.411900
10.821300 0.405900
10.846500 0.400500
10.871600 0.395700
10.896800 0.391100
10.922000 0.388200
10.947200 0.385800
10.972400 0.383700
10.997600 0.377400
11.022800 0.364200
11.048000 0.364300
11.073100 0.364400
11.098300 0.364300
11.123500 0.364000
11.148700 0.363500
11.173900 0.362700
11.199100 0.361800
11.224300 0.360600
11.249400 0.359300
11.274600 0.357700
11.299800 0.356100
11.325000 0.354400
11.350200 0.353200
11.375400 0.357200
11.400600 0.366300
11.425800 0.378900
11.450900 0.382400
11.476100 0.380800
11.501300 0.375900
11.526500 0.378500
11.551700 0.381100
11.576900 0.384100
11.602100 0.387100
11.627200 0.389300
11.652400 0.389000
11.677600 0.387800
11.702800 0.386600
11.728000 0.385400
11.753200 0.384200
11.778400 0.382900
11.803600 0.381700
11.828700 0.379800
11.853900 0.376200
11.879100 0.373000
11.904300 0.369300
11.929500 0.365500
11.954700 0.361500
11.979900 0.362700
12.005000 0.379200
12.030200 0.419900
12.055400 0.456000
12.080600 0.484600
12.105800 0.516200
12.131000 0.553300
12.156200 0.580500
12.181300 0.593400
12.206500 0.612700
12.231700 0.760100
12.256900 0.936100
12.282100 0.917200
12.307300 0.848000
12.332500 0.799200
12.357700 0.771000
12.382800 0.751300
12.408000 0.735100
12.433200 0.722200
12.458400 0.713100
12.483600 0.706700
12.508800 0.702500
12.534000 0.700500
12.559100 0.700400
12.584300 0.703100
12.609500 0.708700
12.634700 0.716200
12.659900 0.706800
12.685100 0.710800
12.710300 0.713600
12.735500 0.702300
12.760600 0.687100
12.785800 0.662900
12.811000 0.649500
12.836200 0.639800
12.861400 0.632700
12.886600 0.627800
12.911800 0.625200
12.936900 0.609000
12.962100 0.606100
12.987300 0.603200
13.012500 0.600700
13.037700 0.598300
13.062900 0.596200
13.088100 0.594300
13.113300 0.592400
13.138400 0.590700
13.163600 0.589300
13.188800 0.586200
13.214000 0.584100
13.239200 0.582500
13.264400 0.581900
13.289600 0.581900
13.314700 0.581800
13.339900 0.582100
13.365100 0.582900
13.390300 0.583900
13.415500 0.585300
13.440700 0.586800
13.465900 0.588500
13.491000 0.590300
13.516200 0.591400
13.541400 0.592400
13.566600 0.596100
13.591800 0.602000
13.617000 0.608100
13.642200 0.603600
13.667400 0.611700
13.692500 0.620400
13.717700 0.629200
13.742900 0.634700
13.768100 0.639900
13.793300 0.644600
13.818500 0.648700
13.843700 0.649400
13.868800 0.645900
13.894000 0.642500
13.919200 0.638500
13.944400 0.632400
13.969600 0.623700
13.994800 0.612300
14.020000 0.605700
14.045200 0.598200
14.070300 0.597700
14.095500 0.601100
14.120700 0.603800
14.145900 0.613200
14.171100 0.617800
14.196300 0.609700
14.221500 0.599800
14.246600 0.590000
14.271800 0.580500
14.297000 0.569300
14.322200 0.556100
14.347400 0.541200
14.372600 0.526100
14.397800 0.512300
14.423000 0.499600
14.448100 0.488200
14.473300 0.477500
14.498500 0.467000
14.523700 0.457300
14.548900 0.449000
14.574100 0.441900
14.599300 0.436300
14.624400 0.432400
14.649600 0.429400
14.674800 0.427300
14.700000 0.426000
14.725200 0.425700
14.750400 0.426300
14.775600 0.427800
14.800700 0.430100
14.825900 0.432600
14.851100 0.427400
14.876300 0.432400
14.901500 0.441200
14.926700 0.450700
14.951900 0.454500
14.977100 0.459800
15.002200 0.466600
15.027400 0.475000
15.052600 0.486600
15.077800 0.504300
15.103000 0.527700
15.128200 0.555400
15.153400 0.572600
15.178500 0.582400
15.203700 0.592800
15.228900 0.600400
15.254100 0.609200
15.279300 0.619600
15.304500 0.630700
15.329700 0.643000
15.354900 0.656200
15.380000 0.668700
15.405200 0.680300
15.430400 0.691100
15.455600 0.702500
15.480800 0.718200
15.506000 0.754700
15.531200 0.784700
15.556300 0.802000
15.581500 0.819400
15.606700 0.830700
15.631900 0.829600
15.657100 0.822100
15.682300 0.820600
15.707500 0.791400
15.732700 0.755200
15.757800 0.729600
15.783000 0.721600
15.808200 0.724500
15.833400 0.727300
15.858600 0.731400
15.883800 0.739800
15.909000 0.706100
15.934100 0.676800
15.959300 0.656000
15.984500 0.643300
16.009700 0.636200
16.034900 0.663900
16.060100 0.612100
16.085300 0.605200
16.110400 0.589200
16.135600 0.567400
16.160800 0.561300
16.186000 0.565400
16.211200 0.573700
16.236400 0.588600
16.261600 0.611900
16.286800 0.640700
16.311900 0.675300
16.337100 0.721700
16.362300 0.774100
16.387500 0.820400
16.412700 0.848300
16.437900 0.884300
16.463100 0.875000
16.488200 0.846100
16.513400 0.827000
16.538600 0.809000
16.563800 0.789100
16.589000 0.772100
16.614200 0.758700
16.639400 0.747500
16.664600 0.738100
16.689700 0.731400
16.714900 0.727800
16.740100 0.727800
16.765300 0.739800
16.790500 0.758100
16.815700 0.769600
16.840900 0.775900
16.866000 0.780300
16.891200 0.782200
16.916400 0.784000
16.941600 0.785000
16.966800 0.785800
16.992000 0.786400
17.017200 0.787000
17.042400 0.787300
17.067500 0.787200
17.092700 0.787300
17.117900 0.787700
17.143100 0.788100
17.168300 0.787000
17.193500 0.784100
17.218700 0.779800
17.243800 0.775300
17.269000 0.774800
17.294200 0.775000
17.319400 0.776000
17.344600 0.777300
17.369800 0.778500
17.395000 0.780700
17.420100 0.783800
17.445300 0.792600
17.470500 0.800800
17.495700 0.806600
17.520900 0.815700
17.546100 0.821000
17.571300 0.823100
17.596500 0.824100
17.621600 0.825100
17.646800 0.826500
17.672000 0.828300
17.697200 0.830700
17.722400 0.835000
17.747600 0.890700
17.772800 0.909800
17.797900 0.864300
17.823100 0.854600
17.848300 0.859200
17.873500 0.864500
17.898700 0.870700
17.923900 0.877400
17.949100 0.888900
17.974300 0.907800
17.999400 0.929200
18.024600 0.944300
18.049800 0.950200
18.075000 0.947600
18.100200 0.942000
18.125400 0.938800
18.150600 0.936500
18.175700 0.933700
18.200900 0.933800
18.226100 0.935700
18.251300 0.938200
18.276500 0.940900
18.301700 0.948500
18.326900 0.967100
18.352100 0.996600
18.377200 1.024500
18.402400 1.037900
18.427600 1.044300
18.452800 1.053800
18.478000 1.080500
18.503200 1.091300
18.528400 1.050400
18.553500 1.032600
18.578700 1.023600
18.603900 1.021000
18.629100 1.026600
18.654300 1.035700
18.679500 1.039900
18.704700 1.040100
18.729800 1.035400
18.755000 1.028400
18.780200 1.027400
18.805400 1.029900
18.830600 1.034200
18.855800 1.038600
18.881000 1.043100
18.906200 1.047500
18.931300 1.051900
18.956500 1.055700
18.981700 1.058900
19.006900 1.061300
19.032100 1.062600
19.057300 1.064700
19.082500 1.064800
19.107600 1.063700
19.132800 1.061800
19.158000 1.060000
19.183200 1.058900
19.208400 1.064200
19.233600 1.071600
19.258800 1.073400
19.284000 1.069700
19.309100 1.064900
19.334300 1.065500
19.359500 1.063700
19.384700 1.059600
19.409900 1.053300
19.435100 1.044500
19.460300 1.035300
19.485400 1.028900
19.510600 1.025300
19.535800 1.023400
19.561000 1.021700
19.586200 1.019100
19.611400 1.015900
19.636600 1.013500
19.661800 1.012600
19.686900 1.011000
19.712100 1.008200
19.737300 1.004800
19.762500 0.999400
19.787700 0.994800
19.812900 0.992400
19.838100 0.992300
19.863200 0.993800
19.888400 0.995300
19.913600 0.996600
19.938800 1.004100
19.964000 1.016300
19.989200 1.036000
20.014400 1.027100
20.039500 1.020600
20.064700 1.024100
20.089900 1.019900
20.115100 1.004200
20.140300 1.004000
20.165500 1.007500
20.190700 1.015200
20.215900 1.027000
20.241000 1.041800
20.266200 1.060800
20.291400 1.083900
20.316600 1.161800
20.341800 1.081200
20.367000 1.080500
20.392200 1.078100
20.417300 1.074200
20.442500 1.063900
20.467700 1.046600
20.492900 1.027900
20.518100 1.011400
20.543300 0.993400
20.568500 0.973500
20.593700 0.954800
20.618800 0.939900
20.644000 0.927100
20.669200 0.920400
20.694400 0.915900
20.719600 0.911900
20.744800 0.907600
20.770000 0.902600
20.795100 0.896900
20.820300 0.890800
20.845500 0.884600
20.870700 0.882200
20.895900 0.885300
20.921100 0.889600
20.946300 0.895500
20.971500 0.891300
20.996600 0.881600
21.021800 0.873600
21.047000 0.868500
21.072200 0.863000
21.097400 0.872800
21.122600 0.858300
21.147800 0.854600
21.172900 0.860800
21.198100 0.867600
21.223300 0.874900
21.248500 0.884400
21.273700 0.896700
21.298900 0.910900
21.324100 0.926300
21.349200 0.945500
21.374400 0.973400
21.399600 1.000300
21.424800 1.015500
21.450000 1.021300
21.475200 1.028000
21.500400 1.024600
21.525600 1.036500
21.550700 1.064900
21.575900 1.069400
21.601100 1.077200
21.626300 1.087100
