set title 'mp-754514 - Density of States'
set xlabel 'Energy (eV)'
set ylabel 'DOS (states/eV)'
set grid
set xrange [-10:10]
set yrange [0:2.258]
set xzeroaxis lt -1
set terminal png size 800,600
set output 'mp-754514_dos_gnuplot.png'
plot '-' using 1:2 with lines title 'DOS'
-30.990000 0.000000
-30.916700 0.000000
-30.843500 0.000000
-30.770200 0.000000
-30.697000 0.000000
-30.623700 0.000000
-30.550500 0.000000
-30.477200 0.000000
-30.404000 0.000000
-30.330700 0.000000
-30.257500 0.000000
-30.184200 0.000000
-30.111000 0.000000
-30.037700 0.000000
-29.964500 0.000000
-29.891200 0.000000
-29.818000 0.000000
-29.744700 0.000000
-29.671500 0.000000
-29.598200 0.000000
-29.525000 0.000000
-29.451700 0.000000
-29.378500 0.000000
-29.305200 0.000000
-29.232000 0.000000
-29.158700 0.000000
-29.085500 0.000000
-29.012200 0.000000
-28.939000 0.000000
-28.865700 0.000000
-28.792500 0.000000
-28.719200 0.000000
-28.646000 0.000000
-28.572700 0.000000
-28.499500 0.000000
-28.426200 0.000000
-28.353000 0.000000
-28.279700 0.000000
-28.206500 0.000000
-28.133200 0.000000
-28.060000 0.000000
-27.986700 0.000000
-27.913500 0.000000
-27.840300 0.000000
-27.767000 0.000000
-27.693800 0.000000
-27.620500 0.000000
-27.547300 0.000000
-27.474000 0.000000
-27.400800 0.000000
-27.327500 0.000000
-27.254300 0.000000
-27.181000 0.000000
-27.107800 0.000000
-27.034500 0.000000
-26.961300 0.000000
-26.888000 0.000000
-26.814800 0.000000
-26.741500 0.000000
-26.668300 0.000000
-26.595000 0.000000
-26.521800 0.000000
-26.448500 0.000000
-26.375300 0.000000
-26.302000 0.000000
-26.228800 0.000000
-26.155500 0.000000
-26.082300 0.000000
-26.009000 0.000000
-25.935800 0.000000
-25.862500 0.000000
-25.789300 0.000000
-25.716000 0.000000
-25.642800 0.000000
-25.569500 0.000000
-25.496300 0.000000
-25.423000 0.000000
-25.349800 0.000000
-25.276500 0.000000
-25.203300 0.000000
-25.130000 0.000000
-25.056800 0.000000
-24.983500 0.000000
-24.910300 0.000000
-24.837000 0.000000
-24.763800 0.000000
-24.690600 0.000000
-24.617300 0.000000
-24.544100 0.000000
-24.470800 0.000000
-24.397600 0.000000
-24.324300 0.136500
-24.251100 1.711300
-24.177800 1.895600
-24.104600 0.962800
-24.031300 0.962800
-23.958100 0.866000
-23.884800 0.683100
-23.811600 0.578800
-23.738300 0.578800
-23.665100 0.578800
-23.591800 0.578800
-23.518600 0.528400
-23.445300 0.446400
-23.372100 0.414700
-23.298800 0.414700
-23.225600 0.414700
-23.152300 0.414700
-23.079100 0.414700
-23.005800 0.414700
-22.932600 0.404800
-22.859300 0.353600
-22.786100 0.324000
-22.712800 0.324000
-22.639600 0.324000
-22.566300 0.324000
-22.493100 0.324000
-22.419800 0.324000
-22.346600 0.324000
-22.273300 0.324000
-22.200100 0.324000
-22.126800 0.300200
-22.053600 0.266800
-21.980300 0.266800
-21.907100 0.266800
-21.833800 0.266800
-21.760600 0.266800
-21.687300 0.266800
-21.614100 0.266800
-21.540800 0.266800
-21.467600 0.266800
-21.394400 0.266800
-21.321100 0.266800
-21.247900 0.266800
-21.174600 0.246600
-21.101400 0.227800
-21.028100 0.227800
-20.954900 0.227800
-20.881600 0.227800
-20.808400 0.227800
-20.735100 0.227800
-20.661900 0.227800
-20.588600 0.227800
-20.515400 0.227800
-20.442100 0.227800
-20.368900 0.227800
-20.295600 0.227800
-20.222400 0.227800
-20.149100 0.227800
-20.075900 0.213200
-20.002600 0.200200
-19.929400 0.200200
-19.856100 0.200200
-19.782900 0.200200
-19.709600 0.200200
-19.636400 0.200200
-19.563100 0.200200
-19.489900 0.200200
-19.416600 0.200200
-19.343400 0.200200
-19.270100 0.200200
-19.196900 0.200200
-19.123600 0.200200
-19.050400 0.200200
-18.977100 0.200200
-18.903900 0.200200
-18.830600 0.182700
-18.757400 0.179700
-18.684100 0.179700
-18.610900 0.179700
-18.537600 0.179700
-18.464400 0.179700
-18.391100 0.179700
-18.317900 0.179700
-18.244600 0.179700
-18.171400 0.179700
-18.098200 0.179700
-18.024900 0.179700
-17.951700 0.179700
-17.878400 0.179700
-17.805200 0.179700
-17.731900 0.179700
-17.658700 0.179700
-17.585400 0.179700
-17.512200 0.179700
-17.438900 0.172600
-17.365700 0.164500
-17.292400 0.164500
-17.219200 0.164500
-17.145900 0.164500
-17.072700 0.164500
-16.999400 0.164500
-16.926200 0.164500
-16.852900 0.164500
-16.779700 0.164500
-16.706400 0.164500
-16.633200 0.164500
-16.559900 0.164500
-16.486700 0.164500
-16.413400 0.164500
-16.340200 0.164500
-16.266900 0.164500
-16.193700 0.164500
-16.120400 0.164500
-16.047200 0.164500
-15.973900 0.164500
-15.900700 0.158100
-15.827400 0.154500
-15.754200 0.154500
-15.680900 0.154500
-15.607700 0.154500
-15.534400 0.154500
-15.461200 0.154500
-15.387900 0.154500
-15.314700 0.154500
-15.241400 0.154500
-15.168200 0.154500
-15.094900 0.154500
-15.021700 0.154500
-14.948500 0.154500
-14.875200 0.154500
-14.802000 0.154500
-14.728700 0.154500
-14.655500 0.154500
-14.582200 0.154500
-14.509000 0.154500
-14.435700 0.154500
-14.362500 0.154500
-14.289200 0.151700
-14.216000 0.149700
-14.142700 0.149700
-14.069500 0.149700
-13.996200 0.149700
-13.923000 0.149700
-13.849700 0.149700
-13.776500 0.149700
-13.703200 0.149700
-13.630000 0.149700
-13.556700 0.149700
-13.483500 0.149700
-13.410200 0.149700
-13.337000 0.149700
-13.263700 0.149700
-13.190500 0.149700
-13.117200 0.149700
-13.044000 0.149700
-12.970700 0.149700
-12.897500 0.149700
-12.824200 0.149700
-12.751000 0.149700
-12.677700 0.149700
-12.604500 0.151700
-12.531200 0.152100
-12.458000 0.152100
-12.384700 0.152100
-12.311500 0.152100
-12.238200 0.152100
-12.165000 0.152100
-12.091700 0.152100
-12.018500 0.152100
-11.945200 0.152100
-11.872000 0.152100
-11.798700 0.152100
-11.725500 0.152100
-11.652300 0.152100
-11.579000 0.152100
-11.505800 0.152100
-11.432500 0.152100
-11.359300 0.152100
-11.286000 0.152100
-11.212800 0.152100
-11.139500 0.152100
-11.066300 0.152100
-10.993000 0.157900
-10.919800 0.169800
-10.846500 0.169800
-10.773300 0.169800
-10.700000 0.169800
-10.626800 0.169800
-10.553500 0.169800
-10.480300 0.169800
-10.407000 0.169800
-10.333800 0.169800
-10.260500 0.169800
-10.187300 0.169800
-10.114000 0.169800
-10.040800 0.169800
-9.967500 0.169800
-9.894300 0.169800
-9.821000 0.169800
-9.747800 0.169800
-9.674500 0.169800
-9.601300 0.169800
-9.528000 0.169800
-9.454800 0.431900
-9.381500 0.428500
-9.308300 0.803300
-9.235000 0.577100
-9.161800 0.477400
-9.088500 0.358400
-9.015300 0.332800
-8.942000 0.400900
-8.868800 0.464800
-8.795500 0.525500
-8.722300 0.575600
-8.649000 0.624400
-8.575800 0.701900
-8.502600 0.750700
-8.429300 0.920300
-8.356100 1.256800
-8.282800 1.125300
-8.209600 1.007700
-8.136300 1.222000
-8.063100 1.353300
-7.989800 1.978000
-7.916600 1.640600
-7.843300 2.052600
-7.770100 1.504800
-7.696800 1.449500
-7.623600 1.462200
-7.550300 1.225500
-7.477100 1.099700
-7.403800 1.004000
-7.330600 0.954200
-7.257300 0.934700
-7.184100 0.905000
-7.110800 0.874900
-7.037600 0.830000
-6.964300 0.751600
-6.891100 0.732300
-6.817800 0.727300
-6.744600 0.722800
-6.671300 0.719100
-6.598100 0.714800
-6.524800 0.696800
-6.451600 0.677400
-6.378300 0.661400
-6.305100 0.633600
-6.231800 0.606200
-6.158600 0.602500
-6.085300 0.598600
-6.012100 0.594700
-5.938800 0.591000
-5.865600 0.585700
-5.792300 0.584400
-5.719100 0.580300
-5.645800 0.574200
-5.572600 0.567500
-5.499300 0.559000
-5.426100 0.545100
-5.352800 0.527600
-5.279600 0.524300
-5.206400 0.520700
-5.133100 0.517900
-5.059900 0.517300
-4.986600 0.516600
-4.913400 0.516100
-4.840100 0.515600
-4.766900 0.515100
-4.693600 0.514600
-4.620400 0.511700
-4.547100 0.508100
-4.473900 0.503600
-4.400600 0.496500
-4.327400 0.465100
-4.254100 0.477600
-4.180900 0.480600
-4.107600 0.483300
-4.034400 0.486700
-3.961100 0.491900
-3.887900 0.499700
-3.814600 0.511900
-3.741400 0.526600
-3.668100 0.559300
-3.594900 0.667400
-3.521600 0.668900
-3.448400 0.616000
-3.375100 0.488200
-3.301900 0.372200
-3.228600 0.146000
-3.155400 0.135700
-3.082100 0.211900
-3.008900 0.291600
-2.935600 0.457600
-2.862400 0.558600
-2.789100 0.558600
-2.715900 0.558600
-2.642600 0.558600
-2.569400 0.558600
-2.496100 0.558600
-2.422900 0.558600
-2.349600 0.572400
-2.276400 0.608800
-2.203100 0.629900
-2.129900 0.685000
-2.056600 0.693200
-1.983400 0.747200
-1.910200 0.982700
-1.836900 1.226200
-1.763700 1.222400
-1.690400 1.118200
-1.617200 0.929400
-1.543900 0.870200
-1.470700 0.822700
-1.397400 0.779800
-1.324200 0.735600
-1.250900 0.717600
-1.177700 0.707300
-1.104400 0.691700
-1.031200 0.669400
-0.957900 0.645900
-0.884700 0.625000
-0.811400 0.614600
-0.738200 0.604400
-0.664900 0.585400
-0.591700 0.573500
-0.518400 0.569300
-0.445200 0.564600
-0.371900 0.558400
-0.298700 0.555800
-0.225400 0.541800
-0.152200 0.532400
-0.078900 0.524800
-0.005700 0.515500
0.067600 0.508000
0.140800 0.504400
0.214100 0.504500
0.287300 0.504400
0.360600 0.499200
0.433800 0.485700
0.507100 0.479800
0.580300 0.479200
0.653600 0.478200
0.726800 0.506500
0.800100 0.490400
0.873300 0.471100
0.946600 0.517700
1.019800 0.353800
1.093100 0.211900
1.166300 0.211900
1.239500 0.211800
1.312800 0.211800
1.386000 0.211800
1.459300 0.211800
1.532500 0.211800
1.605800 0.211800
1.679000 0.211800
1.752300 0.211800
1.825500 0.239000
1.898800 0.253700
1.972000 0.263100
2.045300 0.268300
2.118500 0.268200
2.191800 0.268200
2.265000 0.268200
2.338300 0.268100
2.411500 0.268100
2.484800 0.268000
2.558000 0.268000
2.631300 0.314200
2.704500 0.337900
2.777800 0.354700
2.851000 0.368500
2.924300 0.381100
2.997500 0.395700
3.070800 0.470500
3.144000 0.559900
3.217300 0.603900
3.290500 1.095100
3.363800 1.073300
3.437000 0.829300
3.510300 0.671000
3.583500 0.623000
3.656800 0.577300
3.730000 0.527200
3.803300 0.512000
3.876500 0.495100
3.949800 0.458100
4.023000 0.431400
4.096300 0.413100
4.169500 0.391800
4.242800 0.377500
4.316000 0.372800
4.389300 0.358400
4.462500 0.346700
4.535700 0.334300
4.609000 0.287100
4.682200 0.176900
4.755500 0.130600
4.828700 0.050400
4.902000 0.000000
4.975200 0.000000
5.048500 0.000000
5.121700 0.000000
5.195000 0.000000
5.268200 0.000000
5.341500 0.000000
5.414700 0.000000
5.488000 0.000000
5.561200 0.000000
5.634500 0.000000
5.707700 0.000000
5.781000 0.000000
5.854200 0.015800
5.927500 0.081800
6.000700 0.108800
6.074000 0.125900
6.147200 0.150000
6.220500 0.169700
6.293700 0.183700
6.367000 0.199400
6.440200 0.216500
6.513500 0.233600
6.586700 0.251000
6.660000 0.268800
6.733200 0.287000
6.806500 0.310000
6.879700 0.340100
6.953000 0.361900
7.026200 0.363800
7.099500 0.373600
7.172700 0.385100
7.246000 0.395800
7.319200 0.405000
7.392500 0.417000
7.465700 0.433300
7.539000 0.520100
7.612200 0.865600
7.685500 0.880500
7.758700 0.888800
7.831900 0.897900
7.905200 0.907900
7.978400 0.919500
8.051700 0.868000
8.124900 0.684600
8.198200 0.659500
8.271400 0.648000
8.344700 0.640500
8.417900 0.633600
8.491200 0.630700
8.564400 0.630400
8.637700 0.633700
8.710900 0.642200
8.784200 0.654400
8.857400 0.674600
8.930700 0.695800
9.003900 0.711500
9.077200 0.694700
9.150400 0.656700
9.223700 0.662800
9.296900 0.645100
9.370200 0.638400
9.443400 0.583100
9.516700 0.600600
9.589900 0.614600
9.663200 0.787500
9.736400 0.758000
9.809700 0.744400
9.882900 0.764500
9.956200 0.781200
10.029400 0.794500
10.102700 0.823700
10.175900 0.865100
10.249200 0.924500
10.322400 0.988600
10.395700 1.033000
10.468900 1.026900
10.542200 0.993400
10.615400 0.973600
10.688700 0.961800
10.761900 0.922000
10.835200 0.897200
10.908400 0.894200
10.981600 0.904400
11.054900 0.914600
11.128100 0.991900
11.201400 1.856700
11.274600 1.463200
11.347900 1.281300
11.421100 1.172000
11.494400 1.066400
11.567600 1.018300
11.640900 0.988300
11.714100 0.986700
11.787400 1.035100
11.860600 1.170400
11.933900 1.631400
12.007100 1.547800
12.080400 1.582100
12.153600 1.696600
12.226900 2.220800
12.300100 1.522100
12.373400 1.310600
12.446600 1.185000
12.519900 1.066400
12.593100 0.881300
12.666400 0.876300
12.739600 0.873400
12.812900 0.871100
12.886100 0.870000
12.959400 0.870100
13.032600 0.874100
13.105900 0.908800
13.179100 0.899200
13.252400 0.897900
13.325600 0.902400
13.398900 0.914400
13.472100 0.965600
13.545400 1.022900
13.618600 1.007300
13.691900 1.009700
13.765100 1.020300
13.838400 1.060500
13.911600 1.089900
13.984900 1.040400
14.058100 0.972200
14.131400 0.995100
14.204600 1.013900
14.277800 0.944500
14.351100 0.806200
14.424300 0.511600
14.497600 0.481600
14.570800 0.494900
14.644100 0.616700
14.717300 0.768900
14.790600 0.892600
14.863800 0.910900
14.937100 0.925100
15.010300 0.942200
15.083600 0.967800
15.156800 0.989300
15.230100 1.014600
15.303300 1.026900
15.376600 1.040800
15.449800 1.064300
15.523100 1.099600
15.596300 1.145800
15.669600 1.209700
15.742800 1.470600
15.816100 1.335200
15.889300 1.059400
15.962600 0.870400
16.035800 0.786600
16.109100 0.724600
16.182300 0.688600
16.255600 0.689000
16.328800 0.691400
16.402100 0.704800
16.475300 0.728600
16.548600 0.754700
16.621800 0.770200
16.695100 0.798100
16.768300 0.859500
16.841600 1.026400
16.914800 1.130100
16.988100 1.169000
17.061300 1.183900
17.134600 1.135800
17.207800 1.151600
17.281100 1.163700
17.354300 1.239200
17.427600 1.110800
17.500800 1.105600
17.574000 1.112800
17.647300 1.128100
17.720500 1.123700
17.793800 1.149200
17.867000 1.180800
17.940300 1.246600
18.013500 1.277900
18.086800 1.293300
18.160000 1.289300
18.233300 1.253700
18.306500 1.185800
18.379800 1.132100
18.453000 1.115700
18.526300 1.111200
18.599500 1.073800
18.672800 1.114200
18.746000 1.265900
18.819300 1.395000
18.892500 1.365300
18.965800 1.333400
19.039000 1.316200
19.112300 1.277300
19.185500 1.204200
19.258800 1.093000
19.332000 0.984800
19.405300 0.885500
19.478500 0.869400
19.551800 0.918100
19.625000 0.944500
19.698300 0.929300
19.771500 1.020400
19.844800 0.944000
19.918000 0.856000
19.991300 0.807000
20.064500 0.790600
20.137800 0.810600
20.211000 0.844900
20.284300 0.832500
20.357500 0.837800
20.430800 0.836800
20.504000 0.814000
20.577300 0.808300
20.650500 0.803800
20.723700 0.763900
20.797000 0.702900
20.870200 0.668300
20.943500 0.630100
21.016700 0.587100
21.090000 0.561900
21.163200 0.545700
21.236500 0.543800
21.309700 0.551700
21.383000 0.572000
21.456200 0.607200
21.529500 0.631300
21.602700 0.654500
21.676000 0.676200
21.749200 0.699200
21.822500 0.723000
21.895700 0.732400
21.969000 0.748500
22.042200 0.796500
22.115500 0.848400
22.188700 0.923400
22.262000 0.979000
22.335200 0.992200
22.408500 0.943000
22.481700 0.891900
22.555000 0.868700
22.628200 0.843200
22.701500 0.824400
22.774700 0.811000
22.848000 0.844000
22.921200 0.907900
22.994500 0.950700
23.067700 0.991000
23.141000 1.026900
23.214200 1.074300
23.287500 1.096400
23.360700 1.118800
23.434000 1.133400
23.507200 1.151000
23.580500 1.163200
23.653700 1.157100
23.727000 1.219100
23.800200 1.195700
23.873500 1.149400
23.946700 1.125600
24.019900 1.186400
24.093200 1.089200
24.166400 0.936300
24.239700 0.873000
24.312900 0.855200
24.386200 0.876100
24.459400 0.876300
24.532700 0.865200
24.605900 0.868800
24.679200 0.830500
24.752400 0.804200
24.825700 0.802400
24.898900 0.852000
24.972200 0.917300
25.045400 0.890900
25.118700 0.867000
25.191900 0.875000
25.265200 0.879700
25.338400 0.909300
25.411700 0.948200
25.484900 0.969500
25.558200 0.962200
25.631400 0.965800
25.704700 1.044700
25.777900 1.021900
25.851200 0.988900
25.924400 0.937200
25.997700 0.907700
26.070900 0.884700
26.144200 0.863200
26.217400 0.850400
26.290700 0.856300
26.363900 0.889200
26.437200 0.921100
26.510400 0.955200
26.583700 1.000500
26.656900 1.039900
26.730200 1.103200
26.803400 1.089800
26.876700 1.117500
26.949900 1.158400
27.023200 1.233000
27.096400 1.283300
27.169600 1.321700
27.242900 1.193400
27.316100 1.147200
27.389400 1.122600
27.462600 1.105800
27.535900 1.100100
27.609100 1.073500
27.682400 1.052300
27.755600 1.042800
27.828900 1.039100
27.902100 1.066300
27.975400 1.119000
28.048600 1.158700
28.121900 1.214300
28.195100 1.291400
28.268400 1.404500
28.341600 1.439100
28.414900 1.408500
28.488100 1.444200
28.561400 1.341600
28.634600 1.292700
28.707900 1.254900
28.781100 1.237600
28.854400 1.218200
28.927600 1.173600
29.000900 1.135800
29.074100 1.113800
29.147400 1.117400
29.220600 1.095700
29.293900 1.123400
29.367100 1.083800
29.440400 1.047800
29.513600 1.008100
29.586900 0.991000
29.660100 0.983400
29.733400 0.980900
29.806600 0.962300
29.879900 0.947700
29.953100 0.924200
30.026400 0.911200
30.099600 0.919100
30.172900 0.892400
30.246100 0.909000
30.319400 0.974300
30.392600 1.085000
30.465800 1.182500
30.539100 1.257100
30.612300 1.318100
30.685600 1.414100
30.758800 1.475600
30.832100 1.553600
30.905300 1.566500
30.978600 1.549800
31.051800 1.596000
31.125100 1.684600
31.198300 1.759200
31.271600 1.711000
31.344800 1.659600
31.418100 1.618500
31.491300 1.532200
31.564600 1.492100
31.637800 1.365100
31.711100 1.299400
31.784300 1.236100
31.857600 1.184200
31.930800 1.215000
32.004100 1.246000
32.077300 1.306200
32.150600 1.365300
32.223800 1.406800
32.297100 1.394800
32.370300 1.364700
32.443600 1.332500
32.516800 1.297000
32.590100 1.287500
32.663300 1.272500
32.736600 1.187100
32.809800 1.173100
32.883100 1.200200
32.956300 1.235300
33.029600 1.313700
33.102800 1.337500
33.176100 1.348600
33.249300 1.321000
33.322600 1.338900
33.395800 1.342700
33.469100 1.309400
33.542300 1.303400
33.615600 1.353700
33.688800 1.317800
33.762000 1.250800
33.835300 1.230400
33.908500 1.235900
33.981800 1.217200
34.055000 1.217800
34.128300 1.205400
34.201500 1.214800
34.274800 1.240800
34.348000 1.274100
34.421300 1.295900
34.494500 1.326300
34.567800 1.334400
34.641000 1.356300
34.714300 1.359000
34.787500 1.333000
34.860800 1.357200
34.934000 1.360700
35.007300 1.376600
35.080500 1.391500
35.153800 1.351600
35.227000 1.215200
35.300300 1.148300
35.373500 1.090800
35.446800 1.041300
35.520000 1.011400
35.593300 1.005000
35.666500 1.009900
35.739800 1.015700
35.813000 1.045300
35.886300 1.068600
35.959500 1.081600
36.032800 1.085700
36.106000 1.107900
36.179300 1.176600
36.252500 1.234200
36.325800 1.265100
36.399000 1.267900
36.472300 1.264400
36.545500 1.316000
36.618800 1.368600
36.692000 1.298600
36.765300 1.252700
36.838500 1.206200
36.911700 1.167600
36.985000 1.162500
37.058200 1.149400
37.131500 1.139000
37.204700 1.121400
37.278000 1.097400
37.351200 1.068100
37.424500 1.058800
37.497700 1.056900
37.571000 1.072400
37.644200 1.075700
37.717500 1.087700
37.790700 1.117500
37.864000 1.154200
37.937200 1.162300
38.010500 1.157700
38.083700 1.174200
38.157000 1.195000
38.230200 1.196000
38.303500 1.197900
38.376700 1.204900
38.450000 1.205400
38.523200 1.228600
38.596500 1.280500
38.669700 1.364100
38.743000 1.403100
38.816200 1.348400
38.889500 1.208400
38.962700 1.204800
39.036000 1.215000
39.109200 1.210100
39.182500 1.155900
39.255700 1.098600
39.329000 1.045100
39.402200 0.988100
39.475500 0.936300
39.548700 0.915500
39.622000 0.922800
39.695200 0.956500
39.768500 0.993000
39.841700 1.043300
39.915000 1.104000
39.988200 1.194900
40.061500 1.372700
40.134700 1.424300
40.207900 1.444700
40.281200 1.427900
40.354400 1.427300
40.427700 1.422600
40.500900 1.378200
40.574200 1.320600
40.647400 1.274700
40.720700 1.233000
40.793900 1.190900
40.867200 1.196800
40.940400 1.225600
41.013700 1.284000
41.086900 1.322200
41.160200 1.350000
41.233400 1.393900
41.306700 1.472900
41.379900 1.471800
41.453200 1.468600
41.526400 1.469600
41.599700 1.403000
41.672900 1.384100
41.746200 1.370800
41.819400 1.368900
41.892700 1.383600
41.965900 1.365500
42.039200 1.337500
42.112400 1.309800
42.185700 1.296000
42.258900 1.294800
42.332200 1.300000
42.405400 1.278800
42.478700 1.288700
42.551900 1.320500
42.625200 1.331300
42.698400 1.337200
42.771700 1.311700
42.844900 1.304400
42.918200 1.308500
42.991400 1.328900
43.064700 1.332600
43.137900 1.337900
43.211200 1.277300
43.284400 1.256800
43.357700 1.313700
43.430900 1.402400
43.504100 1.476000
43.577400 1.538200
43.650600 1.611100
43.723900 1.661700
43.797100 1.656100
43.870400 1.667600
43.943600 1.663800
44.016900 1.652800
44.090100 1.646800
44.163400 1.656100
44.236600 1.635600
44.309900 1.601800
44.383100 1.601600
