set title 'mp-611219 - Density of States'
set xlabel 'Energy (eV)'
set ylabel 'DOS (states/eV)'
set grid
set xrange [-10:10]
set yrange [0:34.370]
set xzeroaxis lt -1
set terminal png size 800,600
set output 'mp-611219_dos_gnuplot.png'
plot '-' using 1:2 with lines title 'DOS'
-11.726100 0.000000
-11.692400 0.000000
-11.658800 0.000000
-11.625100 0.000000
-11.591500 0.000000
-11.557900 0.000000
-11.524200 0.000000
-11.490600 0.000000
-11.457000 0.000000
-11.423300 0.000000
-11.389700 0.000000
-11.356100 0.000000
-11.322400 0.000000
-11.288800 0.000000
-11.255200 0.000000
-11.221500 0.000000
-11.187900 0.000000
-11.154300 0.000000
-11.120600 0.000000
-11.087000 0.000000
-11.053400 0.000000
-11.019700 0.000000
-10.986100 0.000000
-10.952400 0.000000
-10.918800 0.000000
-10.885200 0.000000
-10.851500 0.000000
-10.817900 0.000000
-10.784300 0.000000
-10.750600 0.000000
-10.717000 0.000000
-10.683400 0.000000
-10.649700 0.000000
-10.616100 0.000000
-10.582500 0.000000
-10.548800 0.000000
-10.515200 0.000000
-10.481600 0.000000
-10.447900 0.000000
-10.414300 0.000000
-10.380600 0.000000
-10.347000 0.000000
-10.313400 0.000000
-10.279700 0.000000
-10.246100 0.000000
-10.212500 0.000000
-10.178800 0.000000
-10.145200 0.000000
-10.111600 0.000000
-10.077900 0.000000
-10.044300 0.000000
-10.010700 0.000000
-9.977000 0.000000
-9.943400 0.000000
-9.909800 0.000000
-9.876100 0.000000
-9.842500 0.000000
-9.808800 0.000000
-9.775200 0.000000
-9.741600 0.000000
-9.707900 0.000000
-9.674300 0.000000
-9.640700 0.000000
-9.607000 0.000000
-9.573400 0.000000
-9.539800 0.000000
-9.506100 0.000000
-9.472500 0.000000
-9.438900 0.000000
-9.405200 0.000000
-9.371600 0.000000
-9.338000 0.000000
-9.304300 0.000000
-9.270700 0.000000
-9.237000 0.000000
-9.203400 0.000000
-9.169800 0.000000
-9.136100 0.000000
-9.102500 0.000000
-9.068900 0.000000
-9.035200 0.000000
-9.001600 0.000000
-8.968000 0.000000
-8.934300 0.000000
-8.900700 0.000000
-8.867100 0.000000
-8.833400 0.000000
-8.799800 0.000000
-8.766200 0.000000
-8.732500 0.000000
-8.698900 0.000000
-8.665200 0.169500
-8.631600 2.513300
-8.598000 4.871300
-8.564300 6.960300
-8.530700 9.014600
-8.497100 9.873300
-8.463400 12.218400
-8.429800 7.659600
-8.396200 3.100700
-8.362500 1.473400
-8.328900 10.139500
-8.295300 31.245100
-8.261600 3.998800
-8.228000 1.254200
-8.194400 5.863800
-8.160700 9.161800
-8.127100 17.430700
-8.093400 19.048700
-8.059800 26.975700
-8.026200 14.422900
-7.992500 2.175700
-7.958900 8.288400
-7.925300 9.801000
-7.891600 12.379200
-7.858000 6.405000
-7.824400 4.911300
-7.790700 3.417600
-7.757100 1.923900
-7.723500 0.430200
-7.689800 0.000000
-7.656200 0.000000
-7.622600 0.000000
-7.588900 0.000000
-7.555300 0.000000
-7.521600 0.000000
-7.488000 0.000000
-7.454400 0.000000
-7.420700 0.000000
-7.387100 0.000000
-7.353500 0.000000
-7.319800 0.000000
-7.286200 0.000000
-7.252600 0.000000
-7.218900 0.000000
-7.185300 0.000000
-7.151700 0.000000
-7.118000 0.000000
-7.084400 0.028400
-7.050800 0.115100
-7.017100 0.201800
-6.983500 0.288500
-6.949800 0.375200
-6.916200 0.461900
-6.882600 0.548600
-6.848900 0.635300
-6.815300 0.721900
-6.781700 0.808600
-6.748000 0.895300
-6.714400 0.373000
-6.680800 0.377200
-6.647100 0.381500
-6.613500 0.385800
-6.579900 0.390100
-6.546200 0.394400
-6.512600 0.398700
-6.479000 0.403000
-6.445300 0.407200
-6.411700 0.411500
-6.378000 0.415800
-6.344400 0.420100
-6.310800 0.424400
-6.277100 0.428700
-6.243500 0.433000
-6.209900 0.437300
-6.176200 0.441500
-6.142600 0.445800
-6.109000 0.450100
-6.075300 0.454400
-6.041700 0.458700
-6.008100 0.463000
-5.974400 0.467300
-5.940800 0.471500
-5.907200 0.475800
-5.873500 0.480100
-5.839900 0.484400
-5.806200 0.480900
-5.772600 0.476300
-5.739000 0.471600
-5.705300 0.466900
-5.671700 0.462300
-5.638100 0.457600
-5.604400 0.452900
-5.570800 0.448300
-5.537200 0.443600
-5.503500 0.438900
-5.469900 0.434300
-5.436300 0.429600
-5.402600 0.424900
-5.369000 0.420300
-5.335400 0.422000
-5.301700 0.425600
-5.268100 0.429300
-5.234400 0.432900
-5.200800 0.436600
-5.167200 0.440200
-5.133500 0.443800
-5.099900 0.447500
-5.066300 0.451100
-5.032600 0.454800
-4.999000 0.458400
-4.965400 0.462100
-4.931700 0.465700
-4.898100 0.469300
-4.864500 0.473000
-4.830800 0.476600
-4.797200 0.480300
-4.763600 0.483900
-4.729900 0.487600
-4.696300 0.491200
-4.662700 0.494900
-4.629000 0.498500
-4.595400 0.502100
-4.561700 0.505800
-4.528100 0.509400
-4.494500 0.513100
-4.460800 0.516700
-4.427200 0.520400
-4.393600 0.524000
-4.359900 0.527600
-4.326300 0.531300
-4.292700 0.534900
-4.259000 0.538600
-4.225400 0.542200
-4.191800 0.545900
-4.158100 0.549500
-4.124500 0.553100
-4.090900 0.556800
-4.057200 0.560400
-4.023600 1.831000
-3.989900 1.716800
-3.956300 1.602700
-3.922700 1.488600
-3.889000 1.374400
-3.855400 1.260300
-3.821800 1.146100
-3.788100 1.032000
-3.754500 0.917900
-3.720900 0.803700
-3.687200 0.689600
-3.653600 0.575500
-3.620000 0.461300
-3.586300 0.371000
-3.552700 0.343600
-3.519100 0.316300
-3.485400 0.288900
-3.451800 0.261600
-3.418100 0.234200
-3.384500 0.206900
-3.350900 0.179500
-3.317200 0.152200
-3.283600 0.124800
-3.250000 0.097500
-3.216300 0.070100
-3.182700 0.042800
-3.149100 0.015400
-3.115400 0.000000
-3.081800 0.000000
-3.048200 0.000000
-3.014500 0.000000
-2.980900 0.000000
-2.947300 0.000000
-2.913600 0.000000
-2.880000 0.000000
-2.846300 0.000000
-2.812700 0.000000
-2.779100 0.000000
-2.745400 0.000000
-2.711800 0.000000
-2.678200 0.000000
-2.644500 0.000000
-2.610900 0.000000
-2.577300 0.000000
-2.543600 0.000000
-2.510000 0.000000
-2.476400 0.000000
-2.442700 0.000000
-2.409100 0.000000
-2.375500 0.000000
-2.341800 0.000000
-2.308200 0.000000
-2.274500 0.000000
-2.240900 0.000000
-2.207300 0.000000
-2.173600 0.000000
-2.140000 0.000000
-2.106400 0.000000
-2.072700 0.000000
-2.039100 0.000000
-2.005500 0.000000
-1.971800 0.000000
-1.938200 0.000000
-1.904600 0.000000
-1.870900 0.000000
-1.837300 0.000000
-1.803700 0.000000
-1.770000 0.000000
-1.736400 0.000000
-1.702700 0.000000
-1.669100 0.000000
-1.635500 0.000000
-1.601800 0.000000
-1.568200 0.000000
-1.534600 0.000000
-1.500900 0.000000
-1.467300 0.000000
-1.433700 0.000000
-1.400000 0.000000
-1.366400 0.000400
-1.332800 0.014100
-1.299100 0.028000
-1.265500 0.042000
-1.231900 0.060100
-1.198200 0.085000
-1.164600 0.113400
-1.130900 0.145600
-1.097300 0.181100
-1.063700 0.219200
-1.030000 0.260100
-0.996400 0.303600
-0.962800 0.351000
-0.929100 0.403800
-0.895500 0.456700
-0.861900 0.509500
-0.828200 0.562300
-0.794600 0.615100
-0.761000 0.667900
-0.727300 0.695400
-0.693700 0.696800
-0.660100 0.710400
-0.626400 0.729600
-0.592800 0.747500
-0.559100 0.763600
-0.525500 0.777600
-0.491900 0.785700
-0.458200 0.785400
-0.424600 0.771100
-0.391000 0.767300
-0.357300 0.785700
-0.323700 0.804000
-0.290100 0.822300
-0.256400 0.840600
-0.222800 0.858900
-0.189200 0.877300
-0.155500 0.895600
-0.121900 0.913900
-0.088300 0.932200
-0.054600 0.950500
-0.021000 2.603800
0.012700 2.525500
0.046300 2.447900
0.079900 2.371200
0.113600 2.295400
0.147200 2.220400
0.180800 2.146200
0.214500 2.072900
0.248100 2.000400
0.281700 1.914500
0.315400 1.817600
0.349000 1.712600
0.382600 1.599600
0.416300 1.479100
0.449900 1.352500
0.483500 1.219900
0.517200 1.081300
0.550800 0.936700
0.584500 0.784400
0.618100 0.689800
0.651700 0.596500
0.685400 0.503200
0.719000 0.420400
0.752600 0.355800
0.786300 0.302200
0.819900 0.256200
0.853500 0.216900
0.887200 0.184300
0.920800 0.158600
0.954400 0.140300
0.988100 0.131800
1.021700 0.134900
1.055300 0.145200
1.089000 0.155600
1.122600 0.166000
1.156300 0.176500
1.189900 0.186900
1.223500 0.197300
1.257200 0.207700
1.290800 0.218200
1.324400 0.228600
1.358100 0.239000
1.391700 0.249400
1.425300 0.261800
1.459000 0.368000
1.492600 0.483600
1.526200 0.599400
1.559900 0.715400
1.593500 0.831500
1.627100 0.947800
1.660800 1.064300
1.694400 1.180900
1.728000 1.297700
1.761700 1.414700
1.795300 1.529600
1.829000 1.631400
1.862600 1.730200
1.896200 1.826000
1.929900 1.920300
1.963500 2.041600
1.997100 2.270500
2.030800 2.420500
2.064400 2.502700
2.098000 2.518100
2.131700 2.485700
2.165300 2.396800
2.198900 2.117500
2.232600 1.712800
2.266200 1.333700
2.299800 1.112000
2.333500 1.060400
2.367100 1.008200
2.400800 0.955400
2.434400 0.902200
2.468000 0.848300
2.501700 0.794000
2.535300 0.739100
2.568900 0.683700
2.602600 0.627700
2.636200 0.571200
2.669800 0.534000
2.703500 0.503600
2.737100 0.476700
2.770700 0.453300
2.804400 0.433500
2.838000 0.420600
2.871600 0.411600
2.905300 0.406200
2.938900 0.404300
2.972600 0.400300
3.006200 0.361100
3.039800 0.299400
3.073500 0.254900
3.107100 0.229000
3.140700 0.377300
3.174400 0.586900
3.208000 0.837000
3.241600 1.127800
3.275300 1.427900
3.308900 1.747300
3.342500 2.081500
3.376200 2.377700
3.409800 2.635700
3.443400 2.910500
3.477100 4.149400
3.510700 1.165800
3.544400 1.145700
3.578000 1.136500
3.611600 1.126600
3.645300 1.115800
3.678900 1.104200
3.712500 1.091900
3.746200 1.078700
3.779800 1.064700
3.813400 1.049900
3.847100 1.034200
3.880700 1.017800
3.914300 1.000600
3.948000 0.982500
3.981600 0.963500
4.015200 0.942500
4.048900 0.919400
4.082500 0.894200
4.116200 0.867000
4.149800 0.837600
4.183400 1.119300
4.217100 1.259400
4.250700 1.105300
4.284300 1.041900
4.318000 0.977200
4.351600 0.911100
4.385200 0.843700
4.418900 0.783500
4.452500 0.765300
4.486100 0.767400
4.519800 0.767500
4.553400 0.765700
4.587000 0.768100
4.620700 0.784500
4.654300 0.804400
4.688000 0.830600
4.721600 0.865100
4.755200 0.905200
4.788900 0.948400
4.822500 0.993100
4.856100 1.039400
4.889800 1.087200
4.923400 1.136500
4.957000 1.186900
4.990700 1.236700
5.024300 1.286000
5.057900 1.376900
5.091600 1.665800
5.125200 1.807700
5.158800 1.732000
5.192500 1.916400
5.226100 2.031000
5.259800 2.028700
5.293400 1.909400
5.327000 1.806400
5.360700 1.780300
5.394300 1.770800
5.427900 1.739900
5.461600 1.691400
5.495200 1.622500
5.528800 1.535700
5.562500 1.445400
5.596100 1.357500
5.629700 1.334700
5.663400 1.418200
5.697000 1.590600
5.730600 1.772800
5.764300 1.964800
5.797900 2.166500
5.831600 2.487900
5.865200 2.794300
5.898800 2.896500
5.932500 2.944600
5.966100 2.709000
5.999700 2.859900
6.033400 2.866200
6.067000 2.727800
6.100600 2.444900
6.134300 2.305700
6.167900 2.212600
6.201500 2.122000
6.235200 2.034400
6.268800 1.948400
6.302400 1.858900
6.336100 1.761600
6.369700 1.646300
6.403400 1.523800
6.437000 1.400900
6.470600 1.278000
6.504300 1.137900
6.537900 1.009300
6.571500 0.898600
6.605200 0.805600
6.638800 0.730500
6.672400 0.687000
6.706100 0.662800
6.739700 0.644300
6.773300 0.707400
6.807000 0.789500
6.840600 0.859500
6.874200 0.917600
6.907900 0.961700
6.941500 1.005300
6.975200 1.084900
7.008800 1.193200
7.042400 1.330000
7.076100 1.494000
7.109700 1.539900
7.143300 1.586800
7.177000 1.634000
7.210600 1.668600
7.244200 1.690600
7.277900 1.677500
7.311500 1.608000
7.345100 1.538600
7.378800 1.474200
7.412400 1.414800
7.446000 1.360400
7.479700 1.371500
7.513300 1.480500
7.546900 1.468700
7.580600 1.409900
7.614200 1.422900
7.647900 1.438000
7.681500 1.454400
7.715100 1.471500
7.748800 1.489500
7.782400 1.508300
7.816000 1.527800
7.849700 1.552200
7.883300 1.586200
7.916900 1.623800
7.950600 1.665200
7.984200 1.710200
8.017800 1.758900
8.051500 1.806200
8.085100 1.846200
8.118700 1.901700
8.152400 1.727200
8.186000 1.744800
8.219700 1.753900
8.253300 1.755500
8.286900 1.749300
8.320600 1.735500
8.354200 1.714400
8.387800 1.693500
8.421500 1.672000
8.455100 1.692300
8.488700 2.357800
8.522400 2.201300
8.556000 2.158300
8.589600 2.118600
8.623300 2.082700
8.656900 2.049700
8.690500 2.019500
8.724200 1.992300
8.757800 1.968600
8.791500 1.948400
8.825100 1.931700
8.858700 1.924700
8.892400 1.969200
8.926000 2.195200
8.959600 2.249100
8.993300 2.131300
9.026900 1.896600
9.060500 1.886400
9.094200 1.874200
9.127800 1.859100
9.161400 1.841400
9.195100 1.820800
9.228700 1.797500
9.262300 1.771700
9.296000 1.745100
9.329600 1.722400
9.363300 1.700600
9.396900 1.679400
9.430500 1.658900
9.464200 1.649400
9.497800 1.637100
9.531400 1.623900
9.565100 1.681200
9.598700 1.885700
9.632300 2.079100
9.666000 2.191000
9.699600 2.245900
9.733200 2.207500
9.766900 2.169800
9.800500 2.131000
9.834100 2.091000
9.867800 2.061600
9.901400 2.032100
9.935100 1.985500
9.968700 1.959900
10.002300 1.949800
10.036000 1.980200
10.069600 1.988800
10.103200 1.779900
10.136900 1.645600
10.170500 1.621500
10.204100 1.603200
10.237800 1.590600
10.271400 1.594600
10.305000 1.610100
10.338700 1.635500
10.372300 1.672100
10.405900 1.721700
10.439600 1.810100
10.473200 1.755300
10.506900 1.781500
10.540500 1.825700
10.574100 1.877400
10.607800 1.936600
10.641400 1.977900
10.675000 1.941900
10.708700 1.862700
10.742300 1.875000
10.775900 1.882600
10.809600 1.884300
10.843200 1.880200
10.876800 1.878500
10.910500 1.897100
10.944100 2.143500
10.977700 2.199300
11.011400 2.120800
11.045000 2.119000
11.078700 2.078300
11.112300 2.090400
11.145900 2.111900
11.179600 2.131000
11.213200 2.147800
11.246800 2.161400
11.280500 2.156600
11.314100 2.135400
11.347700 2.097300
11.381400 2.070000
11.415000 2.034500
11.448600 2.008900
11.482300 1.994700
11.515900 1.968000
11.549500 1.936500
11.583200 1.907400
11.616800 1.865900
11.650500 1.812500
11.684100 1.747000
11.717700 1.670100
11.751400 1.616300
11.785000 1.631400
11.818600 1.652800
11.852300 1.674500
11.885900 1.696700
11.919500 1.719500
11.953200 1.742700
11.986800 1.766000
12.020400 1.850700
12.054100 1.924400
12.087700 1.976500
12.121300 2.007000
12.155000 2.015800
12.188600 2.002800
12.222300 1.969100
12.255900 1.979000
12.289500 1.988200
12.323200 2.002000
12.356800 2.031700
12.390400 2.080100
12.424100 2.139100
12.457700 2.218900
12.491300 2.336600
12.525000 2.517100
12.558600 2.719000
12.592200 2.897600
12.625900 3.070500
12.659500 3.191400
12.693100 3.452800
12.726800 3.769200
12.760400 4.077700
12.794100 3.833300
12.827700 3.185900
12.861300 2.950500
12.895000 2.773900
12.928600 2.656800
12.962200 2.585700
12.995900 2.528900
13.029500 2.487900
13.063100 2.453600
13.096800 2.416700
13.130400 2.388800
13.164000 2.357400
13.197700 2.321100
13.231300 2.282800
13.264900 2.250500
13.298600 2.221600
13.332200 2.194200
13.365900 2.163500
13.399500 2.132400
13.433100 2.105700
13.466800 2.081300
13.500400 2.058700
13.534000 2.040600
13.567700 2.027900
13.601300 2.014900
13.634900 2.002700
13.668600 2.011500
13.702200 2.028800
13.735800 2.044500
13.769500 2.055700
13.803100 2.052500
13.836700 2.035700
13.870400 2.029400
13.904000 2.017800
13.937600 2.000900
13.971300 1.967000
14.004900 1.949900
14.038600 1.982500
14.072200 2.016900
14.105800 2.053700
14.139500 2.090100
14.173100 2.117800
14.206700 2.132100
14.240400 2.139100
14.274000 2.125900
14.307600 2.141200
14.341300 2.206000
14.374900 2.289700
14.408500 2.429300
14.442200 2.761300
14.475800 2.508100
14.509400 2.566100
14.543100 2.484200
14.576700 2.415000
14.610400 2.385000
14.644000 2.359500
14.677600 2.339900
14.711300 2.321300
14.744900 2.286700
14.778500 2.245500
14.812200 2.273900
14.845800 2.338400
14.879400 2.408900
14.913100 2.466800
14.946700 2.520900
14.980300 2.473600
15.014000 2.526700
15.047600 2.624500
15.081200 2.725200
15.114900 3.367600
15.148500 2.800200
15.182200 2.359600
15.215800 2.268200
15.249400 2.273000
15.283100 2.325400
15.316700 2.358800
15.350300 2.373100
15.384000 2.368400
15.417600 2.358100
15.451200 2.345700
15.484900 2.324200
15.518500 2.293700
15.552100 2.254000
15.585800 2.205300
15.619400 2.146900
15.653000 2.079400
15.686700 2.029600
15.720300 1.956200
15.754000 1.882600
15.787600 1.784500
15.821200 1.723600
15.854900 1.768200
15.888500 1.826000
15.922100 1.848700
15.955800 1.888600
15.989400 1.942300
16.023000 2.209500
16.056700 2.486400
16.090300 2.693100
16.123900 2.929100
16.157600 3.015800
16.191200 3.054500
16.224800 3.043500
16.258500 3.018900
16.292100 3.197600
16.325800 2.978300
16.359400 2.785800
16.393000 2.589400
16.426700 2.449900
16.460300 2.344000
16.493900 2.287200
16.527600 2.232000
16.561200 2.172600
16.594800 2.123200
16.628500 2.104300
16.662100 2.109300
16.695700 2.151800
16.729400 2.187700
16.763000 2.216500
16.796600 2.238400
16.830300 2.254000
16.863900 2.263200
16.897600 2.266100
16.931200 2.282000
16.964800 2.301300
16.998500 2.319900
17.032100 2.338400
17.065700 2.367200
17.099400 2.383500
17.133000 2.327900
17.166600 2.294600
17.200300 2.253400
17.233900 2.248400
17.267500 2.269700
17.301200 2.293200
17.334800 2.315400
17.368400 2.338100
17.402100 2.475300
17.435700 2.606000
17.469400 2.614400
17.503000 2.744000
17.536600 2.788700
17.570300 2.608000
17.603900 2.615500
17.637500 2.872400
17.671200 3.240300
17.704800 3.576200
17.738400 3.879700
17.772100 3.662700
17.805700 3.169400
17.839300 3.126300
17.873000 2.925000
17.906600 2.869000
17.940200 2.892200
17.973900 3.014900
18.007500 2.976500
18.041200 2.865200
18.074800 2.905700
18.108400 2.983700
18.142100 3.208800
18.175700 3.473500
18.209300 3.636400
18.243000 3.220900
18.276600 3.359100
18.310200 3.454200
18.343900 3.421300
18.377500 3.268000
18.411100 3.125100
18.444800 3.025300
18.478400 3.098200
18.512000 3.162400
18.545700 3.161200
18.579300 3.157200
18.613000 3.150200
18.646600 3.131700
18.680200 3.111000
18.713900 3.100800
18.747500 3.090000
18.781100 3.081800
18.814800 3.060400
18.848400 3.030400
18.882000 3.008100
18.915700 2.992600
18.949300 2.954400
18.982900 2.914700
19.016600 2.922600
19.050200 2.937700
19.083800 2.930800
19.117500 2.900500
19.151100 2.849500
19.184800 2.861900
19.218400 3.100000
19.252000 2.708900
19.285700 2.693800
19.319300 2.695800
19.352900 2.704000
19.386600 2.712600
19.420200 2.841500
19.453800 2.887200
19.487500 2.832800
19.521100 2.678200
19.554700 2.532500
19.588400 2.458900
19.622000 2.368300
19.655600 2.273500
19.689300 2.226700
19.722900 2.182800
19.756600 2.145900
19.790200 2.156600
19.823800 2.154900
19.857500 2.140600
19.891100 2.115100
19.924700 2.078500
19.958400 2.032400
19.992000 2.000100
20.025600 1.986600
20.059300 1.993200
20.092900 2.012000
20.126500 2.033600
20.160200 2.059000
20.193800 2.086600
20.227400 2.117800
20.261100 2.161400
20.294700 2.216700
20.328300 2.275900
20.362000 2.341500
20.395600 2.411900
20.429300 2.458400
20.462900 2.479000
20.496500 2.480600
20.530200 2.505400
20.563800 2.545600
20.597400 2.495800
20.631100 2.447800
20.664700 2.565300
20.698300 2.697900
20.732000 2.845000
20.765600 3.195000
20.799200 3.480000
20.832900 3.627600
20.866500 3.663300
20.900100 3.571000
20.933800 3.377400
20.967400 3.233300
21.001100 3.194200
21.034700 3.213400
21.068300 3.231000
21.102000 3.127400
21.135600 2.944700
21.169200 2.843500
21.202900 2.793700
21.236500 2.790100
21.270100 2.856200
21.303800 2.940800
21.337400 3.025900
21.371000 3.098600
21.404700 3.156100
21.438300 3.199100
21.471900 3.225700
21.505600 3.298500
21.539200 3.344900
21.572900 3.335000
21.606500 3.268800
21.640100 3.146100
21.673800 3.042400
21.707400 2.953000
21.741000 2.789300
21.774700 2.694600
21.808300 2.662200
21.841900 2.632300
21.875600 2.604400
21.909200 2.586400
21.942800 2.577000
21.976500 2.573800
22.010100 2.566000
22.043700 2.567300
22.077400 2.576500
22.111000 2.997000
22.144700 3.574900
22.178300 4.054600
22.211900 4.498600
22.245600 4.509600
22.279200 3.702400
22.312800 3.108700
22.346500 2.734500
22.380100 2.665700
22.413700 2.602500
22.447400 2.544700
22.481000 2.500900
22.514600 2.482900
22.548300 2.470800
22.581900 2.465300
22.615500 2.461200
22.649200 2.459700
22.682800 2.491000
22.716500 2.568400
22.750100 2.588300
22.783700 2.613500
22.817400 2.643500
22.851000 2.688000
22.884600 2.920700
22.918300 2.999900
22.951900 2.856400
22.985500 2.847600
23.019200 2.858700
23.052800 2.873400
23.086400 2.893100
23.120100 2.906100
23.153700 2.903900
23.187300 2.892000
23.221000 2.890800
23.254600 2.900200
23.288300 2.933800
23.321900 2.914100
23.355500 2.838800
23.389200 2.726300
23.422800 2.981100
23.456400 3.142200
23.490100 3.125900
23.523700 3.135400
23.557300 3.131200
