set title 'mp-1183195 - Density of States'
set xlabel 'Energy (eV)'
set ylabel 'DOS (states/eV)'
set grid
set xrange [-10:10]
set yrange [0:3.048]
set xzeroaxis lt -1
set terminal png size 800,600
set output 'mp-1183195_dos_gnuplot.png'
plot '-' using 1:2 with lines title 'DOS'
-18.962500 0.000000
-18.932100 0.000000
-18.901600 0.000000
-18.871100 0.000000
-18.840600 0.000000
-18.810100 0.000000
-18.779600 0.000000
-18.749200 0.000000
-18.718700 0.000000
-18.688200 0.000000
-18.657700 0.000000
-18.627200 0.000000
-18.596700 0.000000
-18.566200 0.000000
-18.535800 0.000000
-18.505300 0.000000
-18.474800 0.000000
-18.444300 0.000000
-18.413800 0.000000
-18.383300 0.000000
-18.352800 0.000000
-18.322400 0.000000
-18.291900 0.000000
-18.261400 0.000000
-18.230900 0.000000
-18.200400 0.000000
-18.169900 0.000000
-18.139400 0.000000
-18.109000 0.000000
-18.078500 0.000000
-18.048000 0.000000
-18.017500 0.000000
-17.987000 0.000000
-17.956500 0.000000
-17.926100 0.000000
-17.895600 0.000000
-17.865100 0.000000
-17.834600 0.000000
-17.804100 0.000000
-17.773600 0.000000
-17.743100 0.000000
-17.712700 0.000000
-17.682200 0.000000
-17.651700 0.000000
-17.621200 0.000000
-17.590700 0.000000
-17.560200 0.000000
-17.529700 0.000000
-17.499300 0.000000
-17.468800 0.000000
-17.438300 0.000000
-17.407800 0.000000
-17.377300 0.000000
-17.346800 0.000000
-17.316400 0.000000
-17.285900 0.000000
-17.255400 0.000000
-17.224900 0.000000
-17.194400 0.000000
-17.163900 0.000000
-17.133400 0.000000
-17.103000 0.000000
-17.072500 0.000000
-17.042000 0.000000
-17.011500 0.000000
-16.981000 0.000000
-16.950500 0.000000
-16.920000 0.000000
-16.889600 0.000000
-16.859100 0.000000
-16.828600 0.000000
-16.798100 0.000000
-16.767600 0.000000
-16.737100 0.000000
-16.706600 0.000000
-16.676200 0.000000
-16.645700 0.000000
-16.615200 0.000000
-16.584700 0.000000
-16.554200 0.000000
-16.523700 0.000000
-16.493300 0.000000
-16.462800 0.000000
-16.432300 0.000000
-16.401800 0.000000
-16.371300 0.000000
-16.340800 0.001700
-16.310300 0.063100
-16.279900 1.127300
-16.249400 9.942200
-16.218900 43.542100
-16.188400 95.092100
-16.157900 103.831600
-16.127400 56.713000
-16.096900 15.469500
-16.066500 2.100000
-16.036000 0.141200
-16.005500 0.004700
-15.975000 0.000100
-15.944500 0.000000
-15.914000 0.000000
-15.883500 0.000000
-15.853100 0.000000
-15.822600 0.000000
-15.792100 0.000000
-15.761600 0.000000
-15.731100 0.000000
-15.700600 0.000000
-15.670200 0.000000
-15.639700 0.000000
-15.609200 0.000000
-15.578700 0.000000
-15.548200 0.000000
-15.517700 0.000000
-15.487200 0.000000
-15.456800 0.000000
-15.426300 0.000000
-15.395800 0.000000
-15.365300 0.000000
-15.334800 0.000000
-15.304300 0.000000
-15.273800 0.000000
-15.243400 0.000000
-15.212900 0.000000
-15.182400 0.000000
-15.151900 0.000000
-15.121400 0.000000
-15.090900 0.000000
-15.060500 0.000000
-15.030000 0.000000
-14.999500 0.000000
-14.969000 0.000000
-14.938500 0.000000
-14.908000 0.000000
-14.877500 0.000000
-14.847100 0.000000
-14.816600 0.000000
-14.786100 0.000000
-14.755600 0.000000
-14.725100 0.000000
-14.694600 0.000000
-14.664100 0.000000
-14.633700 0.000000
-14.603200 0.000000
-14.572700 0.000000
-14.542200 0.000000
-14.511700 0.000000
-14.481200 0.000000
-14.450700 0.000000
-14.420300 0.000000
-14.389800 0.000000
-14.359300 0.000000
-14.328800 0.000000
-14.298300 0.000000
-14.267800 0.000000
-14.237400 0.000000
-14.206900 0.000000
-14.176400 0.000000
-14.145900 0.000000
-14.115400 0.000000
-14.084900 0.000000
-14.054400 0.000000
-14.024000 0.000000
-13.993500 0.000000
-13.963000 0.000000
-13.932500 0.000000
-13.902000 0.000000
-13.871500 0.000000
-13.841000 0.000000
-13.810600 0.000000
-13.780100 0.000000
-13.749600 0.000000
-13.719100 0.000000
-13.688600 0.000000
-13.658100 0.000000
-13.627600 0.000000
-13.597200 0.000000
-13.566700 0.000000
-13.536200 0.000000
-13.505700 0.000000
-13.475200 0.000000
-13.444700 0.000000
-13.414300 0.000000
-13.383800 0.000000
-13.353300 0.000000
-13.322800 0.000000
-13.292300 0.000000
-13.261800 0.000000
-13.231300 0.000000
-13.200900 0.000000
-13.170400 0.000000
-13.139900 0.000000
-13.109400 0.000000
-13.078900 0.000000
-13.048400 0.000000
-13.017900 0.000000
-12.987500 0.000000
-12.957000 0.000000
-12.926500 0.000000
-12.896000 0.000000
-12.865500 0.000000
-12.835000 0.000000
-12.804600 0.000000
-12.774100 0.000000
-12.743600 0.000000
-12.713100 0.000000
-12.682600 0.000000
-12.652100 0.000000
-12.621600 0.000000
-12.591200 0.000000
-12.560700 0.000000
-12.530200 0.000000
-12.499700 0.000000
-12.469200 0.000000
-12.438700 0.000000
-12.408200 0.000000
-12.377800 0.000000
-12.347300 0.000000
-12.316800 0.000000
-12.286300 0.000000
-12.255800 0.000000
-12.225300 0.000000
-12.194800 0.000000
-12.164400 0.000000
-12.133900 0.000000
-12.103400 0.000000
-12.072900 0.000000
-12.042400 0.000000
-12.011900 0.000000
-11.981500 0.000000
-11.951000 0.000000
-11.920500 0.000000
-11.890000 0.000000
-11.859500 0.000000
-11.829000 0.000000
-11.798500 0.000000
-11.768100 0.000000
-11.737600 0.000000
-11.707100 0.000000
-11.676600 0.000000
-11.646100 0.000000
-11.615600 0.000000
-11.585100 0.000000
-11.554700 0.000000
-11.524200 0.000000
-11.493700 0.000000
-11.463200 0.000000
-11.432700 0.000000
-11.402200 0.000000
-11.371700 0.000000
-11.341300 0.000000
-11.310800 0.000000
-11.280300 0.000000
-11.249800 0.000000
-11.219300 0.000000
-11.188800 0.000000
-11.158400 0.000000
-11.127900 0.000000
-11.097400 0.000000
-11.066900 0.000000
-11.036400 0.000000
-11.005900 0.000000
-10.975400 0.000000
-10.945000 0.000000
-10.914500 0.000000
-10.884000 0.000000
-10.853500 0.000000
-10.823000 0.000000
-10.792500 0.000000
-10.762000 0.000000
-10.731600 0.000000
-10.701100 0.000000
-10.670600 0.000000
-10.640100 0.000000
-10.609600 0.000000
-10.579100 0.000000
-10.548700 0.000000
-10.518200 0.000000
-10.487700 0.000000
-10.457200 0.000000
-10.426700 0.000000
-10.396200 0.000000
-10.365700 0.000000
-10.335300 0.000000
-10.304800 0.000000
-10.274300 0.000000
-10.243800 0.000000
-10.213300 0.000000
-10.182800 0.000000
-10.152300 0.000000
-10.121900 0.000000
-10.091400 0.000000
-10.060900 0.000000
-10.030400 0.000000
-9.999900 0.000000
-9.969400 0.000000
-9.938900 0.000000
-9.908500 0.000000
-9.878000 0.000000
-9.847500 0.000000
-9.817000 0.000000
-9.786500 0.000000
-9.756000 0.000000
-9.725600 0.000000
-9.695100 0.000000
-9.664600 0.000000
-9.634100 0.000000
-9.603600 0.000000
-9.573100 0.000000
-9.542600 0.000000
-9.512200 0.000000
-9.481700 0.000000
-9.451200 0.000000
-9.420700 0.000000
-9.390200 0.000000
-9.359700 0.000000
-9.329200 0.000000
-9.298800 0.000000
-9.268300 0.000000
-9.237800 0.000000
-9.207300 0.000000
-9.176800 0.000000
-9.146300 0.000000
-9.115800 0.000000
-9.085400 0.000000
-9.054900 0.000000
-9.024400 0.000000
-8.993900 0.000000
-8.963400 0.000000
-8.932900 0.000000
-8.902500 0.000000
-8.872000 0.000000
-8.841500 0.000000
-8.811000 0.000000
-8.780500 0.000000
-8.750000 0.000000
-8.719500 0.000000
-8.689100 0.000000
-8.658600 0.000000
-8.628100 0.000000
-8.597600 0.000000
-8.567100 0.000000
-8.536600 0.000000
-8.506100 0.000000
-8.475700 0.000000
-8.445200 0.000000
-8.414700 0.000000
-8.384200 0.000000
-8.353700 0.000000
-8.323200 0.000000
-8.292800 0.000000
-8.262300 0.000000
-8.231800 0.000000
-8.201300 0.000000
-8.170800 0.000000
-8.140300 0.000000
-8.109800 0.000000
-8.079400 0.000000
-8.048900 0.000000
-8.018400 0.000000
-7.987900 0.000000
-7.957400 0.000000
-7.926900 0.000000
-7.896400 0.000000
-7.866000 0.000000
-7.835500 0.000000
-7.805000 0.000000
-7.774500 0.000000
-7.744000 0.000000
-7.713500 0.000000
-7.683000 0.000000
-7.652600 0.000000
-7.622100 0.000000
-7.591600 0.000000
-7.561100 0.000000
-7.530600 0.000000
-7.500100 0.000000
-7.469700 0.000000
-7.439200 0.000000
-7.408700 0.000000
-7.378200 0.000000
-7.347700 0.000000
-7.317200 0.000000
-7.286700 0.000000
-7.256300 0.000000
-7.225800 0.000000
-7.195300 0.000000
-7.164800 0.000000
-7.134300 0.000000
-7.103800 0.000000
-7.073300 0.000000
-7.042900 0.000000
-7.012400 0.000000
-6.981900 0.000000
-6.951400 0.000000
-6.920900 0.000000
-6.890400 0.000000
-6.859900 0.000000
-6.829500 0.000000
-6.799000 0.000000
-6.768500 0.000000
-6.738000 0.000000
-6.707500 0.000000
-6.677000 0.000000
-6.646600 0.000000
-6.616100 0.000000
-6.585600 0.000000
-6.555100 0.000000
-6.524600 0.000000
-6.494100 0.000000
-6.463600 0.000000
-6.433200 0.000000
-6.402700 0.000000
-6.372200 0.000000
-6.341700 0.000000
-6.311200 0.000000
-6.280700 0.000000
-6.250200 0.000000
-6.219800 0.000000
-6.189300 0.000000
-6.158800 0.000000
-6.128300 0.000000
-6.097800 0.000000
-6.067300 0.000000
-6.036900 0.000000
-6.006400 0.000000
-5.975900 0.000000
-5.945400 0.000000
-5.914900 0.000000
-5.884400 0.000000
-5.853900 0.000000
-5.823500 0.000000
-5.793000 0.000000
-5.762500 0.000000
-5.732000 0.000000
-5.701500 0.000000
-5.671000 0.000000
-5.640500 0.000000
-5.610100 0.000000
-5.579600 0.000000
-5.549100 0.000000
-5.518600 0.000000
-5.488100 0.000000
-5.457600 0.000000
-5.427100 0.000000
-5.396700 0.000000
-5.366200 0.000000
-5.335700 0.000000
-5.305200 0.000000
-5.274700 0.000000
-5.244200 0.000000
-5.213800 0.000000
-5.183300 0.000000
-5.152800 0.000000
-5.122300 0.000000
-5.091800 0.000000
-5.061300 0.000000
-5.030800 0.000000
-5.000400 0.000000
-4.969900 0.000000
-4.939400 0.000000
-4.908900 0.000000
-4.878400 0.000000
-4.847900 0.000000
-4.817400 0.000000
-4.787000 0.000000
-4.756500 0.000000
-4.726000 0.000000
-4.695500 0.000000
-4.665000 0.000000
-4.634500 0.000000
-4.604000 0.000000
-4.573600 0.000000
-4.543100 0.000000
-4.512600 0.000000
-4.482100 0.000000
-4.451600 0.000000
-4.421100 0.000000
-4.390700 0.000000
-4.360200 0.000400
-4.329700 0.003400
-4.299200 0.014900
-4.268700 0.039000
-4.238200 0.071100
-4.207700 0.116700
-4.177300 0.191000
-4.146800 0.234800
-4.116300 0.174000
-4.085800 0.112400
-4.055300 0.176800
-4.024800 0.307600
-3.994300 0.373800
-3.963900 0.382000
-3.933400 0.392600
-3.902900 0.324500
-3.872400 0.180200
-3.841900 0.144600
-3.811400 0.261700
-3.781000 0.401900
-3.750500 0.491000
-3.720000 0.590300
-3.689500 0.641900
-3.659000 0.469500
-3.628500 0.246000
-3.598000 0.230100
-3.567600 0.347500
-3.537100 0.465900
-3.506600 0.608200
-3.476100 0.683300
-3.445600 0.512700
-3.415100 0.306600
-3.384600 0.378700
-3.354200 0.603300
-3.323700 0.692500
-3.293200 0.662600
-3.262700 0.634600
-3.232200 0.538600
-3.201700 0.367100
-3.171200 0.372100
-3.140800 0.644500
-3.110300 0.880300
-3.079800 0.899100
-3.049300 0.877400
-3.018800 0.781200
-2.988300 0.543000
-2.957900 0.382900
-2.927400 0.385200
-2.896900 0.462400
-2.866400 0.653100
-2.835900 0.931900
-2.805400 1.004800
-2.774900 0.891800
-2.744500 0.955000
-2.714000 1.109600
-2.683500 1.106500
-2.653000 0.995000
-2.622500 0.814600
-2.592000 0.639800
-2.561500 0.700300
-2.531100 0.935100
-2.500600 0.965800
-2.470100 0.774300
-2.439600 0.673600
-2.409100 0.806900
-2.378600 1.070600
-2.348100 1.357300
-2.317700 1.522000
-2.287200 1.445600
-2.256700 1.203900
-2.226200 1.017400
-2.195700 1.017800
-2.165200 1.155100
-2.134800 1.350500
-2.104300 1.360900
-2.073800 1.146600
-2.043300 0.938200
-2.012800 0.823200
-1.982300 0.808900
-1.951800 0.916600
-1.921400 1.083200
-1.890900 1.123400
-1.860400 1.015700
-1.829900 0.813900
-1.799400 0.522600
-1.768900 0.331800
-1.738400 0.379000
-1.708000 0.506400
-1.677500 0.548300
-1.647000 0.529800
-1.616500 0.541500
-1.586000 0.614100
-1.555500 0.732700
-1.525100 0.770700
-1.494600 0.603400
-1.464100 0.378400
-1.433600 0.305200
-1.403100 0.334600
-1.372600 0.314700
-1.342100 0.249200
-1.311700 0.235900
-1.281200 0.338800
-1.250700 0.539800
-1.220200 0.666500
-1.189700 0.573300
-1.159200 0.368300
-1.128700 0.224700
-1.098300 0.182400
-1.067800 0.174100
-1.037300 0.150100
-1.006800 0.132700
-0.976300 0.113100
-0.945800 0.105500
-0.915300 0.154800
-0.884900 0.199800
-0.854400 0.180800
-0.823900 0.145700
-0.793400 0.107300
-0.762900 0.063600
-0.732400 0.079700
-0.702000 0.184100
-0.671500 0.297300
-0.641000 0.326700
-0.610500 0.326700
-0.580000 0.414600
-0.549500 0.574000
-0.519000 0.647000
-0.488600 0.660400
-0.458100 0.876300
-0.427600 1.061500
-0.397100 0.843700
-0.366600 0.469600
-0.336100 0.297600
-0.305600 0.334600
-0.275200 0.445100
-0.244700 0.732300
-0.214200 1.222100
-0.183700 1.478300
-0.153200 1.311300
-0.122700 1.074600
-0.092200 0.999600
-0.061800 0.947600
-0.031300 0.822300
-0.000800 0.809600
0.029700 0.994400
0.060200 1.021600
0.090700 0.906500
0.121100 1.017600
0.151600 1.041400
0.182100 0.751600
0.212600 0.653600
0.243100 0.954900
0.273600 1.206100
0.304100 1.237300
0.334500 1.177900
0.365000 0.913000
0.395500 0.674500
0.426000 0.814700
0.456500 1.133000
0.487000 1.378400
0.517500 1.575800
0.547900 1.614300
0.578400 1.306700
0.608900 0.912100
0.639400 0.739700
0.669900 0.832400
0.700400 1.135500
0.730800 1.384000
0.761300 1.311000
0.791800 1.083800
0.822300 1.001900
0.852800 1.073600
0.883300 1.036800
0.913800 0.821300
0.944200 0.760500
0.974700 1.114600
1.005200 1.612300
1.035700 1.752400
1.066200 1.525800
1.096700 1.222200
1.127200 0.983000
1.157600 0.855800
1.188100 0.853900
1.218600 0.957500
1.249100 1.047600
1.279600 1.061500
1.310100 1.068300
1.340600 1.058300
1.371000 0.994300
1.401500 1.033000
1.432000 1.199500
1.462500 1.208500
1.493000 0.986400
1.523500 0.793100
1.553900 0.896000
1.584400 1.241100
1.614900 1.490200
1.645400 1.360500
1.675900 1.002400
1.706400 0.815000
1.736900 0.891500
1.767300 1.032000
1.797800 1.011800
1.828300 0.855500
1.858800 0.775600
1.889300 0.874100
1.919800 1.129600
1.950300 1.384000
1.980700 1.437200
2.011200 1.233800
2.041700 1.041900
2.072200 1.108700
2.102700 1.316200
2.133200 1.378000
2.163700 1.273500
2.194100 1.369700
2.224600 1.651800
2.255100 1.596100
2.285600 1.124600
2.316100 0.788900
2.346600 0.928800
2.377000 1.281900
2.407500 1.410900
2.438000 1.256200
2.468500 0.990400
2.499000 0.914800
2.529500 1.140200
2.560000 1.310200
2.590400 1.091500
2.620900 0.745400
2.651400 0.761200
2.681900 1.174400
2.712400 1.674800
2.742900 1.859800
2.773400 1.621500
2.803800 1.313900
2.834300 1.151500
2.864800 1.069900
2.895300 1.115800
2.925800 1.319600
2.956300 1.424700
2.986700 1.309800
3.017200 1.204100
3.047700 1.283800
3.078200 1.600600
3.108700 1.858500
3.139200 1.710300
3.169700 1.409700
3.200100 1.244700
3.230600 1.229300
3.261100 1.229600
3.291600 0.997900
3.322100 0.662200
3.352600 0.556400
3.383100 0.643700
3.413500 0.781500
3.444000 1.093500
3.474500 1.510900
3.505000 1.568400
3.535500 1.288500
3.566000 1.254700
3.596500 1.466800
3.626900 1.584900
3.657400 1.553600
3.687900 1.507600
3.718400 1.611100
3.748900 1.880300
3.779400 2.126200
3.809800 2.163100
3.840300 1.999000
3.870800 1.780900
3.901300 1.661600
3.931800 1.545600
3.962300 1.351400
3.992800 1.139500
4.023200 0.865000
4.053700 0.585600
4.084200 0.509000
4.114700 0.703300
4.145200 0.998400
4.175700 1.274300
4.206200 1.494800
4.236600 1.596700
4.267100 1.715300
4.297600 1.781600
4.328100 1.619100
4.358600 1.501200
4.389100 1.543000
4.419600 1.607600
4.450000 1.764000
4.480500 1.992900
4.511000 2.153800
4.541500 2.074100
4.572000 1.740300
4.602500 1.427100
4.632900 1.285000
4.663400 1.190600
4.693900 1.092000
4.724400 1.050100
4.754900 1.128700
4.785400 1.348800
4.815900 1.580800
4.846300 1.603700
4.876800 1.336200
4.907300 1.129900
4.937800 1.309000
4.968300 1.656000
4.998800 1.873400
5.029300 1.867400
5.059700 1.431800
5.090200 0.845700
5.120700 0.807100
5.151200 1.291600
5.181700 1.625200
5.212200 1.557200
5.242600 1.472400
5.273100 1.658100
5.303600 2.031400
5.334100 2.229300
5.364600 1.926700
5.395100 1.386500
5.425600 1.048300
5.456000 0.956600
5.486500 1.106000
5.517000 1.412500
5.547500 1.583900
5.578000 1.535800
5.608500 1.470600
5.639000 1.540900
5.669400 1.599100
5.699900 1.426400
5.730400 1.176100
5.760900 1.141600
5.791400 1.560300
5.821900 2.217900
5.852400 2.433700
5.882800 2.095500
5.913300 1.588700
5.943800 1.115200
5.974300 0.867400
6.004800 1.090700
6.035300 1.510000
6.065700 1.667700
6.096200 1.643700
6.126700 1.531800
6.157200 1.248500
6.187700 1.147800
6.218200 1.441200
6.248700 1.806700
6.279100 1.891000
6.309600 1.624400
6.340100 1.243900
6.370600 1.058000
6.401100 1.175600
6.431600 1.430100
6.462100 1.703000
6.492500 1.872300
6.523000 1.640000
6.553500 1.213200
6.584000 0.958700
6.614500 0.900500
6.645000 1.155800
6.675500 1.601000
6.705900 1.790800
6.736400 1.653800
6.766900 1.456100
6.797400 1.427800
6.827900 1.621100
6.858400 1.878000
6.888800 1.986700
6.919300 1.825500
6.949800 1.613900
6.980300 1.631000
7.010800 1.830000
7.041300 1.980600
7.071800 2.020200
7.102200 1.925400
7.132700 1.623500
7.163200 1.363700
7.193700 1.411000
7.224200 1.527600
7.254700 1.442100
7.285200 1.400400
7.315600 1.525300
7.346100 1.653200
7.376600 1.850800
7.407100 2.035200
7.437600 1.965200
7.468100 1.779500
7.498600 1.792100
7.529000 1.860600
7.559500 1.569400
7.590000 1.093500
7.620500 0.875600
7.651000 0.956100
7.681500 1.232800
7.711900 1.537800
7.742400 1.648900
7.772900 1.652600
7.803400 1.791200
7.833900 2.030800
7.864400 2.146800
7.894900 2.077900
7.925300 1.940700
7.955800 1.755900
7.986300 1.595700
8.016800 1.675200
8.047300 1.845500
8.077800 1.814300
8.108300 1.662100
8.138700 1.630200
8.169200 1.708300
8.199700 1.717200
8.230200 1.638600
8.260700 1.547000
8.291200 1.712600
8.321600 2.065900
8.352100 1.893500
8.382600 1.370100
8.413100 1.416600
8.443600 1.974400
8.474100 2.511700
8.504600 2.771000
8.535000 2.494600
8.565500 1.852200
8.596000 1.464400
8.626500 1.380500
8.657000 1.292600
8.687500 1.375000
8.718000 1.797100
8.748400 2.216000
8.778900 2.243000
8.809400 2.014100
8.839900 1.843900
8.870400 1.614600
8.900900 1.233500
8.931400 0.903800
8.961800 0.776100
8.992300 0.875400
9.022800 1.208700
9.053300 1.649100
9.083800 2.041700
9.114300 2.381200
9.144700 2.583500
9.175200 2.513900
9.205700 2.401600
9.236200 2.252100
9.266700 1.851700
9.297200 1.461600
9.327700 1.368000
9.358100 1.560100
9.388600 1.931300
9.419100 2.193600
9.449600 2.012100
9.480100 1.456500
9.510600 1.133300
9.541100 1.428100
9.571500 1.957500
9.602000 2.232100
9.632500 2.351600
9.663000 2.465000
9.693500 2.262100
9.724000 1.769700
9.754500 1.431200
9.784900 1.434600
9.815400 1.749900
9.845900 2.061400
9.876400 2.066000
9.906900 1.864100
9.937400 1.759200
9.967800 1.744700
9.998300 1.715600
10.028800 1.669900
10.059300 1.654600
10.089800 1.909100
10.120300 2.058200
10.150800 1.844700
10.181200 1.763300
10.211700 1.854500
10.242200 1.833900
10.272700 1.887700
10.303200 2.318600
10.333700 2.802600
10.364200 2.848600
10.394600 2.623300
10.425100 2.521100
10.455600 2.401200
10.486100 2.181500
10.516600 2.111300
10.547100 2.164100
10.577500 2.181100
10.608000 2.150200
10.638500 2.041400
10.669000 1.908600
10.699500 1.849600
10.730000 1.697900
10.760500 1.407500
10.790900 1.222500
10.821400 1.390900
10.851900 1.767700
10.882400 1.774000
10.912900 1.405400
10.943400 1.328600
10.973900 1.674000
11.004300 1.939200
11.034800 1.889300
11.065300 1.704700
11.095800 1.649400
11.126300 1.840700
11.156800 2.037700
11.187300 1.969600
11.217700 1.722000
11.248200 1.596000
11.278700 1.707500
11.309200 1.859300
11.339700 2.029500
11.370200 2.405100
11.400600 2.703100
11.431100 2.777600
11.461600 2.796800
11.492100 2.562700
11.522600 1.981400
11.553100 1.500200
11.583600 1.724000
11.614000 2.482700
11.644500 3.096100
11.675000 3.218100
11.705500 3.001400
11.736000 2.728700
11.766500 2.515000
11.797000 2.429300
11.827400 2.341600
11.857900 2.201900
11.888400 2.121600
11.918900 2.060500
11.949400 1.952700
11.979900 1.843500
12.010400 1.859700
12.040800 2.018200
12.071300 2.167600
12.101800 2.260800
12.132300 2.134000
12.162800 1.910500
12.193300 1.987500
12.223700 1.963900
12.254200 1.560700
12.284700 1.395100
12.315200 1.610800
12.345700 1.679800
12.376200 1.531400
12.406700 1.664700
12.437100 1.957800
12.467600 1.887100
12.498100 1.769200
12.528600 1.962700
12.559100 2.144800
12.589600 2.303500
12.620100 2.575400
12.650500 2.664800
12.681000 2.501400
