set title 'mp-1183641 - Density of States'
set xlabel 'Energy (eV)'
set ylabel 'DOS (states/eV)'
set grid
set xrange [-10:10]
set yrange [0:43.381]
set xzeroaxis lt -1
set terminal png size 800,600
set output 'mp-1183641_dos_gnuplot.png'
plot '-' using 1:2 with lines title 'DOS'
-7.844300 0.000000
-7.824300 0.000000
-7.804400 0.000000
-7.784500 0.000000
-7.764600 0.000000
-7.744600 0.000000
-7.724700 0.000000
-7.704800 0.000000
-7.684900 0.000000
-7.664900 0.000000
-7.645000 0.000000
-7.625100 0.000000
-7.605100 0.000000
-7.585200 0.000000
-7.565300 0.000000
-7.545400 0.000000
-7.525400 0.000000
-7.505500 0.000000
-7.485600 0.000000
-7.465700 0.000000
-7.445700 0.000000
-7.425800 0.000000
-7.405900 0.000000
-7.385900 0.000000
-7.366000 0.000000
-7.346100 0.000000
-7.326200 0.000000
-7.306200 0.000000
-7.286300 0.000000
-7.266400 0.000000
-7.246500 0.000000
-7.226500 0.000000
-7.206600 0.000000
-7.186700 0.000000
-7.166700 0.000000
-7.146800 0.000000
-7.126900 0.000000
-7.107000 0.000000
-7.087000 0.000000
-7.067100 0.000000
-7.047200 0.000000
-7.027300 0.000000
-7.007300 0.000000
-6.987400 0.000000
-6.967500 0.000000
-6.947500 0.000000
-6.927600 0.000000
-6.907700 0.000000
-6.887800 0.000000
-6.867800 0.000000
-6.847900 0.000000
-6.828000 0.000000
-6.808100 0.000000
-6.788100 0.000000
-6.768200 0.000000
-6.748300 0.000000
-6.728300 0.000000
-6.708400 0.000000
-6.688500 0.000000
-6.668600 0.000000
-6.648600 0.000000
-6.628700 0.000000
-6.608800 0.000000
-6.588900 0.000000
-6.568900 0.000000
-6.549000 0.000000
-6.529100 0.000000
-6.509100 0.000000
-6.489200 0.000000
-6.469300 0.000000
-6.449400 0.000000
-6.429400 0.000000
-6.409500 0.000000
-6.389600 0.000000
-6.369700 0.000000
-6.349700 0.000000
-6.329800 0.000000
-6.309900 0.000000
-6.289900 0.000000
-6.270000 0.000000
-6.250100 0.000000
-6.230200 0.000000
-6.210200 0.000000
-6.190300 0.000000
-6.170400 0.000000
-6.150500 0.000000
-6.130500 0.000000
-6.110600 0.000000
-6.090700 0.000000
-6.070700 0.000000
-6.050800 0.000000
-6.030900 0.016300
-6.011000 0.268700
-5.991000 0.549500
-5.971100 0.738300
-5.951200 1.429600
-5.931300 2.064000
-5.911300 2.356200
-5.891400 3.158800
-5.871500 4.451100
-5.851500 4.694400
-5.831600 5.222100
-5.811700 6.300900
-5.791800 7.697700
-5.771800 10.308100
-5.751900 12.306200
-5.732000 14.059200
-5.712100 15.635100
-5.692100 16.544000
-5.672200 15.855800
-5.652300 16.918500
-5.632300 18.282800
-5.612400 18.139800
-5.592500 19.088500
-5.572600 19.771100
-5.552600 21.254200
-5.532700 20.386100
-5.512800 17.105900
-5.492900 15.892600
-5.472900 15.150100
-5.453000 14.782400
-5.433100 17.124500
-5.413200 18.087700
-5.393200 18.286600
-5.373300 19.122200
-5.353400 19.897700
-5.333400 16.896300
-5.313500 16.706000
-5.293600 23.777300
-5.273700 30.797100
-5.253700 16.713900
-5.233800 14.868800
-5.213900 16.042900
-5.194000 19.015500
-5.174000 18.730600
-5.154100 17.767300
-5.134200 12.902900
-5.114200 23.016300
-5.094300 28.122100
-5.074400 14.695800
-5.054500 13.938700
-5.034500 15.493600
-5.014600 17.840200
-4.994700 21.525700
-4.974800 20.970900
-4.954800 18.537500
-4.934900 18.845600
-4.915000 21.929800
-4.895000 26.886000
-4.875100 34.188600
-4.855200 18.894000
-4.835300 23.405800
-4.815300 29.012800
-4.795400 28.430200
-4.775500 25.733200
-4.755600 22.026600
-4.735600 18.670700
-4.715700 31.681900
-4.695800 39.437700
-4.675800 20.792600
-4.655900 14.772700
-4.636000 19.177000
-4.616100 19.843300
-4.596100 22.350700
-4.576200 21.601900
-4.556300 17.470500
-4.536400 15.539300
-4.516400 15.318400
-4.496500 15.909800
-4.476600 16.674300
-4.456600 15.289100
-4.436700 13.593500
-4.416800 13.504300
-4.396900 14.123000
-4.376900 11.729300
-4.357000 18.765600
-4.337100 21.961000
-4.317200 22.178000
-4.297200 15.627700
-4.277300 12.312500
-4.257400 11.502500
-4.237400 9.963000
-4.217500 3.848500
-4.197600 2.970000
-4.177700 2.489700
-4.157700 2.217500
-4.137800 1.967200
-4.117900 1.891500
-4.098000 2.220800
-4.078000 1.657500
-4.058100 0.999400
-4.038200 0.555200
-4.018200 0.535900
-3.998300 0.518800
-3.978400 0.498900
-3.958500 0.489200
-3.938500 0.481900
-3.918600 0.476800
-3.898700 0.473500
-3.878800 0.471800
-3.858800 0.471800
-3.838900 0.473500
-3.819000 0.476100
-3.799000 0.478900
-3.779100 0.482100
-3.759200 0.485300
-3.739300 0.482300
-3.719300 0.482700
-3.699400 0.483500
-3.679500 0.484300
-3.659600 0.485600
-3.639600 0.487500
-3.619700 0.489400
-3.599800 0.491500
-3.579800 0.493600
-3.559900 0.495800
-3.540000 0.498400
-3.520100 0.501300
-3.500100 0.504400
-3.480200 0.507900
-3.460300 0.511500
-3.440400 0.515200
-3.420400 0.519000
-3.400500 0.522900
-3.380600 0.526800
-3.360600 0.530800
-3.340700 0.534800
-3.320800 0.538900
-3.300900 0.543000
-3.280900 0.547100
-3.261000 0.551300
-3.241100 0.556000
-3.221200 0.561600
-3.201200 0.567100
-3.181300 0.572400
-3.161400 0.577500
-3.141400 0.582300
-3.121500 0.587300
-3.101600 0.592100
-3.081700 0.596900
-3.061700 0.601500
-3.041800 0.607800
-3.021900 0.615300
-3.002000 0.622300
-2.982000 0.628100
-2.962100 0.634200
-2.942200 0.639000
-2.922200 0.643200
-2.902300 0.646900
-2.882400 0.650000
-2.862500 0.650500
-2.842500 0.650200
-2.822600 0.650200
-2.802700 0.650600
-2.782800 0.651300
-2.762800 0.653300
-2.742900 0.656600
-2.723000 0.661500
-2.703100 0.667100
-2.683100 0.673100
-2.663200 0.679400
-2.643300 0.687800
-2.623300 0.704200
-2.603400 0.723000
-2.583500 0.734400
-2.563600 0.745300
-2.543600 0.755700
-2.523700 0.783500
-2.503800 0.802000
-2.483900 0.810300
-2.463900 0.810800
-2.444000 0.816900
-2.424100 0.820800
-2.404100 0.821000
-2.384200 0.821100
-2.364300 0.821300
-2.344400 0.817600
-2.324400 0.809400
-2.304500 0.806800
-2.284600 0.807900
-2.264700 0.810400
-2.244700 0.812400
-2.224800 0.812800
-2.204900 0.813300
-2.184900 0.815800
-2.165000 0.821000
-2.145100 0.828800
-2.125200 0.839300
-2.105200 0.852500
-2.085300 0.868300
-2.065400 0.879500
-2.045500 0.883000
-2.025500 0.869500
-2.005600 0.813900
-1.985700 0.777100
-1.965700 0.761400
-1.945800 0.746400
-1.925900 0.733700
-1.906000 0.721700
-1.886000 0.710400
-1.866100 0.699800
-1.846200 0.690100
-1.826300 0.681400
-1.806300 0.676800
-1.786400 0.672400
-1.766500 0.676100
-1.746500 0.688900
-1.726600 0.682700
-1.706700 0.669400
-1.686800 0.648900
-1.666800 0.636900
-1.646900 0.637700
-1.627000 0.656200
-1.607100 0.694000
-1.587100 0.725600
-1.567200 0.761000
-1.547300 0.801100
-1.527300 0.845300
-1.507400 0.900400
-1.487500 0.954000
-1.467600 0.987700
-1.447600 1.005500
-1.427700 1.023100
-1.407800 1.045800
-1.387900 1.076400
-1.367900 1.110600
-1.348000 1.146200
-1.328100 1.233300
-1.308100 1.265400
-1.288200 1.299200
-1.268300 1.332800
-1.248400 1.366200
-1.228400 1.422100
-1.208500 1.444000
-1.188600 1.455500
-1.168700 1.419300
-1.148700 1.360100
-1.128800 1.334100
-1.108900 1.309800
-1.088900 1.283200
-1.069000 1.246700
-1.049100 1.207300
-1.029200 1.173400
-1.009200 1.146200
-0.989300 1.138700
-0.969400 1.185200
-0.949500 1.187900
-0.929500 1.197200
-0.909600 1.208200
-0.889700 1.214500
-0.869700 1.220800
-0.849800 1.220100
-0.829900 1.218300
-0.810000 1.225600
-0.790000 1.233600
-0.770100 1.235400
-0.750200 1.214200
-0.730300 1.230300
-0.710300 1.250100
-0.690400 1.267700
-0.670500 1.282700
-0.650500 1.295000
-0.630600 1.304000
-0.610700 1.308200
-0.590800 1.306200
-0.570800 1.297200
-0.550900 1.288500
-0.531000 1.282600
-0.511100 1.280000
-0.491100 1.279500
-0.471200 1.280900
-0.451300 1.284100
-0.431300 1.288700
-0.411400 1.294700
-0.391500 1.300800
-0.371600 1.307100
-0.351600 1.313600
-0.331700 1.320200
-0.311800 1.327200
-0.291900 1.335500
-0.271900 1.345600
-0.252000 1.357600
-0.232100 1.369500
-0.212100 1.405900
-0.192200 1.414100
-0.172300 1.423100
-0.152400 1.432800
-0.132400 1.442300
-0.112500 1.455800
-0.092600 1.475200
-0.072700 1.500900
-0.052700 1.522800
-0.032800 1.543900
-0.012900 1.561400
0.007000 1.589700
0.027000 1.626700
0.046900 1.668000
0.066800 1.744100
0.086800 1.776600
0.106700 1.813100
0.126600 1.851800
0.146500 1.891600
0.166500 1.960600
0.186400 2.098000
0.206300 2.068100
0.226200 2.051500
0.246200 2.055200
0.266100 2.044800
0.286000 2.050100
0.306000 2.052900
0.325900 2.052200
0.345800 2.048500
0.365700 2.050700
0.385700 2.088500
0.405600 2.171400
0.425500 2.560900
0.445400 3.185600
0.465400 4.156600
0.485300 4.351600
0.505200 4.402500
0.525200 3.664700
0.545100 2.993300
0.565000 2.712600
0.584900 2.595300
0.604900 2.487300
0.624800 2.882200
0.644700 2.032500
0.664600 1.719500
0.684600 1.756700
0.704500 1.831400
0.724400 2.055000
0.744400 2.263000
0.764300 2.847500
0.784200 3.661700
0.804100 4.406800
0.824100 4.890400
0.844000 5.574500
0.863900 6.055000
0.883800 6.304400
0.903800 5.995000
0.923700 6.534900
0.943600 7.485300
0.963600 7.694100
0.983500 8.101400
1.003400 7.046200
1.023300 6.490200
1.043300 5.114100
1.063200 4.099000
1.083100 3.989400
1.103000 4.719300
1.123000 5.135900
1.142900 4.944700
1.162800 5.944600
1.182800 6.476100
1.202700 7.273400
1.222600 8.045800
1.242500 8.786800
1.262500 9.006600
1.282400 8.800400
1.302300 9.501000
1.322200 10.185500
1.342200 11.842100
1.362100 14.235600
1.382000 16.774800
1.402000 14.557000
1.421900 15.188400
1.441800 10.932000
1.461700 9.040800
1.481700 7.861700
1.501600 6.497200
1.521500 4.861000
1.541400 4.036600
1.561400 3.525300
1.581300 3.040600
1.601200 2.555300
1.621200 1.990700
1.641100 1.722600
1.661000 1.407800
1.680900 1.349000
1.700900 1.659000
1.720800 1.916000
1.740700 2.498400
1.760600 2.601000
1.780600 2.677400
1.800500 2.697900
1.820400 2.904200
1.840400 3.617200
1.860300 3.958100
1.880200 3.914700
1.900100 3.851100
1.920100 3.823800
1.940000 4.037400
1.959900 4.116400
1.979800 3.668600
1.999800 3.555100
2.019700 3.274800
2.039600 3.115600
2.059600 2.970200
2.079500 2.759300
2.099400 2.586300
2.119300 2.622100
2.139300 2.424700
2.159200 2.431000
2.179100 2.105000
2.199000 2.038100
2.219000 1.989700
2.238900 1.947500
2.258800 1.917700
2.278800 1.888200
2.298700 1.857300
2.318600 1.826300
2.338500 1.796700
2.358500 1.764100
2.378400 1.737200
2.398300 1.717400
2.418200 1.696800
2.438200 1.674900
2.458100 1.673200
2.478000 1.669100
2.498000 1.661700
2.517900 1.653800
2.537800 1.646200
2.557700 1.628500
2.577700 1.631700
2.597600 1.609100
2.617500 1.595300
2.637400 1.532600
2.657400 1.502800
2.677300 1.491900
2.697200 1.481100
2.717200 1.470600
2.737100 1.460000
2.757000 1.449000
2.776900 1.453500
2.796900 1.464400
2.816800 1.477800
2.836700 1.494600
2.856600 2.492600
2.876600 1.611600
2.896500 1.599700
2.916400 1.584000
2.936300 1.583400
2.956300 1.582500
2.976200 1.579100
2.996100 1.575400
3.016100 1.571100
3.036000 1.674300
3.055900 1.606900
3.075800 1.569700
3.095800 1.593400
3.115700 1.616800
3.135600 1.627800
3.155500 1.625600
3.175500 1.598200
3.195400 1.600800
3.215300 1.612400
3.235300 1.590900
3.255200 1.540300
3.275100 1.516500
3.295000 1.503500
3.315000 1.499200
3.334900 1.496400
3.354800 1.495900
3.374700 1.501900
3.394700 1.513400
3.414600 1.512900
3.434500 1.512600
3.454500 1.514600
3.474400 1.503600
3.494300 1.491500
3.514200 1.465700
3.534200 1.460800
3.554100 1.454700
3.574000 1.475300
3.593900 1.491800
3.613900 1.429700
3.633800 1.308500
3.653700 1.284200
3.673700 1.263600
3.693600 1.242800
3.713500 1.224200
3.733400 1.202900
3.753400 1.200200
3.773300 1.139300
3.793200 1.135400
3.813100 1.154100
3.833100 1.044300
3.853000 0.996500
3.872900 0.981500
3.892900 0.967100
3.912800 0.953200
3.932700 0.939800
3.952600 0.927000
3.972600 0.914700
3.992500 0.903000
4.012400 0.892600
4.032300 0.883000
4.052300 0.874400
4.072200 0.868600
4.092100 0.863800
4.112100 0.861300
4.132000 0.859600
4.151900 0.858400
4.171800 0.857800
4.191800 0.855700
4.211700 0.853500
4.231600 0.849900
4.251500 0.844300
4.271500 0.838400
4.291400 0.831800
4.311300 0.825300
4.331300 0.820400
4.351200 0.815500
4.371100 0.810700
4.391000 0.805800
4.411000 0.800300
4.430900 0.798200
4.450800 0.845900
4.470700 0.792000
4.490700 0.786900
4.510600 0.784800
4.530500 0.783000
4.550500 0.782900
4.570400 0.789900
4.590300 0.799900
4.610200 0.813100
4.630200 0.830300
4.650100 0.851600
4.670000 0.888700
4.689900 0.993100
4.709900 1.076800
4.729800 1.135000
4.749700 1.175100
4.769700 1.197300
4.789600 1.203900
4.809500 1.197000
4.829400 1.192200
4.849400 1.206200
4.869300 1.231000
4.889200 1.234600
4.909100 1.233200
4.929100 1.232800
4.949000 1.234300
4.968900 1.237300
4.988900 1.250500
5.008800 1.294800
5.028700 1.348400
5.048600 1.409200
5.068600 1.516500
5.088500 1.710500
5.108400 1.713900
5.128300 1.771200
5.148300 1.854000
5.168200 1.889800
5.188100 1.892300
5.208100 1.868700
5.228000 1.861600
5.247900 1.865300
5.267800 1.829800
5.287800 1.798900
5.307700 1.765700
5.327600 1.728900
5.347500 1.686200
5.367500 1.659900
5.387400 1.637900
5.407300 1.666500
5.427300 1.605300
5.447200 1.563000
5.467100 1.540500
5.487000 1.547600
5.507000 1.569200
5.526900 1.555700
5.546800 1.576500
5.566700 1.599200
5.586700 1.544200
5.606600 1.528800
5.626500 1.527900
5.646400 1.526700
5.666400 1.538500
5.686300 1.523800
5.706200 1.525700
5.726200 1.526300
5.746100 1.523000
5.766000 1.522100
5.785900 1.534400
5.805900 1.513300
5.825800 1.486000
5.845700 1.462100
5.865600 1.441500
5.885600 1.487600
5.905500 1.406000
5.925400 1.375400
5.945400 1.361600
5.965300 1.348800
5.985200 1.336500
6.005100 1.343300
6.025100 1.328300
6.045000 1.314200
6.064900 1.301800
6.084800 1.287200
6.104800 1.273800
6.124700 1.269900
6.144600 1.269600
6.164600 1.267800
6.184500 1.266200
6.204400 1.264900
6.224300 1.264800
6.244300 1.273500
6.264200 1.287700
6.284100 1.302800
6.304000 1.321500
6.324000 1.877400
6.343900 1.377900
6.363800 1.385300
6.383800 1.390800
6.403700 1.362900
6.423600 1.336000
6.443500 1.331900
6.463500 1.367600
6.483400 1.374400
6.503300 1.372400
6.523200 1.377200
6.543200 1.384000
6.563100 1.392900
6.583000 1.404000
6.603000 1.413500
6.622900 1.408400
6.642800 1.420300
6.662700 1.435300
6.682700 1.449800
6.702600 1.463300
6.722500 1.475900
6.742400 1.487900
6.762400 1.499600
6.782300 1.511600
6.802200 1.524100
6.822200 1.531800
6.842100 1.527900
6.862000 1.536100
6.881900 1.542600
6.901900 1.528600
6.921800 1.525400
6.941700 1.521400
6.961600 1.516800
6.981600 1.496900
7.001500 1.487400
7.021400 1.482400
7.041400 1.483600
7.061300 1.484900
7.081200 1.486200
7.101100 1.487400
7.121100 1.489800
7.141000 1.492200
7.160900 1.493900
7.180800 1.498100
7.200800 1.493200
7.220700 1.493300
7.240600 1.491900
7.260600 1.502600
7.280500 1.505000
7.300400 1.492100
7.320300 1.483600
7.340300 1.476600
7.360200 1.469500
7.380100 1.462000
7.400000 1.454000
7.420000 1.444600
7.439900 1.419000
7.459800 1.400400
7.479800 1.386500
7.499700 1.376700
7.519600 1.372000
7.539500 1.370600
7.559500 1.372800
7.579400 1.379300
7.599300 1.373600
7.619200 1.377200
7.639200 1.406300
7.659100 1.425300
7.679000 1.443200
7.699000 1.468700
7.718900 1.502000
7.738800 1.528600
7.758700 1.530100
7.778700 1.528000
7.798600 1.542400
7.818500 1.526700
7.838400 1.526600
7.858400 1.526300
7.878300 1.528400
7.898200 1.533200
7.918200 1.543700
7.938100 1.556400
7.958000 1.567400
7.977900 1.576900
7.997900 1.585400
8.017800 1.592800
8.037700 1.573500
8.057600 1.574000
8.077600 1.583200
8.097500 1.582600
8.117400 1.581600
8.137400 1.580300
8.157300 1.561800
8.177200 1.559500
8.197100 1.556500
8.217100 1.552900
8.237000 1.551300
8.256900 1.551400
8.276800 1.555900
8.296800 1.560800
8.316700 1.566000
8.336600 1.576600
8.356600 1.598000
8.376500 1.622400
8.396400 1.637600
8.416300 1.647700
8.436300 1.713500
8.456200 1.668200
8.476100 1.667100
8.496000 1.672700
8.516000 1.696100
8.535900 1.706200
8.555800 1.708700
8.575700 1.713800
8.595700 1.712400
8.615600 1.712700
8.635500 1.711300
8.655500 1.698900
8.675400 1.664800
8.695300 1.642200
8.715200 1.631100
8.735200 1.604500
8.755100 1.581000
8.775000 1.559700
8.794900 1.541100
8.814900 1.525300
8.834800 1.514100
8.854700 1.508600
8.874700 1.504800
8.894600 1.503200
8.914500 1.504700
8.934400 1.509800
8.954400 1.521600
8.974300 1.538400
8.994200 1.540500
9.014100 1.514100
9.034100 1.523100
9.054000 1.622800
9.073900 1.625700
9.093900 1.684800
9.113800 1.734600
9.133700 1.764800
9.153600 1.724300
9.173600 1.718900
9.193500 1.720400
9.213400 1.722100
9.233300 1.723600
9.253300 1.728500
9.273200 1.754900
9.293100 1.799600
9.313100 1.820200
9.333000 1.832200
9.352900 1.836500
9.372800 1.833000
9.392800 1.845000
9.412700 1.834400
9.432600 1.819500
9.452500 1.831300
9.472500 1.848000
9.492400 1.861400
9.512300 1.871200
9.532300 1.876800
9.552200 1.879100
9.572100 1.878400
9.592000 1.880500
9.612000 1.882400
9.631900 1.895200
9.651800 1.911800
9.671700 1.896000
9.691700 1.870900
9.711600 1.845500
9.731500 1.850300
9.751500 1.855200
9.771400 1.833600
9.791300 1.780500
9.811200 1.722600
9.831200 1.681800
9.851100 1.648500
9.871000 1.613900
9.890900 1.585600
9.910900 1.567700
9.930800 1.550300
9.950700 1.533100
9.970700 1.515800
9.990600 1.497600
10.010500 1.478800
10.030400 1.460900
10.050400 1.442500
10.070300 1.422700
10.090200 1.410600
10.110100 1.393600
10.130100 1.381200
10.150000 1.375800
10.169900 1.371100
10.189900 1.366400
10.209800 1.367200
10.229700 1.374500
10.249600 1.394400
10.269600 1.405300
10.289500 1.410900
10.309400 1.411800
10.329300 1.407900
10.349300 1.400900
10.369200 1.392500
10.389100 1.384600
10.409100 1.377200
10.429000 1.370500
10.448900 1.364600
10.468800 1.359900
10.488800 1.436700
10.508700 1.455100
10.528600 1.481000
10.548500 1.501600
10.568500 1.524900
10.588400 1.520100
10.608300 1.514100
10.628300 1.518500
10.648200 1.532500
10.668100 1.556500
10.688000 1.597300
10.708000 1.660200
10.727900 1.710000
10.747800 1.730800
10.767700 1.768700
10.787700 1.816200
10.807600 1.861200
10.827500 1.918000
10.847500 1.948100
10.867400 1.933100
10.887300 1.948200
10.907200 1.966500
10.927200 1.982400
10.947100 1.990900
10.967000 2.014900
10.986900 2.028600
11.006900 2.033600
11.026800 1.990500
11.046700 2.003500
11.066700 2.051100
11.086600 2.081000
11.106500 2.095300
11.126400 2.108100
11.146400 2.116700
11.166300 2.122900
11.186200 2.117200
11.206100 2.125000
11.226100 2.139900
11.246000 2.157700
11.265900 2.170300
11.285800 2.183000
11.305800 2.175100
11.325700 2.207500
11.345600 2.239500
11.365600 2.271000
11.385500 2.288400
11.405400 2.285000
11.425300 2.278000
11.445300 2.221100
11.465200 2.205700
11.485100 2.201200
11.505000 2.197900
11.525000 2.196400
11.544900 2.191300
11.564800 2.179600
11.584800 2.154100
11.604700 2.136900
11.624600 2.136000
11.644500 2.153000
11.664500 2.172400
11.684400 2.192200
11.704300 2.205200
11.724200 2.220000
11.744200 2.236100
11.764100 2.250400
11.784000 2.236600
11.804000 2.249700
11.823900 2.280600
11.843800 2.246700
11.863700 2.162200
11.883700 2.147600
11.903600 2.137500
11.923500 2.134100
11.943400 2.139800
11.963400 2.169300
11.983300 2.255600
12.003200 2.354000
12.023200 2.484500
12.043100 2.517800
12.063000 2.438200
12.082900 2.446900
12.102900 2.449900
12.122800 2.437000
12.142700 2.422600
12.162600 2.408500
12.182600 2.394200
12.202500 2.406800
12.222400 2.406300
12.242400 2.347300
12.262300 2.289800
12.282200 2.239200
12.302100 2.203500
12.322100 2.183600
12.342000 2.134300
12.361900 2.079000
12.381800 2.019100
12.401800 1.936300
12.421700 1.865200
12.441600 1.823600
12.461600 1.795300
12.481500 1.778000
12.501400 1.774600
12.521300 1.789800
12.541300 1.822700
12.561200 1.898500
12.581100 2.290100
12.601000 2.055400
12.621000 1.980600
12.640900 1.929100
12.660800 1.933300
12.680800 1.932100
12.700700 1.938000
12.720600 1.967700
12.740500 1.986300
12.760500 2.008200
12.780400 2.031000
12.800300 2.054600
12.820200 2.078800
12.840200 2.104800
12.860100 2.134800
12.880000 2.168100
12.900000 2.201300
12.919900 2.204300
12.939800 2.228500
12.959700 2.258400
12.979700 2.286400
12.999600 2.301100
13.019500 2.325000
13.039400 2.334200
13.059400 2.343100
13.079300 2.360900
13.099200 2.382300
13.119200 2.422800
13.139100 2.398200
13.159000 2.400300
13.178900 2.363400
13.198900 2.306400
13.218800 2.254100
13.238700 2.212600
