set title 'mp-894 - Density of States'
set xlabel 'Energy (eV)'
set ylabel 'DOS (states/eV)'
set grid
set xrange [-10:10]
set yrange [0:17.202]
set xzeroaxis lt -1
set terminal png size 800,600
set output 'mp-894_dos_gnuplot.png'
plot '-' using 1:2 with lines title 'DOS'
-6.520900 0.000000
-6.501400 0.000000
-6.481900 0.000000
-6.462400 0.000000
-6.442900 0.000000
-6.423400 0.000000
-6.404000 0.000000
-6.384500 0.000000
-6.365000 0.000000
-6.345500 0.000000
-6.326000 0.000000
-6.306500 0.000000
-6.287100 0.000000
-6.267600 0.000000
-6.248100 0.000000
-6.228600 0.000000
-6.209100 0.000000
-6.189600 0.000000
-6.170200 0.000000
-6.150700 0.000000
-6.131200 0.000000
-6.111700 0.000000
-6.092200 0.000000
-6.072700 0.000000
-6.053300 0.000000
-6.033800 0.000000
-6.014300 0.000000
-5.994800 0.000000
-5.975300 0.000000
-5.955800 0.000000
-5.936400 0.000000
-5.916900 0.000000
-5.897400 0.000000
-5.877900 0.000000
-5.858400 0.000000
-5.838900 0.000000
-5.819500 0.000000
-5.800000 0.000000
-5.780500 0.000000
-5.761000 0.000000
-5.741500 0.000000
-5.722000 0.000000
-5.702600 0.000000
-5.683100 0.000000
-5.663600 0.000000
-5.644100 0.000000
-5.624600 0.000000
-5.605100 0.000000
-5.585700 0.000000
-5.566200 0.000000
-5.546700 0.000000
-5.527200 0.000000
-5.507700 0.000000
-5.488200 0.000000
-5.468800 0.000000
-5.449300 0.000000
-5.429800 0.000000
-5.410300 0.000000
-5.390800 0.000000
-5.371300 0.000000
-5.351900 0.000000
-5.332400 0.000000
-5.312900 0.000000
-5.293400 0.000000
-5.273900 0.000000
-5.254400 0.000000
-5.235000 0.000000
-5.215500 0.000000
-5.196000 0.000000
-5.176500 0.000000
-5.157000 0.000000
-5.137500 0.000000
-5.118100 0.000000
-5.098600 0.000000
-5.079100 0.000000
-5.059600 0.000000
-5.040100 0.000000
-5.020600 0.000000
-5.001200 0.000000
-4.981700 0.000000
-4.962200 0.000000
-4.942700 0.000000
-4.923200 0.000000
-4.903700 0.000000
-4.884300 0.000000
-4.864800 0.000000
-4.845300 0.000000
-4.825800 0.000000
-4.806300 0.000000
-4.786800 0.000000
-4.767400 0.000000
-4.747900 0.000000
-4.728400 0.004000
-4.708900 0.014600
-4.689400 0.029900
-4.669900 0.040000
-4.650500 0.043400
-4.631000 0.044700
-4.611500 0.048200
-4.592000 0.053800
-4.572500 0.059900
-4.553000 0.066300
-4.533600 0.071600
-4.514100 0.074500
-4.494600 0.075300
-4.475100 0.076900
-4.455600 0.079700
-4.436100 0.083000
-4.416700 0.086200
-4.397200 0.089400
-4.377700 0.092500
-4.358200 0.095600
-4.338700 0.098900
-4.319200 0.102500
-4.299800 0.106300
-4.280300 0.109100
-4.260800 0.110800
-4.241300 0.112400
-4.221800 0.114400
-4.202300 0.116800
-4.182900 0.119100
-4.163400 0.121300
-4.143900 0.123500
-4.124400 0.125600
-4.104900 0.127900
-4.085400 0.130600
-4.066000 0.133400
-4.046500 0.136200
-4.027000 0.139100
-4.007500 0.142000
-3.988000 0.144900
-3.968500 0.147800
-3.949100 0.150100
-3.929600 0.151700
-3.910100 0.153400
-3.890600 0.155200
-3.871100 0.157300
-3.851700 0.159500
-3.832200 0.161700
-3.812700 0.164000
-3.793200 0.166200
-3.773700 0.168600
-3.754200 0.171000
-3.734800 0.173500
-3.715300 0.176000
-3.695800 0.178500
-3.676300 0.181100
-3.656800 0.183600
-3.637300 0.186200
-3.617900 0.188800
-3.598400 0.191300
-3.578900 0.194100
-3.559400 0.197100
-3.539900 0.199800
-3.520400 0.202100
-3.501000 0.204500
-3.481500 0.207000
-3.462000 0.209700
-3.442500 0.212300
-3.423000 0.214900
-3.403500 0.217500
-3.384100 0.220100
-3.364600 0.222700
-3.345100 0.225500
-3.325600 0.228200
-3.306100 0.230900
-3.286600 0.233900
-3.267200 0.237100
-3.247700 0.240600
-3.228200 0.244200
-3.208700 0.247900
-3.189200 0.251600
-3.169700 0.255300
-3.150300 0.259100
-3.130800 0.263000
-3.111300 0.266900
-3.091800 0.270700
-3.072300 0.274400
-3.052800 0.278100
-3.033400 0.281900
-3.013900 0.285800
-2.994400 0.289800
-2.974900 0.294600
-2.955400 0.300000
-2.935900 0.305300
-2.916500 0.310900
-2.897000 0.316800
-2.877500 0.322800
-2.858000 0.328900
-2.838500 0.335200
-2.819000 0.341600
-2.799600 0.348200
-2.780100 0.355000
-2.760600 0.361800
-2.741100 0.368800
-2.721600 0.376800
-2.702100 0.386400
-2.682700 0.396900
-2.663200 0.407300
-2.643700 0.418000
-2.624200 0.429600
-2.604700 0.442200
-2.585200 0.456200
-2.565800 0.471600
-2.546300 0.487500
-2.526800 0.506000
-2.507300 0.529100
-2.487800 0.555800
-2.468300 0.584200
-2.448900 0.614100
-2.429400 0.646100
-2.409900 0.680700
-2.390400 0.739800
-2.370900 0.809100
-2.351400 1.108500
-2.332000 1.696300
-2.312500 2.332200
-2.293000 2.356000
-2.273500 2.625600
-2.254000 2.823300
-2.234500 2.990400
-2.215100 3.199200
-2.195600 3.626200
-2.176100 3.901200
-2.156600 4.318700
-2.137100 4.686500
-2.117600 5.166000
-2.098200 5.655100
-2.078700 6.075300
-2.059200 7.036200
-2.039700 8.245300
-2.020200 7.808500
-2.000700 8.074000
-1.981300 8.632600
-1.961800 9.809500
-1.942300 10.023100
-1.922800 10.472000
-1.903300 10.352500
-1.883800 9.767200
-1.864400 9.122100
-1.844900 8.676100
-1.825400 9.480700
-1.805900 11.007900
-1.786400 12.551400
-1.766900 11.350300
-1.747500 11.104400
-1.728000 10.679800
-1.708500 9.610900
-1.689000 9.119400
-1.669500 9.512200
-1.650000 10.766500
-1.630600 11.090400
-1.611100 11.208900
-1.591600 12.405100
-1.572100 13.317700
-1.552600 12.240300
-1.533100 13.389000
-1.513700 13.019900
-1.494200 13.375600
-1.474700 14.025500
-1.455200 12.722400
-1.435700 15.638400
-1.416200 13.433800
-1.396800 13.310200
-1.377300 8.687800
-1.357800 7.376100
-1.338300 12.532000
-1.318800 10.266600
-1.299300 9.105100
-1.279900 7.750100
-1.260400 6.311800
-1.240900 4.165700
-1.221400 3.101500
-1.201900 2.443900
-1.182400 1.919700
-1.163000 1.782700
-1.143500 1.676500
-1.124000 1.628200
-1.104500 1.602700
-1.085000 1.541600
-1.065500 1.491800
-1.046100 1.521500
-1.026600 1.452600
-1.007100 1.867200
-0.987600 0.717500
-0.968100 0.715200
-0.948600 0.714100
-0.929200 0.715100
-0.909700 0.718000
-0.890200 0.721300
-0.870700 0.726800
-0.851200 0.728500
-0.831700 0.728800
-0.812300 0.729600
-0.792800 0.731900
-0.773300 0.734900
-0.753800 0.741500
-0.734300 0.763800
-0.714800 0.778300
-0.695400 0.795800
-0.675900 0.825100
-0.656400 0.840600
-0.636900 0.846600
-0.617400 0.823600
-0.597900 0.811600
-0.578500 0.799500
-0.559000 0.790400
-0.539500 0.758000
-0.520000 0.759800
-0.500500 0.764100
-0.481000 0.766200
-0.461600 0.764700
-0.442100 0.762700
-0.422600 1.202100
-0.403100 0.964500
-0.383600 0.857000
-0.364100 0.863000
-0.344700 0.869800
-0.325200 0.867200
-0.305700 0.870300
-0.286200 0.878200
-0.266700 0.892600
-0.247200 0.906900
-0.227800 0.917100
-0.208300 0.927400
-0.188800 0.937200
-0.169300 0.947200
-0.149800 0.957000
-0.130300 0.981300
-0.110900 1.066600
-0.091400 1.121100
-0.071900 1.157600
-0.052400 1.397200
-0.032900 1.322000
-0.013400 1.271100
0.006000 1.241900
0.025500 1.229000
0.045000 1.214400
0.064500 1.196100
0.084000 1.202300
0.103500 1.297900
0.122900 1.239700
0.142400 1.256300
0.161900 1.297000
0.181400 1.377800
0.200900 1.326200
0.220400 1.238600
0.239800 1.209000
0.259300 1.166600
0.278800 1.049900
0.298300 1.051200
0.317800 1.078600
0.337300 1.101900
0.356700 1.168800
0.376200 1.268700
0.395700 1.341100
0.415200 1.444600
0.434700 1.227700
0.454200 0.935400
0.473600 0.831700
0.493100 0.832300
0.512600 0.819500
0.532100 0.574400
0.551600 0.623600
0.571100 0.656700
0.590500 0.692500
0.610000 0.723700
0.629500 0.766700
0.649000 0.812100
0.668500 0.858600
0.688000 0.912800
0.707400 0.980700
0.726900 1.080300
0.746400 1.174400
0.765900 1.258000
0.785400 1.365000
0.804900 1.504100
0.824300 1.607200
0.843800 1.752100
0.863300 1.928700
0.882800 1.927200
0.902300 2.034700
0.921800 2.096700
0.941200 2.161400
0.960700 2.207700
0.980200 2.289300
0.999700 2.382500
1.019200 2.424500
1.038700 2.499200
1.058100 2.550000
1.077600 2.592700
1.097100 2.644500
1.116600 2.725000
1.136100 2.860400
1.155600 2.943100
1.175000 3.003300
1.194500 3.097300
1.214000 3.210400
1.233500 3.064500
1.253000 2.807500
1.272500 2.610100
1.291900 2.506800
1.311400 2.463500
1.330900 2.403200
1.350400 2.375100
1.369900 2.350000
1.389400 2.325800
1.408800 2.305400
1.428300 2.298800
1.447800 2.305700
1.467300 2.339800
1.486800 2.384000
1.506300 2.492300
1.525700 2.540500
1.545200 2.531900
1.564700 2.510600
1.584200 2.531900
1.603700 2.558500
1.623200 2.565300
1.642600 2.605100
1.662100 2.627100
1.681600 2.654400
1.701100 2.673700
1.720600 2.674200
1.740100 2.706100
1.759500 2.695200
1.779000 2.656400
1.798500 2.630300
1.818000 2.635600
1.837500 2.668300
1.857000 2.686600
1.876400 2.694600
1.895900 2.710000
1.915400 2.784100
1.934900 2.906200
1.954400 3.018300
1.973900 2.901000
1.993300 2.920600
2.012800 2.895700
2.032300 2.888600
2.051800 2.888100
2.071300 2.742800
2.090800 2.700200
2.110200 2.792400
2.129700 2.387800
2.149200 2.303100
2.168700 2.256500
2.188200 2.210300
2.207700 2.235800
2.227100 2.289600
2.246600 2.265900
2.266100 2.329900
2.285600 2.484700
2.305100 2.490200
2.324600 2.459900
2.344000 2.485400
2.363500 2.570900
2.383000 2.530800
2.402500 2.475400
2.422000 2.288100
2.441500 2.196400
2.460900 2.164000
2.480400 2.134600
2.499900 2.104400
2.519400 2.032000
2.538900 1.982700
2.558400 1.938100
2.577800 1.897400
2.597300 1.871300
2.616800 1.846100
2.636300 1.810100
2.655800 1.786200
2.675300 1.718000
2.694700 1.686600
2.714200 1.612300
2.733700 1.572800
2.753200 1.519200
2.772700 1.474400
2.792200 1.458300
2.811600 1.453800
2.831100 1.467600
2.850600 1.475600
2.870100 1.515700
2.889600 1.547100
2.909100 1.793600
2.928500 1.759600
2.948000 1.823400
2.967500 1.927400
2.987000 1.881900
3.006500 1.861100
3.025900 1.925600
3.045400 1.957400
3.064900 1.960600
3.084400 1.987000
3.103900 2.048300
3.123400 2.193700
3.142800 2.160300
3.162300 2.330900
3.181800 2.590900
3.201300 2.914600
3.220800 3.244000
3.240300 3.319900
3.259700 3.439700
3.279200 3.533300
3.298700 3.615600
3.318200 3.684800
3.337700 3.739200
3.357200 3.739300
3.376600 3.781300
3.396100 3.787000
3.415600 3.815800
3.435100 3.829600
3.454600 3.828600
3.474100 3.903200
3.493500 3.810600
3.513000 3.742100
3.532500 3.570600
3.552000 3.489200
3.571500 3.439600
3.591000 3.430700
3.610400 3.405100
3.629900 3.313200
3.649400 3.248100
3.668900 3.166900
3.688400 3.199500
3.707900 3.323200
3.727300 3.545400
3.746800 3.715700
3.766300 3.946800
3.785800 4.034800
3.805300 4.132000
3.824800 4.335400
3.844200 5.375200
3.863700 5.505600
3.883200 3.513200
3.902700 2.883800
3.922200 2.450600
3.941700 2.160000
3.961100 2.018400
3.980600 1.929500
4.000100 1.868700
4.019600 1.826100
4.039100 1.760000
4.058600 1.689600
4.078000 1.662800
4.097500 1.611600
4.117000 1.517300
4.136500 1.435200
4.156000 1.428400
4.175500 1.426600
4.194900 1.428000
4.214400 1.377200
4.233900 1.338300
4.253400 1.298800
4.272900 1.261800
4.292400 1.233300
4.311800 1.216500
4.331300 1.207000
4.350800 1.188400
4.370300 1.158700
4.389800 1.125600
4.409300 1.127500
4.428700 1.175200
4.448200 1.050300
4.467700 0.925800
4.487200 0.790100
4.506700 0.721100
4.526200 0.708400
4.545600 0.695800
4.565100 0.686900
4.584600 0.678100
4.604100 0.667200
4.623600 0.652800
4.643100 0.644800
4.662500 0.638100
4.682000 0.631400
4.701500 0.625100
4.721000 0.619200
4.740500 0.613900
4.760000 0.608900
4.779400 0.604000
4.798900 0.599000
4.818400 0.594500
4.837900 0.590000
4.857400 0.585600
4.876900 0.581100
4.896300 0.576500
4.915800 0.571600
4.935300 0.567500
4.954800 0.563400
4.974300 0.559300
4.993800 0.558000
5.013200 0.553500
5.032700 0.548900
5.052200 0.544700
5.071700 0.541700
5.091200 0.536200
5.110700 0.531000
5.130100 0.525800
5.149600 0.519700
5.169100 0.515400
5.188600 0.511300
5.208100 0.508500
5.227600 0.505300
5.247000 0.501900
5.266500 0.497000
5.286000 0.494200
5.305500 0.491700
5.325000 0.489000
5.344500 0.486600
5.363900 0.484900
5.383400 0.482300
5.402900 0.479300
5.422400 0.473900
5.441900 0.468600
5.461400 0.463300
5.480800 0.458100
5.500300 0.452900
5.519800 0.447700
5.539300 0.449000
5.558800 0.442500
5.578300 0.449300
5.597700 0.460900
5.617200 0.383800
5.636700 0.382600
5.656200 0.381500
5.675700 0.380500
5.695200 0.379500
5.714600 0.378900
5.734100 0.378400
5.753600 0.378000
5.773100 0.377300
5.792600 0.377000
5.812100 0.376600
5.831500 0.376300
5.851000 0.385700
5.870500 0.387700
5.890000 0.389900
5.909500 0.384500
5.929000 0.385200
5.948400 0.386000
5.967900 0.386800
5.987400 0.387700
6.006900 0.388500
6.026400 0.390000
6.045900 0.391600
6.065300 0.392900
6.084800 0.394000
6.104300 0.395100
6.123800 0.396300
6.143300 0.399000
6.162800 0.401900
6.182200 0.404100
6.201700 0.406800
6.221200 0.410100
6.240700 0.413500
6.260200 0.416600
6.279700 0.420000
6.299100 0.423500
6.318600 0.428000
6.338100 0.433900
6.357600 0.438500
6.377100 0.444400
6.396600 0.455500
6.416000 0.467000
6.435500 0.478600
6.455000 0.490800
6.474500 0.504300
6.494000 0.521000
6.513500 0.545000
6.532900 0.579300
6.552400 0.618600
6.571900 0.670500
6.591400 0.793200
6.610900 0.969900
6.630400 1.443300
6.649800 1.141000
6.669300 1.075400
6.688800 1.058200
6.708300 0.948100
6.727800 0.900200
6.747300 0.865000
6.766700 0.837500
6.786200 0.819600
6.805700 0.806400
6.825200 0.794900
6.844700 0.783300
6.864200 0.768700
6.883600 0.758100
6.903100 0.749300
6.922600 0.738700
6.942100 0.723700
6.961600 0.710200
6.981100 0.698300
7.000500 0.686700
7.020000 0.674100
7.039500 0.664300
7.059000 0.656600
7.078500 0.649300
7.098000 0.641400
7.117400 0.634400
7.136900 0.628000
7.156400 0.622400
7.175900 0.617100
7.195400 0.611800
7.214900 0.606500
7.234300 0.601400
7.253800 0.596400
7.273300 0.591500
7.292800 0.587400
7.312300 0.583600
7.331800 0.580100
7.351200 0.576600
7.370700 0.573300
7.390200 0.569700
7.409700 0.565500
7.429200 0.561100
7.448700 0.556800
7.468100 0.552600
7.487600 0.548700
7.507100 0.544600
7.526600 0.540600
7.546100 0.536700
7.565600 0.532900
7.585000 0.530100
7.604500 0.528100
7.624000 0.526400
7.643500 0.524500
7.663000 0.522400
7.682500 0.519600
7.701900 0.516000
7.721400 0.512200
7.740900 0.508100
7.760400 0.504600
7.779900 0.501700
7.799400 0.499400
7.818800 0.497200
7.838300 0.495100
7.857800 0.493000
7.877300 0.490800
7.896800 0.488800
7.916300 0.486600
7.935700 0.484100
7.955200 0.480600
7.974700 0.477200
7.994200 0.474900
8.013700 0.472900
8.033200 0.471100
8.052600 0.469200
8.072100 0.468000
8.091600 0.465800
8.111100 0.463500
8.130600 0.461300
8.150100 0.459100
8.169500 0.457100
8.189000 0.455700
8.208500 0.454500
8.228000 0.453700
8.247500 0.453000
8.267000 0.484700
8.286400 0.494600
8.305900 0.505600
8.325400 0.517600
8.344900 0.531800
8.364400 0.490500
8.383900 0.457000
8.403300 0.442300
8.422800 0.413900
8.442300 0.408600
8.461800 0.403700
8.481300 0.393500
8.500800 0.392100
8.520200 0.391000
8.539700 0.390300
8.559200 0.487900
8.578700 0.445800
8.598200 0.458100
8.617700 0.454600
8.637100 0.467400
8.656600 0.476100
8.676100 0.478100
8.695600 0.486600
8.715100 0.484400
8.734600 0.489500
8.754000 0.495900
8.773500 0.500500
8.793000 0.507700
8.812500 0.510900
8.832000 0.524600
8.851500 0.536900
8.870900 0.603100
8.890400 0.670900
8.909900 0.709200
8.929400 0.688800
8.948900 0.706800
8.968400 0.723000
8.987800 0.732300
9.007300 0.739000
9.026800 0.744200
9.046300 0.752900
9.065800 0.759300
9.085300 0.758600
9.104700 0.765300
9.124200 0.761900
9.143700 0.750100
9.163200 0.745700
9.182700 0.741200
9.202200 0.736000
9.221600 0.730400
9.241100 0.723800
9.260600 0.717700
9.280100 0.741000
9.299600 0.737600
9.319100 0.734100
9.338500 0.719300
9.358000 0.714700
9.377500 0.712500
9.397000 0.715400
9.416500 0.714700
9.436000 0.715600
9.455400 0.717400
9.474900 0.719900
9.494400 0.722600
9.513900 0.738100
9.533400 0.744400
9.552900 0.817200
9.572300 0.742600
9.591800 0.745700
9.611300 0.747500
9.630800 0.749700
9.650300 0.752600
9.669800 0.755100
9.689200 0.758200
9.708700 0.757900
9.728200 0.754200
9.747700 0.747700
9.767200 0.741800
9.786700 0.734800
9.806100 0.729300
9.825600 0.723300
9.845100 0.714900
9.864600 0.703100
9.884100 0.699900
9.903600 0.701200
9.923000 0.701900
9.942500 0.701100
9.962000 0.701000
9.981500 0.695900
10.001000 0.686700
10.020400 0.672600
10.039900 0.665300
10.059400 0.661600
10.078900 0.662200
10.098400 0.665300
10.117900 0.670500
10.137300 0.674600
10.156800 0.677500
10.176300 0.677800
10.195800 0.676100
10.215300 0.674500
10.234800 0.673000
10.254200 0.673300
10.273700 0.675100
10.293200 0.676900
10.312700 0.678200
10.332200 0.679600
10.351700 0.678400
10.371100 0.678000
10.390600 0.678700
10.410100 0.679500
10.429600 0.681000
10.449100 0.697300
10.468600 0.708500
10.488000 0.720200
10.507500 0.744900
10.527000 0.761700
10.546500 0.778200
10.566000 0.789800
10.585500 0.797500
10.604900 0.878500
10.624400 0.822600
10.643900 0.822900
10.663400 0.820200
10.682900 0.811600
10.702400 0.804400
10.721800 0.758200
10.741300 0.744100
10.760800 0.742500
10.780300 0.738400
10.799800 0.732300
10.819300 0.730100
10.838700 0.730700
10.858200 0.733900
10.877700 0.735000
10.897200 0.735900
10.916700 0.739300
10.936200 0.742700
10.955600 0.745800
10.975100 0.743200
10.994600 0.744400
11.014100 0.724500
11.033600 0.713600
11.053100 0.708100
11.072500 0.703000
11.092000 0.695000
11.111500 0.690000
11.131000 0.685500
11.150500 0.681300
11.170000 0.677400
11.189400 0.668000
11.208900 0.662500
11.228400 0.658300
11.247900 0.655200
11.267400 0.652400
11.286900 0.649200
11.306300 0.645700
11.325800 0.641900
11.345300 0.638200
11.364800 0.635500
11.384300 0.633200
11.403800 0.631800
11.423200 0.630300
11.442700 0.633000
11.462200 0.636500
11.481700 0.636300
11.501200 0.633400
11.520700 0.630300
11.540100 0.627100
11.559600 0.627000
11.579100 0.629300
11.598600 0.631400
11.618100 0.633200
11.637600 0.634900
11.657000 0.636600
11.676500 0.638400
11.696000 0.640400
11.715500 0.636300
11.735000 0.637100
11.754500 0.638100
11.773900 0.639100
11.793400 0.639200
11.812900 0.640300
11.832400 0.642000
11.851900 0.644100
11.871400 0.646000
11.890800 0.647600
11.910300 0.647100
11.929800 0.645400
11.949300 0.643800
11.968800 0.642400
11.988300 0.642100
12.007700 0.641500
12.027200 0.640900
12.046700 0.640100
12.066200 0.635700
12.085700 0.634200
12.105200 0.632800
12.124600 0.631500
12.144100 0.629900
12.163600 0.628000
12.183100 0.626200
12.202600 0.623900
12.222100 0.621400
12.241500 0.618900
12.261000 0.616400
12.280500 0.614000
12.300000 0.611600
12.319500 0.609400
12.339000 0.607300
12.358400 0.609200
12.377900 0.607000
12.397400 0.604300
12.416900 0.638800
12.436400 0.662000
12.455900 0.665700
12.475300 0.676300
12.494800 0.684900
12.514300 0.689700
12.533800 0.672800
12.553300 0.663700
12.572800 0.664500
12.592200 0.668200
12.611700 0.672300
12.631200 0.676300
12.650700 0.680500
12.670200 0.682100
12.689700 0.683000
12.709100 0.681700
12.728600 0.680200
12.748100 0.679800
12.767600 0.680200
12.787100 0.680500
12.806600 0.679500
12.826000 0.680900
12.845500 0.680400
12.865000 0.680100
12.884500 0.680100
12.904000 0.680500
12.923500 0.684700
12.942900 0.688100
12.962400 0.692300
12.981900 0.695700
13.001400 0.696900
13.020900 0.691500
13.040400 0.689900
13.059800 0.689200
13.079300 0.726200
13.098800 0.695500
13.118300 0.696800
13.137800 0.698800
13.157300 0.700300
13.176700 0.700700
13.196200 0.700300
13.215700 0.700400
13.235200 0.704300
13.254700 0.711000
13.274200 0.715300
13.293600 0.716900
13.313100 0.720800
13.332600 0.725300
13.352100 0.733600
13.371600 0.738300
13.391100 0.739900
13.410500 0.741400
13.430000 0.742000
13.449500 0.757200
13.469000 0.761600
13.488500 0.761400
13.508000 0.761800
13.527400 0.762200
13.546900 0.762900
13.566400 0.765600
13.585900 0.768900
13.605400 0.771900
13.624900 0.774700
13.644300 0.784000
13.663800 0.787000
13.683300 0.787300
13.702800 0.781600
13.722300 0.780100
13.741800 0.781100
13.761200 0.783300
13.780700 0.784700
13.800200 0.787500
13.819700 0.790500
13.839200 0.794300
13.858700 0.799300
13.878100 0.806700
13.897600 0.813900
13.917100 0.819400
13.936600 0.823100
13.956100 0.829400
13.975600 0.839700
13.995000 0.845800
14.014500 0.851100
14.034000 0.858800
14.053500 0.865100
14.073000 0.867700
14.092500 0.865800
14.111900 0.864300
14.131400 0.859300
14.150900 0.856200
14.170400 0.854800
14.189900 0.857200
