set title 'mp-1223656 - Density of States'
set xlabel 'Energy (eV)'
set ylabel 'DOS (states/eV)'
set grid
set xrange [-10:10]
set yrange [0:39.949]
set xzeroaxis lt -1
set terminal png size 800,600
set output 'mp-1223656_dos_gnuplot.png'
plot '-' using 1:2 with lines title 'DOS'
-9.650000 0.000000
-9.615500 0.000000
-9.581000 0.000000
-9.546500 0.000000
-9.512000 0.000000
-9.477500 0.000000
-9.443000 0.000000
-9.408600 0.000000
-9.374100 0.000000
-9.339600 0.000000
-9.305100 0.000000
-9.270600 0.000000
-9.236100 0.000000
-9.201600 0.000000
-9.167100 0.000000
-9.132600 0.000000
-9.098100 0.000000
-9.063600 0.000000
-9.029100 0.000000
-8.994600 0.000000
-8.960100 0.000000
-8.925700 0.000000
-8.891200 0.000000
-8.856700 0.000000
-8.822200 0.000000
-8.787700 0.000000
-8.753200 0.000000
-8.718700 0.000000
-8.684200 0.000000
-8.649700 0.000000
-8.615200 0.000000
-8.580700 0.000000
-8.546200 0.000000
-8.511700 0.000000
-8.477200 0.000000
-8.442800 0.000000
-8.408300 0.000000
-8.373800 0.000000
-8.339300 0.000000
-8.304800 0.000000
-8.270300 0.000000
-8.235800 0.000000
-8.201300 0.000000
-8.166800 0.000000
-8.132300 0.000000
-8.097800 0.000000
-8.063300 0.000000
-8.028800 0.000000
-7.994400 0.000000
-7.959900 0.000000
-7.925400 0.000000
-7.890900 0.000000
-7.856400 0.000000
-7.821900 0.000000
-7.787400 0.000000
-7.752900 0.000000
-7.718400 0.000000
-7.683900 0.000000
-7.649400 0.000000
-7.614900 0.000000
-7.580400 0.000000
-7.545900 0.000000
-7.511500 0.000000
-7.477000 0.000000
-7.442500 0.000000
-7.408000 0.000000
-7.373500 0.000000
-7.339000 0.000000
-7.304500 0.000000
-7.270000 0.000000
-7.235500 0.000000
-7.201000 0.000000
-7.166500 0.000000
-7.132000 0.000000
-7.097500 0.000000
-7.063000 0.000000
-7.028600 0.000000
-6.994100 0.000000
-6.959600 0.000000
-6.925100 0.000000
-6.890600 0.000000
-6.856100 0.000000
-6.821600 0.000000
-6.787100 0.000000
-6.752600 0.000000
-6.718100 0.000000
-6.683600 0.000000
-6.649100 0.000000
-6.614600 0.000000
-6.580100 0.000000
-6.545700 0.000000
-6.511200 0.176200
-6.476700 4.455800
-6.442200 6.500700
-6.407700 7.508900
-6.373200 8.791200
-6.338700 14.168700
-6.304200 9.160300
-6.269700 9.451800
-6.235200 13.403600
-6.200700 21.940400
-6.166200 18.867700
-6.131700 11.328500
-6.097200 22.046300
-6.062800 12.368600
-6.028300 36.317300
-5.993800 14.278500
-5.959300 29.416400
-5.924800 17.586700
-5.890300 16.370300
-5.855800 7.171200
-5.821300 3.401600
-5.786800 0.000000
-5.752300 0.000000
-5.717800 0.000000
-5.683300 0.000000
-5.648800 0.000000
-5.614300 0.000000
-5.579900 0.000000
-5.545400 0.000000
-5.510900 0.000000
-5.476400 0.000000
-5.441900 0.000000
-5.407400 0.000000
-5.372900 0.000000
-5.338400 0.000000
-5.303900 0.000000
-5.269400 0.000000
-5.234900 0.000000
-5.200400 0.000000
-5.165900 0.000000
-5.131500 0.000000
-5.097000 0.000000
-5.062500 0.000000
-5.028000 0.000000
-4.993500 0.000000
-4.959000 0.000000
-4.924500 0.000000
-4.890000 0.000000
-4.855500 0.000000
-4.821000 0.000000
-4.786500 0.000000
-4.752000 0.000000
-4.717500 0.000000
-4.683000 0.000000
-4.648600 0.000000
-4.614100 0.000000
-4.579600 0.000000
-4.545100 0.000000
-4.510600 0.000000
-4.476100 0.000000
-4.441600 0.000000
-4.407100 0.000000
-4.372600 0.000000
-4.338100 0.000000
-4.303600 0.000000
-4.269100 0.000000
-4.234600 0.000000
-4.200100 0.000000
-4.165700 0.000000
-4.131200 0.000000
-4.096700 0.000000
-4.062200 0.000000
-4.027700 0.000000
-3.993200 0.000000
-3.958700 0.000000
-3.924200 0.000000
-3.889700 0.000000
-3.855200 0.000000
-3.820700 0.000000
-3.786200 0.000000
-3.751700 0.000000
-3.717200 0.000000
-3.682800 0.000000
-3.648300 0.000000
-3.613800 0.000000
-3.579300 0.000000
-3.544800 0.000000
-3.510300 0.000000
-3.475800 0.000000
-3.441300 0.000000
-3.406800 0.000000
-3.372300 0.000000
-3.337800 0.000000
-3.303300 0.000000
-3.268800 0.000000
-3.234300 0.000000
-3.199900 0.000000
-3.165400 0.000000
-3.130900 0.000000
-3.096400 0.000000
-3.061900 0.000000
-3.027400 0.000000
-2.992900 0.000000
-2.958400 0.000000
-2.923900 0.000000
-2.889400 0.000000
-2.854900 0.000000
-2.820400 0.000000
-2.785900 0.000000
-2.751400 0.000000
-2.717000 0.000000
-2.682500 0.000000
-2.648000 0.000000
-2.613500 0.000000
-2.579000 0.000000
-2.544500 0.000000
-2.510000 0.000000
-2.475500 0.000000
-2.441000 0.000000
-2.406500 0.000000
-2.372000 0.000000
-2.337500 0.000000
-2.303000 0.000000
-2.268500 0.000000
-2.234100 0.000000
-2.199600 0.000000
-2.165100 0.000000
-2.130600 0.000000
-2.096100 0.000000
-2.061600 0.000000
-2.027100 0.000000
-1.992600 0.000000
-1.958100 0.000000
-1.923600 0.000000
-1.889100 0.000000
-1.854600 0.006600
-1.820100 0.026500
-1.785700 0.052600
-1.751200 0.070600
-1.716700 0.071800
-1.682200 0.079300
-1.647700 0.088500
-1.613200 0.098000
-1.578700 0.107500
-1.544200 0.114900
-1.509700 0.122300
-1.475200 0.127800
-1.440700 0.132300
-1.406200 0.136200
-1.371700 0.141300
-1.337200 0.147000
-1.302800 0.152300
-1.268300 0.157000
-1.233800 0.162000
-1.199300 0.167400
-1.164800 0.173200
-1.130300 0.179000
-1.095800 0.184900
-1.061300 0.189500
-1.026800 0.193000
-0.992300 0.197100
-0.957800 0.200900
-0.923300 0.204600
-0.888800 0.208500
-0.854300 0.212500
-0.819900 0.216700
-0.785400 0.221100
-0.750900 0.225600
-0.716400 0.230200
-0.681900 0.234900
-0.647400 0.239600
-0.612900 0.244500
-0.578400 0.249500
-0.543900 0.254800
-0.509400 0.260000
-0.474900 0.265000
-0.440400 0.269300
-0.405900 0.273400
-0.371400 0.277500
-0.337000 0.282000
-0.302500 0.286700
-0.268000 0.291400
-0.233500 0.296100
-0.199000 0.301000
-0.164500 0.308200
-0.130000 0.315800
-0.095500 0.323900
-0.061000 0.332500
-0.026500 0.345400
0.008000 0.360800
0.042500 0.369300
0.077000 0.371000
0.111500 0.368100
0.145900 0.377200
0.180400 0.383500
0.214900 0.382400
0.249400 0.379300
0.283900 0.378600
0.318400 0.379600
0.352900 0.382600
0.387400 0.384700
0.421900 0.385600
0.456400 0.385900
0.490900 0.385700
0.525400 0.385200
0.559900 0.384900
0.594400 0.386100
0.628800 0.387100
0.663300 0.388100
0.697800 0.390200
0.732300 0.392300
0.766800 0.394200
0.801300 0.396000
0.835800 0.397800
0.870300 0.399300
0.904800 0.400200
0.939300 0.399800
0.973800 0.400400
1.008300 0.402400
1.042800 0.404500
1.077200 0.406700
1.111700 0.408900
1.146200 0.411100
1.180700 0.413400
1.215200 0.415600
1.249700 0.417700
1.284200 0.420000
1.318700 0.422500
1.353200 0.429300
1.387700 0.449800
1.422200 0.447300
1.456700 0.452200
1.491200 0.457700
1.525700 0.463600
1.560100 0.470100
1.594600 0.477200
1.629100 0.484800
1.663600 0.492400
1.698100 0.499900
1.732600 0.507400
1.767100 0.514600
1.801600 0.521400
1.836100 0.529000
1.870600 0.537200
1.905100 0.545600
1.939600 0.554200
1.974100 0.563000
2.008600 0.572200
2.043000 0.582100
2.077500 0.592900
2.112000 0.604400
2.146500 0.616700
2.181000 0.629700
2.215500 0.644400
2.250000 0.660700
2.284500 0.679000
2.319000 0.701200
2.353500 0.730500
2.388000 0.782400
2.422500 0.862400
2.457000 0.860700
2.491500 0.833700
2.525900 0.836500
2.560400 0.833100
2.594900 0.827400
2.629400 0.854000
2.663900 0.868300
2.698400 0.849500
2.732900 0.809600
2.767400 0.787300
2.801900 0.767100
2.836400 0.749100
2.870900 0.726300
2.905400 0.675700
2.939900 0.636300
2.974400 0.618400
3.008800 0.606800
3.043300 0.597900
3.077800 0.598600
3.112300 0.599200
3.146800 0.603600
3.181300 0.615400
3.215800 0.669600
3.250300 0.750300
3.284800 0.554000
3.319300 0.574200
3.353800 0.627900
3.388300 0.677400
3.422800 0.719000
3.457300 0.782400
3.491700 0.852400
3.526200 0.943000
3.560700 0.981300
3.595200 0.980400
3.629700 1.002100
3.664200 1.046300
3.698700 1.121200
3.733200 1.162200
3.767700 1.185100
3.802200 1.203800
3.836700 1.239500
3.871200 1.278100
3.905700 1.310700
3.940100 1.353900
3.974600 1.428200
4.009100 1.539900
4.043600 1.674600
4.078100 1.727800
4.112600 1.745100
4.147100 1.810700
4.181600 1.903200
4.216100 2.038800
4.250600 2.373400
4.285100 2.551400
4.319600 2.653100
4.354100 2.516700
4.388600 2.050200
4.423000 1.731700
4.457500 2.060600
4.492000 2.118100
4.526500 2.279900
4.561000 2.230200
4.595500 2.170300
4.630000 2.127500
4.664500 2.164200
4.699000 2.238100
4.733500 2.279900
4.768000 2.317700
4.802500 2.284000
4.837000 2.526600
4.871500 2.742900
4.905900 3.116600
4.940400 3.689000
4.974900 3.683900
5.009400 3.736000
5.043900 4.000200
5.078400 4.291600
5.112900 4.896000
5.147400 4.782600
5.181900 4.928000
5.216400 4.823400
5.250900 2.864000
5.285400 3.130200
5.319900 3.961200
5.354400 4.329100
5.388800 4.287900
5.423300 3.903100
5.457800 3.364300
5.492300 3.150400
5.526800 3.102200
5.561300 3.248900
5.595800 2.984600
5.630300 2.834500
5.664800 3.156000
5.699300 3.527800
5.733800 4.039400
5.768300 4.109600
5.802800 4.013000
5.837300 3.823000
5.871700 3.598700
5.906200 3.597800
5.940700 3.669900
5.975200 3.767200
6.009700 4.044900
6.044200 4.478300
6.078700 4.383900
6.113200 3.818200
6.147700 3.199200
6.182200 2.487500
6.216700 2.219900
6.251200 1.937600
6.285700 1.514200
6.320200 1.678500
6.354600 3.965400
6.389100 3.452600
6.423600 2.925600
6.458100 2.436200
6.492600 2.040600
6.527100 1.729200
6.561600 1.440100
6.596100 1.393100
6.630600 1.334000
6.665100 1.268100
6.699600 1.212300
6.734100 1.180400
6.768600 1.161700
6.803000 1.157200
6.837500 1.156600
6.872000 1.161000
6.906500 1.175100
6.941000 1.191900
6.975500 1.215400
7.010000 1.243900
7.044500 1.278800
7.079000 1.311800
7.113500 1.343000
7.148000 1.367100
7.182500 1.398400
7.217000 1.446300
7.251500 1.523400
7.285900 1.595500
7.320400 1.581500
7.354900 1.619700
7.389400 1.687800
7.423900 1.746800
7.458400 1.805500
7.492900 1.888000
7.527400 2.094300
7.561900 2.276600
7.596400 2.385100
7.630900 1.999100
7.665400 1.551600
7.699900 1.398200
7.734400 1.311400
7.768800 1.255900
7.803300 1.201500
7.837800 1.155500
7.872300 1.116400
7.906800 1.072600
7.941300 1.032300
7.975800 0.999600
8.010300 0.976200
8.044800 0.932100
8.079300 0.856400
8.113800 0.785200
8.148300 0.724300
8.182800 0.683000
8.217300 0.641800
8.251700 0.602200
8.286200 0.566600
8.320700 0.535200
8.355200 0.525400
8.389700 0.530600
8.424200 0.537300
8.458700 0.546100
8.493200 0.558300
8.527700 0.573100
8.562200 0.588200
8.596700 0.611100
8.631200 0.633900
8.665700 0.665200
8.700200 0.723300
8.734600 0.780900
8.769100 0.852200
8.803600 0.980400
8.838100 1.111900
8.872600 1.277700
8.907100 1.223100
8.941600 1.275200
8.976100 1.230400
9.010600 1.198800
9.045100 1.170300
9.079600 1.133800
9.114100 1.091300
9.148600 1.032200
9.183100 0.957000
9.217500 0.821500
9.252000 0.756100
9.286500 0.695400
9.321000 0.656400
9.355500 0.624400
9.390000 0.578900
9.424500 0.602400
9.459000 0.701600
9.493500 0.777100
9.528000 0.911500
9.562500 0.962400
9.597000 0.973800
9.631500 0.963700
9.666000 0.941000
9.700400 0.934400
9.734900 0.932800
9.769400 0.915400
9.803900 0.871900
9.838400 0.847300
9.872900 0.826600
9.907400 0.804000
9.941900 0.778100
9.976400 0.732300
10.010900 0.701900
10.045400 0.680400
10.079900 0.665600
10.114400 0.656100
10.148800 0.646000
10.183300 0.594900
10.217800 0.586400
10.252300 0.579900
10.286800 0.574100
10.321300 0.569900
10.355800 0.566900
10.390300 0.563100
10.424800 0.561400
10.459300 0.557900
10.493800 0.555600
10.528300 0.553500
10.562800 0.548400
10.597300 0.539700
10.631700 0.535600
10.666200 0.534500
10.700700 0.534700
10.735200 0.535500
10.769700 0.536700
10.804200 0.546500
10.838700 0.542500
10.873200 0.532000
10.907700 0.535600
10.942200 0.539700
10.976700 0.544300
11.011200 0.549000
11.045700 0.554100
11.080200 0.560600
11.114600 0.569700
11.149100 0.578100
11.183600 0.585900
11.218100 0.592500
11.252600 0.594900
11.287100 0.600100
11.321600 0.605700
11.356100 0.610500
11.390600 0.614000
11.425100 0.615400
11.459600 0.615200
11.494100 0.618900
11.528600 0.627600
11.563100 0.635600
11.597500 0.675200
11.632000 0.751300
11.666500 0.823800
11.701000 0.795200
11.735500 0.806400
11.770000 0.830700
11.804500 0.889600
11.839000 0.989300
11.873500 1.023300
11.908000 0.997900
11.942500 0.999100
11.977000 0.945500
12.011500 0.866600
12.046000 0.866900
12.080400 0.862000
12.114900 0.846600
12.149400 0.834300
12.183900 0.820400
12.218400 0.806400
12.252900 0.791500
12.287400 0.773600
12.321900 0.758700
12.356400 0.748000
12.390900 0.741300
12.425400 0.733900
12.459900 0.717300
12.494400 0.697200
12.528900 0.685300
12.563300 0.664700
12.597800 0.630600
12.632300 0.593700
12.666800 0.575500
12.701300 0.575000
12.735800 0.574700
12.770300 0.573500
12.804800 0.572400
12.839300 0.578900
12.873800 0.591700
12.908300 0.610200
12.942800 0.642100
12.977300 0.687400
13.011700 0.771800
13.046200 0.840100
13.080700 0.881900
13.115200 0.910700
13.149700 0.946000
13.184200 0.989400
13.218700 1.010600
13.253200 1.008500
13.287700 1.011300
13.322200 1.013600
13.356700 1.016600
13.391200 1.037000
13.425700 1.063400
13.460200 1.104200
13.494600 1.130000
13.529100 1.017500
13.563600 0.985400
13.598100 0.962500
13.632600 0.950100
13.667100 0.939300
13.701600 0.931500
13.736100 0.926400
13.770600 0.925600
13.805100 0.928000
13.839600 0.933800
13.874100 0.992100
13.908600 1.141800
13.943100 1.011800
13.977500 1.005600
14.012000 1.007800
14.046500 1.008900
14.081000 1.009900
14.115500 1.010000
14.150000 1.007900
14.184500 1.003500
14.219000 0.999700
14.253500 1.036000
14.288000 1.051000
14.322500 1.039400
14.357000 1.017400
14.391500 0.993100
14.426000 0.967100
14.460400 0.939900
14.494900 0.919500
14.529400 0.908900
14.563900 0.902900
14.598400 0.897400
14.632900 0.890100
14.667400 0.879900
14.701900 0.866600
14.736400 0.861800
14.770900 0.857600
14.805400 0.851900
14.839900 0.846900
14.874400 0.844100
14.908900 0.852800
14.943300 0.886900
14.977800 0.899100
15.012300 0.909000
15.046800 0.916600
15.081300 0.922200
15.115800 0.925800
15.150300 0.930100
15.184800 0.936000
15.219300 0.940800
15.253800 0.944500
15.288300 0.946200
15.322800 0.944600
15.357300 0.943900
15.391800 0.944000
15.426200 0.945000
15.460700 0.946200
15.495200 0.945900
15.529700 0.943700
15.564200 0.940300
15.598700 0.935300
15.633200 0.931600
15.667700 0.929800
15.702200 0.927300
15.736700 0.920400
15.771200 0.911100
15.805700 0.902700
15.840200 0.895300
15.874600 0.889300
15.909100 0.887800
15.943600 0.890100
15.978100 0.895500
16.012600 0.904600
16.047100 0.909600
16.081600 0.914600
16.116100 0.917700
16.150600 0.919200
16.185100 0.918800
16.219600 0.905500
16.254100 0.895500
16.288600 0.892800
16.323100 0.890900
16.357500 0.889000
16.392000 0.887300
16.426500 0.885600
16.461000 0.884200
16.495500 0.882800
16.530000 0.881500
16.564500 0.880500
16.599000 0.879200
16.633500 0.878600
16.668000 0.879400
16.702500 0.880400
16.737000 0.877700
16.771500 0.873200
16.806000 0.869100
16.840400 0.865700
16.874900 0.862000
16.909400 0.858600
16.943900 0.857500
16.978400 0.858400
17.012900 0.859500
17.047400 0.862100
17.081900 0.868100
17.116400 0.874600
17.150900 0.874000
17.185400 0.871300
17.219900 0.868700
17.254400 0.865200
17.288900 0.860500
17.323300 0.854300
17.357800 0.849000
17.392300 0.845500
17.426800 0.843200
17.461300 0.843300
17.495800 0.845400
17.530300 0.848100
17.564800 0.851500
17.599300 0.855500
17.633800 0.860700
17.668300 0.867900
17.702800 0.877200
17.737300 0.888100
17.771800 0.900200
17.806200 0.913700
17.840700 0.929500
17.875200 0.950100
17.909700 0.974200
17.944200 0.941600
17.978700 0.945700
18.013200 0.949800
18.047700 0.953800
18.082200 0.960100
18.116700 0.969300
18.151200 0.981900
18.185700 0.998800
18.220200 1.017800
18.254700 1.016200
18.289100 1.012900
18.323600 1.015200
18.358100 1.023200
18.392600 1.035700
18.427100 1.050500
18.461600 1.058500
18.496100 1.061500
18.530600 1.069100
18.565100 1.075600
18.599600 1.077200
18.634100 1.065700
18.668600 1.045200
18.703100 1.029800
18.737600 1.026500
18.772000 1.035700
18.806500 1.045400
18.841000 1.053000
18.875500 1.057000
18.910000 1.058700
18.944500 1.061300
18.979000 1.068600
19.013500 1.061900
19.048000 1.054200
19.082500 1.044600
19.117000 1.040200
19.151500 1.039700
19.186000 1.041600
19.220400 1.041800
19.254900 1.040500
19.289400 1.039200
19.323900 1.036400
19.358400 1.032000
19.392900 1.034300
19.427400 1.036500
19.461900 1.035100
19.496400 1.038300
19.530900 1.053500
19.565400 1.076900
19.599900 1.107900
19.634400 1.141500
19.668900 1.253700
19.703300 1.202900
19.737800 1.228000
19.772300 1.232900
19.806800 1.242900
19.841300 1.307300
19.875800 1.374400
19.910300 1.392300
19.944800 1.400900
19.979300 1.395400
20.013800 1.392700
20.048300 1.375500
20.082800 1.359000
20.117300 1.342800
20.151800 1.335500
20.186200 1.330500
20.220700 1.341900
20.255200 1.348600
20.289700 1.355400
20.324200 1.365800
20.358700 1.359000
20.393200 1.393100
20.427700 1.389100
20.462200 1.376900
20.496700 1.331000
20.531200 1.300700
20.565700 1.247500
20.600200 1.207100
20.634700 1.182900
20.669100 1.167700
20.703600 1.154400
20.738100 1.140100
20.772600 1.123200
20.807100 1.108800
20.841600 1.118100
20.876100 1.105000
20.910600 1.077100
20.945100 1.045100
20.979600 1.021800
21.014100 1.002700
21.048600 0.985500
21.083100 0.973000
21.117600 0.968200
21.152000 0.973200
21.186500 0.990000
21.221000 1.018800
21.255500 1.039800
21.290000 1.059000
21.324500 1.098000
21.359000 1.168400
21.393500 1.242100
21.428000 1.292900
21.462500 1.381300
21.497000 1.349900
21.531500 1.339400
21.566000 1.337800
21.600500 1.331100
21.634900 1.344700
21.669400 1.360800
21.703900 1.365100
21.738400 1.346700
21.772900 1.325900
21.807400 1.308200
21.841900 1.305200
21.876400 1.299800
21.910900 1.289600
21.945400 1.267600
21.979900 1.241000
22.014400 1.217200
22.048900 1.194400
22.083300 1.164800
22.117800 1.105800
22.152300 1.028100
22.186800 0.974500
22.221300 0.956500
22.255800 0.985500
22.290300 1.001200
22.324800 1.009000
22.359300 1.024000
22.393800 1.050400
22.428300 1.090100
22.462800 1.154000
22.497300 1.195800
22.531800 1.234900
22.566200 1.245600
22.600700 1.241400
22.635200 1.237700
22.669700 1.259800
22.704200 1.295400
22.738700 1.292800
22.773200 1.284700
22.807700 1.324200
22.842200 1.336300
22.876700 1.296200
22.911200 1.259800
22.945700 1.197800
22.980200 1.116800
23.014700 1.077600
23.049100 1.070900
23.083600 1.067200
23.118100 1.067000
23.152600 1.066000
23.187100 1.091800
23.221600 1.123100
23.256100 1.164000
23.290600 1.222300
23.325100 1.244200
23.359600 1.257800
23.394100 1.263300
23.428600 1.268300
23.463100 1.258400
23.497600 1.254700
23.532000 1.266100
23.566500 1.278400
23.601000 1.295600
23.635500 1.312000
23.670000 1.338700
23.704500 1.310900
23.739000 1.265200
23.773500 1.246400
23.808000 1.221400
23.842500 1.222800
23.877000 1.225300
23.911500 1.209600
23.946000 1.197500
23.980500 1.180400
24.014900 1.170500
24.049400 1.172700
24.083900 1.190700
24.118400 1.221300
24.152900 1.244100
24.187400 1.323600
24.221900 1.419200
24.256400 1.422800
24.290900 1.321400
24.325400 1.279800
24.359900 1.260300
24.394400 1.169700
24.428900 1.137900
24.463400 1.098200
24.497800 1.051300
24.532300 0.985700
24.566800 0.915800
24.601300 0.919400
24.635800 0.887400
24.670300 0.859300
24.704800 0.846600
24.739300 0.849000
24.773800 0.824500
24.808300 0.817800
24.842800 0.847800
24.877300 0.907900
24.911800 0.945100
24.946200 0.985000
24.980700 1.030000
25.015200 1.122300
25.049700 1.189400
25.084200 1.244300
25.118700 1.327800
25.153200 1.419500
25.187700 1.392600
25.222200 1.392800
25.256700 1.433700
25.291200 1.404500
25.325700 1.389500
25.360200 1.386400
25.394700 1.370900
25.429100 1.354400
25.463600 1.349600
25.498100 1.323900
25.532600 1.308800
25.567100 1.291500
25.601600 1.282600
25.636100 1.273900
25.670600 1.266200
25.705100 1.255700
25.739600 1.249800
25.774100 1.241800
25.808600 1.229800
25.843100 1.212200
25.877600 1.189000
25.912000 1.144700
25.946500 1.107100
25.981000 1.091400
26.015500 1.105200
26.050000 1.111200
26.084500 1.113300
26.119000 1.117400
26.153500 1.137500
26.188000 1.131000
26.222500 1.124800
26.257000 1.120100
26.291500 1.120400
26.326000 1.124400
26.360500 1.131100
26.394900 1.144000
26.429400 1.162900
26.463900 1.168800
26.498400 1.178200
26.532900 1.198900
26.567400 1.192000
26.601900 1.160600
