set title 'mp-1183649 - Density of States'
set xlabel 'Energy (eV)'
set ylabel 'DOS (states/eV)'
set grid
set xrange [-10:10]
set yrange [0:59.691]
set xzeroaxis lt -1
set terminal png size 800,600
set output 'mp-1183649_dos_gnuplot.png'
plot '-' using 1:2 with lines title 'DOS'
-22.030800 0.000000
-21.996900 0.000000
-21.963000 0.000000
-21.929200 0.000000
-21.895300 0.000000
-21.861400 0.000000
-21.827500 0.000000
-21.793600 0.000000
-21.759700 0.000000
-21.725800 0.000000
-21.691900 0.000000
-21.658000 0.000000
-21.624100 0.000000
-21.590200 0.000000
-21.556300 0.000000
-21.522400 0.000000
-21.488500 0.000000
-21.454600 0.000000
-21.420700 0.000000
-21.386900 0.000000
-21.353000 0.000000
-21.319100 0.000000
-21.285200 0.000000
-21.251300 0.000000
-21.217400 0.000000
-21.183500 0.000000
-21.149600 0.000000
-21.115700 0.000000
-21.081800 0.000000
-21.047900 0.000000
-21.014000 0.000000
-20.980100 0.000000
-20.946200 0.000000
-20.912300 0.000000
-20.878500 0.000000
-20.844600 0.000000
-20.810700 0.000000
-20.776800 0.000000
-20.742900 0.000000
-20.709000 0.000000
-20.675100 0.000000
-20.641200 0.000000
-20.607300 0.000000
-20.573400 0.000000
-20.539500 0.000000
-20.505600 0.000000
-20.471700 0.000000
-20.437800 0.000000
-20.403900 0.000000
-20.370100 0.000000
-20.336200 0.000000
-20.302300 0.000000
-20.268400 0.000000
-20.234500 0.000000
-20.200600 0.000000
-20.166700 0.000000
-20.132800 0.000000
-20.098900 0.000000
-20.065000 0.000000
-20.031100 0.000000
-19.997200 0.000000
-19.963300 0.000000
-19.929400 0.000000
-19.895500 0.000000
-19.861600 0.000000
-19.827800 0.000000
-19.793900 0.000000
-19.760000 0.000000
-19.726100 0.000000
-19.692200 0.000000
-19.658300 0.000000
-19.624400 0.000000
-19.590500 0.000000
-19.556600 0.000000
-19.522700 0.000000
-19.488800 0.000000
-19.454900 0.000000
-19.421000 0.000000
-19.387100 0.000000
-19.353200 0.000000
-19.319400 0.000000
-19.285500 0.000000
-19.251600 0.000000
-19.217700 0.000000
-19.183800 0.000000
-19.149900 0.000000
-19.116000 0.000000
-19.082100 0.000000
-19.048200 0.000000
-19.014300 0.000000
-18.980400 0.000000
-18.946500 20.053300
-18.912600 316.213900
-18.878700 196.449100
-18.844800 299.424600
-18.811000 16.774600
-18.777100 0.000000
-18.743200 0.000000
-18.709300 0.000000
-18.675400 0.000000
-18.641500 0.000000
-18.607600 0.000000
-18.573700 0.000000
-18.539800 0.000000
-18.505900 0.000000
-18.472000 0.000000
-18.438100 0.000000
-18.404200 0.000000
-18.370300 0.000000
-18.336400 0.000000
-18.302600 0.000000
-18.268700 0.000000
-18.234800 0.000000
-18.200900 0.000000
-18.167000 0.000000
-18.133100 0.000000
-18.099200 0.000000
-18.065300 0.000000
-18.031400 0.000000
-17.997500 0.000000
-17.963600 0.000000
-17.929700 0.000000
-17.895800 0.000000
-17.861900 0.000000
-17.828000 0.000000
-17.794100 0.000000
-17.760300 0.000000
-17.726400 0.000000
-17.692500 0.000000
-17.658600 0.000000
-17.624700 0.000000
-17.590800 0.000000
-17.556900 0.000000
-17.523000 0.000000
-17.489100 0.000000
-17.455200 0.000000
-17.421300 0.000000
-17.387400 0.000000
-17.353500 0.000000
-17.319600 0.000000
-17.285700 0.000000
-17.251900 0.000000
-17.218000 0.000000
-17.184100 0.000000
-17.150200 0.000000
-17.116300 0.000000
-17.082400 0.000000
-17.048500 0.000000
-17.014600 0.000000
-16.980700 0.000000
-16.946800 0.000000
-16.912900 0.000000
-16.879000 0.000000
-16.845100 0.000000
-16.811200 0.000000
-16.777300 0.000000
-16.743500 0.000000
-16.709600 0.000000
-16.675700 0.000000
-16.641800 0.000000
-16.607900 0.000000
-16.574000 0.000000
-16.540100 0.000000
-16.506200 0.000000
-16.472300 0.000000
-16.438400 0.000000
-16.404500 0.000000
-16.370600 0.000000
-16.336700 0.000000
-16.302800 0.000000
-16.268900 0.000000
-16.235000 0.000000
-16.201200 0.000000
-16.167300 0.000000
-16.133400 0.000000
-16.099500 0.000000
-16.065600 0.000000
-16.031700 0.000000
-15.997800 0.000000
-15.963900 0.000000
-15.930000 0.000000
-15.896100 0.000000
-15.862200 0.000000
-15.828300 0.000000
-15.794400 0.000000
-15.760500 0.000000
-15.726600 0.000000
-15.692800 0.000000
-15.658900 0.000000
-15.625000 0.000000
-15.591100 0.000000
-15.557200 0.000000
-15.523300 0.000000
-15.489400 0.000000
-15.455500 0.000000
-15.421600 0.000000
-15.387700 0.000000
-15.353800 0.000000
-15.319900 0.000000
-15.286000 0.000000
-15.252100 0.000000
-15.218200 0.000000
-15.184400 0.000000
-15.150500 0.000000
-15.116600 0.000000
-15.082700 0.000000
-15.048800 0.000000
-15.014900 0.000000
-14.981000 0.000000
-14.947100 0.000000
-14.913200 0.000000
-14.879300 0.000000
-14.845400 0.000000
-14.811500 0.000000
-14.777600 0.000000
-14.743700 0.000000
-14.709800 0.000000
-14.675900 0.000000
-14.642100 0.000000
-14.608200 0.000000
-14.574300 0.000000
-14.540400 0.000000
-14.506500 0.000000
-14.472600 0.000000
-14.438700 0.000000
-14.404800 0.000000
-14.370900 0.000000
-14.337000 0.000000
-14.303100 0.000000
-14.269200 0.000000
-14.235300 0.000000
-14.201400 0.000000
-14.167500 0.000000
-14.133700 0.000000
-14.099800 0.000000
-14.065900 0.000000
-14.032000 0.000000
-13.998100 0.000000
-13.964200 0.000000
-13.930300 0.000000
-13.896400 0.000000
-13.862500 0.000000
-13.828600 0.000000
-13.794700 0.000000
-13.760800 0.000000
-13.726900 0.000000
-13.693000 0.000000
-13.659100 0.000000
-13.625300 0.000000
-13.591400 0.000000
-13.557500 0.000000
-13.523600 0.000000
-13.489700 0.000000
-13.455800 0.000000
-13.421900 0.000000
-13.388000 0.000000
-13.354100 0.000000
-13.320200 0.000000
-13.286300 0.000000
-13.252400 0.000000
-13.218500 0.000000
-13.184600 0.000000
-13.150700 0.000000
-13.116800 0.000000
-13.083000 0.000000
-13.049100 0.000000
-13.015200 0.000000
-12.981300 0.000000
-12.947400 0.000000
-12.913500 0.000000
-12.879600 0.000000
-12.845700 0.000000
-12.811800 0.000000
-12.777900 0.000000
-12.744000 0.000000
-12.710100 0.000000
-12.676200 0.000000
-12.642300 0.000000
-12.608400 0.000000
-12.574600 0.000000
-12.540700 0.000000
-12.506800 0.000000
-12.472900 0.000000
-12.439000 0.000000
-12.405100 0.000000
-12.371200 0.000000
-12.337300 0.000000
-12.303400 0.000000
-12.269500 0.000000
-12.235600 0.000000
-12.201700 0.000000
-12.167800 0.000000
-12.133900 0.000000
-12.100000 0.000000
-12.066200 0.000000
-12.032300 0.000000
-11.998400 0.000000
-11.964500 0.000000
-11.930600 0.000000
-11.896700 0.000000
-11.862800 0.000000
-11.828900 0.000000
-11.795000 0.000000
-11.761100 0.000000
-11.727200 0.000000
-11.693300 0.000000
-11.659400 0.000000
-11.625500 0.000000
-11.591600 0.000000
-11.557700 0.000000
-11.523900 0.000000
-11.490000 0.000000
-11.456100 0.000000
-11.422200 0.000000
-11.388300 0.000000
-11.354400 0.000000
-11.320500 0.000000
-11.286600 0.000000
-11.252700 0.000000
-11.218800 0.000000
-11.184900 0.000000
-11.151000 0.000000
-11.117100 0.000000
-11.083200 0.000000
-11.049300 0.000000
-11.015500 0.000000
-10.981600 0.000000
-10.947700 0.000000
-10.913800 0.000000
-10.879900 0.000000
-10.846000 0.000000
-10.812100 0.000000
-10.778200 0.000000
-10.744300 0.000000
-10.710400 0.000000
-10.676500 0.000000
-10.642600 0.000000
-10.608700 0.000000
-10.574800 0.000000
-10.540900 0.000000
-10.507100 0.000000
-10.473200 0.000000
-10.439300 0.000000
-10.405400 0.000000
-10.371500 0.000000
-10.337600 0.000000
-10.303700 0.000000
-10.269800 0.000000
-10.235900 0.000000
-10.202000 0.000000
-10.168100 0.000000
-10.134200 0.000000
-10.100300 0.000000
-10.066400 0.000000
-10.032500 0.000000
-9.998600 0.000000
-9.964800 0.000000
-9.930900 0.000000
-9.897000 0.000000
-9.863100 0.000000
-9.829200 0.000000
-9.795300 0.000000
-9.761400 0.000000
-9.727500 0.000000
-9.693600 0.000000
-9.659700 0.000000
-9.625800 0.000000
-9.591900 0.000000
-9.558000 0.000000
-9.524100 0.000000
-9.490200 0.000000
-9.456400 0.000000
-9.422500 0.000000
-9.388600 0.000000
-9.354700 0.000000
-9.320800 0.000000
-9.286900 0.000000
-9.253000 0.000000
-9.219100 0.000000
-9.185200 0.000000
-9.151300 0.000000
-9.117400 0.000000
-9.083500 0.000000
-9.049600 0.000000
-9.015700 0.000000
-8.981800 0.000000
-8.948000 0.000000
-8.914100 0.000000
-8.880200 0.000000
-8.846300 0.000000
-8.812400 0.000000
-8.778500 0.000000
-8.744600 0.000000
-8.710700 0.000000
-8.676800 0.000000
-8.642900 0.000000
-8.609000 0.000000
-8.575100 0.000000
-8.541200 0.000000
-8.507300 0.000000
-8.473400 0.000000
-8.439600 0.000000
-8.405700 0.000000
-8.371800 0.000000
-8.337900 0.000000
-8.304000 0.000000
-8.270100 0.000000
-8.236200 0.000000
-8.202300 0.000000
-8.168400 0.000000
-8.134500 0.000000
-8.100600 0.000000
-8.066700 0.000000
-8.032800 0.000000
-7.998900 0.000000
-7.965000 0.000000
-7.931100 0.000000
-7.897300 0.000000
-7.863400 0.000000
-7.829500 0.000000
-7.795600 0.000000
-7.761700 0.000000
-7.727800 0.000000
-7.693900 0.000000
-7.660000 0.000000
-7.626100 0.000000
-7.592200 0.000000
-7.558300 0.000000
-7.524400 0.000000
-7.490500 0.000000
-7.456600 0.000000
-7.422700 0.000000
-7.388900 0.000000
-7.355000 0.000000
-7.321100 0.000000
-7.287200 0.000000
-7.253300 0.000000
-7.219400 0.000000
-7.185500 0.000000
-7.151600 0.000000
-7.117700 0.000000
-7.083800 0.000000
-7.049900 0.000000
-7.016000 0.000000
-6.982100 0.000000
-6.948200 0.000000
-6.914300 0.000000
-6.880500 0.000000
-6.846600 0.000000
-6.812700 0.000000
-6.778800 0.002900
-6.744900 0.055600
-6.711000 0.140600
-6.677100 0.182400
-6.643200 0.207300
-6.609300 0.239100
-6.575400 0.259700
-6.541500 0.292700
-6.507600 0.325300
-6.473700 0.343300
-6.439800 0.357900
-6.405900 0.376400
-6.372000 0.392600
-6.338200 0.409000
-6.304300 0.427100
-6.270400 0.446800
-6.236500 0.467500
-6.202600 0.490500
-6.168700 0.511000
-6.134800 0.524700
-6.100900 0.536700
-6.067000 0.550600
-6.033100 0.566400
-5.999200 0.582200
-5.965300 0.597800
-5.931400 0.614900
-5.897500 0.633100
-5.863600 0.652600
-5.829800 0.672800
-5.795900 0.693700
-5.762000 0.715500
-5.728100 0.737000
-5.694200 0.758400
-5.660300 0.781000
-5.626400 0.805200
-5.592500 0.843000
-5.558600 0.873700
-5.524700 0.893200
-5.490800 0.937200
-5.456900 0.932000
-5.423000 0.942800
-5.389100 0.947900
-5.355200 0.952600
-5.321400 0.959800
-5.287500 0.969400
-5.253600 0.986400
-5.219700 1.008600
-5.185800 1.027200
-5.151900 1.046600
-5.118000 1.069300
-5.084100 1.095300
-5.050200 1.128500
-5.016300 1.167700
-4.982400 1.222300
-4.948500 1.317200
-4.914600 1.395700
-4.880700 1.471400
-4.846800 1.547800
-4.812900 1.611100
-4.779100 1.668600
-4.745200 1.777500
-4.711300 1.850700
-4.677400 1.980000
-4.643500 2.129800
-4.609600 2.198400
-4.575700 2.625300
-4.541800 2.145000
-4.507900 0.832300
-4.474000 0.589800
-4.440100 1.052000
-4.406200 1.602100
-4.372300 2.524500
-4.338400 3.953000
-4.304500 3.903000
-4.270700 3.730200
-4.236800 3.945400
-4.202900 4.260300
-4.169000 4.814300
-4.135100 4.654400
-4.101200 4.334500
-4.067300 3.358000
-4.033400 3.049700
-3.999500 4.007700
-3.965600 4.433700
-3.931700 6.281300
-3.897800 7.542800
-3.863900 7.633900
-3.830000 24.435300
-3.796100 16.724300
-3.762300 14.451000
-3.728400 24.720600
-3.694500 39.891900
-3.660600 54.264600
-3.626700 12.209700
-3.592800 8.515600
-3.558900 4.419200
-3.525000 3.452300
-3.491100 2.455100
-3.457200 1.985700
-3.423300 1.675200
-3.389400 1.593300
-3.355500 1.849100
-3.321600 1.714300
-3.287700 1.786000
-3.253800 1.543400
-3.220000 1.427500
-3.186100 1.396300
-3.152200 1.406500
-3.118300 1.393900
-3.084400 1.552900
-3.050500 1.691700
-3.016600 1.894800
-2.982700 1.938600
-2.948800 1.848900
-2.914900 1.786900
-2.881000 1.682100
-2.847100 1.618100
-2.813200 1.605800
-2.779300 1.602600
-2.745400 1.564400
-2.711600 1.527500
-2.677700 1.511400
-2.643800 1.518200
-2.609900 1.538300
-2.576000 1.469300
-2.542100 1.342900
-2.508200 1.237400
-2.474300 1.329400
-2.440400 1.415000
-2.406500 1.593100
-2.372600 1.626300
-2.338700 1.639500
-2.304800 1.644400
-2.270900 1.655300
-2.237000 1.678000
-2.203200 1.697900
-2.169300 1.714400
-2.135400 1.726300
-2.101500 1.745900
-2.067600 1.752900
-2.033700 1.771600
-1.999800 1.857200
-1.965900 1.877000
-1.932000 1.915400
-1.898100 1.963600
-1.864200 2.049900
-1.830300 2.416300
-1.796400 2.105400
-1.762500 2.144200
-1.728600 2.188400
-1.694700 2.348800
-1.660900 2.404700
-1.627000 2.293900
-1.593100 2.255900
-1.559200 2.224100
-1.525300 2.303300
-1.491400 2.281000
-1.457500 2.117700
-1.423600 1.819200
-1.389700 1.606100
-1.355800 1.501200
-1.321900 1.397300
-1.288000 1.282600
-1.254100 1.233700
-1.220200 1.175500
-1.186300 1.052700
-1.152500 0.963200
-1.118600 0.893400
-1.084700 0.837200
-1.050800 0.789600
-1.016900 0.753100
-0.983000 0.709800
-0.949100 0.673900
-0.915200 0.635400
-0.881300 0.645000
-0.847400 0.594200
-0.813500 0.560100
-0.779600 0.463700
-0.745700 0.396400
-0.711800 0.356400
-0.677900 0.331200
-0.644100 0.313300
-0.610200 0.289800
-0.576300 0.278800
-0.542400 0.270100
-0.508500 0.261300
-0.474600 0.252500
-0.440700 0.243700
-0.406800 0.237600
-0.372900 0.233900
-0.339000 0.232000
-0.305100 0.231800
-0.271200 0.233500
-0.237300 0.242200
-0.203400 0.275000
-0.169500 0.304300
-0.135600 0.346900
-0.101800 0.408500
-0.067900 0.436300
-0.034000 0.447300
-0.000100 0.427700
0.033800 0.420500
0.067700 0.513700
0.101600 0.546700
0.135500 0.585400
0.169400 0.646200
0.203300 0.710600
0.237200 0.703600
0.271100 0.698900
0.305000 0.726300
0.338900 0.733000
0.372800 0.744700
0.406600 0.749900
0.440500 0.744600
0.474400 0.728200
0.508300 0.739800
0.542200 0.742200
0.576100 0.749400
0.610000 0.771700
0.643900 0.791000
0.677800 0.838100
0.711700 0.836200
0.745600 0.867000
0.779500 0.945100
0.813400 1.054100
0.847300 1.203900
0.881200 1.515400
0.915000 1.785600
0.948900 2.018400
0.982800 2.003200
1.016700 2.016500
1.050600 2.028200
1.084500 2.049100
1.118400 1.841700
1.152300 1.769600
1.186200 1.792000
1.220100 1.789800
1.254000 1.795500
1.287900 1.803400
1.321800 1.826800
1.355700 1.945400
1.389600 1.962900
1.423500 2.136900
1.457300 2.031000
1.491200 1.977600
1.525100 1.882800
1.559000 1.789300
1.592900 1.715200
1.626800 1.640000
1.660700 1.585900
1.694600 1.523400
1.728500 1.334800
1.762400 1.274800
1.796300 1.186200
1.830200 1.132300
1.864100 1.119600
1.898000 1.186800
1.931900 1.266400
1.965700 1.323400
1.999600 1.384800
2.033500 1.276100
2.067400 1.204300
2.101300 1.149200
2.135200 1.163400
2.169100 1.184400
2.203000 1.196400
2.236900 1.197500
2.270800 1.199100
2.304700 1.216200
2.338600 1.235300
2.372500 1.256000
2.406400 1.277500
2.440300 1.331700
2.474100 1.354600
2.508000 1.387600
2.541900 1.440600
2.575800 1.507800
2.609700 1.628700
2.643600 1.699500
2.677500 1.758900
2.711400 1.937400
2.745300 1.848400
2.779200 1.886200
2.813100 1.966000
2.847000 2.037300
2.880900 2.124300
2.914800 2.181000
2.948700 2.160500
2.982500 2.150500
3.016400 2.137100
3.050300 2.126800
3.084200 2.117500
3.118100 2.103500
3.152000 2.088100
3.185900 2.086400
3.219800 2.075700
3.253700 2.072500
3.287600 2.077100
3.321500 2.090600
3.355400 2.096100
3.389300 2.082000
3.423200 2.066400
3.457100 2.036600
3.491000 1.976800
3.524800 1.797100
3.558700 1.751700
3.592600 2.066700
3.626500 1.623600
3.660400 1.553700
3.694300 1.507600
3.728200 1.509300
3.762100 1.526600
3.796000 1.579700
3.829900 1.665700
3.863800 1.706600
3.897700 1.738200
3.931600 1.736300
3.965500 1.725900
3.999400 1.723200
4.033200 1.743500
4.067100 1.724900
4.101000 1.729800
4.134900 1.745400
4.168800 1.767800
4.202700 1.823300
4.236600 1.751500
4.270500 1.714600
4.304400 1.678500
4.338300 1.660700
4.372200 1.652900
4.406100 1.643200
4.440000 1.636300
4.473900 1.641500
4.507800 1.658600
4.541600 1.679200
4.575500 1.691700
4.609400 1.691400
4.643300 1.670600
4.677200 1.679600
4.711100 1.703700
4.745000 1.722300
4.778900 1.718800
4.812800 1.721600
4.846700 1.726000
4.880600 1.730400
4.914500 1.737000
4.948400 1.760700
4.982300 1.882000
5.016200 1.932700
5.050100 1.961700
5.083900 2.004400
5.117800 1.998500
5.151700 1.981100
5.185600 1.958300
5.219500 1.994700
5.253400 2.785900
5.287300 2.014400
5.321200 1.899600
5.355100 1.776800
5.389000 1.692200
5.422900 1.629500
5.456800 1.590000
5.490700 1.581000
5.524600 1.580500
5.558500 1.574100
5.592300 1.572200
5.626200 1.545800
5.660100 1.512000
5.694000 1.493100
5.727900 1.475200
5.761800 1.455100
5.795700 1.454100
5.829600 1.500500
5.863500 1.592900
5.897400 1.721400
5.931300 1.912600
5.965200 1.990900
5.999100 2.048400
6.033000 2.170900
6.066900 2.264000
6.100700 2.450100
6.134600 2.472300
6.168500 2.376100
6.202400 2.317400
6.236300 2.253400
6.270200 2.192000
6.304100 2.163900
6.338000 2.120600
6.371900 2.075900
6.405800 2.074500
6.439700 2.114800
6.473600 2.132900
6.507500 2.171800
6.541400 2.164700
6.575300 2.125800
6.609200 2.049800
6.643000 1.994500
6.676900 1.870700
6.710800 1.864100
6.744700 1.873700
6.778600 1.878700
6.812500 1.894600
6.846400 1.913500
6.880300 1.932500
6.914200 1.936700
6.948100 1.963100
6.982000 1.988200
7.015900 2.023100
7.049800 2.073700
7.083700 2.140900
7.117600 2.193600
7.151400 2.230600
7.185300 2.182300
7.219200 2.146300
7.253100 2.141000
7.287000 2.033300
7.320900 2.019200
7.354800 2.139200
7.388700 2.344400
7.422600 2.540000
7.456500 3.397800
7.490400 4.090200
7.524300 3.761100
7.558200 3.475900
7.592100 3.087600
7.626000 2.799000
7.659800 2.527900
7.693700 2.216200
7.727600 2.006900
7.761500 1.902200
7.795400 1.827800
7.829300 1.801600
7.863200 1.807500
7.897100 1.865900
7.931000 1.900500
7.964900 1.955300
7.998800 2.030300
8.032700 2.137800
8.066600 2.322200
8.100500 2.434800
8.134400 2.445800
8.168300 2.385700
8.202100 2.356900
8.236000 2.339500
8.269900 2.398900
8.303800 2.366400
8.337700 2.402800
8.371600 2.523000
8.405500 2.539500
8.439400 2.446500
8.473300 2.357100
8.507200 2.286100
8.541100 2.235600
8.575000 2.239000
8.608900 2.269000
8.642800 2.308100
8.676700 2.366700
8.710500 2.426200
8.744400 2.482200
8.778300 2.553600
8.812200 2.693400
8.846100 2.763800
8.880000 2.667500
8.913900 2.585500
8.947800 2.548000
8.981700 2.478200
9.015600 2.410300
9.049500 2.275600
9.083400 2.231500
9.117300 2.179200
9.151200 2.190900
9.185100 2.196200
9.218900 2.181100
9.252800 2.185900
9.286700 2.234700
9.320600 2.456500
9.354500 2.423700
9.388400 2.259400
9.422300 2.219100
9.456200 2.210800
9.490100 2.270300
9.524000 2.408600
9.557900 2.541700
9.591800 2.603400
9.625700 2.483500
9.659600 2.212300
9.693500 1.995500
9.727400 1.875200
9.761200 1.879500
9.795100 1.792000
9.829000 1.752300
9.862900 1.740700
9.896800 1.754200
9.930700 1.728900
9.964600 1.718400
9.998500 1.718700
10.032400 1.771900
10.066300 1.762800
10.100200 1.767700
10.134100 1.771200
10.168000 1.795100
10.201900 1.841300
10.235800 1.914600
10.269600 1.890000
10.303500 1.997500
10.337400 2.031300
10.371300 2.006200
10.405200 1.898200
10.439100 1.940600
10.473000 2.023100
10.506900 1.953300
10.540800 1.865700
10.574700 1.811600
10.608600 1.766200
10.642500 1.725900
10.676400 1.714500
10.710300 1.738800
10.744200 1.797000
10.778000 1.831400
10.811900 1.917200
10.845800 2.004600
10.879700 2.015100
10.913600 2.000600
10.947500 1.968300
10.981400 1.907500
11.015300 1.917100
11.049200 1.953600
11.083100 2.003200
11.117000 2.110700
11.150900 2.090500
11.184800 2.043500
11.218700 2.004300
11.252600 1.966000
11.286500 1.934900
11.320300 1.904400
11.354200 1.892300
11.388100 1.854400
11.422000 1.810800
11.455900 1.838500
11.489800 1.868600
11.523700 1.912200
11.557600 1.985600
11.591500 1.984800
11.625400 1.988700
11.659300 1.999200
11.693200 2.036800
11.727100 2.061800
11.761000 2.017700
11.794900 1.689000
11.828700 1.636600
11.862600 1.609400
11.896500 1.607400
11.930400 1.616800
11.964300 1.738900
11.998200 1.595900
12.032100 1.626000
12.066000 1.695400
12.099900 1.647500
12.133800 1.531100
12.167700 1.533200
12.201600 1.599400
12.235500 1.668700
12.269400 1.738700
12.303300 1.777700
12.337100 1.803000
12.371000 1.820200
12.404900 1.836500
12.438800 1.795700
12.472700 1.704500
12.506600 1.675200
12.540500 1.639500
12.574400 1.567200
12.608300 1.566800
12.642200 1.571400
12.676100 1.576000
12.710000 1.575800
12.743900 1.549400
12.777800 1.546600
12.811700 1.547900
12.845500 1.556300
12.879400 1.548900
12.913300 1.503600
12.947200 1.510600
