set title 'mp-27 - Density of States'
set xlabel 'Energy (eV)'
set ylabel 'DOS (states/eV)'
set grid
set xrange [-10:10]
set yrange [0:0.469]
set xzeroaxis lt -1
set terminal png size 800,600
set output 'mp-27_dos_gnuplot.png'
plot '-' using 1:2 with lines title 'DOS'
-6.801900 0.000000
-6.774300 0.000000
-6.746600 0.000000
-6.718900 0.000000
-6.691300 0.000000
-6.663600 0.000000
-6.635900 0.000000
-6.608300 0.000000
-6.580600 0.000000
-6.552900 0.000000
-6.525300 0.000000
-6.497600 0.000000
-6.469900 0.000000
-6.442300 0.000000
-6.414600 0.000000
-6.386900 0.000000
-6.359300 0.000000
-6.331600 0.000000
-6.303900 0.000000
-6.276300 0.000000
-6.248600 0.000000
-6.220900 0.000000
-6.193300 0.000000
-6.165600 0.000000
-6.137900 0.000000
-6.110200 0.000000
-6.082600 0.000000
-6.054900 0.000000
-6.027200 0.000000
-5.999600 0.000000
-5.971900 0.000000
-5.944200 0.000000
-5.916600 0.000000
-5.888900 0.000000
-5.861200 0.000000
-5.833600 0.000000
-5.805900 0.000000
-5.778200 0.000000
-5.750600 0.000000
-5.722900 0.000000
-5.695200 0.000000
-5.667600 0.000000
-5.639900 0.000000
-5.612200 0.000000
-5.584600 0.000000
-5.556900 0.000000
-5.529200 0.000000
-5.501600 0.000000
-5.473900 0.000000
-5.446200 0.000000
-5.418600 0.000000
-5.390900 0.000000
-5.363200 0.000000
-5.335600 0.000000
-5.307900 0.000000
-5.280200 0.000000
-5.252600 0.000000
-5.224900 0.000000
-5.197200 0.000000
-5.169500 0.000000
-5.141900 0.000000
-5.114200 0.000000
-5.086500 0.000000
-5.058900 0.000000
-5.031200 0.000000
-5.003500 0.000000
-4.975900 0.000000
-4.948200 0.000000
-4.920500 0.000000
-4.892900 0.000000
-4.865200 0.000000
-4.837500 0.000000
-4.809900 0.000000
-4.782200 0.000000
-4.754500 0.000000
-4.726900 0.000000
-4.699200 0.000000
-4.671500 0.000000
-4.643900 0.000000
-4.616200 0.000000
-4.588500 0.000000
-4.560900 0.000000
-4.533200 0.000000
-4.505500 0.000000
-4.477900 0.000000
-4.450200 0.000000
-4.422500 0.000000
-4.394900 0.000000
-4.367200 0.000000
-4.339500 0.000000
-4.311900 0.000000
-4.284200 0.000100
-4.256500 0.010400
-4.228800 0.021000
-4.201200 0.026200
-4.173500 0.032500
-4.145800 0.038400
-4.118200 0.040600
-4.090500 0.043200
-4.062800 0.046800
-4.035200 0.050500
-4.007500 0.054300
-3.979800 0.056700
-3.952200 0.058900
-3.924500 0.061000
-3.896800 0.063000
-3.869200 0.065400
-3.841500 0.068100
-3.813800 0.070800
-3.786200 0.073500
-3.758500 0.075400
-3.730800 0.076600
-3.703200 0.078300
-3.675500 0.080100
-3.647800 0.081900
-3.620200 0.083700
-3.592500 0.085600
-3.564800 0.087700
-3.537200 0.089700
-3.509500 0.091800
-3.481800 0.093300
-3.454200 0.094700
-3.426500 0.096000
-3.398800 0.097300
-3.371200 0.098700
-3.343500 0.100300
-3.315800 0.101800
-3.288100 0.103400
-3.260500 0.104900
-3.232800 0.106500
-3.205100 0.108200
-3.177500 0.109900
-3.149800 0.111500
-3.122100 0.112500
-3.094500 0.113700
-3.066800 0.114900
-3.039100 0.116100
-3.011500 0.117200
-2.983800 0.118400
-2.956100 0.119800
-2.928500 0.121100
-2.900800 0.122500
-2.873100 0.123800
-2.845500 0.125200
-2.817800 0.126600
-2.790100 0.128000
-2.762500 0.129400
-2.734800 0.130400
-2.707100 0.131500
-2.679500 0.132500
-2.651800 0.133500
-2.624100 0.134600
-2.596500 0.135700
-2.568800 0.136800
-2.541100 0.137900
-2.513500 0.139000
-2.485800 0.140100
-2.458100 0.141300
-2.430500 0.142500
-2.402800 0.143700
-2.375100 0.144900
-2.347400 0.146100
-2.319800 0.147400
-2.292100 0.148500
-2.264400 0.149400
-2.236800 0.150300
-2.209100 0.151200
-2.181400 0.152200
-2.153800 0.153100
-2.126100 0.154100
-2.098400 0.155000
-2.070800 0.156000
-2.043100 0.157100
-2.015400 0.158100
-1.987800 0.159100
-1.960100 0.160100
-1.932400 0.161100
-1.904800 0.162200
-1.877100 0.163300
-1.849400 0.164300
-1.821800 0.165400
-1.794100 0.166500
-1.766400 0.167500
-1.738800 0.168400
-1.711100 0.169200
-1.683400 0.170000
-1.655800 0.170800
-1.628100 0.171700
-1.600400 0.172600
-1.572800 0.173500
-1.545100 0.174400
-1.517400 0.175200
-1.489800 0.176100
-1.462100 0.177100
-1.434400 0.178000
-1.406700 0.179000
-1.379100 0.179900
-1.351400 0.180800
-1.323700 0.181800
-1.296100 0.182700
-1.268400 0.183700
-1.240700 0.184700
-1.213100 0.185600
-1.185400 0.186600
-1.157700 0.187300
-1.130100 0.188100
-1.102400 0.188900
-1.074700 0.189700
-1.047100 0.190500
-1.019400 0.191300
-0.991700 0.192100
-0.964100 0.192900
-0.936400 0.193700
-0.908700 0.194500
-0.881100 0.195400
-0.853400 0.196200
-0.825700 0.197000
-0.798100 0.197900
-0.770400 0.198700
-0.742700 0.199600
-0.715100 0.200500
-0.687400 0.201400
-0.659700 0.202200
-0.632100 0.203100
-0.604400 0.204000
-0.576700 0.204900
-0.549100 0.205800
-0.521400 0.206500
-0.493700 0.207200
-0.466000 0.207900
-0.438400 0.208700
-0.410700 0.209400
-0.383000 0.210200
-0.355400 0.210900
-0.327700 0.211700
-0.300000 0.212400
-0.272400 0.213200
-0.244700 0.214000
-0.217000 0.214700
-0.189400 0.215500
-0.161700 0.216300
-0.134000 0.217100
-0.106400 0.217900
-0.078700 0.218700
-0.051000 0.219500
-0.023400 0.220300
0.004300 0.221100
0.032000 0.221900
0.059600 0.222700
0.087300 0.223600
0.115000 0.224400
0.142600 0.225200
0.170300 0.226000
0.198000 0.226600
0.225600 0.227300
0.253300 0.228000
0.281000 0.228700
0.308600 0.229400
0.336300 0.230100
0.364000 0.230800
0.391600 0.231500
0.419300 0.232300
0.447000 0.233000
0.474700 0.233700
0.502300 0.234400
0.530000 0.235200
0.557700 0.235900
0.585300 0.236700
0.613000 0.237400
0.640700 0.238200
0.668300 0.238900
0.696000 0.239700
0.723700 0.240500
0.751300 0.241200
0.779000 0.242000
0.806700 0.242800
0.834300 0.243600
0.862000 0.244300
0.889700 0.245100
0.917300 0.245900
0.945000 0.246500
0.972700 0.247200
1.000300 0.247900
1.028000 0.248600
1.055700 0.249300
1.083300 0.250000
1.111000 0.250600
1.138700 0.251300
1.166300 0.252000
1.194000 0.252700
1.221700 0.253400
1.249300 0.254200
1.277000 0.254900
1.304700 0.255600
1.332300 0.256400
1.360000 0.257100
1.387700 0.257800
1.415400 0.258600
1.443000 0.259400
1.470700 0.260100
1.498400 0.260900
1.526000 0.261700
1.553700 0.262500
1.581400 0.263300
1.609000 0.264100
1.636700 0.264900
1.664400 0.265700
1.692000 0.266500
1.719700 0.267300
1.747400 0.268100
1.775000 0.268800
1.802700 0.269600
1.830400 0.270400
1.858000 0.271200
1.885700 0.272100
1.913400 0.272900
1.941000 0.273800
1.968700 0.274700
1.996400 0.275700
2.024000 0.276700
2.051700 0.277700
2.079400 0.278800
2.107000 0.280000
2.134700 0.281300
2.162400 0.282700
2.190000 0.284300
2.217700 0.285900
2.245400 0.288000
2.273000 0.290700
2.300700 0.293300
2.328400 0.295800
2.356100 0.298200
2.383700 0.306000
2.411400 0.311900
2.439100 0.315000
2.466700 0.315400
2.494400 0.313100
2.522100 0.308100
2.549700 0.302300
2.577400 0.300400
2.605100 0.301100
2.632700 0.311300
2.660400 0.310700
2.688100 0.303800
2.715700 0.298600
2.743400 0.310700
2.771100 0.307000
2.798700 0.292700
2.826400 0.289700
2.854100 0.286900
2.881700 0.284400
2.909400 0.282100
2.937100 0.280100
2.964700 0.278400
2.992400 0.277000
3.020100 0.275900
3.047700 0.278300
3.075400 0.295600
3.103100 0.293400
3.130700 0.279800
3.158400 0.273800
3.186100 0.270600
3.213700 0.267800
3.241400 0.265500
3.269100 0.263700
3.296800 0.274900
3.324400 0.268700
3.352100 0.268200
3.379800 0.269500
3.407400 0.271100
3.435100 0.272900
3.462800 0.275300
3.490400 0.278300
3.518100 0.281700
3.545800 0.288600
3.573400 0.298000
3.601100 0.302100
3.628800 0.301100
3.656400 0.295300
3.684100 0.298500
3.711800 0.298900
3.739400 0.302100
3.767100 0.308200
3.794800 0.308700
3.822400 0.308700
3.850100 0.314700
3.877800 0.323700
3.905400 0.304200
3.933100 0.305400
3.960800 0.307300
3.988400 0.309800
4.016100 0.305000
4.043800 0.306700
4.071400 0.308200
4.099100 0.309300
4.126800 0.310000
4.154400 0.310400
4.182100 0.311100
4.209800 0.312300
4.237400 0.313800
4.265100 0.316200
4.292800 0.319500
4.320500 0.324000
4.348100 0.329500
4.375800 0.346700
4.403500 0.335400
4.431100 0.329700
4.458800 0.329700
4.486500 0.334200
4.514100 0.335600
4.541800 0.335700
4.569500 0.338100
4.597100 0.342100
4.624800 0.348100
4.652500 0.350900
4.680100 0.349200
4.707800 0.348500
4.735500 0.349400
4.763100 0.348800
4.790800 0.347400
4.818500 0.345300
4.846100 0.343000
4.873800 0.341900
4.901500 0.340900
4.929100 0.340900
4.956800 0.346500
4.984500 0.345800
5.012100 0.346500
5.039800 0.347200
5.067500 0.348300
5.095100 0.348600
5.122800 0.346500
5.150500 0.342200
5.178100 0.337900
5.205800 0.334100
5.233500 0.331300
5.261200 0.329200
5.288800 0.327400
5.316500 0.325800
5.344200 0.325800
5.371800 0.326400
5.399500 0.329700
5.427200 0.334400
5.454800 0.338500
5.482500 0.337300
5.510200 0.333500
5.537800 0.328100
5.565500 0.329900
5.593200 0.323700
5.620800 0.318300
5.648500 0.313500
5.676200 0.309400
5.703800 0.306800
5.731500 0.309500
5.759200 0.312200
5.786800 0.312100
5.814500 0.311000
5.842200 0.309900
5.869800 0.312700
5.897500 0.322100
5.925200 0.330700
5.952800 0.332600
5.980500 0.334500
6.008200 0.334300
6.035800 0.335900
6.063500 0.338100
6.091200 0.340500
6.118800 0.343400
6.146500 0.345900
6.174200 0.348700
6.201900 0.353300
6.229500 0.359300
6.257200 0.364400
6.284900 0.369300
6.312500 0.373000
6.340200 0.378400
6.367900 0.383800
6.395500 0.392700
6.423200 0.402600
6.450900 0.406800
6.478500 0.417500
6.506200 0.411200
6.533900 0.406400
6.561500 0.402500
6.589200 0.394600
6.616900 0.383800
6.644500 0.377400
6.672200 0.378500
6.699900 0.377800
6.727500 0.377600
6.755200 0.381800
6.782900 0.383600
6.810500 0.385300
6.838200 0.384500
6.865900 0.382300
6.893500 0.379600
6.921200 0.376200
6.948900 0.371800
6.976500 0.364500
7.004200 0.353000
7.031900 0.350700
7.059500 0.351200
7.087200 0.349100
7.114900 0.347000
7.142600 0.344800
7.170200 0.343700
7.197900 0.343800
7.225600 0.345300
7.253200 0.347700
7.280900 0.349300
7.308600 0.358700
7.336200 0.354300
7.363900 0.350100
7.391600 0.349800
7.419200 0.350400
7.446900 0.350600
7.474600 0.350600
7.502200 0.354400
7.529900 0.354100
7.557600 0.353800
7.585200 0.354600
7.612900 0.359300
7.640600 0.369400
7.668200 0.373700
7.695900 0.383100
7.723600 0.389700
7.751200 0.382100
7.778900 0.386600
7.806600 0.391600
7.834200 0.394700
7.861900 0.398400
7.889600 0.391600
7.917200 0.393300
7.944900 0.395100
7.972600 0.397200
8.000200 0.399500
8.027900 0.402000
8.055600 0.403000
8.083300 0.402800
8.110900 0.404300
8.138600 0.407500
8.166300 0.408100
8.193900 0.406100
8.221600 0.401000
8.249300 0.397200
8.276900 0.397100
8.304600 0.398600
8.332300 0.401700
8.359900 0.404600
8.387600 0.399300
8.415300 0.397000
8.442900 0.396500
8.470600 0.396600
8.498300 0.393400
8.525900 0.392100
8.553600 0.392700
8.581300 0.391700
8.608900 0.391300
8.636600 0.391500
8.664300 0.392300
8.691900 0.391500
8.719600 0.391400
8.747300 0.391600
8.774900 0.391600
8.802600 0.393400
8.830300 0.392500
8.857900 0.392300
8.885600 0.392800
8.913300 0.394000
8.940900 0.395700
8.968600 0.397900
8.996300 0.400400
9.024000 0.403400
9.051600 0.407600
9.079300 0.412300
9.107000 0.414500
9.134600 0.416100
9.162300 0.416500
9.190000 0.416700
9.217600 0.420600
9.245300 0.410300
9.273000 0.409900
9.300600 0.410600
9.328300 0.412200
9.356000 0.414600
9.383600 0.417000
9.411300 0.418300
9.439000 0.420000
9.466600 0.422100
9.494300 0.423700
9.522000 0.422900
9.549600 0.422600
9.577300 0.422700
9.605000 0.423100
9.632600 0.422100
9.660300 0.417800
9.688000 0.415500
9.715600 0.414500
9.743300 0.414200
9.771000 0.414400
9.798600 0.415000
9.826300 0.416100
9.854000 0.417500
9.881600 0.419200
9.909300 0.421100
9.937000 0.422100
9.964700 0.422900
9.992300 0.426600
10.020000 0.428100
10.047700 0.427700
10.075300 0.430200
10.103000 0.429200
10.130700 0.428900
10.158300 0.429000
10.186000 0.430000
10.213700 0.431300
10.241300 0.432200
10.269000 0.432100
10.296700 0.431800
10.324300 0.432200
10.352000 0.433700
10.379700 0.435300
10.407300 0.437200
10.435000 0.438800
10.462700 0.438500
10.490300 0.437000
10.518000 0.437300
10.545700 0.438000
10.573300 0.439000
10.601000 0.439400
10.628700 0.439900
10.656300 0.440900
10.684000 0.442400
10.711700 0.444300
10.739300 0.446100
10.767000 0.446500
10.794700 0.447200
10.822300 0.447900
10.850000 0.448600
10.877700 0.449300
10.905400 0.451000
10.933000 0.451700
10.960700 0.454000
10.988400 0.455200
11.016000 0.453000
11.043700 0.452000
11.071400 0.451800
11.099000 0.451600
11.126700 0.450500
11.154400 0.452700
11.182000 0.451400
11.209700 0.451200
11.237400 0.451600
11.265000 0.452600
11.292700 0.453200
11.320400 0.453800
11.348000 0.454700
11.375700 0.455300
11.403400 0.455500
11.431000 0.455700
11.458700 0.456600
11.486400 0.457300
11.514000 0.459200
11.541700 0.461400
11.569400 0.463700
11.597000 0.465500
11.624700 0.466100
11.652400 0.465600
11.680000 0.465800
11.707700 0.466400
11.735400 0.467300
11.763000 0.468500
11.790700 0.470000
11.818400 0.471400
11.846100 0.472700
11.873700 0.474000
11.901400 0.476900
11.929100 0.477500
11.956700 0.478700
11.984400 0.478800
12.012100 0.476700
12.039700 0.475700
12.067400 0.475300
12.095100 0.475600
12.122700 0.481000
12.150400 0.481400
12.178100 0.482500
12.205700 0.482800
12.233400 0.483100
12.261100 0.483600
12.288700 0.484200
12.316400 0.484500
12.344100 0.485100
12.371700 0.486000
12.399400 0.488100
12.427100 0.491000
12.454700 0.492000
12.482400 0.493800
12.510100 0.495800
12.537700 0.498000
12.565400 0.500400
12.593100 0.502200
12.620700 0.503400
12.648400 0.503800
12.676100 0.504300
12.703700 0.506200
12.731400 0.508300
12.759100 0.510600
12.786800 0.513100
12.814400 0.512400
12.842100 0.509400
12.869800 0.513800
12.897400 0.516100
12.925100 0.523800
12.952800 0.523900
12.980400 0.525400
13.008100 0.527800
13.035800 0.531300
13.063400 0.539600
13.091100 0.543700
13.118800 0.545800
13.146400 0.546500
13.174100 0.549600
13.201800 0.553100
13.229400 0.557200
13.257100 0.561700
13.284800 0.567100
13.312400 0.573500
13.340100 0.581000
13.367800 0.615100
13.395400 0.587200
13.423100 0.594000
13.450800 0.581000
13.478400 0.575700
13.506100 0.574500
13.533800 0.572600
13.561400 0.570700
13.589100 0.570700
13.616800 0.565400
13.644400 0.561400
13.672100 0.559200
13.699800 0.558600
13.727500 0.558600
13.755100 0.559300
13.782800 0.558600
13.810500 0.557400
13.838100 0.556900
13.865800 0.556000
13.893500 0.551500
13.921100 0.547300
13.948800 0.543500
13.976500 0.540100
14.004100 0.537100
14.031800 0.534400
14.059500 0.532000
14.087100 0.529900
14.114800 0.528300
14.142500 0.526700
14.170100 0.525400
14.197800 0.524000
14.225500 0.522900
14.253100 0.521400
14.280800 0.518700
14.308500 0.516300
14.336100 0.514200
14.363800 0.512500
14.391500 0.510500
14.419100 0.508900
14.446800 0.507400
14.474500 0.506100
14.502100 0.505100
14.529800 0.503800
14.557500 0.502300
14.585100 0.500600
14.612800 0.498400
14.640500 0.496400
14.668200 0.494800
14.695800 0.493400
14.723500 0.492400
14.751200 0.491200
14.778800 0.489800
14.806500 0.488300
14.834200 0.486700
14.861800 0.485000
14.889500 0.483300
14.917200 0.481700
14.944800 0.480000
14.972500 0.478400
15.000200 0.476900
15.027800 0.475400
15.055500 0.474200
15.083200 0.473100
15.110800 0.472100
15.138500 0.471400
15.166200 0.471000
15.193800 0.471000
15.221500 0.471400
15.249200 0.472100
15.276800 0.472900
15.304500 0.474000
15.332200 0.474300
15.359800 0.473100
15.387500 0.472200
15.415200 0.471200
15.442800 0.470400
15.470500 0.469600
15.498200 0.468300
15.525800 0.467100
15.553500 0.465900
15.581200 0.464800
15.608900 0.464000
15.636500 0.463400
15.664200 0.462900
15.691900 0.462500
15.719500 0.462100
15.747200 0.461800
15.774900 0.461600
15.802500 0.461300
15.830200 0.461200
15.857900 0.461000
15.885500 0.460800
15.913200 0.460700
15.940900 0.460900
15.968500 0.461300
15.996200 0.462300
16.023900 0.464000
16.051500 0.464600
16.079200 0.465300
16.106900 0.466100
16.134500 0.466900
16.162200 0.467300
16.189900 0.467700
16.217500 0.468400
16.245200 0.468900
16.272900 0.469200
16.300500 0.469500
16.328200 0.469600
16.355900 0.469800
16.383500 0.470000
16.411200 0.470300
16.438900 0.470700
16.466500 0.471000
16.494200 0.471400
16.521900 0.471700
16.549500 0.471900
16.577200 0.472100
16.604900 0.472300
16.632600 0.472400
16.660200 0.472500
16.687900 0.472600
16.715600 0.472800
16.743200 0.473000
16.770900 0.473500
16.798600 0.474500
16.826200 0.476200
16.853900 0.476700
16.881600 0.477100
16.909200 0.477600
16.936900 0.478200
16.964600 0.478800
16.992200 0.479600
17.019900 0.480900
17.047600 0.482400
17.075200 0.483800
17.102900 0.485400
17.130600 0.487200
17.158200 0.489200
17.185900 0.491600
17.213600 0.493800
17.241200 0.495900
17.268900 0.498300
17.296600 0.500200
17.324200 0.501500
17.351900 0.502400
17.379600 0.503000
17.407200 0.503500
17.434900 0.503700
17.462600 0.503600
17.490200 0.503500
17.517900 0.503400
17.545600 0.503600
17.573300 0.503800
17.600900 0.504300
17.628600 0.505000
17.656300 0.505800
17.683900 0.506700
17.711600 0.507900
17.739300 0.510200
17.766900 0.511000
17.794600 0.511900
17.822300 0.513100
17.849900 0.514500
17.877600 0.515700
17.905300 0.516700
17.932900 0.517800
17.960600 0.519000
17.988300 0.520300
18.015900 0.521700
18.043600 0.523000
18.071300 0.524500
18.098900 0.525100
18.126600 0.526300
18.154300 0.527300
18.181900 0.528000
18.209600 0.528500
18.237300 0.527900
18.264900 0.526900
18.292600 0.525800
18.320300 0.525000
18.347900 0.524700
18.375600 0.524900
18.403300 0.525500
18.430900 0.526500
18.458600 0.527900
18.486300 0.528400
18.514000 0.528800
18.541600 0.529300
18.569300 0.530000
18.597000 0.530900
18.624600 0.532100
18.652300 0.533600
18.680000 0.536000
18.707600 0.530400
18.735300 0.530200
18.763000 0.530100
18.790600 0.530000
18.818300 0.530400
18.846000 0.530800
18.873600 0.530700
18.901300 0.530300
18.929000 0.530100
18.956600 0.530000
18.984300 0.530300
19.012000 0.530700
19.039600 0.531500
19.067300 0.532400
19.095000 0.533500
19.122600 0.534500
19.150300 0.534800
19.178000 0.534600
19.205600 0.534300
19.233300 0.533500
19.261000 0.532700
19.288600 0.533000
19.316300 0.533700
19.344000 0.534400
19.371600 0.535000
19.399300 0.535600
19.427000 0.536100
19.454700 0.536400
19.482300 0.536600
19.510000 0.536600
19.537700 0.536900
19.565300 0.536900
19.593000 0.537200
19.620700 0.537900
19.648300 0.538700
19.676000 0.539600
19.703700 0.540600
19.731300 0.541600
19.759000 0.542500
19.786700 0.543400
19.814300 0.544300
19.842000 0.545200
19.869700 0.545500
19.897300 0.546000
19.925000 0.546700
19.952700 0.547500
19.980300 0.548600
20.008000 0.549800
20.035700 0.551200
20.063300 0.552600
20.091000 0.554100
20.118700 0.556100
20.146300 0.557000
20.174000 0.557600
20.201700 0.558900
20.229300 0.560100
20.257000 0.561500
20.284700 0.563000
20.312300 0.564600
20.340000 0.566800
20.367700 0.568700
20.395400 0.570600
20.423000 0.572800
20.450700 0.575400
20.478400 0.578300
20.506000 0.581600
20.533700 0.585400
20.561400 0.589800
20.589000 0.594700
20.616700 0.600200
20.644400 0.606100
20.672000 0.612600
20.699700 0.619600
20.727400 0.627300
20.755000 0.635600
20.782700 0.641900
20.810400 0.651500
20.838000 0.663900
20.865700 0.679200
20.893400 0.698400
20.921000 0.717600
20.948700 0.736200
20.976400 0.708400
21.004000 0.704500
21.031700 0.697700
21.059400 0.698100
21.087000 0.700600
21.114700 0.683200
21.142400 0.665500
21.170000 0.642100
21.197700 0.615500
21.225400 0.596600
21.253000 0.580500
21.280700 0.575100
21.308400 0.573700
21.336100 0.575200
21.363700 0.576500
21.391400 0.575800
21.419100 0.575300
21.446700 0.576200
21.474400 0.579500
21.502100 0.584400
21.529700 0.588500
21.557400 0.590500
21.585100 0.590400
21.612700 0.590400
21.640400 0.594400
21.668100 0.576700
21.695700 0.561400
21.723400 0.553600
21.751100 0.548400
21.778700 0.546100
21.806400 0.546600
21.834100 0.547600
21.861700 0.549800
21.889400 0.552400
21.917100 0.563000
21.944700 0.573500
21.972400 0.573200
22.000100 0.568600
22.027700 0.563400
22.055400 0.559200
22.083100 0.558100
22.110700 0.558500
22.138400 0.559600
22.166100 0.562500
22.193700 0.567500
22.221400 0.601300
22.249100 0.584400
22.276800 0.582600
22.304400 0.581500
22.332100 0.579600
22.359800 0.577400
22.387400 0.577300
22.415100 0.589800
