set title 'mp-1061054 - Density of States'
set xlabel 'Energy (eV)'
set ylabel 'DOS (states/eV)'
set grid
set xrange [-10:10]
set yrange [0:1.234]
set xzeroaxis lt -1
set terminal png size 800,600
set output 'mp-1061054_dos_gnuplot.png'
plot '-' using 1:2 with lines title 'DOS'
-20.771500 0.000000
-20.735900 0.000000
-20.700300 0.000000
-20.664800 0.000000
-20.629200 0.000000
-20.593700 0.000000
-20.558100 0.000000
-20.522500 0.000000
-20.487000 0.000000
-20.451400 0.000000
-20.415900 0.000000
-20.380300 0.000000
-20.344700 0.000000
-20.309200 0.000000
-20.273600 0.000000
-20.238100 0.000000
-20.202500 0.000000
-20.166900 0.000000
-20.131400 0.000000
-20.095800 0.000000
-20.060300 0.000000
-20.024700 0.000000
-19.989100 0.000000
-19.953600 0.000000
-19.918000 0.000000
-19.882500 0.000000
-19.846900 0.000000
-19.811300 0.000000
-19.775800 0.000000
-19.740200 0.000000
-19.704600 0.000000
-19.669100 0.000000
-19.633500 0.000000
-19.598000 0.000000
-19.562400 0.000000
-19.526800 0.000000
-19.491300 0.000000
-19.455700 0.000000
-19.420200 0.000000
-19.384600 0.000000
-19.349000 0.000000
-19.313500 0.000000
-19.277900 0.000000
-19.242400 0.000000
-19.206800 0.000000
-19.171200 0.000000
-19.135700 0.000000
-19.100100 0.000000
-19.064600 0.000000
-19.029000 0.000000
-18.993400 0.000000
-18.957900 0.000000
-18.922300 0.000000
-18.886800 0.000000
-18.851200 0.000000
-18.815600 0.000000
-18.780100 0.000000
-18.744500 0.000000
-18.709000 0.000000
-18.673400 0.000000
-18.637800 0.000000
-18.602300 0.000000
-18.566700 0.000000
-18.531200 0.000000
-18.495600 0.000000
-18.460000 0.000000
-18.424500 0.000000
-18.388900 0.000000
-18.353400 0.000000
-18.317800 0.000000
-18.282200 0.000000
-18.246700 0.000000
-18.211100 0.000000
-18.175600 0.000000
-18.140000 0.000000
-18.104400 0.000000
-18.068900 0.000000
-18.033300 0.000000
-17.997800 0.000000
-17.962200 0.000000
-17.926600 0.000000
-17.891100 0.000000
-17.855500 0.000000
-17.820000 0.000000
-17.784400 0.000000
-17.748800 0.000000
-17.713300 0.000000
-17.677700 0.000000
-17.642200 0.000000
-17.606600 0.000000
-17.571000 0.000000
-17.535500 1.748800
-17.499900 31.159800
-17.464400 84.211500
-17.428800 95.779000
-17.393200 76.883400
-17.357700 111.723300
-17.322100 155.487900
-17.286600 29.704800
-17.251000 18.840300
-17.215400 1.567100
-17.179900 0.000000
-17.144300 0.000000
-17.108800 0.000000
-17.073200 0.000000
-17.037600 0.000000
-17.002100 0.000000
-16.966500 0.000000
-16.931000 0.000000
-16.895400 0.000000
-16.859800 0.000000
-16.824300 0.000000
-16.788700 0.000000
-16.753200 0.000000
-16.717600 0.000000
-16.682000 0.000000
-16.646500 0.000000
-16.610900 0.000000
-16.575400 0.000000
-16.539800 0.000000
-16.504200 0.000000
-16.468700 0.000000
-16.433100 0.000000
-16.397600 0.000000
-16.362000 0.000000
-16.326400 0.000000
-16.290900 0.000000
-16.255300 0.000000
-16.219800 0.000000
-16.184200 0.000000
-16.148600 0.000000
-16.113100 0.000000
-16.077500 0.000000
-16.042000 0.000000
-16.006400 0.000000
-15.970800 0.000000
-15.935300 0.000000
-15.899700 0.000000
-15.864100 0.000000
-15.828600 0.000000
-15.793000 0.000000
-15.757500 0.000000
-15.721900 0.000000
-15.686300 0.000000
-15.650800 0.000000
-15.615200 0.000000
-15.579700 0.000000
-15.544100 0.000000
-15.508500 0.000000
-15.473000 0.000000
-15.437400 0.000000
-15.401900 0.000000
-15.366300 0.000000
-15.330700 0.000000
-15.295200 0.000000
-15.259600 0.000000
-15.224100 0.000000
-15.188500 0.000000
-15.152900 0.000000
-15.117400 0.000000
-15.081800 0.000000
-15.046300 0.000000
-15.010700 0.000000
-14.975100 0.000000
-14.939600 0.000000
-14.904000 0.000000
-14.868500 0.000000
-14.832900 0.000000
-14.797300 0.000000
-14.761800 0.000000
-14.726200 0.000000
-14.690700 0.000000
-14.655100 0.000000
-14.619500 0.000000
-14.584000 0.000000
-14.548400 0.000000
-14.512900 0.000000
-14.477300 0.000000
-14.441700 0.000000
-14.406200 0.000000
-14.370600 0.000000
-14.335100 0.000000
-14.299500 0.000000
-14.263900 0.000000
-14.228400 0.000000
-14.192800 0.000000
-14.157300 0.000000
-14.121700 0.000000
-14.086100 0.000000
-14.050600 0.000000
-14.015000 0.000000
-13.979500 0.000000
-13.943900 0.000000
-13.908300 0.000000
-13.872800 0.000000
-13.837200 0.000000
-13.801700 0.000000
-13.766100 0.000000
-13.730500 0.000000
-13.695000 0.000000
-13.659400 0.000000
-13.623900 0.000000
-13.588300 0.000000
-13.552700 0.000000
-13.517200 0.000000
-13.481600 0.000000
-13.446100 0.000000
-13.410500 0.000000
-13.374900 0.000000
-13.339400 0.000000
-13.303800 0.000000
-13.268300 0.000000
-13.232700 0.000000
-13.197100 0.000000
-13.161600 0.000000
-13.126000 0.000000
-13.090500 0.000000
-13.054900 0.000000
-13.019300 0.000000
-12.983800 0.000000
-12.948200 0.000000
-12.912700 0.000000
-12.877100 0.000000
-12.841500 0.000000
-12.806000 0.000000
-12.770400 0.000000
-12.734900 0.000000
-12.699300 0.000000
-12.663700 0.000000
-12.628200 0.000000
-12.592600 0.000000
-12.557100 0.000000
-12.521500 0.000000
-12.485900 0.000000
-12.450400 0.000000
-12.414800 0.000000
-12.379300 0.000000
-12.343700 0.000000
-12.308100 0.000000
-12.272600 0.000000
-12.237000 0.000000
-12.201500 0.000000
-12.165900 0.000000
-12.130300 0.000000
-12.094800 0.000000
-12.059200 0.000000
-12.023600 0.000000
-11.988100 0.000000
-11.952500 0.000000
-11.917000 0.000000
-11.881400 0.000000
-11.845800 0.000000
-11.810300 0.000000
-11.774700 0.000000
-11.739200 0.000000
-11.703600 0.000000
-11.668000 0.000000
-11.632500 0.000000
-11.596900 0.000000
-11.561400 0.000000
-11.525800 0.000000
-11.490200 0.000000
-11.454700 0.000000
-11.419100 0.000000
-11.383600 0.000000
-11.348000 0.000000
-11.312400 0.000000
-11.276900 0.000000
-11.241300 0.000000
-11.205800 0.000000
-11.170200 0.000000
-11.134600 0.000000
-11.099100 0.000000
-11.063500 0.000000
-11.028000 0.000000
-10.992400 0.000000
-10.956800 0.000000
-10.921300 0.000000
-10.885700 0.000000
-10.850200 0.000000
-10.814600 0.000000
-10.779000 0.000000
-10.743500 0.000000
-10.707900 0.000000
-10.672400 0.000000
-10.636800 0.000000
-10.601200 0.000000
-10.565700 0.000000
-10.530100 0.000000
-10.494600 0.000000
-10.459000 0.000000
-10.423400 0.000000
-10.387900 0.000000
-10.352300 0.000000
-10.316800 0.000000
-10.281200 0.000000
-10.245600 0.000000
-10.210100 0.000000
-10.174500 0.000000
-10.139000 0.000000
-10.103400 0.000000
-10.067800 0.000000
-10.032300 0.000000
-9.996700 0.000000
-9.961200 0.000000
-9.925600 0.000000
-9.890000 0.000000
-9.854500 0.000000
-9.818900 0.000000
-9.783400 0.000000
-9.747800 0.000000
-9.712200 0.000000
-9.676700 0.000000
-9.641100 0.000000
-9.605600 0.000000
-9.570000 0.000000
-9.534400 0.000000
-9.498900 0.000000
-9.463300 0.000000
-9.427800 0.000000
-9.392200 0.000000
-9.356600 0.000000
-9.321100 0.000000
-9.285500 0.000000
-9.250000 0.000000
-9.214400 0.000000
-9.178800 0.000000
-9.143300 0.000000
-9.107700 0.000000
-9.072200 0.000000
-9.036600 0.000000
-9.001000 0.000000
-8.965500 0.000000
-8.929900 0.000000
-8.894400 0.000000
-8.858800 0.000000
-8.823200 0.000000
-8.787700 0.000000
-8.752100 0.000000
-8.716600 0.000000
-8.681000 0.000000
-8.645400 0.000000
-8.609900 0.000000
-8.574300 0.000000
-8.538800 0.000000
-8.503200 0.000000
-8.467600 0.000000
-8.432100 0.000000
-8.396500 0.000000
-8.361000 0.000000
-8.325400 0.000000
-8.289800 0.000000
-8.254300 0.000000
-8.218700 0.000000
-8.183100 0.000000
-8.147600 0.000000
-8.112000 0.000000
-8.076500 0.000000
-8.040900 0.000000
-8.005300 0.000000
-7.969800 0.000000
-7.934200 0.000000
-7.898700 0.000000
-7.863100 0.000000
-7.827500 0.000000
-7.792000 0.000000
-7.756400 0.000000
-7.720900 0.000000
-7.685300 0.000000
-7.649700 0.000000
-7.614200 0.000000
-7.578600 0.000000
-7.543100 0.000000
-7.507500 0.000000
-7.471900 0.000000
-7.436400 0.000000
-7.400800 0.000000
-7.365300 0.000000
-7.329700 0.000000
-7.294100 0.000000
-7.258600 0.000000
-7.223000 0.000000
-7.187500 0.000000
-7.151900 0.000000
-7.116300 0.000000
-7.080800 0.000000
-7.045200 0.000000
-7.009700 0.000000
-6.974100 0.000000
-6.938500 0.000000
-6.903000 0.000000
-6.867400 0.000000
-6.831900 0.000000
-6.796300 0.000000
-6.760700 0.000000
-6.725200 0.000000
-6.689600 0.000000
-6.654100 0.000000
-6.618500 0.000000
-6.582900 0.000000
-6.547400 0.018500
-6.511800 0.040500
-6.476300 0.070800
-6.440700 0.095300
-6.405100 0.101200
-6.369600 0.107300
-6.334000 0.118300
-6.298500 0.132000
-6.262900 0.146600
-6.227300 0.156500
-6.191800 0.162000
-6.156200 0.167700
-6.120700 0.175100
-6.085100 0.182100
-6.049500 0.188900
-6.014000 0.195600
-5.978400 0.203000
-5.942900 0.210000
-5.907300 0.215900
-5.871700 0.221300
-5.836200 0.227100
-5.800600 0.233400
-5.765100 0.239600
-5.729500 0.244800
-5.693900 0.250000
-5.658400 0.255400
-5.622800 0.261200
-5.587300 0.267000
-5.551700 0.271800
-5.516100 0.275500
-5.480600 0.279500
-5.445000 0.283400
-5.409500 0.287500
-5.373900 0.292200
-5.338300 0.297100
-5.302800 0.301900
-5.267200 0.306700
-5.231700 0.311600
-5.196100 0.316700
-5.160500 0.322000
-5.125000 0.327400
-5.089400 0.332300
-5.053900 0.335900
-5.018300 0.339200
-4.982700 0.342400
-4.947200 0.345900
-4.911600 0.349400
-4.876100 0.353000
-4.840500 0.356600
-4.804900 0.360300
-4.769400 0.364000
-4.733800 0.367800
-4.698300 0.372000
-4.662700 0.376500
-4.627100 0.381300
-4.591600 0.385700
-4.556000 0.390000
-4.520500 0.394400
-4.484900 0.398200
-4.449300 0.401400
-4.413800 0.405100
-4.378200 0.409000
-4.342700 0.413200
-4.307100 0.418100
-4.271500 0.423500
-4.236000 0.429700
-4.200400 0.436600
-4.164800 0.444500
-4.129300 0.450700
-4.093700 0.456000
-4.058200 0.460100
-4.022600 0.463100
-3.987000 0.465000
-3.951500 0.466900
-3.915900 0.468800
-3.880400 0.470800
-3.844800 0.474600
-3.809200 0.503000
-3.773700 0.500800
-3.738100 0.479300
-3.702600 0.468100
-3.667000 0.462200
-3.631400 0.461800
-3.595900 0.464400
-3.560300 0.468400
-3.524800 0.474100
-3.489200 0.481600
-3.453600 0.490900
-3.418100 0.496400
-3.382500 0.499700
-3.347000 0.503400
-3.311400 0.506700
-3.275800 0.509800
-3.240300 0.513200
-3.204700 0.517500
-3.169200 0.521700
-3.133600 0.526900
-3.098000 0.533200
-3.062500 0.565700
-3.026900 0.575700
-2.991400 0.578700
-2.955800 0.585300
-2.920200 0.595700
-2.884700 0.594200
-2.849100 0.596500
-2.813600 0.604200
-2.778000 0.611400
-2.742400 0.613100
-2.706900 0.619100
-2.671300 0.626800
-2.635800 0.634300
-2.600200 0.641100
-2.564600 0.663300
-2.529100 0.653400
-2.493500 0.649400
-2.458000 0.649100
-2.422400 0.650200
-2.386800 0.662100
-2.351300 0.692700
-2.315700 0.700100
-2.280200 0.690000
-2.244600 0.683500
-2.209000 0.683500
-2.173500 0.688100
-2.137900 0.693700
-2.102400 0.699600
-2.066800 0.706500
-2.031200 0.714800
-1.995700 0.724200
-1.960100 0.734100
-1.924600 0.750400
-1.889000 0.768400
-1.853400 0.777100
-1.817900 0.796400
-1.782300 0.836100
-1.746800 0.862000
-1.711200 0.884000
-1.675600 0.903500
-1.640100 0.910100
-1.604500 0.899500
-1.569000 0.894100
-1.533400 0.887900
-1.497800 0.875500
-1.462300 0.852800
-1.426700 0.835400
-1.391200 0.821600
-1.355600 0.812500
-1.320000 0.812200
-1.284500 0.851000
-1.248900 0.858400
-1.213400 0.803700
-1.177800 0.780200
-1.142200 0.648600
-1.106700 0.578400
-1.071100 0.549200
-1.035600 0.525000
-1.000000 0.502100
-0.964400 0.480800
-0.928900 0.460300
-0.893300 0.445900
-0.857800 0.439900
-0.822200 0.431900
-0.786600 0.431000
-0.751100 0.430400
-0.715500 0.430200
-0.680000 0.430600
-0.644400 0.431200
-0.608800 0.433000
-0.573300 0.435900
-0.537700 0.441200
-0.502200 0.459300
-0.466600 0.463700
-0.431000 0.467300
-0.395500 0.477200
-0.359900 0.490900
-0.324300 0.508600
-0.288800 0.532800
-0.253200 0.577600
-0.217700 0.626600
-0.182100 0.643600
-0.146500 0.651700
-0.111000 0.651200
-0.075400 0.641300
-0.039900 0.608200
-0.004300 0.577800
0.031300 0.550900
0.066800 0.528000
0.102400 0.509800
0.137900 0.494800
0.173500 0.482600
0.209100 0.472500
0.244600 0.464600
0.280200 0.457900
0.315700 0.451900
0.351300 0.446200
0.386900 0.440900
0.422400 0.436100
0.458000 0.432000
0.493500 0.428300
0.529100 0.424100
0.564700 0.420400
0.600200 0.417700
0.635800 0.417000
0.671300 0.435300
0.706900 0.451500
0.742500 0.455200
0.778000 0.431800
0.813600 0.420700
0.849100 0.411700
0.884700 0.403400
0.920300 0.397900
0.955800 0.399400
0.991400 0.403400
1.026900 0.382200
1.062500 0.380200
1.098100 0.378800
1.133600 0.377500
1.169200 0.377100
1.204700 0.377300
1.240300 0.394200
1.275900 0.392100
1.311400 0.391700
1.347000 0.388000
1.382500 0.385600
1.418100 0.385700
1.453700 0.385500
1.489200 0.385600
1.524800 0.385900
1.560300 0.386100
1.595900 0.385800
1.631500 0.384600
1.667000 0.387200
1.702600 0.423800
1.738100 0.444100
1.773700 0.478300
1.809300 0.524000
1.844800 0.561200
1.880400 0.588700
1.915900 0.609400
1.951500 0.623000
1.987100 0.636600
2.022600 0.651000
2.058200 0.664100
2.093700 0.677000
2.129300 0.691000
2.164900 0.707300
2.200400 0.723500
2.236000 0.748200
2.271500 0.769800
2.307100 0.783600
2.342700 0.783200
2.378200 0.776400
2.413800 0.776100
2.449300 0.787200
2.484900 0.775800
2.520500 0.776800
2.556000 0.774600
2.591600 0.775900
2.627100 0.778100
2.662700 0.779000
2.698300 0.779000
2.733800 0.779800
2.769400 0.786000
2.804900 0.795100
2.840500 0.773300
2.876100 0.764200
2.911600 0.751200
2.947200 0.751700
2.982700 0.748500
3.018300 0.752700
3.053900 0.745900
3.089400 0.743800
3.125000 0.744200
3.160500 0.745600
3.196100 0.744000
3.231700 0.751400
3.267200 0.746000
3.302800 0.746300
3.338300 0.747700
3.373900 0.752500
3.409500 0.754600
3.445000 0.756200
3.480600 0.757600
3.516200 0.760600
3.551700 0.764300
3.587300 0.769300
3.622800 0.790000
3.658400 0.777400
3.694000 0.782700
3.729500 0.787600
3.765100 0.793300
3.800600 0.800900
3.836200 0.812800
3.871800 0.825600
3.907300 0.836500
3.942900 0.844500
3.978400 0.851600
4.014000 0.856400
4.049600 0.861300
4.085100 0.871700
4.120700 0.887700
4.156200 0.905500
4.191800 0.927800
4.227400 0.954600
4.262900 0.977700
4.298500 1.000800
4.334000 1.023700
4.369600 1.047400
4.405200 1.071000
4.440700 1.092400
4.476300 1.121600
4.511800 1.104000
4.547400 1.089800
4.583000 1.074400
4.618500 1.087900
4.654100 1.081300
4.689600 1.075500
4.725200 1.063400
4.760800 1.052000
4.796300 1.039400
4.831900 1.037500
4.867400 1.041900
4.903000 1.047500
4.938600 1.050100
4.974100 1.057100
5.009700 1.066900
5.045200 1.080400
5.080800 1.088900
5.116400 1.084500
5.151900 1.090300
5.187500 1.102900
5.223000 1.109900
5.258600 1.113100
5.294200 1.118600
5.329700 1.120500
5.365300 1.062600
5.400800 1.013700
5.436400 0.969900
5.472000 0.930800
5.507500 0.853100
5.543100 0.824400
5.578600 0.813900
5.614200 0.807200
5.649800 0.808300
5.685300 0.805300
5.720900 0.809300
5.756400 0.832200
5.792000 0.848500
5.827600 0.848300
5.863100 0.851800
5.898700 0.854000
5.934200 0.854900
5.969800 0.858100
6.005400 0.865500
6.040900 0.873400
6.076500 0.876900
6.112000 0.870300
6.147600 0.865100
6.183200 0.856500
6.218700 0.850600
6.254300 0.844300
6.289800 0.834900
6.325400 0.830600
6.361000 0.814500
6.396500 0.799000
6.432100 0.788500
6.467600 0.790000
6.503200 0.791700
6.538800 0.798200
6.574300 0.801200
6.609900 0.806800
6.645400 0.810200
6.681000 0.809000
6.716600 0.810600
6.752100 0.821200
6.787700 0.807200
6.823200 0.807000
6.858800 0.803400
6.894400 0.800800
6.929900 0.799800
6.965500 0.800700
7.001000 0.802400
7.036600 0.805900
7.072200 0.810800
7.107700 0.818700
7.143300 0.826900
7.178800 0.831900
7.214400 0.840800
7.250000 0.852500
7.285500 0.863000
7.321100 0.874100
7.356700 0.885400
7.392200 0.897100
7.427800 0.908300
7.463300 0.918600
7.498900 0.906300
7.534500 0.882200
7.570000 0.861400
7.605600 0.841500
7.641100 0.825100
7.676700 0.805700
7.712300 0.794800
7.747800 0.790900
7.783400 0.793000
7.818900 0.766700
7.854500 0.757900
7.890100 0.751600
7.925600 0.748000
7.961200 0.746900
7.996700 0.748400
8.032300 0.754300
8.067900 0.764200
8.103400 0.778600
8.139000 0.795400
8.174500 0.810700
8.210100 0.821100
8.245700 0.826100
8.281200 0.826500
8.316800 0.830100
8.352300 0.836500
8.387900 0.842600
8.423500 0.854400
8.459000 0.893500
8.494600 0.874400
8.530100 0.834400
8.565700 0.834800
8.601300 0.839900
8.636800 0.853500
8.672400 0.870900
8.707900 0.883000
8.743500 0.898100
8.779100 0.909500
8.814600 0.917000
8.850200 0.925100
8.885700 0.936700
8.921300 0.938900
8.956900 0.941700
8.992400 0.942400
9.028000 0.938700
9.063500 0.938100
9.099100 0.934200
9.134700 0.934400
9.170200 0.937600
9.205800 0.939600
9.241300 0.939600
9.276900 0.933700
9.312500 0.935500
9.348000 0.938100
9.383600 0.937600
9.419100 0.945800
9.454700 0.929800
9.490300 0.923200
9.525800 0.920200
9.561400 0.915800
9.596900 0.927300
9.632500 0.939900
9.668100 0.911800
9.703600 0.885300
9.739200 0.869700
9.774700 0.877600
9.810300 0.889300
9.845900 0.896100
9.881400 0.902600
9.917000 0.909900
9.952500 0.924200
9.988100 0.947300
10.023700 0.958800
10.059200 0.969600
10.094800 0.994700
10.130300 1.013100
10.165900 1.029300
10.201500 1.041300
10.237000 1.046000
10.272600 1.055500
10.308100 1.058800
10.343700 1.065100
10.379300 1.076600
10.414800 1.091100
10.450400 1.104900
10.485900 1.096300
10.521500 1.084100
10.557100 1.077200
10.592600 1.078200
10.628200 1.087500
10.663700 1.092200
10.699300 1.105000
10.734900 1.097900
10.770400 1.096300
10.806000 1.097000
10.841500 1.101300
10.877100 1.108900
10.912700 1.118500
10.948200 1.126700
10.983800 1.137700
11.019300 1.155400
11.054900 1.189300
11.090500 1.214300
11.126000 1.258100
11.161600 1.260200
11.197200 1.274000
11.232700 1.275100
11.268300 1.281300
11.303800 1.284700
11.339400 1.295000
11.375000 1.305300
11.410500 1.314900
11.446100 1.324100
11.481600 1.319400
11.517200 1.327200
11.552800 1.354700
11.588300 1.373200
11.623900 1.371500
11.659400 1.368400
11.695000 1.362100
11.730600 1.356300
11.766100 1.365700
11.801700 1.383500
11.837200 1.378300
11.872800 1.359700
11.908400 1.340900
11.943900 1.291300
11.979500 1.257300
12.015000 1.226600
12.050600 1.195000
12.086200 1.160600
12.121700 1.151200
12.157300 1.144800
12.192800 1.138900
12.228400 1.130200
12.264000 1.115200
12.299500 1.108000
12.335100 1.106400
12.370600 1.099200
12.406200 1.091000
12.441800 1.086400
12.477300 1.088400
12.512900 1.089900
12.548400 1.094600
12.584000 1.096600
12.619600 1.105700
12.655100 1.105800
12.690700 1.094600
12.726200 1.071800
12.761800 1.059600
12.797400 1.051000
12.832900 1.045200
12.868500 1.042100
12.904000 1.041400
12.939600 1.041500
12.975200 1.041600
13.010700 1.041000
13.046300 1.038700
13.081800 1.047700
13.117400 1.033900
13.153000 1.021800
13.188500 1.019800
13.224100 1.019300
13.259600 1.017100
13.295200 1.020700
13.330800 1.035200
13.366300 1.057300
13.401900 1.081800
13.437400 1.114600
13.473000 1.138900
13.508600 1.154000
13.544100 1.163000
13.579700 1.167600
13.615200 1.161700
13.650800 1.135900
13.686400 1.132400
13.721900 1.129400
13.757500 1.131300
13.793000 1.136400
13.828600 1.143400
13.864200 1.148200
13.899700 1.150600
13.935300 1.151500
13.970800 1.146200
14.006400 1.141100
14.042000 1.135700
14.077500 1.134200
14.113100 1.124600
14.148600 1.105700
14.184200 1.080400
14.219800 1.063300
14.255300 1.048900
14.290900 1.039200
14.326400 1.030300
14.362000 1.013300
14.397600 0.993600
14.433100 0.971800
14.468700 0.953600
14.504200 0.937500
14.539800 0.920400
14.575400 0.903600
14.610900 0.881600
14.646500 0.858800
14.682000 0.841300
14.717600 0.827100
14.753200 0.816700
14.788700 0.807300
14.824300 0.808500
14.859800 0.817700
14.895400 0.827800
14.931000 0.825600
14.966500 0.822500
15.002100 0.817700
15.037700 0.816200
15.073200 0.826500
15.108800 0.822100
15.144300 0.812100
15.179900 0.800100
15.215500 0.789200
15.251000 0.781200
15.286600 0.775100
15.322100 0.770600
15.357700 0.780300
15.393300 0.780100
15.428800 0.786200
15.464400 0.791000
15.499900 0.806600
15.535500 0.835200
15.571100 0.871000
15.606600 0.898000
15.642200 0.898700
15.677700 0.896000
15.713300 0.885800
15.748900 0.871900
15.784400 0.857500
15.820000 0.852200
15.855500 0.855200
15.891100 0.861800
15.926700 0.866400
15.962200 0.868600
15.997800 0.869800
16.033300 0.871900
