set title 'mp-157 - Density of States'
set xlabel 'Energy (eV)'
set ylabel 'DOS (states/eV)'
set grid
set xrange [-10:10]
set yrange [0:5.170]
set xzeroaxis lt -1
set terminal png size 800,600
set output 'mp-157_dos_gnuplot.png'
plot '-' using 1:2 with lines title 'DOS'
-11.347200 0.000000
-11.333300 0.000000
-11.319400 0.000000
-11.305500 0.000000
-11.291600 0.000000
-11.277700 0.000000
-11.263700 0.000000
-11.249800 0.000000
-11.235900 0.000000
-11.222000 0.000000
-11.208100 0.000000
-11.194200 0.000000
-11.180300 0.000000
-11.166300 0.000000
-11.152400 0.000000
-11.138500 0.000000
-11.124600 0.000000
-11.110700 0.000000
-11.096800 0.000000
-11.082900 0.000000
-11.068900 0.000000
-11.055000 0.000000
-11.041100 0.000000
-11.027200 0.000000
-11.013300 0.000000
-10.999400 0.000000
-10.985500 0.000000
-10.971500 0.000000
-10.957600 0.000000
-10.943700 0.000000
-10.929800 0.000000
-10.915900 0.000000
-10.902000 0.000000
-10.888100 0.000000
-10.874200 0.000000
-10.860200 0.000000
-10.846300 0.000000
-10.832400 0.000000
-10.818500 0.000000
-10.804600 0.000000
-10.790700 0.000000
-10.776800 0.000000
-10.762800 0.000000
-10.748900 0.000000
-10.735000 0.000000
-10.721100 0.000000
-10.707200 0.000000
-10.693300 0.000000
-10.679400 0.000000
-10.665400 0.000000
-10.651500 0.000000
-10.637600 0.000000
-10.623700 0.000000
-10.609800 0.000000
-10.595900 0.000000
-10.582000 0.000000
-10.568000 0.000000
-10.554100 0.000000
-10.540200 0.000000
-10.526300 0.000000
-10.512400 0.000000
-10.498500 0.000000
-10.484600 0.000000
-10.470600 0.000000
-10.456700 0.000000
-10.442800 0.000000
-10.428900 0.000000
-10.415000 0.000000
-10.401100 0.000000
-10.387200 0.000000
-10.373200 0.000000
-10.359300 0.000000
-10.345400 0.000000
-10.331500 0.000000
-10.317600 0.000000
-10.303700 0.000000
-10.289800 0.000000
-10.275800 0.000000
-10.261900 0.000000
-10.248000 0.000000
-10.234100 0.000000
-10.220200 0.000000
-10.206300 0.000000
-10.192400 0.000000
-10.178400 0.000000
-10.164500 0.000000
-10.150600 0.000000
-10.136700 0.000000
-10.122800 0.000000
-10.108900 0.000000
-10.095000 0.000000
-10.081000 0.000600
-10.067100 0.074500
-10.053200 0.210400
-10.039300 0.331800
-10.025400 0.390700
-10.011500 0.434500
-9.997600 0.504500
-9.983700 0.591100
-9.969700 0.724800
-9.955800 0.839600
-9.941900 0.856700
-9.928000 0.813600
-9.914100 0.794400
-9.900200 0.808900
-9.886300 0.821400
-9.872300 0.829700
-9.858400 0.830100
-9.844500 0.820500
-9.830600 0.810500
-9.816700 0.815300
-9.802800 0.825900
-9.788900 0.832800
-9.774900 0.836000
-9.761000 0.836500
-9.747100 0.835900
-9.733200 0.836100
-9.719300 0.835900
-9.705400 0.832100
-9.691500 0.828500
-9.677500 0.825100
-9.663600 0.823000
-9.649700 0.825000
-9.635800 0.829400
-9.621900 0.834500
-9.608000 0.840000
-9.594100 0.843500
-9.580100 0.846200
-9.566200 0.849600
-9.552300 0.853100
-9.538400 0.853500
-9.524500 0.851500
-9.510600 0.848500
-9.496700 0.846700
-9.482700 0.846500
-9.468800 0.846400
-9.454900 0.845400
-9.441000 0.843500
-9.427100 0.843600
-9.413200 0.846200
-9.399300 0.849100
-9.385300 0.852600
-9.371400 0.856300
-9.357500 0.860000
-9.343600 0.862200
-9.329700 0.863600
-9.315800 0.865100
-9.301900 0.866800
-9.287900 0.868200
-9.274000 0.868900
-9.260100 0.870000
-9.246200 0.870600
-9.232300 0.870900
-9.218400 0.871800
-9.204500 0.872900
-9.190500 0.873900
-9.176600 0.874600
-9.162700 0.874400
-9.148800 0.874000
-9.134900 0.874900
-9.121000 0.876700
-9.107100 0.878600
-9.093100 0.880700
-9.079200 0.883000
-9.065300 0.982100
-9.051400 1.070400
-9.037500 1.112900
-9.023600 1.079900
-9.009700 1.146600
-8.995800 1.070200
-8.981800 0.969200
-8.967900 0.915900
-8.954000 0.903000
-8.940100 0.881500
-8.926200 0.855600
-8.912300 0.835100
-8.898400 0.814500
-8.884400 0.782900
-8.870500 0.774900
-8.856600 0.766900
-8.842700 0.758800
-8.828800 0.750500
-8.814900 0.741800
-8.801000 0.732600
-8.787000 0.724400
-8.773100 0.709100
-8.759200 0.698100
-8.745300 0.820300
-8.731400 0.982400
-8.717500 1.194700
-8.703600 1.102500
-8.689600 1.011600
-8.675700 0.959600
-8.661800 0.970900
-8.647900 0.982200
-8.634000 0.993500
-8.620100 0.990200
-8.606200 0.977900
-8.592200 0.953800
-8.578300 0.959300
-8.564400 0.962900
-8.550500 0.965800
-8.536600 0.969900
-8.522700 0.974100
-8.508800 0.976800
-8.494800 0.983900
-8.480900 0.990100
-8.467000 0.993300
-8.453100 0.988000
-8.439200 0.983100
-8.425300 0.981000
-8.411400 0.986300
-8.397400 0.991700
-8.383500 0.996400
-8.369600 1.001000
-8.355700 1.005600
-8.341800 1.010300
-8.327900 1.015100
-8.314000 1.019900
-8.300000 1.024800
-8.286100 1.027500
-8.272200 1.030900
-8.258300 1.034600
-8.244400 1.033000
-8.230500 1.031900
-8.216600 1.031300
-8.202600 1.036000
-8.188700 1.040700
-8.174800 1.045400
-8.160900 1.050200
-8.147000 1.056600
-8.133100 1.065100
-8.119200 1.074400
-8.105300 1.083200
-8.091300 1.092700
-8.077400 1.101800
-8.063500 1.109900
-8.049600 1.117300
-8.035700 1.124700
-8.021800 1.131200
-8.007900 1.137100
-7.993900 1.142900
-7.980000 1.146300
-7.966100 1.147900
-7.952200 1.147800
-7.938300 1.151400
-7.924400 1.159600
-7.910500 1.170500
-7.896500 1.183000
-7.882600 1.194900
-7.868700 1.206800
-7.854800 1.218800
-7.840900 1.231300
-7.827000 1.244100
-7.813100 1.258300
-7.799100 1.272600
-7.785200 1.285700
-7.771300 1.304600
-7.757400 1.329800
-7.743500 1.354700
-7.729600 1.378200
-7.715700 1.402000
-7.701700 1.425200
-7.687800 1.471800
-7.673900 1.556100
-7.660000 1.613900
-7.646100 1.609200
-7.632200 1.592400
-7.618300 1.592800
-7.604300 1.595200
-7.590400 1.600700
-7.576500 1.605300
-7.562600 1.607300
-7.548700 1.602300
-7.534800 1.593600
-7.520900 1.612800
-7.506900 1.687600
-7.493000 1.807800
-7.479100 1.961400
-7.465200 1.929000
-7.451300 1.874600
-7.437400 1.800700
-7.423500 1.714900
-7.409500 1.621700
-7.395600 1.524600
-7.381700 1.460700
-7.367800 1.423700
-7.353900 1.397300
-7.340000 1.371900
-7.326100 1.342000
-7.312100 1.305600
-7.298200 1.270400
-7.284300 1.243400
-7.270400 1.226800
-7.256500 1.213200
-7.242600 1.201800
-7.228700 1.190700
-7.214700 1.179100
-7.200800 1.166300
-7.186900 1.147100
-7.173000 1.129000
-7.159100 1.112600
-7.145200 1.097000
-7.131300 1.081400
-7.117400 1.066700
-7.103400 1.054700
-7.089500 1.043700
-7.075600 1.032900
-7.061700 1.023300
-7.047800 1.018300
-7.033900 1.015300
-7.020000 1.021400
-7.006000 1.035800
-6.992100 1.046100
-6.978200 1.065200
-6.964300 1.192700
-6.950400 1.394000
-6.936500 2.065500
-6.922600 1.603200
-6.908600 1.457700
-6.894700 1.397800
-6.880800 1.392200
-6.866900 1.431800
-6.853000 1.484500
-6.839100 1.897800
-6.825200 2.234700
-6.811200 2.798500
-6.797300 1.872600
-6.783400 1.174300
-6.769500 1.146000
-6.755600 1.114300
-6.741700 1.081500
-6.727800 1.048300
-6.713800 1.015200
-6.699900 0.982000
-6.686000 0.949000
-6.672100 0.915900
-6.658200 0.882800
-6.644300 0.854300
-6.630400 0.832300
-6.616400 0.815900
-6.602500 0.799800
-6.588600 0.784000
-6.574700 0.768400
-6.560800 0.753400
-6.546900 0.743500
-6.533000 0.737700
-6.519000 0.725900
-6.505100 0.712700
-6.491200 0.706600
-6.477300 0.676000
-6.463400 0.644700
-6.449500 0.624100
-6.435600 0.612100
-6.421600 0.606200
-6.407700 0.601700
-6.393800 0.594100
-6.379900 0.580800
-6.366000 0.562000
-6.352100 0.536900
-6.338200 0.507100
-6.324200 0.479900
-6.310300 0.454700
-6.296400 0.431100
-6.282500 0.408800
-6.268600 0.387400
-6.254700 0.367500
-6.240800 0.349600
-6.226900 0.334300
-6.212900 0.319100
-6.199000 0.303800
-6.185100 0.288200
-6.171200 0.272500
-6.157300 0.256900
-6.143400 0.241300
-6.129500 0.225700
-6.115500 0.210100
-6.101600 0.194600
-6.087700 0.179300
-6.073800 0.164100
-6.059900 0.149000
-6.046000 0.134200
-6.032100 0.119700
-6.018100 0.105600
-6.004200 0.092100
-5.990300 0.081000
-5.976400 0.071400
-5.962500 0.062800
-5.948600 0.054800
-5.934700 0.047400
-5.920700 0.040700
-5.906800 0.034400
-5.892900 0.028700
-5.879000 0.023300
-5.865100 0.018400
-5.851200 0.013800
-5.837300 0.011000
-5.823300 0.012600
-5.809400 0.017100
-5.795500 0.023600
-5.781600 0.033000
-5.767700 0.044000
-5.753800 0.056100
-5.739900 0.068500
-5.725900 0.080900
-5.712000 0.093300
-5.698100 0.105600
-5.684200 0.118200
-5.670300 0.131000
-5.656400 0.143900
-5.642500 0.157100
-5.628500 0.170400
-5.614600 0.184000
-5.600700 0.197800
-5.586800 0.211900
-5.572900 0.226300
-5.559000 0.241000
-5.545100 0.256400
-5.531100 0.272100
-5.517200 0.287700
-5.503300 0.303300
-5.489400 0.315600
-5.475500 0.339100
-5.461600 0.365800
-5.447700 0.381100
-5.433700 0.393600
-5.419800 0.404300
-5.405900 0.415100
-5.392000 0.428400
-5.378100 0.442200
-5.364200 0.456800
-5.350300 0.472500
-5.336300 0.489300
-5.322400 0.506700
-5.308500 0.526600
-5.294600 0.547100
-5.280700 0.565900
-5.266800 0.581700
-5.252900 0.592500
-5.239000 0.600000
-5.225000 0.608200
-5.211100 0.618500
-5.197200 0.633300
-5.183300 0.649200
-5.169400 0.664700
-5.155500 0.679800
-5.141600 0.694500
-5.127600 0.709800
-5.113700 0.726700
-5.099800 0.744300
-5.085900 0.762900
-5.072000 0.782200
-5.058100 0.801900
-5.044200 0.822600
-5.030200 0.844600
-5.016300 0.868400
-5.002400 0.894300
-4.988500 0.923600
-4.974600 0.956900
-4.960700 1.041500
-4.946800 1.214200
-4.932800 1.407300
-4.918900 1.648300
-4.905000 1.922100
-4.891100 1.933600
-4.877200 2.050500
-4.863300 2.268600
-4.849400 1.666300
-4.835400 1.405300
-4.821500 1.252700
-4.807600 1.098100
-4.793700 1.017000
-4.779800 0.949200
-4.765900 0.891000
-4.752000 1.019200
-4.738000 0.988100
-4.724100 0.963600
-4.710200 0.939300
-4.696300 0.937200
-4.682400 0.936000
-4.668500 0.936100
-4.654600 0.937700
-4.640600 0.940800
-4.626700 0.943800
-4.612800 0.947200
-4.598900 0.950800
-4.585000 0.959200
-4.571100 0.967900
-4.557200 0.977100
-4.543200 0.986600
-4.529300 0.997000
-4.515400 1.016600
-4.501500 1.080000
-4.487600 1.125900
-4.473700 1.166100
-4.459800 1.201300
-4.445800 1.231100
-4.431900 1.250300
-4.418000 1.276500
-4.404100 1.306300
-4.390200 1.341800
-4.376300 1.384100
-4.362400 1.432200
-4.348500 1.481100
-4.334500 1.529100
-4.320600 1.617600
-4.306700 1.938200
-4.292800 2.198700
-4.278900 2.907700
-4.265000 3.253300
-4.251100 3.367300
-4.237100 3.420100
-4.223200 3.442100
-4.209300 3.807200
-4.195400 3.855100
-4.181500 4.129300
-4.167600 3.723100
-4.153700 2.812500
-4.139700 2.383700
-4.125800 1.955500
-4.111900 1.692100
-4.098000 1.493000
-4.084100 1.454100
-4.070200 1.420000
-4.056300 1.386000
-4.042300 1.351100
-4.028400 1.310900
-4.014500 1.272300
-4.000600 1.232400
-3.986700 1.203100
-3.972800 1.193300
-3.958900 1.184000
-3.944900 1.174000
-3.931000 1.164000
-3.917100 1.154800
-3.903200 1.145500
-3.889300 1.135600
-3.875400 1.158500
-3.861500 1.228700
-3.847500 1.215100
-3.833600 1.174800
-3.819700 1.160000
-3.805800 1.138300
-3.791900 1.119300
-3.778000 1.124400
-3.764100 1.114800
-3.750100 1.132900
-3.736200 1.120000
-3.722300 1.056000
-3.708400 0.970600
-3.694500 0.937400
-3.680600 0.912200
-3.666700 0.886300
-3.652700 0.860800
-3.638800 0.833100
-3.624900 0.810000
-3.611000 0.797400
-3.597100 0.784100
-3.583200 0.771100
-3.569300 0.757800
-3.555300 0.744900
-3.541400 0.738500
-3.527500 0.770000
-3.513600 0.852000
-3.499700 0.876100
-3.485800 0.848900
-3.471900 0.786100
-3.458000 0.790500
-3.444000 0.768500
-3.430100 0.761600
-3.416200 0.655000
-3.402300 0.620800
-3.388400 0.691300
-3.374500 0.734200
-3.360600 0.769000
-3.346600 0.745100
-3.332700 0.705400
-3.318800 0.705600
-3.304900 0.711300
-3.291000 0.715600
-3.277100 0.719900
-3.263200 0.720500
-3.249200 0.722800
-3.235300 0.730900
-3.221400 0.739400
-3.207500 0.748500
-3.193600 0.757900
-3.179700 0.767600
-3.165800 0.791100
-3.151800 0.820000
-3.137900 0.848000
-3.124000 0.886300
-3.110100 0.872300
-3.096200 0.841000
-3.082300 0.847800
-3.068400 0.837100
-3.054400 0.850400
-3.040500 0.835300
-3.026600 0.694100
-3.012700 0.690900
-2.998800 0.687700
-2.984900 0.684400
-2.971000 0.680900
-2.957000 0.677200
-2.943100 0.673100
-2.929200 0.668900
-2.915300 0.664500
-2.901400 0.660400
-2.887500 0.656300
-2.873600 0.652200
-2.859600 0.648000
-2.845700 0.644000
-2.831800 0.640200
-2.817900 0.636400
-2.804000 0.632400
-2.790100 0.628700
-2.776200 0.625400
-2.762200 0.622600
-2.748300 0.619800
-2.734400 0.617000
-2.720500 0.614200
-2.706600 0.611400
-2.692700 0.608500
-2.678800 0.605400
-2.664800 0.602700
-2.650900 0.600000
-2.637000 0.597400
-2.623100 0.594700
-2.609200 0.592200
-2.595300 0.590100
-2.581400 0.587900
-2.567400 0.585300
-2.553500 0.582700
-2.539600 0.580200
-2.525700 0.576200
-2.511800 0.570100
-2.497900 0.566400
-2.484000 0.563000
-2.470100 0.559800
-2.456100 0.556800
-2.442200 0.553700
-2.428300 0.550900
-2.414400 0.548300
-2.400500 0.546000
-2.386600 0.543700
-2.372700 0.541700
-2.358700 0.539800
-2.344800 0.537900
-2.330900 0.536000
-2.317000 0.534000
-2.303100 0.531900
-2.289200 0.529900
-2.275300 0.527700
-2.261300 0.525500
-2.247400 0.523300
-2.233500 0.520900
-2.219600 0.518400
-2.205700 0.515900
-2.191800 0.513300
-2.177900 0.510700
-2.163900 0.507900
-2.150000 0.505200
-2.136100 0.502400
-2.122200 0.499500
-2.108300 0.496600
-2.094400 0.493800
-2.080500 0.491400
-2.066500 0.489100
-2.052600 0.486900
-2.038700 0.484800
-2.024800 0.482900
-2.010900 0.481000
-1.997000 0.479000
-1.983100 0.477100
-1.969100 0.475100
-1.955200 0.473200
-1.941300 0.471200
-1.927400 0.469100
-1.913500 0.466900
-1.899600 0.464800
-1.885700 0.462800
-1.871700 0.460700
-1.857800 0.458600
-1.843900 0.456500
-1.830000 0.454500
-1.816100 0.452600
-1.802200 0.450700
-1.788300 0.448700
-1.774300 0.447000
-1.760400 0.445900
-1.746500 0.444800
-1.732600 0.442300
-1.718700 0.439500
-1.704800 0.438000
-1.690900 0.437600
-1.676900 0.436500
-1.663000 0.435300
-1.649100 0.434100
-1.635200 0.432900
-1.621300 0.431700
-1.607400 0.430500
-1.593500 0.429300
-1.579600 0.428100
-1.565600 0.426900
-1.551700 0.425700
-1.537800 0.424500
-1.523900 0.423300
-1.510000 0.422100
-1.496100 0.420900
-1.482200 0.419600
-1.468200 0.418100
-1.454300 0.416400
-1.440400 0.414400
-1.426500 0.412100
-1.412600 0.408200
-1.398700 0.401200
-1.384800 0.400100
-1.370800 0.402300
-1.356900 0.417300
-1.343000 0.423700
-1.329100 0.429400
-1.315200 0.434900
-1.301300 0.439200
-1.287400 0.442300
-1.273400 0.443900
-1.259500 0.442000
-1.245600 0.439100
-1.231700 0.436300
-1.217800 0.433400
-1.203900 0.430600
-1.190000 0.427800
-1.176000 0.425000
-1.162100 0.422200
-1.148200 0.419400
-1.134300 0.421600
-1.120400 0.510200
-1.106500 0.665600
-1.092600 0.790600
-1.078600 0.894500
-1.064700 0.925700
-1.050800 0.974200
-1.036900 1.023000
-1.023000 1.071800
-1.009100 1.142800
-0.995200 1.258900
-0.981200 1.285400
-0.967300 1.316400
-0.953400 1.340900
-0.939500 1.386000
-0.925600 1.422300
-0.911700 1.462800
-0.897800 1.506500
-0.883800 1.554400
-0.869900 1.633000
-0.856000 1.706600
-0.842100 1.756300
-0.828200 1.775900
-0.814300 1.781700
-0.800400 1.837300
-0.786400 1.838100
-0.772500 1.824300
-0.758600 1.801000
-0.744700 1.786100
-0.730800 1.778700
-0.716900 1.775300
-0.703000 1.768700
-0.689000 1.747300
-0.675100 1.723500
-0.661200 1.705900
-0.647300 1.695400
-0.633400 1.696600
-0.619500 1.711900
-0.605600 1.730800
-0.591700 1.752300
-0.577700 1.776400
-0.563800 1.816600
-0.549900 1.865600
-0.536000 1.923400
-0.522100 2.001900
-0.508200 2.105100
-0.494300 2.196300
-0.480300 2.287600
-0.466400 2.374500
-0.452500 2.454000
-0.438600 2.519600
-0.424700 2.331000
-0.410800 2.243400
-0.396900 2.184600
-0.382900 2.140100
-0.369000 2.114900
-0.355100 2.105200
-0.341200 2.104700
-0.327300 2.093400
-0.313400 2.082700
-0.299500 2.076200
-0.285500 2.075200
-0.271600 2.077600
-0.257700 2.080700
-0.243800 2.109900
-0.229900 2.153800
-0.216000 2.148500
-0.202100 2.132000
-0.188100 2.154500
-0.174200 2.199700
-0.160300 2.267400
-0.146400 2.388500
-0.132500 2.559900
-0.118600 2.720400
-0.104700 2.829300
-0.090700 2.952100
-0.076800 3.073000
-0.062900 3.191600
-0.049000 3.342600
-0.035100 3.511100
-0.021200 3.559500
-0.007300 3.424300
0.006700 3.160300
0.020600 3.104000
0.034500 3.196200
0.048400 3.321900
0.062300 3.223300
0.076200 3.183000
0.090100 3.184600
0.104100 3.279800
0.118000 3.014400
0.131900 2.866700
0.145800 2.848000
0.159700 2.768600
0.173600 2.724500
0.187500 2.436800
0.201500 2.335200
0.215400 2.258600
0.229300 2.203300
0.243200 2.243000
0.257100 2.260400
0.271000 2.243500
0.284900 2.383300
0.298800 2.219000
0.312800 2.129100
0.326700 1.936400
0.340600 1.663200
0.354500 1.566700
0.368400 1.532400
0.382300 1.501100
0.396200 1.471900
0.410200 1.455200
0.424100 1.430500
0.438000 1.399100
0.451900 1.370600
0.465800 1.357200
0.479700 1.346300
0.493600 1.358800
0.507600 1.356700
0.521500 1.356700
0.535400 1.340700
0.549300 1.340200
0.563200 1.348300
0.577100 1.363300
0.591000 1.452100
0.605000 1.434700
0.618900 1.414900
0.632800 1.415000
0.646700 1.429000
0.660600 1.455400
0.674500 1.494300
0.688400 1.547100
0.702400 1.611900
0.716300 1.636400
0.730200 1.628000
0.744100 1.615300
0.758000 1.597700
0.771900 1.574900
0.785800 1.530900
0.799800 1.448400
0.813700 1.442600
0.827600 1.444000
0.841500 1.453100
0.855400 1.465200
0.869300 1.479100
0.883200 1.491700
0.897200 1.507200
0.911100 1.530600
0.925000 1.561300
0.938900 1.574900
0.952800 1.584200
0.966700 1.593100
0.980600 1.601300
0.994600 1.612000
1.008500 1.622200
1.022400 1.632200
1.036300 1.642300
1.050200 1.652900
1.064100 1.663800
1.078000 1.690000
1.092000 1.716800
1.105900 1.737300
1.119800 1.756300
1.133700 1.770300
1.147600 1.794300
1.161500 1.862900
1.175400 1.890500
1.189400 1.942900
1.203300 1.986300
1.217200 2.054000
1.231100 2.152600
1.245000 2.212400
1.258900 2.242300
1.272800 2.241600
1.286700 2.258700
1.300700 2.287600
1.314600 2.341800
1.328500 2.424200
1.342400 2.476400
1.356300 2.508100
1.370200 2.565600
1.384100 2.650100
1.398100 2.747300
1.412000 2.837400
1.425900 2.928400
1.439800 2.999700
1.453700 3.055300
1.467600 3.055100
1.481500 3.079600
1.495500 3.120400
1.509400 3.159800
1.523300 3.168800
1.537200 3.146700
1.551100 3.161300
1.565000 3.203200
1.578900 3.048800
1.592900 2.877200
1.606800 2.691900
1.620700 2.556100
1.634600 2.494600
1.648500 2.426700
1.662400 2.368000
1.676300 2.341400
1.690300 2.458800
1.704200 2.661400
1.718100 2.772300
1.732000 2.775400
1.745900 2.774500
1.759800 2.789600
1.773700 2.807800
1.787700 2.855500
1.801600 2.992100
1.815500 3.146900
1.829400 3.265600
1.843300 3.349600
1.857200 3.451500
1.871100 3.528600
1.885100 3.579900
1.899000 3.584600
1.912900 3.516100
1.926800 3.472100
1.940700 3.484200
1.954600 3.475000
1.968500 3.484600
1.982500 3.403700
1.996400 3.401500
2.010300 3.462600
2.024200 3.337300
2.038100 3.087100
2.052000 2.924400
2.065900 2.796700
2.079900 2.682500
2.093800 2.573900
2.107700 2.460400
2.121600 2.348700
2.135500 2.260900
2.149400 2.196100
2.163300 2.157100
2.177200 2.141800
2.191200 2.119900
2.205100 2.081300
2.219000 2.070800
2.232900 2.029800
2.246800 1.963100
2.260700 1.872700
2.274600 1.799400
2.288600 1.730100
2.302500 1.664100
2.316400 1.596600
2.330300 1.554300
2.344200 1.520200
2.358100 1.490200
2.372000 1.460900
2.386000 1.444000
2.399900 1.435200
2.413800 1.428000
2.427700 1.418100
2.441600 1.408500
2.455500 1.575100
2.469400 1.348500
2.483400 1.322200
2.497300 1.298500
2.511200 1.198900
2.525100 1.201500
2.539000 1.210700
2.552900 1.229900
2.566800 1.264900
2.580800 1.323800
2.594700 1.417800
2.608600 1.511400
2.622500 1.577800
2.636400 1.624500
2.650300 1.619000
2.664200 1.649000
2.678200 1.636200
2.692100 1.629900
2.706000 1.641000
2.719900 1.640200
2.733800 1.651200
2.747700 1.665800
2.761600 1.678000
2.775600 1.693600
2.789500 1.714300
2.803400 1.748400
2.817300 1.819100
2.831200 1.860700
2.845100 2.017800
2.859000 1.793700
2.873000 1.808700
2.886900 1.819900
2.900800 1.845600
2.914700 1.864100
2.928600 1.887200
2.942500 1.946300
2.956400 1.957800
2.970400 1.965700
2.984300 2.024100
2.998200 2.065700
3.012100 2.077100
3.026000 2.081900
3.039900 2.086400
3.053800 2.094200
3.067800 2.128600
3.081700 2.136400
3.095600 2.156600
3.109500 2.184400
3.123400 2.164300
3.137300 2.180200
3.151200 2.196000
3.165100 2.200300
3.179100 2.225400
