set title 'mp-611448 - Density of States'
set xlabel 'Energy (eV)'
set ylabel 'DOS (states/eV)'
set grid
set xrange [-10:10]
set yrange [0:6.125]
set xzeroaxis lt -1
set terminal png size 800,600
set output 'mp-611448_dos_gnuplot.png'
plot '-' using 1:2 with lines title 'DOS'
-14.215900 0.000000
-14.188600 0.000000
-14.161400 0.000000
-14.134100 0.000000
-14.106800 0.000000
-14.079500 0.000000
-14.052200 0.000000
-14.024900 0.000000
-13.997600 0.000000
-13.970400 0.000000
-13.943100 0.000000
-13.915800 0.000000
-13.888500 0.000000
-13.861200 0.000000
-13.833900 0.000000
-13.806600 0.000000
-13.779400 0.000000
-13.752100 0.000000
-13.724800 0.000000
-13.697500 0.000000
-13.670200 0.000000
-13.642900 0.000000
-13.615600 0.000000
-13.588300 0.000000
-13.561100 0.000000
-13.533800 0.000000
-13.506500 0.000000
-13.479200 0.000000
-13.451900 0.000000
-13.424600 0.000000
-13.397300 0.000000
-13.370100 0.000000
-13.342800 0.000000
-13.315500 0.000000
-13.288200 0.000000
-13.260900 0.000000
-13.233600 0.000000
-13.206300 0.000000
-13.179100 0.000000
-13.151800 0.000000
-13.124500 0.000000
-13.097200 0.000000
-13.069900 0.000000
-13.042600 0.000000
-13.015300 0.000000
-12.988100 0.000000
-12.960800 0.000000
-12.933500 0.000000
-12.906200 0.000000
-12.878900 0.000000
-12.851600 0.000000
-12.824300 0.000000
-12.797100 0.000000
-12.769800 0.000000
-12.742500 0.000000
-12.715200 0.000000
-12.687900 0.000000
-12.660600 0.000000
-12.633300 0.000000
-12.606100 0.000000
-12.578800 0.000000
-12.551500 0.000000
-12.524200 0.000000
-12.496900 0.000000
-12.469600 0.000000
-12.442300 0.000000
-12.415100 0.000000
-12.387800 0.000000
-12.360500 0.000000
-12.333200 0.000000
-12.305900 0.000000
-12.278600 0.000000
-12.251300 0.000000
-12.224100 0.000000
-12.196800 0.000000
-12.169500 0.000000
-12.142200 0.000000
-12.114900 0.000000
-12.087600 0.000000
-12.060300 0.000000
-12.033100 0.000000
-12.005800 0.000000
-11.978500 0.000000
-11.951200 0.000000
-11.923900 0.000000
-11.896600 0.000000
-11.869300 0.000000
-11.842100 0.000000
-11.814800 0.000000
-11.787500 0.000000
-11.760200 0.000000
-11.732900 0.000000
-11.705600 0.006700
-11.678300 0.024500
-11.651100 0.053600
-11.623800 0.093800
-11.596500 0.145300
-11.569200 0.208000
-11.541900 0.249400
-11.514600 0.281300
-11.487300 0.306900
-11.460100 0.326100
-11.432800 0.339100
-11.405500 0.345800
-11.378200 0.346100
-11.350900 0.362900
-11.323600 0.382500
-11.296300 0.402500
-11.269100 0.422800
-11.241800 0.443400
-11.214500 0.464200
-11.187200 0.483700
-11.159900 0.501500
-11.132600 0.517500
-11.105300 0.531700
-11.078100 0.544200
-11.050800 0.554900
-11.023500 0.564900
-10.996200 0.575100
-10.968900 0.582600
-10.941600 0.587300
-10.914300 0.590200
-10.887000 0.592600
-10.859800 0.594400
-10.832500 0.599800
-10.805200 0.614600
-10.777900 0.631600
-10.750600 0.644000
-10.723300 0.655000
-10.696000 0.666000
-10.668800 0.677000
-10.641500 0.687900
-10.614200 0.698900
-10.586900 0.709800
-10.559600 0.720700
-10.532300 0.729800
-10.505000 0.736800
-10.477800 0.743800
-10.450500 0.751200
-10.423200 0.758800
-10.395900 0.766500
-10.368600 0.774000
-10.341300 0.783000
-10.314000 0.792600
-10.286800 0.801900
-10.259500 0.810800
-10.232200 0.819600
-10.204900 0.828300
-10.177600 0.837100
-10.150300 0.846000
-10.123000 0.855200
-10.095800 0.864500
-10.068500 0.874000
-10.041200 0.883600
-10.013900 0.893100
-9.986600 0.901900
-9.959300 0.910100
-9.932000 0.917600
-9.904800 0.924500
-9.877500 0.930600
-9.850200 0.938000
-9.822900 0.946100
-9.795600 0.955200
-9.768300 0.964300
-9.741000 0.973000
-9.713800 0.981500
-9.686500 0.989900
-9.659200 0.997700
-9.631900 1.005000
-9.604600 1.011700
-9.577300 1.017900
-9.550000 1.023500
-9.522800 1.028700
-9.495500 1.034000
-9.468200 1.039700
-9.440900 1.045700
-9.413600 1.052100
-9.386300 1.058700
-9.359000 1.065700
-9.331800 1.072900
-9.304500 1.080000
-9.277200 1.087100
-9.249900 1.094200
-9.222600 1.101200
-9.195300 1.108200
-9.168000 1.115200
-9.140800 1.122200
-9.113500 1.129100
-9.086200 1.136100
-9.058900 1.142900
-9.031600 1.149800
-9.004300 1.156700
-8.977000 1.163800
-8.949800 1.171000
-8.922500 1.178600
-8.895200 1.186400
-8.867900 1.194400
-8.840600 1.202700
-8.813300 1.211000
-8.786000 1.219200
-8.758800 1.226700
-8.731500 1.232400
-8.704200 1.236900
-8.676900 1.241100
-8.649600 1.245100
-8.622300 1.248800
-8.595000 1.257600
-8.567800 1.268500
-8.540500 1.275600
-8.513200 1.281700
-8.485900 1.287600
-8.458600 1.293400
-8.431300 1.299100
-8.404000 1.304500
-8.376800 1.309900
-8.349500 1.315800
-8.322200 1.321600
-8.294900 1.327400
-8.267600 1.333200
-8.240300 1.339300
-8.213000 1.345600
-8.185800 1.352000
-8.158500 1.358600
-8.131200 1.365300
-8.103900 1.372000
-8.076600 1.378700
-8.049300 1.385300
-8.022000 1.391900
-7.994700 1.398700
-7.967500 1.405600
-7.940200 1.412500
-7.912900 1.419500
-7.885600 1.426600
-7.858300 1.433700
-7.831000 1.441200
-7.803700 1.448800
-7.776500 1.456300
-7.749200 1.463800
-7.721900 1.471300
-7.694600 1.478900
-7.667300 1.486500
-7.640000 1.494200
-7.612700 1.502400
-7.585500 1.510800
-7.558200 1.519000
-7.530900 1.527300
-7.503600 1.535900
-7.476300 1.544600
-7.449000 1.553400
-7.421700 1.562400
-7.394500 1.571600
-7.367200 1.580900
-7.339900 1.590200
-7.312600 1.599700
-7.285300 1.609300
-7.258000 1.618900
-7.230700 1.628400
-7.203500 1.638000
-7.176200 1.647800
-7.148900 1.658200
-7.121600 1.669200
-7.094300 1.681000
-7.067000 1.693900
-7.039700 1.707400
-7.012500 1.720300
-6.985200 1.733800
-6.957900 1.747700
-6.930600 1.762100
-6.903300 1.777100
-6.876000 1.792600
-6.848700 1.808400
-6.821500 1.824800
-6.794200 1.841600
-6.766900 1.859000
-6.739600 1.876800
-6.712300 1.911900
-6.685000 1.974600
-6.657700 2.033300
-6.630500 2.087800
-6.603200 2.138300
-6.575900 2.184700
-6.548600 2.215000
-6.521300 2.229500
-6.494000 2.241300
-6.466700 2.250400
-6.439500 2.256700
-6.412200 2.259800
-6.384900 2.259800
-6.357600 2.256600
-6.330300 2.250100
-6.303000 2.240500
-6.275700 2.227700
-6.248500 2.211900
-6.221200 2.199300
-6.193900 2.192500
-6.166600 2.205900
-6.139300 2.281300
-6.112000 2.035600
-6.084700 2.021100
-6.057500 2.025700
-6.030200 2.046500
-6.002900 2.062700
-5.975600 2.074200
-5.948300 2.081100
-5.921000 2.083300
-5.893700 2.085100
-5.866500 2.086900
-5.839200 2.086300
-5.811900 2.145800
-5.784600 2.408700
-5.757300 2.368700
-5.730000 2.341600
-5.702700 2.313600
-5.675500 2.265100
-5.648200 2.087000
-5.620900 2.075800
-5.593600 2.068000
-5.566300 2.060800
-5.539000 2.054400
-5.511700 2.048600
-5.484500 2.043300
-5.457200 2.038600
-5.429900 2.033500
-5.402600 2.038100
-5.375300 2.044400
-5.348000 2.044000
-5.320700 2.037000
-5.293500 2.023200
-5.266200 2.002800
-5.238900 1.985800
-5.211600 1.999500
-5.184300 2.039700
-5.157000 2.009300
-5.129700 1.967500
-5.102400 1.934000
-5.075200 1.904600
-5.047900 1.868900
-5.020600 1.825500
-4.993300 1.782000
-4.966000 1.743000
-4.938700 1.708600
-4.911400 1.680400
-4.884200 1.658900
-4.856900 1.644000
-4.829600 1.625600
-4.802300 1.592900
-4.775000 1.564100
-4.747700 1.538300
-4.720400 1.515500
-4.693200 1.496300
-4.665900 1.480800
-4.638600 1.469100
-4.611300 1.461200
-4.584000 1.484000
-4.556700 1.498600
-4.529400 1.509900
-4.502200 1.575200
-4.474900 1.649400
-4.447600 1.698000
-4.420300 1.721100
-4.393000 1.720700
-4.365700 1.713800
-4.338400 1.704300
-4.311200 1.692200
-4.283900 1.677600
-4.256600 1.660300
-4.229300 1.641600
-4.202000 1.627800
-4.174700 1.620500
-4.147400 1.650000
-4.120200 1.742800
-4.092900 1.672100
-4.065600 1.527100
-4.038300 1.564400
-4.011000 1.629600
-3.983700 1.692200
-3.956400 1.752100
-3.929200 1.809500
-3.901900 1.864100
-3.874600 1.916200
-3.847300 1.965500
-3.820000 2.045800
-3.792700 2.047700
-3.765400 2.054700
-3.738200 2.066700
-3.710900 2.076800
-3.683600 2.067100
-3.656300 2.036500
-3.629000 1.985200
-3.601700 1.914700
-3.574400 1.825500
-3.547200 1.735500
-3.519900 1.634300
-3.492600 1.554000
-3.465300 1.481200
-3.438000 1.392800
-3.410700 1.290100
-3.383400 1.177300
-3.356200 1.046900
-3.328900 0.993300
-3.301600 0.974300
-3.274300 0.960300
-3.247000 0.950100
-3.219700 0.943900
-3.192400 0.941900
-3.165200 0.944000
-3.137900 0.950000
-3.110600 0.982500
-3.083300 1.031200
-3.056000 1.086700
-3.028700 1.225700
-3.001400 1.377300
-2.974200 1.513000
-2.946900 1.623400
-2.919600 1.691900
-2.892300 1.668300
-2.865000 1.576200
-2.837700 1.513900
-2.810400 1.505600
-2.783200 1.497000
-2.755900 1.488000
-2.728600 1.478700
-2.701300 1.469000
-2.674000 1.423200
-2.646700 1.395200
-2.619400 1.389500
-2.592200 1.405800
-2.564900 1.430400
-2.537600 1.456600
-2.510300 1.484500
-2.483000 1.523400
-2.455700 1.655500
-2.428400 1.881100
-2.401200 1.984700
-2.373900 2.104700
-2.346600 2.220700
-2.319300 2.309900
-2.292000 2.372000
-2.264700 2.407200
-2.237400 2.413400
-2.210100 2.393300
-2.182900 2.390300
-2.155600 3.795100
-2.128300 3.165500
-2.101000 2.712900
-2.073700 2.404200
-2.046400 2.220600
-2.019100 2.169400
-1.991900 2.246300
-1.964600 2.375800
-1.937300 2.520400
-1.910000 2.685500
-1.882700 2.847100
-1.855400 2.957100
-1.828100 3.072300
-1.800900 3.138100
-1.773600 3.161700
-1.746300 3.178900
-1.719000 3.189900
-1.691700 3.226900
-1.664400 3.423000
-1.637100 3.792100
-1.609900 3.643300
-1.582600 3.534700
-1.555300 3.601300
-1.528000 3.461200
-1.500700 3.330400
-1.473400 3.204100
-1.446100 3.082200
-1.418900 2.964700
-1.391600 2.851600
-1.364300 2.742800
-1.337000 2.519300
-1.309700 2.294000
-1.282400 2.156200
-1.255100 2.090200
-1.227900 2.033100
-1.200600 1.978100
-1.173300 1.927500
-1.146000 1.886500
-1.118700 1.858600
-1.091400 1.856500
-1.064100 1.883100
-1.036900 1.936400
-1.009600 2.009900
-0.982300 2.094600
-0.955000 2.171000
-0.927700 2.236700
-0.900400 2.291100
-0.873100 2.337300
-0.845900 2.376200
-0.818600 2.407700
-0.791300 2.431300
-0.764000 2.447500
-0.736700 2.464500
-0.709400 2.471000
-0.682100 2.471100
-0.654900 2.464900
-0.627600 2.452300
-0.600300 2.433600
-0.573000 2.399300
-0.545700 2.335300
-0.518400 2.264600
-0.491100 2.226000
-0.463900 2.184900
-0.436600 2.141000
-0.409300 2.114200
-0.382000 2.109300
-0.354700 2.104200
-0.327400 2.099100
-0.300100 2.093800
-0.272900 2.088300
-0.245600 2.081900
-0.218300 2.074800
-0.191000 2.067700
-0.163700 2.060500
-0.136400 2.053200
-0.109100 2.045300
-0.081900 2.034000
-0.054600 2.019000
-0.027300 2.000600
0.000000 1.983100
0.027300 1.967000
0.054600 1.952500
0.081900 1.953200
0.109100 1.968500
0.136400 1.989000
0.163700 2.014600
0.191000 2.045300
0.218300 2.081000
0.245600 2.098300
0.272900 2.114400
0.300100 2.130300
0.327400 2.146300
0.354700 2.163100
0.382000 2.181700
0.409300 2.208400
0.436600 2.261600
0.463900 2.329200
0.491200 2.526000
0.518400 2.556800
0.545700 2.543300
0.573000 2.486200
0.600300 2.384800
0.627600 2.273400
0.654900 2.286300
0.682200 2.298600
0.709400 2.312500
0.736700 2.331000
0.764000 2.354100
0.791300 2.380700
0.818600 2.404900
0.845900 2.425700
0.873200 2.443300
0.900400 2.457700
0.927700 2.468200
0.955000 2.473000
0.982300 2.473000
1.009600 2.453700
1.036900 2.463500
1.064200 2.473100
1.091400 2.438600
1.118700 2.410300
1.146000 2.384800
1.173300 2.354100
1.200600 2.340200
1.227900 2.343500
1.255200 2.366000
1.282400 2.407800
1.309700 2.476600
1.337000 2.573100
1.364300 2.711600
1.391600 2.826900
1.418900 2.866400
1.446200 2.925700
1.473400 2.988100
1.500700 3.053700
1.528000 3.122400
1.555300 3.194300
1.582600 3.269000
1.609900 3.345100
1.637200 3.378900
1.664400 3.374500
1.691700 3.421900
1.719000 3.526100
1.746300 3.597900
1.773600 3.629900
1.800900 3.627600
1.828200 3.623400
1.855400 3.621400
1.882700 3.613600
1.910000 3.600600
1.937300 3.582800
1.964600 3.560100
1.991900 3.539700
2.019200 3.522600
2.046400 3.504900
2.073700 3.486500
2.101000 3.467700
2.128300 3.448300
2.155600 3.429200
2.182900 3.413000
2.210200 3.399700
2.237400 3.393400
2.264700 3.391400
2.292000 3.414900
2.319300 3.467800
2.346600 3.547100
2.373900 3.517200
2.401200 3.472100
2.428400 3.383500
2.455700 3.316400
2.483000 3.305400
2.510300 3.298700
2.537600 3.345000
2.564900 3.359700
2.592200 3.352800
2.619400 3.350400
2.646700 3.354100
2.674000 3.365600
2.701300 3.384900
2.728600 3.411700
2.755900 3.430700
2.783200 3.294600
2.810400 3.285500
2.837700 3.283000
2.865000 3.296700
2.892300 3.332200
2.919600 3.337900
2.946900 3.345600
2.974200 3.343400
3.001400 3.344400
3.028700 3.348100
3.056000 3.351100
3.083300 3.354100
3.110600 3.363000
3.137900 3.386200
3.165200 3.424200
3.192400 3.473600
3.219700 3.534400
3.247000 3.606700
3.274300 3.690300
3.301600 3.770800
3.328900 3.823000
3.356200 3.880200
3.383500 4.596300
3.410700 5.247500
3.438000 5.528600
3.465300 5.568300
3.492600 5.552400
3.519900 5.492100
3.547200 5.446700
3.574500 5.010700
3.601700 4.939800
3.629000 5.347700
3.656300 4.950300
3.683600 4.796400
3.710900 4.657600
3.738200 4.533200
3.765500 4.432300
3.792700 4.361800
3.820000 4.311700
3.847300 4.280200
3.874600 4.254300
3.901900 4.234000
3.929200 4.215400
3.956500 4.193500
3.983700 4.168100
4.011000 4.135900
4.038300 4.096100
4.065600 4.048800
4.092900 4.001300
4.120200 3.956000
4.147500 3.897900
4.174700 3.893700
4.202000 3.917100
4.229300 3.923200
4.256600 3.931700
4.283900 3.937300
4.311200 3.954800
4.338500 3.985600
4.365700 4.025800
4.393000 4.062300
4.420300 4.053200
4.447600 4.042700
4.474900 4.035700
4.502200 4.035600
4.529500 4.071200
4.556700 4.254700
4.584000 4.540400
4.611300 4.802500
4.638600 5.154900
4.665900 5.537800
4.693200 5.520700
4.720500 5.344300
4.747700 5.255200
4.775000 5.135600
4.802300 5.006600
4.829600 4.880100
4.856900 4.773300
4.884200 4.678800
4.911500 4.595700
4.938700 4.527600
4.966000 4.475500
4.993300 4.445400
5.020600 4.436500
5.047900 4.244300
5.075200 4.171100
5.102500 4.134000
5.129700 4.141500
5.157000 4.171600
5.184300 4.216900
5.211600 4.301300
5.238900 4.415700
5.266200 4.370500
5.293500 4.322200
5.320700 4.272000
5.348000 4.220000
5.375300 4.166100
5.402600 4.129900
5.429900 4.135800
5.457200 4.148600
5.484500 4.166800
5.511700 4.190500
5.539000 4.221000
5.566300 4.270100
5.593600 4.333900
5.620900 4.393700
5.648200 4.463200
5.675500 4.566300
5.702700 4.667400
5.730000 4.776400
5.757300 4.893000
5.784600 4.991600
5.811900 5.064800
5.839200 5.113700
5.866500 5.131100
5.893700 5.224800
5.921000 5.137400
5.948300 4.987500
5.975600 4.854700
6.002900 4.736200
6.030200 4.632600
6.057500 4.555300
6.084700 4.474300
6.112000 4.382400
6.139300 4.355200
6.166600 4.461800
6.193900 4.437400
6.221200 4.414600
6.248500 4.396200
6.275800 4.379600
6.303000 4.360100
6.330300 4.398600
6.357600 4.417900
6.384900 4.371700
6.412200 4.285400
6.439500 4.226500
6.466800 4.172200
6.494000 4.110600
6.521300 4.054700
6.548600 3.985000
6.575900 3.929900
6.603200 3.878500
6.630500 3.829900
6.657800 3.735800
6.685000 3.635500
6.712300 3.546200
6.739600 3.461700
6.766900 3.378400
6.794200 3.284500
6.821500 3.188700
6.848800 3.094300
6.876000 3.003700
6.903300 2.920700
6.930600 2.844900
6.957900 2.776200
6.985200 2.714300
7.012500 2.658900
7.039800 2.608700
7.067000 2.571400
7.094300 2.533400
7.121600 2.491800
7.148900 2.448200
7.176200 2.402500
7.203500 2.351200
7.230800 2.298800
7.258000 2.257600
7.285300 2.224900
7.312600 2.182900
7.339900 2.144200
7.367200 2.108900
7.394500 2.077800
7.421800 2.051200
7.449000 2.026300
7.476300 2.000100
7.503600 1.972400
7.530900 1.943200
7.558200 1.913400
7.585500 1.883900
7.612800 1.854900
7.640000 1.826300
7.667300 1.798100
7.694600 1.774000
7.721900 1.751400
7.749200 1.727500
7.776500 1.701900
7.803800 1.673700
7.831000 1.642800
7.858300 1.609400
7.885600 1.575500
7.912900 1.542400
7.940200 1.493200
7.967500 1.452300
7.994800 1.428600
8.022000 1.412400
8.049300 1.399900
8.076600 1.389300
8.103900 1.379400
8.131200 1.367800
8.158500 1.354500
8.185800 1.339500
8.213000 1.322700
8.240300 1.312700
8.267600 1.305500
8.294900 1.290200
8.322200 1.266800
8.349500 1.235200
8.376800 1.195600
8.404000 1.143400
8.431300 1.070200
8.458600 1.025900
8.485900 0.984700
8.513200 0.959900
8.540500 0.936400
8.567800 0.913500
8.595000 0.891300
8.622300 0.869900
8.649600 0.849100
8.676900 0.829100
8.704200 0.811500
8.731500 0.795000
8.758800 0.775500
8.786000 0.727000
8.813300 0.708400
8.840600 0.689500
8.867900 0.670600
8.895200 0.651800
8.922500 0.633200
8.949800 0.614700
8.977000 0.596200
9.004300 0.578000
9.031600 0.559800
9.058900 0.541000
9.086200 0.522100
9.113500 0.503500
9.140800 0.485300
9.168100 0.467400
9.195300 0.474200
9.222600 0.480900
9.249900 0.481000
9.277200 0.474700
9.304500 0.461900
9.331800 0.442500
9.359100 0.408000
9.386300 0.358900
9.413600 0.314200
9.440900 0.273800
9.468200 0.236700
9.495500 0.201100
9.522800 0.158700
9.550100 0.121800
9.577300 0.090100
9.604600 0.063800
9.631900 0.042400
9.659200 0.025400
9.686500 0.012700
9.713800 0.004400
9.741100 0.000400
9.768300 0.000000
9.795600 0.000000
9.822900 0.000000
9.850200 0.000000
9.877500 0.000000
9.904800 0.000000
9.932100 0.000000
9.959300 0.000000
9.986600 0.000000
10.013900 0.000000
10.041200 0.000000
10.068500 0.000000
10.095800 0.000000
10.123100 0.000000
10.150300 0.000000
10.177600 0.000000
10.204900 0.000000
10.232200 0.000000
10.259500 0.000000
10.286800 0.000000
10.314100 0.000000
10.341300 0.000000
10.368600 0.000000
10.395900 0.000000
10.423200 0.000000
10.450500 0.000000
10.477800 0.000000
10.505100 0.000000
10.532300 0.000000
10.559600 0.000000
10.586900 0.000000
10.614200 0.000000
10.641500 0.000000
10.668800 0.000000
10.696100 0.000000
10.723300 0.000000
10.750600 0.000000
10.777900 0.000000
10.805200 0.000000
10.832500 0.000000
10.859800 0.000000
10.887100 0.000000
10.914300 0.000000
10.941600 0.000000
10.968900 0.000000
10.996200 0.000000
11.023500 0.000000
11.050800 0.000000
11.078100 0.000000
11.105300 0.000000
11.132600 0.000000
11.159900 0.000000
11.187200 0.000000
11.214500 0.000000
11.241800 0.000000
11.269100 0.000000
11.296300 0.000000
11.323600 0.000000
11.350900 0.000000
11.378200 0.000000
11.405500 0.000000
11.432800 0.000000
11.460100 0.000000
11.487300 0.000000
11.514600 0.000000
11.541900 0.000000
11.569200 0.000000
11.596500 0.000000
11.623800 0.000000
11.651100 0.000000
11.678300 0.000000
11.705600 0.000000
11.732900 0.000000
11.760200 0.000000
11.787500 0.000000
11.814800 0.000000
11.842100 0.000000
11.869400 0.000000
11.896600 0.000000
11.923900 0.000000
11.951200 0.000000
11.978500 0.000000
12.005800 0.000000
12.033100 0.000000
12.060400 0.000000
12.087600 0.000000
12.114900 0.000000
12.142200 0.000000
12.169500 0.000000
12.196800 0.000000
12.224100 0.000000
12.251400 0.000000
12.278600 0.000000
12.305900 0.000000
12.333200 0.000000
12.360500 0.000000
12.387800 0.000000
12.415100 0.000000
12.442400 0.000000
12.469600 0.000000
12.496900 0.000000
12.524200 0.000000
12.551500 0.000000
12.578800 0.000000
12.606100 0.000000
12.633400 0.000000
12.660600 0.000000
12.687900 0.000000
12.715200 0.000000
12.742500 0.000000
12.769800 0.000000
12.797100 0.000000
12.824400 0.000000
12.851600 0.000000
12.878900 0.000000
12.906200 0.000000
12.933500 0.000000
12.960800 0.000000
12.988100 0.000000
13.015400 0.000000
13.042600 0.000000
13.069900 0.000000
13.097200 0.000000
13.124500 0.000000
13.151800 0.000000
13.179100 0.000000
13.206400 0.000000
13.233600 0.000000
13.260900 0.000000
13.288200 0.000000
13.315500 0.000000
13.342800 0.000000
13.370100 0.000000
13.397400 0.000000
13.424600 0.000000
13.451900 0.000000
13.479200 0.000000
13.506500 0.000000
13.533800 0.000000
13.561100 0.000000
13.588400 0.000000
13.615600 0.000000
13.642900 0.000000
13.670200 0.000000
13.697500 0.000000
13.724800 0.000000
13.752100 0.000000
13.779400 0.000000
13.806600 0.000000
13.833900 0.000000
13.861200 0.000000
13.888500 0.000000
13.915800 0.000000
13.943100 0.000000
13.970400 0.000000
13.997600 0.000000
14.024900 0.000000
14.052200 0.000000
14.079500 0.000000
14.106800 0.000000
14.134100 0.000000
14.161400 0.000000
14.188600 0.002200
14.215900 0.031300
14.243200 0.073100
14.270500 0.123000
14.297800 0.181000
14.325100 0.247000
14.352400 0.321100
14.379600 0.402000
