set title 'mp-1007664 - Density of States'
set xlabel 'Energy (eV)'
set ylabel 'DOS (states/eV)'
set grid
set xrange [-10:10]
set yrange [0:158.198]
set xzeroaxis lt -1
set terminal png size 800,600
set output 'mp-1007664_dos_gnuplot.png'
plot '-' using 1:2 with lines title 'DOS'
-9.569100 0.000000
-9.551100 0.000000
-9.533100 0.000000
-9.515100 0.000000
-9.497000 0.000000
-9.479000 0.000000
-9.461000 0.000000
-9.442900 0.000000
-9.424900 0.000000
-9.406900 0.000000
-9.388900 0.000000
-9.370800 0.000000
-9.352800 0.000000
-9.334800 0.000000
-9.316800 0.000000
-9.298700 0.000000
-9.280700 0.000000
-9.262700 0.000000
-9.244700 0.000000
-9.226600 0.000000
-9.208600 0.000000
-9.190600 0.000000
-9.172600 0.000000
-9.154500 0.000000
-9.136500 0.000000
-9.118500 0.000000
-9.100500 0.000000
-9.082400 0.000000
-9.064400 0.000000
-9.046400 0.000000
-9.028400 0.000000
-9.010300 0.000000
-8.992300 0.000000
-8.974300 0.000000
-8.956200 0.000000
-8.938200 0.000000
-8.920200 0.000000
-8.902200 0.000000
-8.884100 0.000000
-8.866100 0.000000
-8.848100 0.000000
-8.830100 0.000000
-8.812000 0.000000
-8.794000 0.000000
-8.776000 0.000000
-8.758000 0.000000
-8.739900 0.000000
-8.721900 0.000000
-8.703900 0.000000
-8.685900 0.000000
-8.667800 0.000000
-8.649800 0.000000
-8.631800 0.000000
-8.613800 0.000000
-8.595700 0.000000
-8.577700 0.000000
-8.559700 0.000000
-8.541600 0.000000
-8.523600 0.000000
-8.505600 0.000000
-8.487600 0.000000
-8.469500 0.000000
-8.451500 0.000000
-8.433500 0.000000
-8.415500 0.000000
-8.397400 0.000000
-8.379400 0.000000
-8.361400 0.000000
-8.343400 0.000000
-8.325300 0.000000
-8.307300 0.000000
-8.289300 0.000000
-8.271300 0.000000
-8.253200 0.000000
-8.235200 0.000000
-8.217200 0.000000
-8.199200 0.000000
-8.181100 0.000000
-8.163100 0.000000
-8.145100 0.000000
-8.127000 0.000000
-8.109000 0.000000
-8.091000 0.000000
-8.073000 0.000000
-8.054900 0.000000
-8.036900 0.000000
-8.018900 0.000000
-8.000900 0.000000
-7.982800 0.000000
-7.964800 0.000000
-7.946800 0.000000
-7.928800 1.475900
-7.910700 24.325400
-7.892700 143.660600
-7.874700 143.816800
-7.856700 131.139800
-7.838600 39.133300
-7.820600 60.882800
-7.802600 0.000000
-7.784600 0.000000
-7.766500 0.000000
-7.748500 0.000000
-7.730500 0.000000
-7.712400 0.000000
-7.694400 0.000000
-7.676400 0.000000
-7.658400 0.000000
-7.640300 0.000000
-7.622300 0.000000
-7.604300 0.000000
-7.586300 0.000000
-7.568200 0.000000
-7.550200 0.000000
-7.532200 0.000000
-7.514200 0.000000
-7.496100 0.000000
-7.478100 0.000000
-7.460100 0.000000
-7.442100 0.000000
-7.424000 0.000000
-7.406000 0.000000
-7.388000 0.000000
-7.370000 0.000000
-7.351900 0.000000
-7.333900 0.000000
-7.315900 0.000000
-7.297800 0.000000
-7.279800 0.000000
-7.261800 0.000000
-7.243800 0.000000
-7.225700 0.000000
-7.207700 0.000000
-7.189700 0.000000
-7.171700 0.000000
-7.153600 0.000000
-7.135600 0.000000
-7.117600 0.000000
-7.099600 0.000000
-7.081500 0.000000
-7.063500 0.000000
-7.045500 0.000000
-7.027500 0.000000
-7.009400 0.000000
-6.991400 0.000000
-6.973400 0.000000
-6.955400 0.000000
-6.937300 0.000000
-6.919300 0.000000
-6.901300 0.000000
-6.883200 0.000000
-6.865200 0.000000
-6.847200 0.000000
-6.829200 0.000000
-6.811100 0.000000
-6.793100 0.000000
-6.775100 0.000000
-6.757100 0.000000
-6.739000 0.000000
-6.721000 0.000000
-6.703000 0.000000
-6.685000 0.000000
-6.666900 0.000000
-6.648900 0.000000
-6.630900 0.000000
-6.612900 0.000000
-6.594800 0.000000
-6.576800 0.000000
-6.558800 0.000000
-6.540800 0.000000
-6.522700 0.000000
-6.504700 0.000000
-6.486700 0.000000
-6.468600 0.000000
-6.450600 0.000000
-6.432600 0.000000
-6.414600 0.000000
-6.396500 0.000000
-6.378500 0.000000
-6.360500 0.000000
-6.342500 0.000000
-6.324400 0.000000
-6.306400 0.000000
-6.288400 0.000000
-6.270400 0.000000
-6.252300 0.000000
-6.234300 0.000000
-6.216300 0.000000
-6.198300 0.000000
-6.180200 0.000000
-6.162200 0.000000
-6.144200 0.000000
-6.126200 0.000000
-6.108100 0.000000
-6.090100 0.000000
-6.072100 0.000000
-6.054000 0.000000
-6.036000 0.000000
-6.018000 0.000000
-6.000000 0.000000
-5.981900 0.000000
-5.963900 0.000000
-5.945900 0.000000
-5.927900 0.000000
-5.909800 0.000000
-5.891800 0.000000
-5.873800 0.000000
-5.855800 0.000000
-5.837700 0.000000
-5.819700 0.000000
-5.801700 0.000000
-5.783700 0.000000
-5.765600 0.000000
-5.747600 0.000000
-5.729600 0.000000
-5.711600 0.000000
-5.693500 0.000000
-5.675500 0.000000
-5.657500 0.000000
-5.639400 0.000000
-5.621400 0.000000
-5.603400 0.000000
-5.585400 0.000000
-5.567300 0.000000
-5.549300 0.000000
-5.531300 0.000000
-5.513300 0.000000
-5.495200 0.000000
-5.477200 0.000000
-5.459200 0.000000
-5.441200 0.000000
-5.423100 0.000000
-5.405100 0.000000
-5.387100 0.000000
-5.369100 0.000000
-5.351000 0.000000
-5.333000 0.000000
-5.315000 0.000000
-5.297000 0.000000
-5.278900 0.000000
-5.260900 0.000000
-5.242900 0.000000
-5.224800 0.000000
-5.206800 0.000000
-5.188800 0.000000
-5.170800 0.000000
-5.152700 0.000000
-5.134700 0.000000
-5.116700 0.000000
-5.098700 0.000000
-5.080600 0.000000
-5.062600 0.000000
-5.044600 0.000000
-5.026600 0.000000
-5.008500 0.000000
-4.990500 0.000000
-4.972500 0.000000
-4.954500 0.000000
-4.936400 0.000000
-4.918400 0.000000
-4.900400 0.000000
-4.882400 0.000000
-4.864300 0.000000
-4.846300 0.000000
-4.828300 0.000000
-4.810300 0.000000
-4.792200 0.000000
-4.774200 0.000000
-4.756200 0.000000
-4.738100 0.000000
-4.720100 0.000000
-4.702100 0.000000
-4.684100 0.000000
-4.666000 0.000000
-4.648000 0.000000
-4.630000 0.000000
-4.612000 0.000000
-4.593900 0.000000
-4.575900 0.000000
-4.557900 0.000000
-4.539900 0.000000
-4.521800 0.000000
-4.503800 0.000000
-4.485800 0.000000
-4.467800 0.000000
-4.449700 0.000000
-4.431700 0.000000
-4.413700 0.000000
-4.395700 0.000000
-4.377600 0.000000
-4.359600 0.000000
-4.341600 0.000000
-4.323500 0.000000
-4.305500 0.000000
-4.287500 0.000000
-4.269500 0.000000
-4.251400 0.000000
-4.233400 0.000000
-4.215400 0.000000
-4.197400 0.000000
-4.179300 0.000000
-4.161300 0.000000
-4.143300 0.000000
-4.125300 0.000000
-4.107200 0.000000
-4.089200 0.000000
-4.071200 0.000000
-4.053200 0.000000
-4.035100 0.000000
-4.017100 0.000000
-3.999100 0.000000
-3.981100 0.000000
-3.963000 0.000000
-3.945000 0.000000
-3.927000 0.000000
-3.908900 0.000000
-3.890900 0.000000
-3.872900 0.000000
-3.854900 0.000000
-3.836800 0.000000
-3.818800 0.000000
-3.800800 0.000000
-3.782800 0.000000
-3.764700 0.000000
-3.746700 0.000000
-3.728700 0.000000
-3.710700 0.000000
-3.692600 0.000000
-3.674600 0.000000
-3.656600 0.000000
-3.638600 0.000000
-3.620500 0.000000
-3.602500 0.000000
-3.584500 0.000000
-3.566500 0.000000
-3.548400 0.000000
-3.530400 0.000000
-3.512400 0.000000
-3.494300 0.000000
-3.476300 0.000000
-3.458300 0.000000
-3.440300 0.000000
-3.422200 0.000000
-3.404200 0.000000
-3.386200 0.000000
-3.368200 0.000000
-3.350100 0.000000
-3.332100 0.000000
-3.314100 0.000000
-3.296100 0.000000
-3.278000 0.000000
-3.260000 0.000000
-3.242000 0.000000
-3.224000 0.000000
-3.205900 0.000000
-3.187900 0.000000
-3.169900 0.000000
-3.151900 0.000000
-3.133800 0.000000
-3.115800 0.000000
-3.097800 0.000000
-3.079700 0.000000
-3.061700 0.000000
-3.043700 0.000000
-3.025700 0.000000
-3.007600 0.000000
-2.989600 0.000000
-2.971600 0.000000
-2.953600 0.000000
-2.935500 0.000000
-2.917500 0.000000
-2.899500 0.000000
-2.881500 0.000000
-2.863400 0.000000
-2.845400 0.000000
-2.827400 0.000000
-2.809400 0.000000
-2.791300 0.000000
-2.773300 0.000000
-2.755300 0.000000
-2.737300 0.000000
-2.719200 0.000000
-2.701200 0.000000
-2.683200 0.000000
-2.665100 0.000000
-2.647100 0.000000
-2.629100 0.000000
-2.611100 0.000000
-2.593000 0.000000
-2.575000 0.000000
-2.557000 0.000000
-2.539000 0.000000
-2.520900 0.000000
-2.502900 0.000000
-2.484900 0.000000
-2.466900 0.000000
-2.448800 0.000000
-2.430800 0.000000
-2.412800 0.000000
-2.394800 0.000000
-2.376700 0.000000
-2.358700 0.000000
-2.340700 0.000000
-2.322700 0.000000
-2.304600 0.000000
-2.286600 0.000000
-2.268600 0.000000
-2.250500 0.000000
-2.232500 0.000000
-2.214500 0.000000
-2.196500 0.000000
-2.178400 0.047000
-2.160400 0.062800
-2.142400 0.082500
-2.124400 0.098600
-2.106300 0.115000
-2.088300 0.125400
-2.070300 0.138800
-2.052300 0.147100
-2.034200 0.153000
-2.016200 0.162000
-1.998200 0.172600
-1.980200 0.183900
-1.962100 0.195600
-1.944100 0.202000
-1.926100 0.209500
-1.908100 0.217200
-1.890000 0.222900
-1.872000 0.229100
-1.854000 0.235600
-1.835900 0.242600
-1.817900 0.249800
-1.799900 0.257400
-1.781900 0.265400
-1.763800 0.273500
-1.745800 0.281700
-1.727800 0.287900
-1.709800 0.294400
-1.691700 0.301200
-1.673700 0.306600
-1.655700 0.312300
-1.637700 0.318300
-1.619600 0.324400
-1.601600 0.330600
-1.583600 0.336700
-1.565600 0.343000
-1.547500 0.349400
-1.529500 0.356300
-1.511500 0.363700
-1.493500 0.371400
-1.475400 0.379400
-1.457400 0.386700
-1.439400 0.393300
-1.421300 0.399700
-1.403300 0.405700
-1.385300 0.411700
-1.367300 0.417700
-1.349200 0.424000
-1.331200 0.430300
-1.313200 0.437100
-1.295200 0.444300
-1.277100 0.451600
-1.259100 0.459100
-1.241100 0.466600
-1.223100 0.474300
-1.205000 0.482000
-1.187000 0.489800
-1.169000 0.498000
-1.151000 0.506300
-1.132900 0.514900
-1.114900 0.522700
-1.096900 0.530500
-1.078900 0.538800
-1.060800 0.547800
-1.042800 0.556900
-1.024800 0.566000
-1.006700 0.575200
-0.988700 0.584700
-0.970700 0.594300
-0.952700 0.604000
-0.934600 0.613900
-0.916600 0.624000
-0.898600 0.634200
-0.880600 0.644600
-0.862500 0.655200
-0.844500 0.666500
-0.826500 0.679100
-0.808500 0.692600
-0.790400 0.706900
-0.772400 0.721600
-0.754400 0.736700
-0.736400 0.752400
-0.718300 0.768600
-0.700300 0.785400
-0.682300 0.802700
-0.664300 0.820600
-0.646200 0.838900
-0.628200 0.858100
-0.610200 0.878000
-0.592200 0.899800
-0.574100 0.924200
-0.556100 0.949600
-0.538100 0.977400
-0.520000 1.009900
-0.502000 1.047500
-0.484000 1.092800
-0.466000 1.162000
-0.447900 1.188300
-0.429900 1.204800
-0.411900 1.227800
-0.393900 1.276800
-0.375800 1.313400
-0.357800 1.345200
-0.339800 1.376100
-0.321800 1.415300
-0.303700 1.460200
-0.285700 1.513900
-0.267700 1.576300
-0.249700 1.654400
-0.231600 1.744100
-0.213600 1.838100
-0.195600 1.961800
-0.177600 2.105700
-0.159500 2.280500
-0.141500 2.543000
-0.123500 2.842600
-0.105400 3.175500
-0.087400 3.565100
-0.069400 3.964500
-0.051400 4.097300
-0.033300 4.681800
-0.015300 5.489700
0.002700 3.579200
0.020700 2.427700
0.038800 1.618600
0.056800 0.000000
0.074800 0.000000
0.092800 0.000000
0.110900 0.000000
0.128900 0.000000
0.146900 0.000000
0.164900 0.000000
0.183000 0.000000
0.201000 0.000000
0.219000 0.000000
0.237000 0.000000
0.255100 0.000000
0.273100 0.000000
0.291100 0.000000
0.309200 0.000000
0.327200 0.000000
0.345200 0.000000
0.363200 0.000000
0.381300 0.000000
0.399300 0.000000
0.417300 0.000000
0.435300 0.000000
0.453400 0.000000
0.471400 0.000000
0.489400 0.000000
0.507400 0.000000
0.525500 0.000000
0.543500 0.000000
0.561500 0.000000
0.579500 0.000000
0.597600 0.000000
0.615600 0.000000
0.633600 0.000000
0.651600 0.000000
0.669700 0.000000
0.687700 0.000000
0.705700 0.000000
0.723800 0.000000
0.741800 0.000000
0.759800 0.000000
0.777800 0.000000
0.795900 0.000000
0.813900 0.000000
0.831900 0.000000
0.849900 0.000000
0.868000 0.000000
0.886000 0.000000
0.904000 0.000000
0.922000 0.000000
0.940100 0.000000
0.958100 0.000000
0.976100 0.000000
0.994100 0.000000
1.012200 0.000000
1.030200 0.000000
1.048200 0.000000
1.066200 0.000000
1.084300 0.000000
1.102300 0.000000
1.120300 0.000000
1.138400 0.000000
1.156400 0.197900
1.174400 0.265500
1.192400 0.335200
1.210500 0.330300
1.228500 0.354200
1.246500 0.371200
1.264500 0.406400
1.282600 0.445000
1.300600 0.620400
1.318600 0.700600
1.336600 0.780800
1.354700 1.052400
1.372700 1.292800
1.390700 1.506800
1.408700 1.711300
1.426800 1.958900
1.444800 2.228500
1.462800 2.525100
1.480800 2.924100
1.498900 3.421200
1.516900 3.555000
1.534900 3.650200
1.553000 3.752300
1.571000 3.583000
1.589000 3.600800
1.607000 3.770900
1.625100 3.784400
1.643100 3.735700
1.661100 3.638600
1.679100 3.593200
1.697200 3.592500
1.715200 3.577600
1.733200 3.622100
1.751200 3.612700
1.769300 3.641200
1.787300 3.884100
1.805300 3.087400
1.823300 2.799800
1.841400 2.623700
1.859400 2.443400
1.877400 2.252000
1.895400 2.085400
1.913500 1.993800
1.931500 1.944000
1.949500 1.828600
1.967600 1.828500
1.985600 1.927300
2.003600 1.940500
2.021600 2.033000
2.039700 2.020700
2.057700 1.953700
2.075700 1.859400
2.093700 1.940100
2.111800 2.013900
2.129800 2.192900
2.147800 2.621700
2.165800 3.106700
2.183900 3.712300
2.201900 4.300300
2.219900 5.287500
2.237900 6.649400
2.256000 6.657400
2.274000 6.232900
2.292000 5.845400
2.310000 5.591200
2.328100 5.714400
2.346100 5.457400
2.364100 6.177100
2.382200 7.005500
2.400200 6.625600
2.418200 6.823200
2.436200 7.411100
2.454300 7.894000
2.472300 8.783800
2.490300 10.232400
2.508300 12.302000
2.526400 10.403800
2.544400 10.777000
2.562400 10.133400
2.580400 10.097300
2.598500 9.231600
2.616500 8.588100
2.634500 8.658500
2.652500 9.621700
2.670600 11.563900
2.688600 10.170000
2.706600 10.329600
2.724600 11.251500
2.742700 10.425200
2.760700 10.009400
2.778700 9.823000
2.796800 9.859200
2.814800 10.020700
2.832800 9.682300
2.850800 10.169400
2.868900 8.633300
2.886900 7.890900
2.904900 7.446500
2.922900 7.419400
2.941000 7.033400
2.959000 6.728000
2.977000 6.379400
2.995000 5.979900
3.013100 5.896000
3.031100 5.981100
3.049100 6.722700
3.067100 6.945200
3.085200 7.587400
3.103200 7.909400
3.121200 7.816300
3.139200 7.149400
3.157300 6.243600
3.175300 5.025800
3.193300 4.566500
3.211400 5.113700
3.229400 5.860400
3.247400 5.750200
3.265400 6.190400
3.283500 6.508600
3.301500 6.476600
3.319500 6.447100
3.337500 6.450800
3.355600 6.605100
3.373600 6.368600
3.391600 6.482500
3.409600 6.550200
3.427700 6.534100
3.445700 7.649800
3.463700 7.598000
3.481700 7.327300
3.499800 8.308900
3.517800 9.995500
3.535800 11.412800
3.553800 11.637600
3.571900 11.160900
3.589900 10.468100
3.607900 8.863400
3.625900 8.245700
3.644000 8.338300
3.662000 8.194200
3.680000 8.173500
3.698100 6.388200
3.716100 5.903400
3.734100 6.024800
3.752100 6.146900
3.770200 6.717700
3.788200 7.087200
3.806200 6.598000
3.824200 6.027800
3.842300 5.774200
3.860300 5.535600
3.878300 6.009300
3.896300 6.605900
3.914400 6.202000
3.932400 6.710600
3.950400 7.197800
3.968400 7.400100
3.986500 7.227600
4.004500 7.639600
4.022500 7.050800
4.040500 6.479100
4.058600 6.467100
4.076600 5.707900
4.094600 6.289000
4.112700 6.834700
4.130700 6.699100
4.148700 6.826400
4.166700 6.770100
4.184800 7.051600
4.202800 7.209300
4.220800 7.249100
4.238800 7.283700
4.256900 7.336100
4.274900 7.134600
4.292900 6.687400
4.310900 6.450100
4.329000 6.186900
4.347000 6.496300
4.365000 6.179100
4.383000 6.411800
4.401100 6.982300
4.419100 6.548900
4.437100 8.022600
4.455100 8.750800
4.473200 8.698200
4.491200 9.551300
4.509200 11.781900
4.527300 11.243900
4.545300 10.524400
4.563300 9.925100
4.581300 7.933500
4.599400 6.890900
4.617400 6.714600
4.635400 6.976300
4.653400 6.858400
4.671500 6.585900
4.689500 6.310400
4.707500 6.045800
4.725500 5.936500
4.743600 5.896000
4.761600 6.098500
4.779600 6.651900
4.797600 6.500700
4.815700 7.231800
4.833700 7.772100
4.851700 8.057100
4.869700 9.731900
4.887800 12.484700
4.905800 15.049200
4.923800 14.817900
4.941900 13.562000
4.959900 11.614400
4.977900 9.864900
4.995900 9.022100
5.014000 8.650900
5.032000 8.497700
5.050000 8.673400
5.068000 8.070100
5.086100 8.682600
5.104100 12.264000
5.122100 11.925900
5.140100 11.722900
5.158200 10.295600
5.176200 9.433200
5.194200 8.937600
5.212200 8.345300
5.230300 8.157200
5.248300 8.137100
5.266300 8.971600
5.284300 6.217300
5.302400 3.723400
5.320400 3.556300
5.338400 3.364600
5.356500 3.334300
5.374500 3.179800
5.392500 3.150300
5.410500 3.129300
5.428600 3.121100
5.446600 3.149600
5.464600 3.186900
5.482600 3.288500
5.500700 3.487500
5.518700 3.650600
5.536700 3.858300
5.554700 4.672500
5.572800 4.185400
5.590800 2.837900
5.608800 2.265600
5.626800 2.385900
5.644900 3.484000
5.662900 7.611800
5.680900 9.120500
5.698900 7.021700
5.717000 7.174800
5.735000 6.866100
5.753000 8.206300
5.771100 11.091400
5.789100 10.401800
5.807100 10.743600
5.825100 10.692800
5.843200 9.496000
5.861200 7.040600
5.879200 5.195000
5.897200 4.379900
5.915300 4.136500
5.933300 4.881200
5.951300 3.861800
5.969300 3.238800
5.987400 2.650400
6.005400 2.198200
6.023400 2.208100
6.041400 2.270400
6.059500 2.405900
6.077500 2.522100
6.095500 2.493100
6.113500 2.298000
6.131600 2.132500
6.149600 2.025000
6.167600 1.934900
6.185700 1.860500
6.203700 1.789700
6.221700 1.732800
6.239700 1.680900
6.257800 1.634900
6.275800 1.595000
6.293800 1.560600
6.311800 1.529400
6.329900 1.501600
6.347900 1.476400
6.365900 1.452700
6.383900 1.430000
6.402000 1.408900
6.420000 1.388600
6.438000 1.370300
6.456000 1.354000
6.474100 1.337900
6.492100 1.322300
6.510100 1.307300
6.528100 1.293000
6.546200 1.278900
6.564200 1.265300
6.582200 1.253100
6.600300 1.243900
6.618300 1.236400
6.636300 1.229000
6.654300 1.221600
6.672400 1.214200
6.690400 1.208300
6.708400 1.202900
6.726400 1.198000
6.744500 1.193700
6.762500 1.194900
6.780500 1.192900
6.798500 1.191300
6.816600 1.189700
6.834600 1.188100
6.852600 1.187100
6.870600 1.183000
6.888700 1.169800
6.906700 1.163800
6.924700 1.160100
6.942700 1.157500
6.960800 1.164200
6.978800 1.171300
6.996800 1.173300
7.014900 1.180400
7.032900 1.189800
7.050900 1.193400
7.068900 1.197700
7.087000 1.211400
7.105000 1.222600
7.123000 1.236100
7.141000 1.293900
7.159100 1.384500
7.177100 1.453800
7.195100 1.518500
7.213100 1.555300
7.231200 1.535900
7.249200 1.502300
7.267200 1.535100
7.285200 1.575400
7.303300 1.566400
7.321300 1.584900
7.339300 1.526800
7.357300 1.528000
7.375400 1.517900
7.393400 1.504000
7.411400 1.500500
7.429500 1.498700
7.447500 1.497000
7.465500 1.488500
7.483500 1.473800
7.501600 1.461000
7.519600 1.451800
7.537600 1.443000
7.555600 1.434400
7.573700 1.426600
7.591700 1.421600
7.609700 1.417200
7.627700 1.412700
7.645800 1.406900
7.663800 1.399800
7.681800 1.391800
7.699800 1.383200
7.717900 1.375300
7.735900 1.368700
7.753900 1.362800
7.771900 1.356600
7.790000 1.350700
7.808000 1.345200
7.826000 1.339800
7.844000 1.334400
7.862100 1.327900
7.880100 1.321400
7.898100 1.315500
7.916200 1.310000
7.934200 1.304300
7.952200 1.298700
7.970200 1.293500
7.988300 1.289700
8.006300 1.286900
8.024300 1.283300
8.042300 1.278700
8.060400 1.274100
8.078400 1.270900
8.096400 1.268200
8.114400 1.265700
8.132500 1.263200
8.150500 1.259200
8.168500 1.252700
8.186500 1.247300
8.204600 1.242200
8.222600 1.237200
8.240600 1.232600
8.258600 1.228400
8.276700 1.224300
8.294700 1.220100
8.312700 1.215900
8.330800 1.211800
8.348800 1.207700
8.366800 1.203400
8.384800 1.198900
8.402900 1.194500
8.420900 1.190100
8.438900 1.185600
8.456900 1.181100
8.475000 1.176200
8.493000 1.171100
8.511000 1.166100
8.529000 1.161300
8.547100 1.157500
8.565100 1.154300
8.583100 1.151700
8.601100 1.148600
8.619200 1.145600
8.637200 1.143700
8.655200 1.142700
8.673200 1.143100
8.691300 1.146100
8.709300 1.155100
8.727300 1.160800
8.745400 1.159900
8.763400 1.153000
8.781400 1.149000
8.799400 1.150600
8.817500 1.152900
8.835500 1.153700
8.853500 1.153300
8.871500 1.153200
8.889600 1.153700
8.907600 1.154600
8.925600 1.155300
8.943600 1.155700
8.961700 1.156700
8.979700 1.167300
8.997700 1.167600
9.015700 1.167800
9.033800 1.172500
9.051800 1.169700
9.069800 1.160000
9.087800 1.148800
9.105900 1.137300
9.123900 1.121600
9.141900 1.107000
9.160000 1.091300
9.178000 1.072400
9.196000 1.049900
9.214000 1.026700
9.232100 1.001500
9.250100 0.977800
9.268100 0.965000
9.286100 0.945200
9.304200 0.924800
9.322200 0.903800
9.340200 0.883000
9.358200 0.863100
9.376300 0.844000
9.394300 0.829700
9.412300 0.818700
9.430300 0.812400
9.448400 0.808900
9.466400 0.803300
9.484400 0.795300
9.502400 0.789900
9.520500 0.788100
9.538500 0.782700
9.556500 0.771500
9.574600 0.760200
