set title 'mp-6985 - Density of States'
set xlabel 'Energy (eV)'
set ylabel 'DOS (states/eV)'
set grid
set xrange [-10:10]
set yrange [0:3.662]
set xzeroaxis lt -1
set terminal png size 800,600
set output 'mp-6985_dos_gnuplot.png'
plot '-' using 1:2 with lines title 'DOS'
-33.806300 0.000000
-33.736000 0.000000
-33.665800 0.000000
-33.595500 0.000000
-33.525300 0.000000
-33.455100 0.000000
-33.384800 0.000000
-33.314600 0.000000
-33.244300 0.000000
-33.174100 0.000000
-33.103900 0.000000
-33.033600 0.000000
-32.963400 0.000000
-32.893100 0.000000
-32.822900 0.000000
-32.752600 0.000000
-32.682400 0.000000
-32.612200 0.000000
-32.541900 0.000000
-32.471700 0.000000
-32.401400 0.000000
-32.331200 0.000000
-32.261000 0.000000
-32.190700 0.000000
-32.120500 0.000000
-32.050200 0.000000
-31.980000 0.000000
-31.909800 0.000000
-31.839500 0.000000
-31.769300 0.000000
-31.699000 0.000000
-31.628800 0.000000
-31.558500 0.000000
-31.488300 0.000000
-31.418100 0.000000
-31.347800 0.000000
-31.277600 0.000000
-31.207300 0.000000
-31.137100 0.000000
-31.066900 0.000000
-30.996600 0.000000
-30.926400 0.000000
-30.856100 0.000000
-30.785900 0.000000
-30.715700 0.000000
-30.645400 0.000000
-30.575200 0.000000
-30.504900 0.000000
-30.434700 0.000000
-30.364500 0.000000
-30.294200 0.000000
-30.224000 0.000000
-30.153700 0.000000
-30.083500 0.000000
-30.013200 0.000000
-29.943000 0.000000
-29.872800 0.000000
-29.802500 0.000000
-29.732300 0.000000
-29.662000 0.000000
-29.591800 0.000000
-29.521600 0.000000
-29.451300 0.000000
-29.381100 0.000000
-29.310800 0.000000
-29.240600 0.000000
-29.170400 0.000000
-29.100100 0.000000
-29.029900 0.000000
-28.959600 0.000000
-28.889400 0.000000
-28.819100 0.000000
-28.748900 0.000000
-28.678700 0.000000
-28.608400 0.000000
-28.538200 0.000000
-28.467900 0.000000
-28.397700 0.000000
-28.327500 0.000000
-28.257200 0.000000
-28.187000 0.000000
-28.116700 0.000000
-28.046500 0.000000
-27.976300 0.000000
-27.906000 0.000000
-27.835800 0.000000
-27.765500 0.000000
-27.695300 0.000000
-27.625000 0.000000
-27.554800 0.000000
-27.484600 0.000000
-27.414300 0.839800
-27.344100 5.840300
-27.273800 12.899800
-27.203600 3.203900
-27.133400 5.500700
-27.063100 6.841200
-26.992900 10.817800
-26.922600 16.096100
-26.852400 18.713200
-26.782200 5.960500
-26.711900 0.000000
-26.641700 0.000000
-26.571400 0.000000
-26.501200 0.000000
-26.431000 0.000000
-26.360700 0.000000
-26.290500 0.000000
-26.220200 0.000000
-26.150000 0.000000
-26.079700 0.000000
-26.009500 0.000000
-25.939300 0.000000
-25.869000 0.000000
-25.798800 0.000000
-25.728500 0.000000
-25.658300 0.000000
-25.588100 0.000000
-25.517800 0.000000
-25.447600 0.000000
-25.377300 0.000000
-25.307100 0.000000
-25.236900 0.000000
-25.166600 0.000000
-25.096400 0.000000
-25.026100 0.000000
-24.955900 0.000000
-24.885600 0.000000
-24.815400 0.000000
-24.745200 0.000000
-24.674900 0.000000
-24.604700 0.000000
-24.534400 0.000000
-24.464200 0.000000
-24.394000 0.000000
-24.323700 0.000000
-24.253500 0.000000
-24.183200 0.000000
-24.113000 0.000000
-24.042800 0.000000
-23.972500 0.000000
-23.902300 0.000000
-23.832000 0.000000
-23.761800 0.000000
-23.691500 0.000000
-23.621300 0.000000
-23.551100 0.000000
-23.480800 0.000000
-23.410600 0.000000
-23.340300 0.000000
-23.270100 0.000000
-23.199900 0.000000
-23.129600 0.000000
-23.059400 0.000000
-22.989100 0.000000
-22.918900 0.000000
-22.848700 0.000000
-22.778400 0.000000
-22.708200 0.000000
-22.637900 0.000000
-22.567700 0.000000
-22.497500 0.000000
-22.427200 0.000000
-22.357000 0.000000
-22.286700 0.000000
-22.216500 0.000000
-22.146200 0.000000
-22.076000 0.000000
-22.005800 0.000000
-21.935500 0.000000
-21.865300 0.000000
-21.795000 0.000000
-21.724800 0.000000
-21.654600 0.000000
-21.584300 0.000000
-21.514100 0.000000
-21.443800 0.000000
-21.373600 0.000000
-21.303400 0.000000
-21.233100 0.000000
-21.162900 0.000000
-21.092600 0.000000
-21.022400 0.000000
-20.952100 0.000000
-20.881900 0.000000
-20.811700 0.000000
-20.741400 0.000000
-20.671200 0.000000
-20.600900 0.000000
-20.530700 0.000000
-20.460500 0.000000
-20.390200 0.000000
-20.320000 0.000000
-20.249700 0.000000
-20.179500 0.000000
-20.109300 0.000000
-20.039000 0.000000
-19.968800 0.000000
-19.898500 0.000000
-19.828300 0.000000
-19.758000 0.000000
-19.687800 0.000000
-19.617600 0.000000
-19.547300 0.000000
-19.477100 0.000000
-19.406800 0.000000
-19.336600 0.000000
-19.266400 0.000000
-19.196100 0.000000
-19.125900 0.000000
-19.055600 0.000000
-18.985400 0.000000
-18.915200 0.000000
-18.844900 0.000000
-18.774700 0.000000
-18.704400 0.000000
-18.634200 0.000000
-18.564000 0.000000
-18.493700 0.000000
-18.423500 0.000000
-18.353200 0.000000
-18.283000 0.000000
-18.212700 0.000000
-18.142500 0.000000
-18.072300 0.000000
-18.002000 0.000000
-17.931800 0.000000
-17.861500 0.000000
-17.791300 0.000000
-17.721100 0.000000
-17.650800 0.000000
-17.580600 0.000000
-17.510300 0.000000
-17.440100 0.000000
-17.369900 0.000000
-17.299600 0.000000
-17.229400 0.000000
-17.159100 0.000000
-17.088900 0.000000
-17.018600 0.000000
-16.948400 0.000000
-16.878200 0.000000
-16.807900 0.000000
-16.737700 0.000000
-16.667400 0.000000
-16.597200 0.000000
-16.527000 0.000000
-16.456700 0.000000
-16.386500 0.000000
-16.316200 0.000000
-16.246000 0.000000
-16.175800 0.000000
-16.105500 0.000000
-16.035300 0.000000
-15.965000 0.000000
-15.894800 0.000000
-15.824500 0.000000
-15.754300 0.000000
-15.684100 0.000000
-15.613800 0.000000
-15.543600 0.000000
-15.473300 0.000000
-15.403100 0.000000
-15.332900 0.000000
-15.262600 0.000000
-15.192400 0.000000
-15.122100 0.000000
-15.051900 0.000000
-14.981700 0.000000
-14.911400 0.000000
-14.841200 0.000000
-14.770900 0.000000
-14.700700 0.000000
-14.630500 0.000000
-14.560200 0.000000
-14.490000 0.000000
-14.419700 0.000000
-14.349500 0.000000
-14.279200 0.000000
-14.209000 0.000000
-14.138800 0.000000
-14.068500 0.000000
-13.998300 0.000000
-13.928000 0.000000
-13.857800 0.000000
-13.787600 0.000000
-13.717300 0.000000
-13.647100 0.000000
-13.576800 0.000000
-13.506600 0.000000
-13.436400 0.000000
-13.366100 0.000000
-13.295900 0.000000
-13.225600 0.000000
-13.155400 0.000000
-13.085100 0.000000
-13.014900 0.000000
-12.944700 0.000000
-12.874400 0.000000
-12.804200 0.000000
-12.733900 0.000000
-12.663700 0.000000
-12.593500 0.000000
-12.523200 0.000000
-12.453000 0.000000
-12.382700 0.000000
-12.312500 0.000000
-12.242300 0.000000
-12.172000 0.000000
-12.101800 0.000000
-12.031500 0.000000
-11.961300 0.000000
-11.891000 0.000000
-11.820800 0.000000
-11.750600 0.000000
-11.680300 0.000000
-11.610100 0.000000
-11.539800 0.000000
-11.469600 0.000000
-11.399400 0.000000
-11.329100 0.000000
-11.258900 0.000000
-11.188600 0.000000
-11.118400 0.000000
-11.048200 0.000000
-10.977900 0.000000
-10.907700 0.000000
-10.837400 0.000000
-10.767200 0.000000
-10.697000 0.000000
-10.626700 0.000000
-10.556500 0.000000
-10.486200 0.000000
-10.416000 0.000000
-10.345700 0.000000
-10.275500 0.000000
-10.205300 0.000000
-10.135000 0.000000
-10.064800 0.000000
-9.994500 0.000000
-9.924300 0.000000
-9.854100 0.000000
-9.783800 0.000000
-9.713600 0.000000
-9.643300 0.000000
-9.573100 0.000000
-9.502900 0.000000
-9.432600 0.000000
-9.362400 0.000000
-9.292100 0.000000
-9.221900 0.000000
-9.151600 0.000000
-9.081400 0.000000
-9.011200 0.000000
-8.940900 0.000000
-8.870700 0.000000
-8.800400 0.000000
-8.730200 0.000000
-8.660000 0.000000
-8.589700 0.000000
-8.519500 0.000000
-8.449200 0.000000
-8.379000 0.000000
-8.308800 0.000000
-8.238500 0.000000
-8.168300 0.000000
-8.098000 0.000000
-8.027800 0.000000
-7.957500 0.000000
-7.887300 0.000000
-7.817100 0.000000
-7.746800 0.000000
-7.676600 0.000000
-7.606300 0.000000
-7.536100 0.000000
-7.465900 0.000000
-7.395600 0.000000
-7.325400 0.000000
-7.255100 0.000000
-7.184900 0.000000
-7.114700 0.000000
-7.044400 0.000000
-6.974200 0.000000
-6.903900 0.000000
-6.833700 0.000000
-6.763500 0.000000
-6.693200 0.000000
-6.623000 0.000000
-6.552700 0.000000
-6.482500 0.000000
-6.412200 0.000000
-6.342000 0.000000
-6.271800 0.000000
-6.201500 0.000000
-6.131300 0.000000
-6.061000 0.000000
-5.990800 0.000000
-5.920600 0.000000
-5.850300 0.000000
-5.780100 0.000000
-5.709800 0.000000
-5.639600 0.000000
-5.569400 0.000000
-5.499100 0.000000
-5.428900 0.000000
-5.358600 0.000000
-5.288400 0.000000
-5.218100 0.000000
-5.147900 0.000000
-5.077700 0.000000
-5.007400 0.000000
-4.937200 0.000000
-4.866900 0.000000
-4.796700 0.000000
-4.726500 0.000000
-4.656200 0.000000
-4.586000 0.000000
-4.515700 0.000000
-4.445500 0.000000
-4.375300 0.000000
-4.305000 0.000000
-4.234800 0.000000
-4.164500 0.000000
-4.094300 0.000000
-4.024000 0.000000
-3.953800 0.000000
-3.883600 0.000000
-3.813300 0.000000
-3.743100 0.000000
-3.672800 0.000000
-3.602600 0.000000
-3.532400 0.000000
-3.462100 0.000000
-3.391900 0.000000
-3.321600 0.000000
-3.251400 0.000000
-3.181200 0.000000
-3.110900 0.000000
-3.040700 0.000000
-2.970400 0.000000
-2.900200 0.000000
-2.830000 0.000000
-2.759700 0.000000
-2.689500 0.000000
-2.619200 0.000000
-2.549000 0.000000
-2.478700 0.000000
-2.408500 0.000000
-2.338300 0.000000
-2.268000 0.000000
-2.197800 0.000000
-2.127500 0.000000
-2.057300 0.000000
-1.987100 0.000000
-1.916800 0.000000
-1.846600 0.000000
-1.776300 0.000000
-1.706100 0.000000
-1.635900 0.000000
-1.565600 0.000000
-1.495400 0.000000
-1.425100 0.000000
-1.354900 0.000000
-1.284600 0.000000
-1.214400 0.000000
-1.144200 0.000000
-1.073900 0.000000
-1.003700 0.000000
-0.933400 0.000000
-0.863200 0.000000
-0.793000 0.000000
-0.722700 0.000000
-0.652500 0.000000
-0.582200 0.000000
-0.512000 0.000000
-0.441800 0.000000
-0.371500 0.000000
-0.301300 0.000000
-0.231000 0.000200
-0.160800 0.021300
-0.090500 0.029100
-0.020300 0.039100
0.049900 0.048000
0.120200 0.051800
0.190400 0.058200
0.260700 0.064800
0.330900 0.070700
0.401100 0.075200
0.471400 0.079700
0.541600 0.084700
0.611900 0.090200
0.682100 0.095900
0.752300 0.100400
0.822600 0.104800
0.892800 0.109600
0.963100 0.114500
1.033300 0.119700
1.103500 0.125100
1.173800 0.130700
1.244000 0.135600
1.314300 0.140700
1.384500 0.146200
1.454800 0.151900
1.525000 0.157900
1.595200 0.164000
1.665500 0.170400
1.735700 0.176900
1.806000 0.183700
1.876200 0.190800
1.946400 0.198300
2.016700 0.206400
2.086900 0.214900
2.157200 0.223700
2.227400 0.233100
2.297600 0.243100
2.367900 0.254400
2.438100 0.266800
2.508400 0.280300
2.578600 0.295200
2.648900 0.311600
2.719100 0.329800
2.789300 0.349900
2.859600 0.372400
2.929800 0.401000
3.000100 0.439000
3.070300 0.487800
3.140500 0.552100
3.210800 0.638000
3.281000 1.078800
3.351300 0.997600
3.421500 1.039000
3.491700 0.991900
3.562000 1.013300
3.632200 1.029500
3.702500 1.005500
3.772700 1.001500
3.843000 1.007600
3.913200 0.998200
3.983400 1.006500
4.053700 1.006200
4.123900 1.126800
4.194200 1.261000
4.264400 1.402500
4.334600 1.532000
4.404900 1.491300
4.475100 1.499500
4.545400 1.664000
4.615600 0.927900
4.685800 1.184700
4.756100 1.331900
4.826300 1.539200
4.896600 1.577000
4.966800 1.523300
5.037000 1.463300
5.107300 1.619200
5.177500 1.338700
5.247800 1.272000
5.318000 1.200100
5.388300 1.201700
5.458500 1.489600
5.528700 1.774500
5.599000 1.730200
5.669200 1.855600
5.739500 1.882000
5.809700 1.752500
5.879900 1.673800
5.950200 1.666200
6.020400 1.773100
6.090700 1.804200
6.160900 2.088800
6.231100 1.896300
6.301400 1.730400
6.371600 1.662800
6.441900 1.583000
6.512100 1.600600
6.582400 2.149300
6.652600 1.377400
6.722800 1.573000
6.793100 1.836500
6.863300 2.085300
6.933600 2.569300
7.003800 1.724800
7.074000 1.542300
7.144300 1.386200
7.214500 1.316600
7.284800 1.295200
7.355000 1.263700
7.425200 1.302100
7.495500 1.300700
7.565700 1.322200
7.636000 1.296400
7.706200 1.458100
7.776500 1.748600
7.846700 1.845400
7.916900 2.112000
7.987200 2.043000
8.057400 1.690200
8.127700 1.527900
8.197900 1.385200
8.268100 1.383100
8.338400 1.607300
8.408600 1.565800
8.478900 1.466600
8.549100 1.461000
8.619300 1.466600
8.689600 1.499600
8.759800 1.591600
8.830100 1.665400
8.900300 1.754100
8.970500 1.758700
9.040800 1.943500
9.111000 2.311700
9.181300 2.690900
9.251500 3.189000
9.321800 3.328900
9.392000 2.394000
9.462200 1.918800
9.532500 1.466700
9.602700 0.570200
9.673000 0.558900
9.743200 0.556400
9.813400 0.557300
9.883700 0.553700
9.953900 0.548700
10.024200 0.543500
10.094400 0.531500
10.164600 0.506900
10.234900 0.501200
10.305100 0.496600
10.375400 0.491900
10.445600 0.487600
10.515900 0.482700
10.586100 0.476500
10.656300 0.466200
10.726600 0.448800
10.796800 0.438100
10.867100 0.431300
10.937300 0.424200
11.007500 0.418600
11.077800 0.412200
11.148000 0.404700
11.218300 0.394300
11.288500 0.383300
11.358700 0.374700
11.429000 0.366300
11.499200 0.356400
11.569500 0.346600
11.639700 0.338400
11.710000 0.331200
11.780200 0.323100
11.850400 0.313700
11.920700 0.303900
11.990900 0.294800
12.061200 0.285300
12.131400 0.274400
12.201600 0.263500
12.271900 0.254500
12.342100 0.247200
12.412400 0.240500
12.482600 0.230500
12.552800 0.222500
12.623100 0.214800
12.693300 0.204000
12.763600 0.191600
12.833800 0.178100
12.904000 0.165700
12.974300 0.151500
13.044500 0.128500
13.114800 0.110100
13.185000 0.096300
13.255300 0.085600
13.325500 0.071900
13.395700 0.045300
13.466000 0.038100
13.536200 0.032700
13.606500 0.033200
13.676700 0.040100
13.746900 0.065400
13.817200 0.243500
13.887400 0.762200
13.957700 1.033000
14.027900 0.855300
14.098100 0.681000
14.168400 0.608500
14.238600 0.593400
14.308900 0.565000
14.379100 0.520600
14.449400 0.467600
14.519600 0.449800
14.589800 0.436200
14.660100 0.424700
14.730300 0.414600
14.800600 0.404800
14.870800 0.394800
14.941000 0.386200
15.011300 0.376600
15.081500 0.369900
15.151800 0.366700
15.222000 0.364800
15.292200 0.361000
15.362500 0.351300
15.432700 0.345300
15.503000 0.341500
15.573200 0.338600
15.643500 0.335700
15.713700 0.332900
15.783900 0.330300
15.854200 0.325200
15.924400 0.330200
15.994700 0.328600
16.064900 0.332100
16.135100 0.324700
16.205400 0.313100
16.275600 0.307500
16.345900 0.675700
16.416100 0.894200
16.486300 0.750900
16.556600 0.760700
16.626800 0.755700
16.697100 0.720600
16.767300 0.721800
16.837500 0.738600
16.907800 0.715000
16.978000 0.671700
17.048300 0.666000
17.118500 0.669000
17.188800 0.681200
17.259000 0.684600
17.329200 0.675000
17.399500 0.678700
17.469700 0.665300
17.540000 0.666600
17.610200 0.696600
17.680400 0.695900
17.750700 0.710300
17.820900 0.730000
17.891200 0.715000
17.961400 0.722000
18.031600 0.716600
18.101900 0.715800
18.172100 0.706000
18.242400 0.701400
18.312600 0.687200
18.382900 0.681100
18.453100 0.679000
18.523300 0.679400
18.593600 0.679900
18.663800 0.679800
18.734100 0.677000
18.804300 0.677600
18.874500 0.676800
18.944800 0.672300
19.015000 0.670000
19.085300 0.669800
19.155500 0.668400
19.225700 0.669300
19.296000 0.672900
19.366200 0.674100
19.436500 0.674700
19.506700 0.672900
19.577000 0.671800
19.647200 0.672400
19.717400 0.673000
19.787700 0.673000
19.857900 0.675400
19.928200 0.682500
19.998400 0.686300
20.068600 0.689100
20.138900 0.694800
20.209100 0.702100
20.279400 0.708500
20.349600 0.743700
20.419800 0.765900
20.490100 0.781200
20.560300 1.410400
20.630600 0.860400
20.700800 0.744200
20.771000 0.721000
20.841300 0.703300
20.911500 0.676400
20.981800 0.643400
21.052000 0.631800
21.122300 0.624100
21.192500 0.617500
21.262700 0.605900
21.333000 0.591500
21.403200 0.635200
21.473500 0.691600
21.543700 0.732000
21.613900 0.592200
21.684200 0.559200
21.754400 0.540400
21.824700 0.506000
21.894900 0.484500
21.965100 0.470900
22.035400 0.464200
22.105600 0.452400
22.175900 0.433900
22.246100 0.398300
22.316400 0.362200
22.386600 0.353000
22.456800 0.347000
22.527100 0.342500
22.597300 0.339200
22.667600 0.338700
22.737800 0.338400
22.808000 0.340700
22.878300 0.345100
22.948500 0.350700
23.018800 0.358500
23.089000 0.388500
23.159200 0.431200
23.229500 0.480300
23.299700 0.541900
23.370000 0.628400
23.440200 0.719600
23.510500 0.819100
23.580700 0.953500
23.650900 0.982400
23.721200 0.970700
23.791400 0.955100
23.861700 0.933600
23.931900 0.866900
24.002100 0.767700
24.072400 0.756000
24.142600 0.757400
24.212900 0.771100
24.283100 0.796000
24.353300 0.830700
24.423600 0.834300
24.493800 0.832000
24.564100 0.828800
24.634300 0.823200
24.704500 0.816500
24.774800 0.808000
24.845000 0.802200
24.915300 0.809200
24.985500 0.849200
25.055800 0.841800
25.126000 0.822000
25.196200 0.787300
25.266500 0.745900
25.336700 0.707700
25.407000 0.658800
25.477200 0.623000
25.547400 0.617600
25.617700 0.609200
25.687900 0.609500
25.758200 0.612400
25.828400 0.643000
25.898600 0.590900
25.968900 0.574800
26.039100 0.556500
26.109400 0.549100
26.179600 0.551700
26.249900 0.558600
26.320100 0.559300
26.390300 0.543800
26.460600 0.479400
26.530800 0.406100
26.601100 0.367000
26.671300 0.353700
26.741500 0.337600
26.811800 0.324700
26.882000 0.312600
26.952300 0.297200
27.022500 0.275400
27.092700 0.248000
27.163000 0.231400
27.233200 0.245100
27.303500 0.236200
27.373700 0.229500
27.444000 0.236100
27.514200 0.258500
27.584400 0.310300
27.654700 0.418100
27.724900 0.490400
27.795200 0.551500
27.865400 0.703100
27.935600 0.914900
28.005900 1.460400
28.076100 9.824800
28.146400 1.349300
28.216600 1.196700
28.286800 1.153200
28.357100 1.102600
28.427300 1.036900
28.497600 0.976900
28.567800 1.006400
28.638000 1.057900
28.708300 1.116200
28.778500 1.162700
28.848800 1.196200
28.919000 1.170100
28.989300 1.037000
29.059500 0.951900
29.129700 0.905800
29.200000 0.858000
29.270200 0.821300
29.340500 0.797500
29.410700 0.783800
29.480900 0.777900
29.551200 0.782400
29.621400 0.771200
29.691700 0.759900
29.761900 0.742300
29.832100 0.715600
29.902400 0.688600
29.972600 0.658400
30.042900 0.634600
30.113100 0.632200
30.183400 0.638300
30.253600 0.646000
30.323800 0.665800
30.394100 0.842500
30.464300 0.828000
30.534600 0.696700
30.604800 0.666600
30.675000 0.651100
30.745300 0.643900
30.815500 0.626400
30.885800 0.625700
30.956000 0.603600
31.026200 0.622700
31.096500 0.563700
31.166700 0.546000
31.237000 0.532500
31.307200 0.533800
31.377500 0.560300
31.447700 0.606800
31.517900 0.677700
31.588200 0.775600
31.658400 0.786400
31.728700 0.784800
31.798900 0.802100
31.869100 0.831700
31.939400 0.973600
32.009600 0.888500
32.079900 0.838100
32.150100 0.814800
32.220300 0.811700
32.290600 0.837200
32.360800 0.839600
32.431100 0.862300
32.501300 0.912100
32.571500 0.874100
32.641800 0.838700
32.712000 0.813400
32.782300 0.800600
32.852500 0.783900
32.922800 0.771700
32.993000 0.770200
33.063200 0.782400
33.133500 0.783500
33.203700 0.816300
33.274000 0.750800
33.344200 0.738500
33.414400 0.731400
33.484700 0.715200
33.554900 0.703200
33.625200 0.690400
33.695400 0.688600
33.765600 0.684900
33.835900 0.675400
33.906100 0.663500
33.976400 0.674200
34.046600 0.652400
34.116900 0.638200
34.187100 0.624300
34.257300 0.606700
34.327600 0.595400
34.397800 0.593900
34.468100 0.597100
34.538300 0.608800
34.608500 0.628200
34.678800 0.649300
34.749000 0.658200
34.819300 0.655300
34.889500 0.660600
34.959700 0.660300
35.030000 0.656200
35.100200 0.646900
35.170500 0.634400
35.240700 0.619900
35.311000 0.607500
35.381200 0.606400
35.451400 0.599300
35.521700 0.591800
35.591900 0.585100
35.662200 0.582500
35.732400 0.583500
35.802600 0.579600
35.872900 0.576900
35.943100 0.593700
36.013400 0.594800
36.083600 0.641000
36.153800 0.645400
36.224100 0.644500
36.294300 0.681500
36.364600 0.617600
36.434800 0.603200
36.505000 0.587500
36.575300 0.570000
36.645500 0.561700
36.715800 0.560200
36.786000 0.575000
36.856300 0.629100
36.926500 0.701300
36.996700 0.746300
37.067000 0.742100
37.137200 0.729800
37.207500 0.747600
37.277700 0.776400
37.347900 0.803600
37.418200 0.829300
37.488400 0.857200
37.558700 0.885300
37.628900 0.915200
37.699100 0.933100
37.769400 0.949500
37.839600 1.017300
37.909900 0.999400
37.980100 0.936200
38.050400 0.932100
38.120600 0.975100
38.190800 0.924500
38.261100 0.810300
