set title 'mp-1071319 - Density of States'
set xlabel 'Energy (eV)'
set ylabel 'DOS (states/eV)'
set grid
set xrange [-10:10]
set yrange [0:230.025]
set xzeroaxis lt -1
set terminal png size 800,600
set output 'mp-1071319_dos_gnuplot.png'
plot '-' using 1:2 with lines title 'DOS'
-9.223900 0.000000
-9.211800 0.000000
-9.199700 0.000000
-9.187700 0.000000
-9.175600 0.000000
-9.163500 0.000000
-9.151400 0.000000
-9.139400 0.000000
-9.127300 0.000000
-9.115200 0.000000
-9.103200 0.000000
-9.091100 0.000000
-9.079000 0.000000
-9.066900 0.000000
-9.054900 0.000000
-9.042800 0.000000
-9.030700 0.000000
-9.018600 0.000000
-9.006600 0.000000
-8.994500 0.000000
-8.982400 0.000000
-8.970400 0.000000
-8.958300 0.000000
-8.946200 0.000000
-8.934100 0.000000
-8.922100 0.000000
-8.910000 0.000000
-8.897900 0.000000
-8.885800 0.000000
-8.873800 0.000000
-8.861700 0.000000
-8.849600 0.000000
-8.837500 0.000000
-8.825500 0.000000
-8.813400 0.000000
-8.801300 0.000000
-8.789300 0.000000
-8.777200 0.000000
-8.765100 0.000000
-8.753000 0.000000
-8.741000 0.000000
-8.728900 0.000000
-8.716800 0.000000
-8.704700 0.000000
-8.692700 0.000000
-8.680600 0.000000
-8.668500 0.000000
-8.656500 0.000000
-8.644400 0.000000
-8.632300 0.000000
-8.620200 0.000000
-8.608200 0.000000
-8.596100 0.000000
-8.584000 0.000000
-8.571900 0.000000
-8.559900 0.000000
-8.547800 0.000000
-8.535700 0.000000
-8.523700 0.000000
-8.511600 0.000000
-8.499500 0.000000
-8.487400 0.000000
-8.475400 0.000000
-8.463300 0.000000
-8.451200 0.000000
-8.439100 0.000000
-8.427100 0.000000
-8.415000 0.000000
-8.402900 0.000000
-8.390900 0.000000
-8.378800 0.000000
-8.366700 0.000000
-8.354600 0.000000
-8.342600 0.000000
-8.330500 0.000000
-8.318400 0.000000
-8.306300 0.000000
-8.294300 0.000000
-8.282200 0.000000
-8.270100 0.000000
-8.258100 0.000000
-8.246000 0.000000
-8.233900 0.000000
-8.221800 0.000000
-8.209800 0.000000
-8.197700 0.000000
-8.185600 0.000000
-8.173500 0.000000
-8.161500 0.000000
-8.149400 0.000000
-8.137300 0.000000
-8.125300 0.000400
-8.113200 0.060000
-8.101100 0.220300
-8.089000 0.368200
-8.077000 0.432600
-8.064900 0.451200
-8.052800 0.518800
-8.040700 0.589500
-8.028700 0.653900
-8.016600 0.702800
-8.004500 0.740600
-7.992500 0.781200
-7.980400 0.818800
-7.968300 0.858500
-7.956200 0.903100
-7.944200 0.947800
-7.932100 0.992500
-7.920000 1.026300
-7.907900 1.059100
-7.895900 1.096700
-7.883800 1.137200
-7.871700 1.177700
-7.859600 1.219800
-7.847600 1.261700
-7.835500 1.294800
-7.823400 1.329300
-7.811400 1.365800
-7.799300 1.404700
-7.787200 1.441400
-7.775100 1.474900
-7.763100 1.510300
-7.751000 1.547700
-7.738900 1.584900
-7.726800 1.621900
-7.714800 1.658700
-7.702700 1.695500
-7.690600 1.733900
-7.678600 1.781600
-7.666500 1.828000
-7.654400 1.874300
-7.642300 1.918200
-7.630300 1.959900
-7.618200 2.002400
-7.606100 2.044900
-7.594000 2.087500
-7.582000 2.130200
-7.569900 2.174800
-7.557800 2.224100
-7.545800 2.275800
-7.533700 2.329300
-7.521600 2.383800
-7.509500 2.439400
-7.497500 2.495700
-7.485400 2.552000
-7.473300 2.609100
-7.461200 2.667300
-7.449200 2.730100
-7.437100 2.798000
-7.425000 2.867500
-7.413000 2.939000
-7.400900 3.012100
-7.388800 3.098900
-7.376700 3.186200
-7.364700 3.274700
-7.352600 3.365700
-7.340500 3.459700
-7.328400 3.556400
-7.316400 3.658200
-7.304300 3.768200
-7.292200 3.881700
-7.280200 4.014000
-7.268100 4.167400
-7.256000 4.344000
-7.243900 4.541700
-7.231900 4.762700
-7.219800 5.053400
-7.207700 5.425800
-7.195600 5.880900
-7.183600 6.928200
-7.171500 7.356400
-7.159400 6.693700
-7.147400 6.175400
-7.135300 5.873100
-7.123200 5.620200
-7.111100 5.411000
-7.099100 5.413500
-7.087000 5.312500
-7.074900 5.132900
-7.062800 4.961700
-7.050800 5.014300
-7.038700 5.109900
-7.026600 5.213500
-7.014600 5.662100
-7.002500 5.253900
-6.990400 4.882000
-6.978300 4.584100
-6.966300 4.637500
-6.954200 4.844700
-6.942100 5.167400
-6.930000 5.616000
-6.918000 6.374700
-6.905900 7.653000
-6.893800 9.601800
-6.881700 12.139800
-6.869700 19.998100
-6.857600 10.245000
-6.845500 3.432800
-6.833500 2.740400
-6.821400 2.943800
-6.809300 3.278500
-6.797200 3.794500
-6.785200 5.087700
-6.773100 12.234100
-6.761000 15.014900
-6.748900 18.601900
-6.736900 18.555100
-6.724800 11.259900
-6.712700 9.590000
-6.700700 8.810200
-6.688600 8.372500
-6.676500 8.917600
-6.664400 8.402700
-6.652400 5.539100
-6.640300 0.582400
-6.628200 0.000000
-6.616100 0.000000
-6.604100 0.000000
-6.592000 0.000000
-6.579900 0.000000
-6.567900 0.000000
-6.555800 0.000000
-6.543700 0.000000
-6.531600 0.000000
-6.519600 0.000000
-6.507500 0.000000
-6.495400 0.000000
-6.483300 0.000000
-6.471300 0.000000
-6.459200 0.000000
-6.447100 0.000000
-6.435100 0.000000
-6.423000 0.000000
-6.410900 0.000000
-6.398800 0.000000
-6.386800 0.000000
-6.374700 0.000000
-6.362600 0.000000
-6.350500 0.000000
-6.338500 0.000000
-6.326400 0.000000
-6.314300 0.000000
-6.302300 0.000000
-6.290200 0.000000
-6.278100 0.000000
-6.266000 0.000000
-6.254000 0.000000
-6.241900 0.000000
-6.229800 0.000000
-6.217700 0.000000
-6.205700 0.000000
-6.193600 0.000000
-6.181500 0.000000
-6.169500 0.000000
-6.157400 0.000000
-6.145300 0.000000
-6.133200 0.000000
-6.121200 0.000000
-6.109100 0.000000
-6.097000 0.000000
-6.084900 0.000000
-6.072900 0.000000
-6.060800 0.000000
-6.048700 0.000000
-6.036700 0.000000
-6.024600 0.000000
-6.012500 0.000000
-6.000400 0.000000
-5.988400 0.000000
-5.976300 0.000000
-5.964200 0.000000
-5.952100 0.000000
-5.940100 0.000000
-5.928000 0.000000
-5.915900 0.000000
-5.903800 0.000000
-5.891800 0.000000
-5.879700 0.000000
-5.867600 0.000000
-5.855600 0.000000
-5.843500 0.000000
-5.831400 0.000000
-5.819300 0.000000
-5.807300 0.000000
-5.795200 0.000000
-5.783100 0.000000
-5.771000 0.000000
-5.759000 0.000000
-5.746900 0.000000
-5.734800 0.000000
-5.722800 0.000000
-5.710700 0.000000
-5.698600 0.000000
-5.686500 0.000000
-5.674500 0.000000
-5.662400 0.000000
-5.650300 0.000000
-5.638200 0.000000
-5.626200 0.000000
-5.614100 0.000000
-5.602000 0.000000
-5.590000 0.000000
-5.577900 0.000000
-5.565800 0.000000
-5.553700 0.000000
-5.541700 0.000000
-5.529600 0.000000
-5.517500 0.000000
-5.505400 0.000000
-5.493400 0.000000
-5.481300 0.000000
-5.469200 0.000000
-5.457200 0.000000
-5.445100 0.000000
-5.433000 0.000000
-5.420900 0.000000
-5.408900 0.000000
-5.396800 0.000000
-5.384700 0.000000
-5.372600 0.000000
-5.360600 0.000000
-5.348500 0.000000
-5.336400 0.000000
-5.324400 0.000000
-5.312300 0.000000
-5.300200 0.000000
-5.288100 0.000000
-5.276100 0.000000
-5.264000 0.000000
-5.251900 0.000000
-5.239800 0.000000
-5.227800 0.000000
-5.215700 0.000000
-5.203600 0.000000
-5.191600 0.000000
-5.179500 0.000000
-5.167400 0.000000
-5.155300 0.000000
-5.143300 0.000000
-5.131200 0.000000
-5.119100 0.000000
-5.107000 0.000000
-5.095000 0.000000
-5.082900 0.000000
-5.070800 0.000000
-5.058700 0.000000
-5.046700 0.000000
-5.034600 0.000000
-5.022500 0.000000
-5.010500 0.000000
-4.998400 0.000000
-4.986300 0.000000
-4.974200 0.000000
-4.962200 0.000000
-4.950100 0.000000
-4.938000 0.000000
-4.925900 0.000000
-4.913900 0.000000
-4.901800 0.000000
-4.889700 0.000000
-4.877700 0.000000
-4.865600 0.000000
-4.853500 0.000000
-4.841400 0.000000
-4.829400 0.000000
-4.817300 0.000000
-4.805200 0.000000
-4.793100 0.000000
-4.781100 0.000000
-4.769000 0.000000
-4.756900 0.000000
-4.744900 0.000000
-4.732800 0.000000
-4.720700 0.000000
-4.708600 0.000000
-4.696600 0.000000
-4.684500 0.000000
-4.672400 0.000000
-4.660300 0.000000
-4.648300 0.000000
-4.636200 0.000000
-4.624100 0.000000
-4.612100 0.000000
-4.600000 0.000000
-4.587900 0.000000
-4.575800 0.000000
-4.563800 0.000000
-4.551700 0.000000
-4.539600 0.000000
-4.527500 0.000000
-4.515500 0.000000
-4.503400 0.000000
-4.491300 0.000000
-4.479300 0.000000
-4.467200 0.000000
-4.455100 0.000000
-4.443000 0.000000
-4.431000 0.000000
-4.418900 0.000000
-4.406800 0.000000
-4.394700 0.000000
-4.382700 0.000000
-4.370600 0.000000
-4.358500 0.000000
-4.346500 0.000000
-4.334400 0.000000
-4.322300 0.000000
-4.310200 0.000000
-4.298200 0.000000
-4.286100 0.000000
-4.274000 0.000000
-4.261900 0.000000
-4.249900 0.000000
-4.237800 0.000000
-4.225700 0.000000
-4.213700 0.000000
-4.201600 0.000000
-4.189500 0.000000
-4.177400 0.000000
-4.165400 0.000000
-4.153300 0.000000
-4.141200 0.000000
-4.129100 0.000000
-4.117100 0.000000
-4.105000 0.000000
-4.092900 0.000000
-4.080800 0.000000
-4.068800 0.000000
-4.056700 0.000000
-4.044600 0.000000
-4.032600 0.000000
-4.020500 0.000000
-4.008400 0.000000
-3.996300 0.000000
-3.984300 0.000000
-3.972200 0.000000
-3.960100 0.000000
-3.948000 0.000000
-3.936000 0.000000
-3.923900 0.000000
-3.911800 0.000000
-3.899800 0.000000
-3.887700 0.000000
-3.875600 0.000000
-3.863500 0.000000
-3.851500 0.000000
-3.839400 0.000000
-3.827300 0.000000
-3.815200 0.000000
-3.803200 0.000000
-3.791100 0.000000
-3.779000 0.000000
-3.767000 0.000000
-3.754900 0.000000
-3.742800 0.000000
-3.730700 0.000000
-3.718700 0.000000
-3.706600 0.000000
-3.694500 0.000000
-3.682400 0.000000
-3.670400 0.000000
-3.658300 0.000000
-3.646200 0.000000
-3.634200 0.000000
-3.622100 0.000000
-3.610000 0.000000
-3.597900 0.000000
-3.585900 0.000000
-3.573800 0.000000
-3.561700 0.000000
-3.549600 0.000000
-3.537600 0.000000
-3.525500 0.000000
-3.513400 0.000000
-3.501400 0.000000
-3.489300 0.000000
-3.477200 0.000000
-3.465100 0.000000
-3.453100 0.000000
-3.441000 0.000000
-3.428900 0.000000
-3.416800 0.000000
-3.404800 0.000000
-3.392700 0.000000
-3.380600 0.000000
-3.368600 0.000000
-3.356500 0.000000
-3.344400 0.000000
-3.332300 0.000000
-3.320300 0.000000
-3.308200 0.000000
-3.296100 0.000000
-3.284000 0.000000
-3.272000 4.934100
-3.259900 11.628300
-3.247800 17.741400
-3.235800 26.879100
-3.223700 36.639500
-3.211600 40.723500
-3.199500 26.702800
-3.187500 23.558800
-3.175400 80.746500
-3.163300 48.206800
-3.151200 31.883400
-3.139200 83.374100
-3.127100 74.289200
-3.115000 39.666600
-3.102900 143.511400
-3.090900 56.244100
-3.078800 50.929200
-3.066700 81.660100
-3.054700 202.072200
-3.042600 133.660700
-3.030500 133.651400
-3.018400 124.075100
-3.006400 74.259700
-2.994300 121.027900
-2.982200 209.113900
-2.970100 145.234100
-2.958100 76.086000
-2.946000 28.939300
-2.933900 28.960500
-2.921900 30.603300
-2.909800 32.820200
-2.897700 39.831400
-2.885600 27.828200
-2.873600 24.490600
-2.861500 21.517500
-2.849400 22.352900
-2.837300 28.123900
-2.825300 22.113600
-2.813200 8.354200
-2.801100 7.196600
-2.789100 8.197300
-2.777000 10.613100
-2.764900 18.882400
-2.752800 36.499600
-2.740800 19.410800
-2.728700 10.513300
-2.716600 0.000000
-2.704500 0.000000
-2.692500 0.000000
-2.680400 0.000000
-2.668300 0.000000
-2.656300 0.000000
-2.644200 0.000000
-2.632100 0.000000
-2.620000 0.000000
-2.608000 0.000000
-2.595900 0.000000
-2.583800 0.000000
-2.571700 0.000000
-2.559700 0.000000
-2.547600 0.000000
-2.535500 0.000000
-2.523500 0.000000
-2.511400 0.000000
-2.499300 0.000000
-2.487200 0.000000
-2.475200 0.000000
-2.463100 0.000000
-2.451000 0.000000
-2.438900 0.000000
-2.426900 0.000000
-2.414800 0.000000
-2.402700 0.000000
-2.390700 0.000000
-2.378600 0.000000
-2.366500 0.000000
-2.354400 0.000000
-2.342400 0.000000
-2.330300 0.000000
-2.318200 0.000000
-2.306100 0.000000
-2.294100 0.000000
-2.282000 0.000000
-2.269900 0.000000
-2.257900 0.000000
-2.245800 0.000000
-2.233700 0.000000
-2.221600 0.000000
-2.209600 0.000000
-2.197500 0.000000
-2.185400 0.000000
-2.173300 0.000000
-2.161300 0.000000
-2.149200 0.000000
-2.137100 0.000000
-2.125000 0.000000
-2.113000 0.000000
-2.100900 0.000000
-2.088800 0.000000
-2.076800 0.000000
-2.064700 0.000000
-2.052600 0.000000
-2.040500 0.000000
-2.028500 0.000000
-2.016400 0.000000
-2.004300 0.000000
-1.992200 0.000000
-1.980200 0.000000
-1.968100 0.000000
-1.956000 0.000000
-1.944000 0.000000
-1.931900 0.000000
-1.919800 0.000000
-1.907700 0.000000
-1.895700 0.000000
-1.883600 0.000000
-1.871500 0.000000
-1.859400 0.000000
-1.847400 0.000000
-1.835300 0.000000
-1.823200 0.000000
-1.811200 0.000000
-1.799100 0.000000
-1.787000 0.000000
-1.774900 0.000000
-1.762900 0.000000
-1.750800 0.000000
-1.738700 0.000000
-1.726600 0.000000
-1.714600 0.000000
-1.702500 0.000000
-1.690400 0.000000
-1.678400 0.000000
-1.666300 0.000000
-1.654200 0.000000
-1.642100 0.000000
-1.630100 0.000000
-1.618000 0.000000
-1.605900 0.000000
-1.593800 0.000000
-1.581800 0.000000
-1.569700 0.000000
-1.557600 0.000000
-1.545600 0.019500
-1.533500 0.296900
-1.521400 0.784900
-1.509300 1.138000
-1.497300 1.433100
-1.485200 2.039000
-1.473100 3.339900
-1.461000 4.613500
-1.449000 5.249900
-1.436900 4.975300
-1.424800 4.358200
-1.412800 4.234700
-1.400700 4.242800
-1.388600 4.206100
-1.376500 4.106300
-1.364500 3.987000
-1.352400 3.949900
-1.340300 4.073700
-1.328200 4.148600
-1.316200 4.268800
-1.304100 4.329100
-1.292000 4.255900
-1.280000 3.923700
-1.267900 3.784100
-1.255800 3.798200
-1.243700 3.760600
-1.231700 3.692900
-1.219600 3.658400
-1.207500 3.600800
-1.195400 3.529400
-1.183400 3.512500
-1.171300 3.541600
-1.159200 3.614900
-1.147100 3.702400
-1.135100 3.625300
-1.123000 3.601300
-1.110900 3.619700
-1.098900 3.684700
-1.086800 3.786300
-1.074700 3.928000
-1.062600 4.086300
-1.050600 4.211800
-1.038500 4.355600
-1.026400 4.521400
-1.014300 4.807600
-1.002300 5.124200
-0.990200 5.342600
-0.978100 5.370000
-0.966100 5.081400
-0.954000 4.939500
-0.941900 4.770000
-0.929800 4.576100
-0.917800 4.200700
-0.905700 3.917400
-0.893600 3.743700
-0.881500 3.373700
-0.869500 2.957000
-0.857400 2.749200
-0.845300 2.654100
-0.833300 2.579400
-0.821200 2.541500
-0.809100 2.547000
-0.797000 2.593700
-0.785000 2.068900
-0.772900 1.927100
-0.760800 1.785400
-0.748700 1.657500
-0.736700 1.548600
-0.724600 1.496000
-0.712500 1.451600
-0.700500 1.414900
-0.688400 1.379800
-0.676300 1.346100
-0.664200 1.313000
-0.652200 1.280100
-0.640100 1.247900
-0.628000 1.216100
-0.615900 1.184700
-0.603900 1.153700
-0.591800 1.123500
-0.579700 1.096300
-0.567700 1.072300
-0.555600 1.052100
-0.543500 1.035700
-0.531400 1.021800
-0.519400 1.010100
-0.507300 1.004400
-0.495200 1.005100
-0.483100 1.011500
-0.471100 1.026400
-0.459000 1.072900
-0.446900 1.152300
-0.434900 1.266500
-0.422800 1.394200
-0.410700 1.509200
-0.398600 1.615300
-0.386600 1.716700
-0.374500 1.816400
-0.362400 1.916800
-0.350300 2.016100
-0.338300 2.114500
-0.326200 2.239500
-0.314100 2.373000
-0.302100 2.530300
-0.290000 2.712500
-0.277900 2.979900
-0.265800 3.340200
-0.253800 3.806300
-0.241700 4.254800
-0.229600 4.478400
-0.217500 4.362700
-0.205500 4.136600
-0.193400 3.957100
-0.181300 3.930500
-0.169200 4.019500
-0.157200 4.057100
-0.145100 4.198200
-0.133000 4.524300
-0.121000 4.918700
-0.108900 5.440600
-0.096800 6.076200
-0.084700 6.551600
-0.072700 6.875300
-0.060600 6.623300
-0.048500 6.004300
-0.036400 5.444600
-0.024400 4.875000
-0.012300 4.426400
-0.000200 4.038300
0.011800 3.716000
0.023900 3.448400
0.036000 3.216000
0.048100 2.947800
0.060100 2.802400
0.072200 2.713700
0.084300 2.635400
0.096400 2.564900
0.108400 2.497500
0.120500 2.440500
0.132600 2.407300
0.144600 2.427100
0.156700 2.249900
0.168800 2.032600
0.180900 1.718900
0.192900 1.616500
0.205000 1.504900
0.217100 1.409600
0.229200 1.331600
0.241200 1.270800
0.253300 1.227300
0.265400 1.201100
0.277400 1.195900
0.289500 1.198600
0.301600 1.202200
0.313700 1.207700
0.325700 1.216800
0.337800 1.228200
0.349900 1.240700
0.362000 1.254500
0.374000 1.269400
0.386100 1.308000
0.398200 1.365200
0.410200 1.409900
0.422300 1.452500
0.434400 1.504800
0.446500 1.568100
0.458500 1.642400
0.470600 1.726100
0.482700 1.799800
0.494800 1.860900
0.506800 1.920500
0.518900 1.977600
0.531000 2.031900
0.543000 2.084700
0.555100 2.138800
0.567200 2.196400
0.579300 2.250100
0.591300 2.290900
0.603400 2.318500
0.615500 2.336500
0.627600 2.346900
0.639600 2.363800
0.651700 2.386000
0.663800 2.383100
0.675800 2.364600
0.687900 2.334500
0.700000 2.302400
0.712100 2.287500
0.724100 2.270200
0.736200 2.260200
0.748300 2.203700
0.760400 2.196100
0.772400 2.275100
0.784500 2.549800
0.796600 3.107600
0.808700 3.245800
0.820700 2.775600
0.832800 2.823000
0.844900 2.850400
0.856900 2.856300
0.869000 2.835900
0.881100 2.777700
0.893200 2.710400
0.905200 2.649700
0.917300 2.621800
0.929400 2.658800
0.941500 2.676300
0.953500 2.681000
0.965600 2.682100
0.977700 2.678000
0.989700 2.739400
1.001800 2.752100
1.013900 2.757700
1.026000 2.756200
1.038000 2.776400
1.050100 2.815000
1.062200 2.859700
1.074300 2.912700
1.086300 2.928500
1.098400 2.938300
1.110500 2.956500
1.122500 2.983100
1.134600 3.019200
1.146700 3.064800
1.158800 3.127800
1.170800 3.175100
1.182900 3.233300
1.195000 3.283700
1.207100 3.389600
1.219100 3.426000
1.231200 3.411300
1.243300 3.424600
1.255300 3.449200
1.267400 3.462400
1.279500 3.460700
1.291600 3.471300
1.303600 3.495100
1.315700 3.512900
1.327800 3.533800
1.339900 3.572300
1.351900 3.633300
1.364000 3.714200
1.376100 3.818200
1.388100 3.933700
1.400200 4.056500
1.412300 4.152100
1.424400 4.213800
1.436400 4.228300
1.448500 4.261100
1.460600 4.298100
1.472700 4.331400
1.484700 4.364300
1.496800 4.426500
1.508900 4.534800
1.520900 4.112200
1.533000 4.103300
1.545100 4.128200
1.557200 4.159200
1.569200 4.192100
1.581300 4.201600
1.593400 4.198100
1.605500 4.199500
1.617500 4.189100
1.629600 4.142600
1.641700 4.077600
1.653700 4.047200
1.665800 3.997300
1.677900 3.960900
1.690000 3.931400
1.702000 3.914200
1.714100 3.896500
1.726200 3.834300
1.738300 3.775200
1.750300 3.715900
1.762400 3.698600
1.774500 3.690200
1.786600 3.691400
1.798600 3.705100
1.810700 3.712100
1.822800 3.727000
1.834800 3.751100
1.846900 3.785100
1.859000 3.829600
1.871100 3.880300
1.883100 3.938100
1.895200 4.003600
1.907300 4.090200
1.919400 4.197500
1.931400 4.311200
1.943500 4.445900
1.955600 4.615000
1.967600 4.846000
1.979700 5.089100
1.991800 5.216700
2.003900 5.519800
2.015900 5.924100
2.028000 6.193600
2.040100 6.583000
2.052200 6.644000
2.064200 5.997300
2.076300 5.293900
2.088400 5.007900
2.100400 4.870600
2.112500 4.785900
2.124600 4.726000
2.136700 4.718300
2.148700 4.765800
2.160800 4.839300
2.172900 5.023300
2.185000 5.165200
2.197000 5.258900
2.209100 5.305900
2.221200 5.401500
2.233200 5.563100
2.245300 5.604000
2.257400 5.571900
2.269500 5.563800
2.281500 5.589100
2.293600 5.587300
2.305700 5.539400
2.317800 5.426300
2.329800 5.286800
2.341900 5.135000
2.354000 5.003900
2.366000 4.898200
2.378100 4.802500
2.390200 4.728200
2.402300 4.688300
2.414300 4.739200
2.426400 4.871800
2.438500 5.001400
2.450600 4.655700
2.462600 4.619700
2.474700 4.613900
2.486800 4.621800
2.498800 4.681300
2.510900 4.788400
2.523000 4.933800
2.535100 5.083200
2.547100 5.217400
2.559200 5.362700
2.571300 5.485000
2.583400 5.498100
2.595400 5.425000
2.607500 5.598300
2.619600 5.809400
2.631700 5.862400
2.643700 5.842900
2.655800 5.594600
2.667900 5.368100
2.679900 5.188900
2.692000 5.105700
2.704100 5.056800
2.716200 5.001200
2.728200 4.955800
2.740300 4.914200
2.752400 4.862400
2.764500 4.837800
2.776500 4.816300
2.788600 4.824600
2.800700 4.846500
2.812700 4.878600
2.824800 4.908700
2.836900 4.927000
2.849000 4.900300
2.861000 4.895500
2.873100 4.953000
2.885200 5.013400
2.897300 5.019100
2.909300 5.039200
2.921400 5.063700
2.933500 5.105400
2.945500 5.145000
2.957600 5.167400
2.969700 5.176000
2.981800 5.181400
2.993800 5.189200
3.005900 5.182700
3.018000 5.195900
3.030100 5.230600
3.042100 5.187100
3.054200 5.194600
3.066300 5.236500
3.078300 5.301100
3.090400 5.382000
3.102500 5.486600
3.114600 5.679100
3.126600 5.990000
3.138700 7.079800
3.150800 8.082700
3.162900 6.779600
3.174900 6.124900
3.187000 5.290400
3.199100 4.334100
3.211100 3.788400
3.223200 3.141800
3.235300 2.809600
3.247400 2.704700
3.259400 2.579300
3.271500 2.454800
3.283600 2.353800
3.295700 2.242500
3.307700 2.081600
3.319800 1.914200
3.331900 1.753400
3.343900 1.648700
3.356000 1.575000
3.368100 1.517200
3.380200 1.461900
3.392200 1.404200
3.404300 1.344200
3.416400 1.299500
3.428500 1.289700
