set title 'mp-998866 - Density of States'
set xlabel 'Energy (eV)'
set ylabel 'DOS (states/eV)'
set grid
set xrange [-10:10]
set yrange [0:0.373]
set xzeroaxis lt -1
set terminal png size 800,600
set output 'mp-998866_dos_gnuplot.png'
plot '-' using 1:2 with lines title 'DOS'
-23.680900 0.000000
-23.543500 0.000000
-23.406200 0.000000
-23.268800 0.000000
-23.131500 0.000000
-22.994100 0.000000
-22.856800 0.000000
-22.719400 0.000000
-22.582000 0.000000
-22.444700 0.000000
-22.307300 0.000000
-22.170000 0.000000
-22.032600 0.000000
-21.895300 0.000000
-21.757900 0.000000
-21.620500 0.000000
-21.483200 0.000000
-21.345800 0.000000
-21.208500 0.000000
-21.071100 0.000000
-20.933800 0.000000
-20.796400 0.000000
-20.659000 0.000000
-20.521700 0.000000
-20.384300 0.000000
-20.247000 0.000000
-20.109600 0.000000
-19.972300 0.000000
-19.834900 0.000000
-19.697500 0.000000
-19.560200 0.000000
-19.422800 0.000000
-19.285500 0.000000
-19.148100 0.000000
-19.010800 0.000000
-18.873400 0.000000
-18.736000 0.000000
-18.598700 0.000000
-18.461300 0.000000
-18.324000 0.000000
-18.186600 0.000000
-18.049300 0.000000
-17.911900 0.000000
-17.774500 0.000000
-17.637200 0.000000
-17.499800 0.000000
-17.362500 0.000000
-17.225100 0.000000
-17.087800 0.000000
-16.950400 0.000000
-16.813000 0.000000
-16.675700 0.000000
-16.538300 0.000000
-16.401000 0.000000
-16.263600 0.000000
-16.126300 0.000000
-15.988900 0.000000
-15.851500 0.000000
-15.714200 0.000000
-15.576800 0.000000
-15.439500 0.000000
-15.302100 0.000000
-15.164800 0.000000
-15.027400 0.000000
-14.890000 0.000000
-14.752700 0.000000
-14.615300 0.000000
-14.478000 0.000000
-14.340600 0.000000
-14.203200 0.000000
-14.065900 0.000000
-13.928500 0.000000
-13.791200 0.000000
-13.653800 0.000000
-13.516500 0.000000
-13.379100 0.000000
-13.241700 0.000000
-13.104400 0.000000
-12.967000 0.000000
-12.829700 0.000000
-12.692300 0.000000
-12.555000 0.000000
-12.417600 0.000000
-12.280200 0.000000
-12.142900 0.000000
-12.005500 0.000000
-11.868200 0.000000
-11.730800 0.000000
-11.593500 0.000000
-11.456100 0.000000
-11.318700 0.000000
-11.181400 0.006900
-11.044000 0.020600
-10.906700 0.029200
-10.769300 0.033400
-10.632000 0.039500
-10.494600 0.043200
-10.357200 0.047300
-10.219900 0.051700
-10.082500 0.054700
-9.945200 0.057700
-9.807800 0.061200
-9.670500 0.064500
-9.533100 0.066800
-9.395700 0.069500
-9.258400 0.072400
-9.121000 0.075300
-8.983700 0.077500
-8.846300 0.079700
-8.709000 0.082000
-8.571600 0.084500
-8.434200 0.087100
-8.296900 0.089100
-8.159500 0.091000
-8.022200 0.093100
-7.884800 0.095200
-7.747500 0.097400
-7.610100 0.099600
-7.472700 0.101400
-7.335400 0.103200
-7.198000 0.105100
-7.060700 0.107000
-6.923300 0.109000
-6.786000 0.111100
-6.648600 0.112800
-6.511200 0.114500
-6.373900 0.116200
-6.236500 0.117900
-6.099200 0.119700
-5.961800 0.121600
-5.824500 0.123500
-5.687100 0.125200
-5.549700 0.126800
-5.412400 0.128400
-5.275000 0.130000
-5.137700 0.131700
-5.000300 0.133400
-4.863000 0.135200
-4.725600 0.137000
-4.588200 0.138600
-4.450900 0.140100
-4.313500 0.141700
-4.176200 0.143300
-4.038800 0.144900
-3.901500 0.146600
-3.764100 0.148300
-3.626700 0.150100
-3.489400 0.151800
-3.352000 0.153400
-3.214700 0.155000
-3.077300 0.156800
-2.940000 0.158500
-2.802600 0.160300
-2.665200 0.162100
-2.527900 0.163900
-2.390500 0.165800
-2.253200 0.181100
-2.115800 0.183300
-1.978500 0.181800
-1.841100 0.179700
-1.703700 0.177300
-1.566400 0.175000
-1.429000 0.173500
-1.291700 0.170500
-1.154300 0.168500
-1.017000 0.166800
-0.879600 0.164000
-0.742200 0.183100
-0.604900 0.183200
-0.467500 0.185000
-0.330200 0.186700
-0.192800 0.187900
-0.055500 0.189600
0.081900 0.192100
0.219300 0.192700
0.356600 0.194400
0.494000 0.196700
0.631300 0.198300
0.768700 0.199900
0.906000 0.201300
1.043400 0.203200
1.180800 0.204600
1.318100 0.206300
1.455500 0.208400
1.592800 0.210300
1.730200 0.212200
1.867500 0.214000
2.004900 0.216000
2.142300 0.218100
2.279600 0.220400
2.417000 0.222400
2.554300 0.224600
2.691700 0.226900
2.829000 0.229300
2.966400 0.231700
3.103800 0.234400
3.241100 0.237800
3.378500 0.241000
3.515800 0.244100
3.653200 0.247400
3.790500 0.251500
3.927900 0.256200
4.065300 0.261500
4.202600 0.266200
4.340000 0.272900
4.477300 0.281100
4.614700 0.292500
4.752000 0.316900
4.889400 0.331800
5.026800 0.338900
5.164100 0.318700
5.301500 0.314000
5.438800 0.308400
5.576200 0.309500
5.713500 0.301200
5.850900 0.295500
5.988300 0.290900
6.125600 0.285400
6.263000 0.285300
6.400300 0.278800
6.537700 0.273700
6.675000 0.268600
6.812400 0.263300
6.949800 0.258200
7.087100 0.254100
7.224500 0.252500
7.361800 0.246200
7.499200 0.240900
7.636500 0.235600
7.773900 0.230100
7.911300 0.225000
8.048600 0.219300
8.186000 0.214300
8.323300 0.225500
8.460700 0.226000
8.598000 0.225600
8.735400 0.225700
8.872800 0.227100
9.010100 0.227200
9.147500 0.223800
9.284800 0.222000
9.422200 0.225600
9.559500 0.217000
9.696900 0.209800
9.834300 0.226900
9.971600 0.234700
10.109000 0.248800
10.246300 0.245000
10.383700 0.250600
10.521000 0.252500
10.658400 0.262700
10.795800 0.254500
10.933100 0.256900
11.070500 0.264800
11.207800 0.265400
11.345200 0.267500
11.482500 0.253600
11.619900 0.255200
11.757300 0.259200
11.894600 0.267400
12.032000 0.278800
12.169300 0.250700
12.306700 0.246200
12.444000 0.246300
12.581400 0.248000
12.718800 0.250600
12.856100 0.256500
12.993500 0.238600
13.130800 0.237100
13.268200 0.237200
13.405500 0.234500
13.542900 0.233700
13.680300 0.244600
13.817600 0.224900
13.955000 0.219300
14.092300 0.217100
14.229700 0.216300
14.367000 0.215000
14.504400 0.215700
14.641800 0.221100
14.779100 0.209300
14.916500 0.202200
15.053800 0.200200
15.191200 0.197900
15.328500 0.196300
15.465900 0.193800
15.603300 0.193400
15.740600 0.190000
15.878000 0.182900
16.015300 0.181400
16.152700 0.181400
16.290000 0.181500
16.427400 0.178000
16.564800 0.175700
16.702100 0.174700
16.839500 0.168900
16.976800 0.164600
17.114200 0.162500
17.251600 0.160400
17.388900 0.159200
17.526300 0.156700
17.663600 0.155400
17.801000 0.161100
17.938300 0.153100
18.075700 0.148200
18.213100 0.145800
18.350400 0.143400
18.487800 0.141400
18.625100 0.139500
18.762500 0.139400
18.899800 0.135600
19.037200 0.133500
19.174600 0.142400
19.311900 0.146500
19.449300 0.190000
19.586600 0.270100
19.724000 0.307000
19.861300 0.345900
19.998700 0.420500
20.136100 0.495800
20.273400 0.500900
20.410800 0.503800
20.548100 0.506400
20.685500 0.505700
20.822800 0.508500
20.960200 0.512000
21.097600 0.509700
21.234900 0.514000
21.372300 0.517400
21.509600 0.516300
21.647000 0.523600
21.784300 0.529100
21.921700 0.542300
22.059100 0.551700
22.196400 0.530700
22.333800 0.532900
22.471100 0.524400
22.608500 0.515600
22.745800 0.532800
22.883200 0.538600
23.020600 0.538800
23.157900 0.530400
23.295300 0.557000
23.432600 0.489500
23.570000 0.428100
23.707300 0.397700
23.844700 0.380100
23.982100 0.357700
24.119400 0.331200
24.256800 0.310100
24.394100 0.299700
24.531500 0.289000
24.668800 0.259800
24.806200 0.218600
24.943600 0.193100
25.080900 0.215800
25.218300 0.261400
25.355600 0.261900
25.493000 0.237300
25.630300 0.215100
25.767700 0.195400
25.905100 0.171600
26.042400 0.123800
26.179800 0.126800
26.317100 0.139900
26.454500 0.143900
26.591800 0.146400
26.729200 0.152600
26.866600 0.144300
27.003900 0.142800
27.141300 0.134800
27.278600 0.128800
27.416000 0.123900
27.553300 0.119500
27.690700 0.117100
27.828100 0.114300
27.965400 0.112100
28.102800 0.110400
28.240100 0.108600
28.377500 0.112200
28.514800 0.115600
28.652200 0.126400
28.789600 0.120100
28.926900 0.121900
29.064300 0.124800
29.201600 0.128300
29.339000 0.128600
29.476300 0.132000
29.613700 0.128800
29.751100 0.130900
29.888400 0.134200
30.025800 0.134800
30.163100 0.136000
30.300500 0.136500
30.437800 0.137000
30.575200 0.137600
30.712600 0.142500
30.849900 0.141100
30.987300 0.141300
31.124600 0.141300
31.262000 0.142200
31.399300 0.143400
31.536700 0.144900
31.674100 0.145700
31.811400 0.148600
31.948800 0.148500
32.086100 0.149300
32.223500 0.149700
32.360800 0.150000
32.498200 0.150700
32.635600 0.151500
32.772900 0.152500
32.910300 0.153700
33.047600 0.154600
33.185000 0.156700
33.322300 0.157100
33.459700 0.157400
33.597100 0.157200
33.734400 0.158000
33.871800 0.159200
34.009100 0.160400
34.146500 0.162000
34.283800 0.163100
34.421200 0.164300
34.558600 0.165700
34.695900 0.167200
34.833300 0.167800
34.970600 0.168500
35.108000 0.169000
35.245300 0.170100
35.382700 0.171800
35.520100 0.173100
35.657400 0.173800
35.794800 0.175000
35.932100 0.176400
36.069500 0.177700
36.206800 0.179000
36.344200 0.180200
36.481600 0.188700
36.618900 0.191800
36.756300 0.196200
36.893600 0.198700
37.031000 0.201600
37.168300 0.204800
37.305700 0.208500
37.443100 0.211100
37.580400 0.214200
37.717800 0.217000
37.855100 0.221000
37.992500 0.225100
38.129800 0.228400
38.267200 0.231700
38.404600 0.235000
38.541900 0.238300
38.679300 0.241000
38.816600 0.244100
38.954000 0.248900
39.091300 0.253400
39.228700 0.258100
39.366100 0.263700
39.503400 0.271300
39.640800 0.282300
39.778100 0.307300
39.915500 0.325600
40.052800 0.337100
40.190200 0.297200
40.327600 0.238900
40.464900 0.200800
40.602300 0.198300
40.739600 0.269800
40.877000 0.302700
41.014300 0.374800
41.151700 0.287100
41.289100 0.253400
41.426400 0.219500
41.563800 0.220300
41.701100 0.275400
41.838500 0.291400
41.975800 0.246800
42.113200 0.242900
42.250600 0.246700
42.387900 0.251100
42.525300 0.256000
42.662600 0.262000
42.800000 0.268700
42.937300 0.276100
43.074700 0.284700
43.212100 0.293300
43.349400 0.305500
43.486800 0.320700
43.624100 0.340200
43.761500 0.368100
43.898800 0.367400
44.036200 0.366400
44.173600 0.363800
44.310900 0.363600
44.448300 0.370500
44.585600 0.358300
44.723000 0.340400
44.860300 0.314700
44.997700 0.294500
45.135100 0.283600
45.272400 0.273100
45.409800 0.267000
45.547100 0.258100
45.684500 0.241700
45.821800 0.236300
45.959200 0.232300
46.096600 0.229800
46.233900 0.227300
46.371300 0.225100
46.508600 0.226300
46.646000 0.227200
46.783300 0.230400
46.920700 0.237100
47.058100 0.238400
47.195400 0.240500
47.332800 0.243900
47.470100 0.248300
47.607500 0.251700
47.744800 0.257800
47.882200 0.263000
48.019600 0.267400
48.156900 0.271300
48.294300 0.275200
48.431600 0.278500
48.569000 0.281600
48.706400 0.285700
48.843700 0.289700
48.981100 0.294000
49.118400 0.299400
49.255800 0.305700
49.393100 0.313800
49.530500 0.322900
49.667900 0.335000
49.805200 0.350100
49.942600 0.366400
50.079900 0.386100
50.217300 0.388500
50.354600 0.378100
50.492000 0.383400
50.629400 0.378900
50.766700 0.393400
50.904100 0.347600
51.041400 0.306400
51.178800 0.320600
51.316100 0.325900
51.453500 0.333600
51.590900 0.349000
51.728200 0.380600
51.865600 0.414600
52.002900 0.442100
52.140300 0.428600
52.277600 0.406700
52.415000 0.390900
52.552400 0.408800
52.689700 0.427300
52.827100 0.421300
52.964400 0.399600
53.101800 0.350500
53.239100 0.329500
53.376500 0.318100
53.513900 0.316100
53.651200 0.311200
53.788600 0.305200
53.925900 0.302800
54.063300 0.299700
54.200600 0.298500
54.338000 0.301000
54.475400 0.296900
54.612700 0.293100
54.750100 0.284700
54.887400 0.281500
55.024800 0.279300
55.162100 0.278800
55.299500 0.280000
55.436900 0.280000
55.574200 0.280200
55.711600 0.281100
55.848900 0.284500
55.986300 0.285900
56.123600 0.287800
56.261000 0.288900
56.398400 0.293700
56.535700 0.300700
56.673100 0.305500
56.810400 0.311100
56.947800 0.322900
57.085100 0.321300
57.222500 0.328500
57.359900 0.334800
57.497200 0.342400
57.634600 0.350200
57.771900 0.357800
57.909300 0.365500
58.046600 0.377300
58.184000 0.386100
58.321400 0.392800
58.458700 0.405700
58.596100 0.394700
58.733400 0.380600
58.870800 0.326500
59.008100 0.320700
59.145500 0.301100
59.282900 0.305900
59.420200 0.305000
59.557600 0.299000
59.694900 0.285600
59.832300 0.266400
59.969600 0.287800
60.107000 0.322000
60.244400 0.365300
60.381700 0.392200
60.519100 0.412200
60.656400 0.410800
60.793800 0.416500
60.931100 0.423700
61.068500 0.452300
61.205900 0.465900
61.343200 0.462200
61.480600 0.451200
61.617900 0.430100
61.755300 0.420600
61.892600 0.418500
62.030000 0.413600
62.167400 0.414800
62.304700 0.398900
62.442100 0.385100
62.579400 0.344300
62.716800 0.322400
62.854100 0.348900
62.991500 0.348400
63.128900 0.306800
63.266200 0.285400
63.403600 0.284300
63.540900 0.285100
63.678300 0.286900
63.815600 0.292000
63.953000 0.297100
64.090400 0.308000
64.227700 0.308200
64.365100 0.313100
64.502400 0.324600
64.639800 0.336100
64.777100 0.342900
64.914500 0.343000
65.051900 0.344300
65.189200 0.343900
65.326600 0.346100
65.463900 0.351300
65.601300 0.362900
65.738600 0.373600
65.876000 0.384900
66.013400 0.391900
66.150700 0.406100
66.288100 0.433400
66.425400 0.392900
66.562800 0.351600
66.700100 0.340700
66.837500 0.338300
66.974900 0.342500
67.112200 0.330200
67.249600 0.326600
67.386900 0.320500
67.524300 0.327200
67.661600 0.322200
67.799000 0.318600
67.936400 0.322600
68.073700 0.331800
68.211100 0.341600
68.348400 0.355200
68.485800 0.367500
68.623100 0.375900
68.760500 0.386000
68.897900 0.396600
69.035200 0.406400
69.172600 0.413700
69.309900 0.419600
69.447300 0.416600
69.584600 0.413000
69.722000 0.398200
69.859400 0.400200
69.996700 0.389700
70.134100 0.386900
70.271400 0.379900
70.408800 0.377500
70.546100 0.378800
70.683500 0.383000
70.820900 0.383700
70.958200 0.384900
71.095600 0.378700
71.232900 0.384200
71.370300 0.357500
71.507600 0.345800
71.645000 0.341500
71.782400 0.329100
71.919700 0.321200
72.057100 0.316400
72.194400 0.324200
72.331800 0.342100
72.469100 0.359700
72.606500 0.378800
72.743900 0.419500
72.881200 0.477300
73.018600 0.518900
73.155900 0.507900
73.293300 0.492000
73.430600 0.440900
73.568000 0.431700
73.705400 0.434700
73.842700 0.430300
73.980100 0.436800
74.117400 0.446900
74.254800 0.432400
74.392100 0.420400
74.529500 0.399800
74.666900 0.385100
74.804200 0.371500
74.941600 0.353000
75.078900 0.340400
75.216300 0.331300
75.353600 0.320900
75.491000 0.314800
75.628400 0.309100
75.765700 0.302200
75.903100 0.295400
76.040400 0.289800
76.177800 0.284200
76.315100 0.291800
76.452500 0.282200
76.589900 0.307000
76.727200 0.292100
76.864600 0.320000
77.001900 0.334600
77.139300 0.340000
77.276600 0.339500
77.414000 0.345200
77.551400 0.347600
77.688700 0.357500
77.826100 0.367700
77.963400 0.369600
78.100800 0.355000
78.238100 0.362500
78.375500 0.384300
78.512900 0.426600
78.650200 0.457300
78.787600 0.464900
78.924900 0.499200
79.062300 0.499100
79.199700 0.479400
79.337000 0.459300
79.474400 0.443900
79.611700 0.433600
79.749100 0.416800
79.886400 0.407800
80.023800 0.397700
80.161200 0.397200
80.298500 0.390800
80.435900 0.386900
80.573200 0.374400
80.710600 0.348900
80.847900 0.328300
80.985300 0.311000
81.122700 0.301100
81.260000 0.295400
81.397400 0.290700
81.534700 0.288400
81.672100 0.285300
81.809400 0.292200
81.946800 0.301000
82.084200 0.316800
82.221500 0.335100
82.358900 0.351400
82.496200 0.393900
82.633600 0.401300
82.770900 0.446400
82.908300 0.430000
83.045700 0.418000
83.183000 0.405500
83.320400 0.384600
83.457700 0.375400
83.595100 0.372000
83.732400 0.373000
83.869800 0.374800
84.007200 0.382100
84.144500 0.378200
84.281900 0.367900
84.419200 0.357300
84.556600 0.349700
84.693900 0.340300
84.831300 0.333600
84.968700 0.328000
85.106000 0.324000
85.243400 0.338000
85.380700 0.314200
85.518100 0.306300
85.655400 0.300100
85.792800 0.297100
85.930200 0.292600
86.067500 0.285100
86.204900 0.282000
86.342200 0.293400
86.479600 0.306900
86.616900 0.322000
86.754300 0.341000
86.891700 0.345300
87.029000 0.355000
87.166400 0.350300
87.303700 0.347800
87.441100 0.342000
87.578400 0.334500
87.715800 0.330200
87.853200 0.326900
87.990500 0.327600
88.127900 0.324900
88.265200 0.319400
88.402600 0.312500
88.539900 0.311600
88.677300 0.311800
88.814700 0.309000
88.952000 0.303800
89.089400 0.300300
89.226700 0.297400
89.364100 0.293500
89.501400 0.287600
89.638800 0.293400
89.776200 0.303700
89.913500 0.301300
90.050900 0.314000
90.188200 0.336300
90.325600 0.392700
90.462900 0.428200
90.600300 0.439000
90.737700 0.472400
90.875000 0.430200
91.012400 0.420800
91.149700 0.420700
91.287100 0.407200
91.424400 0.415100
91.561800 0.401700
91.699200 0.382900
91.836500 0.389900
91.973900 0.363900
92.111200 0.300500
92.248600 0.282400
92.385900 0.270900
92.523300 0.274800
92.660700 0.289200
92.798000 0.343000
92.935400 0.388500
93.072700 0.382100
93.210100 0.363600
93.347400 0.354000
93.484800 0.349000
93.622200 0.345100
93.759500 0.350600
93.896900 0.359900
94.034200 0.376900
94.171600 0.389600
94.308900 0.388800
94.446300 0.375700
94.583700 0.375800
94.721000 0.377600
94.858400 0.384000
94.995700 0.384200
95.133100 0.384000
95.270400 0.390100
95.407800 0.397400
95.545200 0.409900
95.682500 0.399600
95.819900 0.385300
95.957200 0.375200
96.094600 0.369700
96.231900 0.384000
96.369300 0.380400
96.506700 0.378600
96.644000 0.397100
96.781400 0.386300
96.918700 0.411000
97.056100 0.423900
97.193400 0.420500
97.330800 0.410200
97.468200 0.424400
97.605500 0.433400
97.742900 0.444600
97.880200 0.471300
98.017600 0.445500
98.154900 0.439000
98.292300 0.437300
98.429700 0.436800
98.567000 0.435200
98.704400 0.432400
98.841700 0.435800
98.979100 0.445400
99.116400 0.519500
99.253800 0.520900
99.391200 0.566900
99.528500 0.641700
99.665900 0.617500
99.803200 0.553900
99.940600 0.508500
100.077900 0.442100
100.215300 0.411600
100.352700 0.399000
100.490000 0.394800
100.627400 0.395700
100.764700 0.403800
100.902100 0.417900
101.039400 0.439100
101.176800 0.445000
101.314200 0.451600
101.451500 0.444800
101.588900 0.442200
101.726200 0.446800
101.863600 0.473000
102.000900 0.472900
102.138300 0.479400
102.275700 0.493700
102.413000 0.487700
102.550400 0.477900
102.687700 0.484300
102.825100 0.491700
102.962400 0.497100
103.099800 0.433500
103.237200 0.418300
103.374500 0.406700
103.511900 0.399900
103.649200 0.395700
103.786600 0.392200
103.923900 0.392600
104.061300 0.401800
104.198700 0.411700
104.336000 0.410700
104.473400 0.405900
104.610700 0.398000
104.748100 0.400800
104.885400 0.398100
105.022800 0.380600
105.160200 0.367200
105.297500 0.358900
105.434900 0.356200
105.572200 0.357100
105.709600 0.369600
105.846900 0.375400
105.984300 0.388900
106.121700 0.389900
106.259000 0.390700
106.396400 0.392400
106.533700 0.391700
106.671100 0.391900
106.808400 0.389800
106.945800 0.399900
107.083200 0.403500
107.220500 0.406000
107.357900 0.404400
107.495200 0.400800
107.632600 0.399700
107.769900 0.399400
107.907300 0.402000
108.044700 0.403400
108.182000 0.405200
108.319400 0.407400
108.456700 0.436500
108.594100 0.466700
108.731400 0.468000
108.868800 0.467900
109.006200 0.458800
109.143500 0.450800
109.280900 0.438800
109.418200 0.424100
109.555600 0.423700
109.692900 0.420700
109.830300 0.424500
109.967700 0.428600
110.105000 0.410200
110.242400 0.412100
110.379700 0.419500
110.517100 0.428300
110.654500 0.438600
110.791800 0.453100
110.929200 0.462000
111.066500 0.463600
111.203900 0.459400
111.341200 0.438200
111.478600 0.425500
111.616000 0.425500
111.753300 0.409500
111.890700 0.397700
112.028000 0.397400
112.165400 0.399500
112.302700 0.399300
112.440100 0.398700
112.577500 0.399100
112.714800 0.400200
112.852200 0.405200
112.989500 0.416000
113.126900 0.412300
113.264200 0.410700
113.401600 0.412600
113.539000 0.412300
113.676300 0.397300
113.813700 0.392300
113.951000 0.385300
114.088400 0.389100
114.225700 0.397600
114.363100 0.414700
114.500500 0.421100
114.637800 0.441100
114.775200 0.452300
114.912500 0.448500
115.049900 0.458100
115.187200 0.468000
115.324600 0.470400
115.462000 0.447200
115.599300 0.441500
115.736700 0.429700
115.874000 0.419900
116.011400 0.418600
116.148700 0.420400
116.286100 0.428500
116.423500 0.430100
116.560800 0.395400
116.698200 0.401000
116.835500 0.407100
116.972900 0.397100
117.110200 0.400100
117.247600 0.410900
117.385000 0.431300
117.522300 0.444100
