set title 'mp-743752 - Density of States'
set xlabel 'Energy (eV)'
set ylabel 'DOS (states/eV)'
set grid
set xrange [-10:10]
set yrange [0:5.061]
set xzeroaxis lt -1
set terminal png size 800,600
set output 'mp-743752_dos_gnuplot.png'
plot '-' using 1:2 with lines title 'DOS'
-9.960600 0.000000
-9.938000 0.000000
-9.915500 0.000000
-9.892900 0.000000
-9.870400 0.000000
-9.847800 0.000000
-9.825300 0.000000
-9.802700 0.000000
-9.780200 0.000000
-9.757600 0.000000
-9.735100 0.000000
-9.712500 0.000000
-9.690000 0.000000
-9.667400 0.000000
-9.644800 0.000000
-9.622300 0.000000
-9.599700 0.000000
-9.577200 0.000000
-9.554600 0.000000
-9.532100 0.000000
-9.509500 0.000000
-9.487000 0.000000
-9.464400 0.000000
-9.441900 0.000000
-9.419300 0.000000
-9.396800 0.000000
-9.374200 0.000000
-9.351600 0.000000
-9.329100 0.000000
-9.306500 0.000000
-9.284000 0.000000
-9.261400 0.000000
-9.238900 0.000000
-9.216300 0.000000
-9.193800 0.000000
-9.171200 0.000000
-9.148700 0.000000
-9.126100 0.000000
-9.103500 0.000000
-9.081000 0.000000
-9.058400 0.000000
-9.035900 0.000000
-9.013300 0.000000
-8.990800 0.000000
-8.968200 0.000000
-8.945700 0.000000
-8.923100 0.000000
-8.900600 0.000000
-8.878000 0.000000
-8.855500 0.000000
-8.832900 0.000000
-8.810300 0.000000
-8.787800 0.000000
-8.765200 0.000000
-8.742700 0.000000
-8.720100 0.000000
-8.697600 0.000000
-8.675000 0.000000
-8.652500 0.000000
-8.629900 0.000000
-8.607400 0.000000
-8.584800 0.000000
-8.562300 0.000000
-8.539700 0.000000
-8.517100 0.000000
-8.494600 0.000000
-8.472000 0.000000
-8.449500 0.000000
-8.426900 0.000000
-8.404400 0.000000
-8.381800 0.000000
-8.359300 0.000000
-8.336700 0.000000
-8.314200 0.000000
-8.291600 0.000000
-8.269000 0.000000
-8.246500 0.000000
-8.223900 0.000000
-8.201400 0.000000
-8.178800 0.000000
-8.156300 0.000000
-8.133700 0.000000
-8.111200 0.000000
-8.088600 0.000000
-8.066100 0.000000
-8.043500 0.000000
-8.021000 0.000000
-7.998400 0.000000
-7.975800 0.000000
-7.953300 0.000000
-7.930700 0.000000
-7.908200 0.001200
-7.885600 0.172300
-7.863100 0.380400
-7.840500 0.465700
-7.818000 0.589200
-7.795400 0.701100
-7.772900 0.777600
-7.750300 0.867600
-7.727800 0.960600
-7.705200 1.063500
-7.682600 1.174000
-7.660100 1.286900
-7.637500 1.405400
-7.615000 1.533000
-7.592400 1.700200
-7.569900 1.934200
-7.547300 2.203800
-7.524800 2.238900
-7.502200 2.361200
-7.479700 2.464900
-7.457100 2.575300
-7.434500 2.720400
-7.412000 2.944700
-7.389400 3.305700
-7.366900 3.820700
-7.344300 3.873100
-7.321800 3.918100
-7.299200 3.944000
-7.276700 3.987700
-7.254100 4.038300
-7.231600 4.154600
-7.209000 4.257200
-7.186500 4.601100
-7.163900 4.057100
-7.141300 3.242400
-7.118800 2.611200
-7.096200 2.204500
-7.073700 1.865500
-7.051100 1.483600
-7.028600 0.921900
-7.006000 0.000000
-6.983500 0.000000
-6.960900 0.000000
-6.938400 0.000000
-6.915800 0.000000
-6.893300 0.000000
-6.870700 0.000000
-6.848100 0.000000
-6.825600 0.000000
-6.803000 0.000000
-6.780500 0.000000
-6.757900 0.000000
-6.735400 0.000000
-6.712800 0.000000
-6.690300 0.000000
-6.667700 0.000000
-6.645200 0.000000
-6.622600 0.000000
-6.600000 0.000000
-6.577500 0.000000
-6.554900 0.000000
-6.532400 0.000000
-6.509800 0.000000
-6.487300 0.000000
-6.464700 0.000000
-6.442200 0.000000
-6.419600 0.000000
-6.397100 0.000000
-6.374500 0.000000
-6.352000 0.000000
-6.329400 0.000000
-6.306800 0.000000
-6.284300 0.000000
-6.261700 0.000000
-6.239200 0.000000
-6.216600 0.000000
-6.194100 0.000000
-6.171500 0.000000
-6.149000 0.000000
-6.126400 0.000000
-6.103900 0.000000
-6.081300 0.000000
-6.058800 0.000000
-6.036200 0.000000
-6.013600 0.000000
-5.991100 0.000000
-5.968500 0.000000
-5.946000 0.000000
-5.923400 0.000000
-5.900900 0.000000
-5.878300 0.000000
-5.855800 0.000000
-5.833200 0.000000
-5.810700 0.000000
-5.788100 0.000000
-5.765500 0.000000
-5.743000 0.000000
-5.720400 0.000000
-5.697900 0.000000
-5.675300 0.000000
-5.652800 0.000000
-5.630200 0.000000
-5.607700 0.000000
-5.585100 0.000000
-5.562600 0.000000
-5.540000 0.000000
-5.517500 0.000000
-5.494900 0.000000
-5.472300 0.000000
-5.449800 0.000000
-5.427200 0.000000
-5.404700 0.000000
-5.382100 0.000000
-5.359600 0.000000
-5.337000 0.000000
-5.314500 0.000000
-5.291900 0.000000
-5.269400 0.000000
-5.246800 0.000000
-5.224300 0.000000
-5.201700 0.000000
-5.179100 0.000000
-5.156600 0.000000
-5.134000 0.000000
-5.111500 0.000000
-5.088900 0.026800
-5.066400 0.102900
-5.043800 0.196300
-5.021300 0.249200
-4.998700 0.272500
-4.976200 0.309400
-4.953600 0.355000
-4.931000 0.402600
-4.908500 0.447500
-4.885900 0.489800
-4.863400 0.530400
-4.840800 0.573300
-4.818300 0.619200
-4.795700 0.667700
-4.773200 0.719900
-4.750600 0.773900
-4.728100 0.833300
-4.705500 0.899200
-4.683000 0.973300
-4.660400 1.053900
-4.637800 1.146100
-4.615300 1.244400
-4.592700 1.354500
-4.570200 1.494100
-4.547600 1.741600
-4.525100 1.999900
-4.502500 2.219700
-4.480000 2.269900
-4.457400 2.301500
-4.434900 2.349400
-4.412300 2.503200
-4.389800 2.665600
-4.367200 2.742200
-4.344600 2.625000
-4.322100 2.414000
-4.299500 2.177200
-4.277000 1.971500
-4.254400 1.916600
-4.231900 1.879300
-4.209300 1.845000
-4.186800 1.812200
-4.164200 1.780400
-4.141700 1.748500
-4.119100 1.720400
-4.096500 1.688800
-4.074000 1.659100
-4.051400 1.623000
-4.028900 1.593900
-4.006300 1.569800
-3.983800 1.562700
-3.961200 1.576800
-3.938700 1.554200
-3.916100 1.468600
-3.893600 1.358400
-3.871000 1.232100
-3.848500 1.115400
-3.825900 1.033800
-3.803300 0.966900
-3.780800 0.910000
-3.758200 0.858400
-3.735700 0.808600
-3.713100 0.760100
-3.690600 0.712900
-3.668000 0.668200
-3.645500 0.626800
-3.622900 0.589400
-3.600400 0.552800
-3.577800 0.516300
-3.555300 0.479200
-3.532700 0.445600
-3.510100 0.419600
-3.487600 0.392000
-3.465000 0.362600
-3.442500 0.339700
-3.419900 0.281300
-3.397400 0.216100
-3.374800 0.158100
-3.352300 0.102500
-3.329700 0.031000
-3.307200 0.000400
-3.284600 0.000000
-3.262000 0.000000
-3.239500 0.000000
-3.216900 0.000000
-3.194400 0.000000
-3.171800 0.000000
-3.149300 0.000000
-3.126700 0.000000
-3.104200 0.000000
-3.081600 0.000000
-3.059100 0.000000
-3.036500 0.000000
-3.014000 0.000000
-2.991400 0.000000
-2.968800 0.000000
-2.946300 0.000000
-2.923700 0.000000
-2.901200 0.000000
-2.878600 0.000000
-2.856100 0.000000
-2.833500 0.000000
-2.811000 0.000000
-2.788400 0.000000
-2.765900 0.000000
-2.743300 0.000000
-2.720800 0.000000
-2.698200 0.000000
-2.675600 0.000000
-2.653100 0.000000
-2.630500 0.000000
-2.608000 0.000000
-2.585400 0.000000
-2.562900 0.000000
-2.540300 0.000000
-2.517800 0.000000
-2.495200 0.000000
-2.472700 0.000000
-2.450100 0.000000
-2.427500 0.000000
-2.405000 0.000000
-2.382400 0.000000
-2.359900 0.000000
-2.337300 0.000000
-2.314800 0.000000
-2.292200 0.000000
-2.269700 0.000000
-2.247100 0.000000
-2.224600 0.000000
-2.202000 0.000000
-2.179500 0.000000
-2.156900 0.000000
-2.134300 0.000000
-2.111800 0.000000
-2.089200 0.000000
-2.066700 0.000000
-2.044100 0.000000
-2.021600 0.000000
-1.999000 0.000000
-1.976500 0.000000
-1.953900 0.000000
-1.931400 0.000000
-1.908800 0.000000
-1.886300 0.000000
-1.863700 0.000000
-1.841100 0.000000
-1.818600 0.000000
-1.796000 0.000000
-1.773500 0.008800
-1.750900 0.255200
-1.728400 0.459600
-1.705800 0.656600
-1.683300 0.787900
-1.660700 0.889100
-1.638200 0.996900
-1.615600 1.078000
-1.593000 1.131500
-1.570500 1.166900
-1.547900 1.199400
-1.525400 1.263400
-1.502800 1.323300
-1.480300 1.375500
-1.457700 1.429600
-1.435200 1.500700
-1.412600 1.599500
-1.390100 1.700400
-1.367500 1.892900
-1.345000 1.993600
-1.322400 2.003100
-1.299800 2.095000
-1.277300 2.234700
-1.254700 2.313900
-1.232200 2.288800
-1.209600 2.241100
-1.187100 2.142400
-1.164500 2.099000
-1.142000 2.059400
-1.119400 2.086200
-1.096900 2.197100
-1.074300 2.262600
-1.051800 2.147500
-1.029200 1.971700
-1.006600 1.798500
-0.984100 1.710900
-0.961500 1.620500
-0.939000 1.554900
-0.916400 1.473700
-0.893900 1.409700
-0.871300 1.365400
-0.848800 1.333200
-0.826200 1.306900
-0.803700 1.268700
-0.781100 1.223100
-0.758500 1.169800
-0.736000 1.147100
-0.713400 1.128400
-0.690900 1.091600
-0.668300 1.054500
-0.645800 1.025600
-0.623200 1.019700
-0.600700 0.996400
-0.578100 0.961400
-0.555600 0.932500
-0.533000 0.907600
-0.510500 0.875900
-0.487900 0.838400
-0.465300 0.809700
-0.442800 0.761500
-0.420200 0.660300
-0.397700 0.589600
-0.375100 0.605900
-0.352600 0.628800
-0.330000 0.662100
-0.307500 0.695200
-0.284900 0.687600
-0.262400 0.683500
-0.239800 0.684900
-0.217300 0.706000
-0.194700 0.767500
-0.172100 0.962800
-0.149600 1.069100
-0.127000 1.198600
-0.104500 1.337300
-0.081900 1.423000
-0.059400 1.520800
-0.036800 1.606100
-0.014300 1.626300
0.008300 1.634900
0.030800 1.703800
0.053400 1.801200
0.076000 1.873300
0.098500 1.953700
0.121100 2.005700
0.143600 2.040900
0.166200 2.066100
0.188700 2.076000
0.211300 2.110000
0.233800 2.145900
0.256400 2.125000
0.278900 2.138200
0.301500 2.031900
0.324000 1.980000
0.346600 1.938300
0.369200 1.892900
0.391700 1.804200
0.414300 1.778200
0.436800 1.795900
0.459400 1.823600
0.481900 1.870900
0.504500 1.938400
0.527000 1.996600
0.549600 1.980600
0.572100 2.010100
0.594700 2.019100
0.617200 1.997900
0.639800 1.961200
0.662400 2.000900
0.684900 2.019100
0.707500 2.090100
0.730000 2.050300
0.752600 1.938500
0.775100 1.796300
0.797700 1.689000
0.820200 1.675700
0.842800 1.655900
0.865300 1.628500
0.887900 1.600800
0.910500 1.579400
0.933000 1.570900
0.955600 1.613800
0.978100 1.642800
1.000700 1.675700
1.023200 1.727600
1.045800 1.771800
1.068300 1.816600
1.090900 1.866400
1.113400 1.915700
1.136000 1.989600
1.158500 2.088700
1.181100 2.160600
1.203700 2.189800
1.226200 2.225200
1.248800 2.297100
1.271300 2.422800
1.293900 2.557300
1.316400 2.509800
1.339000 2.470800
1.361500 2.444800
1.384100 2.418400
1.406600 2.329000
1.429200 2.267200
1.451700 2.244200
1.474300 2.218800
1.496900 2.185900
1.519400 2.196300
1.542000 2.188300
1.564500 2.096500
1.587100 2.001600
1.609600 1.925700
1.632200 1.857400
1.654700 1.797200
1.677300 1.788800
1.699800 1.761600
1.722400 1.725600
1.745000 1.719700
1.767500 1.726900
1.790100 1.743800
1.812600 1.806700
1.835200 1.878100
1.857700 1.920000
1.880300 1.945600
1.902800 1.962900
1.925400 1.965000
1.947900 1.974600
1.970500 2.013400
1.993000 2.036200
2.015600 1.948700
2.038200 1.715500
2.060700 1.582800
2.083300 1.514100
2.105800 1.450100
2.128400 1.436200
2.150900 1.428400
2.173500 1.435300
2.196000 1.481700
2.218600 1.570600
2.241100 1.692700
2.263700 1.851300
2.286200 1.917300
2.308800 1.894500
2.331400 1.886000
2.353900 1.890100
2.376500 1.916100
2.399000 2.001300
2.421600 2.014300
2.444100 1.980800
2.466700 2.047500
2.489200 2.095800
2.511800 2.124300
2.534300 2.143200
2.556900 2.162000
2.579500 2.220900
2.602000 2.338500
2.624600 2.398200
2.647100 2.396500
2.669700 2.329300
2.692200 2.129700
2.714800 2.004300
2.737300 1.908100
2.759900 1.761300
2.782400 1.654600
2.805000 1.569800
2.827500 1.453600
2.850100 1.360400
2.872700 1.315000
2.895200 1.248500
2.917800 1.271600
2.940300 1.347800
2.962900 1.443700
2.985400 1.581100
3.008000 1.754500
3.030500 1.817900
3.053100 1.909400
3.075600 1.906600
3.098200 1.894800
3.120700 1.877400
3.143300 1.887000
3.165900 1.920700
3.188400 1.971500
3.211000 2.060800
3.233500 2.163500
3.256100 2.204500
3.278600 2.266800
3.301200 2.353400
3.323700 2.473700
3.346300 2.588500
3.368800 2.681600
3.391400 2.797800
3.414000 2.947400
3.436500 3.131100
3.459100 3.338400
3.481600 3.054800
3.504200 2.919800
3.526700 2.925500
3.549300 2.569400
3.571800 2.214300
3.594400 2.055900
3.616900 1.960500
3.639500 1.901800
3.662000 1.847700
3.684600 1.795000
3.707200 1.688700
3.729700 1.569900
3.752300 1.479200
3.774800 1.407700
3.797400 1.368100
3.819900 1.360900
3.842500 1.406400
3.865000 1.409700
3.887600 1.420800
3.910100 1.430800
3.932700 1.427900
3.955200 1.479400
3.977800 1.612000
4.000400 1.711400
4.022900 1.729500
4.045500 1.795200
4.068000 1.888600
4.090600 1.970400
4.113100 2.080000
4.135700 2.320100
4.158200 2.444500
4.180800 2.552400
4.203300 2.706800
4.225900 2.751400
4.248400 2.693500
4.271000 2.634300
4.293600 2.647700
4.316100 2.704000
4.338700 2.776400
4.361200 2.712700
4.383800 2.581700
4.406300 2.493300
4.428900 2.390800
4.451400 2.290600
4.474000 2.226100
4.496500 2.138600
4.519100 2.083700
4.541700 2.073700
4.564200 2.092700
4.586800 2.143500
4.609300 2.154100
4.631900 2.106600
4.654400 1.987500
4.677000 1.902900
4.699500 1.861700
4.722100 1.909700
4.744600 1.970200
4.767200 1.977800
4.789700 2.018400
4.812300 1.996700
4.834900 2.082700
4.857400 2.033100
4.880000 2.009900
4.902500 2.065000
4.925100 2.098100
4.947600 2.076000
4.970200 2.106300
4.992700 2.173900
5.015300 2.209800
5.037800 2.224800
5.060400 2.228500
5.082900 2.287200
5.105500 2.365200
5.128100 2.409400
5.150600 2.333300
5.173200 2.316500
5.195700 2.296000
5.218300 2.432600
5.240800 2.558800
5.263400 2.715800
5.285900 2.643900
5.308500 2.640700
5.331000 2.645400
5.353600 2.612700
5.376200 2.504000
5.398700 2.476600
5.421300 2.505000
5.443800 2.488700
5.466400 2.439600
5.488900 2.426100
5.511500 2.365500
5.534000 2.234100
5.556600 2.039100
5.579100 1.882200
5.601700 1.780400
5.624200 1.667600
5.646800 1.535700
5.669400 1.497500
5.691900 1.479600
5.714500 1.437600
5.737000 1.446800
5.759600 1.503800
5.782100 1.554000
5.804700 1.635000
5.827200 1.664200
5.849800 1.668000
5.872300 1.686600
5.894900 1.711200
5.917400 1.846400
5.940000 2.204300
5.962600 2.443200
5.985100 2.641400
6.007700 2.803100
6.030200 2.772300
6.052800 2.852600
6.075300 2.864300
6.097900 2.864600
6.120400 2.828900
6.143000 2.790500
6.165500 2.758100
6.188100 2.679000
6.210700 2.728900
6.233200 2.741000
6.255800 2.636900
6.278300 2.525600
6.300900 2.447100
6.323400 2.433600
6.346000 2.349200
6.368500 2.324100
6.391100 2.378700
6.413600 2.365100
6.436200 2.293400
6.458700 2.250500
6.481300 2.259400
6.503900 2.222100
6.526400 2.218500
6.549000 2.220100
6.571500 2.228200
6.594100 2.268600
6.616600 2.277700
6.639200 2.288800
6.661700 2.292400
6.684300 2.249100
6.706800 2.291100
6.729400 2.339600
6.751900 2.399400
6.774500 2.476900
6.797100 2.565600
6.819600 2.653300
6.842200 2.794800
6.864700 2.715200
6.887300 2.665700
6.909800 2.653000
6.932400 2.630100
6.954900 2.632900
6.977500 2.687300
7.000000 2.726800
7.022600 2.717600
7.045200 2.653600
7.067700 2.677800
7.090300 2.713000
7.112800 2.705100
7.135400 2.651200
7.157900 2.604000
7.180500 2.544700
7.203000 2.338100
7.225600 2.138800
7.248100 2.001800
7.270700 1.876500
7.293200 1.710700
7.315800 1.594800
7.338400 1.506700
7.360900 1.413900
7.383500 1.329700
7.406000 1.219900
7.428600 1.136700
7.451100 1.114800
7.473700 1.114900
7.496200 1.124800
7.518800 1.125400
7.541300 1.125000
7.563900 1.127900
7.586400 1.140000
7.609000 1.162800
7.631600 1.179000
7.654100 1.201400
7.676700 1.233100
7.699200 1.268100
7.721800 1.287100
7.744300 1.328000
7.766900 1.366000
7.789400 1.407100
7.812000 1.459800
7.834500 1.506300
7.857100 1.538800
7.879700 1.572900
7.902200 1.611400
7.924800 1.659300
7.947300 1.705100
7.969900 1.710200
7.992400 1.680000
8.015000 1.663300
8.037500 1.668200
8.060100 1.647800
8.082600 1.638800
8.105200 1.633300
8.127700 1.634500
8.150300 1.652800
8.172900 1.665200
8.195400 1.682600
8.218000 1.705000
8.240500 1.728800
8.263100 1.809100
8.285600 1.884400
8.308200 1.879300
8.330700 1.806800
8.353300 1.748200
8.375800 1.705600
8.398400 1.633800
8.420900 1.584600
8.443500 1.529000
8.466100 1.505800
8.488600 1.501300
8.511200 1.489000
8.533700 1.481400
8.556300 1.516100
8.578800 1.522300
8.601400 1.621100
8.623900 1.747500
8.646500 1.846900
8.669000 1.857500
8.691600 1.870500
8.714200 1.735300
8.736700 1.719100
8.759300 1.818800
8.781800 1.756300
8.804400 1.535100
8.826900 1.412100
8.849500 1.332600
8.872000 1.270000
8.894600 1.174200
8.917100 1.100600
8.939700 1.039700
8.962200 0.977800
8.984800 0.982100
9.007400 0.899200
9.029900 0.917700
9.052500 0.957700
9.075000 1.015300
9.097600 1.086800
9.120100 1.169900
9.142700 1.241700
9.165200 1.300900
9.187800 1.394200
9.210300 1.513600
9.232900 1.664200
9.255400 1.869800
9.278000 2.033200
9.300600 2.232000
9.323100 2.524300
9.345700 2.924600
9.368200 3.249300
9.390800 3.538600
9.413300 3.635900
9.435900 3.701700
9.458400 3.862300
9.481000 3.870400
9.503500 3.901400
9.526100 3.813100
9.548700 3.769000
9.571200 3.497500
9.593800 3.376300
9.616300 3.123700
9.638900 2.620400
9.661400 2.403800
9.684000 2.066300
9.706500 1.704400
9.729100 1.421400
9.751600 1.163700
9.774200 0.898300
9.796700 0.775100
9.819300 0.682100
9.841900 0.683400
9.864400 0.710000
9.887000 0.759100
9.909500 0.764600
9.932100 0.777300
9.954600 0.818700
9.977200 0.867400
9.999700 0.951000
10.022300 1.099200
10.044800 1.222100
10.067400 1.382300
10.089900 1.501000
10.112500 1.641100
10.135100 1.783100
10.157600 1.855800
10.180200 2.101100
10.202700 2.228200
10.225300 2.382200
10.247800 2.531800
10.270400 2.642000
10.292900 2.957300
10.315500 3.293700
10.338000 3.505500
10.360600 3.572300
10.383200 3.336500
10.405700 3.180600
10.428300 2.987700
10.450800 2.740900
10.473400 2.575300
10.495900 2.482600
10.518500 2.477600
10.541000 2.391300
10.563600 2.307800
10.586100 2.206700
10.608700 2.095600
10.631200 2.070900
10.653800 2.062000
10.676400 2.037000
10.698900 2.040400
10.721500 2.028800
10.744000 2.106600
10.766600 2.217600
10.789100 2.106000
10.811700 2.099600
10.834200 2.068400
10.856800 2.047700
10.879300 2.047100
10.901900 2.063200
10.924400 2.136300
10.947000 2.142700
10.969600 2.104200
10.992100 2.079400
11.014700 2.101100
11.037200 2.123700
11.059800 2.147200
11.082300 2.152400
11.104900 2.175700
11.127400 2.220400
11.150000 2.254500
11.172500 2.309100
11.195100 2.419800
11.217700 2.454200
11.240200 2.567000
11.262800 2.636900
11.285300 2.634300
11.307900 2.525300
11.330400 2.502300
11.353000 2.531700
11.375500 2.669100
11.398100 2.709100
11.420600 2.641300
11.443200 2.641900
11.465700 2.556600
11.488300 2.414100
11.510900 2.272400
11.533400 2.138000
11.556000 2.060900
11.578500 2.065200
11.601100 2.120100
11.623600 2.202300
11.646200 2.338200
11.668700 2.383700
11.691300 2.437100
11.713800 2.489200
11.736400 2.471700
11.758900 2.647900
11.781500 2.611400
11.804100 2.560800
11.826600 2.480100
11.849200 2.444900
11.871700 2.322500
11.894300 2.199400
11.916800 2.040200
11.939400 1.983600
11.961900 1.966800
11.984500 1.951900
12.007000 1.894700
12.029600 1.870500
12.052200 1.885300
12.074700 1.946200
12.097300 1.910600
12.119800 1.900400
12.142400 1.978500
12.164900 2.057100
12.187500 2.188900
12.210000 2.249500
12.232600 2.288500
12.255100 2.284700
12.277700 2.344200
12.300200 2.426600
12.322800 2.400600
12.345400 2.431500
12.367900 2.531300
12.390500 2.555700
12.413000 2.508600
12.435600 2.421500
12.458100 2.396100
12.480700 2.336600
12.503200 2.290600
12.525800 2.300200
12.548300 2.095700
12.570900 1.987600
12.593400 1.937400
12.616000 1.872900
12.638600 1.849500
12.661100 1.849200
12.683700 1.905600
12.706200 1.916900
12.728800 1.926000
12.751300 1.876500
12.773900 1.911300
12.796400 1.939000
12.819000 1.970300
12.841500 2.072900
12.864100 2.204400
12.886700 2.270400
12.909200 2.256800
12.931800 2.241800
12.954300 2.291100
12.976900 2.353800
12.999400 2.423300
13.022000 2.505200
13.044500 2.624000
13.067100 2.839400
13.089600 2.999700
13.112200 3.076000
13.134700 3.139900
13.157300 3.145900
13.179900 3.185300
13.202400 3.212100
13.225000 3.216900
13.247500 3.089000
13.270100 2.849500
13.292600 2.725600
13.315200 2.657000
13.337700 2.592300
13.360300 2.568200
13.382800 2.554000
13.405400 2.595500
13.427900 2.630500
13.450500 2.631300
13.473100 2.684900
13.495600 2.773800
13.518200 2.897600
13.540700 3.036600
13.563300 3.090800
13.585800 3.096200
13.608400 3.087200
13.630900 3.025000
13.653500 2.978000
13.676000 2.861400
13.698600 2.745900
13.721200 2.675100
13.743700 2.665700
13.766300 2.675200
13.788800 2.699100
13.811400 2.723800
13.833900 2.711700
13.856500 2.732100
13.879000 2.660500
13.901600 2.560900
13.924100 2.496100
13.946700 2.438000
