set title 'mp-1206683 - Density of States'
set xlabel 'Energy (eV)'
set ylabel 'DOS (states/eV)'
set grid
set xrange [-10:10]
set yrange [0:13.469]
set xzeroaxis lt -1
set terminal png size 800,600
set output 'mp-1206683_dos_gnuplot.png'
plot '-' using 1:2 with lines title 'DOS'
-15.483800 0.000000
-15.458300 0.000000
-15.432900 0.000000
-15.407400 0.000000
-15.381900 0.000000
-15.356400 0.000000
-15.331000 0.000000
-15.305500 0.000000
-15.280000 0.000000
-15.254600 0.000000
-15.229100 0.000000
-15.203600 0.000000
-15.178200 0.000000
-15.152700 0.000000
-15.127200 0.000000
-15.101800 0.000000
-15.076300 0.000000
-15.050800 0.000000
-15.025300 0.000000
-14.999900 0.000000
-14.974400 0.000000
-14.948900 0.000000
-14.923500 0.000000
-14.898000 0.000000
-14.872500 0.000000
-14.847100 0.000000
-14.821600 0.000000
-14.796100 0.000000
-14.770600 0.000000
-14.745200 0.000000
-14.719700 0.000000
-14.694200 0.000000
-14.668800 0.000000
-14.643300 0.000000
-14.617800 0.000000
-14.592400 0.000000
-14.566900 0.000000
-14.541400 0.000000
-14.515900 0.000000
-14.490500 0.000000
-14.465000 0.000000
-14.439500 0.000000
-14.414100 0.000000
-14.388600 0.000000
-14.363100 0.000000
-14.337700 0.000000
-14.312200 0.000000
-14.286700 0.000000
-14.261300 0.000000
-14.235800 0.000000
-14.210300 0.000000
-14.184800 0.000000
-14.159400 0.000000
-14.133900 0.000000
-14.108400 0.000000
-14.083000 0.000000
-14.057500 0.000000
-14.032000 0.000000
-14.006600 0.000000
-13.981100 0.000000
-13.955600 0.000000
-13.930100 0.000000
-13.904700 0.000000
-13.879200 0.000000
-13.853700 0.000000
-13.828300 0.000000
-13.802800 0.000000
-13.777300 0.000000
-13.751900 0.000000
-13.726400 0.000000
-13.700900 0.000000
-13.675500 0.000000
-13.650000 0.000000
-13.624500 0.000000
-13.599000 0.000000
-13.573600 0.000000
-13.548100 0.000000
-13.522600 0.000000
-13.497200 0.000000
-13.471700 0.000000
-13.446200 0.000000
-13.420800 0.000000
-13.395300 0.000000
-13.369800 0.000000
-13.344300 0.000000
-13.318900 0.000000
-13.293400 0.000000
-13.267900 0.000000
-13.242500 0.000000
-13.217000 0.000000
-13.191500 0.000000
-13.166100 12.907400
-13.140600 14.177600
-13.115100 21.218200
-13.089600 13.299100
-13.064200 6.373400
-13.038700 5.703200
-13.013200 9.302500
-12.987800 12.752600
-12.962300 29.777000
-12.936800 45.457800
-12.911400 52.872300
-12.885900 22.747600
-12.860400 63.252700
-12.835000 100.322000
-12.809500 0.000000
-12.784000 0.000000
-12.758500 0.000000
-12.733100 0.000000
-12.707600 0.000000
-12.682100 0.000000
-12.656700 0.000000
-12.631200 0.000000
-12.605700 0.000000
-12.580300 0.000000
-12.554800 0.000000
-12.529300 0.000000
-12.503800 0.000000
-12.478400 0.000000
-12.452900 0.000000
-12.427400 0.000000
-12.402000 0.000000
-12.376500 0.000000
-12.351000 0.000000
-12.325600 0.000000
-12.300100 0.000000
-12.274600 0.000000
-12.249100 0.000000
-12.223700 0.000000
-12.198200 0.000000
-12.172700 0.000000
-12.147300 0.000000
-12.121800 0.000000
-12.096300 0.000000
-12.070900 0.000000
-12.045400 0.000000
-12.019900 0.000000
-11.994500 0.000000
-11.969000 0.000000
-11.943500 0.000000
-11.918000 0.000000
-11.892600 0.000000
-11.867100 0.000000
-11.841600 0.000000
-11.816200 0.000000
-11.790700 0.000000
-11.765200 0.000000
-11.739800 0.000000
-11.714300 0.000000
-11.688800 0.000000
-11.663300 0.000000
-11.637900 0.000000
-11.612400 0.000000
-11.586900 0.000000
-11.561500 0.000000
-11.536000 0.000000
-11.510500 0.000000
-11.485100 0.000000
-11.459600 0.000000
-11.434100 0.000000
-11.408600 0.000000
-11.383200 0.000000
-11.357700 0.000000
-11.332200 0.000000
-11.306800 0.000000
-11.281300 0.000000
-11.255800 0.000000
-11.230400 0.000000
-11.204900 0.000000
-11.179400 0.000000
-11.154000 0.000000
-11.128500 0.000000
-11.103000 0.000000
-11.077500 0.000000
-11.052100 0.000000
-11.026600 0.000000
-11.001100 0.000000
-10.975700 0.000000
-10.950200 0.000000
-10.924700 0.000000
-10.899300 0.000000
-10.873800 0.000000
-10.848300 0.000000
-10.822800 0.000000
-10.797400 0.000000
-10.771900 0.000000
-10.746400 0.000000
-10.721000 0.000000
-10.695500 0.000000
-10.670000 0.000000
-10.644600 0.000000
-10.619100 0.000000
-10.593600 0.000000
-10.568100 0.000000
-10.542700 0.000000
-10.517200 0.000000
-10.491700 0.000000
-10.466300 0.000000
-10.440800 0.000000
-10.415300 0.000000
-10.389900 0.000000
-10.364400 0.000000
-10.338900 0.000000
-10.313500 0.000000
-10.288000 0.000000
-10.262500 0.000000
-10.237000 0.000000
-10.211600 0.000000
-10.186100 0.000000
-10.160600 0.000000
-10.135200 0.000000
-10.109700 0.000000
-10.084200 0.000000
-10.058800 0.000000
-10.033300 0.000000
-10.007800 0.000000
-9.982300 0.000000
-9.956900 0.000000
-9.931400 0.000000
-9.905900 0.000000
-9.880500 0.000000
-9.855000 0.000000
-9.829500 0.063600
-9.804100 0.244700
-9.778600 0.350000
-9.753100 0.423100
-9.727600 0.514600
-9.702200 0.664300
-9.676700 0.802200
-9.651200 0.748800
-9.625800 0.751900
-9.600300 0.758200
-9.574800 0.766900
-9.549400 0.771300
-9.523900 0.763200
-9.498400 0.761300
-9.473000 0.775000
-9.447500 0.787400
-9.422000 0.788700
-9.396500 0.792200
-9.371100 0.793800
-9.345600 0.793400
-9.320100 0.785600
-9.294700 0.787400
-9.269200 0.793000
-9.243700 0.800200
-9.218300 0.808900
-9.192800 0.820000
-9.167300 0.829700
-9.141800 0.833800
-9.116400 0.836200
-9.090900 0.840100
-9.065400 0.843600
-9.040000 0.844600
-9.014500 0.847100
-8.989000 0.853700
-8.963600 0.861500
-8.938100 0.870000
-8.912600 0.879000
-8.887100 0.888400
-8.861700 0.898400
-8.836200 0.909000
-8.810700 0.918300
-8.785300 0.928100
-8.759800 0.938000
-8.734300 0.948100
-8.708900 0.959500
-8.683400 0.972400
-8.657900 0.986200
-8.632500 1.000700
-8.607000 1.016300
-8.581500 1.032000
-8.556000 1.048600
-8.530600 1.066200
-8.505100 1.084600
-8.479600 1.103800
-8.454200 1.125300
-8.428700 1.155500
-8.403200 1.190900
-8.377800 1.231600
-8.352300 1.281900
-8.326800 1.382400
-8.301300 1.599200
-8.275900 1.793400
-8.250400 1.942400
-8.224900 2.304500
-8.199500 2.442400
-8.174000 2.474800
-8.148500 2.410700
-8.123100 2.395900
-8.097600 2.280300
-8.072100 2.303900
-8.046600 2.462400
-8.021200 2.264000
-7.995700 2.178400
-7.970200 2.134600
-7.944800 2.085400
-7.919300 2.025000
-7.893800 1.974200
-7.868400 1.994200
-7.842900 2.093800
-7.817400 2.258600
-7.792000 2.270100
-7.766500 1.707500
-7.741000 1.827100
-7.715500 1.966800
-7.690100 2.174300
-7.664600 2.584700
-7.639100 3.498300
-7.613700 6.361700
-7.588200 12.244700
-7.562700 11.671300
-7.537300 8.328300
-7.511800 4.407600
-7.486300 2.442600
-7.460800 0.000000
-7.435400 0.000000
-7.409900 0.000000
-7.384400 0.000000
-7.359000 0.000000
-7.333500 0.000000
-7.308000 0.000000
-7.282600 0.000000
-7.257100 0.000000
-7.231600 0.000000
-7.206100 0.000000
-7.180700 0.000000
-7.155200 0.000000
-7.129700 0.000000
-7.104300 0.000000
-7.078800 0.000000
-7.053300 0.000000
-7.027900 0.000000
-7.002400 0.000000
-6.976900 0.000000
-6.951500 0.000000
-6.926000 0.000000
-6.900500 0.000000
-6.875000 0.000000
-6.849600 0.000000
-6.824100 0.000000
-6.798600 0.000000
-6.773200 0.000000
-6.747700 0.000000
-6.722200 0.000000
-6.696800 0.000000
-6.671300 0.000000
-6.645800 0.000000
-6.620300 0.000000
-6.594900 0.000000
-6.569400 0.000000
-6.543900 0.000000
-6.518500 0.000000
-6.493000 0.000000
-6.467500 0.000000
-6.442100 0.000000
-6.416600 0.000000
-6.391100 0.000000
-6.365700 0.000000
-6.340200 0.000000
-6.314700 0.000000
-6.289200 0.000000
-6.263800 0.000000
-6.238300 0.000000
-6.212800 0.000000
-6.187400 0.000000
-6.161900 0.000000
-6.136400 0.000000
-6.111000 0.000000
-6.085500 0.000000
-6.060000 0.000000
-6.034500 0.000000
-6.009100 0.000000
-5.983600 0.000000
-5.958100 0.000000
-5.932700 0.000000
-5.907200 0.000000
-5.881700 0.000000
-5.856300 0.000000
-5.830800 0.000000
-5.805300 0.000000
-5.779800 0.000000
-5.754400 0.000000
-5.728900 0.000000
-5.703400 0.000000
-5.678000 0.000000
-5.652500 0.000000
-5.627000 0.000000
-5.601600 0.000000
-5.576100 0.000000
-5.550600 0.000000
-5.525200 0.000000
-5.499700 0.000000
-5.474200 0.000000
-5.448700 0.000000
-5.423300 0.000000
-5.397800 0.000000
-5.372300 0.000000
-5.346900 0.000000
-5.321400 0.000000
-5.295900 0.000000
-5.270500 0.000000
-5.245000 0.000000
-5.219500 0.000000
-5.194000 0.000000
-5.168600 0.000000
-5.143100 0.000000
-5.117600 0.000000
-5.092200 0.000000
-5.066700 0.000000
-5.041200 0.000000
-5.015800 0.000000
-4.990300 0.000000
-4.964800 0.000000
-4.939300 0.000000
-4.913900 0.000000
-4.888400 0.000000
-4.862900 0.000000
-4.837500 0.000000
-4.812000 0.000000
-4.786500 0.000000
-4.761100 0.000000
-4.735600 0.000000
-4.710100 0.000000
-4.684700 0.000000
-4.659200 0.000000
-4.633700 0.000000
-4.608200 0.000000
-4.582800 0.000000
-4.557300 0.000000
-4.531800 0.000000
-4.506400 0.000000
-4.480900 0.000000
-4.455400 0.000000
-4.430000 0.588100
-4.404500 1.769200
-4.379000 1.041400
-4.353500 1.009200
-4.328100 1.201600
-4.302600 1.393600
-4.277100 1.585400
-4.251700 1.773500
-4.226200 1.978100
-4.200700 1.934600
-4.175300 2.136800
-4.149800 2.338700
-4.124300 2.401300
-4.098800 2.391400
-4.073400 2.122300
-4.047900 1.799600
-4.022400 1.633400
-3.997000 1.495400
-3.971500 1.384800
-3.946000 1.265400
-3.920600 1.188000
-3.895100 1.154700
-3.869600 1.124700
-3.844200 1.096900
-3.818700 1.070500
-3.793200 1.045300
-3.767700 1.021600
-3.742300 0.998000
-3.716800 0.974800
-3.691300 0.953100
-3.665900 0.932300
-3.640400 0.912200
-3.614900 0.892700
-3.589500 0.871800
-3.564000 0.851100
-3.538500 0.833500
-3.513000 0.823400
-3.487600 0.813400
-3.462100 0.803800
-3.436600 0.794800
-3.411200 0.786400
-3.385700 0.778400
-3.360200 0.771100
-3.334800 0.764500
-3.309300 0.757900
-3.283800 0.754800
-3.258300 0.756000
-3.232900 0.760100
-3.207400 0.759200
-3.181900 0.756900
-3.156500 0.752400
-3.131000 0.746000
-3.105500 0.737900
-3.080100 0.733600
-3.054600 0.732600
-3.029100 0.734300
-3.003700 0.744600
-2.978200 0.766700
-2.952700 0.774600
-2.927200 0.776700
-2.901800 0.777600
-2.876300 0.783500
-2.850800 0.825100
-2.825400 0.853300
-2.799900 0.855000
-2.774400 0.861200
-2.749000 0.755900
-2.723500 0.637000
-2.698000 0.547900
-2.672500 0.507200
-2.647100 0.474600
-2.621600 0.443800
-2.596100 0.412800
-2.570700 0.382100
-2.545200 0.350000
-2.519700 0.324800
-2.494300 0.306300
-2.468800 0.283500
-2.443300 0.255500
-2.417800 0.226000
-2.392400 0.198000
-2.366900 0.173100
-2.341400 0.166800
-2.316000 0.145700
-2.290500 0.108300
-2.265000 0.052200
-2.239600 0.015600
-2.214100 0.000500
-2.188600 0.000000
-2.163200 0.000000
-2.137700 0.000000
-2.112200 0.000000
-2.086700 0.000000
-2.061300 0.000000
-2.035800 0.000000
-2.010300 0.000000
-1.984900 0.000000
-1.959400 0.000000
-1.933900 0.000000
-1.908500 0.000000
-1.883000 0.000000
-1.857500 0.000000
-1.832000 0.000000
-1.806600 0.000000
-1.781100 0.000000
-1.755600 0.000000
-1.730200 0.000000
-1.704700 0.000000
-1.679200 0.000000
-1.653800 0.000000
-1.628300 0.000000
-1.602800 0.000000
-1.577300 0.000000
-1.551900 0.000000
-1.526400 0.000000
-1.500900 0.000000
-1.475500 0.000000
-1.450000 0.000000
-1.424500 0.000000
-1.399100 0.000000
-1.373600 0.000000
-1.348100 0.000000
-1.322700 0.000000
-1.297200 0.000000
-1.271700 0.000000
-1.246200 0.000000
-1.220800 0.000000
-1.195300 0.000000
-1.169800 0.000000
-1.144400 0.000000
-1.118900 0.000000
-1.093400 0.000000
-1.068000 0.000000
-1.042500 0.000000
-1.017000 0.000000
-0.991500 0.000000
-0.966100 0.000000
-0.940600 0.000000
-0.915100 0.000000
-0.889700 0.000000
-0.864200 0.000000
-0.838700 0.000000
-0.813300 0.000000
-0.787800 0.000000
-0.762300 0.000000
-0.736800 0.000000
-0.711400 0.000000
-0.685900 0.130100
-0.660400 0.305100
-0.635000 0.404600
-0.609500 0.469400
-0.584000 0.567000
-0.558600 0.682100
-0.533100 0.785000
-0.507600 0.843100
-0.482200 0.914800
-0.456700 0.985200
-0.431200 1.060500
-0.405700 1.149100
-0.380300 1.255100
-0.354800 1.386200
-0.329300 1.540800
-0.303900 1.740400
-0.278400 1.845500
-0.252900 1.978500
-0.227500 2.061200
-0.202000 2.121100
-0.176500 2.146600
-0.151000 2.118900
-0.125600 2.121300
-0.100100 2.000400
-0.074600 1.890000
-0.049200 1.846200
-0.023700 1.899100
0.001800 1.915000
0.027200 1.908700
0.052700 1.955800
0.078200 2.038700
0.103600 1.777600
0.129100 1.627100
0.154600 1.543500
0.180100 1.496800
0.205500 1.455000
0.231000 1.413700
0.256500 1.375600
0.281900 1.356800
0.307400 1.339700
0.332900 1.409800
0.358300 1.523500
0.383800 1.656000
0.409300 1.655000
0.434800 1.709500
0.460200 1.751200
0.485700 1.888000
0.511200 1.869300
0.536600 1.876600
0.562100 2.059400
0.587600 2.031000
0.613000 1.976500
0.638500 1.963000
0.664000 1.965000
0.689500 1.969700
0.714900 1.982500
0.740400 2.005100
0.765900 2.070200
0.791300 2.137200
0.816800 2.210500
0.842300 2.208200
0.867700 2.241700
0.893200 2.343200
0.918700 2.510700
0.944100 2.731600
0.969600 2.966600
0.995100 3.100900
1.020600 3.171200
1.046000 3.075700
1.071500 3.170700
1.097000 3.312500
1.122400 3.473200
1.147900 3.608200
1.173400 3.363000
1.198800 3.337600
1.224300 3.274700
1.249800 3.219300
1.275300 3.145400
1.300700 3.038300
1.326200 2.921100
1.351700 2.849900
1.377100 2.800800
1.402600 2.752000
1.428100 2.705800
1.453500 2.647700
1.479000 2.581900
1.504500 2.548100
1.530000 2.518200
1.555400 2.471700
1.580900 2.451900
1.606400 2.394300
1.631800 2.346000
1.657300 2.305900
1.682800 2.249500
1.708200 2.175000
1.733700 2.188300
1.759200 2.082300
1.784600 1.942100
1.810100 1.779600
1.835600 1.679700
1.861100 1.624500
1.886500 1.606400
1.912000 1.586900
1.937500 1.528100
1.962900 1.465900
1.988400 1.411800
2.013900 1.405200
2.039300 1.677300
2.064800 1.724400
2.090300 1.842400
2.115800 1.934400
2.141200 2.007800
2.166700 2.120000
2.192200 2.144200
2.217600 2.016600
2.243100 2.064300
2.268600 2.094500
2.294000 2.253200
2.319500 2.445500
2.345000 2.694400
2.370500 2.939100
2.395900 3.123000
2.421400 3.311900
2.446900 3.626200
2.472300 3.924700
2.497800 4.042600
2.523300 4.017800
2.548700 3.862500
2.574200 3.667000
2.599700 3.584600
2.625100 3.521200
2.650600 3.569000
2.676100 3.671700
2.701600 3.729400
2.727000 3.798600
2.752500 3.706700
2.778000 3.616200
2.803400 3.571500
2.828900 4.154700
2.854400 4.403400
2.879800 4.702700
2.905300 5.271800
2.930800 6.277100
2.956300 6.799700
2.981700 6.796300
3.007200 6.829100
3.032700 7.350300
3.058100 8.234000
3.083600 7.410200
3.109100 4.912400
3.134500 4.193600
3.160000 2.902500
3.185500 2.157200
3.211000 1.962800
3.236400 1.545900
3.261900 0.601500
3.287400 0.000000
3.312800 0.000000
3.338300 0.000000
3.363800 0.000000
3.389200 0.000000
3.414700 0.000000
3.440200 0.000000
3.465600 0.000000
3.491100 0.000000
3.516600 0.000000
3.542100 0.000000
3.567500 0.000000
3.593000 0.000000
3.618500 0.000000
3.643900 0.000000
3.669400 0.000000
3.694900 0.000000
3.720300 0.000000
3.745800 0.000000
3.771300 0.000200
3.796800 0.000600
3.822200 0.006400
3.847700 0.054900
3.873200 0.154800
3.898600 0.268500
3.924100 0.394400
3.949600 0.501400
3.975000 0.575300
4.000500 0.643600
4.026000 0.699900
4.051500 0.738600
4.076900 0.784800
4.102400 0.851900
4.127900 0.930300
4.153300 1.025400
4.178800 1.137100
4.204300 1.265500
4.229700 1.475400
4.255200 1.541600
4.280700 1.622500
4.306100 1.750100
4.331600 1.962000
4.357100 2.460900
4.382600 2.816500
4.408000 2.802100
4.433500 2.656500
4.459000 2.598600
4.484400 2.612900
4.509900 2.631900
4.535400 2.642500
4.560800 2.682900
4.586300 2.777700
4.611800 2.944800
4.637300 3.107100
4.662700 3.369200
4.688200 3.422900
4.713700 3.445100
4.739100 3.436200
4.764600 3.163700
4.790100 2.776400
4.815500 2.236900
4.841000 1.841900
4.866500 1.642200
4.892000 1.197100
4.917400 0.482600
4.942900 0.257000
4.968400 0.000000
4.993800 0.000000
5.019300 0.000000
5.044800 0.000000
5.070200 0.000000
5.095700 0.000000
5.121200 0.000000
5.146600 0.000000
5.172100 0.000000
5.197600 0.000000
5.223100 0.000000
5.248500 0.000000
5.274000 0.000000
5.299500 0.000000
5.324900 0.000000
5.350400 0.000000
5.375900 0.000000
5.401300 0.000000
5.426800 0.000000
5.452300 0.000000
5.477800 0.000000
5.503200 0.000000
5.528700 0.000000
5.554200 0.000000
5.579600 0.000000
5.605100 0.000000
5.630600 0.000000
5.656000 0.000000
5.681500 0.000000
5.707000 0.000000
5.732500 0.000000
5.757900 0.000000
5.783400 0.000000
5.808900 0.000000
5.834300 0.000000
5.859800 0.000000
5.885300 0.000000
5.910700 0.000000
5.936200 0.000000
5.961700 0.000000
5.987100 0.000000
6.012600 0.000000
6.038100 0.000000
6.063600 0.000000
6.089000 0.000000
6.114500 0.000000
6.140000 0.000000
6.165400 0.000000
6.190900 0.000000
6.216400 0.000000
6.241800 0.000000
6.267300 0.000000
6.292800 0.000000
6.318300 0.000000
6.343700 0.000000
6.369200 0.000000
6.394700 0.000000
6.420100 0.000000
6.445600 0.000000
6.471100 0.000000
6.496500 0.000000
6.522000 0.000000
6.547500 0.000000
6.572900 0.000000
6.598400 0.000000
6.623900 0.000000
6.649400 0.000000
6.674800 0.000000
6.700300 0.000000
6.725800 0.000000
6.751200 0.012900
6.776700 0.034500
6.802200 0.056100
6.827600 0.077700
6.853100 0.099300
6.878600 0.120900
6.904100 0.142500
6.929500 0.164000
6.955000 0.185600
6.980500 0.207200
7.005900 0.228700
7.031400 0.184700
7.056900 0.177000
7.082300 0.184400
7.107800 0.191800
7.133300 0.199200
7.158800 0.206600
7.184200 0.214000
7.209700 0.221400
7.235200 0.228800
7.260600 0.236200
7.286100 0.243500
7.311600 0.250900
7.337000 0.258200
7.362500 0.265600
7.388000 0.272900
7.413400 0.280300
7.438900 0.308800
7.464400 0.374500
7.489900 0.429300
7.515300 0.480300
7.540800 0.535900
7.566300 0.594200
7.591700 0.719600
7.617200 0.966900
7.642700 1.190400
7.668100 1.353300
7.693600 1.513500
7.719100 1.679300
7.744600 1.861700
7.770000 2.022100
7.795500 2.148600
7.821000 2.179900
7.846400 2.118800
7.871900 2.027100
7.897400 1.959400
7.922800 1.925600
7.948300 1.934400
7.973800 1.957600
7.999300 1.936200
8.024700 1.884400
8.050200 1.802900
8.075700 1.718500
8.101100 1.643400
8.126600 1.576400
8.152100 1.528900
8.177500 1.515900
8.203000 1.577000
8.228500 1.673700
8.253900 1.792100
8.279400 1.916100
8.304900 2.012400
8.330400 2.080600
8.355800 2.221600
8.381300 2.449300
8.406800 2.667400
8.432200 2.789500
8.457700 2.525900
8.483200 2.339300
8.508600 2.270600
8.534100 1.889600
8.559600 1.721700
8.585100 1.694800
8.610500 1.693000
8.636000 1.699000
8.661500 1.708100
8.686900 1.719100
8.712400 1.758900
8.737900 1.815400
8.763300 1.853700
8.788800 1.894300
8.814300 1.963700
8.839800 2.063100
8.865200 2.180000
8.890700 2.316400
8.916200 2.426200
8.941600 2.570300
8.967100 2.748400
8.992600 2.961400
9.018000 3.382900
9.043500 3.728500
9.069000 4.080900
9.094400 4.201500
9.119900 4.100800
9.145400 4.343300
9.170900 5.556600
9.196300 5.272800
9.221800 4.603200
9.247300 4.323800
9.272700 4.018200
9.298200 3.677200
9.323700 3.389600
9.349100 3.162200
9.374600 3.382900
9.400100 3.774700
9.425600 3.754100
9.451000 3.444100
9.476500 3.398300
9.502000 3.067000
9.527400 2.723800
9.552900 2.512900
9.578400 2.353900
9.603800 2.213300
9.629300 2.143500
9.654800 2.133000
9.680300 2.014100
9.705700 1.921200
9.731200 1.843300
9.756700 1.798600
9.782100 1.771100
9.807600 1.746900
9.833100 1.717900
9.858500 1.672900
9.884000 1.628600
9.909500 1.591100
9.934900 1.565800
9.960400 1.553700
9.985900 1.520900
10.011400 1.462600
10.036800 1.481600
10.062300 1.581900
10.087800 1.690200
10.113200 1.737000
10.138700 1.646800
10.164200 1.761200
10.189600 2.026900
10.215100 1.841500
10.240600 1.450700
10.266100 1.280700
10.291500 1.284300
10.317000 1.334700
10.342500 1.389200
10.367900 1.440100
10.393400 1.453700
10.418900 1.467600
10.444300 1.488300
10.469800 1.514600
10.495300 1.541600
10.520800 1.568800
10.546200 1.618500
10.571700 1.703900
10.597200 1.743500
10.622600 1.774400
10.648100 1.805400
10.673600 1.819800
10.699000 1.819000
10.724500 1.820200
10.750000 1.917300
10.775400 2.049300
10.800900 2.128900
10.826400 2.109400
10.851900 2.025900
10.877300 1.909900
10.902800 1.811300
10.928300 1.600500
10.953700 1.341800
10.979200 1.215900
11.004700 1.146000
11.030100 1.072800
11.055600 0.992400
11.081100 0.906000
11.106600 0.873600
11.132000 0.860300
