set title 'mp-8371 - Density of States'
set xlabel 'Energy (eV)'
set ylabel 'DOS (states/eV)'
set grid
set xrange [-10:10]
set yrange [0:4.154]
set xzeroaxis lt -1
set terminal png size 800,600
set output 'mp-8371_dos_gnuplot.png'
plot '-' using 1:2 with lines title 'DOS'
-28.975300 0.000000
-28.898800 0.000000
-28.822200 0.000000
-28.745700 0.000000
-28.669200 0.000000
-28.592600 0.000000
-28.516100 0.000000
-28.439600 0.000000
-28.363100 0.000000
-28.286500 0.000000
-28.210000 0.000000
-28.133500 0.000000
-28.056900 0.000000
-27.980400 0.000000
-27.903900 0.000000
-27.827300 0.000000
-27.750800 0.000000
-27.674300 0.000000
-27.597700 0.000000
-27.521200 0.000000
-27.444700 0.000000
-27.368200 0.000000
-27.291600 0.000000
-27.215100 0.000000
-27.138600 0.000000
-27.062000 0.000000
-26.985500 0.000000
-26.909000 0.000000
-26.832400 0.000000
-26.755900 0.000000
-26.679400 0.000000
-26.602900 0.000000
-26.526300 0.000000
-26.449800 0.000000
-26.373300 0.000000
-26.296700 0.000000
-26.220200 0.000000
-26.143700 0.000000
-26.067100 0.000000
-25.990600 0.000000
-25.914100 0.000000
-25.837600 0.000000
-25.761000 0.000000
-25.684500 0.000000
-25.608000 0.000000
-25.531400 0.000000
-25.454900 0.000000
-25.378400 0.000000
-25.301800 0.000000
-25.225300 0.000000
-25.148800 0.000000
-25.072200 0.000000
-24.995700 0.000000
-24.919200 0.000000
-24.842700 0.000000
-24.766100 0.000000
-24.689600 0.000000
-24.613100 0.000000
-24.536500 0.000000
-24.460000 0.000000
-24.383500 0.000000
-24.306900 0.000000
-24.230400 0.000000
-24.153900 0.000000
-24.077400 0.000000
-24.000800 0.000000
-23.924300 0.000000
-23.847800 0.000000
-23.771200 0.000000
-23.694700 0.000000
-23.618200 0.000000
-23.541600 0.000000
-23.465100 0.000000
-23.388600 0.000000
-23.312000 0.000000
-23.235500 0.000000
-23.159000 0.000000
-23.082500 0.000000
-23.005900 0.000000
-22.929400 0.000000
-22.852900 0.000000
-22.776300 0.000000
-22.699800 0.000000
-22.623300 0.000000
-22.546700 0.000000
-22.470200 0.000000
-22.393700 0.000000
-22.317200 0.000000
-22.240600 0.000000
-22.164100 0.000000
-22.087600 0.026300
-22.011000 1.959200
-21.934500 10.076700
-21.858000 11.459600
-21.781400 11.065500
-21.704900 12.904100
-21.628400 5.689000
-21.551800 5.827600
-21.475300 14.237600
-21.398800 5.014600
-21.322300 0.139900
-21.245700 0.000200
-21.169200 0.000000
-21.092700 0.000000
-21.016100 0.000000
-20.939600 0.000000
-20.863100 0.000000
-20.786500 0.000000
-20.710000 0.000000
-20.633500 0.000000
-20.557000 0.000000
-20.480400 0.000000
-20.403900 0.000000
-20.327400 0.000000
-20.250800 0.000000
-20.174300 0.000000
-20.097800 0.000000
-20.021200 0.000000
-19.944700 0.000000
-19.868200 0.000000
-19.791700 0.000000
-19.715100 0.000000
-19.638600 0.000000
-19.562100 0.000000
-19.485500 0.000000
-19.409000 0.000000
-19.332500 0.000000
-19.255900 0.000000
-19.179400 0.000000
-19.102900 0.000000
-19.026300 0.000000
-18.949800 0.000000
-18.873300 0.000000
-18.796800 0.000000
-18.720200 0.000000
-18.643700 0.000000
-18.567200 0.000000
-18.490600 0.000000
-18.414100 0.000000
-18.337600 0.000000
-18.261000 0.000000
-18.184500 0.000000
-18.108000 0.000000
-18.031500 0.000000
-17.954900 0.000000
-17.878400 0.000000
-17.801900 0.000000
-17.725300 0.000000
-17.648800 0.000000
-17.572300 0.000000
-17.495700 0.000000
-17.419200 0.000000
-17.342700 0.000000
-17.266100 0.000000
-17.189600 0.000000
-17.113100 0.000000
-17.036600 0.000000
-16.960000 0.000000
-16.883500 0.000000
-16.807000 0.000000
-16.730400 0.000000
-16.653900 0.000000
-16.577400 0.000000
-16.500800 0.000000
-16.424300 0.000000
-16.347800 0.000000
-16.271300 0.000000
-16.194700 0.000000
-16.118200 0.000000
-16.041700 0.000000
-15.965100 0.000000
-15.888600 0.000000
-15.812100 0.000000
-15.735500 0.000000
-15.659000 0.000000
-15.582500 0.000000
-15.505900 0.000000
-15.429400 0.000000
-15.352900 0.000000
-15.276400 0.000000
-15.199800 0.000000
-15.123300 0.000000
-15.046800 0.000000
-14.970200 0.000000
-14.893700 0.000000
-14.817200 0.000000
-14.740600 0.000000
-14.664100 0.000000
-14.587600 0.000000
-14.511100 0.000000
-14.434500 0.000000
-14.358000 0.000000
-14.281500 0.000000
-14.204900 0.000000
-14.128400 0.000000
-14.051900 0.000000
-13.975300 0.000000
-13.898800 0.000000
-13.822300 0.000000
-13.745800 0.000000
-13.669200 0.000000
-13.592700 0.000000
-13.516200 0.000000
-13.439600 0.000000
-13.363100 0.000000
-13.286600 0.000000
-13.210000 0.000000
-13.133500 0.000000
-13.057000 0.000000
-12.980400 0.000000
-12.903900 0.000000
-12.827400 0.000000
-12.750900 0.000000
-12.674300 0.000000
-12.597800 0.000000
-12.521300 0.000000
-12.444700 0.000000
-12.368200 0.000000
-12.291700 0.000000
-12.215100 0.000000
-12.138600 0.000000
-12.062100 0.000000
-11.985600 0.000000
-11.909000 0.000000
-11.832500 0.000000
-11.756000 0.000000
-11.679400 0.000000
-11.602900 0.000000
-11.526400 0.000000
-11.449800 0.000000
-11.373300 0.000000
-11.296800 0.000000
-11.220200 0.000000
-11.143700 0.000100
-11.067200 0.012500
-10.990700 0.107700
-10.914100 0.194000
-10.837600 0.336000
-10.761100 0.367500
-10.684500 0.526700
-10.608000 0.709800
-10.531500 0.802600
-10.454900 1.306100
-10.378400 1.915200
-10.301900 3.620100
-10.225400 4.612500
-10.148800 4.659100
-10.072300 3.600000
-9.995800 2.467100
-9.919200 0.859800
-9.842700 0.036400
-9.766200 0.000100
-9.689600 0.000000
-9.613100 0.000000
-9.536600 0.000000
-9.460000 0.000000
-9.383500 0.000000
-9.307000 0.000000
-9.230500 0.000000
-9.153900 0.000000
-9.077400 0.000000
-9.000900 0.000000
-8.924300 0.000000
-8.847800 0.000000
-8.771300 0.000000
-8.694700 0.000000
-8.618200 0.000000
-8.541700 0.000000
-8.465200 0.000000
-8.388600 0.000000
-8.312100 0.000000
-8.235600 0.000000
-8.159000 0.000000
-8.082500 0.000000
-8.006000 0.000000
-7.929400 0.000000
-7.852900 0.000000
-7.776400 0.000000
-7.699900 0.000000
-7.623300 0.000000
-7.546800 0.000000
-7.470300 0.000000
-7.393700 0.000000
-7.317200 0.000000
-7.240700 0.000000
-7.164100 0.000000
-7.087600 0.000000
-7.011100 0.000000
-6.934500 0.000000
-6.858000 0.000000
-6.781500 0.000000
-6.705000 0.000000
-6.628400 0.000000
-6.551900 0.000000
-6.475400 0.000000
-6.398800 0.000000
-6.322300 0.000000
-6.245800 0.000000
-6.169200 0.000000
-6.092700 0.000000
-6.016200 0.000000
-5.939700 0.000000
-5.863100 0.000000
-5.786600 0.000000
-5.710100 0.000000
-5.633500 0.000000
-5.557000 0.000000
-5.480500 0.000000
-5.403900 0.000000
-5.327400 0.000000
-5.250900 0.000000
-5.174300 0.000000
-5.097800 0.000000
-5.021300 0.000000
-4.944800 0.000000
-4.868200 0.000000
-4.791700 0.000000
-4.715200 0.000000
-4.638600 0.000000
-4.562100 0.000000
-4.485600 0.000000
-4.409000 0.000000
-4.332500 0.000000
-4.256000 0.000000
-4.179500 0.000000
-4.102900 0.000000
-4.026400 0.000000
-3.949900 0.000000
-3.873300 0.000000
-3.796800 0.000000
-3.720300 0.000000
-3.643700 0.000000
-3.567200 0.000000
-3.490700 0.000000
-3.414200 0.000000
-3.337600 0.000000
-3.261100 0.000300
-3.184600 0.039800
-3.108000 0.226300
-3.031500 0.454500
-2.955000 0.809100
-2.878400 1.481200
-2.801900 2.255700
-2.725400 1.959200
-2.648800 1.844400
-2.572300 1.531300
-2.495800 1.310200
-2.419300 1.313100
-2.342700 1.573900
-2.266200 0.790700
-2.189700 1.180900
-2.113100 0.891100
-2.036600 1.222700
-1.960100 0.946700
-1.883500 0.900300
-1.807000 0.698800
-1.730500 0.653000
-1.654000 1.145700
-1.577400 0.821400
-1.500900 0.530800
-1.424400 0.711700
-1.347800 0.583000
-1.271300 0.590600
-1.194800 0.608500
-1.118200 0.627500
-1.041700 0.366100
-0.965200 0.719600
-0.888600 0.949500
-0.812100 0.980400
-0.735600 1.201900
-0.659100 1.562400
-0.582500 2.013500
-0.506000 2.378900
-0.429500 2.307200
-0.352900 2.602000
-0.276400 2.078800
-0.199900 1.617100
-0.123300 1.352500
-0.046800 2.459400
0.029700 3.376700
0.106200 3.776200
0.182800 2.874600
0.259300 2.444700
0.335800 2.165600
0.412400 1.957600
0.488900 1.653200
0.565400 1.721700
0.642000 1.900000
0.718500 1.721600
0.795000 1.882700
0.871600 1.580500
0.948100 1.862000
1.024600 1.812500
1.101100 1.840500
1.177700 1.460500
1.254200 1.425600
1.330700 1.448900
1.407300 1.620800
1.483800 1.321700
1.560300 1.481800
1.636900 1.688200
1.713400 1.707700
1.789900 1.371000
1.866400 1.563000
1.943000 1.519400
2.019500 1.531300
2.096000 1.115100
2.172600 0.926600
2.249100 0.673200
2.325600 0.482200
2.402200 0.414100
2.478700 0.385600
2.555200 0.303100
2.631700 0.169400
2.708300 0.057800
2.784800 0.211500
2.861300 0.151900
2.937900 0.160200
3.014400 0.136300
3.090900 0.178300
3.167500 0.294000
3.244000 0.241500
3.320500 0.415100
3.397100 0.409700
3.473600 0.082500
3.550100 0.087000
3.626600 0.381700
3.703200 0.460100
3.779700 0.216100
3.856200 0.415300
3.932800 0.274700
4.009300 0.411900
4.085800 0.459200
4.162400 0.392600
4.238900 0.579300
4.315400 0.586500
4.391900 0.398400
4.468500 0.402400
4.545000 0.515700
4.621500 0.792000
4.698100 0.761100
4.774600 0.505000
4.851100 0.467600
4.927700 0.574000
5.004200 1.019900
5.080700 0.911200
5.157300 0.745300
5.233800 0.636900
5.310300 0.807200
5.386800 0.649900
5.463400 0.713700
5.539900 0.837000
5.616400 0.672200
5.693000 0.963800
5.769500 0.875600
5.846000 1.140700
5.922600 1.304800
5.999100 0.743300
6.075600 1.123400
6.152100 1.044800
6.228700 0.578200
6.305200 0.780300
6.381700 0.938900
6.458300 1.311000
6.534800 0.938300
6.611300 1.131000
6.687900 1.290400
6.764400 1.131300
6.840900 1.319800
6.917500 1.410500
6.994000 0.910300
7.070500 1.164400
7.147000 1.356400
7.223600 0.764900
7.300100 0.870000
7.376600 1.408000
7.453200 1.546500
7.529700 1.741300
7.606200 1.539400
7.682800 1.545300
7.759300 1.521200
7.835800 1.357300
7.912300 1.083100
7.988900 1.336900
8.065400 1.398300
8.141900 1.027300
8.218500 1.185300
8.295000 1.167000
8.371500 1.191800
8.448100 1.256100
8.524600 1.300400
8.601100 1.182600
8.677600 1.115000
8.754200 1.074400
8.830700 0.979400
8.907200 1.212900
8.983800 1.263500
9.060300 1.518500
9.136800 1.668900
9.213400 1.786900
9.289900 1.694200
9.366400 2.233300
9.443000 2.165100
9.519500 2.244600
9.596000 2.129900
9.672500 2.288200
9.749100 2.349500
9.825600 2.332400
9.902100 2.411200
9.978700 2.030900
10.055200 2.326500
10.131700 2.814100
10.208300 2.233200
10.284800 2.743600
10.361300 2.609900
10.437800 2.004300
10.514400 2.731600
10.590900 2.170900
10.667400 1.717200
10.744000 1.726400
10.820500 1.986100
10.897000 2.393500
10.973600 2.446600
11.050100 2.122700
11.126600 2.424500
11.203200 1.826100
11.279700 1.835400
11.356200 2.044900
11.432700 1.843800
11.509300 1.709200
11.585800 1.601600
11.662300 1.759500
11.738900 1.544400
11.815400 2.348000
11.891900 1.983400
11.968500 1.398000
12.045000 1.393000
12.121500 1.857900
12.198000 2.000900
12.274600 2.507100
12.351100 2.038800
12.427600 2.322900
12.504200 2.031900
12.580700 1.903800
12.657200 1.633400
12.733800 1.887900
12.810300 1.682300
12.886800 1.883900
12.963400 1.816400
13.039900 2.198800
13.116400 2.100700
13.192900 1.941800
13.269500 1.798700
13.346000 1.837400
13.422500 1.455700
13.499100 1.046400
13.575600 1.941300
13.652100 2.069100
13.728700 2.260600
13.805200 1.701400
13.881700 1.118200
13.958200 1.015800
14.034800 1.477200
14.111300 1.613400
14.187800 1.794200
14.264400 1.796500
14.340900 0.913200
14.417400 0.803700
14.494000 0.987600
14.570500 1.205900
14.647000 1.409500
14.723500 1.204900
14.800100 0.910900
14.876600 1.206200
14.953100 1.432700
15.029700 1.124700
15.106200 1.207100
15.182700 1.019500
15.259300 1.342400
15.335800 0.656300
15.412300 0.682400
15.488900 0.760900
15.565400 0.495300
15.641900 0.698700
15.718400 0.972500
15.795000 0.639700
15.871500 0.619500
15.948000 0.443300
16.024600 0.645700
16.101100 0.637100
16.177600 0.380600
16.254200 0.342300
16.330700 0.744100
16.407200 0.683400
16.483700 0.534900
16.560300 0.740200
16.636800 0.975200
16.713300 1.212300
16.789900 1.025800
16.866400 0.932100
16.942900 1.576900
17.019500 1.356500
17.096000 1.148500
17.172500 1.143400
17.249100 1.042100
17.325600 1.224100
17.402100 1.032700
17.478600 1.125900
17.555200 1.524100
17.631700 1.045100
17.708200 1.024500
17.784800 1.131800
17.861300 1.119600
17.937800 0.856000
18.014400 1.340800
18.090900 1.059100
18.167400 0.849600
18.243900 0.644600
18.320500 0.781000
18.397000 1.179100
18.473500 1.653600
18.550100 1.109200
18.626600 1.491300
18.703100 1.152800
18.779700 1.262000
18.856200 1.145600
18.932700 1.325100
19.009300 1.416100
19.085800 1.445400
19.162300 1.542600
19.238800 1.435600
19.315400 1.712500
19.391900 1.581100
19.468400 1.321600
19.545000 1.587700
19.621500 1.348100
19.698000 1.382600
19.774600 1.358700
19.851100 1.202100
19.927600 1.140700
20.004100 1.580200
20.080700 1.532100
20.157200 1.767200
20.233700 1.574700
20.310300 0.876900
20.386800 0.291400
20.463300 0.899900
20.539900 1.618100
20.616400 1.390200
20.692900 1.258400
20.769400 1.203300
20.846000 1.338900
20.922500 1.799800
20.999000 1.505500
21.075600 1.412200
21.152100 1.504700
21.228600 1.202500
21.305200 1.844500
21.381700 1.791900
21.458200 1.738600
21.534800 1.821300
21.611300 1.790300
21.687800 1.200300
21.764300 0.837400
21.840900 0.556900
21.917400 0.628700
21.993900 0.773800
22.070500 1.466400
22.147000 1.180400
22.223500 0.834600
22.300100 0.538400
22.376600 0.569100
22.453100 0.848500
22.529600 1.015200
22.606200 1.082300
22.682700 0.947000
22.759200 0.951000
22.835800 0.745200
22.912300 1.143800
22.988800 1.047000
23.065400 0.715300
23.141900 1.049600
23.218400 0.992400
23.295000 0.551700
23.371500 0.563700
23.448000 1.262000
23.524500 1.379700
23.601100 1.388100
23.677600 1.772500
23.754100 2.120600
23.830700 2.041500
23.907200 1.660400
23.983700 1.475300
24.060300 1.687300
24.136800 1.916500
24.213300 2.065000
24.289800 1.711400
24.366400 1.768200
24.442900 1.805100
24.519400 2.620700
24.596000 2.593900
24.672500 1.872100
24.749000 1.866600
24.825600 1.782100
24.902100 1.485800
24.978600 1.588900
25.055100 1.458100
25.131700 1.071100
25.208200 0.869700
25.284700 1.210900
25.361300 1.276100
25.437800 1.193000
25.514300 1.193000
25.590900 0.830600
25.667400 0.749700
25.743900 0.867600
25.820500 1.627100
25.897000 1.544900
25.973500 1.447400
26.050000 2.059600
26.126600 1.767500
26.203100 1.653700
26.279600 1.705500
26.356200 1.408500
26.432700 1.367800
26.509200 1.344600
26.585800 1.579600
26.662300 1.327000
26.738800 1.691700
26.815300 1.477900
26.891900 1.206900
26.968400 1.093500
27.044900 1.541200
27.121500 2.003400
27.198000 1.909500
27.274500 1.610300
27.351100 1.505000
27.427600 1.465800
27.504100 1.693000
27.580700 1.563900
27.657200 1.614700
27.733700 1.846300
27.810200 1.370200
27.886800 1.741000
27.963300 2.174700
28.039800 2.320400
28.116400 1.563500
28.192900 1.348400
28.269400 1.834300
28.346000 1.891800
28.422500 1.912200
28.499000 2.275200
28.575500 1.521400
28.652100 2.177800
28.728600 2.059200
28.805100 2.597300
28.881700 1.970900
28.958200 1.450000
29.034700 2.146900
29.111300 1.951000
29.187800 1.708600
29.264300 2.284400
29.340900 2.584300
29.417400 1.960600
29.493900 2.007900
29.570400 1.871000
29.647000 1.664100
29.723500 1.348600
29.800000 1.206200
29.876600 1.597700
29.953100 1.231300
30.029600 1.674400
30.106200 1.439500
30.182700 1.449600
30.259200 1.327300
30.335700 1.159600
30.412300 1.052000
30.488800 1.264000
30.565300 1.238700
30.641900 1.673100
30.718400 1.296600
30.794900 1.444900
30.871500 1.538600
30.948000 0.792900
31.024500 0.952300
31.101000 1.390600
31.177600 1.837900
31.254100 2.503600
31.330600 1.556000
31.407200 1.302900
31.483700 1.415000
31.560200 1.415300
31.636800 1.653500
31.713300 1.060600
31.789800 0.867900
31.866400 1.071000
31.942900 1.262800
32.019400 1.020000
32.095900 0.876400
32.172500 0.953800
32.249000 1.352700
32.325500 1.504600
32.402100 1.275500
32.478600 1.189500
32.555100 1.320000
32.631700 1.631000
32.708200 1.764400
32.784700 1.862400
32.861200 1.607500
32.937800 1.402800
33.014300 1.358900
33.090800 1.383500
33.167400 1.473000
33.243900 1.752300
33.320400 1.789800
33.397000 1.363900
33.473500 1.477200
33.550000 1.613600
33.626600 1.835800
33.703100 1.913400
33.779600 1.570100
33.856100 1.445700
33.932700 1.514800
34.009200 1.531500
34.085700 1.800400
34.162300 1.952200
34.238800 1.844900
34.315300 2.054200
34.391900 1.846500
34.468400 2.044900
34.544900 2.344000
34.621400 2.295200
34.698000 1.536500
34.774500 1.832300
34.851000 1.801000
34.927600 1.183500
35.004100 1.497300
35.080600 1.763800
35.157200 1.651800
35.233700 1.891300
35.310200 2.499000
35.386800 2.493800
35.463300 2.210400
35.539800 2.183900
35.616300 2.283200
35.692900 2.256400
35.769400 1.464400
35.845900 1.251600
35.922500 1.367200
35.999000 1.976600
36.075500 1.905200
36.152100 1.408600
36.228600 1.632600
36.305100 1.548200
36.381600 1.435000
36.458200 1.701400
36.534700 1.577500
36.611200 1.905400
36.687800 2.221600
36.764300 1.913500
36.840800 1.970400
36.917400 2.348400
36.993900 1.921200
37.070400 2.344900
37.146900 2.319200
37.223500 2.210900
37.300000 2.549500
37.376500 1.931900
37.453100 2.514200
37.529600 2.760700
37.606100 1.799400
37.682700 1.544900
37.759200 1.892400
37.835700 2.062200
37.912300 1.803400
37.988800 1.585000
38.065300 1.389700
38.141800 1.238100
38.218400 1.478600
38.294900 1.614400
38.371400 1.821000
38.448000 1.944500
38.524500 1.452800
38.601000 1.193900
38.677600 1.709600
38.754100 1.813000
38.830600 1.415800
38.907100 1.585800
38.983700 1.771900
39.060200 2.004100
39.136700 1.786800
39.213300 1.837400
39.289800 1.742000
39.366300 1.886900
39.442900 1.856700
39.519400 2.459800
39.595900 2.452700
39.672500 2.369000
39.749000 2.205700
39.825500 1.829700
39.902000 1.738700
39.978600 1.695200
40.055100 1.903100
40.131600 1.755600
40.208200 1.649500
40.284700 1.451300
40.361200 1.891700
40.437800 1.836000
40.514300 1.872500
40.590800 2.091900
40.667300 2.314300
40.743900 2.278100
40.820400 1.694400
40.896900 2.067100
40.973500 1.895700
41.050000 2.360900
41.126500 2.320100
41.203100 2.221600
41.279600 1.979800
41.356100 1.860700
41.432700 1.824400
41.509200 2.199600
41.585700 2.654300
41.662200 2.276300
41.738800 1.795800
41.815300 1.824800
41.891800 1.979000
41.968400 1.814400
42.044900 1.735100
42.121400 2.130200
42.198000 2.141300
42.274500 2.098700
42.351000 2.489700
42.427500 2.610400
42.504100 2.273000
42.580600 1.894200
42.657100 1.828900
42.733700 2.127900
42.810200 2.437300
42.886700 2.101800
42.963300 2.489900
43.039800 2.579100
43.116300 2.026600
43.192800 1.723700
43.269400 2.163300
43.345900 2.217800
43.422400 1.793700
43.499000 1.493400
43.575500 1.593100
43.652000 2.224100
43.728600 2.193700
43.805100 1.341000
43.881600 1.977800
43.958200 1.839700
44.034700 1.378900
44.111200 1.705900
44.187700 2.277900
44.264300 1.547100
44.340800 1.699600
44.417300 1.837700
44.493900 1.665800
44.570400 1.924500
44.646900 2.062500
44.723500 1.814600
44.800000 1.684600
44.876500 1.641500
44.953000 2.061200
45.029600 2.208900
45.106100 2.756800
45.182600 2.016400
45.259200 2.006700
45.335700 2.013800
45.412200 1.573500
45.488800 1.578900
45.565300 1.543900
45.641800 1.549900
45.718400 1.252000
45.794900 1.399500
45.871400 1.376100
45.947900 1.623100
46.024500 1.858000
46.101000 2.005200
46.177500 1.550600
46.254100 1.636000
46.330600 1.774500
46.407100 1.747900
46.483700 1.394600
46.560200 1.478100
46.636700 1.433700
46.713200 1.709700
46.789800 2.124300
46.866300 1.929000
46.942800 2.081300
47.019400 1.941500
47.095900 1.674600
47.172400 2.097900
47.249000 2.144000
47.325500 1.780300
47.402000 1.912000
47.478500 1.925200
47.555100 1.797300
47.631600 1.574700
47.708100 1.698500
47.784700 1.934800
47.861200 1.968300
47.937700 2.335400
48.014300 2.127500
48.090800 2.110100
48.167300 1.888700
48.243900 1.657000
48.320400 2.142300
48.396900 3.098400
48.473400 3.161600
48.550000 2.940400
48.626500 3.171200
48.703000 2.223900
48.779600 2.520400
48.856100 2.575800
48.932600 1.864100
49.009200 2.027700
49.085700 3.021300
49.162200 3.025600
49.238700 2.270500
49.315300 2.588400
49.391800 2.706300
49.468300 2.685200
49.544900 3.667600
49.621400 3.164200
49.697900 2.999900
49.774500 2.878200
49.851000 2.325600
