set title 'mp-30359 - Density of States'
set xlabel 'Energy (eV)'
set ylabel 'DOS (states/eV)'
set grid
set xrange [-10:10]
set yrange [0:21.191]
set xzeroaxis lt -1
set terminal png size 800,600
set output 'mp-30359_dos_gnuplot.png'
plot '-' using 1:2 with lines title 'DOS'
-26.189500 0.000000
-26.147100 0.000000
-26.104600 0.000000
-26.062100 0.000000
-26.019700 0.000000
-25.977200 0.000000
-25.934800 0.000000
-25.892300 0.000000
-25.849800 0.000000
-25.807400 0.000000
-25.764900 0.000000
-25.722400 0.000000
-25.680000 0.000000
-25.637500 0.000000
-25.595100 0.000000
-25.552600 0.000000
-25.510100 0.000000
-25.467700 0.000000
-25.425200 0.000000
-25.382700 0.000000
-25.340300 0.000000
-25.297800 0.000000
-25.255400 0.000000
-25.212900 0.000000
-25.170400 0.000000
-25.128000 0.000000
-25.085500 0.000000
-25.043100 0.000000
-25.000600 0.000000
-24.958100 0.000000
-24.915700 0.000000
-24.873200 0.000000
-24.830700 0.000000
-24.788300 0.000000
-24.745800 0.000000
-24.703400 0.000000
-24.660900 0.000000
-24.618400 0.000000
-24.576000 0.000000
-24.533500 0.000000
-24.491000 0.000000
-24.448600 0.000000
-24.406100 0.000000
-24.363700 0.000000
-24.321200 0.000000
-24.278700 0.000000
-24.236300 0.000000
-24.193800 0.000000
-24.151300 0.000000
-24.108900 0.000000
-24.066400 0.000000
-24.024000 0.000000
-23.981500 0.000000
-23.939000 0.000000
-23.896600 0.000000
-23.854100 0.000000
-23.811700 0.000000
-23.769200 0.000000
-23.726700 0.000000
-23.684300 0.000000
-23.641800 0.000000
-23.599300 0.000000
-23.556900 0.000000
-23.514400 0.000000
-23.472000 0.000000
-23.429500 0.000000
-23.387000 0.000000
-23.344600 0.000000
-23.302100 0.000000
-23.259600 0.000000
-23.217200 0.000000
-23.174700 0.000000
-23.132300 0.000000
-23.089800 0.000000
-23.047300 0.000000
-23.004900 0.000000
-22.962400 0.000000
-22.919900 0.000000
-22.877500 0.000000
-22.835000 0.000000
-22.792600 0.000000
-22.750100 0.000000
-22.707600 0.000000
-22.665200 0.000000
-22.622700 0.000000
-22.580300 0.000000
-22.537800 0.000000
-22.495300 0.000000
-22.452900 0.001300
-22.410400 0.080200
-22.367900 1.476900
-22.325500 8.909800
-22.283000 23.348600
-22.240600 36.930100
-22.198100 34.842800
-22.155600 22.565700
-22.113200 10.738400
-22.070700 2.254200
-22.028200 0.151800
-21.985800 0.002900
-21.943300 0.000000
-21.900900 0.000000
-21.858400 0.000000
-21.815900 0.000000
-21.773500 0.000000
-21.731000 0.000000
-21.688500 0.000000
-21.646100 0.000000
-21.603600 0.000000
-21.561200 0.000000
-21.518700 0.000000
-21.476200 0.000000
-21.433800 0.000000
-21.391300 0.000000
-21.348900 0.000000
-21.306400 0.000000
-21.263900 0.000000
-21.221500 0.000000
-21.179000 0.000000
-21.136500 0.000000
-21.094100 0.000000
-21.051600 0.000000
-21.009200 0.000000
-20.966700 0.000000
-20.924200 0.000000
-20.881800 0.000000
-20.839300 0.000000
-20.796800 0.000000
-20.754400 0.000000
-20.711900 0.000000
-20.669500 0.000000
-20.627000 0.000000
-20.584500 0.000000
-20.542100 0.000000
-20.499600 0.000000
-20.457100 0.000000
-20.414700 0.000000
-20.372200 0.000000
-20.329800 0.000000
-20.287300 0.000000
-20.244800 0.000000
-20.202400 0.000000
-20.159900 0.000000
-20.117500 0.000000
-20.075000 0.000000
-20.032500 0.000000
-19.990100 0.000000
-19.947600 0.000000
-19.905100 0.000000
-19.862700 0.000000
-19.820200 0.000000
-19.777800 0.000000
-19.735300 0.000000
-19.692800 0.000000
-19.650400 0.000000
-19.607900 0.000000
-19.565400 0.000000
-19.523000 0.000000
-19.480500 0.000000
-19.438100 0.000000
-19.395600 0.000000
-19.353100 0.000000
-19.310700 0.000000
-19.268200 0.000000
-19.225700 0.000000
-19.183300 0.000000
-19.140800 0.000000
-19.098400 0.000000
-19.055900 0.000000
-19.013400 0.000000
-18.971000 0.000000
-18.928500 0.000000
-18.886100 0.000000
-18.843600 0.000000
-18.801100 0.000000
-18.758700 0.000000
-18.716200 0.000000
-18.673700 0.000000
-18.631300 0.000000
-18.588800 0.000000
-18.546400 0.000000
-18.503900 0.000000
-18.461400 0.000000
-18.419000 0.000000
-18.376500 0.000000
-18.334000 0.000000
-18.291600 0.000000
-18.249100 0.000000
-18.206700 0.000000
-18.164200 0.000000
-18.121700 0.000000
-18.079300 0.000000
-18.036800 0.000000
-17.994300 0.000000
-17.951900 0.000000
-17.909400 0.000000
-17.867000 0.000000
-17.824500 0.000000
-17.782000 0.000000
-17.739600 0.000000
-17.697100 0.000000
-17.654700 0.000000
-17.612200 0.000000
-17.569700 0.000000
-17.527300 0.000000
-17.484800 0.000000
-17.442300 0.000000
-17.399900 0.000000
-17.357400 0.000000
-17.315000 0.000000
-17.272500 0.000000
-17.230000 0.000000
-17.187600 0.000000
-17.145100 0.000000
-17.102600 0.000000
-17.060200 0.000000
-17.017700 0.000000
-16.975300 0.000000
-16.932800 0.000000
-16.890300 0.000000
-16.847900 0.000000
-16.805400 0.000000
-16.762900 0.000000
-16.720500 0.000000
-16.678000 0.000000
-16.635600 0.000000
-16.593100 0.000000
-16.550600 0.000000
-16.508200 0.000000
-16.465700 0.000000
-16.423300 0.000000
-16.380800 0.000000
-16.338300 0.000000
-16.295900 0.000000
-16.253400 0.000000
-16.210900 0.000000
-16.168500 0.000000
-16.126000 0.000000
-16.083600 0.000000
-16.041100 0.000000
-15.998600 0.000000
-15.956200 0.000000
-15.913700 0.000000
-15.871200 0.000000
-15.828800 0.000000
-15.786300 0.000000
-15.743900 0.000000
-15.701400 0.000000
-15.658900 0.000000
-15.616500 0.000000
-15.574000 0.000000
-15.531500 0.000000
-15.489100 0.000000
-15.446600 0.000000
-15.404200 0.000000
-15.361700 0.000000
-15.319200 0.000000
-15.276800 0.000000
-15.234300 0.000000
-15.191900 0.000000
-15.149400 0.000000
-15.106900 0.000000
-15.064500 0.000000
-15.022000 0.000000
-14.979500 0.000000
-14.937100 0.000000
-14.894600 0.000000
-14.852200 0.000000
-14.809700 0.000000
-14.767200 0.000000
-14.724800 0.000000
-14.682300 0.000000
-14.639800 0.000000
-14.597400 0.000000
-14.554900 0.000000
-14.512500 0.000000
-14.470000 0.000000
-14.427500 0.000000
-14.385100 0.000000
-14.342600 0.000000
-14.300100 0.000000
-14.257700 0.000000
-14.215200 0.000000
-14.172800 0.000000
-14.130300 0.000000
-14.087800 0.000000
-14.045400 0.000000
-14.002900 0.000000
-13.960500 0.000000
-13.918000 0.000000
-13.875500 0.000000
-13.833100 0.000000
-13.790600 0.000000
-13.748100 0.000000
-13.705700 0.000000
-13.663200 0.000000
-13.620800 0.000000
-13.578300 0.000000
-13.535800 0.000000
-13.493400 0.000000
-13.450900 0.000000
-13.408400 0.000000
-13.366000 0.000000
-13.323500 0.000000
-13.281100 0.000000
-13.238600 0.000000
-13.196100 0.000000
-13.153700 0.000000
-13.111200 0.000000
-13.068700 0.000000
-13.026300 0.000000
-12.983800 0.000000
-12.941400 0.000000
-12.898900 0.000000
-12.856400 0.000000
-12.814000 0.000000
-12.771500 0.000000
-12.729100 0.000000
-12.686600 0.000000
-12.644100 0.000000
-12.601700 0.000000
-12.559200 0.000000
-12.516700 0.000000
-12.474300 0.000000
-12.431800 0.000000
-12.389400 0.000000
-12.346900 0.000000
-12.304400 0.000000
-12.262000 0.000000
-12.219500 0.000000
-12.177000 0.000000
-12.134600 0.000000
-12.092100 0.000000
-12.049700 0.000000
-12.007200 0.000000
-11.964700 0.000000
-11.922300 0.000000
-11.879800 0.000000
-11.837300 0.000000
-11.794900 0.000000
-11.752400 0.000000
-11.710000 0.000000
-11.667500 0.000000
-11.625000 0.000000
-11.582600 0.000000
-11.540100 0.000000
-11.497700 0.000000
-11.455200 0.000000
-11.412700 0.000000
-11.370300 0.000000
-11.327800 0.000000
-11.285300 0.000000
-11.242900 0.000000
-11.200400 0.000000
-11.158000 0.000000
-11.115500 0.000000
-11.073000 0.000000
-11.030600 0.000000
-10.988100 0.000000
-10.945600 0.000000
-10.903200 0.000000
-10.860700 0.000000
-10.818300 0.000000
-10.775800 0.000000
-10.733300 0.000000
-10.690900 0.000000
-10.648400 0.000000
-10.605900 0.000000
-10.563500 0.000000
-10.521000 0.000000
-10.478600 0.000000
-10.436100 0.000000
-10.393600 0.000000
-10.351200 0.000000
-10.308700 0.000000
-10.266300 0.000000
-10.223800 0.000000
-10.181300 0.000000
-10.138900 0.000000
-10.096400 0.000000
-10.053900 0.000000
-10.011500 0.000000
-9.969000 0.000000
-9.926600 0.000000
-9.884100 0.000000
-9.841600 0.000000
-9.799200 0.000000
-9.756700 0.000000
-9.714200 0.000000
-9.671800 0.000000
-9.629300 0.000000
-9.586900 0.000000
-9.544400 0.000000
-9.501900 0.000000
-9.459500 0.000000
-9.417000 0.000000
-9.374600 0.000000
-9.332100 0.000000
-9.289600 0.000000
-9.247200 0.000000
-9.204700 0.000000
-9.162200 0.000000
-9.119800 0.000000
-9.077300 0.000000
-9.034900 0.000000
-8.992400 0.000000
-8.949900 0.000000
-8.907500 0.000000
-8.865000 0.000000
-8.822500 0.000000
-8.780100 0.000000
-8.737600 0.000000
-8.695200 0.000000
-8.652700 0.000000
-8.610200 0.000000
-8.567800 0.000000
-8.525300 0.000000
-8.482800 0.000000
-8.440400 0.000000
-8.397900 0.000000
-8.355500 0.000000
-8.313000 0.000000
-8.270500 0.000000
-8.228100 0.000000
-8.185600 0.000000
-8.143200 0.000000
-8.100700 0.000000
-8.058200 0.000000
-8.015800 0.000000
-7.973300 0.000000
-7.930800 0.000000
-7.888400 0.000000
-7.845900 0.000000
-7.803500 0.000000
-7.761000 0.000000
-7.718500 0.000000
-7.676100 0.000000
-7.633600 0.000000
-7.591100 0.000000
-7.548700 0.000000
-7.506200 0.000000
-7.463800 0.000000
-7.421300 0.000000
-7.378800 0.000000
-7.336400 0.000000
-7.293900 0.000000
-7.251400 0.000000
-7.209000 0.000000
-7.166500 0.000000
-7.124100 0.000000
-7.081600 0.000000
-7.039100 0.000000
-6.996700 0.000000
-6.954200 0.000000
-6.911800 0.000000
-6.869300 0.000000
-6.826800 0.000000
-6.784400 0.000000
-6.741900 0.000000
-6.699400 0.000000
-6.657000 0.000000
-6.614500 0.000000
-6.572100 0.000000
-6.529600 0.000000
-6.487100 0.000000
-6.444700 0.000000
-6.402200 0.000000
-6.359700 0.000000
-6.317300 0.000000
-6.274800 0.000000
-6.232400 0.000000
-6.189900 0.000000
-6.147400 0.000000
-6.105000 0.000000
-6.062500 0.000000
-6.020000 0.000000
-5.977600 0.000000
-5.935100 0.000000
-5.892700 0.000000
-5.850200 0.000000
-5.807700 0.000000
-5.765300 0.000000
-5.722800 0.000000
-5.680400 0.000000
-5.637900 0.000000
-5.595400 0.000000
-5.553000 0.000000
-5.510500 0.000000
-5.468000 0.000000
-5.425600 0.000000
-5.383100 0.000000
-5.340700 0.000000
-5.298200 0.000000
-5.255700 0.000000
-5.213300 0.000000
-5.170800 0.000000
-5.128300 0.000000
-5.085900 0.000000
-5.043400 0.000000
-5.001000 0.000000
-4.958500 0.000000
-4.916000 0.000000
-4.873600 0.000000
-4.831100 0.000000
-4.788600 0.000000
-4.746200 0.000000
-4.703700 0.000000
-4.661300 0.000000
-4.618800 0.000000
-4.576300 0.000000
-4.533900 0.000000
-4.491400 0.000000
-4.449000 0.000000
-4.406500 0.000000
-4.364000 0.000000
-4.321600 0.000000
-4.279100 0.000000
-4.236600 0.000000
-4.194200 0.000000
-4.151700 0.000000
-4.109300 0.000000
-4.066800 0.000000
-4.024300 0.000000
-3.981900 0.000000
-3.939400 0.000000
-3.896900 0.000000
-3.854500 0.000000
-3.812000 0.000000
-3.769600 0.000000
-3.727100 0.000000
-3.684600 0.000000
-3.642200 0.001100
-3.599700 0.010000
-3.557200 0.026900
-3.514800 0.040500
-3.472300 0.077200
-3.429900 0.141500
-3.387400 0.186100
-3.344900 0.130400
-3.302500 0.054800
-3.260000 0.112500
-3.217600 0.236200
-3.175100 0.236800
-3.132600 0.184600
-3.090200 0.231100
-3.047700 0.343800
-3.005200 0.281600
-2.962800 0.159200
-2.920300 0.191200
-2.877900 0.358100
-2.835400 0.366100
-2.792900 0.235900
-2.750500 0.233200
-2.708000 0.349500
-2.665500 0.418100
-2.623100 0.433200
-2.580600 0.672700
-2.538200 0.827900
-2.495700 0.600400
-2.453200 0.624200
-2.410800 2.250800
-2.368300 5.335900
-2.325800 7.084400
-2.283400 7.776200
-2.240900 8.313200
-2.198500 6.518400
-2.156000 5.686000
-2.113500 6.769300
-2.071100 10.217600
-2.028600 15.127100
-1.986200 17.690500
-1.943700 18.718000
-1.901200 19.264900
-1.858800 18.703000
-1.816300 17.571400
-1.773800 16.321500
-1.731400 15.069500
-1.688900 13.617600
-1.646500 10.372800
-1.604000 8.213000
-1.561500 7.255100
-1.519100 5.826500
-1.476600 5.109700
-1.434100 4.914100
-1.391700 4.570200
-1.349200 5.138100
-1.306800 7.093400
-1.264300 10.215000
-1.221800 12.533400
-1.179400 13.845000
-1.136900 13.808000
-1.094400 13.140100
-1.052000 12.079400
-1.009500 10.776100
-0.967100 10.784600
-0.924600 11.450500
-0.882100 12.547100
-0.839700 14.116200
-0.797200 14.264300
-0.754800 12.844600
-0.712300 10.770800
-0.669800 9.207700
-0.627400 9.100700
-0.584900 7.937700
-0.542400 5.000000
-0.500000 2.267100
-0.457500 1.412300
-0.415100 1.160500
-0.372600 0.729900
-0.330100 1.017800
-0.287700 1.132800
-0.245200 0.752500
-0.202700 0.470900
-0.160300 0.732400
-0.117800 0.961900
-0.075400 0.889600
-0.032900 0.703500
0.009600 0.638000
0.052000 0.920000
0.094500 1.161700
0.137000 0.901100
0.179400 0.517700
0.221900 0.590700
0.264300 0.944100
0.306800 0.960500
0.349300 0.765200
0.391700 0.774700
0.434200 1.341800
0.476600 1.670600
0.519100 1.235800
0.561600 0.613400
0.604000 0.315300
0.646500 0.406900
0.689000 0.696600
0.731400 1.111000
0.773900 1.103500
0.816300 0.728000
0.858800 0.729700
0.901300 0.707200
0.943700 0.639900
0.986200 0.857400
1.028700 1.007100
1.071100 1.040000
1.113600 1.061800
1.156000 1.029000
1.198500 1.442300
1.241000 1.937100
1.283400 1.798800
1.325900 1.429000
1.368400 1.113100
1.410800 0.989700
1.453300 0.885600
1.495700 1.164800
1.538200 1.227800
1.580700 1.085100
1.623100 1.207400
1.665600 1.773000
1.708000 1.672100
1.750500 0.966900
1.793000 0.805200
1.835400 1.191200
1.877900 1.542100
1.920400 1.278000
1.962800 0.874000
2.005300 1.016700
2.047700 1.240300
2.090200 1.198700
2.132700 0.888900
2.175100 0.522200
2.217600 0.843000
2.260100 1.774100
2.302500 1.813000
2.345000 1.201700
2.387400 0.852200
2.429900 0.842000
2.472400 0.910700
2.514800 1.080600
2.557300 1.194400
2.599800 1.439900
2.642200 1.536400
2.684700 1.395300
2.727100 1.564100
2.769600 1.613300
2.812100 1.158000
2.854500 1.120500
2.897000 1.746200
2.939400 1.972900
2.981900 1.581300
3.024400 1.339900
3.066800 1.401300
3.109300 1.518100
3.151800 1.603100
3.194200 1.257800
3.236700 0.833400
3.279100 0.814500
3.321600 1.102800
3.364100 1.350800
3.406500 1.188500
3.449000 0.952900
3.491500 0.981800
3.533900 1.081200
3.576400 1.107400
3.618800 1.067900
3.661300 1.084200
3.703800 1.203100
3.746200 1.382400
3.788700 1.354900
3.831200 0.995800
3.873600 0.815100
3.916100 0.693400
3.958500 0.813900
4.001000 1.117000
4.043500 1.028700
4.085900 0.927600
4.128400 0.764500
4.170800 0.395800
4.213300 0.123200
4.255800 0.250600
4.298200 0.688400
4.340700 1.388600
4.383200 2.129900
4.425600 2.450300
4.468100 2.728100
4.510500 2.381700
4.553000 1.334600
4.595500 0.963700
4.637900 1.286600
4.680400 1.441000
4.722900 1.514200
4.765300 2.010700
4.807800 2.182900
4.850200 2.092500
4.892700 2.138100
4.935200 1.827500
4.977600 1.988300
5.020100 2.307600
5.062600 2.161600
5.105000 2.273500
5.147500 2.443400
5.189900 2.032400
5.232400 1.621100
5.274900 1.827200
5.317300 2.328400
5.359800 3.206700
5.402200 3.268200
5.444700 2.980800
5.487200 3.693600
5.529600 4.625700
5.572100 4.799400
5.614600 4.176800
5.657000 3.276600
5.699500 3.053200
5.741900 3.212100
5.784400 2.830000
5.826900 2.525000
5.869300 2.764000
5.911800 3.095100
5.954300 3.072100
5.996700 3.139500
6.039200 3.711500
6.081600 4.514300
6.124100 4.873400
6.166600 4.382500
6.209000 3.902600
6.251500 3.872400
6.294000 3.693800
6.336400 3.184900
6.378900 2.481300
6.421300 2.108900
6.463800 1.603200
6.506300 1.392500
6.548700 2.003200
6.591200 2.046500
6.633600 2.004700
6.676100 1.834800
6.718600 1.198600
6.761000 0.945400
6.803500 0.754500
6.846000 0.701800
6.888400 0.954500
6.930900 1.700500
6.973300 2.024900
7.015800 1.703700
7.058300 1.849800
7.100700 2.457500
7.143200 2.844100
7.185700 2.563300
7.228100 2.472600
7.270600 2.930100
7.313000 3.496100
7.355500 3.447800
7.398000 3.025600
7.440400 2.735500
7.482900 2.275800
7.525400 2.363500
7.567800 2.002800
7.610300 0.964000
7.652700 0.328800
7.695200 0.164800
7.737700 0.240400
7.780100 0.393500
7.822600 0.339100
7.865000 0.257600
7.907500 0.393100
7.950000 0.542400
7.992400 0.415600
8.034900 0.267800
8.077400 0.201300
8.119800 0.247200
8.162300 0.489800
8.204700 0.735400
8.247200 0.878400
8.289700 0.871300
8.332100 0.664900
8.374600 0.549900
8.417100 0.309300
8.459500 0.238500
8.502000 0.473100
8.544400 0.765600
8.586900 0.857400
8.629400 0.872100
8.671800 1.033400
8.714300 1.141700
8.756700 1.376700
8.799200 1.707500
8.841700 1.616300
8.884100 2.113600
8.926600 3.018600
8.969100 2.827900
9.011500 2.421500
9.054000 2.026900
9.096400 1.337600
9.138900 0.888200
9.181400 1.152200
9.223800 1.532900
9.266300 1.235400
9.308800 0.911800
9.351200 1.270300
9.393700 1.310500
9.436100 0.929600
9.478600 0.606500
9.521100 0.388500
9.563500 0.505200
9.606000 0.995300
9.648500 1.103700
9.690900 1.074100
9.733400 1.215700
9.775800 1.416900
9.818300 1.325400
9.860800 0.888900
9.903200 0.787900
9.945700 1.035000
9.988100 1.303700
10.030600 1.068200
10.073100 0.822200
10.115500 0.880800
10.158000 1.128000
10.200500 1.359200
10.242900 1.355500
10.285400 1.250000
10.327800 1.187100
10.370300 1.155000
10.412800 1.097200
10.455200 1.303000
10.497700 1.406000
10.540200 1.122700
10.582600 1.085100
10.625100 1.397800
10.667500 1.932200
10.710000 2.484500
10.752500 2.600000
10.794900 2.500100
10.837400 2.387300
10.879900 1.702600
10.922300 1.125300
10.964800 1.306900
11.007200 1.647100
11.049700 1.587200
11.092200 1.310900
11.134600 1.939300
11.177100 2.954500
11.219500 2.788400
11.262000 2.116400
11.304500 2.061200
11.346900 2.622600
11.389400 2.568900
11.431900 1.945500
11.474300 2.153700
11.516800 2.951000
11.559200 3.117200
11.601700 2.377800
11.644200 1.710000
11.686600 1.734900
11.729100 2.134100
11.771600 2.046000
11.814000 1.552000
11.856500 1.672000
11.898900 1.865500
11.941400 1.832800
11.983900 2.028600
12.026300 2.016700
12.068800 1.791800
12.111300 1.651000
12.153700 1.548700
12.196200 1.334600
12.238600 1.538600
12.281100 1.878300
12.323600 1.983100
12.366000 1.875100
12.408500 1.797800
12.450900 1.878300
12.493400 1.636100
12.535900 1.396900
12.578300 1.698200
12.620800 2.081600
12.663300 1.934900
12.705700 1.811300
12.748200 1.567900
12.790600 1.220600
12.833100 1.260000
12.875600 1.455300
12.918000 1.691900
12.960500 1.787700
13.003000 2.122400
13.045400 2.359900
13.087900 2.699100
13.130300 3.107200
13.172800 2.386600
13.215300 1.822100
13.257700 1.731500
13.300200 1.329600
13.342700 1.066700
13.385100 1.374500
13.427600 1.570500
13.470000 1.692400
13.512500 1.926500
13.555000 2.085000
13.597400 2.362000
13.639900 2.344500
13.682300 2.012400
13.724800 1.744600
13.767300 1.542800
13.809700 1.630200
13.852200 1.944600
13.894700 1.964200
13.937100 1.910200
13.979600 1.890700
14.022000 1.649700
14.064500 1.592300
14.107000 1.838500
14.149400 1.967900
14.191900 1.913800
14.234400 1.786100
14.276800 2.016500
14.319300 2.090800
14.361700 1.498200
14.404200 1.286600
14.446700 1.293400
14.489100 1.724700
14.531600 1.893900
14.574100 1.626400
14.616500 1.610000
14.659000 1.767400
14.701400 1.709700
14.743900 1.715900
14.786400 1.366200
14.828800 1.167500
14.871300 1.950500
14.913700 2.896900
14.956200 2.833600
14.998700 2.475100
15.041100 1.900700
15.083600 1.318000
15.126100 1.435800
15.168500 1.637000
15.211000 1.655000
15.253400 1.943200
15.295900 2.004100
15.338400 1.963500
15.380800 2.437300
15.423300 2.915300
15.465800 2.618700
15.508200 2.180300
15.550700 2.050900
15.593100 1.932700
15.635600 2.008400
15.678100 2.222300
15.720500 2.086500
15.763000 2.190800
15.805500 2.611300
15.847900 2.818300
15.890400 3.010700
15.932800 2.490200
15.975300 1.738400
16.017800 1.472100
16.060200 1.532200
16.102700 1.782700
16.145100 1.527000
16.187600 1.332900
16.230100 1.669700
16.272500 2.030400
16.315000 2.323700
16.357500 2.139400
16.399900 1.870100
16.442400 1.794600
16.484800 1.705100
16.527300 1.423300
16.569800 1.146700
16.612200 1.122400
16.654700 1.165700
16.697200 1.209000
16.739600 1.286600
16.782100 1.662900
16.824500 2.080600
16.867000 1.833300
16.909500 1.834400
16.951900 1.941100
16.994400 2.143900
17.036900 2.658300
17.079300 2.834200
17.121800 2.560700
17.164200 2.415200
17.206700 2.363300
17.249200 2.408000
17.291600 2.422400
17.334100 2.197300
17.376500 2.059500
17.419000 1.780100
