set title 'mp-35216 - Density of States'
set xlabel 'Energy (eV)'
set ylabel 'DOS (states/eV)'
set grid
set xrange [-10:10]
set yrange [0:5.644]
set xzeroaxis lt -1
set terminal png size 800,600
set output 'mp-35216_dos_gnuplot.png'
plot '-' using 1:2 with lines title 'DOS'
-8.735200 0.000000
-8.720100 0.000000
-8.705000 0.000000
-8.689900 0.000000
-8.674900 0.000000
-8.659800 0.000000
-8.644700 0.000000
-8.629600 0.000000
-8.614500 0.000000
-8.599400 0.000000
-8.584300 0.000000
-8.569200 0.000000
-8.554100 0.000000
-8.539000 0.000000
-8.523900 0.000000
-8.508800 0.000000
-8.493700 0.000000
-8.478600 0.000000
-8.463500 0.000000
-8.448400 0.000000
-8.433300 0.000000
-8.418200 0.000000
-8.403100 0.000000
-8.388100 0.000000
-8.373000 0.000000
-8.357900 0.000000
-8.342800 0.000000
-8.327700 0.000000
-8.312600 0.000000
-8.297500 0.000000
-8.282400 0.000000
-8.267300 0.000000
-8.252200 0.000000
-8.237100 0.000000
-8.222000 0.000000
-8.206900 0.000000
-8.191800 0.000000
-8.176700 0.000000
-8.161600 0.000000
-8.146500 0.000000
-8.131400 0.000000
-8.116300 0.000000
-8.101300 0.000000
-8.086200 0.000000
-8.071100 0.000000
-8.056000 0.000000
-8.040900 0.000000
-8.025800 0.000000
-8.010700 0.000000
-7.995600 0.000000
-7.980500 0.000000
-7.965400 0.000000
-7.950300 0.000000
-7.935200 0.000000
-7.920100 0.000000
-7.905000 0.000000
-7.889900 0.000000
-7.874800 0.000000
-7.859700 0.000000
-7.844600 0.000000
-7.829500 0.000000
-7.814500 0.000000
-7.799400 0.000000
-7.784300 0.000000
-7.769200 0.000000
-7.754100 0.000000
-7.739000 0.000000
-7.723900 0.000000
-7.708800 0.000000
-7.693700 0.000000
-7.678600 0.000000
-7.663500 0.000000
-7.648400 0.000000
-7.633300 0.000000
-7.618200 0.000000
-7.603100 0.000000
-7.588000 0.000000
-7.572900 0.000000
-7.557800 0.000000
-7.542700 0.000000
-7.527700 0.000000
-7.512600 0.000000
-7.497500 0.000000
-7.482400 0.000000
-7.467300 0.000000
-7.452200 0.000000
-7.437100 0.000000
-7.422000 0.000000
-7.406900 0.000000
-7.391800 0.000000
-7.376700 0.000000
-7.361600 0.000100
-7.346500 0.019600
-7.331400 0.067400
-7.316300 0.126100
-7.301200 0.194000
-7.286100 0.271000
-7.271000 0.357000
-7.255900 0.447800
-7.240900 0.412600
-7.225800 0.427800
-7.210700 0.444200
-7.195600 0.469000
-7.180500 0.498200
-7.165400 0.527900
-7.150300 0.556200
-7.135200 0.582600
-7.120100 0.610200
-7.105000 0.640100
-7.089900 0.671400
-7.074800 0.703300
-7.059700 0.736000
-7.044600 0.781200
-7.029500 0.826300
-7.014400 0.865300
-6.999300 0.893900
-6.984200 0.911900
-6.969100 0.915400
-6.954100 0.903200
-6.939000 0.877000
-6.923900 0.860400
-6.908800 0.866400
-6.893700 0.872700
-6.878600 0.879000
-6.863500 0.885100
-6.848400 0.891000
-6.833300 0.896900
-6.818200 0.902600
-6.803100 0.908000
-6.788000 0.913200
-6.772900 0.917900
-6.757800 0.922400
-6.742700 0.924500
-6.727600 0.924800
-6.712500 0.925300
-6.697400 0.926300
-6.682300 0.927700
-6.667300 0.930300
-6.652200 0.991300
-6.637100 1.036100
-6.622000 1.070500
-6.606900 1.089300
-6.591800 1.107800
-6.576700 1.127600
-6.561600 1.148200
-6.546500 1.169600
-6.531400 1.191900
-6.516300 1.215300
-6.501200 1.237700
-6.486100 1.257700
-6.471000 1.275600
-6.455900 1.292100
-6.440800 1.311400
-6.425700 1.331300
-6.410600 1.351100
-6.395600 1.370600
-6.380500 1.386800
-6.365400 1.403100
-6.350300 1.419500
-6.335200 1.436700
-6.320100 1.456600
-6.305000 1.476800
-6.289900 1.497300
-6.274800 1.518000
-6.259700 1.538600
-6.244600 1.559300
-6.229500 1.579900
-6.214400 1.600500
-6.199300 1.621200
-6.184200 1.642900
-6.169100 1.665300
-6.154000 1.687700
-6.138900 1.710100
-6.123800 1.732500
-6.108800 1.754900
-6.093700 1.779100
-6.078600 1.805000
-6.063500 1.832200
-6.048400 1.860500
-6.033300 1.890100
-6.018200 1.921000
-6.003100 1.953200
-5.988000 1.986800
-5.972900 2.021600
-5.957800 2.057900
-5.942700 2.095900
-5.927600 2.136400
-5.912500 2.178800
-5.897400 2.226000
-5.882300 2.285000
-5.867200 2.356700
-5.852100 2.465600
-5.837000 2.582700
-5.822000 2.702800
-5.806900 2.795900
-5.791800 2.863400
-5.776700 2.911700
-5.761600 2.941400
-5.746500 2.953000
-5.731400 2.948300
-5.716300 2.927500
-5.701200 2.884600
-5.686100 2.822500
-5.671000 2.737500
-5.655900 2.655200
-5.640800 2.615500
-5.625700 2.622100
-5.610600 2.742900
-5.595500 2.891400
-5.580400 3.032300
-5.565300 3.417400
-5.550200 2.866400
-5.535200 2.599200
-5.520100 2.468000
-5.505000 2.447600
-5.489900 2.456900
-5.474800 2.475100
-5.459700 2.501200
-5.444600 2.535000
-5.429500 2.576600
-5.414400 2.736800
-5.399300 2.900800
-5.384200 2.744600
-5.369100 2.547000
-5.354000 2.537800
-5.338900 2.549000
-5.323800 2.560200
-5.308700 2.582400
-5.293600 2.604400
-5.278500 2.627400
-5.263400 2.675100
-5.248400 2.709100
-5.233300 2.733400
-5.218200 2.786000
-5.203100 2.853200
-5.188000 2.950500
-5.172900 3.037400
-5.157800 3.113100
-5.142700 3.181200
-5.127600 3.198900
-5.112500 3.067600
-5.097400 2.740200
-5.082300 2.404600
-5.067200 2.101200
-5.052100 1.981200
-5.037000 1.873700
-5.021900 1.795600
-5.006800 1.986800
-4.991700 1.731600
-4.976600 1.441700
-4.961600 0.684000
-4.946500 0.582400
-4.931400 0.608500
-4.916300 0.745800
-4.901200 0.896100
-4.886100 1.076300
-4.871000 1.252700
-4.855900 1.518400
-4.840800 1.952700
-4.825700 2.471900
-4.810600 3.032500
-4.795500 3.428600
-4.780400 3.886300
-4.765300 4.224400
-4.750200 4.563000
-4.735100 4.482200
-4.720000 4.370200
-4.704900 4.007800
-4.689800 3.705900
-4.674800 3.822800
-4.659700 4.235100
-4.644600 3.923800
-4.629500 3.352600
-4.614400 3.342700
-4.599300 3.311700
-4.584200 3.259800
-4.569100 3.187200
-4.554000 3.026500
-4.538900 2.842900
-4.523800 2.775800
-4.508700 2.728400
-4.493600 2.702800
-4.478500 2.691800
-4.463400 2.681900
-4.448300 2.666800
-4.433200 2.619900
-4.418100 2.599500
-4.403000 2.585100
-4.388000 2.525100
-4.372900 2.434000
-4.357800 2.424600
-4.342700 2.404800
-4.327600 2.382900
-4.312500 2.359100
-4.297400 2.334200
-4.282300 2.308200
-4.267200 2.280900
-4.252100 2.252500
-4.237000 2.230600
-4.221900 2.243600
-4.206800 2.287100
-4.191700 2.375400
-4.176600 2.546100
-4.161500 2.718600
-4.146400 2.894100
-4.131300 3.083800
-4.116200 3.273100
-4.101200 3.460500
-4.086100 3.556600
-4.071000 3.241500
-4.055900 2.962800
-4.040800 2.570400
-4.025700 2.396700
-4.010600 2.242000
-3.995500 2.127100
-3.980400 2.033300
-3.965300 1.961700
-3.950200 1.893000
-3.935100 1.826600
-3.920000 1.783900
-3.904900 1.693800
-3.889800 1.608700
-3.874700 1.530500
-3.859600 1.505700
-3.844500 1.421800
-3.829400 1.278800
-3.814400 1.160900
-3.799300 1.144100
-3.784200 1.127400
-3.769100 1.110700
-3.754000 1.094000
-3.738900 1.078800
-3.723800 1.065900
-3.708700 1.054200
-3.693600 1.043700
-3.678500 1.034200
-3.663400 1.025600
-3.648300 1.017600
-3.633200 1.009900
-3.618100 1.006500
-3.603000 1.008000
-3.587900 1.010200
-3.572800 1.012100
-3.557700 1.009800
-3.542600 1.002700
-3.527600 0.992900
-3.512500 0.983000
-3.497400 0.973100
-3.482300 0.963300
-3.467200 0.953200
-3.452100 0.942700
-3.437000 0.931700
-3.421900 0.920600
-3.406800 0.912000
-3.391700 0.917600
-3.376600 0.938700
-3.361500 0.960700
-3.346400 0.975500
-3.331300 0.982700
-3.316200 0.974900
-3.301100 0.952300
-3.286000 0.915100
-3.270900 0.905400
-3.255800 0.919900
-3.240800 0.922600
-3.225700 0.913600
-3.210600 0.892800
-3.195500 0.860300
-3.180400 0.815500
-3.165300 0.777800
-3.150200 0.748200
-3.135100 0.720300
-3.120000 0.693000
-3.104900 0.667000
-3.089800 0.644200
-3.074700 0.624600
-3.059600 0.608200
-3.044500 0.595100
-3.029400 0.583900
-3.014300 0.572600
-2.999200 0.561400
-2.984100 0.550200
-2.969000 0.538900
-2.954000 0.527700
-2.938900 0.516400
-2.923800 0.505300
-2.908700 0.494400
-2.893600 0.483500
-2.878500 0.472400
-2.863400 0.461100
-2.848300 0.449700
-2.833200 0.437000
-2.818100 0.423900
-2.803000 0.411500
-2.787900 0.399700
-2.772800 0.388300
-2.757700 0.377200
-2.742600 0.366500
-2.727500 0.355900
-2.712400 0.345300
-2.697300 0.334800
-2.682200 0.324300
-2.667200 0.314000
-2.652100 0.303700
-2.637000 0.293500
-2.621900 0.283300
-2.606800 0.273200
-2.591700 0.263200
-2.576600 0.253400
-2.561500 0.243800
-2.546400 0.234600
-2.531300 0.225500
-2.516200 0.216600
-2.501100 0.207900
-2.486000 0.199400
-2.470900 0.191000
-2.455800 0.182700
-2.440700 0.181200
-2.425600 0.189100
-2.410500 0.166500
-2.395400 0.144500
-2.380400 0.123200
-2.365300 0.102600
-2.350200 0.082700
-2.335100 0.063500
-2.320000 0.045100
-2.304900 0.029000
-2.289800 0.016500
-2.274700 0.007400
-2.259600 0.002000
-2.244500 0.000000
-2.229400 0.000000
-2.214300 0.000000
-2.199200 0.000000
-2.184100 0.000000
-2.169000 0.000000
-2.153900 0.000000
-2.138800 0.000000
-2.123700 0.000000
-2.108600 0.000000
-2.093600 0.000000
-2.078500 0.000000
-2.063400 0.000000
-2.048300 0.000000
-2.033200 0.000000
-2.018100 0.000000
-2.003000 0.000000
-1.987900 0.000000
-1.972800 0.000000
-1.957700 0.000000
-1.942600 0.000000
-1.927500 0.000000
-1.912400 0.000000
-1.897300 0.000000
-1.882200 0.000000
-1.867100 0.000000
-1.852000 0.000000
-1.836900 0.000000
-1.821800 0.000000
-1.806800 0.000000
-1.791700 0.000000
-1.776600 0.000000
-1.761500 0.000000
-1.746400 0.000000
-1.731300 0.000000
-1.716200 0.000000
-1.701100 0.000000
-1.686000 0.000000
-1.670900 0.000000
-1.655800 0.000000
-1.640700 0.000000
-1.625600 0.000000
-1.610500 0.000000
-1.595400 0.000000
-1.580300 0.000000
-1.565200 0.000000
-1.550100 0.000000
-1.535000 0.000000
-1.520000 0.000000
-1.504900 0.000000
-1.489800 0.000000
-1.474700 0.000000
-1.459600 0.000000
-1.444500 0.000000
-1.429400 0.000000
-1.414300 0.000000
-1.399200 0.000000
-1.384100 0.000000
-1.369000 0.000000
-1.353900 0.000000
-1.338800 0.000000
-1.323700 0.000000
-1.308600 0.000000
-1.293500 0.000000
-1.278400 0.000000
-1.263300 0.000000
-1.248200 0.000000
-1.233200 0.000000
-1.218100 0.000000
-1.203000 0.000000
-1.187900 0.000000
-1.172800 0.000000
-1.157700 0.000000
-1.142600 0.000000
-1.127500 0.000000
-1.112400 0.000000
-1.097300 0.000000
-1.082200 0.000000
-1.067100 0.000000
-1.052000 0.000000
-1.036900 0.000000
-1.021800 0.000000
-1.006700 0.000000
-0.991600 0.000000
-0.976500 0.000000
-0.961400 0.000000
-0.946400 0.000000
-0.931300 0.000000
-0.916200 0.000000
-0.901100 0.000000
-0.886000 0.000000
-0.870900 0.000000
-0.855800 0.000000
-0.840700 0.000000
-0.825600 0.000000
-0.810500 0.000000
-0.795400 0.000000
-0.780300 0.000000
-0.765200 0.000000
-0.750100 0.000000
-0.735000 0.000000
-0.719900 0.000000
-0.704800 0.000000
-0.689700 0.000000
-0.674600 0.000000
-0.659600 0.000000
-0.644500 0.000000
-0.629400 0.000000
-0.614300 0.000000
-0.599200 0.000000
-0.584100 0.000000
-0.569000 0.000000
-0.553900 0.000000
-0.538800 0.000000
-0.523700 0.000000
-0.508600 0.000000
-0.493500 0.000000
-0.478400 0.000000
-0.463300 0.000000
-0.448200 0.000000
-0.433100 0.000000
-0.418000 0.000000
-0.402900 0.000000
-0.387800 0.000000
-0.372800 0.000000
-0.357700 0.000000
-0.342600 0.000000
-0.327500 0.000000
-0.312400 0.000000
-0.297300 0.000000
-0.282200 0.000000
-0.267100 0.000000
-0.252000 0.000000
-0.236900 0.000000
-0.221800 0.000000
-0.206700 0.000000
-0.191600 0.000000
-0.176500 0.000000
-0.161400 0.000000
-0.146300 0.000000
-0.131200 0.000000
-0.116100 0.000000
-0.101000 0.000000
-0.086000 0.000000
-0.070900 0.000000
-0.055800 0.000000
-0.040700 0.000000
-0.025600 0.000000
-0.010500 0.000000
0.004600 0.000000
0.019700 0.000000
0.034800 0.000000
0.049900 0.000000
0.065000 0.000000
0.080100 0.000000
0.095200 0.000000
0.110300 0.000000
0.125400 0.000000
0.140500 0.000000
0.155600 0.000000
0.170700 0.000000
0.185800 0.000000
0.200800 0.000000
0.215900 0.000000
0.231000 0.000000
0.246100 0.000000
0.261200 0.000000
0.276300 0.000000
0.291400 0.000000
0.306500 0.000000
0.321600 0.000000
0.336700 0.000000
0.351800 0.000000
0.366900 0.000000
0.382000 0.000000
0.397100 0.000000
0.412200 0.000000
0.427300 0.000000
0.442400 0.000000
0.457500 0.000000
0.472600 0.000000
0.487600 0.000000
0.502700 0.000000
0.517800 0.000000
0.532900 0.000000
0.548000 0.000000
0.563100 0.000000
0.578200 0.000000
0.593300 0.000000
0.608400 0.000000
0.623500 0.000000
0.638600 0.000000
0.653700 0.000000
0.668800 0.000000
0.683900 0.000000
0.699000 0.052100
0.714100 1.920300
0.729200 0.515900
0.744300 0.545500
0.759400 0.586700
0.774400 0.625800
0.789500 0.660600
0.804600 0.699600
0.819700 0.758600
0.834800 0.824200
0.849900 0.895300
0.865000 0.971900
0.880100 1.054100
0.895200 1.141700
0.910300 1.232700
0.925400 1.294300
0.940500 1.321400
0.955600 1.486800
0.970700 1.613500
0.985800 1.722300
1.000900 1.816800
1.016000 1.897200
1.031100 1.964700
1.046200 2.026500
1.061200 2.084300
1.076300 2.138000
1.091400 2.187500
1.106500 2.304800
1.121600 2.641400
1.136700 2.869200
1.151800 3.098000
1.166900 3.156300
1.182000 3.211500
1.197100 2.822600
1.212200 2.463000
1.227300 2.194000
1.242400 1.970800
1.257500 1.781300
1.272600 1.630900
1.287700 1.544600
1.302800 1.917500
1.317900 3.185400
1.333000 4.044200
1.348000 3.948200
1.363100 3.752400
1.378200 3.602600
1.393300 3.506000
1.408400 3.462500
1.423500 3.430500
1.438600 3.365100
1.453700 3.231900
1.468800 3.084200
1.483900 2.922600
1.499000 2.795600
1.514100 2.714100
1.529200 2.666100
1.544300 2.631500
1.559400 2.603100
1.574500 2.569000
1.589600 2.524000
1.604700 2.492600
1.619700 2.484600
1.634800 2.479600
1.649900 2.473600
1.665000 2.467600
1.680100 2.458000
1.695200 2.437600
1.710300 2.409400
1.725400 2.380100
1.740500 2.371200
1.755600 2.424500
1.770700 2.545800
1.785800 2.711000
1.800900 2.936200
1.816000 3.200300
1.831100 3.453700
1.846200 3.724600
1.861300 3.872000
1.876400 3.922200
1.891500 3.969800
1.906500 3.790900
1.921600 3.205200
1.936700 3.113400
1.951800 3.017200
1.966900 2.846800
1.982000 2.791400
1.997100 2.758500
2.012200 2.737200
2.027300 2.709300
2.042400 2.683800
2.057500 2.667100
2.072600 2.658000
2.087700 2.655700
2.102800 2.651000
2.117900 2.674200
2.133000 2.731400
2.148100 2.816100
2.163200 2.896000
2.178300 2.970100
2.193300 2.933000
2.208400 2.880300
2.223500 2.814100
2.238600 2.755600
2.253700 2.720700
2.268800 2.755500
2.283900 2.821100
2.299000 2.910400
2.314100 3.008000
2.329200 3.112400
2.344300 3.221400
2.359400 3.339100
2.374500 3.339200
2.389600 3.436400
2.404700 3.541100
2.419800 3.657300
2.434900 3.754200
2.450000 3.818000
2.465100 3.870600
2.480100 3.862700
2.495200 3.768100
2.510300 3.731000
2.525400 3.744900
2.540500 3.765100
2.555600 3.813600
2.570700 3.964200
2.585800 4.239700
2.600900 4.740600
2.616000 5.094500
2.631100 4.094800
2.646200 3.724700
2.661300 3.625400
2.676400 3.546300
2.691500 3.481600
2.706600 3.434400
2.721700 3.394000
2.736800 3.344700
2.751900 3.288900
2.766900 3.235500
2.782000 3.209600
2.797100 3.235600
2.812200 3.486800
2.827300 3.431600
2.842400 3.417500
2.857500 3.413300
2.872600 3.407000
2.887700 3.427400
2.902800 3.463300
2.917900 3.479300
2.933000 3.500300
2.948100 3.536000
2.963200 3.603400
2.978300 3.638600
2.993400 3.667300
3.008500 3.690300
3.023600 3.716000
3.038700 3.739700
3.053700 3.763800
3.068800 3.791200
3.083900 3.794600
3.099000 3.770200
3.114100 3.722000
3.129200 3.670000
3.144300 3.609600
3.159400 3.548000
3.174500 3.487500
3.189600 3.425600
3.204700 3.366200
3.219800 3.337800
3.234900 3.349200
3.250000 3.383100
3.265100 3.454000
3.280200 3.558700
3.295300 3.439600
3.310400 3.229300
3.325500 3.017600
3.340500 2.918500
3.355600 2.884500
3.370700 2.861300
3.385800 2.847100
3.400900 2.833800
3.416000 2.825200
3.431100 2.835900
3.446200 2.849500
3.461300 2.865400
3.476400 2.888900
3.491500 2.921900
3.506600 2.962200
3.521700 3.004300
3.536800 3.048700
3.551900 3.094400
3.567000 3.140600
3.582100 3.172100
3.597200 3.188700
3.612300 3.207100
3.627300 3.227700
3.642400 3.229200
3.657500 3.231000
3.672600 3.266800
3.687700 3.327500
3.702800 3.413600
3.717900 3.524500
3.733000 3.695600
3.748100 3.804700
3.763200 3.833300
3.778300 3.864300
3.793400 3.898500
3.808500 3.932900
3.823600 3.949300
3.838700 3.965500
3.853800 3.894400
3.868900 3.818600
3.884000 3.688200
3.899100 3.548300
3.914100 3.428300
3.929200 3.320000
3.944300 3.225300
3.959400 3.148200
3.974500 3.094000
3.989600 3.056300
4.004700 3.046600
4.019800 3.022200
4.034900 2.996500
4.050000 2.973400
4.065100 2.937300
4.080200 3.013400
4.095300 3.059000
4.110400 3.103400
4.125500 3.158700
4.140600 3.217600
4.155700 3.321200
4.170800 3.440900
4.185900 3.455400
4.200900 3.449500
4.216000 3.464500
4.231100 3.498700
4.246200 3.509100
4.261300 3.437000
4.276400 3.396900
4.291500 3.381100
4.306600 3.356000
4.321700 3.316700
4.336800 3.261000
4.351900 3.189500
4.367000 3.113500
4.382100 3.036500
4.397200 2.987600
4.412300 2.944500
4.427400 2.914600
4.442500 3.009600
4.457600 3.006100
4.472700 2.918700
4.487700 2.855000
4.502800 2.793600
4.517900 2.708500
4.533000 2.536800
4.548100 2.364600
4.563200 2.218800
4.578300 2.079100
4.593400 1.970300
4.608500 1.904600
4.623600 1.874200
4.638700 1.858000
4.653800 1.835800
4.668900 1.808500
4.684000 1.776100
4.699100 1.736400
4.714200 1.682000
4.729300 1.614100
4.744400 1.538400
4.759500 1.469300
4.774500 1.480400
4.789600 1.489100
4.804700 1.501000
4.819800 1.518000
4.834900 1.541500
4.850000 1.569600
4.865100 1.595500
4.880200 1.644900
4.895300 1.775000
4.910400 1.873800
4.925500 2.078200
4.940600 2.278500
4.955700 2.399400
4.970800 2.448100
4.985900 2.487500
5.001000 2.517600
5.016100 2.538800
5.031200 2.550000
5.046300 2.547600
5.061300 2.540200
5.076400 2.549000
5.091500 2.370400
5.106600 2.370800
5.121700 2.372400
5.136800 2.377100
5.151900 2.385200
5.167000 2.396600
5.182100 2.413400
5.197200 2.438300
5.212300 2.430700
5.227400 2.408800
5.242500 2.384200
5.257600 2.355200
5.272700 2.327400
5.287800 2.332800
5.302900 2.343100
5.318000 2.327900
5.333100 2.295300
5.348100 2.260200
5.363200 2.252300
5.378300 2.307400
5.393400 2.405600
5.408500 2.498200
5.423600 2.781300
5.438700 2.830800
5.453800 2.898200
5.468900 3.153100
5.484000 3.205800
5.499100 3.215600
5.514200 3.198300
5.529300 3.164700
5.544400 3.108900
5.559500 3.217400
5.574600 2.806400
5.589700 2.733100
5.604800 2.711000
5.619900 2.743100
5.634900 2.796800
5.650000 2.810900
5.665100 2.995500
5.680200 2.696300
5.695300 2.702200
5.710400 2.703200
5.725500 2.709000
5.740600 2.719400
5.755700 2.734500
5.770800 2.754200
5.785900 2.777400
5.801000 2.796500
5.816100 2.823500
5.831200 2.972400
5.846300 3.113100
5.861400 3.213100
5.876500 3.290600
5.891600 3.300500
5.906700 3.278400
5.921700 3.226200
5.936800 3.164500
5.951900 3.097600
5.967000 3.032800
5.982100 2.972400
5.997200 2.918300
6.012300 2.876300
6.027400 2.851500
6.042500 2.867400
6.057600 2.924400
6.072700 2.962100
6.087800 2.977500
6.102900 2.989500
6.118000 3.074400
6.133100 3.126200
6.148200 3.228500
6.163300 3.256900
6.178400 3.278400
6.193500 3.318100
6.208500 3.400600
6.223600 3.491700
6.238700 3.568800
6.253800 3.607500
6.268900 3.587700
6.284000 3.506300
6.299100 3.489000
6.314200 3.463500
6.329300 3.411400
6.344400 3.354800
6.359500 3.318000
6.374600 3.279000
6.389700 3.239700
6.404800 3.162600
6.419900 3.202200
6.435000 3.260400
6.450100 3.338900
6.465200 3.425000
6.480300 3.495300
6.495300 3.547400
6.510400 3.568500
6.525500 3.533200
6.540600 3.522700
6.555700 3.573200
6.570800 3.645100
6.585900 3.698900
6.601000 3.702600
6.616100 3.819200
6.631200 3.926900
6.646300 4.042600
6.661400 4.176000
6.676500 4.071100
6.691600 3.776500
6.706700 3.470100
6.721800 3.156100
6.736900 2.767700
6.752000 2.438200
6.767100 2.170700
6.782100 1.950800
6.797200 1.821600
6.812300 1.714800
6.827400 1.610100
6.842500 1.507700
6.857600 1.422300
6.872700 1.378300
6.887800 1.382200
6.902900 1.517700
6.918000 1.285500
6.933100 1.224900
6.948200 0.872700
6.963300 0.741600
6.978400 0.624000
6.993500 0.519100
7.008600 0.426800
7.023700 0.336400
7.038800 0.227900
7.053900 0.140400
7.068900 0.074000
7.084000 0.028700
7.099100 0.004400
7.114200 0.000000
7.129300 0.000000
7.144400 0.000000
7.159500 0.000000
7.174600 0.000000
7.189700 0.000000
7.204800 0.000000
7.219900 0.000000
7.235000 0.000000
7.250100 0.000000
7.265200 0.000000
7.280300 0.000000
7.295400 0.000000
