set title 'mp-10048 - Density of States'
set xlabel 'Energy (eV)'
set ylabel 'DOS (states/eV)'
set grid
set xrange [-10:10]
set yrange [0:1.497]
set xzeroaxis lt -1
set terminal png size 800,600
set output 'mp-10048_dos_gnuplot.png'
plot '-' using 1:2 with lines title 'DOS'
-14.251800 0.000000
-14.215300 0.000000
-14.178800 0.000000
-14.142200 0.000000
-14.105700 0.000000
-14.069200 0.000000
-14.032700 0.000000
-13.996100 0.000000
-13.959600 0.000000
-13.923100 0.000000
-13.886500 0.000000
-13.850000 0.000000
-13.813500 0.000000
-13.776900 0.000000
-13.740400 0.000000
-13.703900 0.000000
-13.667300 0.000000
-13.630800 0.000000
-13.594300 0.000000
-13.557800 0.000000
-13.521200 0.000000
-13.484700 0.000000
-13.448200 0.000000
-13.411600 0.000000
-13.375100 0.000000
-13.338600 0.000000
-13.302000 0.000000
-13.265500 0.000000
-13.229000 0.000000
-13.192500 0.000000
-13.155900 0.000000
-13.119400 0.000000
-13.082900 0.000000
-13.046300 0.000000
-13.009800 0.000000
-12.973300 0.000000
-12.936700 0.000000
-12.900200 0.000000
-12.863700 0.000000
-12.827100 0.000000
-12.790600 0.000000
-12.754100 0.000000
-12.717600 0.000000
-12.681000 0.000000
-12.644500 0.000000
-12.608000 0.000000
-12.571400 0.000000
-12.534900 0.000000
-12.498400 0.000000
-12.461800 0.000000
-12.425300 0.000000
-12.388800 0.000000
-12.352300 0.000000
-12.315700 0.000000
-12.279200 0.000000
-12.242700 0.000000
-12.206100 0.000000
-12.169600 0.000000
-12.133100 0.000000
-12.096500 0.000000
-12.060000 0.000000
-12.023500 0.000000
-11.986900 0.000000
-11.950400 0.000000
-11.913900 0.000000
-11.877400 0.000000
-11.840800 0.000000
-11.804300 0.000000
-11.767800 0.000000
-11.731200 0.000000
-11.694700 0.000000
-11.658200 0.000000
-11.621600 0.000000
-11.585100 0.000000
-11.548600 0.000000
-11.512100 0.000000
-11.475500 0.000000
-11.439000 0.000000
-11.402500 0.000000
-11.365900 0.000000
-11.329400 0.000000
-11.292900 0.000000
-11.256300 0.000000
-11.219800 0.000000
-11.183300 0.000000
-11.146700 0.000000
-11.110200 0.000000
-11.073700 0.000000
-11.037200 0.000000
-11.000600 0.000000
-10.964100 0.000000
-10.927600 1.253600
-10.891000 2.897300
-10.854500 4.056900
-10.818000 7.785400
-10.781400 11.761400
-10.744900 11.770800
-10.708400 11.646400
-10.671900 27.585700
-10.635300 35.244800
-10.598800 35.622900
-10.562300 34.999700
-10.525700 35.637200
-10.489200 50.579300
-10.452700 9.501900
-10.416100 2.873100
-10.379600 2.319400
-10.343100 2.012400
-10.306600 2.142700
-10.270000 0.000000
-10.233500 0.000000
-10.197000 0.000000
-10.160400 0.000000
-10.123900 0.000000
-10.087400 0.000000
-10.050800 0.000000
-10.014300 0.000000
-9.977800 0.000000
-9.941200 0.000000
-9.904700 0.000000
-9.868200 0.000000
-9.831700 0.000000
-9.795100 0.000000
-9.758600 0.000000
-9.722100 0.000000
-9.685500 0.000000
-9.649000 0.000000
-9.612500 0.000000
-9.575900 0.000000
-9.539400 0.000000
-9.502900 0.000000
-9.466400 0.000000
-9.429800 0.000000
-9.393300 0.008800
-9.356800 0.094000
-9.320200 0.175400
-9.283700 0.210900
-9.247200 0.278000
-9.210600 0.346800
-9.174100 0.349200
-9.137600 0.338100
-9.101000 0.340800
-9.064500 0.345000
-9.028000 0.344500
-8.991500 0.335700
-8.954900 0.337100
-8.918400 0.344700
-8.881900 0.351200
-8.845300 0.350400
-8.808800 0.349100
-8.772300 0.348800
-8.735700 0.345600
-8.699200 0.341100
-8.662700 0.341400
-8.626200 0.343700
-8.589600 0.346700
-8.553100 0.350400
-8.516600 0.354700
-8.480000 0.357000
-8.443500 0.356100
-8.407000 0.355500
-8.370400 0.354200
-8.333900 0.351100
-8.297400 0.349400
-8.260800 0.350000
-8.224300 0.351400
-8.187800 0.353100
-8.151300 0.355200
-8.114700 0.357800
-8.078200 0.360600
-8.041700 0.363400
-8.005100 0.365200
-7.968600 0.365000
-7.932100 0.365000
-7.895500 0.364800
-7.859000 0.363600
-7.822500 0.363200
-7.786000 0.364000
-7.749400 0.365200
-7.712900 0.366500
-7.676400 0.368100
-7.639800 0.369900
-7.603300 0.371800
-7.566800 0.373800
-7.530200 0.375800
-7.493700 0.378000
-7.457200 0.380200
-7.420600 0.381800
-7.384100 0.383300
-7.347600 0.384900
-7.311100 0.386200
-7.274500 0.387800
-7.238000 0.389600
-7.201500 0.391600
-7.164900 0.393600
-7.128400 0.395600
-7.091900 0.397800
-7.055300 0.400100
-7.018800 0.402400
-6.982300 0.404700
-6.945800 0.407100
-6.909200 0.409500
-6.872700 0.412300
-6.836200 0.417800
-6.799600 0.424500
-6.763100 0.431900
-6.726600 0.440000
-6.690000 0.446200
-6.653500 0.451900
-6.617000 0.457300
-6.580400 0.462500
-6.543900 0.467300
-6.507400 0.471900
-6.470900 0.476400
-6.434300 0.480900
-6.397800 0.485500
-6.361300 0.497900
-6.324700 0.540300
-6.288200 0.593800
-6.251700 0.653300
-6.215100 0.693100
-6.178600 0.726500
-6.142100 0.738600
-6.105600 0.688500
-6.069000 0.609800
-6.032500 0.547900
-5.996000 0.518700
-5.959400 0.489500
-5.922900 0.461800
-5.886400 0.441500
-5.849800 0.427600
-5.813300 0.416100
-5.776800 0.403300
-5.740200 0.389300
-5.703700 0.375300
-5.667200 0.361200
-5.630700 0.348600
-5.594100 0.339000
-5.557600 0.332400
-5.521100 0.326700
-5.484500 0.320900
-5.448000 0.314400
-5.411500 0.307100
-5.374900 0.299000
-5.338400 0.290700
-5.301900 0.284600
-5.265400 0.308100
-5.228800 0.324200
-5.192300 0.319800
-5.155800 0.324700
-5.119200 0.333400
-5.082700 0.342900
-5.046200 0.349900
-5.009600 0.350400
-4.973100 0.350500
-4.936600 0.351200
-4.900000 0.352400
-4.863500 0.353200
-4.827000 0.353800
-4.790500 0.354700
-4.753900 0.356500
-4.717400 0.356500
-4.680900 0.357600
-4.644300 0.360200
-4.607800 0.362800
-4.571300 0.365200
-4.534700 0.367200
-4.498200 0.368700
-4.461700 0.370700
-4.425200 0.373200
-4.388600 0.375700
-4.352100 0.377900
-4.315600 0.379200
-4.279000 0.379400
-4.242500 0.380200
-4.206000 0.381400
-4.169400 0.382800
-4.132900 0.384500
-4.096400 0.386300
-4.059800 0.388400
-4.023300 0.390600
-3.986800 0.394400
-3.950300 0.401000
-3.913700 0.407800
-3.877200 0.413900
-3.840700 0.420300
-3.804100 0.427000
-3.767600 0.433700
-3.731100 0.439700
-3.694500 0.445600
-3.658000 0.446000
-3.621500 0.442800
-3.585000 0.441600
-3.548400 0.440400
-3.511900 0.437900
-3.475400 0.434200
-3.438800 0.430500
-3.402300 0.427600
-3.365800 0.424900
-3.329200 0.422200
-3.292700 0.419300
-3.256200 0.416400
-3.219600 0.415400
-3.183100 0.416700
-3.146600 0.418700
-3.110100 0.421100
-3.073500 0.423200
-3.037000 0.425500
-3.000500 0.424900
-2.963900 0.414200
-2.927400 0.399100
-2.890900 0.384000
-2.854300 0.368800
-2.817800 0.353600
-2.781300 0.338300
-2.744800 0.326400
-2.708200 0.325300
-2.671700 0.325700
-2.635200 0.326300
-2.598600 0.326900
-2.562100 0.327600
-2.525600 0.328400
-2.489000 0.329200
-2.452500 0.329800
-2.416000 0.330400
-2.379500 0.331000
-2.342900 0.331700
-2.306400 0.332300
-2.269900 0.333000
-2.233300 0.333600
-2.196800 0.334300
-2.160300 0.335100
-2.123700 0.336100
-2.087200 0.337300
-2.050700 0.338800
-2.014100 0.340300
-1.977600 0.341900
-1.941100 0.343700
-1.904600 0.345500
-1.868000 0.347500
-1.831500 0.349500
-1.795000 0.351600
-1.758400 0.353800
-1.721900 0.362900
-1.685400 0.389700
-1.648800 0.416500
-1.612300 0.454700
-1.575800 0.509700
-1.539300 0.570400
-1.502700 0.638200
-1.466200 0.707400
-1.429700 0.769800
-1.393100 0.787500
-1.356600 0.732900
-1.320100 0.693100
-1.283500 0.658900
-1.247000 0.637900
-1.210500 0.640300
-1.173900 0.654500
-1.137400 0.673300
-1.100900 0.702000
-1.064400 0.731900
-1.027800 0.727300
-0.991300 0.710400
-0.954800 0.694200
-0.918200 0.683400
-0.881700 0.673700
-0.845200 0.669900
-0.808600 0.672700
-0.772100 0.675800
-0.735600 0.679800
-0.699100 0.682700
-0.662500 0.682400
-0.626000 0.680900
-0.589500 0.680300
-0.552900 0.682500
-0.516400 0.686800
-0.479900 0.693700
-0.443300 0.702900
-0.406800 0.713700
-0.370300 0.760600
-0.333700 0.812900
-0.297200 0.812400
-0.260700 0.797400
-0.224200 0.796400
-0.187600 0.798400
-0.151100 0.795300
-0.114600 0.792700
-0.078000 0.792800
-0.041500 0.795500
-0.005000 0.799800
0.031600 0.803600
0.068100 0.807200
0.104600 0.809400
0.141100 0.810200
0.177700 0.808500
0.214200 0.809100
0.250700 0.811200
0.287300 0.813300
0.323800 0.815600
0.360300 0.816700
0.396900 0.818400
0.433400 0.820300
0.469900 0.823400
0.506500 0.826800
0.543000 0.833100
0.579500 0.847900
0.616000 0.855600
0.652600 0.855900
0.689100 0.855700
0.725600 0.855500
0.762200 0.855500
0.798700 0.857000
0.835200 0.901100
0.871800 0.921700
0.908300 0.938400
0.944800 0.943300
0.981300 0.937300
1.017900 0.930300
1.054400 0.936200
1.090900 0.891500
1.127500 0.854000
1.164000 0.821400
1.200500 0.804600
1.237100 0.791000
1.273600 0.787800
1.310100 0.858100
1.346700 0.866900
1.383200 0.908000
1.419700 0.966100
1.456200 1.002600
1.492800 1.009600
1.529300 1.024200
1.565800 0.902100
1.602400 0.887900
1.638900 0.874200
1.675400 0.862300
1.712000 0.857300
1.748500 0.857000
1.785000 0.857900
1.821500 0.857300
1.858100 0.857100
1.894600 0.868300
1.931100 0.883400
1.967700 0.896900
2.004200 0.912000
2.040700 0.922000
2.077300 0.934900
2.113800 0.947400
2.150300 0.999300
2.186900 1.020800
2.223400 1.028200
2.259900 1.029800
2.296400 1.019200
2.333000 1.043900
2.369500 1.026900
2.406000 1.004200
2.442600 0.978300
2.479100 0.962400
2.515600 0.955200
2.552200 0.950700
2.588700 0.950200
2.625200 0.949800
2.661700 0.950700
2.698300 0.952500
2.734800 0.954900
2.771300 0.957400
2.807900 0.960300
2.844400 1.000500
2.880900 1.021300
2.917500 1.042300
2.954000 1.060400
2.990500 1.065200
3.027100 1.058500
3.063600 1.055200
3.100100 1.070200
3.136600 1.043600
3.173200 1.014800
3.209700 0.988400
3.246200 0.994900
3.282800 1.000900
3.319300 1.005500
3.355800 1.016600
3.392400 1.026600
3.428900 1.020900
3.465400 0.997100
3.501900 0.934800
3.538500 0.879100
3.575000 0.826400
3.611500 0.787700
3.648100 0.759400
3.684600 0.753300
3.721100 0.754000
3.757700 0.759200
3.794200 0.779400
3.830700 0.822200
3.867300 0.878100
3.903800 1.021300
3.940300 0.953200
3.976800 0.914500
4.013400 0.911100
4.049900 0.907900
4.086400 0.898900
4.123000 0.918900
4.159500 0.879900
4.196000 0.868800
4.232600 0.859500
4.269100 0.862000
4.305600 0.886100
4.342100 0.879800
4.378700 0.844900
4.415200 0.831600
4.451700 0.835500
4.488300 0.849500
4.524800 0.852200
4.561300 0.853700
4.597900 0.855700
4.634400 0.858300
4.670900 0.857200
4.707500 0.833800
4.744000 0.829400
4.780500 0.829800
4.817000 0.850900
4.853600 0.836900
4.890100 0.836300
4.926600 0.839600
4.963200 0.860400
4.999700 0.868400
5.036200 0.859000
5.072800 0.897000
5.109300 0.939800
5.145800 0.918100
5.182300 0.876500
5.218900 0.869800
5.255400 0.895400
5.291900 0.937800
5.328500 0.987000
5.365000 1.002700
5.401500 1.014400
5.438100 1.006100
5.474600 0.996000
5.511100 1.042900
5.547600 0.967500
5.584200 0.946400
5.620700 0.947100
5.657200 0.904700
5.693800 0.909600
5.730300 0.937200
5.766800 0.934000
5.803400 0.951200
5.839900 0.947800
5.876400 0.944300
5.913000 0.950400
5.949500 0.957400
5.986000 0.967700
6.022500 0.961500
6.059100 0.942000
6.095600 0.915300
6.132100 0.899200
6.168700 0.915200
6.205200 0.938200
6.241700 0.919400
6.278300 0.890400
6.314800 0.849600
6.351300 0.796000
6.387800 0.748900
6.424400 0.702400
6.460900 0.670300
6.497400 0.651600
6.534000 0.645300
6.570500 0.645100
6.607000 0.646900
6.643600 0.651600
6.680100 0.660900
6.716600 0.675200
6.753200 0.659700
6.789700 0.649100
6.826200 0.650600
6.862700 0.660600
6.899300 0.655300
6.935800 0.656200
6.972300 0.659200
7.008900 0.643300
7.045400 0.671400
7.081900 0.657500
7.118500 0.639500
7.155000 0.650800
7.191500 0.656600
7.228000 0.632000
7.264600 0.601300
7.301100 0.603100
7.337600 0.604300
7.374200 0.605400
7.410700 0.607500
7.447200 0.616000
7.483800 0.620900
7.520300 0.673200
7.556800 0.659600
7.593400 0.645700
7.629900 0.663400
7.666400 0.687300
7.702900 0.773000
7.739500 0.730700
7.776000 0.765100
7.812500 0.796900
7.849100 0.810600
7.885600 0.848600
7.922100 0.868300
7.958700 0.899900
7.995200 0.930600
8.031700 0.958200
8.068200 0.975100
8.104800 0.970400
8.141300 0.986300
8.177800 1.005900
8.214400 1.216500
8.250900 1.039300
8.287400 1.048700
8.324000 1.061700
8.360500 1.050300
8.397000 1.039800
8.433600 1.036800
8.470100 1.050600
8.506600 1.055800
8.543100 1.088400
8.579700 1.064200
8.616200 1.086400
8.652700 1.097900
8.689300 1.105200
8.725800 1.088200
8.762300 1.128500
8.798900 1.108100
8.835400 1.121300
8.871900 1.170000
8.908400 1.189800
8.945000 1.162300
8.981500 1.173500
9.018000 1.186700
9.054600 1.215400
9.091100 1.250100
9.127600 1.274400
9.164200 1.289800
9.200700 1.296700
9.237200 1.307700
9.273800 1.317100
9.310300 1.331400
9.346800 1.360900
9.383300 1.330000
9.419900 1.330700
9.456400 1.316700
9.492900 1.313700
9.529500 1.258200
9.566000 1.243700
9.602500 1.213800
9.639100 1.199900
9.675600 1.192300
9.712100 1.189100
9.748600 1.266100
9.785200 1.221200
9.821700 1.230000
9.858200 1.241300
9.894800 1.247900
9.931300 1.241700
9.967800 1.225200
10.004400 1.194700
10.040900 1.147900
10.077400 1.112600
10.114000 1.101600
10.150500 1.081200
10.187000 1.076900
10.223500 1.059200
10.260100 1.038000
10.296600 1.020600
10.333100 1.018200
10.369700 1.018200
10.406200 1.016700
10.442700 1.014300
10.479300 1.018300
10.515800 1.033300
10.552300 1.061500
10.588800 1.077000
10.625400 1.095700
10.661900 1.114600
10.698400 1.130700
10.735000 1.155800
10.771500 1.197500
10.808000 1.189500
10.844600 1.253900
10.881100 1.178100
10.917600 1.117400
10.954200 1.116400
10.990700 1.150900
11.027200 1.199500
11.063700 1.225200
11.100300 1.228400
11.136800 1.234800
11.173300 1.212200
11.209900 1.206400
11.246400 1.208300
11.282900 1.210900
11.319500 1.220900
11.356000 1.199500
11.392500 1.174800
11.429000 1.155900
11.465600 1.154400
11.502100 1.158600
11.538600 1.106400
11.575200 1.084900
11.611700 1.036900
11.648200 0.992100
11.684800 0.963500
11.721300 0.952800
11.757800 0.951100
11.794400 0.942800
11.830900 0.915300
11.867400 0.913000
11.903900 0.978900
11.940500 0.916300
11.977000 0.959500
12.013500 1.007900
12.050100 0.981000
12.086600 0.996500
12.123100 1.009700
12.159700 1.028100
12.196200 1.016900
12.232700 0.995500
12.269200 0.991500
12.305800 0.990100
12.342300 0.976700
12.378800 0.972800
12.415400 0.961300
12.451900 0.958000
12.488400 0.965600
12.525000 0.971000
12.561500 0.978000
12.598000 0.987700
12.634600 1.001000
12.671100 1.016700
12.707600 1.036100
12.744100 1.066100
12.780700 1.096200
12.817200 1.122400
12.853700 1.169900
12.890300 1.207400
12.926800 1.227500
12.963300 1.216800
12.999900 1.217800
13.036400 1.250300
13.072900 1.259300
13.109400 1.241200
13.146000 1.204200
13.182500 1.171700
13.219000 1.115200
13.255600 1.082000
13.292100 1.063100
13.328600 1.051700
13.365200 1.051700
13.401700 1.028600
13.438200 1.022000
13.474700 1.012900
13.511300 1.025100
13.547800 1.039200
13.584300 1.037900
13.620900 1.032500
13.657400 1.033500
13.693900 1.026000
13.730500 1.016400
13.767000 1.013300
13.803500 1.017400
13.840100 1.022100
13.876600 1.028600
13.913100 1.045900
13.949600 1.128700
13.986200 1.084000
14.022700 1.060800
14.059200 1.104700
14.095800 1.148400
14.132300 1.182700
14.168800 1.194900
14.205400 1.198900
14.241900 1.228000
14.278400 1.184400
14.314900 1.156400
14.351500 1.165800
14.388000 1.146900
14.424500 1.141000
14.461100 1.131900
14.497600 1.120500
14.534100 1.042300
14.570700 1.026600
14.607200 1.035000
14.643700 1.050900
14.680300 1.073100
14.716800 1.101000
14.753300 1.111500
14.789800 1.163800
14.826400 1.144700
14.862900 1.150100
14.899400 1.158400
14.936000 1.181100
14.972500 1.245900
15.009000 1.251100
15.045600 1.248100
15.082100 1.265100
15.118600 1.293200
15.155100 1.329800
15.191700 1.348000
15.228200 1.340400
15.264700 1.327500
15.301300 1.295300
15.337800 1.262100
15.374300 1.222400
15.410900 1.190700
15.447400 1.163000
15.483900 1.144500
15.520500 1.144700
15.557000 1.163500
15.593500 1.178500
15.630000 1.185300
15.666600 1.187200
15.703100 1.188900
15.739600 1.180000
15.776200 1.174000
15.812700 1.174300
15.849200 1.194400
15.885800 1.205600
15.922300 1.214300
15.958800 1.224100
15.995300 1.236800
16.031900 1.239700
16.068400 1.237300
16.104900 1.245900
16.141500 1.247600
16.178000 1.251400
16.214500 1.257700
16.251100 1.264500
16.287600 1.273800
16.324100 1.282800
16.360700 1.289500
16.397200 1.296600
16.433700 1.303400
16.470200 1.306000
16.506800 1.310300
16.543300 1.315300
16.579800 1.326800
16.616400 1.330100
16.652900 1.323200
16.689400 1.320900
16.726000 1.310300
16.762500 1.314700
16.799000 1.318100
16.835500 1.325200
16.872100 1.319200
16.908600 1.314600
16.945100 1.327900
16.981700 1.334600
17.018200 1.340500
17.054700 1.341400
17.091300 1.352600
17.127800 1.327800
17.164300 1.319500
17.200900 1.309800
17.237400 1.300500
17.273900 1.308900
17.310400 1.317000
17.347000 1.280200
17.383500 1.275600
17.420000 1.274100
17.456600 1.280800
17.493100 1.298300
17.529600 1.331700
17.566200 1.322600
17.602700 1.322200
17.639200 1.324000
17.675700 1.330700
17.712300 1.345400
17.748800 1.358600
17.785300 1.377100
17.821900 1.403500
17.858400 1.433200
17.894900 1.447000
17.931500 1.449600
17.968000 1.446000
18.004500 1.466300
18.041100 1.476700
18.077600 1.481000
18.114100 1.484300
18.150600 1.501500
18.187200 1.473000
18.223700 1.418200
18.260200 1.376900
18.296800 1.321500
18.333300 1.245300
18.369800 1.198900
18.406400 1.191500
18.442900 1.199400
18.479400 1.169600
18.515900 1.142100
18.552500 1.132200
18.589000 1.139500
18.625500 1.154300
18.662100 1.167800
18.698600 1.196400
18.735100 1.221700
18.771700 1.262000
18.808200 1.308500
18.844700 1.359200
18.881300 1.405300
18.917800 1.464200
18.954300 1.462300
18.990800 1.420100
19.027400 1.409600
19.063900 1.402600
19.100400 1.398400
19.137000 1.381900
19.173500 1.361200
19.210000 1.335300
19.246600 1.322100
19.283100 1.304000
19.319600 1.284300
19.356100 1.263700
19.392700 1.244100
19.429200 1.260600
19.465700 1.225300
19.502300 1.240900
19.538800 1.254200
19.575300 1.264600
19.611900 1.214800
19.648400 1.211700
19.684900 1.197100
19.721500 1.174800
19.758000 1.179600
19.794500 1.192500
19.831000 1.220700
19.867600 1.245300
19.904100 1.274600
19.940600 1.311000
19.977200 1.336100
20.013700 1.350300
20.050200 1.363400
20.086800 1.368500
20.123300 1.374500
20.159800 1.397000
20.196300 1.412400
20.232900 1.425400
20.269400 1.442600
20.305900 1.460500
20.342500 1.471400
20.379000 1.445000
20.415500 1.418900
20.452100 1.402900
20.488600 1.406900
20.525100 1.423700
20.561700 1.449100
20.598200 1.433600
20.634700 1.428200
20.671200 1.425800
20.707800 1.436700
20.744300 1.436700
20.780800 1.462600
20.817400 1.507800
20.853900 1.556100
20.890400 1.594600
20.927000 1.617500
20.963500 1.577700
21.000000 1.560100
21.036500 1.548200
21.073100 1.530900
21.109600 1.506600
21.146100 1.513900
21.182700 1.514600
21.219200 1.499000
21.255700 1.482300
21.292300 1.484000
21.328800 1.487300
21.365300 1.493000
21.401900 1.485000
21.438400 1.482300
21.474900 1.480700
21.511400 1.475300
21.548000 1.460300
21.584500 1.450600
21.621000 1.447700
21.657600 1.441000
21.694100 1.427000
21.730600 1.403500
21.767200 1.407900
21.803700 1.422500
21.840200 1.434200
21.876700 1.473300
21.913300 1.485300
21.949800 1.467500
21.986300 1.447700
22.022900 1.429500
22.059400 1.428600
22.095900 1.442400
22.132500 1.485600
22.169000 1.695300
22.205500 1.724700
22.242000 1.723900
22.278600 1.716100
22.315100 1.684900
22.351600 1.678400
22.388200 1.666100
22.424700 1.638400
22.461200 1.582800
22.497800 1.555000
22.534300 1.536900
22.570800 1.506900
22.607400 1.484100
22.643900 1.448200
22.680400 1.403900
22.716900 1.350500
22.753500 1.300100
22.790000 1.254200
22.826500 1.217600
22.863100 1.201600
22.899600 1.204100
22.936100 1.215400
22.972700 1.240900
23.009200 1.269000
23.045700 1.278700
23.082200 1.291200
23.118800 1.321100
23.155300 1.360700
23.191800 1.412800
23.228400 1.430600
23.264900 1.431700
23.301400 1.436100
23.338000 1.403500
23.374500 1.404500
23.411000 1.405600
23.447600 1.422800
23.484100 1.448200
23.520600 1.473100
23.557100 1.503800
23.593700 1.539500
23.630200 1.579600
23.666700 1.615800
23.703300 1.656500
23.739800 1.708700
23.776300 1.773200
23.812900 1.828400
23.849400 1.842300
23.885900 1.838300
