set title 'mp-10649 - Density of States'
set xlabel 'Energy (eV)'
set ylabel 'DOS (states/eV)'
set grid
set xrange [-10:10]
set yrange [0:0.992]
set xzeroaxis lt -1
set terminal png size 800,600
set output 'mp-10649_dos_gnuplot.png'
plot '-' using 1:2 with lines title 'DOS'
-5.893100 0.000000
-5.875300 0.000000
-5.857600 0.000000
-5.839800 0.000000
-5.822100 0.000000
-5.804400 0.000000
-5.786600 0.000000
-5.768900 0.000000
-5.751100 0.000000
-5.733400 0.000000
-5.715600 0.000000
-5.697900 0.000000
-5.680100 0.000000
-5.662400 0.000000
-5.644600 0.000000
-5.626900 0.000000
-5.609200 0.000000
-5.591400 0.000000
-5.573700 0.000000
-5.555900 0.000000
-5.538200 0.000000
-5.520400 0.000000
-5.502700 0.000000
-5.484900 0.000000
-5.467200 0.000000
-5.449400 0.000000
-5.431700 0.000000
-5.414000 0.000000
-5.396200 0.000000
-5.378500 0.000000
-5.360700 0.000000
-5.343000 0.000000
-5.325200 0.000000
-5.307500 0.000000
-5.289700 0.000000
-5.272000 0.000000
-5.254200 0.000000
-5.236500 0.000000
-5.218800 0.000000
-5.201000 0.000000
-5.183300 0.000000
-5.165500 0.000000
-5.147800 0.000000
-5.130000 0.000000
-5.112300 0.000000
-5.094500 0.000000
-5.076800 0.000000
-5.059000 0.000000
-5.041300 0.000000
-5.023600 0.000000
-5.005800 0.000000
-4.988100 0.000000
-4.970300 0.000000
-4.952600 0.000000
-4.934800 0.000000
-4.917100 0.000000
-4.899300 0.000000
-4.881600 0.000000
-4.863800 0.000000
-4.846100 0.000000
-4.828400 0.000000
-4.810600 0.000000
-4.792900 0.000000
-4.775100 0.000000
-4.757400 0.000000
-4.739600 0.000000
-4.721900 0.000000
-4.704100 0.000000
-4.686400 0.000000
-4.668600 0.000000
-4.650900 0.000000
-4.633200 0.000000
-4.615400 0.000000
-4.597700 0.000000
-4.579900 0.000000
-4.562200 0.000000
-4.544400 0.000000
-4.526700 0.000000
-4.508900 0.000000
-4.491200 0.000000
-4.473400 0.000000
-4.455700 0.000000
-4.437900 0.000000
-4.420200 0.000000
-4.402500 0.000000
-4.384700 0.000000
-4.367000 0.000000
-4.349200 0.000000
-4.331500 0.000000
-4.313700 0.000000
-4.296000 0.000000
-4.278200 0.000000
-4.260500 0.006800
-4.242700 0.025100
-4.225000 0.044800
-4.207300 0.050000
-4.189500 0.051400
-4.171800 0.058900
-4.154000 0.066700
-4.136300 0.074800
-4.118500 0.082000
-4.100800 0.086000
-4.083000 0.087200
-4.065300 0.089800
-4.047500 0.093700
-4.029800 0.097900
-4.012100 0.102200
-3.994300 0.106400
-3.976600 0.110700
-3.958800 0.115200
-3.941100 0.119900
-3.923300 0.122700
-3.905600 0.124500
-3.887800 0.126800
-3.870100 0.129400
-3.852300 0.132000
-3.834600 0.134400
-3.816900 0.136900
-3.799100 0.139600
-3.781400 0.142400
-3.763600 0.145400
-3.745900 0.148600
-3.728100 0.151900
-3.710400 0.155200
-3.692600 0.158400
-3.674900 0.161200
-3.657100 0.163100
-3.639400 0.164500
-3.621700 0.166100
-3.603900 0.168100
-3.586200 0.170200
-3.568400 0.172300
-3.550700 0.174300
-3.532900 0.176300
-3.515200 0.178400
-3.497400 0.180600
-3.479700 0.182900
-3.461900 0.185300
-3.444200 0.187700
-3.426500 0.190100
-3.408700 0.192500
-3.391000 0.194900
-3.373200 0.197400
-3.355500 0.199600
-3.337700 0.201300
-3.320000 0.202900
-3.302200 0.204500
-3.284500 0.206100
-3.266700 0.207600
-3.249000 0.209200
-3.231300 0.210900
-3.213500 0.212500
-3.195800 0.214300
-3.178000 0.216000
-3.160300 0.217800
-3.142500 0.219600
-3.124800 0.221500
-3.107000 0.223300
-3.089300 0.225200
-3.071500 0.227000
-3.053800 0.228900
-3.036100 0.230800
-3.018300 0.232800
-3.000600 0.234700
-2.982800 0.236800
-2.965100 0.238700
-2.947300 0.240500
-2.929600 0.245800
-2.911800 0.258800
-2.894100 0.270700
-2.876300 0.259300
-2.858600 0.260500
-2.840900 0.261500
-2.823100 0.262400
-2.805400 0.263300
-2.787600 0.263600
-2.769900 0.262200
-2.752100 0.260900
-2.734400 0.260500
-2.716600 0.261000
-2.698900 0.261500
-2.681100 0.262000
-2.663400 0.262500
-2.645700 0.262900
-2.627900 0.263300
-2.610200 0.263700
-2.592400 0.262300
-2.574700 0.262400
-2.556900 0.262600
-2.539200 0.262700
-2.521400 0.262800
-2.503700 0.263000
-2.485900 0.263200
-2.468200 0.263200
-2.450500 0.265700
-2.432700 0.278700
-2.415000 0.292500
-2.397200 0.284100
-2.379500 0.286300
-2.361700 0.288600
-2.344000 0.290400
-2.326200 0.292200
-2.308500 0.294100
-2.290700 0.294300
-2.273000 0.294300
-2.255300 0.295000
-2.237500 0.296700
-2.219800 0.298300
-2.202000 0.300100
-2.184300 0.301800
-2.166500 0.303600
-2.148800 0.305500
-2.131000 0.307400
-2.113300 0.307600
-2.095500 0.309000
-2.077800 0.310400
-2.060100 0.311800
-2.042300 0.313100
-2.024600 0.314500
-2.006800 0.315400
-1.989100 0.317000
-1.971300 0.318500
-1.953600 0.320000
-1.935800 0.321400
-1.918100 0.322700
-1.900300 0.324200
-1.882600 0.325700
-1.864800 0.326600
-1.847100 0.327300
-1.829400 0.328000
-1.811600 0.329200
-1.793900 0.330300
-1.776100 0.331500
-1.758400 0.332700
-1.740600 0.333900
-1.722900 0.335200
-1.705100 0.336400
-1.687400 0.337700
-1.669600 0.339000
-1.651900 0.340400
-1.634200 0.341600
-1.616400 0.342700
-1.598700 0.343800
-1.580900 0.345000
-1.563200 0.346400
-1.545400 0.347800
-1.527700 0.348400
-1.509900 0.349500
-1.492200 0.350700
-1.474400 0.351900
-1.456700 0.353100
-1.439000 0.354400
-1.421200 0.355700
-1.403500 0.357100
-1.385700 0.358500
-1.368000 0.359800
-1.350200 0.361200
-1.332500 0.362400
-1.314700 0.363500
-1.297000 0.364700
-1.279200 0.365900
-1.261500 0.367100
-1.243800 0.368100
-1.226000 0.369200
-1.208300 0.370400
-1.190500 0.371600
-1.172800 0.372700
-1.155000 0.373400
-1.137300 0.374200
-1.119500 0.375000
-1.101800 0.375900
-1.084000 0.377000
-1.066300 0.378000
-1.048600 0.379000
-1.030800 0.380100
-1.013100 0.381200
-0.995300 0.382300
-0.977600 0.383400
-0.959800 0.384500
-0.942100 0.385700
-0.924300 0.386900
-0.906600 0.388100
-0.888800 0.389300
-0.871100 0.390500
-0.853400 0.391700
-0.835600 0.392900
-0.817900 0.394100
-0.800100 0.395400
-0.782400 0.396600
-0.764600 0.397800
-0.746900 0.399100
-0.729100 0.400300
-0.711400 0.401600
-0.693600 0.402900
-0.675900 0.403800
-0.658200 0.404800
-0.640400 0.405800
-0.622700 0.406500
-0.604900 0.407400
-0.587200 0.408300
-0.569400 0.409200
-0.551700 0.410200
-0.533900 0.411200
-0.516200 0.412100
-0.498400 0.413100
-0.480700 0.414100
-0.463000 0.415100
-0.445200 0.416100
-0.427500 0.417100
-0.409700 0.418200
-0.392000 0.419200
-0.374200 0.420300
-0.356500 0.421400
-0.338700 0.422400
-0.321000 0.423500
-0.303200 0.424600
-0.285500 0.425700
-0.267800 0.426800
-0.250000 0.427900
-0.232300 0.429000
-0.214500 0.430100
-0.196800 0.431300
-0.179000 0.432400
-0.161300 0.433500
-0.143500 0.434500
-0.125800 0.435500
-0.108000 0.436500
-0.090300 0.437600
-0.072600 0.438700
-0.054800 0.439700
-0.037100 0.440800
-0.019300 0.441700
-0.001600 0.442700
0.016200 0.443800
0.033900 0.444800
0.051700 0.445900
0.069400 0.447000
0.087200 0.448000
0.104900 0.449000
0.122600 0.450000
0.140400 0.451000
0.158100 0.452100
0.175900 0.453100
0.193600 0.454100
0.211400 0.455100
0.229100 0.456200
0.246900 0.457200
0.264600 0.458300
0.282400 0.459400
0.300100 0.460400
0.317800 0.461500
0.335600 0.462600
0.353300 0.463700
0.371100 0.464800
0.388800 0.465900
0.406600 0.467000
0.424300 0.468100
0.442100 0.469200
0.459800 0.470100
0.477600 0.471200
0.495300 0.472200
0.513000 0.473300
0.530800 0.474300
0.548500 0.475400
0.566300 0.476500
0.584000 0.477500
0.601800 0.478600
0.619500 0.479700
0.637300 0.480800
0.655000 0.481800
0.672800 0.482800
0.690500 0.483900
0.708300 0.485000
0.726000 0.486100
0.743700 0.487200
0.761500 0.488300
0.779200 0.489400
0.797000 0.490600
0.814700 0.491700
0.832500 0.492900
0.850200 0.494100
0.868000 0.495900
0.885700 0.498100
0.903500 0.499800
0.921200 0.501600
0.938900 0.503300
0.956700 0.505200
0.974400 0.507100
0.992200 0.509000
1.009900 0.510900
1.027700 0.512700
1.045400 0.514500
1.063200 0.516400
1.080900 0.518200
1.098700 0.520100
1.116400 0.522000
1.134100 0.523800
1.151900 0.525700
1.169600 0.527600
1.187400 0.529400
1.205100 0.531300
1.222900 0.533100
1.240600 0.535000
1.258400 0.536300
1.276100 0.536400
1.293900 0.536100
1.311600 0.536400
1.329300 0.536600
1.347100 0.536800
1.364800 0.536900
1.382600 0.536900
1.400300 0.536800
1.418100 0.536900
1.435800 0.537100
1.453600 0.537300
1.471300 0.537400
1.489100 0.537600
1.506800 0.537700
1.524500 0.537900
1.542300 0.538000
1.560000 0.538100
1.577800 0.538200
1.595500 0.538500
1.613300 0.538700
1.631000 0.539000
1.648800 0.539400
1.666500 0.539800
1.684300 0.540200
1.702000 0.540700
1.719700 0.541100
1.737500 0.541600
1.755200 0.542000
1.773000 0.542400
1.790700 0.542700
1.808500 0.543100
1.826200 0.543400
1.844000 0.543800
1.861700 0.544200
1.879500 0.544600
1.897200 0.545000
1.914900 0.545500
1.932700 0.545900
1.950400 0.546400
1.968200 0.546900
1.985900 0.547400
2.003700 0.548000
2.021400 0.551100
2.039200 0.559000
2.056900 0.564700
2.074700 0.566200
2.092400 0.567600
2.110100 0.568700
2.127900 0.569600
2.145600 0.570300
2.163400 0.570700
2.181100 0.570000
2.198900 0.569100
2.216600 0.568100
2.234400 0.567000
2.252100 0.565800
2.269900 0.564500
2.287600 0.563000
2.305300 0.566200
2.323100 0.573800
2.340800 0.577200
2.358600 0.575500
2.376300 0.573500
2.394100 0.571400
2.411800 0.569100
2.429600 0.566300
2.447300 0.562800
2.465100 0.558100
2.482800 0.553100
2.500500 0.548100
2.518300 0.544000
2.536000 0.540900
2.553800 0.538100
2.571500 0.535500
2.589300 0.533100
2.607000 0.530700
2.624800 0.528400
2.642500 0.525700
2.660300 0.523200
2.678000 0.520700
2.695700 0.518300
2.713500 0.515900
2.731200 0.513600
2.749000 0.511400
2.766700 0.509300
2.784500 0.507400
2.802200 0.505600
2.820000 0.504200
2.837700 0.503100
2.855500 0.502100
2.873200 0.522500
2.890900 0.537800
2.908700 0.530500
2.926400 0.518800
2.944200 0.513300
2.961900 0.513500
2.979700 0.515200
2.997400 0.517400
3.015200 0.517800
3.032900 0.518500
3.050700 0.520700
3.068400 0.524300
3.086200 0.528400
3.103900 0.532800
3.121600 0.537400
3.139400 0.542200
3.157100 0.547300
3.174900 0.552600
3.192600 0.557500
3.210400 0.562000
3.228100 0.563100
3.245900 0.558700
3.263600 0.556600
3.281400 0.557800
3.299100 0.559000
3.316800 0.560000
3.334600 0.568000
3.352300 0.567700
3.370100 0.569200
3.387800 0.572900
3.405600 0.577100
3.423300 0.582100
3.441100 0.587900
3.458800 0.593700
3.476600 0.600400
3.494300 0.607900
3.512000 0.604600
3.529800 0.597600
3.547500 0.597000
3.565300 0.598400
3.583000 0.599700
3.600800 0.611500
3.618500 0.610500
3.636300 0.611700
3.654000 0.619200
3.671800 0.631200
3.689500 0.645500
3.707200 0.641100
3.725000 0.632800
3.742700 0.635300
3.760500 0.639800
3.778200 0.657300
3.796000 0.659400
3.813700 0.660500
3.831500 0.660700
3.849200 0.661900
3.867000 0.662800
3.884700 0.662900
3.902400 0.662100
3.920200 0.660200
3.937900 0.656400
3.955700 0.651900
3.973400 0.646800
3.991200 0.641800
4.008900 0.635900
4.026700 0.630800
4.044400 0.658400
4.062200 0.694700
4.079900 0.659500
4.097600 0.637300
4.115400 0.631100
4.133100 0.630700
4.150900 0.630600
4.168600 0.649600
4.186400 0.635200
4.204100 0.625500
4.221900 0.619500
4.239600 0.614500
4.257400 0.608000
4.275100 0.600600
4.292800 0.592600
4.310600 0.583300
4.328300 0.573800
4.346100 0.569000
4.363800 0.563700
4.381600 0.561000
4.399300 0.559800
4.417100 0.568500
4.434800 0.574600
4.452600 0.580400
4.470300 0.585600
4.488000 0.590500
4.505800 0.595000
4.523500 0.600800
4.541300 0.589700
4.559000 0.594500
4.576800 0.599800
4.594500 0.605500
4.612300 0.594900
4.630000 0.601000
4.647800 0.608100
4.665500 0.614500
4.683200 0.621500
4.701000 0.631400
4.718700 0.642400
4.736500 0.651100
4.754200 0.657600
4.772000 0.664600
4.789700 0.673000
4.807500 0.681200
4.825200 0.729600
4.843000 0.678200
4.860700 0.668400
4.878400 0.655300
4.896200 0.652900
4.913900 0.654300
4.931700 0.657900
4.949400 0.661100
4.967200 0.663700
4.984900 0.645000
5.002700 0.635200
5.020400 0.630100
5.038200 0.625300
5.055900 0.622700
5.073600 0.620900
5.091400 0.619500
5.109100 0.620500
5.126900 0.624200
5.144600 0.627100
5.162400 0.629900
5.180100 0.634600
5.197900 0.641700
5.215600 0.651900
5.233400 0.666200
5.251100 0.675900
5.268800 0.680100
5.286600 0.685000
5.304300 0.693400
5.322100 0.672500
5.339800 0.656900
5.357600 0.653100
5.375300 0.657500
5.393100 0.655000
5.410800 0.652400
5.428600 0.651300
5.446300 0.648900
5.464000 0.645800
5.481800 0.642000
5.499500 0.637700
5.517300 0.633400
5.535000 0.631700
5.552800 0.625800
5.570500 0.615200
5.588300 0.605000
5.606000 0.596000
5.623800 0.588200
5.641500 0.583000
5.659300 0.584000
5.677000 0.587700
5.694700 0.592500
5.712500 0.597500
5.730200 0.602900
5.748000 0.609400
5.765700 0.617000
5.783500 0.625900
5.801200 0.683100
5.819000 0.649700
5.836700 0.654400
5.854500 0.658400
5.872200 0.663400
5.889900 0.669100
5.907700 0.675400
5.925400 0.682300
5.943200 0.690000
5.960900 0.692700
5.978700 0.691200
5.996400 0.695700
6.014200 0.700800
6.031900 0.708600
6.049700 0.717500
6.067400 0.725000
6.085100 0.734700
6.102900 0.768400
6.120600 0.772700
6.138400 0.772100
6.156100 0.768500
6.173900 0.781100
6.191600 0.757700
6.209400 0.740900
6.227100 0.738900
6.244900 0.739200
6.262600 0.740200
6.280300 0.741700
6.298100 0.743800
6.315800 0.746500
6.333600 0.754200
6.351300 0.762100
6.369100 0.768300
6.386800 0.773100
6.404600 0.777200
6.422300 0.780100
6.440100 0.787500
6.457800 0.800800
6.475500 0.787000
6.493300 0.771000
6.511000 0.761800
6.528800 0.755300
6.546500 0.757400
6.564300 0.759800
6.582000 0.766900
6.599800 0.776400
6.617500 0.734100
6.635300 0.731800
6.653000 0.730500
6.670700 0.730200
6.688500 0.730400
6.706200 0.730600
6.724000 0.730700
6.741700 0.730700
6.759500 0.735600
6.777200 0.743400
6.795000 0.749100
6.812700 0.753100
6.830500 0.756700
6.848200 0.760300
6.865900 0.761800
6.883700 0.759600
6.901400 0.758400
6.919200 0.759100
6.936900 0.747500
6.954700 0.741300
6.972400 0.737800
6.990200 0.735900
7.007900 0.735200
7.025700 0.735600
7.043400 0.737500
7.061100 0.740200
7.078900 0.742500
7.096600 0.743700
7.114400 0.744700
7.132100 0.748600
7.149900 0.750700
7.167600 0.751100
7.185400 0.751400
7.203100 0.749000
7.220900 0.737100
7.238600 0.731400
7.256300 0.730200
7.274100 0.730700
7.291800 0.731900
7.309600 0.733200
7.327300 0.735500
7.345100 0.736300
7.362800 0.736700
7.380600 0.736900
7.398300 0.737600
7.416100 0.738300
7.433800 0.739200
7.451500 0.741200
7.469300 0.770700
7.487000 0.771100
7.504800 0.769400
7.522500 0.769900
7.540300 0.768800
7.558000 0.766100
7.575800 0.763700
7.593500 0.761600
7.611300 0.760000
7.629000 0.758900
7.646700 0.758400
7.664500 0.759100
7.682200 0.759800
7.700000 0.761800
7.717700 0.764900
7.735500 0.768600
7.753200 0.775500
7.771000 0.778200
7.788700 0.783400
7.806500 0.794800
7.824200 0.807600
7.841900 0.816500
7.859700 0.823700
7.877400 0.829600
7.895200 0.833500
7.912900 0.829800
7.930700 0.822800
7.948400 0.818000
7.966200 0.819900
7.983900 0.821300
8.001700 0.822400
8.019400 0.823700
8.037100 0.825200
8.054900 0.826900
8.072600 0.829200
8.090400 0.833000
8.108100 0.837300
8.125900 0.841700
8.143600 0.845800
8.161400 0.850600
8.179100 0.854900
8.196900 0.859600
8.214600 0.864400
8.232400 0.869400
8.250100 0.874600
8.267800 0.879600
8.285600 0.883300
8.303300 0.886300
8.321100 0.890100
8.338800 0.893700
8.356600 0.896500
8.374300 0.898700
8.392100 0.900500
8.409800 0.901700
8.427600 0.900800
8.445300 0.896500
8.463000 0.892300
8.480800 0.896100
8.498500 0.890300
8.516300 0.880500
8.534000 0.870700
8.551800 0.862100
8.569500 0.854800
8.587300 0.848000
8.605000 0.842100
8.622800 0.835300
8.640500 0.829500
8.658200 0.822700
8.676000 0.815300
8.693700 0.807000
8.711500 0.804000
8.729200 0.799600
8.747000 0.794000
8.764700 0.788600
8.782500 0.783500
8.800200 0.778500
8.818000 0.773400
8.835700 0.767500
8.853400 0.762800
8.871200 0.759300
8.888900 0.756000
8.906700 0.753000
8.924400 0.749800
8.942200 0.746900
8.959900 0.747300
8.977700 0.745600
8.995400 0.744100
9.013200 0.744000
9.030900 0.745200
9.048600 0.751900
9.066400 0.771800
9.084100 0.795700
9.101900 0.794600
9.119600 0.801000
9.137400 0.802600
9.155100 0.802800
9.172900 0.804100
9.190600 0.804900
9.208400 0.807100
9.226100 0.811900
9.243800 0.817700
9.261600 0.822200
9.279300 0.825300
9.297100 0.827000
9.314800 0.827600
9.332600 0.827300
9.350300 0.826200
9.368100 0.822200
9.385800 0.819400
9.403600 0.816100
9.421300 0.815400
9.439000 0.816000
9.456800 0.818000
9.474500 0.819300
9.492300 0.813300
9.510000 0.810200
9.527800 0.810400
9.545500 0.810300
9.563300 0.812300
9.581000 0.813900
9.598800 0.815000
9.616500 0.815100
9.634200 0.813900
9.652000 0.812100
9.669700 0.809400
9.687500 0.806500
9.705200 0.803500
9.723000 0.800200
9.740700 0.795900
9.758500 0.791900
9.776200 0.788000
9.794000 0.782900
9.811700 0.777500
9.829400 0.773700
9.847200 0.770900
9.864900 0.768600
9.882700 0.762700
9.900400 0.754000
9.918200 0.745900
9.935900 0.744800
9.953700 0.746100
9.971400 0.748000
9.989200 0.750400
10.006900 0.754500
10.024600 0.758800
10.042400 0.760100
10.060100 0.759900
10.077900 0.766800
10.095600 0.771400
10.113400 0.774200
10.131100 0.777300
10.148900 0.780800
10.166600 0.785000
10.184400 0.776500
10.202100 0.778600
10.219800 0.782400
10.237600 0.786200
10.255300 0.791000
10.273100 0.795200
10.290800 0.796000
10.308600 0.793400
10.326300 0.795300
10.344100 0.798000
10.361800 0.800000
10.379600 0.802300
10.397300 0.805000
10.415000 0.819300
10.432800 0.839000
10.450500 0.837300
10.468300 0.844300
10.486000 0.852200
10.503800 0.861000
10.521500 0.869600
10.539300 0.875200
10.557000 0.877800
10.574800 0.879600
10.592500 0.883100
10.610300 0.887800
10.628000 0.891900
10.645700 0.898000
10.663500 0.899200
10.681200 0.890200
10.699000 0.878400
10.716700 0.864300
10.734500 0.856600
10.752200 0.853500
10.770000 0.849500
10.787700 0.844800
10.805500 0.840400
10.823200 0.835700
10.840900 0.831100
10.858700 0.826900
10.876400 0.823500
10.894200 0.821300
10.911900 0.820700
10.929700 0.838600
10.947400 0.848900
10.965200 0.860700
10.982900 0.865500
11.000700 0.831400
11.018400 0.813300
11.036100 0.816700
11.053900 0.826200
11.071600 0.836000
11.089400 0.845300
11.107100 0.853700
11.124900 0.861900
11.142600 0.868400
11.160400 0.876400
11.178100 0.883700
11.195900 0.891700
11.213600 0.897200
11.231300 0.898700
11.249100 0.903000
11.266800 0.907100
11.284600 0.911100
11.302300 0.904200
11.320100 0.906200
11.337800 0.907800
11.355600 0.909000
11.373300 0.908800
11.391100 0.907300
11.408800 0.906000
11.426500 0.906700
11.444300 0.909300
11.462000 0.913200
11.479800 0.917600
11.497500 0.922700
11.515300 0.928800
11.533000 0.935900
11.550800 0.951900
11.568500 0.977600
11.586300 0.965200
11.604000 0.952900
11.621700 0.952300
11.639500 0.954600
11.657200 0.955400
11.675000 0.955300
11.692700 0.956100
11.710500 0.957300
11.728200 0.958100
11.746000 0.980100
11.763700 0.982400
11.781500 0.977800
11.799200 0.972300
11.816900 0.967200
11.834700 0.962400
11.852400 0.964500
11.870200 0.961200
11.887900 0.959600
11.905700 0.955700
11.923400 0.948500
11.941200 0.940800
11.958900 0.933800
11.976700 0.927300
11.994400 0.922000
12.012100 0.918700
12.029900 0.916400
12.047600 0.914500
12.065400 0.912600
12.083100 0.910700
12.100900 0.909400
12.118600 0.908200
12.136400 0.907200
12.154100 0.906400
12.171900 0.906200
12.189600 0.906400
12.207300 0.906300
12.225100 0.906100
12.242800 0.905800
12.260600 0.905300
12.278300 0.904100
12.296100 0.901000
12.313800 0.898200
12.331600 0.896100
12.349300 0.894200
12.367100 0.892500
12.384800 0.889800
12.402500 0.887700
12.420300 0.886100
12.438000 0.885100
12.455800 0.884300
12.473500 0.884300
12.491300 0.885100
12.509000 0.886200
12.526800 0.892400
12.544500 0.898000
12.562300 0.903800
12.580000 0.909800
12.597700 0.919200
12.615500 0.928600
12.633200 0.938000
12.651000 0.947800
12.668700 0.957900
12.686500 0.948000
12.704200 0.956000
12.722000 0.965700
12.739700 0.977000
12.757500 0.971300
12.775200 0.959600
12.792900 0.952700
12.810700 0.957200
12.828400 0.962600
12.846200 0.968700
12.863900 0.974100
12.881700 0.978000
12.899400 0.980800
12.917200 0.983700
12.934900 0.985400
12.952700 0.985000
12.970400 0.964800
12.988100 0.962800
13.005900 0.960800
13.023600 0.959400
