set title 'mp-567907 - Density of States'
set xlabel 'Energy (eV)'
set ylabel 'DOS (states/eV)'
set grid
set xrange [-10:10]
set yrange [0:27.059]
set xzeroaxis lt -1
set terminal png size 800,600
set output 'mp-567907_dos_gnuplot.png'
plot '-' using 1:2 with lines title 'DOS'
-18.253000 0.000000
-18.233300 0.000000
-18.213600 0.000000
-18.193800 0.000000
-18.174100 0.000000
-18.154400 0.000000
-18.134600 0.000000
-18.114900 0.000000
-18.095200 0.000000
-18.075400 0.000000
-18.055700 0.000000
-18.035900 0.000000
-18.016200 0.000000
-17.996500 0.000000
-17.976700 0.000000
-17.957000 0.000000
-17.937300 0.000000
-17.917500 0.000000
-17.897800 0.000000
-17.878000 0.000000
-17.858300 0.000000
-17.838600 0.000000
-17.818800 0.000000
-17.799100 0.000000
-17.779400 0.000000
-17.759600 0.000000
-17.739900 0.000000
-17.720200 0.000000
-17.700400 0.000000
-17.680700 0.000000
-17.660900 0.000000
-17.641200 0.000000
-17.621500 0.000000
-17.601700 0.000000
-17.582000 0.000000
-17.562300 0.000000
-17.542500 0.000000
-17.522800 0.000000
-17.503100 0.000000
-17.483300 0.000000
-17.463600 0.000000
-17.443800 0.000000
-17.424100 0.000000
-17.404400 0.000000
-17.384600 0.000000
-17.364900 0.000000
-17.345200 0.000000
-17.325400 0.000000
-17.305700 0.000000
-17.286000 0.000000
-17.266200 0.000000
-17.246500 0.000000
-17.226700 0.000000
-17.207000 0.000000
-17.187300 0.000000
-17.167500 0.000000
-17.147800 0.000000
-17.128100 0.000000
-17.108300 0.000000
-17.088600 0.000000
-17.068900 0.000000
-17.049100 0.000000
-17.029400 0.000000
-17.009600 0.000000
-16.989900 0.000000
-16.970200 0.000000
-16.950400 0.000000
-16.930700 0.000000
-16.911000 0.000000
-16.891200 0.000000
-16.871500 0.000000
-16.851700 0.000000
-16.832000 0.000000
-16.812300 0.000000
-16.792500 0.000000
-16.772800 0.000000
-16.753100 0.000000
-16.733300 0.000000
-16.713600 0.000000
-16.693900 0.000000
-16.674100 0.000000
-16.654400 0.000000
-16.634600 0.000000
-16.614900 0.000000
-16.595200 0.000000
-16.575400 0.000000
-16.555700 0.000000
-16.536000 0.000000
-16.516200 0.000000
-16.496500 0.000000
-16.476800 0.000000
-16.457000 0.000500
-16.437300 0.071600
-16.417500 0.262900
-16.397800 0.574600
-16.378100 1.006500
-16.358300 1.406900
-16.338600 1.650400
-16.318900 1.807500
-16.299100 2.031100
-16.279400 2.267600
-16.259700 2.474600
-16.239900 2.651900
-16.220200 2.799500
-16.200400 3.189100
-16.180700 3.062800
-16.161000 3.297000
-16.141200 3.547500
-16.121500 3.814200
-16.101800 4.097100
-16.082000 4.399000
-16.062300 5.114200
-16.042600 6.272900
-16.022800 6.110100
-16.003100 5.768600
-15.983300 5.475900
-15.963600 5.259200
-15.943900 5.061200
-15.924100 4.963600
-15.904400 5.255200
-15.884700 5.440500
-15.864900 5.323100
-15.845200 5.565900
-15.825400 6.032300
-15.805700 6.576700
-15.786000 6.756500
-15.766200 6.657700
-15.746500 8.310100
-15.726800 6.848400
-15.707000 6.757800
-15.687300 9.255700
-15.667600 7.347000
-15.647800 5.716100
-15.628100 4.480900
-15.608300 3.699400
-15.588600 3.265100
-15.568900 3.401700
-15.549100 3.341300
-15.529400 3.050200
-15.509700 1.793400
-15.489900 0.785600
-15.470200 0.292600
-15.450500 0.069900
-15.430700 0.000000
-15.411000 0.000000
-15.391200 0.000000
-15.371500 0.000000
-15.351800 0.000000
-15.332000 0.000000
-15.312300 0.000000
-15.292600 0.000000
-15.272800 0.000000
-15.253100 0.000000
-15.233400 0.000000
-15.213600 0.000000
-15.193900 0.000000
-15.174100 0.000000
-15.154400 0.000000
-15.134700 0.000000
-15.114900 0.000000
-15.095200 0.000000
-15.075500 0.000000
-15.055700 0.000000
-15.036000 0.000000
-15.016300 0.000000
-14.996500 0.000000
-14.976800 0.000000
-14.957000 0.000000
-14.937300 0.000000
-14.917600 0.000000
-14.897800 0.000000
-14.878100 0.000000
-14.858400 0.000000
-14.838600 0.000000
-14.818900 0.000000
-14.799100 0.000000
-14.779400 0.000000
-14.759700 0.000000
-14.739900 0.000000
-14.720200 0.000000
-14.700500 0.000000
-14.680700 0.000000
-14.661000 0.000000
-14.641300 0.000000
-14.621500 0.000200
-14.601800 0.042400
-14.582000 1.152500
-14.562300 2.235400
-14.542600 3.925700
-14.522800 5.259500
-14.503100 5.680500
-14.483400 5.920800
-14.463600 6.503000
-14.443900 6.340800
-14.424200 6.589400
-14.404400 6.822300
-14.384700 6.671100
-14.364900 6.215100
-14.345200 5.900000
-14.325500 5.594700
-14.305700 5.389100
-14.286000 3.620000
-14.266300 2.678300
-14.246500 2.069100
-14.226800 1.611800
-14.207100 1.473900
-14.187300 1.343700
-14.167600 1.221200
-14.147800 1.139500
-14.128100 1.252000
-14.108400 1.384000
-14.088600 1.509600
-14.068900 1.757400
-14.049200 2.294200
-14.029400 2.438000
-14.009700 2.605300
-13.990000 2.522900
-13.970200 2.279500
-13.950500 2.190200
-13.930700 2.192000
-13.911000 2.194300
-13.891300 2.197200
-13.871500 2.200700
-13.851800 2.235400
-13.832100 2.336800
-13.812300 2.435000
-13.792600 2.474900
-13.772800 2.440600
-13.753100 2.407500
-13.733400 2.415100
-13.713600 2.467600
-13.693900 2.560600
-13.674200 2.746000
-13.654400 2.983200
-13.634700 3.232200
-13.615000 3.488700
-13.595200 3.742600
-13.575500 4.163400
-13.555700 4.841000
-13.536000 5.012200
-13.516300 4.728700
-13.496500 4.311900
-13.476800 4.152300
-13.457100 3.990100
-13.437300 3.869700
-13.417600 3.712600
-13.397900 3.416100
-13.378100 3.236000
-13.358400 3.194500
-13.338600 3.173600
-13.318900 3.251100
-13.299200 3.428200
-13.279400 3.778500
-13.259700 4.268200
-13.240000 4.686900
-13.220200 4.938800
-13.200500 5.117700
-13.180800 5.173200
-13.161000 5.088600
-13.141300 4.879800
-13.121500 4.643100
-13.101800 4.373700
-13.082100 3.845200
-13.062300 3.254800
-13.042600 2.916500
-13.022900 2.861900
-13.003100 2.827700
-12.983400 2.800100
-12.963700 2.775600
-12.943900 2.751900
-12.924200 2.728700
-12.904400 2.706300
-12.884700 2.686800
-12.865000 2.676900
-12.845200 2.670500
-12.825500 2.668600
-12.805800 2.667800
-12.786000 2.666100
-12.766300 2.663100
-12.746500 2.691700
-12.726800 2.688200
-12.707100 2.678500
-12.687300 2.679600
-12.667600 2.695600
-12.647900 2.728700
-12.628100 2.903400
-12.608400 3.084900
-12.588700 3.147800
-12.568900 2.932100
-12.549200 2.761100
-12.529400 2.836000
-12.509700 2.917200
-12.490000 3.013700
-12.470200 3.300100
-12.450500 3.436600
-12.430800 3.321600
-12.411000 3.184700
-12.391300 3.026200
-12.371600 2.859100
-12.351800 2.744200
-12.332100 2.680600
-12.312300 2.615800
-12.292600 2.496400
-12.272900 2.411900
-12.253100 2.350700
-12.233400 2.492900
-12.213700 2.544500
-12.193900 2.403900
-12.174200 2.526300
-12.154500 2.145100
-12.134700 1.496500
-12.115000 0.846700
-12.095200 0.445400
-12.075500 0.605000
-12.055800 1.152600
-12.036000 1.654700
-12.016300 2.827100
-11.996600 5.252400
-11.976800 7.082100
-11.957100 9.265300
-11.937400 14.256600
-11.917600 12.466900
-11.897900 11.648000
-11.878100 15.402600
-11.858400 7.941500
-11.838700 6.861200
-11.818900 6.830400
-11.799200 7.041700
-11.779500 9.550500
-11.759700 9.576300
-11.740000 12.344700
-11.720200 17.194300
-11.700500 14.637400
-11.680800 13.904000
-11.661000 9.745600
-11.641300 4.072700
-11.621600 1.538200
-11.601800 0.717500
-11.582100 1.486200
-11.562400 3.204200
-11.542600 5.179000
-11.522900 7.774900
-11.503100 11.648300
-11.483400 14.416100
-11.463700 17.007200
-11.443900 16.785500
-11.424200 14.069200
-11.404500 11.943700
-11.384700 16.962200
-11.365000 15.836000
-11.345300 18.013600
-11.325500 18.943000
-11.305800 13.495300
-11.286000 8.443400
-11.266300 4.520500
-11.246600 2.317800
-11.226800 0.914400
-11.207100 0.208400
-11.187400 0.000000
-11.167600 0.000000
-11.147900 0.000000
-11.128200 0.000000
-11.108400 0.000000
-11.088700 0.000000
-11.068900 0.000000
-11.049200 0.000000
-11.029500 0.000000
-11.009700 0.000000
-10.990000 0.000000
-10.970300 0.000000
-10.950500 0.000000
-10.930800 0.000000
-10.911000 0.000000
-10.891300 0.000000
-10.871600 0.000000
-10.851800 0.000000
-10.832100 0.000000
-10.812400 0.000000
-10.792600 0.000000
-10.772900 0.000000
-10.753200 0.000000
-10.733400 0.000000
-10.713700 0.000000
-10.693900 0.000000
-10.674200 0.000000
-10.654500 0.000000
-10.634700 0.000000
-10.615000 0.000000
-10.595300 0.000000
-10.575500 0.000000
-10.555800 0.000000
-10.536100 0.000000
-10.516300 0.000000
-10.496600 0.000000
-10.476800 0.000000
-10.457100 0.000000
-10.437400 0.000000
-10.417600 0.000000
-10.397900 0.000000
-10.378200 0.000000
-10.358400 0.000000
-10.338700 0.000000
-10.319000 0.000000
-10.299200 0.000000
-10.279500 0.000000
-10.259700 0.000000
-10.240000 0.000000
-10.220300 0.000000
-10.200500 0.000000
-10.180800 0.000000
-10.161100 0.000000
-10.141300 0.000000
-10.121600 0.000000
-10.101900 0.000000
-10.082100 0.000000
-10.062400 0.000000
-10.042600 0.000000
-10.022900 0.000000
-10.003200 0.000000
-9.983400 0.000000
-9.963700 0.000000
-9.944000 0.000000
-9.924200 0.000000
-9.904500 0.000000
-9.884700 0.000000
-9.865000 0.001000
-9.845300 0.003500
-9.825500 0.007500
-9.805800 0.013100
-9.786100 0.020200
-9.766300 0.028800
-9.746600 0.039000
-9.726900 0.050700
-9.707100 0.063900
-9.687400 0.078700
-9.667600 0.095000
-9.647900 0.112900
-9.628200 0.132300
-9.608400 0.153200
-9.588700 0.175700
-9.569000 0.199700
-9.549200 0.225200
-9.529500 0.252300
-9.509800 0.280900
-9.490000 0.311000
-9.470300 0.342700
-9.450500 0.375900
-9.430800 0.410700
-9.411100 0.447000
-9.391300 0.484800
-9.371600 0.523500
-9.351900 0.566600
-9.332100 0.614100
-9.312400 0.666000
-9.292700 0.772100
-9.272900 0.909500
-9.253200 1.011400
-9.233400 1.104700
-9.213700 1.198300
-9.194000 1.288500
-9.174200 1.375300
-9.154500 1.458600
-9.134800 1.538600
-9.115000 1.615100
-9.095300 1.688300
-9.075600 1.758000
-9.055800 1.885200
-9.036100 1.991100
-9.016300 2.052500
-8.996600 2.069200
-8.976900 2.041400
-8.957100 1.969000
-8.937400 1.970300
-8.917700 1.984000
-8.897900 2.001900
-8.878200 2.025600
-8.858400 2.055100
-8.838700 2.092800
-8.819000 2.121200
-8.799200 2.052400
-8.779500 1.986700
-8.759800 1.932100
-8.740000 1.885700
-8.720300 1.846400
-8.700600 1.813900
-8.680800 1.786600
-8.661100 1.763700
-8.641300 1.762500
-8.621600 1.782500
-8.601900 1.820200
-8.582100 1.853900
-8.562400 1.865700
-8.542700 1.855200
-8.522900 1.822100
-8.503200 1.766600
-8.483500 1.689300
-8.463700 1.642600
-8.444000 1.645900
-8.424200 1.674100
-8.404500 1.704300
-8.384800 1.736500
-8.365000 1.769100
-8.345300 1.792400
-8.325600 1.817000
-8.305800 1.842900
-8.286100 1.870200
-8.266400 1.905500
-8.246600 1.949700
-8.226900 1.991900
-8.207100 2.037600
-8.187400 2.086200
-8.167700 2.136500
-8.147900 2.188400
-8.128200 2.336000
-8.108500 2.505800
-8.088700 2.638500
-8.069000 2.734000
-8.049300 2.792300
-8.029500 2.795100
-8.009800 2.772300
-7.990000 2.759700
-7.970300 2.786900
-7.950600 2.815400
-7.930800 2.820400
-7.911100 2.822300
-7.891400 2.820400
-7.871600 2.806800
-7.851900 2.775300
-7.832100 2.781800
-7.812400 2.853300
-7.792700 2.947000
-7.772900 2.787600
-7.753200 2.645200
-7.733500 2.576100
-7.713700 2.579700
-7.694000 2.597600
-7.674300 2.617800
-7.654500 2.631900
-7.634800 2.639100
-7.615000 2.639200
-7.595300 2.635800
-7.575600 2.685500
-7.555800 2.822200
-7.536100 3.011900
-7.516400 3.147300
-7.496600 3.212100
-7.476900 3.200900
-7.457200 3.313700
-7.437400 3.206400
-7.417700 3.125100
-7.397900 3.136200
-7.378200 3.128500
-7.358500 3.086500
-7.338700 2.910100
-7.319000 2.687000
-7.299300 2.430800
-7.279500 2.203400
-7.259800 2.057500
-7.240100 1.951700
-7.220300 1.866400
-7.200600 1.800700
-7.180800 1.752300
-7.161100 1.721200
-7.141400 1.707500
-7.121600 1.710900
-7.101900 1.722300
-7.082200 1.736700
-7.062400 1.760400
-7.042700 1.852800
-7.023000 1.916200
-7.003200 1.967400
-6.983500 2.011300
-6.963700 2.048300
-6.944000 2.079200
-6.924300 2.108900
-6.904500 2.140700
-6.884800 2.168300
-6.865100 2.205100
-6.845300 2.253600
-6.825600 2.263100
-6.805800 2.277700
-6.786100 2.416400
-6.766400 2.408600
-6.746600 2.359200
-6.726900 2.284100
-6.707200 2.181400
-6.687400 2.075000
-6.667700 2.002800
-6.648000 1.970500
-6.628200 1.977300
-6.608500 1.986000
-6.588700 1.984500
-6.569000 1.972500
-6.549300 1.950300
-6.529500 1.940400
-6.509800 1.963100
-6.490100 1.985100
-6.470300 2.006300
-6.450600 2.026800
-6.430900 2.046500
-6.411100 2.052700
-6.391400 2.055800
-6.371600 2.072100
-6.351900 2.089000
-6.332200 2.131500
-6.312400 2.177500
-6.292700 2.224400
-6.273000 2.273800
-6.253200 2.344800
-6.233500 2.430000
-6.213800 2.519500
-6.194000 2.694100
-6.174300 3.041100
-6.154500 3.528000
-6.134800 4.032200
-6.115100 4.462100
-6.095300 4.676300
-6.075600 4.709000
-6.055900 4.696200
-6.036100 4.663800
-6.016400 3.153600
-5.996700 2.834800
-5.976900 2.558100
-5.957200 2.319200
-5.937400 2.110500
-5.917700 1.926200
-5.898000 1.770200
-5.878200 1.642300
-5.858500 1.408600
-5.838800 1.181500
-5.819000 1.007300
-5.799300 0.885300
-5.779500 0.813300
-5.759800 0.786500
-5.740100 0.800300
-5.720300 0.853100
-5.700600 0.932800
-5.680900 1.045300
-5.661100 1.219100
-5.641400 1.468600
-5.621700 1.937500
-5.601900 2.610600
-5.582200 3.379500
-5.562400 4.227500
-5.542700 4.803500
-5.523000 4.919000
-5.503200 4.981300
-5.483500 4.966100
-5.463800 4.842700
-5.444000 4.549000
-5.424300 4.030800
-5.404600 3.650300
-5.384800 3.407700
-5.365100 3.290800
-5.345300 3.208000
-5.325600 3.140700
-5.305900 3.101300
-5.286100 3.100300
-5.266400 3.230800
-5.246700 3.355100
-5.226900 3.457600
-5.207200 3.538500
-5.187500 3.598000
-5.167700 3.677000
-5.148000 3.780700
-5.128200 3.927500
-5.108500 4.147800
-5.088800 4.417300
-5.069000 4.652300
-5.049300 4.825100
-5.029600 5.063300
-5.009800 4.571100
-4.990100 4.434600
-4.970400 4.355200
-4.950600 4.431100
-4.930900 4.511600
-4.911100 4.822300
-4.891400 5.742800
-4.871700 5.748600
-4.851900 5.206100
-4.832200 4.538900
-4.812500 3.926200
-4.792700 3.550200
-4.773000 3.312800
-4.753200 3.124400
-4.733500 2.904200
-4.713800 2.619900
-4.694000 2.278600
-4.674300 1.880600
-4.654600 1.372400
-4.634800 0.961600
-4.615100 0.610400
-4.595400 0.402200
-4.575600 0.400800
-4.555900 0.730500
-4.536100 1.209900
-4.516400 1.985200
-4.496700 3.669700
-4.476900 5.242900
-4.457200 4.862600
-4.437500 5.633900
-4.417700 6.585000
-4.398000 7.880700
-4.378300 9.808900
-4.358500 11.940700
-4.338800 8.247200
-4.319000 6.129700
-4.299300 5.015700
-4.279600 4.878400
-4.259800 5.170600
-4.240100 5.826500
-4.220400 6.582200
-4.200600 7.246600
-4.180900 7.935800
-4.161200 8.579100
-4.141400 8.972400
-4.121700 7.477700
-4.101900 5.732800
-4.082200 4.978900
-4.062500 4.732700
-4.042700 4.664700
-4.023000 4.771000
-4.003300 4.991500
-3.983500 5.185700
-3.963800 5.348500
-3.944100 5.457900
-3.924300 5.149600
-3.904600 4.022500
-3.884800 2.799100
-3.865100 1.537300
-3.845400 0.451200
-3.825600 0.205800
-3.805900 0.059400
-3.786200 0.004000
-3.766400 0.000000
-3.746700 0.002500
-3.726900 0.015200
-3.707200 0.038800
-3.687500 0.073200
-3.667700 0.118400
-3.648000 0.174500
-3.628300 0.241400
-3.608500 0.319100
-3.588800 0.407700
-3.569100 0.507000
-3.549300 1.395100
-3.529600 2.285700
-3.509800 2.827400
-3.490100 3.290000
-3.470400 3.536600
-3.450600 3.466700
-3.430900 3.130900
-3.411200 3.106500
-3.391400 3.252300
-3.371700 3.504800
-3.352000 3.915400
-3.332200 4.388000
-3.312500 4.905400
-3.292700 5.478000
-3.273000 6.421700
-3.253300 7.766100
-3.233500 10.275000
-3.213800 13.487700
-3.194100 12.773000
-3.174300 9.877700
-3.154600 8.084100
-3.134900 6.284600
-3.115100 5.525500
-3.095400 4.392600
-3.075600 4.735700
-3.055900 5.400800
-3.036200 6.135400
-3.016400 6.407200
-2.996700 6.571200
-2.977000 6.803300
-2.957200 7.498700
-2.937500 10.011200
-2.917800 8.367900
-2.898000 7.482800
-2.878300 6.210700
-2.858500 5.885200
-2.838800 5.827000
-2.819100 5.115400
-2.799300 5.525500
-2.779600 6.216400
-2.759900 6.875800
-2.740100 7.638600
-2.720400 8.156300
-2.700600 8.571300
-2.680900 9.498200
-2.661200 9.682300
-2.641400 9.101200
-2.621700 7.097500
-2.602000 4.665500
-2.582200 4.740500
-2.562500 3.591600
-2.542800 2.873400
-2.523000 2.978500
-2.503300 3.300600
-2.483500 4.438700
-2.463800 7.089900
-2.444100 10.465600
-2.424300 13.063000
-2.404600 14.118100
-2.384900 12.552400
-2.365100 7.649800
-2.345400 3.625300
-2.325700 1.618200
-2.305900 0.892500
-2.286200 0.678500
-2.266400 0.655400
-2.246700 1.081300
-2.227000 2.456900
-2.207200 3.964100
-2.187500 5.401300
-2.167800 7.549900
-2.148000 9.941700
-2.128300 11.856000
-2.108600 14.117000
-2.088800 12.704700
-2.069100 7.599300
-2.049300 5.974000
-2.029600 5.437700
-2.009900 6.672800
-1.990100 8.236100
-1.970400 10.799900
-1.950700 12.319900
-1.930900 12.873500
-1.911200 12.708200
-1.891500 13.638500
-1.871700 10.620100
-1.852000 7.387700
-1.832200 5.390100
-1.812500 3.923800
-1.792800 3.079300
-1.773000 2.429400
-1.753300 1.951500
-1.733600 0.995500
-1.713800 0.374900
-1.694100 0.137200
-1.674300 0.029900
-1.654600 0.000000
-1.634900 0.000000
-1.615100 0.000000
-1.595400 0.000000
-1.575700 0.000000
-1.555900 0.000000
-1.536200 0.000000
-1.516500 0.000000
-1.496700 0.000000
-1.477000 0.000000
-1.457200 0.000000
-1.437500 0.000000
-1.417800 0.000000
-1.398000 0.000000
-1.378300 0.000000
-1.358600 0.000000
-1.338800 0.000000
-1.319100 0.000000
-1.299400 0.000000
-1.279600 0.000000
-1.259900 0.000000
-1.240100 0.000000
-1.220400 0.000000
-1.200700 0.000000
-1.180900 0.000000
-1.161200 0.000000
-1.141500 0.000000
-1.121700 0.000000
-1.102000 0.000000
-1.082300 0.000000
-1.062500 0.000000
-1.042800 0.000000
-1.023000 0.000000
-1.003300 0.000000
-0.983600 0.000000
-0.963800 0.000000
-0.944100 0.000000
-0.924400 0.000000
-0.904600 0.000000
-0.884900 0.000000
-0.865200 0.000000
-0.845400 0.000000
-0.825700 0.000000
-0.805900 0.000000
-0.786200 0.000000
-0.766500 0.000000
-0.746700 0.000000
-0.727000 0.000000
-0.707300 0.000000
-0.687500 0.000000
-0.667800 0.000000
-0.648000 0.000000
-0.628300 0.000000
-0.608600 0.000000
-0.588800 0.000000
-0.569100 0.000000
-0.549400 0.000000
-0.529600 0.000000
-0.509900 0.000000
-0.490200 0.000000
-0.470400 0.000000
-0.450700 0.000000
-0.430900 0.000000
-0.411200 0.000000
-0.391500 0.000000
-0.371700 0.077800
-0.352000 2.271500
-0.332300 10.420500
-0.312500 11.448100
-0.292800 10.818400
-0.273100 9.644500
-0.253300 9.235200
-0.233600 6.510600
-0.213800 5.205700
-0.194100 6.265800
-0.174400 7.711700
-0.154600 8.389400
-0.134900 8.608300
-0.115200 8.503300
-0.095400 7.958000
-0.075700 7.490200
-0.056000 7.263000
-0.036200 7.095000
-0.016500 6.954300
0.003300 6.831800
0.023000 6.788300
0.042700 6.680800
0.062500 5.678100
0.082200 5.522700
0.101900 5.529500
0.121700 5.567700
0.141400 5.582000
0.161100 6.345000
0.180900 8.126700
0.200600 10.411600
0.220400 13.968400
0.240100 11.423500
0.259800 9.428700
0.279600 7.668200
0.299300 6.743300
0.319000 5.767500
0.338800 4.994000
0.358500 4.568800
0.378300 4.636900
0.398000 4.882100
0.417700 5.295600
0.437500 5.469700
0.457200 5.598500
0.476900 5.596200
0.496700 5.516200
0.516400 5.582000
0.536100 8.646800
0.555900 7.652300
0.575600 6.531100
0.595400 6.532800
0.615100 7.767400
0.634800 7.993900
0.654600 9.040600
0.674300 9.694700
0.694000 8.936000
0.713800 8.634000
0.733500 7.832400
0.753200 6.159500
0.773000 3.448800
0.792700 2.829600
0.812500 2.666200
0.832200 2.567300
0.851900 3.236800
0.871700 4.734600
0.891400 5.632100
0.911100 6.480500
0.930900 7.092200
0.950600 7.580600
0.970300 8.077500
0.990100 9.408000
1.009800 11.102200
1.029600 11.438600
1.049300 10.194400
1.069000 7.692600
1.088800 6.394500
1.108500 8.084600
1.128200 10.365500
1.148000 10.872200
1.167700 10.774700
1.187400 9.698200
1.207200 8.424900
1.226900 6.621900
1.246700 5.794900
1.266400 5.469800
1.286100 5.792800
1.305900 6.504800
1.325600 9.289700
1.345300 8.956100
1.365100 9.097900
1.384800 11.065900
1.404600 11.991100
1.424300 13.045600
1.444000 12.735500
1.463800 11.868100
1.483500 10.688300
1.503200 9.210300
1.523000 7.631100
1.542700 7.997400
1.562400 10.539200
1.582200 11.843700
1.601900 12.539600
1.621700 12.851600
1.641400 12.257500
1.661100 10.504300
1.680900 7.814500
1.700600 6.620900
1.720300 7.093400
1.740100 6.462200
1.759800 6.905600
1.779500 7.812100
1.799300 8.963300
