set title 'mp-7754 - Density of States'
set xlabel 'Energy (eV)'
set ylabel 'DOS (states/eV)'
set grid
set xrange [-10:10]
set yrange [0:4.859]
set xzeroaxis lt -1
set terminal png size 800,600
set output 'mp-7754_dos_gnuplot.png'
plot '-' using 1:2 with lines title 'DOS'
-38.103200 0.000000
-38.057000 0.000000
-38.010800 0.000000
-37.964600 0.000000
-37.918400 0.000000
-37.872300 0.000000
-37.826100 0.000000
-37.779900 0.000000
-37.733700 0.000000
-37.687500 0.000000
-37.641400 0.000000
-37.595200 0.000000
-37.549000 0.000000
-37.502800 0.000000
-37.456600 0.000000
-37.410400 0.000000
-37.364300 0.000000
-37.318100 0.000000
-37.271900 0.000000
-37.225700 0.000000
-37.179500 0.000000
-37.133400 0.000000
-37.087200 0.000000
-37.041000 0.000000
-36.994800 0.000000
-36.948600 0.000000
-36.902500 0.000000
-36.856300 0.000000
-36.810100 0.000000
-36.763900 0.000000
-36.717700 0.000000
-36.671600 0.000000
-36.625400 0.000000
-36.579200 0.000000
-36.533000 0.000000
-36.486800 0.000000
-36.440700 0.000000
-36.394500 0.000000
-36.348300 0.000000
-36.302100 0.000000
-36.255900 0.000000
-36.209700 0.000000
-36.163600 0.000000
-36.117400 0.000000
-36.071200 0.000000
-36.025000 0.000000
-35.978800 0.000000
-35.932700 0.000000
-35.886500 0.000000
-35.840300 0.000000
-35.794100 0.000000
-35.747900 0.000000
-35.701800 0.000000
-35.655600 0.000000
-35.609400 0.000000
-35.563200 0.000000
-35.517000 0.000000
-35.470900 0.000000
-35.424700 0.000000
-35.378500 0.000000
-35.332300 0.000000
-35.286100 0.000000
-35.239900 0.000000
-35.193800 0.000000
-35.147600 0.000000
-35.101400 0.000000
-35.055200 0.000000
-35.009000 0.000000
-34.962900 0.000000
-34.916700 0.000000
-34.870500 0.000000
-34.824300 0.000000
-34.778100 0.000000
-34.732000 0.000000
-34.685800 0.000000
-34.639600 0.000000
-34.593400 0.000000
-34.547200 0.000000
-34.501100 0.000000
-34.454900 0.000000
-34.408700 0.000000
-34.362500 0.000000
-34.316300 0.000000
-34.270100 0.000000
-34.224000 0.000000
-34.177800 0.000000
-34.131600 0.000000
-34.085400 0.000000
-34.039200 0.000000
-33.993100 0.000000
-33.946900 0.000000
-33.900700 11.520300
-33.854500 15.675200
-33.808300 9.471200
-33.762200 8.375600
-33.716000 8.305600
-33.669800 10.765000
-33.623600 12.183300
-33.577400 16.520600
-33.531300 20.598500
-33.485100 23.480700
-33.438900 0.000000
-33.392700 0.000000
-33.346500 0.000000
-33.300400 0.000000
-33.254200 0.000000
-33.208000 0.000000
-33.161800 0.000000
-33.115600 0.000000
-33.069400 0.000000
-33.023300 0.000000
-32.977100 0.000000
-32.930900 0.000000
-32.884700 0.000000
-32.838500 0.000000
-32.792400 0.000000
-32.746200 0.000000
-32.700000 0.000000
-32.653800 0.000000
-32.607600 0.000000
-32.561500 0.000000
-32.515300 0.000000
-32.469100 0.000000
-32.422900 0.000000
-32.376700 0.000000
-32.330600 0.000000
-32.284400 0.000000
-32.238200 0.000000
-32.192000 0.000000
-32.145800 0.000000
-32.099600 0.000000
-32.053500 0.000000
-32.007300 0.000000
-31.961100 0.000000
-31.914900 0.000000
-31.868700 0.000000
-31.822600 0.000000
-31.776400 0.000000
-31.730200 0.000000
-31.684000 0.000000
-31.637800 0.000000
-31.591700 0.000000
-31.545500 0.000000
-31.499300 0.000000
-31.453100 0.000000
-31.406900 0.000000
-31.360800 0.000000
-31.314600 0.000000
-31.268400 0.000000
-31.222200 0.000000
-31.176000 0.000000
-31.129800 0.000000
-31.083700 0.000000
-31.037500 0.000000
-30.991300 0.000000
-30.945100 0.000000
-30.898900 0.000000
-30.852800 0.000000
-30.806600 0.000000
-30.760400 0.000000
-30.714200 0.000000
-30.668000 0.000000
-30.621900 0.000000
-30.575700 0.000000
-30.529500 0.000000
-30.483300 0.000000
-30.437100 0.000000
-30.391000 0.000000
-30.344800 0.000000
-30.298600 0.000000
-30.252400 0.000000
-30.206200 0.000000
-30.160000 0.000000
-30.113900 0.000000
-30.067700 0.000000
-30.021500 0.000000
-29.975300 0.000000
-29.929100 0.000000
-29.883000 0.000000
-29.836800 0.000000
-29.790600 0.000000
-29.744400 0.000000
-29.698200 0.000000
-29.652100 0.000000
-29.605900 0.000000
-29.559700 0.000000
-29.513500 0.000000
-29.467300 0.000000
-29.421200 0.000000
-29.375000 0.000000
-29.328800 0.000000
-29.282600 0.000000
-29.236400 0.000000
-29.190300 0.000000
-29.144100 0.000000
-29.097900 0.000000
-29.051700 0.000000
-29.005500 0.000000
-28.959300 0.000000
-28.913200 0.000000
-28.867000 0.000000
-28.820800 0.000000
-28.774600 0.000000
-28.728400 0.000000
-28.682300 0.000000
-28.636100 0.000000
-28.589900 0.000000
-28.543700 0.000000
-28.497500 0.000000
-28.451400 0.000000
-28.405200 0.000000
-28.359000 0.000000
-28.312800 0.000000
-28.266600 0.000000
-28.220500 0.000000
-28.174300 0.000000
-28.128100 0.000000
-28.081900 0.000000
-28.035700 0.000000
-27.989500 0.000000
-27.943400 0.000000
-27.897200 0.000000
-27.851000 0.000000
-27.804800 0.000000
-27.758600 0.000000
-27.712500 0.000000
-27.666300 0.000000
-27.620100 0.000000
-27.573900 0.000000
-27.527700 0.000000
-27.481600 0.000000
-27.435400 0.000000
-27.389200 0.000000
-27.343000 0.000000
-27.296800 0.000000
-27.250700 0.000000
-27.204500 0.000000
-27.158300 0.000000
-27.112100 0.000000
-27.065900 0.000000
-27.019700 0.000000
-26.973600 0.000000
-26.927400 0.000000
-26.881200 0.000000
-26.835000 0.000000
-26.788800 0.000000
-26.742700 0.000000
-26.696500 0.000000
-26.650300 0.000000
-26.604100 0.000000
-26.557900 0.000000
-26.511800 0.000000
-26.465600 0.000000
-26.419400 0.000000
-26.373200 0.000000
-26.327000 0.000000
-26.280900 0.000000
-26.234700 0.000000
-26.188500 0.000000
-26.142300 0.000000
-26.096100 0.000000
-26.049900 0.000000
-26.003800 0.000000
-25.957600 0.000000
-25.911400 0.000000
-25.865200 0.000000
-25.819000 0.000000
-25.772900 0.000000
-25.726700 0.000000
-25.680500 0.000000
-25.634300 0.000000
-25.588100 0.000000
-25.542000 0.000000
-25.495800 0.000000
-25.449600 0.000000
-25.403400 0.000000
-25.357200 0.000000
-25.311100 0.000000
-25.264900 0.000000
-25.218700 0.000000
-25.172500 0.000000
-25.126300 0.000000
-25.080200 0.000000
-25.034000 0.000000
-24.987800 0.000000
-24.941600 0.000000
-24.895400 0.000000
-24.849200 0.000000
-24.803100 0.000000
-24.756900 0.000000
-24.710700 0.000000
-24.664500 0.000000
-24.618300 0.000000
-24.572200 0.000000
-24.526000 0.000000
-24.479800 0.000000
-24.433600 0.000000
-24.387400 0.000000
-24.341300 0.000000
-24.295100 0.000000
-24.248900 0.000000
-24.202700 0.000000
-24.156500 0.000000
-24.110400 0.000000
-24.064200 0.000000
-24.018000 0.000000
-23.971800 0.000000
-23.925600 0.000000
-23.879400 0.000000
-23.833300 0.000000
-23.787100 0.000000
-23.740900 0.000000
-23.694700 0.000000
-23.648500 0.000000
-23.602400 0.000000
-23.556200 0.000000
-23.510000 0.000000
-23.463800 0.000000
-23.417600 0.000000
-23.371500 0.000000
-23.325300 0.000000
-23.279100 0.000000
-23.232900 0.000000
-23.186700 0.000000
-23.140600 0.000000
-23.094400 0.000000
-23.048200 0.000000
-23.002000 0.000000
-22.955800 0.000000
-22.909600 0.000000
-22.863500 0.000000
-22.817300 0.000000
-22.771100 0.000000
-22.724900 0.000000
-22.678700 0.000000
-22.632600 0.000000
-22.586400 0.000000
-22.540200 0.000000
-22.494000 0.000000
-22.447800 0.000000
-22.401700 0.000000
-22.355500 0.000000
-22.309300 0.000000
-22.263100 0.000000
-22.216900 0.000000
-22.170800 0.000000
-22.124600 0.000000
-22.078400 0.000000
-22.032200 0.000000
-21.986000 0.000000
-21.939800 0.000000
-21.893700 0.000000
-21.847500 0.000000
-21.801300 0.000000
-21.755100 0.000000
-21.708900 0.000000
-21.662800 0.000000
-21.616600 0.000000
-21.570400 0.000000
-21.524200 0.000000
-21.478000 0.000000
-21.431900 0.000000
-21.385700 0.000000
-21.339500 0.000000
-21.293300 0.000000
-21.247100 0.000000
-21.201000 0.000000
-21.154800 0.000000
-21.108600 0.000000
-21.062400 0.000000
-21.016200 0.000000
-20.970100 0.000000
-20.923900 0.000000
-20.877700 0.000000
-20.831500 0.000000
-20.785300 0.000000
-20.739100 0.000000
-20.693000 0.000000
-20.646800 0.000000
-20.600600 0.000000
-20.554400 0.000000
-20.508200 0.000000
-20.462100 0.000000
-20.415900 0.000000
-20.369700 0.000000
-20.323500 0.000000
-20.277300 0.000000
-20.231200 0.000000
-20.185000 0.000000
-20.138800 0.000000
-20.092600 0.000000
-20.046400 0.000000
-20.000300 0.000000
-19.954100 0.000000
-19.907900 0.000000
-19.861700 0.000000
-19.815500 0.000000
-19.769300 0.000000
-19.723200 0.000000
-19.677000 0.000000
-19.630800 0.000000
-19.584600 0.000000
-19.538400 0.000000
-19.492300 0.000000
-19.446100 0.000000
-19.399900 0.000000
-19.353700 0.000000
-19.307500 0.000000
-19.261400 0.000000
-19.215200 0.000000
-19.169000 0.000000
-19.122800 0.000000
-19.076600 0.000000
-19.030500 0.000000
-18.984300 0.000000
-18.938100 0.000000
-18.891900 0.000000
-18.845700 0.000000
-18.799500 0.000000
-18.753400 0.000000
-18.707200 0.000000
-18.661000 0.000000
-18.614800 0.000000
-18.568600 0.000000
-18.522500 0.000000
-18.476300 0.000000
-18.430100 0.000000
-18.383900 0.000000
-18.337700 0.000000
-18.291600 0.000000
-18.245400 0.000000
-18.199200 0.000000
-18.153000 0.000000
-18.106800 0.000000
-18.060700 0.000000
-18.014500 0.000000
-17.968300 0.000000
-17.922100 0.000000
-17.875900 0.000000
-17.829800 0.000000
-17.783600 0.000000
-17.737400 0.000000
-17.691200 0.000000
-17.645000 0.000000
-17.598800 0.000000
-17.552700 0.000000
-17.506500 0.000000
-17.460300 0.000000
-17.414100 0.000000
-17.367900 0.000000
-17.321800 0.000000
-17.275600 0.000000
-17.229400 0.000000
-17.183200 0.000000
-17.137000 0.000000
-17.090900 0.000000
-17.044700 0.000000
-16.998500 0.000000
-16.952300 0.000000
-16.906100 0.000000
-16.860000 0.000000
-16.813800 0.000000
-16.767600 0.000000
-16.721400 0.000000
-16.675200 0.000000
-16.629000 0.000000
-16.582900 0.000000
-16.536700 0.000000
-16.490500 0.000000
-16.444300 0.000000
-16.398100 0.000000
-16.352000 0.000000
-16.305800 0.000000
-16.259600 0.000000
-16.213400 0.000000
-16.167200 0.000000
-16.121100 0.000000
-16.074900 0.000000
-16.028700 0.000000
-15.982500 0.000000
-15.936300 0.000000
-15.890200 0.000000
-15.844000 0.000000
-15.797800 0.000000
-15.751600 0.000000
-15.705400 0.000000
-15.659200 0.000000
-15.613100 0.000000
-15.566900 0.000000
-15.520700 0.000000
-15.474500 0.000000
-15.428300 0.000000
-15.382200 0.000000
-15.336000 0.000000
-15.289800 0.000000
-15.243600 0.000000
-15.197400 0.000000
-15.151300 0.000000
-15.105100 0.000000
-15.058900 0.000000
-15.012700 0.000000
-14.966500 0.000000
-14.920400 0.000000
-14.874200 0.000000
-14.828000 0.000000
-14.781800 0.000000
-14.735600 0.000000
-14.689400 0.000000
-14.643300 0.000000
-14.597100 0.000000
-14.550900 0.000000
-14.504700 0.000000
-14.458500 0.000000
-14.412400 0.000000
-14.366200 0.000000
-14.320000 0.000000
-14.273800 0.000000
-14.227600 0.000000
-14.181500 0.000000
-14.135300 0.000000
-14.089100 0.000000
-14.042900 0.000000
-13.996700 0.000000
-13.950600 0.000000
-13.904400 0.000000
-13.858200 0.000000
-13.812000 0.000000
-13.765800 0.000000
-13.719700 0.000000
-13.673500 0.000000
-13.627300 0.000000
-13.581100 0.000000
-13.534900 0.000000
-13.488700 0.000000
-13.442600 0.000000
-13.396400 0.000000
-13.350200 0.000000
-13.304000 0.000000
-13.257800 0.000000
-13.211700 0.000000
-13.165500 0.000000
-13.119300 0.000000
-13.073100 0.000000
-13.026900 0.000000
-12.980800 0.000000
-12.934600 0.000000
-12.888400 0.000000
-12.842200 0.000000
-12.796000 0.000000
-12.749900 0.000000
-12.703700 0.000000
-12.657500 0.000000
-12.611300 0.000000
-12.565100 0.000000
-12.518900 0.000000
-12.472800 0.000000
-12.426600 0.000000
-12.380400 0.000000
-12.334200 0.000000
-12.288000 0.000000
-12.241900 0.000000
-12.195700 0.000000
-12.149500 0.000000
-12.103300 0.000000
-12.057100 0.000000
-12.011000 0.000000
-11.964800 0.000000
-11.918600 0.000000
-11.872400 0.000000
-11.826200 0.000000
-11.780100 0.000000
-11.733900 0.000000
-11.687700 0.000000
-11.641500 0.000000
-11.595300 0.000000
-11.549100 0.000000
-11.503000 0.000000
-11.456800 0.000000
-11.410600 0.000000
-11.364400 0.000000
-11.318200 0.000000
-11.272100 0.000000
-11.225900 0.000000
-11.179700 0.000000
-11.133500 0.000000
-11.087300 0.000000
-11.041200 0.000000
-10.995000 0.000000
-10.948800 0.000000
-10.902600 0.000000
-10.856400 0.000000
-10.810300 0.000000
-10.764100 0.000000
-10.717900 0.000000
-10.671700 0.000000
-10.625500 0.000000
-10.579300 0.000000
-10.533200 0.000000
-10.487000 0.000000
-10.440800 0.000000
-10.394600 0.000000
-10.348400 0.000000
-10.302300 0.000000
-10.256100 0.000000
-10.209900 0.000000
-10.163700 0.000000
-10.117500 0.000000
-10.071400 0.000000
-10.025200 0.000000
-9.979000 0.000000
-9.932800 0.000000
-9.886600 0.000000
-9.840500 0.000000
-9.794300 0.000000
-9.748100 0.000000
-9.701900 0.000000
-9.655700 0.000000
-9.609600 0.000000
-9.563400 0.000000
-9.517200 0.000000
-9.471000 0.000000
-9.424800 0.000000
-9.378600 0.000000
-9.332500 0.000000
-9.286300 0.000000
-9.240100 0.000000
-9.193900 0.000000
-9.147700 0.000000
-9.101600 0.000000
-9.055400 0.000000
-9.009200 0.000000
-8.963000 0.000000
-8.916800 0.000000
-8.870700 0.000000
-8.824500 0.000000
-8.778300 0.000000
-8.732100 0.000000
-8.685900 0.000000
-8.639800 0.000000
-8.593600 0.000000
-8.547400 0.000000
-8.501200 0.000000
-8.455000 0.000000
-8.408800 0.000000
-8.362700 0.000000
-8.316500 0.000000
-8.270300 0.000000
-8.224100 0.000000
-8.177900 0.000000
-8.131800 0.000000
-8.085600 0.000000
-8.039400 0.000000
-7.993200 0.000000
-7.947000 0.000000
-7.900900 0.000000
-7.854700 0.000000
-7.808500 0.000000
-7.762300 0.000000
-7.716100 0.000000
-7.670000 0.000000
-7.623800 0.000000
-7.577600 0.000000
-7.531400 0.000000
-7.485200 0.000000
-7.439000 0.000000
-7.392900 0.000000
-7.346700 0.000000
-7.300500 0.000000
-7.254300 0.000000
-7.208100 0.000000
-7.162000 0.000000
-7.115800 0.000000
-7.069600 0.000000
-7.023400 0.000000
-6.977200 0.000000
-6.931100 0.000000
-6.884900 0.000000
-6.838700 0.000000
-6.792500 0.000000
-6.746300 0.000000
-6.700200 0.000000
-6.654000 0.000000
-6.607800 0.000000
-6.561600 0.000000
-6.515400 0.000000
-6.469200 0.000000
-6.423100 0.000000
-6.376900 0.000000
-6.330700 0.000000
-6.284500 0.000000
-6.238300 0.000000
-6.192200 0.000000
-6.146000 0.000000
-6.099800 0.000000
-6.053600 0.000000
-6.007400 0.000000
-5.961300 0.000000
-5.915100 0.000000
-5.868900 0.000000
-5.822700 0.000000
-5.776500 0.000000
-5.730400 0.000000
-5.684200 0.000000
-5.638000 0.000000
-5.591800 0.000000
-5.545600 0.000000
-5.499500 0.000000
-5.453300 0.000000
-5.407100 0.000000
-5.360900 0.000000
-5.314700 0.000000
-5.268500 0.000000
-5.222400 0.000000
-5.176200 0.000000
-5.130000 0.000000
-5.083800 0.000000
-5.037600 0.000000
-4.991500 0.000000
-4.945300 0.000000
-4.899100 0.000000
-4.852900 0.000000
-4.806700 0.000000
-4.760600 0.000000
-4.714400 0.000000
-4.668200 0.000000
-4.622000 0.000000
-4.575800 0.000000
-4.529700 0.000000
-4.483500 0.000000
-4.437300 0.000000
-4.391100 0.000000
-4.344900 0.000000
-4.298700 0.000000
-4.252600 0.000000
-4.206400 0.000000
-4.160200 0.000000
-4.114000 0.000000
-4.067800 0.000000
-4.021700 0.000000
-3.975500 0.000000
-3.929300 0.000000
-3.883100 0.000000
-3.836900 0.000000
-3.790800 0.000000
-3.744600 0.000000
-3.698400 0.000000
-3.652200 0.000000
-3.606000 0.000000
-3.559900 0.022700
-3.513700 0.077300
-3.467500 0.095000
-3.421300 0.105700
-3.375100 0.128500
-3.328900 0.152300
-3.282800 0.163300
-3.236600 0.168900
-3.190400 0.180900
-3.144200 0.193400
-3.098000 0.205600
-3.051900 0.218400
-3.005700 0.232200
-2.959500 0.241200
-2.913300 0.248400
-2.867100 0.257100
-2.821000 0.265800
-2.774800 0.274200
-2.728600 0.283800
-2.682400 0.294500
-2.636200 0.305600
-2.590100 0.316700
-2.543900 0.325200
-2.497700 0.359700
-2.451500 0.377900
-2.405300 0.369000
-2.359100 0.376400
-2.313000 0.383300
-2.266800 0.383900
-2.220600 0.384000
-2.174400 0.388200
-2.128200 0.392200
-2.082100 0.396100
-2.035900 0.400000
-1.989700 0.401900
-1.943500 0.403700
-1.897300 0.450200
-1.851200 0.464500
-1.805000 0.467500
-1.758800 0.482300
-1.712600 0.495700
-1.666400 0.498000
-1.620300 0.507000
-1.574100 0.519000
-1.527900 0.531100
-1.481700 0.543600
-1.435500 0.555700
-1.389400 0.562800
-1.343200 0.573200
-1.297000 0.583800
-1.250800 0.594800
-1.204600 0.607600
-1.158400 0.620600
-1.112300 0.634300
-1.066100 0.648400
-1.019900 0.660500
-0.973700 0.672500
-0.927500 0.685900
-0.881400 0.699700
-0.835200 0.716500
-0.789000 0.739000
-0.742800 0.762300
-0.696600 0.787200
-0.650500 0.813500
-0.604300 0.840900
-0.558100 0.872800
-0.511900 0.910600
-0.465700 0.948400
-0.419600 0.981600
-0.373400 1.016000
-0.327200 1.678700
-0.281000 1.222500
-0.234800 1.094500
-0.188600 1.035600
-0.142500 0.993900
-0.096300 0.956000
-0.050100 0.944400
-0.003900 0.942400
0.042300 0.943800
0.088400 0.949700
0.134600 0.951600
0.180800 0.958300
0.227000 1.001100
0.273200 1.036400
0.319300 1.108700
0.365500 1.294000
0.411700 1.073800
0.457900 1.037400
0.504100 0.959500
0.550200 0.955400
0.596400 0.951200
0.642600 0.993400
0.688800 1.005000
0.735000 1.059200
0.781200 1.129600
0.827300 0.838700
0.873500 0.700400
0.919700 0.750700
0.965900 0.802100
1.012100 0.853700
1.058200 0.904800
1.104400 0.958800
1.150600 1.002000
1.196800 1.086200
1.243000 1.148200
1.289100 1.209900
1.335300 1.439600
1.381500 1.286300
1.427700 1.281700
1.473900 1.268200
1.520000 0.932100
1.566200 0.842100
1.612400 0.744400
1.658600 0.667500
1.704800 0.621800
1.750900 0.582200
1.797100 0.542200
1.843300 0.509100
1.889500 0.480800
1.935700 0.459600
1.981900 0.441400
2.028000 0.468400
2.074200 0.500100
2.120400 0.481400
2.166600 0.478700
2.212800 0.485400
2.258900 0.492900
2.305100 0.492900
2.351300 0.493800
2.397500 0.501300
2.443700 0.510700
2.489800 0.519900
2.536000 0.530400
2.582200 0.543100
2.628400 0.555400
2.674600 0.565900
2.720700 0.579600
2.766900 0.596000
2.813100 0.648000
2.859300 0.629700
2.905500 0.645000
2.951700 0.656500
2.997800 0.668000
3.044000 0.676600
3.090200 0.686900
3.136400 0.713600
3.182600 0.743100
3.228700 0.784700
3.274900 0.836900
3.321100 1.017800
3.367300 1.202900
3.413500 1.378200
3.459600 1.569800
3.505800 1.700200
3.552000 1.848200
3.598200 1.954200
3.644400 1.839800
3.690500 1.624700
3.736700 1.569500
3.782900 1.526100
3.829100 1.384700
3.875300 1.050800
3.921500 0.952400
3.967600 1.214600
4.013800 1.330300
4.060000 1.497200
4.106200 1.811300
4.152400 1.986000
4.198500 2.133800
4.244700 2.289800
4.290900 2.445400
4.337100 2.727400
4.383300 2.906600
4.429400 3.488000
4.475600 3.773400
4.521800 4.128400
4.568000 4.417200
4.614200 3.865100
4.660300 3.136800
4.706500 2.769100
4.752700 2.449500
4.798900 2.193300
4.845100 2.028300
4.891300 1.977600
4.937400 1.883100
4.983600 1.683400
5.029800 1.424700
5.076000 1.198000
5.122200 1.122500
5.168300 1.043800
5.214500 1.148400
5.260700 1.342800
5.306900 1.522100
5.353100 1.977200
5.399200 2.124800
5.445400 2.266000
5.491600 3.551700
5.537800 2.159200
5.584000 1.999900
5.630100 1.951400
5.676300 1.691100
5.722500 1.557200
5.768700 1.487000
5.814900 0.987200
5.861000 0.930400
5.907200 1.128600
5.953400 1.437200
5.999600 1.972600
6.045800 2.680700
6.092000 3.194400
6.138100 3.961200
6.184300 3.622900
6.230500 3.412700
6.276700 3.109400
6.322900 3.448000
6.369000 3.517100
6.415200 3.445200
6.461400 3.219700
6.507600 2.867200
6.553800 2.814600
6.599900 2.679000
6.646100 3.053800
6.692300 3.066500
6.738500 3.263300
6.784700 3.391400
6.830800 3.100800
6.877000 2.957400
6.923200 2.765400
6.969400 2.875800
7.015600 2.836100
7.061800 2.797100
7.107900 2.591100
7.154100 2.262500
7.200300 1.900000
7.246500 1.762300
7.292700 1.758800
7.338800 1.893400
7.385000 1.906300
7.431200 1.482700
7.477400 1.374400
7.523600 1.154900
7.569700 1.093100
7.615900 1.285600
7.662100 1.628100
7.708300 1.837700
7.754500 2.839800
7.800600 2.231800
7.846800 1.926500
7.893000 1.766600
7.939200 1.671700
7.985400 1.472000
8.031600 1.406600
8.077700 1.401000
8.123900 1.429700
8.170100 1.467800
8.216300 1.458700
8.262500 1.385000
8.308600 1.329800
8.354800 1.310000
8.401000 1.265200
8.447200 1.127600
8.493400 0.997200
8.539500 0.928200
8.585700 0.854600
8.631900 0.760900
8.678100 0.703500
8.724300 0.645300
