set title 'mp-1184548 - Density of States'
set xlabel 'Energy (eV)'
set ylabel 'DOS (states/eV)'
set grid
set xrange [-10:10]
set yrange [0:17.688]
set xzeroaxis lt -1
set terminal png size 800,600
set output 'mp-1184548_dos_gnuplot.png'
plot '-' using 1:2 with lines title 'DOS'
-7.759600 0.000000
-7.728800 0.000000
-7.698000 0.000000
-7.667200 0.000000
-7.636500 0.000000
-7.605700 0.000000
-7.574900 0.000000
-7.544100 0.000000
-7.513300 0.000000
-7.482500 0.000000
-7.451700 0.000000
-7.420900 0.000000
-7.390100 0.000000
-7.359300 0.000000
-7.328500 0.000000
-7.297700 0.000000
-7.266900 0.000000
-7.236100 0.000000
-7.205400 0.000000
-7.174600 0.000000
-7.143800 0.000000
-7.113000 0.000000
-7.082200 0.000000
-7.051400 0.000000
-7.020600 0.000000
-6.989800 0.000000
-6.959000 0.000000
-6.928200 0.000000
-6.897400 0.000000
-6.866600 0.000000
-6.835800 0.000000
-6.805000 0.000000
-6.774300 0.000000
-6.743500 0.000000
-6.712700 0.000000
-6.681900 0.000000
-6.651100 0.000000
-6.620300 0.000000
-6.589500 0.000000
-6.558700 0.000000
-6.527900 0.000000
-6.497100 0.000000
-6.466300 0.000000
-6.435500 0.000000
-6.404700 0.000000
-6.373900 0.000000
-6.343200 0.000000
-6.312400 0.000000
-6.281600 0.000000
-6.250800 0.000000
-6.220000 0.000000
-6.189200 0.000000
-6.158400 0.000000
-6.127600 0.000000
-6.096800 0.000000
-6.066000 0.000000
-6.035200 0.000000
-6.004400 0.000000
-5.973600 0.000000
-5.942800 0.000000
-5.912100 0.000000
-5.881300 0.000000
-5.850500 0.000000
-5.819700 0.000000
-5.788900 0.000000
-5.758100 0.000000
-5.727300 0.000000
-5.696500 0.000000
-5.665700 0.000000
-5.634900 0.000000
-5.604100 0.000000
-5.573300 0.000000
-5.542500 0.000000
-5.511700 0.000000
-5.481000 0.000000
-5.450200 0.000000
-5.419400 0.000000
-5.388600 0.000000
-5.357800 0.000000
-5.327000 0.000000
-5.296200 0.000000
-5.265400 0.000000
-5.234600 0.000000
-5.203800 0.000000
-5.173000 0.000000
-5.142200 0.000000
-5.111400 0.000000
-5.080600 0.000000
-5.049900 0.000000
-5.019100 0.000000
-4.988300 0.000000
-4.957500 0.000100
-4.926700 0.017900
-4.895900 0.065000
-4.865100 0.090100
-4.834300 0.094900
-4.803500 0.113200
-4.772700 0.132500
-4.741900 0.152100
-4.711100 0.165800
-4.680300 0.173300
-4.649500 0.184900
-4.618800 0.198400
-4.588000 0.212100
-4.557200 0.225900
-4.526400 0.240400
-4.495600 0.255100
-4.464800 0.268500
-4.434000 0.281700
-4.403200 0.295600
-4.372400 0.309700
-4.341600 0.324400
-4.310800 0.340300
-4.280000 0.357300
-4.249200 0.374800
-4.218400 0.393300
-4.187700 0.413400
-4.156900 0.434600
-4.126100 0.456100
-4.095300 0.479200
-4.064500 0.504900
-4.033700 0.531500
-4.002900 0.559200
-3.972100 0.587600
-3.941300 0.617400
-3.910500 0.656700
-3.879700 0.702300
-3.848900 0.754000
-3.818100 0.809800
-3.787400 0.870400
-3.756600 0.934600
-3.725800 1.004400
-3.695000 1.085800
-3.664200 1.207100
-3.633400 1.383400
-3.602600 1.592300
-3.571800 1.888600
-3.541000 2.515300
-3.510200 3.805900
-3.479400 3.832600
-3.448600 4.082300
-3.417800 4.186700
-3.387000 4.352500
-3.356300 4.633200
-3.325500 5.019100
-3.294700 5.380800
-3.263900 6.085000
-3.233100 7.167400
-3.202300 16.080400
-3.171500 12.905700
-3.140700 10.555400
-3.109900 8.900500
-3.079100 5.202300
-3.048300 2.475600
-3.017500 0.000000
-2.986700 0.000000
-2.955900 0.000000
-2.925200 0.000000
-2.894400 0.000000
-2.863600 0.000000
-2.832800 0.000000
-2.802000 0.000000
-2.771200 0.000000
-2.740400 0.000000
-2.709600 0.000000
-2.678800 0.000000
-2.648000 0.000000
-2.617200 0.000000
-2.586400 0.000000
-2.555600 0.000000
-2.524800 0.000000
-2.494100 0.000000
-2.463300 0.000000
-2.432500 0.000000
-2.401700 0.000000
-2.370900 0.000000
-2.340100 0.000000
-2.309300 0.000000
-2.278500 0.000000
-2.247700 0.000000
-2.216900 0.000000
-2.186100 0.000000
-2.155300 0.000000
-2.124500 0.000000
-2.093700 0.000000
-2.063000 0.000000
-2.032200 0.000000
-2.001400 0.000000
-1.970600 0.000000
-1.939800 0.000000
-1.909000 0.000000
-1.878200 0.000000
-1.847400 0.000000
-1.816600 0.000000
-1.785800 0.000000
-1.755000 0.000000
-1.724200 0.000000
-1.693400 0.000000
-1.662600 0.000000
-1.631900 0.000000
-1.601100 0.000000
-1.570300 0.000000
-1.539500 0.000000
-1.508700 0.000000
-1.477900 0.000000
-1.447100 0.000000
-1.416300 0.000000
-1.385500 0.000000
-1.354700 0.000000
-1.323900 0.000000
-1.293100 0.000000
-1.262300 0.000000
-1.231500 0.000000
-1.200800 0.000000
-1.170000 0.000000
-1.139200 0.000000
-1.108400 0.000000
-1.077600 0.000000
-1.046800 0.000000
-1.016000 0.000000
-0.985200 0.000000
-0.954400 0.000000
-0.923600 0.595700
-0.892800 2.146100
-0.862000 3.765000
-0.831200 4.327900
-0.800400 4.419700
-0.769700 4.401000
-0.738900 4.408700
-0.708100 4.428900
-0.677300 4.469200
-0.646500 4.505000
-0.615700 4.644900
-0.584900 4.781100
-0.554100 4.978100
-0.523300 5.238700
-0.492500 5.573000
-0.461700 5.294800
-0.430900 5.020200
-0.400100 4.810100
-0.369300 4.657400
-0.338600 4.666700
-0.307800 4.579700
-0.277000 4.938000
-0.246200 4.589000
-0.215400 4.609400
-0.184600 4.691000
-0.153800 3.992900
-0.123000 3.173900
-0.092200 1.859500
-0.061400 1.741400
-0.030600 2.205200
0.000200 2.891500
0.031000 4.032600
0.061800 5.018400
0.092500 5.953500
0.123300 7.662600
0.154100 8.490400
0.184900 11.751900
0.215700 7.682200
0.246500 6.520800
0.277300 6.159200
0.308100 5.801500
0.338900 6.052500
0.369700 6.044500
0.400500 7.182500
0.431300 6.524000
0.462100 6.448100
0.492900 5.938900
0.523600 5.621700
0.554400 5.482700
0.585200 5.142900
0.616000 7.583100
0.646800 8.319700
0.677600 9.762300
0.708400 5.732100
0.739200 5.915000
0.770000 5.739000
0.800800 5.950200
0.831600 6.130500
0.862400 5.956900
0.893200 5.832400
0.924000 6.502900
0.954700 5.565500
0.985500 5.100500
1.016300 5.034600
1.047100 5.132900
1.077900 4.862800
1.108700 4.580500
1.139500 4.505200
1.170300 4.496700
1.201100 4.529400
1.231900 4.618700
1.262700 4.669200
1.293500 4.684400
1.324300 4.494300
1.355100 4.292200
1.385800 4.142400
1.416600 4.094200
1.447400 4.091200
1.478200 4.250700
1.509000 4.512700
1.539800 5.202800
1.570600 4.871600
1.601400 4.842900
1.632200 5.080500
1.663000 5.290900
1.693800 5.337400
1.724600 6.131000
1.755400 6.413000
1.786200 6.705500
1.816900 7.218300
1.847700 7.518400
1.878500 7.637700
1.909300 8.625400
1.940100 8.956000
1.970900 8.001000
2.001700 7.914600
2.032500 7.960700
2.063300 7.173100
2.094100 7.101700
2.124900 5.565400
2.155700 2.256900
2.186500 1.653000
2.217300 0.859100
2.248000 0.860800
2.278800 0.862300
2.309600 0.863700
2.340400 0.864700
2.371200 0.864500
2.402000 0.860200
2.432800 0.854200
2.463600 0.845500
2.494400 0.832400
2.525200 0.820800
2.556000 0.811900
2.586800 0.801000
2.617600 0.790700
2.648400 0.786600
2.679100 0.785100
2.709900 0.785300
2.740700 0.787000
2.771500 0.789700
2.802300 0.792900
2.833100 0.796800
2.863900 0.806700
2.894700 0.826300
2.925500 0.835200
2.956300 0.844600
2.987100 0.854100
3.017900 0.861400
3.048700 0.866600
3.079400 0.870800
3.110200 0.875000
3.141000 0.878000
3.171800 0.880400
3.202600 0.881700
3.233400 0.879400
3.264200 0.876900
3.295000 0.871900
3.325800 0.868100
3.356600 0.866500
3.387400 0.864600
3.418200 0.862900
3.449000 0.864700
3.479800 0.867100
3.510500 0.868900
3.541300 0.865500
3.572100 0.861000
3.602900 0.856900
3.633700 0.853100
3.664500 0.849900
3.695300 0.848000
3.726100 0.846600
3.756900 0.845500
3.787700 0.844800
3.818500 0.844600
3.849300 0.836500
3.880100 0.836100
3.910900 0.840200
3.941600 0.841800
3.972400 0.844500
4.003200 0.848500
4.034000 0.818200
4.064800 0.804900
4.095600 0.804700
4.126400 0.801500
4.157200 0.800800
4.188000 0.801100
4.218800 0.801400
4.249600 0.802400
4.280400 0.804100
4.311200 0.805600
4.342000 0.805500
4.372700 0.805100
4.403500 0.804400
4.434300 0.803400
4.465100 0.809900
4.495900 0.813800
4.526700 0.816700
4.557500 0.819800
4.588300 0.823000
4.619100 0.833300
4.649900 0.852100
4.680700 0.867100
4.711500 0.875400
4.742300 0.868900
4.773100 0.856600
4.803800 0.843400
4.834600 0.848600
4.865400 0.858700
4.896200 0.872600
4.927000 0.884600
4.957800 0.895000
4.988600 0.904400
5.019400 0.841800
5.050200 0.838400
5.081000 0.864200
5.111800 0.874200
5.142600 0.828000
5.173400 0.805400
5.204200 0.800000
5.234900 0.794800
5.265700 0.789800
5.296500 0.785000
5.327300 0.779900
5.358100 0.776000
5.388900 0.774800
5.419700 0.777400
5.450500 0.777600
5.481300 0.771400
5.512100 0.759500
5.542900 0.747900
5.573700 0.738100
5.604500 0.730000
5.635300 0.722200
5.666000 0.720900
5.696800 0.671500
5.727600 0.651500
5.758400 0.568400
5.789200 0.546500
5.820000 0.551600
5.850800 0.530700
5.881600 0.488600
5.912400 0.512600
5.943200 0.390400
5.974000 0.351400
6.004800 0.316000
6.035600 0.284200
6.066400 0.254300
6.097100 0.225900
6.127900 0.200600
6.158700 0.178700
6.189500 0.172400
6.220300 0.146000
6.251100 0.113600
6.281900 0.079500
6.312700 0.000000
6.343500 0.000000
6.374300 0.000000
6.405100 0.000000
6.435900 0.000000
6.466700 0.000000
6.497500 0.000000
6.528200 0.000000
6.559000 0.000000
6.589800 0.000000
6.620600 0.000000
6.651400 0.000000
6.682200 0.000000
6.713000 0.000000
6.743800 0.000000
6.774600 0.000000
6.805400 0.000000
6.836200 0.000000
6.867000 0.000000
6.897800 0.000000
6.928600 0.000000
6.959300 0.000000
6.990100 0.000000
7.020900 0.000000
7.051700 0.000000
7.082500 0.000000
7.113300 0.000000
7.144100 0.000000
7.174900 0.000000
7.205700 0.000000
7.236500 0.000000
7.267300 0.000000
7.298100 0.000000
7.328900 0.000000
7.359700 0.000000
7.390400 0.016800
7.421200 0.037400
7.452000 0.055200
7.482800 0.070300
7.513600 0.085900
7.544400 0.099300
7.575200 0.110500
7.606000 0.120800
7.636800 0.131300
7.667600 0.141900
7.698400 0.152500
7.729200 0.157100
7.760000 0.156300
7.790800 0.155600
7.821500 0.155200
7.852300 0.156200
7.883100 0.157100
7.913900 0.157900
7.944700 0.159300
7.975500 0.161600
8.006300 0.180300
8.037100 0.189000
8.067900 0.197300
8.098700 0.196400
8.129500 0.201000
8.160300 0.206000
8.191100 0.211900
8.221900 0.218100
8.252600 0.224600
8.283400 0.231600
8.314200 0.238900
8.345000 0.246500
8.375800 0.254500
8.406600 0.260700
8.437400 0.268900
8.468200 0.277300
8.499000 0.286700
8.529800 0.564600
8.560600 0.904400
8.591400 1.058800
8.622200 1.044800
8.653000 1.076800
8.683700 1.134500
8.714500 1.207400
8.745300 1.272400
8.776100 1.327800
8.806900 1.423200
8.837700 1.421900
8.868500 1.368400
8.899300 1.293600
8.930100 1.151600
8.960900 1.079200
8.991700 1.046800
9.022500 1.025600
9.053300 1.014700
9.084100 1.005600
9.114800 0.995500
9.145600 0.987000
9.176400 0.981100
9.207200 0.973700
9.238000 0.964000
9.268800 0.956400
9.299600 0.949800
9.330400 0.943100
9.361200 0.934900
9.392000 0.924900
9.422800 0.913600
9.453600 0.901900
9.484400 0.893000
9.515100 0.887300
9.545900 0.883600
9.576700 0.881800
9.607500 0.881100
9.638300 0.880100
9.669100 0.878600
9.699900 0.878000
9.730700 0.877700
9.761500 0.877200
9.792300 0.876400
9.823100 0.881400
9.853900 0.884100
9.884700 0.890200
9.915500 0.896800
9.946200 0.902900
9.977000 0.907900
10.007800 0.911400
10.038600 0.914100
10.069400 0.918400
10.100200 0.937200
10.131000 0.962100
10.161800 1.019800
10.192600 1.093700
10.223400 1.271500
10.254200 1.274500
10.285000 1.345700
10.315800 1.411500
10.346600 1.501100
10.377300 1.574000
10.408100 1.635100
10.438900 1.675500
10.469700 1.700000
10.500500 1.706100
10.531300 1.683800
10.562100 1.722100
10.592900 1.688700
10.623700 1.617100
10.654500 1.548600
10.685300 1.467600
10.716100 1.381600
10.746900 1.297700
10.777700 1.228000
10.808400 1.186000
10.839200 1.153500
10.870000 1.125900
10.900800 1.098300
10.931600 1.061500
10.962400 1.006500
10.993200 0.964500
11.024000 0.931100
11.054800 0.905800
11.085600 0.895900
11.116400 0.885000
11.147200 0.874400
11.178000 0.867500
11.208800 0.867400
11.239500 0.872000
11.270300 0.883800
11.301100 0.904400
11.331900 0.927700
11.362700 0.949500
11.393500 0.971700
11.424300 0.994400
11.455100 1.015200
11.485900 1.040800
11.516700 1.064700
11.547500 1.095600
11.578300 1.128300
11.609100 1.156700
11.639900 1.173500
11.670600 1.170400
11.701400 1.124000
11.732200 1.121800
11.763000 1.119500
11.793800 1.125700
11.824600 1.246900
11.855400 1.405700
11.886200 1.367200
11.917000 1.411900
11.947800 1.432800
11.978600 1.458400
12.009400 1.487700
12.040200 1.546400
12.071000 1.623800
12.101700 1.770200
12.132500 2.107400
12.163300 2.258200
12.194100 1.802600
12.224900 0.721300
12.255700 0.401900
12.286500 0.409200
12.317300 0.419200
12.348100 0.433200
12.378900 0.453000
12.409700 0.478600
12.440500 0.510100
12.471300 0.552100
12.502100 0.661100
12.532800 0.726700
12.563600 0.763100
12.594400 0.785600
12.625200 0.848000
12.656000 0.961900
12.686800 1.084700
12.717600 1.189000
12.748400 1.161500
12.779200 1.118200
12.810000 1.112200
12.840800 1.109800
12.871600 1.105200
12.902400 1.103800
12.933200 1.097800
12.963900 1.084000
12.994700 1.058500
13.025500 1.039500
13.056300 1.029200
13.087100 1.013800
13.117900 1.003500
13.148700 0.992100
13.179500 0.988500
13.210300 0.980100
13.241100 0.979700
13.271900 0.971900
13.302700 0.955700
13.333500 0.942200
13.364300 0.928300
13.395000 0.914200
13.425800 0.901300
13.456600 0.887600
13.487400 0.873900
13.518200 0.868200
13.549000 0.866400
13.579800 0.866000
13.610600 0.866700
13.641400 0.868600
13.672200 0.871800
13.703000 0.877600
13.733800 0.885500
13.764600 0.880300
13.795400 0.871400
13.826100 0.874700
13.856900 0.877700
13.887700 0.886500
13.918500 0.902200
13.949300 0.922300
13.980100 0.929100
14.010900 0.935800
14.041700 0.944300
14.072500 0.948600
14.103300 0.941700
14.134100 0.932800
14.164900 0.928000
14.195700 0.928300
14.226500 0.930700
14.257200 0.936500
14.288000 0.942600
14.318800 0.948300
14.349600 0.953900
14.380400 0.959500
14.411200 0.965300
14.442000 0.971200
14.472800 0.977300
14.503600 0.987900
14.534400 0.997900
14.565200 1.016300
14.596000 1.041100
14.626800 1.063100
14.657600 1.079700
14.688300 1.085700
14.719100 1.095200
14.749900 1.105900
14.780700 1.117900
14.811500 1.132800
14.842300 1.149100
14.873100 1.176800
14.903900 1.191600
14.934700 1.196600
14.965500 1.200500
14.996300 1.203400
15.027100 1.200700
15.057900 1.204400
15.088700 1.216200
15.119400 1.228700
15.150200 1.241800
15.181000 1.259100
15.211800 1.277200
15.242600 1.292800
15.273400 1.301300
15.304200 1.291100
15.335000 1.301100
15.365800 1.310500
15.396600 1.309500
15.427400 1.304900
15.458200 1.297000
15.489000 1.286600
15.519800 1.273700
15.550500 1.261700
15.581300 1.257500
15.612100 1.285900
15.642900 1.288200
15.673700 1.289600
15.704500 1.294400
15.735300 1.297100
15.766100 1.301400
15.796900 1.314000
15.827700 1.337100
15.858500 1.371700
15.889300 1.417400
15.920100 1.495100
15.950800 1.474500
15.981600 1.477500
16.012400 1.442200
16.043200 1.440600
16.074000 1.562800
16.104800 1.551700
16.135600 1.482200
16.166400 1.442800
16.197200 1.417800
16.228000 1.395600
16.258800 1.371300
16.289600 1.354500
16.320400 1.341300
16.351200 1.331900
16.381900 1.323400
16.412700 1.313100
16.443500 1.297400
16.474300 1.285700
16.505100 1.275500
16.535900 1.265600
16.566700 1.253300
16.597500 1.245500
16.628300 1.240300
16.659100 1.236200
16.689900 1.233100
16.720700 1.231200
16.751500 1.231200
16.782300 1.231200
16.813000 1.232700
16.843800 1.307000
16.874600 1.308500
16.905400 1.314700
16.936200 1.320000
16.967000 1.314500
16.997800 1.298000
17.028600 1.282400
17.059400 1.271400
17.090200 1.260000
17.121000 1.248200
17.151800 1.236200
17.182600 1.223800
17.213400 1.211500
17.244100 1.197300
17.274900 1.175000
17.305700 1.165500
17.336500 1.157500
17.367300 1.152400
17.398100 1.145800
17.428900 1.134700
17.459700 1.119100
17.490500 1.104500
17.521300 1.092500
17.552100 1.080000
17.582900 1.068600
17.613700 1.057100
17.644500 1.045700
17.675200 1.041800
17.706000 1.045200
17.736800 1.046200
17.767600 1.023700
17.798400 1.014900
17.829200 1.002600
17.860000 0.985100
17.890800 0.966400
17.921600 0.946500
17.952400 0.925400
17.983200 0.903500
18.014000 0.881900
18.044800 0.867400
18.075600 0.846000
18.106300 0.830200
18.137100 0.824300
18.167900 0.818700
18.198700 0.806800
18.229500 0.795600
18.260300 0.793400
18.291100 0.793600
18.321900 0.795600
18.352700 0.798600
18.383500 0.804800
18.414300 0.808600
18.445100 0.812200
18.475900 0.815800
18.506700 0.819700
18.537400 0.824600
18.568200 0.831100
18.599000 1.006700
18.629800 0.824300
18.660600 0.831800
18.691400 0.839900
18.722200 0.848800
18.753000 0.857500
18.783800 0.866000
18.814600 0.874800
18.845400 0.884100
18.876200 0.892200
18.907000 0.898200
18.937800 0.904400
18.968500 0.916200
18.999300 0.930900
19.030100 0.947400
19.060900 0.965600
19.091700 0.985500
19.122500 1.007400
19.153300 1.036100
19.184100 1.068900
19.214900 1.104200
19.245700 1.142600
19.276500 1.180900
19.307300 1.222300
19.338100 1.269100
19.368900 1.317000
19.399600 1.364500
19.430400 1.411100
19.461200 1.483000
19.492000 1.547500
19.522800 1.583400
19.553600 1.593000
19.584400 1.560200
19.615200 1.565700
19.646000 1.570500
19.676800 1.574500
19.707600 1.568400
19.738400 1.557900
19.769200 1.546300
19.800000 1.530800
19.830700 1.514600
19.861500 1.553500
19.892300 1.398200
19.923100 1.392500
19.953900 1.363100
19.984700 1.295500
20.015500 1.246300
20.046300 1.224100
20.077100 1.215000
20.107900 1.210200
20.138700 1.216900
20.169500 1.223900
20.200300 1.216900
20.231100 1.215800
20.261800 1.220300
20.292600 1.225000
20.323400 1.232100
20.354200 1.241300
20.385000 1.251000
20.415800 1.244100
20.446600 1.260800
20.477400 1.278600
20.508200 1.299100
20.539000 1.321100
20.569800 1.351000
20.600600 1.389800
20.631400 1.404100
20.662200 1.406800
20.692900 1.407100
20.723700 1.402700
20.754500 1.392500
20.785300 1.389800
20.816100 1.396700
20.846900 1.398000
20.877700 1.391200
20.908500 1.425700
20.939300 1.464000
20.970100 1.483200
21.000900 1.480800
21.031700 1.447300
21.062500 1.388300
21.093300 1.338100
21.124000 1.238600
21.154800 1.221400
21.185600 1.208700
21.216400 1.193300
21.247200 1.170500
21.278000 1.176500
21.308800 1.167600
21.339600 1.157700
21.370400 1.150800
21.401200 1.144000
21.432000 1.139300
21.462800 1.142600
21.493600 1.150600
21.524400 1.163100
21.555100 1.154800
21.585900 1.146600
21.616700 1.135200
21.647500 1.103900
21.678300 1.073300
21.709100 1.049700
21.739900 1.034100
21.770700 1.011600
21.801500 1.008600
21.832300 0.997100
21.863100 1.001000
21.893900 0.926500
21.924700 0.898900
21.955500 0.837100
21.986200 0.752000
22.017000 0.726800
22.047800 0.716200
22.078600 0.709300
22.109400 0.698200
22.140200 0.686800
22.171000 0.676500
22.201800 0.667800
22.232600 0.661300
22.263400 0.657500
22.294200 0.654500
22.325000 0.652900
22.355800 0.665600
22.386500 0.703900
22.417300 0.780900
22.448100 0.872300
22.478900 0.951300
22.509700 1.014600
22.540500 1.087000
22.571300 1.162600
22.602100 1.245700
22.632900 1.324300
22.663700 1.393700
22.694500 1.457900
22.725300 1.514600
22.756100 1.488800
22.786900 1.449700
22.817600 1.409200
22.848400 1.384500
22.879200 1.372900
22.910000 1.364500
22.940800 1.359400
22.971600 1.362100
23.002400 1.371000
23.033200 1.383000
23.064000 1.392900
23.094800 1.390600
23.125600 1.365200
23.156400 1.367200
23.187200 1.382200
23.218000 1.373100
23.248700 1.363600
23.279500 1.352500
23.310300 1.339600
23.341100 1.327200
23.371900 1.317400
23.402700 1.317800
23.433500 1.292300
23.464300 1.285900
23.495100 1.287800
23.525900 1.299800
23.556700 1.321200
23.587500 1.341800
23.618300 1.353300
23.649100 1.365500
23.679800 1.373000
23.710600 1.384600
23.741400 1.393700
23.772200 1.467700
23.803000 1.355900
23.833800 1.392000
23.864600 1.468100
23.895400 1.532500
23.926200 1.561300
23.957000 1.621700
23.987800 1.676300
24.018600 1.718800
24.049400 1.723900
24.080200 1.699600
24.110900 1.682100
24.141700 1.684100
24.172500 1.705200
24.203300 1.770100
24.234100 1.799900
24.264900 1.747700
24.295700 1.765700
24.326500 1.802100
24.357300 1.833300
24.388100 1.867000
24.418900 1.895900
24.449700 1.905800
24.480500 1.910400
24.511300 1.909800
24.542000 1.908600
24.572800 1.909500
24.603600 1.923700
24.634400 1.977700
24.665200 2.113200
