set title 'mp-1061298 - Density of States'
set xlabel 'Energy (eV)'
set ylabel 'DOS (states/eV)'
set grid
set xrange [-10:10]
set yrange [0:1.445]
set xzeroaxis lt -1
set terminal png size 800,600
set output 'mp-1061298_dos_gnuplot.png'
plot '-' using 1:2 with lines title 'DOS'
-18.286700 0.000000
-18.250700 0.000000
-18.214800 0.000000
-18.178800 0.000000
-18.142800 0.000000
-18.106900 0.000000
-18.070900 0.000000
-18.034900 0.000000
-17.999000 0.000000
-17.963000 0.000000
-17.927000 0.000000
-17.891100 0.000000
-17.855100 0.000000
-17.819100 0.000000
-17.783200 0.000000
-17.747200 0.000000
-17.711200 0.000000
-17.675300 0.000000
-17.639300 0.000000
-17.603300 0.000000
-17.567400 0.000000
-17.531400 0.000000
-17.495400 0.000000
-17.459500 0.000000
-17.423500 0.000000
-17.387500 0.000000
-17.351600 0.000000
-17.315600 0.000000
-17.279600 0.000000
-17.243700 0.000000
-17.207700 0.000000
-17.171700 0.000000
-17.135800 0.000000
-17.099800 0.000000
-17.063800 0.000000
-17.027900 0.000000
-16.991900 0.000000
-16.955900 0.000000
-16.920000 0.000000
-16.884000 0.000000
-16.848000 0.000000
-16.812100 0.000000
-16.776100 0.000000
-16.740100 0.000000
-16.704200 0.000000
-16.668200 0.000000
-16.632200 0.000000
-16.596300 0.000000
-16.560300 0.000000
-16.524300 0.000000
-16.488400 0.000000
-16.452400 0.000000
-16.416400 0.000000
-16.380500 0.000000
-16.344500 0.000000
-16.308500 0.000000
-16.272600 0.000000
-16.236600 0.000000
-16.200600 0.000000
-16.164700 0.000000
-16.128700 0.000000
-16.092700 0.000000
-16.056800 0.000000
-16.020800 0.000000
-15.984800 0.000000
-15.948900 0.000000
-15.912900 0.000000
-15.876900 0.000000
-15.841000 0.000000
-15.805000 0.000000
-15.769000 0.000000
-15.733100 0.000000
-15.697100 0.000000
-15.661100 0.000000
-15.625200 0.000000
-15.589200 0.000000
-15.553200 0.000000
-15.517300 0.000000
-15.481300 0.000000
-15.445300 0.000000
-15.409400 0.000000
-15.373400 0.000000
-15.337400 0.000000
-15.301500 0.000000
-15.265500 0.000000
-15.229500 0.000000
-15.193600 0.000000
-15.157600 0.000000
-15.121600 0.000000
-15.085700 0.000000
-15.049700 0.000000
-15.013700 0.000200
-14.977800 0.024100
-14.941800 0.031000
-14.905800 0.042900
-14.869900 0.049200
-14.833900 0.054100
-14.797900 0.060600
-14.762000 0.066900
-14.726000 0.071200
-14.690000 0.074800
-14.654100 0.078900
-14.618100 0.083300
-14.582100 0.088200
-14.546200 0.091700
-14.510200 0.094900
-14.474200 0.097900
-14.438300 0.101100
-14.402300 0.104600
-14.366300 0.108300
-14.330400 0.111700
-14.294400 0.114500
-14.258400 0.117400
-14.222500 0.119900
-14.186500 0.122700
-14.150500 0.125500
-14.114600 0.128300
-14.078600 0.131300
-14.042600 0.134200
-14.006700 0.136500
-13.970700 0.139200
-13.934700 0.141700
-13.898800 0.143900
-13.862800 0.146300
-13.826800 0.148700
-13.790900 0.151200
-13.754900 0.153800
-13.718900 0.156400
-13.683000 0.158600
-13.647000 0.160800
-13.611000 0.163000
-13.575100 0.165300
-13.539100 0.167600
-13.503100 0.169700
-13.467200 0.171900
-13.431200 0.174100
-13.395200 0.176400
-13.359300 0.178700
-13.323300 0.180900
-13.287300 0.182800
-13.251400 0.184900
-13.215400 0.186900
-13.179400 0.189000
-13.143500 0.191200
-13.107500 0.193400
-13.071500 0.195400
-13.035600 0.197400
-12.999600 0.199400
-12.963600 0.201500
-12.927700 0.203700
-12.891700 0.205800
-12.855700 0.207600
-12.819800 0.209500
-12.783800 0.211500
-12.747800 0.213500
-12.711900 0.215500
-12.675900 0.217500
-12.639900 0.219600
-12.604000 0.221700
-12.568000 0.223600
-12.532000 0.225600
-12.496100 0.227600
-12.460100 0.229700
-12.424100 0.231700
-12.388200 0.233600
-12.352200 0.235500
-12.316200 0.237400
-12.280300 0.239300
-12.244300 0.241300
-12.208300 0.243300
-12.172400 0.245300
-12.136400 0.247400
-12.100400 0.249500
-12.064500 0.251600
-12.028500 0.253600
-11.992500 0.255700
-11.956600 0.257700
-11.920600 0.259700
-11.884600 0.261700
-11.848700 0.263700
-11.812700 0.265700
-11.776700 0.267800
-11.740800 0.269900
-11.704800 0.272000
-11.668800 0.274100
-11.632900 0.276300
-11.596900 0.278500
-11.560900 0.280700
-11.525000 0.283000
-11.489000 0.285300
-11.453000 0.287700
-11.417100 0.290000
-11.381100 0.292300
-11.345100 0.294600
-11.309200 0.296900
-11.273200 0.299300
-11.237200 0.301800
-11.201300 0.304300
-11.165300 0.306900
-11.129300 0.309500
-11.093400 0.312200
-11.057400 0.315000
-11.021400 0.317900
-10.985500 0.320800
-10.949500 0.324000
-10.913500 0.327200
-10.877600 0.330500
-10.841600 0.333900
-10.805600 0.337400
-10.769700 0.341200
-10.733700 0.345200
-10.697700 0.349500
-10.661800 0.354100
-10.625800 0.358900
-10.589800 0.364400
-10.553900 0.371200
-10.517900 0.378800
-10.481900 0.388400
-10.446000 0.400500
-10.410000 0.439600
-10.374000 0.420700
-10.338100 0.419500
-10.302100 0.411700
-10.266100 0.411800
-10.230200 0.416800
-10.194200 0.412200
-10.158200 0.409900
-10.122300 0.407500
-10.086300 0.405500
-10.050300 0.403100
-10.014400 0.399800
-9.978400 0.394800
-9.942400 0.392400
-9.906500 0.390600
-9.870500 0.389500
-9.834500 0.388500
-9.798600 0.384900
-9.762600 0.381700
-9.726600 0.379000
-9.690700 0.377500
-9.654700 0.376000
-9.618700 0.373900
-9.582800 0.371500
-9.546800 0.368900
-9.510800 0.366200
-9.474900 0.363100
-9.438900 0.359700
-9.402900 0.357200
-9.367000 0.355100
-9.331000 0.353400
-9.295000 0.351600
-9.259100 0.349800
-9.223100 0.348100
-9.187100 0.343900
-9.151200 0.341200
-9.115200 0.338600
-9.079200 0.336100
-9.043300 0.333700
-9.007300 0.331300
-8.971300 0.328900
-8.935400 0.326500
-8.899400 0.324100
-8.863400 0.321700
-8.827500 0.319200
-8.791500 0.316600
-8.755500 0.314000
-8.719600 0.310500
-8.683600 0.306500
-8.647600 0.302900
-8.611700 0.298900
-8.575700 0.296300
-8.539700 0.293900
-8.503800 0.291200
-8.467800 0.289200
-8.431800 0.287200
-8.395900 0.285200
-8.359900 0.283200
-8.323900 0.281000
-8.288000 0.279200
-8.252000 0.277300
-8.216000 0.275700
-8.180100 0.285200
-8.144100 0.281300
-8.108100 0.282600
-8.072200 0.282800
-8.036200 0.284100
-8.000200 0.285500
-7.964300 0.286600
-7.928300 0.288100
-7.892300 0.289700
-7.856400 0.291500
-7.820400 0.293000
-7.784400 0.294100
-7.748500 0.301400
-7.712500 0.304500
-7.676500 0.307100
-7.640600 0.308700
-7.604600 0.312800
-7.568600 0.318700
-7.532700 0.325000
-7.496700 0.332200
-7.460700 0.340200
-7.424800 0.374200
-7.388800 0.436400
-7.352800 0.473200
-7.316900 0.468300
-7.280900 0.471400
-7.244900 0.472000
-7.209000 0.474400
-7.173000 0.475500
-7.137000 0.473700
-7.101100 0.476400
-7.065100 0.479500
-7.029100 0.481600
-6.993200 0.483300
-6.957200 0.483100
-6.921200 0.484700
-6.885300 0.486400
-6.849300 0.488400
-6.813300 0.490200
-6.777400 0.492300
-6.741400 0.492800
-6.705400 0.494500
-6.669500 0.496700
-6.633500 0.499100
-6.597500 0.501600
-6.561600 0.504000
-6.525600 0.506800
-6.489600 0.508800
-6.453700 0.511100
-6.417700 0.513800
-6.381700 0.516800
-6.345800 0.520000
-6.309800 0.523900
-6.273800 0.528200
-6.237900 0.532500
-6.201900 0.536500
-6.165900 0.540600
-6.130000 0.544700
-6.094000 0.549500
-6.058000 0.554600
-6.022100 0.560100
-5.986100 0.566900
-5.950100 0.574800
-5.914200 0.584300
-5.878200 0.594600
-5.842200 0.607800
-5.806300 0.619800
-5.770300 0.632000
-5.734300 0.645400
-5.698400 0.665700
-5.662400 0.697100
-5.626400 0.731800
-5.590500 0.789200
-5.554500 0.893300
-5.518500 1.055800
-5.482600 0.932900
-5.446600 0.767400
-5.410600 0.683700
-5.374700 0.623500
-5.338700 0.586200
-5.302700 0.553600
-5.266800 0.529600
-5.230800 0.500000
-5.194800 0.479600
-5.158900 0.456100
-5.122900 0.437600
-5.086900 0.427100
-5.051000 0.416000
-5.015000 0.408000
-4.979000 0.396500
-4.943100 0.387400
-4.907100 0.375200
-4.871100 0.360200
-4.835200 0.347300
-4.799200 0.337200
-4.763200 0.328500
-4.727300 0.320100
-4.691300 0.314200
-4.655300 0.309800
-4.619400 0.302600
-4.583400 0.301300
-4.547400 0.299900
-4.511500 0.289900
-4.475500 0.279600
-4.439500 0.271100
-4.403600 0.265200
-4.367600 0.259300
-4.331600 0.253600
-4.295700 0.248100
-4.259700 0.242700
-4.223700 0.238100
-4.187800 0.234500
-4.151800 0.231600
-4.115800 0.229300
-4.079900 0.227400
-4.043900 0.226400
-4.007900 0.218700
-3.972000 0.212800
-3.936000 0.208100
-3.900000 0.203300
-3.864100 0.198800
-3.828100 0.194700
-3.792100 0.191000
-3.756200 0.187500
-3.720200 0.184100
-3.684200 0.180800
-3.648200 0.177900
-3.612300 0.175700
-3.576300 0.173700
-3.540300 0.171400
-3.504400 0.169100
-3.468400 0.166900
-3.432400 0.165100
-3.396500 0.161400
-3.360500 0.157900
-3.324500 0.154400
-3.288600 0.151100
-3.252600 0.147900
-3.216600 0.144900
-3.180700 0.142100
-3.144700 0.139500
-3.108700 0.137100
-3.072800 0.135000
-3.036800 0.133100
-3.000800 0.131200
-2.964900 0.129000
-2.928900 0.127100
-2.892900 0.125200
-2.857000 0.122800
-2.821000 0.120700
-2.785000 0.119600
-2.749100 0.118800
-2.713100 0.116900
-2.677100 0.114200
-2.641200 0.111700
-2.605200 0.109400
-2.569200 0.107100
-2.533300 0.104900
-2.497300 0.102800
-2.461300 0.100800
-2.425400 0.099000
-2.389400 0.097500
-2.353400 0.096000
-2.317500 0.094500
-2.281500 0.093000
-2.245500 0.091400
-2.209600 0.089700
-2.173600 0.088000
-2.137600 0.085900
-2.101700 0.090500
-2.065700 0.119500
-2.029700 0.145500
-1.993800 0.175100
-1.957800 0.199600
-1.921800 0.218000
-1.885900 0.218700
-1.849900 0.232000
-1.813900 0.248800
-1.778000 0.274900
-1.742000 0.291900
-1.706000 0.313900
-1.670100 0.340700
-1.634100 0.367100
-1.598100 0.385700
-1.562200 0.405200
-1.526200 0.432500
-1.490200 0.468800
-1.454300 0.510400
-1.418300 0.602200
-1.382300 0.582700
-1.346400 0.562500
-1.310400 0.561400
-1.274400 0.561300
-1.238500 0.567700
-1.202500 0.549600
-1.166500 0.550900
-1.130600 0.554300
-1.094600 0.555200
-1.058600 0.557100
-1.022700 0.551600
-0.986700 0.549200
-0.950700 0.551100
-0.914800 0.551500
-0.878800 0.552100
-0.842800 0.554600
-0.806900 0.559100
-0.770900 0.563400
-0.734900 0.563600
-0.699000 0.560100
-0.663000 0.562000
-0.627000 0.564600
-0.591100 0.566700
-0.555100 0.568700
-0.519100 0.570900
-0.483200 0.573200
-0.447200 0.576200
-0.411200 0.580000
-0.375300 0.584200
-0.339300 0.587500
-0.303300 0.590000
-0.267400 0.595100
-0.231400 0.601600
-0.195400 0.607600
-0.159500 0.614900
-0.123500 0.629600
-0.087500 0.641000
-0.051600 0.651900
-0.015600 0.662200
0.020400 0.674200
0.056300 0.688400
0.092300 0.681600
0.128300 0.642200
0.164200 0.610900
0.200200 0.593400
0.236200 0.586200
0.272100 0.583200
0.308100 0.586000
0.344100 0.585900
0.380000 0.578200
0.416000 0.574000
0.452000 0.579600
0.487900 0.567100
0.523900 0.571200
0.559900 0.574300
0.595800 0.580100
0.631800 0.585300
0.667800 0.588300
0.703700 0.596300
0.739700 0.603800
0.775700 0.602000
0.811600 0.606500
0.847600 0.604900
0.883600 0.604200
0.919500 0.606600
0.955500 0.608300
0.991500 0.610300
1.027400 0.610400
1.063400 0.611300
1.099400 0.613200
1.135300 0.614800
1.171300 0.619200
1.207300 0.625700
1.243200 0.643300
1.279200 0.647400
1.315200 0.641800
1.351100 0.639300
1.387100 0.633800
1.423100 0.631800
1.459000 0.634900
1.495000 0.641800
1.531000 0.650000
1.566900 0.655800
1.602900 0.662600
1.638900 0.668900
1.674800 0.673500
1.710800 0.680600
1.746800 0.693000
1.782700 0.700600
1.818700 0.691200
1.854700 0.703500
1.890600 0.716300
1.926600 0.728100
1.962600 0.742900
1.998500 0.761700
2.034500 0.770700
2.070500 0.774200
2.106400 0.775200
2.142400 0.776500
2.178400 0.777200
2.214300 0.777100
2.250300 0.771700
2.286300 0.767000
2.322200 0.766700
2.358200 0.775600
2.394200 0.788400
2.430100 0.801000
2.466100 0.827500
2.502100 0.880300
2.538000 0.942800
2.574000 0.951100
2.610000 0.946200
2.645900 0.930700
2.681900 0.910200
2.717900 0.887600
2.753800 0.870000
2.789800 0.859000
2.825800 0.848300
2.861700 0.844400
2.897700 0.843800
2.933700 0.843300
2.969600 0.823100
3.005600 0.801000
3.041600 0.785000
3.077500 0.781500
3.113500 0.786600
3.149500 0.792000
3.185400 0.796500
3.221400 0.796400
3.257400 0.797800
3.293300 0.801300
3.329300 0.791200
3.365300 0.782200
3.401200 0.775100
3.437200 0.769800
3.473200 0.765600
3.509100 0.762300
3.545100 0.759100
3.581100 0.756600
3.617000 0.755400
3.653000 0.754100
3.689000 0.752000
3.724900 0.750000
3.760900 0.748200
3.796900 0.746700
3.832800 0.746600
3.868800 0.745500
3.904800 0.743000
3.940700 0.739500
3.976700 0.739000
4.012700 0.738500
4.048600 0.736700
4.084600 0.733600
4.120600 0.730500
4.156500 0.727400
4.192500 0.724500
4.228500 0.722600
4.264400 0.721600
4.300400 0.721700
4.336400 0.719900
4.372300 0.717500
4.408300 0.715300
4.444300 0.712900
4.480200 0.712000
4.516200 0.712900
4.552200 0.712300
4.588100 0.710000
4.624100 0.707400
4.660100 0.707100
4.696000 0.715600
4.732000 0.729500
4.768000 0.734400
4.803900 0.731900
4.839900 0.733800
4.875900 0.737200
4.911800 0.739700
4.947800 0.742700
4.983800 0.743200
5.019700 0.741500
5.055700 0.739900
5.091700 0.737800
5.127600 0.735800
5.163600 0.733900
5.199600 0.732200
5.235500 0.729900
5.271500 0.727700
5.307500 0.725700
5.343400 0.724200
5.379400 0.723100
5.415400 0.723100
5.451300 0.724500
5.487300 0.727100
5.523300 0.729300
5.559200 0.733100
5.595200 0.733800
5.631200 0.733400
5.667100 0.733200
5.703100 0.732900
5.739100 0.732300
5.775000 0.731500
5.811000 0.730500
5.847000 0.729200
5.882900 0.728100
5.918900 0.727300
5.954900 0.727300
5.990800 0.728100
6.026800 0.729500
6.062800 0.732000
6.098700 0.735300
6.134700 0.738700
6.170700 0.742000
6.206600 0.746100
6.242600 0.750800
6.278600 0.755500
6.314500 0.762400
6.350500 0.772500
6.386500 0.789700
6.422400 0.799300
6.458400 0.800300
6.494400 0.788600
6.530300 0.786700
6.566300 0.783700
6.602300 0.775200
6.638200 0.761700
6.674200 0.750500
6.710200 0.738900
6.746100 0.724400
6.782100 0.717700
6.818100 0.712000
6.854000 0.707700
6.890000 0.701600
6.926000 0.696000
6.961900 0.692900
6.997900 0.690100
7.033900 0.689400
7.069800 0.692100
7.105800 0.695500
7.141800 0.698200
7.177700 0.697500
7.213700 0.691800
7.249700 0.689600
7.285600 0.685400
7.321600 0.679700
7.357600 0.681300
7.393500 0.681500
7.429500 0.686000
7.465500 0.689300
7.501400 0.687200
7.537400 0.682800
7.573400 0.684400
7.609300 0.688000
7.645300 0.672700
7.681300 0.655800
7.717200 0.638800
7.753200 0.612100
7.789200 0.585000
7.825100 0.566000
7.861100 0.555100
7.897100 0.556600
7.933000 0.561100
7.969000 0.569700
8.005000 0.583800
8.040900 0.605300
8.076900 0.620700
8.112900 0.641500
8.148800 0.671500
8.184800 0.700600
8.220800 0.725800
8.256700 0.774700
8.292700 0.806100
8.328700 0.831600
8.364600 0.853500
8.400600 0.913500
8.436600 0.987300
8.472500 1.010100
8.508500 1.050300
8.544500 1.051500
8.580400 1.091500
8.616400 1.056000
8.652400 1.012200
8.688300 0.985800
8.724300 0.976400
8.760300 0.955000
8.796200 0.937900
8.832200 0.930600
8.868200 0.931200
8.904100 0.943100
8.940100 0.962400
8.976100 0.957100
9.012000 0.958900
9.048000 0.964100
9.084000 0.965000
9.119900 0.947400
9.155900 0.934600
9.191900 0.889500
9.227800 0.834300
9.263800 0.752300
9.299800 0.728300
9.335700 0.759400
9.371700 0.816600
9.407700 0.868700
9.443600 0.913500
9.479600 0.961800
9.515600 1.005800
9.551500 1.071900
9.587500 1.127800
9.623500 1.159300
9.659400 1.208100
9.695400 1.313300
9.731400 1.138300
9.767300 1.106400
9.803300 1.044500
9.839300 0.997900
9.875200 0.981700
9.911200 1.011600
9.947200 1.005400
9.983100 0.989300
10.019100 0.995900
10.055100 1.012000
10.091000 1.018500
10.127000 1.016100
10.163000 1.005500
10.198900 0.987700
10.234900 0.984200
10.270900 1.003000
10.306800 1.036100
10.342800 1.057800
10.378800 1.071600
10.414700 1.074100
10.450700 1.074000
10.486700 1.074200
10.522600 1.076100
10.558600 1.076000
10.594600 1.081000
10.630500 1.087600
10.666500 1.097400
10.702500 1.109000
10.738400 1.119800
10.774400 1.140100
10.810400 1.159000
10.846300 1.175900
10.882300 1.187200
10.918300 1.196000
10.954200 1.218800
10.990200 1.237400
11.026200 1.196900
11.062100 1.203700
11.098100 1.210000
11.134100 1.210100
11.170000 1.148500
11.206000 1.082000
11.242000 1.153100
11.277900 1.105100
11.313900 1.077200
11.349900 1.170900
11.385800 1.370400
11.421800 1.470800
11.457800 1.513600
11.493700 1.577400
11.529700 1.666400
11.565700 1.658200
11.601600 1.635700
11.637600 1.676700
11.673600 1.668100
11.709500 1.623100
11.745500 1.598900
11.781500 1.629900
11.817400 1.671900
11.853400 1.813600
11.889400 1.985200
11.925300 2.472700
11.961300 2.000700
11.997300 1.803000
12.033200 1.686100
12.069200 1.596200
12.105200 1.475100
12.141100 1.410500
12.177100 1.378200
12.213100 1.354600
12.249000 1.340400
12.285000 1.321800
12.321000 1.294700
12.356900 1.199400
12.392900 1.061800
12.428900 0.981000
12.464800 0.908200
12.500800 0.856800
12.536800 0.807100
12.572700 0.747900
12.608700 0.702800
12.644700 0.654900
12.680600 0.627100
12.716600 0.564200
12.752600 0.520900
12.788500 0.491000
12.824500 0.441700
12.860500 0.381300
12.896400 0.367200
12.932400 0.288200
12.968400 0.221700
13.004300 0.144500
13.040300 0.036500
13.076300 0.028300
13.112200 0.022600
13.148200 0.012700
13.184200 0.000000
13.220100 0.000000
13.256100 0.000000
13.292100 0.000000
13.328000 0.000000
13.364000 0.000000
13.400000 0.000000
13.435900 0.000000
13.471900 0.000000
13.507900 0.000000
13.543800 0.000000
13.579800 0.000000
13.615800 0.000000
13.651700 0.000000
13.687700 0.000000
13.723700 0.000000
13.759600 0.000000
13.795600 0.000000
13.831600 0.000000
13.867500 0.000000
13.903500 0.000000
13.939500 0.000000
13.975400 0.000000
14.011400 0.000000
14.047400 0.000000
14.083300 0.000000
14.119300 0.000000
14.155300 0.000000
14.191200 0.000000
14.227200 0.000000
14.263200 0.000000
14.299100 0.000000
14.335100 0.000000
14.371100 0.000000
14.407000 0.000000
14.443000 0.000000
14.479000 0.000000
14.514900 0.000000
14.550900 0.000000
14.586900 0.000000
14.622800 0.000000
14.658800 0.000000
14.694800 0.000000
14.730700 0.000000
14.766700 0.000000
14.802700 0.000000
14.838600 0.000000
14.874600 0.000000
14.910600 0.000000
14.946500 0.000000
14.982500 0.000000
15.018500 0.000000
15.054400 0.000000
15.090400 0.000000
15.126400 0.000000
15.162300 0.000000
15.198300 0.000000
15.234300 0.000000
15.270200 0.000000
15.306200 0.000000
15.342200 0.000000
15.378100 0.000000
15.414100 0.000000
15.450100 0.000000
15.486000 0.000000
15.522000 0.000000
15.558000 0.000000
15.593900 0.000000
15.629900 0.000000
15.665900 0.000000
15.701800 0.000000
15.737800 0.000000
15.773800 0.000000
15.809700 0.000000
15.845700 0.000000
15.881700 0.000000
15.917600 0.000000
15.953600 0.000000
15.989600 0.000000
16.025500 0.000000
16.061500 0.000000
16.097500 0.000000
16.133400 0.000000
16.169400 0.000000
16.205400 0.000000
16.241300 0.000000
16.277300 0.000000
16.313300 0.000000
16.349200 0.000000
16.385200 0.000000
16.421200 0.000000
16.457100 0.000000
16.493100 0.000000
16.529100 0.000000
16.565000 0.000000
16.601000 0.000000
16.637000 0.000000
16.672900 0.000000
16.708900 0.000000
16.744900 0.000000
16.780800 0.000000
16.816800 0.000000
16.852800 0.000000
16.888700 0.000000
16.924700 0.000000
16.960700 0.000000
16.996600 0.000000
17.032600 0.000000
17.068600 0.000000
17.104500 0.000000
17.140500 0.000000
17.176500 0.000000
17.212400 0.000000
17.248400 0.000000
17.284400 0.000000
17.320300 0.000000
17.356300 0.000000
17.392300 0.000000
17.428200 0.000000
17.464200 0.000000
17.500200 0.000000
17.536100 0.000000
17.572100 0.000000
17.608100 0.000000
17.644000 0.000000
17.680000 0.000000
17.716000 0.000000
17.751900 0.000000
17.787900 0.000000
17.823900 0.000000
17.859800 0.000000
17.895800 0.000000
17.931800 0.000000
17.967700 0.000000
18.003700 0.000000
18.039700 0.000000
18.075600 0.000000
18.111600 0.000000
18.147600 0.000000
18.183500 0.000000
18.219500 0.000000
18.255500 0.000000
18.291400 0.000000
18.327400 0.000000
18.363400 0.000000
18.399300 0.000000
18.435300 0.000000
18.471300 0.000000
18.507200 0.000000
18.543200 0.000000
18.579200 0.000000
18.615100 0.000000
18.651100 0.000000
18.687100 0.000000
18.723000 0.000000
18.759000 0.000000
18.795000 0.000000
18.830900 0.000000
18.866900 0.000000
18.902900 0.000000
18.938800 0.000000
18.974800 0.000000
19.010800 0.000000
19.046700 0.000000
19.082700 0.000000
