set title 'mp-1078331 - Density of States'
set xlabel 'Energy (eV)'
set ylabel 'DOS (states/eV)'
set grid
set xrange [-10:10]
set yrange [0:22.702]
set xzeroaxis lt -1
set terminal png size 800,600
set output 'mp-1078331_dos_gnuplot.png'
plot '-' using 1:2 with lines title 'DOS'
-8.415100 0.000000
-8.400700 0.000000
-8.386200 0.000000
-8.371800 0.000000
-8.357400 0.000000
-8.343000 0.000000
-8.328500 0.000000
-8.314100 0.000000
-8.299700 0.000000
-8.285300 0.000000
-8.270800 0.000000
-8.256400 0.000000
-8.242000 0.000000
-8.227600 0.000000
-8.213100 0.000000
-8.198700 0.000000
-8.184300 0.000000
-8.169900 0.000000
-8.155400 0.000000
-8.141000 0.000000
-8.126600 0.000000
-8.112200 0.000000
-8.097700 0.000000
-8.083300 0.000000
-8.068900 0.000000
-8.054500 0.000000
-8.040000 0.000000
-8.025600 0.000000
-8.011200 0.000000
-7.996800 0.000000
-7.982400 0.000000
-7.967900 0.000000
-7.953500 0.000000
-7.939100 0.000000
-7.924700 0.000000
-7.910200 0.000000
-7.895800 0.000000
-7.881400 0.000000
-7.867000 0.000000
-7.852500 0.000000
-7.838100 0.000000
-7.823700 0.000000
-7.809300 0.000000
-7.794800 0.000000
-7.780400 0.000000
-7.766000 0.000000
-7.751600 0.000000
-7.737100 0.000000
-7.722700 0.000000
-7.708300 0.000000
-7.693900 0.000000
-7.679400 0.000000
-7.665000 0.000000
-7.650600 0.000000
-7.636200 0.000000
-7.621700 0.000000
-7.607300 0.000000
-7.592900 0.000000
-7.578500 0.000000
-7.564000 0.000000
-7.549600 0.000000
-7.535200 0.000000
-7.520800 0.000000
-7.506300 0.000000
-7.491900 0.000000
-7.477500 0.000000
-7.463100 0.000000
-7.448600 0.000000
-7.434200 0.000000
-7.419800 0.000000
-7.405400 0.000000
-7.390900 0.000000
-7.376500 0.000000
-7.362100 0.000000
-7.347700 0.000000
-7.333200 0.000000
-7.318800 0.000000
-7.304400 0.000000
-7.290000 0.000000
-7.275500 0.000000
-7.261100 0.000000
-7.246700 0.000000
-7.232300 0.000000
-7.217800 0.000000
-7.203400 0.000000
-7.189000 0.000000
-7.174600 0.000000
-7.160200 0.000000
-7.145700 0.000000
-7.131300 0.000000
-7.116900 0.000000
-7.102500 0.000500
-7.088000 0.077600
-7.073600 0.275700
-7.059200 0.471300
-7.044800 0.645600
-7.030300 0.827900
-7.015900 1.021800
-7.001500 1.230500
-6.987100 1.460100
-6.972600 1.702600
-6.958200 1.930700
-6.943800 2.109800
-6.929400 2.211700
-6.914900 2.297800
-6.900500 2.374700
-6.886100 2.454600
-6.871700 2.520500
-6.857200 2.639800
-6.842800 2.847500
-6.828400 2.991800
-6.814000 2.939500
-6.799500 2.812500
-6.785100 2.688300
-6.770700 2.567400
-6.756300 2.432200
-6.741800 2.277200
-6.727400 2.089400
-6.713000 1.822600
-6.698600 1.545700
-6.684100 1.548800
-6.669700 1.585700
-6.655300 1.665000
-6.640900 1.776700
-6.626400 1.913200
-6.612000 2.068300
-6.597600 2.233400
-6.583200 2.512100
-6.568700 2.881800
-6.554300 3.118200
-6.539900 3.273500
-6.525500 3.368900
-6.511000 3.428100
-6.496600 3.459900
-6.482200 3.448900
-6.467800 3.420900
-6.453300 3.353200
-6.438900 3.321100
-6.424500 3.327500
-6.410100 3.331200
-6.395700 3.390700
-6.381200 3.451400
-6.366800 3.460800
-6.352400 3.466200
-6.338000 3.504600
-6.323500 3.582700
-6.309100 3.713300
-6.294700 3.722400
-6.280300 3.643500
-6.265800 3.556000
-6.251400 3.439500
-6.237000 3.292200
-6.222600 3.126500
-6.208100 3.340900
-6.193700 3.211500
-6.179300 3.178100
-6.164900 3.248100
-6.150400 3.325800
-6.136000 3.375300
-6.121600 3.379900
-6.107200 3.414500
-6.092700 3.459700
-6.078300 3.511800
-6.063900 3.570300
-6.049500 3.650200
-6.035000 3.750400
-6.020600 3.864200
-6.006200 4.010900
-5.991800 4.371100
-5.977300 4.789100
-5.962900 5.501500
-5.948500 6.548200
-5.934100 7.002200
-5.919600 7.416300
-5.905200 7.733200
-5.890800 7.742300
-5.876400 7.022200
-5.861900 6.230400
-5.847500 5.387700
-5.833100 4.628900
-5.818700 4.427300
-5.804200 4.489400
-5.789800 4.556000
-5.775400 4.618600
-5.761000 4.689600
-5.746500 4.766400
-5.732100 4.845300
-5.717700 4.930700
-5.703300 5.112100
-5.688800 5.380800
-5.674400 6.015200
-5.660000 6.837900
-5.645600 7.784100
-5.631100 7.688700
-5.616700 7.526200
-5.602300 7.527400
-5.587900 7.440800
-5.573500 7.233300
-5.559000 5.999600
-5.544600 5.447900
-5.530200 5.706300
-5.515800 5.883100
-5.501300 6.031100
-5.486900 6.222200
-5.472500 6.142800
-5.458100 6.298400
-5.443600 6.659900
-5.429200 7.348800
-5.414800 9.061600
-5.400400 11.163200
-5.385900 13.168300
-5.371500 14.217700
-5.357100 14.585000
-5.342700 16.243000
-5.328200 11.276500
-5.313800 9.586900
-5.299400 8.885400
-5.285000 8.270100
-5.270500 7.798800
-5.256100 7.280800
-5.241700 6.485000
-5.227300 5.354000
-5.212800 4.947800
-5.198400 4.522600
-5.184000 4.690000
-5.169600 5.256900
-5.155100 6.211800
-5.140700 7.313400
-5.126300 8.877100
-5.111900 11.000200
-5.097400 13.726700
-5.083000 18.746600
-5.068600 20.638200
-5.054200 19.124000
-5.039700 14.015300
-5.025300 8.240000
-5.010900 8.189800
-4.996500 8.139500
-4.982000 7.376500
-4.967600 6.939300
-4.953200 6.707000
-4.938800 6.732000
-4.924300 6.778000
-4.909900 7.247200
-4.895500 9.156900
-4.881100 10.278800
-4.866600 9.232900
-4.852200 6.648000
-4.837800 0.000000
-4.823400 0.000000
-4.808900 0.000000
-4.794500 0.000000
-4.780100 0.000000
-4.765700 0.000000
-4.751300 0.000000
-4.736800 0.000000
-4.722400 0.000000
-4.708000 0.000000
-4.693600 0.000000
-4.679100 0.000000
-4.664700 0.000000
-4.650300 0.000000
-4.635900 0.000000
-4.621400 0.000000
-4.607000 0.000000
-4.592600 0.000000
-4.578200 0.000000
-4.563700 0.000000
-4.549300 0.000000
-4.534900 0.000000
-4.520500 0.000000
-4.506000 0.000000
-4.491600 0.000000
-4.477200 0.000000
-4.462800 0.000000
-4.448300 0.000000
-4.433900 0.000000
-4.419500 0.000000
-4.405100 0.000000
-4.390600 0.000000
-4.376200 0.000000
-4.361800 0.000000
-4.347400 0.000000
-4.332900 0.000000
-4.318500 0.000000
-4.304100 0.000000
-4.289700 0.000000
-4.275200 0.000000
-4.260800 0.000000
-4.246400 0.000000
-4.232000 0.000000
-4.217500 0.000000
-4.203100 0.000000
-4.188700 0.000000
-4.174300 0.000000
-4.159800 0.000000
-4.145400 0.000000
-4.131000 0.000000
-4.116600 0.000000
-4.102100 0.000000
-4.087700 0.000000
-4.073300 0.000000
-4.058900 0.000000
-4.044400 0.000000
-4.030000 0.000000
-4.015600 0.000000
-4.001200 0.000000
-3.986800 0.000000
-3.972300 0.000000
-3.957900 0.000000
-3.943500 0.000000
-3.929100 0.000000
-3.914600 0.000000
-3.900200 0.000000
-3.885800 0.000000
-3.871400 0.000000
-3.856900 0.000000
-3.842500 0.000000
-3.828100 0.000000
-3.813700 0.000000
-3.799200 0.000000
-3.784800 0.000000
-3.770400 0.000000
-3.756000 0.000000
-3.741500 0.000000
-3.727100 0.000000
-3.712700 0.000000
-3.698300 0.000000
-3.683800 0.000000
-3.669400 0.000000
-3.655000 0.000000
-3.640600 0.000000
-3.626100 0.099700
-3.611700 1.176400
-3.597300 2.868700
-3.582900 4.461400
-3.568400 6.081600
-3.554000 7.685300
-3.539600 7.989300
-3.525200 9.571700
-3.510700 8.720800
-3.496300 7.050200
-3.481900 6.074300
-3.467500 5.224900
-3.453000 4.010400
-3.438600 3.292000
-3.424200 2.693000
-3.409800 2.606100
-3.395300 2.857100
-3.380900 3.247200
-3.366500 3.633300
-3.352100 4.038300
-3.337600 3.915700
-3.323200 4.185200
-3.308800 6.999000
-3.294400 10.375600
-3.279900 10.763500
-3.265500 10.374700
-3.251100 9.693100
-3.236700 7.343400
-3.222200 7.079500
-3.207800 6.754300
-3.193400 6.324900
-3.179000 6.230500
-3.164600 7.162200
-3.150100 7.595100
-3.135700 8.594000
-3.121300 9.158500
-3.106900 9.295600
-3.092400 9.317200
-3.078000 8.262300
-3.063600 7.104900
-3.049200 5.976600
-3.034700 5.252600
-3.020300 4.770100
-3.005900 4.409500
-2.991500 4.246700
-2.977000 4.720200
-2.962600 5.164500
-2.948200 5.549600
-2.933800 6.075600
-2.919300 6.970900
-2.904900 8.033400
-2.890500 8.160600
-2.876100 6.130500
-2.861600 5.221200
-2.847200 4.406400
-2.832800 4.141100
-2.818400 4.081100
-2.803900 4.004000
-2.789500 3.942400
-2.775100 3.917900
-2.760700 3.765900
-2.746200 3.158000
-2.731800 2.849300
-2.717400 2.917400
-2.703000 2.982500
-2.688500 3.036500
-2.674100 3.067800
-2.659700 3.096200
-2.645300 3.125100
-2.630800 3.176400
-2.616400 3.239300
-2.602000 3.445800
-2.587600 3.820500
-2.573100 4.310500
-2.558700 4.546400
-2.544300 4.442500
-2.529900 4.075200
-2.515400 3.857400
-2.501000 3.639200
-2.486600 3.404700
-2.472200 3.186500
-2.457700 3.005800
-2.443300 2.912500
-2.428900 2.823300
-2.414500 2.738500
-2.400100 2.664500
-2.385600 2.603300
-2.371200 2.549800
-2.356800 2.501400
-2.342400 2.452800
-2.327900 2.400000
-2.313500 2.359000
-2.299100 2.327700
-2.284700 2.319400
-2.270200 2.342400
-2.255800 2.388100
-2.241400 2.366700
-2.227000 2.257700
-2.212500 2.122700
-2.198100 1.969100
-2.183700 1.839600
-2.169300 1.717200
-2.154800 1.600600
-2.140400 1.482600
-2.126000 1.220000
-2.111600 1.135400
-2.097100 1.078400
-2.082700 1.044800
-2.068300 1.034400
-2.053900 1.034100
-2.039400 1.033800
-2.025000 1.033500
-2.010600 1.033100
-1.996200 1.032800
-1.981700 1.032500
-1.967300 1.032200
-1.952900 1.031900
-1.938500 1.031600
-1.924000 1.031200
-1.909600 1.030900
-1.895200 1.030600
-1.880800 1.042800
-1.866300 1.085100
-1.851900 1.151600
-1.837500 1.227200
-1.823100 1.311000
-1.808600 1.403200
-1.794200 1.497800
-1.779800 1.569100
-1.765400 1.629800
-1.750900 1.716000
-1.736500 1.735700
-1.722100 1.738200
-1.707700 1.749900
-1.693200 1.755800
-1.678800 1.759200
-1.664400 1.762500
-1.650000 1.772900
-1.635500 1.786800
-1.621100 1.813400
-1.606700 1.851300
-1.592300 1.861400
-1.577900 1.823200
-1.563400 1.730000
-1.549000 1.626300
-1.534600 1.535400
-1.520200 1.445200
-1.505700 1.355900
-1.491300 1.267300
-1.476900 1.179600
-1.462500 1.092800
-1.448000 1.006900
-1.433600 0.921900
-1.419200 0.759100
-1.404800 0.671300
-1.390300 0.588200
-1.375900 0.509700
-1.361500 0.436100
-1.347100 0.372200
-1.332600 0.313700
-1.318200 0.258500
-1.303800 0.206800
-1.289400 0.157300
-1.274900 0.103500
-1.260500 0.052500
-1.246100 0.016900
-1.231700 0.001000
-1.217200 0.000000
-1.202800 0.000000
-1.188400 0.000000
-1.174000 0.000000
-1.159500 0.000000
-1.145100 0.000000
-1.130700 0.000000
-1.116300 0.000000
-1.101800 0.000000
-1.087400 0.000000
-1.073000 0.000000
-1.058600 0.000000
-1.044100 0.000000
-1.029700 0.000000
-1.015300 0.000000
-1.000900 0.000000
-0.986400 0.000000
-0.972000 0.000000
-0.957600 0.000000
-0.943200 0.000000
-0.928700 0.000000
-0.914300 0.000000
-0.899900 0.000000
-0.885500 0.000000
-0.871000 0.000000
-0.856600 0.000000
-0.842200 0.000000
-0.827800 0.000000
-0.813400 0.000000
-0.798900 0.000000
-0.784500 0.000000
-0.770100 0.000000
-0.755700 0.000000
-0.741200 0.000000
-0.726800 0.000000
-0.712400 0.000000
-0.698000 0.000000
-0.683500 0.000000
-0.669100 0.000000
-0.654700 0.000000
-0.640300 0.000000
-0.625800 0.000000
-0.611400 0.000000
-0.597000 0.000000
-0.582600 0.000000
-0.568100 0.000000
-0.553700 0.000000
-0.539300 0.000000
-0.524900 0.000000
-0.510400 0.000000
-0.496000 0.000000
-0.481600 0.000000
-0.467200 0.000000
-0.452700 0.000000
-0.438300 0.000000
-0.423900 0.000000
-0.409500 0.000000
-0.395000 0.000000
-0.380600 0.000000
-0.366200 0.000000
-0.351800 0.000000
-0.337300 0.000000
-0.322900 0.000000
-0.308500 0.000000
-0.294100 0.000000
-0.279600 0.000000
-0.265200 0.000000
-0.250800 0.000000
-0.236400 0.000000
-0.221900 0.000000
-0.207500 0.000000
-0.193100 0.000000
-0.178700 0.000000
-0.164200 0.000000
-0.149800 0.000000
-0.135400 0.000000
-0.121000 0.000000
-0.106500 0.000000
-0.092100 0.000000
-0.077700 0.000000
-0.063300 0.000000
-0.048800 0.000000
-0.034400 0.000000
-0.020000 0.000000
-0.005600 0.000000
0.008800 0.000000
0.023300 0.000000
0.037700 0.000000
0.052100 0.000000
0.066500 0.000000
0.081000 0.000000
0.095400 0.000000
0.109800 0.000000
0.124200 0.000000
0.138700 0.000000
0.153100 0.000000
0.167500 0.000000
0.181900 0.000000
0.196400 0.000000
0.210800 0.000000
0.225200 0.000000
0.239600 0.000000
0.254100 0.000000
0.268500 0.000000
0.282900 0.000000
0.297300 0.000000
0.311800 0.000000
0.326200 0.000000
0.340600 0.000000
0.355000 0.000000
0.369500 0.000000
0.383900 0.000000
0.398300 0.000000
0.412700 0.000000
0.427200 0.000000
0.441600 0.000000
0.456000 0.000000
0.470400 0.000000
0.484900 0.000000
0.499300 0.000000
0.513700 0.000000
0.528100 0.000000
0.542600 0.000000
0.557000 0.000000
0.571400 0.000000
0.585800 0.000000
0.600300 0.000000
0.614700 0.000000
0.629100 0.000000
0.643500 0.099200
0.658000 0.617800
0.672400 1.835300
0.686800 2.985100
0.701200 3.156400
0.715700 3.163800
0.730100 3.099000
0.744500 3.131800
0.758900 3.409200
0.773300 3.689800
0.787800 3.895200
0.802200 3.701300
0.816600 4.045100
0.831000 4.348700
0.845500 4.667300
0.859900 5.084300
0.874300 5.315900
0.888700 5.486700
0.903200 5.558900
0.917600 5.745100
0.932000 5.911000
0.946400 6.057800
0.960900 6.356700
0.975300 6.694200
0.989700 6.879100
1.004100 6.294300
1.018600 5.877100
1.033000 5.368000
1.047400 5.024600
1.061800 4.905700
1.076300 4.807800
1.090700 4.727600
1.105100 4.587400
1.119500 4.391100
1.134000 4.072400
1.148400 3.773000
1.162800 3.531700
1.177200 3.298200
1.191700 3.149800
1.206100 3.040500
1.220500 2.932600
1.234900 2.822900
1.249400 2.718500
1.263800 2.621100
1.278200 2.553700
1.292600 2.517500
1.307100 2.518200
1.321500 2.568700
1.335900 3.656200
1.350300 3.917400
1.364800 4.372300
1.379200 4.690200
1.393600 4.863100
1.408000 4.902900
1.422500 5.018400
1.436900 5.290500
1.451300 5.613200
1.465700 6.041500
1.480200 6.592500
1.494600 7.188400
1.509000 6.615600
1.523400 6.075100
1.537900 5.556300
1.552300 5.304600
1.566700 5.278500
1.581100 5.214500
1.595500 5.320100
1.610000 5.767700
1.624400 5.499100
1.638800 6.235000
1.653200 7.023300
1.667700 7.868400
1.682100 8.883600
1.696500 9.107900
1.710900 9.773200
1.725400 10.024400
1.739800 9.761900
1.754200 9.367300
1.768600 8.515300
1.783100 8.078900
1.797500 8.129400
1.811900 8.159900
1.826300 8.581200
1.840800 9.266100
1.855200 10.329900
1.869600 11.881600
1.884000 11.731200
1.898500 10.994800
1.912900 10.065400
1.927300 8.684600
1.941700 8.133400
1.956200 7.789300
1.970600 7.770300
1.985000 7.924600
1.999400 8.254600
2.013900 8.349500
2.028300 8.557000
2.042700 8.860300
2.057100 9.150300
2.071600 9.298900
2.086000 9.329800
2.100400 9.238600
2.114800 8.964400
2.129300 9.189400
2.143700 9.751500
2.158100 9.927000
2.172500 9.994200
2.187000 10.005400
2.201400 9.952400
2.215800 9.412300
2.230200 9.156200
2.244700 8.961000
2.259100 8.894800
2.273500 8.725300
2.287900 8.804100
2.302400 8.816700
2.316800 8.714100
2.331200 8.673200
2.345600 8.745000
2.360100 8.906800
2.374500 9.177500
2.388900 8.960600
2.403300 8.753200
2.417700 8.554800
2.432200 8.252200
2.446600 7.989200
2.461000 7.759800
2.475400 7.572900
2.489900 7.415300
2.504300 7.443100
2.518700 7.530300
2.533100 7.578200
2.547600 7.613000
2.562000 7.464100
2.576400 7.193200
2.590800 6.880800
2.605300 6.718700
2.619700 6.551900
2.634100 6.317600
2.648500 6.109100
2.663000 5.904100
2.677400 5.773900
2.691800 5.852600
2.706200 6.002600
2.720700 6.174700
2.735100 6.405300
2.749500 6.913400
2.763900 7.437900
2.778400 7.747900
2.792800 8.129200
2.807200 8.214100
2.821600 8.381800
2.836100 8.200600
2.850500 8.019300
2.864900 8.036200
2.879300 8.278000
2.893800 8.624600
2.908200 8.597800
2.922600 8.470500
2.937000 8.377900
2.951500 8.116600
2.965900 7.872800
2.980300 7.756300
2.994700 8.104600
3.009200 8.898600
3.023600 10.818000
3.038000 10.057400
3.052400 10.001200
3.066900 10.371000
3.081300 9.795100
3.095700 9.411900
3.110100 9.226100
3.124600 10.255400
3.139000 10.324400
3.153400 10.208900
3.167800 9.900100
3.182200 9.823900
3.196700 10.138600
3.211100 10.826800
3.225500 11.312100
3.239900 10.622200
3.254400 10.238200
3.268800 10.484900
3.283200 9.757600
3.297600 10.362600
3.312100 11.388300
3.326500 9.875900
3.340900 9.575000
3.355300 9.729700
3.369800 9.969600
3.384200 10.643500
3.398600 10.424000
3.413000 10.778500
3.427500 11.634700
3.441900 10.548100
3.456300 9.744200
3.470700 8.877000
3.485200 8.165100
3.499600 7.825500
3.514000 7.569700
3.528400 7.855800
3.542900 8.515900
3.557300 7.126300
3.571700 6.783900
3.586100 6.483300
3.600600 6.266500
3.615000 6.100000
3.629400 6.128100
3.643800 6.320800
3.658300 6.709200
3.672700 7.425800
3.687100 8.180800
3.701500 7.879600
3.716000 8.294300
3.730400 8.651000
3.744800 8.951000
3.759200 9.452800
3.773700 9.564200
3.788100 9.072900
3.802500 8.406500
3.816900 7.856200
3.831400 7.413000
3.845800 7.122200
3.860200 6.926800
3.874600 6.792900
3.889100 6.673100
3.903500 6.713800
3.917900 6.949400
3.932300 7.249500
3.946800 7.440500
3.961200 7.566400
3.975600 7.668500
3.990000 7.925000
4.004400 8.233200
4.018900 8.369600
4.033300 8.122800
4.047700 7.906800
4.062100 7.590700
4.076600 7.161200
4.091000 7.268300
4.105400 7.106700
4.119800 6.871700
4.134300 6.506500
4.148700 6.057900
4.163100 5.652300
4.177500 5.872500
4.192000 6.323400
4.206400 6.805600
4.220800 7.204000
4.235200 7.551400
4.249700 7.735200
4.264100 7.999000
4.278500 8.313400
4.292900 8.567800
4.307400 8.487600
4.321800 8.275000
4.336200 7.776300
4.350600 7.524900
4.365100 7.426400
4.379500 7.443700
4.393900 7.548300
4.408300 7.643400
4.422800 7.856900
4.437200 8.236100
4.451600 7.841300
4.466000 7.832000
4.480500 7.837700
4.494900 7.802300
4.509300 7.875900
4.523700 8.049800
4.538200 8.398800
4.552600 8.524800
4.567000 8.605900
4.581400 8.522200
4.595900 8.429400
4.610300 8.374400
4.624700 8.611200
4.639100 8.301400
4.653600 8.151300
4.668000 7.863900
4.682400 7.819300
4.696800 8.366700
4.711300 8.839600
4.725700 9.203100
4.740100 9.358700
4.754500 9.216800
4.768900 9.097700
4.783400 8.931600
4.797800 8.492800
4.812200 8.126300
4.826600 7.859600
4.841100 8.057600
4.855500 8.529100
4.869900 8.699700
4.884300 9.862100
4.898800 10.717000
4.913200 10.847000
4.927600 10.346000
4.942000 9.823300
4.956500 9.382900
4.970900 8.331800
4.985300 7.720700
4.999700 7.259100
5.014200 6.901000
5.028600 6.683300
5.043000 6.625600
5.057400 6.968700
5.071900 7.762800
5.086300 8.165500
5.100700 8.215500
5.115100 8.155200
5.129600 8.171000
5.144000 7.772600
5.158400 7.083800
5.172800 6.178700
5.187300 5.621200
5.201700 5.485300
5.216100 5.439100
5.230500 5.485400
5.245000 5.601100
5.259400 5.775100
5.273800 6.024000
5.288200 6.189200
5.302700 6.141500
5.317100 5.966800
5.331500 5.820500
5.345900 5.668100
5.360400 5.479400
5.374800 5.273800
5.389200 5.058700
5.403600 5.003400
5.418100 5.012100
5.432500 4.559100
5.446900 4.169500
5.461300 3.807400
5.475800 3.493300
5.490200 3.313400
5.504600 3.089100
5.519000 2.919600
5.533500 2.906800
5.547900 2.627900
5.562300 2.152500
5.576700 1.633700
5.591100 1.205600
5.605600 0.865200
5.620000 0.622300
5.634400 0.471500
5.648800 0.333600
5.663300 0.199700
5.677700 0.004500
5.692100 0.000000
5.706500 0.000000
5.721000 0.000000
5.735400 0.000000
5.749800 0.000000
5.764200 0.006300
5.778700 0.013500
5.793100 0.021300
5.807500 0.029700
5.821900 0.038700
5.836400 0.048300
5.850800 0.058500
5.865200 0.069400
5.879600 0.080900
5.894100 0.092900
5.908500 0.105600
5.922900 0.119000
5.937300 0.132900
5.951800 0.147500
5.966200 0.162600
5.980600 0.178400
5.995000 0.195300
6.009500 0.214800
6.023900 0.246200
6.038300 0.285300
6.052700 0.328700
6.067200 0.376500
6.081600 0.428500
6.096000 0.484800
6.110400 0.545400
6.124900 0.607700
6.139300 0.694300
6.153700 0.805800
6.168100 0.906200
6.182600 0.991700
6.197000 1.073500
6.211400 1.154600
6.225800 1.249400
6.240300 1.366100
6.254700 1.475800
6.269100 1.578200
6.283500 1.679400
6.298000 1.783800
6.312400 1.893100
6.326800 2.007100
6.341200 2.125700
6.355600 2.249500
6.370100 2.383000
6.384500 2.538700
6.398900 2.706600
6.413300 2.940800
6.427800 3.358100
6.442200 3.900600
6.456600 4.434300
6.471000 4.734700
6.485500 4.997900
6.499900 5.404900
6.514300 6.021300
6.528700 7.137700
6.543200 7.701700
6.557600 7.658600
6.572000 7.927400
6.586400 7.930700
6.600900 8.340700
6.615300 8.992900
6.629700 9.784100
6.644100 10.565000
6.658600 10.586300
6.673000 9.649600
6.687400 8.520600
6.701800 7.704200
6.716300 7.054400
6.730700 6.757000
6.745100 6.653600
6.759500 7.079000
6.774000 7.679200
6.788400 8.517900
6.802800 9.400900
6.817200 10.219600
6.831700 13.199200
6.846100 10.829300
6.860500 10.594400
