set title 'mp-569802 - Density of States'
set xlabel 'Energy (eV)'
set ylabel 'DOS (states/eV)'
set grid
set xrange [-10:10]
set yrange [0:12.153]
set xzeroaxis lt -1
set terminal png size 800,600
set output 'mp-569802_dos_gnuplot.png'
plot '-' using 1:2 with lines title 'DOS'
-6.306400 0.000000
-6.291200 0.000000
-6.276000 0.000000
-6.260900 0.000000
-6.245700 0.000000
-6.230500 0.000000
-6.215300 0.000000
-6.200200 0.000000
-6.185000 0.000000
-6.169800 0.000000
-6.154600 0.000000
-6.139500 0.000000
-6.124300 0.000000
-6.109100 0.000000
-6.094000 0.000000
-6.078800 0.000000
-6.063600 0.000000
-6.048400 0.000000
-6.033300 0.000000
-6.018100 0.000000
-6.002900 0.000000
-5.987700 0.000000
-5.972600 0.000000
-5.957400 0.000000
-5.942200 0.000000
-5.927000 0.000000
-5.911900 0.000000
-5.896700 0.000000
-5.881500 0.000000
-5.866400 0.000000
-5.851200 0.000000
-5.836000 0.000000
-5.820800 0.000000
-5.805700 0.000000
-5.790500 0.000000
-5.775300 0.000000
-5.760100 0.000000
-5.745000 0.000000
-5.729800 0.000000
-5.714600 0.000000
-5.699400 0.000000
-5.684300 0.000000
-5.669100 0.000000
-5.653900 0.000000
-5.638800 0.000000
-5.623600 0.000000
-5.608400 0.000000
-5.593200 0.000000
-5.578100 0.000000
-5.562900 0.000000
-5.547700 0.000000
-5.532500 0.000000
-5.517400 0.000000
-5.502200 0.000000
-5.487000 0.000000
-5.471800 0.000000
-5.456700 0.000000
-5.441500 0.000000
-5.426300 0.000000
-5.411200 0.000000
-5.396000 0.000000
-5.380800 0.000000
-5.365600 0.000000
-5.350500 0.000000
-5.335300 0.000000
-5.320100 0.000000
-5.304900 0.000000
-5.289800 0.000000
-5.274600 0.000000
-5.259400 0.000000
-5.244200 0.000000
-5.229100 0.000000
-5.213900 0.000000
-5.198700 0.000000
-5.183600 0.000000
-5.168400 0.000000
-5.153200 0.000000
-5.138000 0.000000
-5.122900 0.000000
-5.107700 0.000000
-5.092500 0.000000
-5.077300 0.000000
-5.062200 0.000000
-5.047000 0.000000
-5.031800 0.000000
-5.016600 0.000000
-5.001500 0.000000
-4.986300 0.000000
-4.971100 0.000000
-4.956000 0.000000
-4.940800 0.000000
-4.925600 0.000100
-4.910400 0.012500
-4.895300 0.045900
-4.880100 0.100200
-4.864900 0.168000
-4.849700 0.243200
-4.834600 0.293000
-4.819400 0.304200
-4.804200 0.303100
-4.789000 0.311100
-4.773900 0.337600
-4.758700 0.364700
-4.743500 0.392400
-4.728400 0.419100
-4.713200 0.443600
-4.698000 0.465900
-4.682800 0.486100
-4.667700 0.503600
-4.652500 0.521300
-4.637300 0.538200
-4.622100 0.551700
-4.607000 0.563900
-4.591800 0.575100
-4.576600 0.586600
-4.561400 0.600000
-4.546300 0.615200
-4.531100 0.631300
-4.515900 0.647200
-4.500800 0.661800
-4.485600 0.675600
-4.470400 0.689000
-4.455200 0.702100
-4.440100 0.715900
-4.424900 0.731600
-4.409700 0.747600
-4.394500 0.763700
-4.379400 0.779900
-4.364200 0.796200
-4.349000 0.812500
-4.333800 0.824900
-4.318700 0.834700
-4.303500 0.843800
-4.288300 0.855400
-4.273200 0.867700
-4.258000 0.880100
-4.242800 0.892700
-4.227600 0.905300
-4.212500 0.917600
-4.197300 0.929500
-4.182100 0.940800
-4.166900 0.951800
-4.151800 0.964100
-4.136600 0.977000
-4.121400 0.990000
-4.106200 1.003200
-4.091100 1.016400
-4.075900 1.029700
-4.060700 1.043200
-4.045600 1.056600
-4.030400 1.070200
-4.015200 1.083900
-4.000000 1.097800
-3.984900 1.112400
-3.969700 1.127600
-3.954500 1.142900
-3.939300 1.158300
-3.924200 1.173200
-3.909000 1.187100
-3.893800 1.200100
-3.878600 1.212700
-3.863500 1.225200
-3.848300 1.237900
-3.833100 1.251200
-3.818000 1.265000
-3.802800 1.278900
-3.787600 1.292800
-3.772400 1.306800
-3.757300 1.320900
-3.742100 1.335200
-3.726900 1.349600
-3.711700 1.364300
-3.696600 1.380900
-3.681400 1.397000
-3.666200 1.413200
-3.651000 1.429600
-3.635900 1.446100
-3.620700 1.462800
-3.605500 1.479900
-3.590400 1.497400
-3.575200 1.515900
-3.560000 1.535900
-3.544800 1.557600
-3.529700 1.580700
-3.514500 1.603700
-3.499300 1.625700
-3.484100 1.648200
-3.469000 1.670900
-3.453800 1.694100
-3.438600 1.717500
-3.423400 1.741300
-3.408300 1.766900
-3.393100 1.792600
-3.377900 1.818300
-3.362800 1.845000
-3.347600 1.872500
-3.332400 1.902300
-3.317200 1.942100
-3.302100 1.993200
-3.286900 2.055500
-3.271700 2.120900
-3.256500 2.235100
-3.241400 2.376200
-3.226200 2.463600
-3.211000 2.500500
-3.195800 2.516400
-3.180700 2.515000
-3.165500 2.537500
-3.150300 2.555700
-3.135200 2.566000
-3.120000 2.567200
-3.104800 2.562500
-3.089600 2.552600
-3.074500 2.538400
-3.059300 2.520600
-3.044100 2.501400
-3.028900 2.486100
-3.013800 2.481800
-2.998600 2.488900
-2.983400 2.497900
-2.968200 2.503500
-2.953100 2.508000
-2.937900 2.520600
-2.922700 2.542100
-2.907600 2.571100
-2.892400 2.617000
-2.877200 2.720200
-2.862000 2.860600
-2.846900 3.047600
-2.831700 3.563700
-2.816500 3.790900
-2.801300 3.375100
-2.786200 3.293900
-2.771000 3.306400
-2.755800 3.321700
-2.740600 3.393600
-2.725500 3.527100
-2.710300 3.867900
-2.695100 4.262200
-2.680000 4.739600
-2.664800 3.651900
-2.649600 3.680100
-2.634400 3.518500
-2.619300 3.236300
-2.604100 2.813700
-2.588900 2.392600
-2.573700 2.004900
-2.558600 1.875600
-2.543400 1.751600
-2.528200 1.636800
-2.513000 1.519000
-2.497900 1.414200
-2.482700 1.304200
-2.467500 1.196200
-2.452400 1.090100
-2.437200 0.998300
-2.422000 0.965500
-2.406800 0.954900
-2.391700 0.772500
-2.376500 0.585300
-2.361300 0.588600
-2.346100 1.809600
-2.331000 0.000000
-2.315800 0.000000
-2.300600 0.000000
-2.285400 0.000000
-2.270300 0.000000
-2.255100 0.000000
-2.239900 0.000000
-2.224800 0.000000
-2.209600 0.000000
-2.194400 0.000000
-2.179200 0.000000
-2.164100 0.000000
-2.148900 0.208300
-2.133700 0.257200
-2.118500 0.164200
-2.103400 0.187600
-2.088200 0.212100
-2.073000 0.237800
-2.057800 0.264500
-2.042700 0.265900
-2.027500 0.291000
-2.012300 0.316800
-1.997200 0.343400
-1.982000 0.370700
-1.966800 0.398700
-1.951600 0.427500
-1.936500 0.448100
-1.921300 0.482900
-1.906100 0.517400
-1.890900 0.551400
-1.875800 0.585000
-1.860600 0.618100
-1.845400 0.650800
-1.830200 0.683100
-1.815100 0.714900
-1.799900 0.746300
-1.784700 0.855900
-1.769600 0.912500
-1.754400 1.090800
-1.739200 1.306600
-1.724000 1.524600
-1.708900 1.744700
-1.693700 2.008100
-1.678500 2.363300
-1.663300 3.874900
-1.648200 3.026400
-1.633000 2.973200
-1.617800 2.888300
-1.602600 2.796700
-1.587500 2.824300
-1.572300 2.963500
-1.557100 3.105800
-1.542000 3.248300
-1.526800 3.253100
-1.511600 3.001800
-1.496400 2.777200
-1.481300 2.591500
-1.466100 2.454300
-1.450900 2.370700
-1.435700 2.341400
-1.420600 2.337900
-1.405400 2.349800
-1.390200 2.367200
-1.375000 2.389100
-1.359900 2.414500
-1.344700 2.440900
-1.329500 2.514800
-1.314400 2.640100
-1.299200 2.859600
-1.284000 2.928900
-1.268800 2.918300
-1.253700 2.820700
-1.238500 2.646900
-1.223300 2.633100
-1.208100 2.555800
-1.193000 2.406300
-1.177800 2.221800
-1.162600 2.135700
-1.147400 2.070600
-1.132300 2.007300
-1.117100 1.946700
-1.101900 1.888600
-1.086800 1.833100
-1.071600 1.770800
-1.056400 1.703700
-1.041200 1.657300
-1.026100 1.641000
-1.010900 1.625100
-0.995700 1.609700
-0.980500 1.594600
-0.965400 1.579800
-0.950200 1.565000
-0.935000 1.550500
-0.919800 1.536000
-0.904700 1.521600
-0.889500 1.507400
-0.874300 1.493200
-0.859200 1.479100
-0.844000 1.465000
-0.828800 1.451100
-0.813600 1.437100
-0.798500 1.423100
-0.783300 1.409000
-0.768100 1.394900
-0.752900 1.380900
-0.737800 1.367100
-0.722600 1.353300
-0.707400 1.339600
-0.692200 1.325200
-0.677100 1.310300
-0.661900 1.295400
-0.646700 1.280400
-0.631600 1.265400
-0.616400 1.247900
-0.601200 1.227700
-0.586000 1.208100
-0.570900 1.190400
-0.555700 1.178100
-0.540500 1.170700
-0.525300 1.163300
-0.510200 1.155900
-0.495000 1.141100
-0.479800 1.126900
-0.464600 1.116900
-0.449500 1.107100
-0.434300 1.097300
-0.419100 1.087600
-0.404000 1.078800
-0.388800 1.070200
-0.373600 1.061700
-0.358400 1.053100
-0.343300 1.044600
-0.328100 1.036100
-0.312900 1.027600
-0.297700 1.019500
-0.282600 1.011300
-0.267400 1.003200
-0.252200 0.995000
-0.237000 0.986700
-0.221900 0.978400
-0.206700 0.970000
-0.191500 0.961600
-0.176400 0.952900
-0.161200 0.943900
-0.146000 0.935000
-0.130800 0.926200
-0.115700 0.917400
-0.100500 0.908800
-0.085300 0.900100
-0.070100 0.891600
-0.055000 0.883100
-0.039800 0.874900
-0.024600 0.866700
-0.009400 0.858700
0.005700 0.850500
0.020900 0.842300
0.036100 0.833900
0.051200 0.824000
0.066400 0.814800
0.081600 0.809100
0.096800 0.803100
0.111900 0.797000
0.127100 0.790800
0.142300 0.784500
0.157500 0.778100
0.172600 0.771500
0.187800 0.764800
0.203000 0.758100
0.218200 0.751200
0.233300 0.744200
0.248500 0.737100
0.263700 0.730000
0.278800 0.722700
0.294000 0.715300
0.309200 0.708100
0.324400 0.701300
0.339500 0.694700
0.354700 0.688100
0.369900 0.681600
0.385100 0.675200
0.400200 1.215200
0.415400 0.983600
0.430600 1.044200
0.445800 1.107800
0.460900 1.174500
0.476100 1.205900
0.491300 1.257300
0.506400 1.321200
0.521600 1.387400
0.536800 1.456100
0.552000 1.527200
0.567100 1.600800
0.582300 1.749200
0.597500 1.888600
0.612700 2.028600
0.627800 2.011200
0.643000 2.048200
0.658200 2.078200
0.673400 2.104600
0.688500 2.127200
0.703700 2.230800
0.718900 2.269200
0.734000 2.301100
0.749200 2.179500
0.764400 2.169000
0.779600 2.163400
0.794700 2.160100
0.809900 2.158600
0.825100 2.159100
0.840300 2.156900
0.855400 2.158200
0.870600 2.173600
0.885800 2.190500
0.901000 2.206800
0.916100 2.222600
0.931300 2.241900
0.946500 2.269800
0.961600 2.285100
0.976800 2.299100
0.992000 2.310800
1.007200 2.318800
1.022300 2.325000
1.037500 2.331700
1.052700 2.338800
1.067900 2.346900
1.083000 2.359800
1.098200 2.375000
1.113400 2.389100
1.128600 2.403400
1.143700 2.419600
1.158900 2.439800
1.174100 2.461600
1.189200 2.483700
1.204400 2.503100
1.219600 2.524400
1.234800 2.548600
1.249900 2.606400
1.265100 2.617400
1.280300 2.628900
1.295500 2.640900
1.310600 2.653400
1.325800 2.666400
1.341000 2.678900
1.356200 2.688400
1.371300 2.694800
1.386500 2.702000
1.401700 2.710500
1.416800 2.720200
1.432000 2.730900
1.447200 2.741900
1.462400 2.753300
1.477500 2.765900
1.492700 2.779900
1.507900 2.790700
1.523100 2.801300
1.538200 2.835800
1.553400 2.921500
1.568600 2.970500
1.583800 3.012600
1.598900 3.051200
1.614100 3.086900
1.629300 3.124800
1.644400 3.165500
1.659600 3.208100
1.674800 3.250600
1.690000 3.295700
1.705100 3.345300
1.720300 3.403500
1.735500 3.470300
1.750700 3.545800
1.765800 3.592800
1.781000 3.605300
1.796200 3.587700
1.811400 3.559900
1.826500 3.517800
1.841700 3.451000
1.856900 3.369900
1.872000 3.309100
1.887200 3.249700
1.902400 3.157800
1.917600 3.000300
1.932700 2.926800
1.947900 2.820600
1.963100 2.705900
1.978300 2.506100
1.993400 2.344400
2.008600 2.205500
2.023800 2.076500
2.039000 2.055000
2.054100 2.125100
2.069300 2.213200
2.084500 2.292400
2.099600 2.354100
2.114800 2.420200
2.130000 2.507200
2.145200 3.371000
2.160300 3.160500
2.175500 2.729500
2.190700 2.490800
2.205900 2.276700
2.221000 2.079500
2.236200 1.930900
2.251400 1.874600
2.266600 2.111900
2.281700 2.389300
2.296900 2.614800
2.312100 2.833800
2.327200 2.830800
2.342400 2.625700
2.357600 2.493200
2.372800 2.376400
2.387900 2.273800
2.403100 2.190200
2.418300 2.239700
2.433500 2.315700
2.448600 2.403700
2.463800 2.503700
2.479000 2.745600
2.494200 2.877000
2.509300 2.913800
2.524500 2.935200
2.539700 2.948500
2.554800 2.912700
2.570000 2.872200
2.585200 2.838200
2.600400 2.808500
2.615500 2.782200
2.630700 2.806200
2.645900 2.868000
2.661100 2.905800
2.676200 2.924000
2.691400 2.960000
2.706600 3.050100
2.721800 3.112700
2.736900 3.181000
2.752100 3.291400
2.767300 3.425500
2.782400 3.565300
2.797600 3.720000
2.812800 3.873000
2.828000 3.971600
2.843100 3.991600
2.858300 4.024300
2.873500 4.046900
2.888700 4.030100
2.903800 4.029800
2.919000 4.047000
2.934200 4.088700
2.949400 4.407600
2.964500 4.583600
2.979700 4.610300
2.994900 4.497500
3.010000 4.395100
3.025200 4.359800
3.040400 4.620100
3.055600 4.581100
3.070700 4.335300
3.085900 4.160700
3.101100 3.939200
3.116300 3.781800
3.131400 3.779300
3.146600 4.222400
3.161800 4.074200
3.177000 3.936400
3.192100 3.670200
3.207300 3.726800
3.222500 3.806800
3.237600 3.909600
3.252800 4.134100
3.268000 4.415100
3.283200 4.683700
3.298300 4.895300
3.313500 5.029700
3.328700 4.907400
3.343900 4.905000
3.359000 4.761300
3.374200 4.580900
3.389400 4.435400
3.404600 4.326500
3.419700 4.201900
3.434900 4.007200
3.450100 3.941500
3.465200 3.896400
3.480400 3.867700
3.495600 3.828900
3.510800 3.794400
3.525900 3.785400
3.541100 3.618700
3.556300 3.460500
3.571500 3.487700
3.586600 3.636400
3.601800 3.803100
3.617000 3.811900
3.632200 3.774400
3.647300 3.687000
3.662500 3.570200
3.677700 3.582300
3.692800 3.660100
3.708000 3.792400
3.723200 3.856400
3.738400 3.496900
3.753500 3.556300
3.768700 3.645800
3.783900 3.774400
3.799100 3.888600
3.814200 3.962500
3.829400 4.075400
3.844600 4.116200
3.859800 4.159200
3.874900 4.204300
3.890100 4.265800
3.905300 4.319000
3.920400 5.473800
3.935600 5.194500
3.950800 5.386500
3.966000 5.568800
3.981100 5.631500
3.996300 5.648500
4.011500 5.935000
4.026700 6.474100
4.041800 6.725300
4.057000 6.915900
4.072200 7.236700
4.087400 7.539700
4.102500 8.039300
4.117700 9.585100
4.132900 10.536300
4.148000 10.241100
4.163200 9.109100
4.178400 8.516900
4.193600 8.238900
4.208700 8.007200
4.223900 7.787700
4.239100 7.612300
4.254300 7.626800
4.269400 7.994300
4.284600 8.078000
4.299800 7.723400
4.315000 6.146100
4.330100 5.998300
4.345300 5.323000
4.360500 5.967500
4.375600 6.412900
4.390800 7.002600
4.406000 7.518400
4.421200 8.098400
4.436300 8.605400
4.451500 9.900300
4.466700 9.266700
4.481900 9.453300
4.497000 9.505700
4.512200 9.690300
4.527400 9.921900
4.542600 9.870700
4.557700 9.382000
4.572900 8.502700
4.588100 8.218600
4.603200 7.813200
4.618400 7.585700
4.633600 7.880300
4.648800 8.615600
4.663900 8.896100
4.679100 9.053100
4.694300 8.897700
4.709500 8.917400
4.724600 9.188500
4.739800 9.626700
4.755000 10.715600
4.770200 11.047800
4.785300 9.914900
4.800500 7.889800
4.815700 6.998200
4.830800 7.110200
4.846000 8.241700
4.861200 10.211000
4.876400 10.634900
4.891500 10.526200
4.906700 8.404300
4.921900 6.618400
4.937100 5.050500
4.952200 4.092200
4.967400 3.665800
4.982600 3.843600
4.997800 4.097700
5.012900 4.788800
5.028100 5.737800
5.043300 6.030100
5.058400 5.282600
5.073600 4.893500
5.088800 4.575100
5.104000 4.330900
5.119100 4.231800
5.134300 4.304700
5.149500 4.674600
5.164700 4.807700
5.179800 5.579000
5.195000 6.080100
5.210200 6.038500
5.225400 6.186100
5.240500 6.212600
5.255700 5.978300
5.270900 6.029500
5.286000 5.030600
5.301200 4.626500
5.316400 4.674100
5.331600 4.519400
5.346700 4.237000
5.361900 4.040400
5.377100 3.881700
5.392300 3.982300
5.407400 4.221900
5.422600 9.348000
5.437800 6.357000
5.453000 6.134800
5.468100 5.404900
5.483300 4.882900
5.498500 4.481300
5.513600 4.199700
5.528800 4.305700
5.544000 4.386800
5.559200 4.447600
5.574300 4.483300
5.589500 4.494700
5.604700 4.520900
5.619900 4.886300
5.635000 5.694100
5.650200 6.414500
5.665400 6.372300
5.680600 7.751900
5.695700 8.066300
5.710900 7.980800
5.726100 7.442700
5.741200 6.847900
5.756400 6.652000
5.771600 6.157100
5.786800 5.394000
5.801900 4.718100
5.817100 4.304300
5.832300 4.127700
5.847500 4.013300
5.862600 3.994200
5.877800 4.022800
5.893000 4.083800
5.908200 4.277200
5.923300 4.582900
5.938500 4.581500
5.953700 4.553200
5.968800 4.389000
5.984000 4.308600
5.999200 4.242500
6.014400 4.172100
6.029500 4.106800
6.044700 4.054100
6.059900 4.063800
6.075100 4.043200
6.090200 4.075300
6.105400 3.980200
6.120600 3.738900
6.135800 3.660200
6.150900 3.576900
6.166100 4.983400
6.181300 5.114600
6.196400 5.297400
6.211600 5.130300
6.226800 5.109800
6.242000 5.096100
6.257100 5.098000
6.272300 5.207100
6.287500 5.427200
6.302700 5.842800
6.317800 6.405700
6.333000 6.938100
6.348200 8.045700
6.363400 7.753300
6.378500 6.942300
6.393700 6.565100
6.408900 6.198100
6.424000 6.088700
6.439200 5.993500
6.454400 6.057300
6.469600 6.738500
6.484700 6.190000
6.499900 5.496900
6.515100 5.148300
6.530300 4.892000
6.545400 5.433500
6.560600 5.814100
6.575800 5.732900
6.591000 5.818300
6.606100 5.837400
6.621300 5.226100
6.636500 4.834400
6.651600 4.524500
6.666800 4.366600
6.682000 4.183000
6.697200 3.673500
6.712300 2.743300
6.727500 2.571500
6.742700 2.408500
6.757900 2.241400
6.773000 2.069900
6.788200 1.750600
6.803400 1.654800
6.818600 1.911800
6.833700 2.775900
6.848900 3.330600
6.864100 3.725200
6.879200 4.533000
6.894400 4.518200
6.909600 4.810100
6.924800 5.023000
6.939900 5.134400
6.955100 5.365500
6.970300 5.817800
6.985500 6.483000
7.000600 7.002000
7.015800 6.585700
7.031000 5.963600
7.046200 5.136100
7.061300 4.279700
7.076500 3.826700
7.091700 3.481500
7.106800 3.184000
7.122000 3.002400
7.137200 2.868900
7.152400 2.799700
7.167500 2.759400
7.182700 2.722700
7.197900 2.689600
7.213100 2.666800
7.228200 2.666800
7.243400 2.706000
7.258600 2.736800
7.273800 2.758800
7.288900 2.776500
7.304100 2.765600
7.319300 2.738300
7.334400 2.836100
7.349600 2.939400
7.364800 3.011900
7.380000 3.117200
7.395100 3.255300
7.410300 3.424000
7.425500 3.623200
7.440700 4.101700
7.455800 3.692600
7.471000 3.292300
7.486200 3.161100
7.501400 3.164400
7.516500 3.200800
7.531700 3.262400
7.546900 3.413300
7.562000 3.149600
7.577200 3.077800
7.592400 3.002200
7.607600 2.863100
7.622700 2.827700
7.637900 2.803100
7.653100 2.964800
7.668300 3.170300
7.683400 2.940700
7.698600 2.627900
7.713800 2.234500
7.729000 2.011900
7.744100 1.736400
7.759300 1.674300
7.774500 1.617200
7.789600 1.565300
7.804800 1.517100
7.820000 1.470500
7.835200 1.426000
7.850300 1.383500
7.865500 1.343100
7.880700 1.293300
7.895900 1.235500
7.911000 1.193800
7.926200 1.154700
7.941400 1.116400
7.956600 1.075900
7.971700 1.036700
7.986900 0.999600
8.002100 0.964400
8.017200 0.931300
8.032400 0.900100
8.047600 0.870900
8.062800 0.843700
8.077900 0.818400
8.093100 0.795200
8.108300 0.777400
8.123500 0.762100
8.138600 0.747100
8.153800 0.732600
8.169000 0.718500
8.184200 0.705000
8.199300 0.691900
8.214500 0.679400
8.229700 0.667300
8.244800 0.655700
8.260000 0.644700
8.275200 0.634100
8.290400 0.624700
8.305500 0.618700
8.320700 0.613200
8.335900 0.609500
8.351100 0.609300
8.366200 0.609400
8.381400 0.609700
8.396600 0.610400
8.411800 0.611600
8.426900 0.614700
8.442100 0.619600
8.457300 0.626600
8.472400 0.635500
8.487600 0.646400
8.502800 0.673300
8.518000 0.752800
8.533100 0.853600
8.548300 0.855900
8.563500 0.845500
8.578700 0.921700
8.593800 1.105500
8.609000 1.443000
8.624200 1.761700
8.639400 1.793600
8.654500 1.572700
8.669700 1.300800
8.684900 0.859800
8.700000 0.549100
8.715200 0.394100
8.730400 1.942100
8.745600 3.875700
8.760700 4.031200
8.775900 5.410000
8.791100 6.134600
8.806300 6.652100
8.821400 6.744600
8.836600 6.753700
8.851800 7.460700
8.867000 6.262200
8.882100 6.001400
8.897300 5.867300
8.912500 6.159400
8.927600 5.954200
8.942800 5.921000
8.958000 6.022200
8.973200 6.319200
8.988300 6.663000
9.003500 6.920000
9.018700 7.153100
9.033900 7.390700
9.049000 7.633000
9.064200 8.226600
9.079400 8.167000
9.094600 7.478600
9.109700 7.123400
9.124900 6.883900
9.140100 6.481400
9.155300 6.168900
9.170400 5.573300
9.185600 5.234800
9.200800 4.982800
9.215900 4.738700
9.231100 4.528400
9.246300 4.299600
9.261500 4.032400
9.276600 3.699000
9.291800 3.393900
9.307000 3.015800
9.322200 2.637800
9.337300 2.617400
9.352500 2.558200
9.367700 2.510800
9.382900 2.473800
9.398000 2.446200
9.413200 2.427700
9.428400 2.418400
9.443500 2.419700
9.458700 2.435700
9.473900 2.461900
9.489100 2.489100
9.504200 2.515200
9.519400 2.581600
9.534600 2.662400
9.549800 2.785700
9.564900 3.082900
9.580100 3.594500
9.595300 3.950300
9.610500 3.932300
9.625600 4.021700
9.640800 3.833600
9.656000 3.589300
9.671100 3.517100
9.686300 3.488800
9.701500 3.441500
9.716700 3.438200
9.731800 3.438400
9.747000 3.419900
9.762200 3.406300
9.777400 3.392500
9.792500 3.394600
9.807700 3.392500
9.822900 3.382300
9.838100 3.195400
9.853200 3.297200
9.868400 3.158200
9.883600 3.020900
9.898700 3.282200
9.913900 4.653700
9.929100 4.674600
9.944300 4.658700
