set title 'mp-1055994 - Density of States'
set xlabel 'Energy (eV)'
set ylabel 'DOS (states/eV)'
set grid
set xrange [-10:10]
set yrange [0:42.067]
set xzeroaxis lt -1
set terminal png size 800,600
set output 'mp-1055994_dos_gnuplot.png'
plot '-' using 1:2 with lines title 'DOS'
-9.913500 0.000000
-9.890600 0.000000
-9.867800 0.000000
-9.844900 0.000000
-9.822000 0.000000
-9.799200 0.000000
-9.776300 0.000000
-9.753400 0.000000
-9.730600 0.000000
-9.707700 0.000000
-9.684800 0.000000
-9.662000 0.000000
-9.639100 0.000000
-9.616200 0.000000
-9.593300 0.000000
-9.570500 0.000000
-9.547600 0.000000
-9.524700 0.000000
-9.501900 0.000000
-9.479000 0.000000
-9.456100 0.000000
-9.433300 0.000000
-9.410400 0.000000
-9.387500 0.000000
-9.364700 0.000000
-9.341800 0.000000
-9.318900 0.000000
-9.296000 0.000000
-9.273200 0.000000
-9.250300 0.000000
-9.227400 0.000000
-9.204600 0.000000
-9.181700 0.000000
-9.158800 0.000000
-9.136000 0.000000
-9.113100 0.000000
-9.090200 0.000000
-9.067400 0.000000
-9.044500 0.000000
-9.021600 0.000000
-8.998800 0.000000
-8.975900 0.000000
-8.953000 0.000000
-8.930100 0.000000
-8.907300 0.000000
-8.884400 0.000000
-8.861500 0.000000
-8.838700 0.000000
-8.815800 0.000000
-8.792900 0.000000
-8.770100 0.000000
-8.747200 0.000000
-8.724300 0.000000
-8.701500 0.000000
-8.678600 0.000000
-8.655700 0.000000
-8.632800 0.000000
-8.610000 0.000000
-8.587100 0.000000
-8.564200 0.000000
-8.541400 0.000000
-8.518500 0.000000
-8.495600 0.000000
-8.472800 0.000000
-8.449900 0.000000
-8.427000 0.000000
-8.404200 0.000000
-8.381300 0.000000
-8.358400 0.000000
-8.335500 0.000000
-8.312700 0.000000
-8.289800 0.000000
-8.266900 0.000000
-8.244100 0.000000
-8.221200 0.000000
-8.198300 0.000000
-8.175500 0.000000
-8.152600 0.000000
-8.129700 0.000000
-8.106900 0.000000
-8.084000 0.000000
-8.061100 0.000000
-8.038200 0.000000
-8.015400 0.000000
-7.992500 0.000000
-7.969600 0.000000
-7.946800 0.000000
-7.923900 0.000000
-7.901000 0.000000
-7.878200 0.000000
-7.855300 0.000000
-7.832400 0.040300
-7.809600 0.737300
-7.786700 2.444700
-7.763800 3.947300
-7.740900 5.800500
-7.718100 9.961200
-7.695200 14.887800
-7.672300 29.373900
-7.649500 38.242900
-7.626600 25.497100
-7.603700 29.465800
-7.580900 19.178100
-7.558000 20.858900
-7.535100 17.589600
-7.512300 24.614700
-7.489400 17.754100
-7.466500 16.404700
-7.443700 35.903400
-7.420800 26.771500
-7.397900 25.919200
-7.375000 25.866100
-7.352200 28.258100
-7.329300 12.114100
-7.306400 3.662100
-7.283600 2.721800
-7.260700 0.000000
-7.237800 0.000000
-7.215000 0.000000
-7.192100 0.000000
-7.169200 0.000000
-7.146400 0.000000
-7.123500 0.000000
-7.100600 0.000000
-7.077700 0.000000
-7.054900 0.000000
-7.032000 0.000000
-7.009100 0.000000
-6.986300 0.000000
-6.963400 0.000000
-6.940500 0.000000
-6.917700 0.000000
-6.894800 0.000000
-6.871900 0.000000
-6.849100 0.000000
-6.826200 0.000000
-6.803300 0.000000
-6.780400 0.000000
-6.757600 0.000000
-6.734700 0.000000
-6.711800 0.000000
-6.689000 0.000000
-6.666100 0.000000
-6.643200 0.000000
-6.620400 0.000000
-6.597500 0.000000
-6.574600 0.000000
-6.551800 0.000000
-6.528900 0.000000
-6.506000 0.000000
-6.483100 0.000000
-6.460300 0.000000
-6.437400 0.000000
-6.414500 0.000000
-6.391700 0.000000
-6.368800 0.000000
-6.345900 0.000000
-6.323100 0.000000
-6.300200 0.000000
-6.277300 0.000000
-6.254500 0.000000
-6.231600 0.000000
-6.208700 0.000000
-6.185800 0.000000
-6.163000 0.000000
-6.140100 0.000000
-6.117200 0.000000
-6.094400 0.000000
-6.071500 0.000000
-6.048600 0.000000
-6.025800 0.000000
-6.002900 0.000000
-5.980000 0.000000
-5.957200 0.000000
-5.934300 0.000000
-5.911400 0.000000
-5.888500 0.000000
-5.865700 0.000000
-5.842800 0.000000
-5.819900 0.000000
-5.797100 0.000000
-5.774200 0.000000
-5.751300 0.000000
-5.728500 0.000000
-5.705600 0.000000
-5.682700 0.000000
-5.659900 0.000000
-5.637000 0.000000
-5.614100 0.000000
-5.591300 0.000000
-5.568400 0.000000
-5.545500 0.000000
-5.522600 0.000000
-5.499800 0.000000
-5.476900 0.000000
-5.454000 0.000000
-5.431200 0.000000
-5.408300 0.000000
-5.385400 0.000000
-5.362600 0.000000
-5.339700 0.000000
-5.316800 0.000000
-5.294000 0.000000
-5.271100 0.000000
-5.248200 0.000000
-5.225300 0.000000
-5.202500 0.000000
-5.179600 0.000000
-5.156700 0.000000
-5.133900 0.000000
-5.111000 0.000000
-5.088100 0.000000
-5.065300 0.000000
-5.042400 0.000000
-5.019500 0.000000
-4.996700 0.000000
-4.973800 0.000000
-4.950900 0.000000
-4.928000 0.000000
-4.905200 0.000000
-4.882300 0.000000
-4.859400 0.000000
-4.836600 0.000000
-4.813700 0.000000
-4.790800 0.000000
-4.768000 0.000000
-4.745100 0.000000
-4.722200 0.000000
-4.699400 0.000000
-4.676500 0.000000
-4.653600 0.000000
-4.630700 0.000000
-4.607900 0.000000
-4.585000 0.000000
-4.562100 0.000000
-4.539300 0.000000
-4.516400 0.000000
-4.493500 0.000000
-4.470700 0.000000
-4.447800 0.000000
-4.424900 0.000000
-4.402100 0.000000
-4.379200 0.000000
-4.356300 0.000000
-4.333400 0.000000
-4.310600 0.000000
-4.287700 0.000000
-4.264800 0.000000
-4.242000 0.000000
-4.219100 0.000000
-4.196200 0.000000
-4.173400 0.000000
-4.150500 0.000000
-4.127600 0.000000
-4.104800 0.000000
-4.081900 0.000000
-4.059000 0.000000
-4.036100 0.000000
-4.013300 0.000000
-3.990400 0.000000
-3.967500 0.000000
-3.944700 0.000000
-3.921800 0.000000
-3.898900 0.000000
-3.876100 0.000000
-3.853200 0.000000
-3.830300 0.000000
-3.807500 0.000000
-3.784600 0.000000
-3.761700 0.000000
-3.738900 0.000000
-3.716000 0.000000
-3.693100 0.000000
-3.670200 0.000000
-3.647400 0.000000
-3.624500 0.000000
-3.601600 0.000000
-3.578800 0.000000
-3.555900 0.000000
-3.533000 0.000000
-3.510200 0.000000
-3.487300 0.000000
-3.464400 0.000000
-3.441600 0.000000
-3.418700 0.000000
-3.395800 0.000000
-3.372900 0.000000
-3.350100 0.000000
-3.327200 0.000000
-3.304300 0.000000
-3.281500 0.000000
-3.258600 0.000000
-3.235700 0.000000
-3.212900 0.000000
-3.190000 0.000000
-3.167100 0.000000
-3.144300 0.000000
-3.121400 0.000000
-3.098500 0.000000
-3.075600 0.000000
-3.052800 0.000000
-3.029900 0.000000
-3.007000 0.000000
-2.984200 0.000000
-2.961300 0.000000
-2.938400 0.000000
-2.915600 0.000000
-2.892700 0.000000
-2.869800 0.000000
-2.847000 0.000000
-2.824100 0.000000
-2.801200 0.000000
-2.778300 0.000000
-2.755500 0.000000
-2.732600 0.000000
-2.709700 0.000000
-2.686900 0.000000
-2.664000 0.000000
-2.641100 0.000000
-2.618300 0.000000
-2.595400 0.000000
-2.572500 0.000000
-2.549700 0.000000
-2.526800 0.000000
-2.503900 0.000000
-2.481000 0.000000
-2.458200 0.000000
-2.435300 0.000000
-2.412400 0.000000
-2.389600 0.000000
-2.366700 0.000000
-2.343800 0.000000
-2.321000 0.000000
-2.298100 0.000000
-2.275200 0.000000
-2.252400 0.000000
-2.229500 0.000000
-2.206600 0.000000
-2.183700 0.004800
-2.160900 0.024000
-2.138000 0.035100
-2.115100 0.041000
-2.092300 0.049100
-2.069400 0.058900
-2.046500 0.065900
-2.023700 0.066700
-2.000800 0.070000
-1.977900 0.074500
-1.955100 0.079100
-1.932200 0.083900
-1.909300 0.089100
-1.886500 0.094200
-1.863600 0.095700
-1.840700 0.098400
-1.817800 0.100800
-1.795000 0.103000
-1.772100 0.105300
-1.749200 0.108700
-1.726400 0.112300
-1.703500 0.116000
-1.680600 0.119700
-1.657800 0.123200
-1.634900 0.125100
-1.612000 0.126200
-1.589200 0.127800
-1.566300 0.129900
-1.543400 0.132100
-1.520500 0.134400
-1.497700 0.136600
-1.474800 0.139000
-1.451900 0.141400
-1.429100 0.144000
-1.406200 0.146600
-1.383300 0.149200
-1.360500 0.151800
-1.337600 0.153700
-1.314700 0.155200
-1.291900 0.156700
-1.269000 0.158100
-1.246100 0.159600
-1.223200 0.161300
-1.200400 0.163100
-1.177500 0.164900
-1.154600 0.166700
-1.131800 0.168600
-1.108900 0.170400
-1.086000 0.172400
-1.063200 0.174500
-1.040300 0.176700
-1.017400 0.179000
-0.994600 0.181100
-0.971700 0.182800
-0.948800 0.184000
-0.925900 0.185200
-0.903100 0.186500
-0.880200 0.187800
-0.857300 0.189200
-0.834500 0.190500
-0.811600 0.191800
-0.788700 0.193400
-0.765900 0.195000
-0.743000 0.196600
-0.720100 0.198300
-0.697300 0.200000
-0.674400 0.201700
-0.651500 0.203400
-0.628600 0.205100
-0.605800 0.206900
-0.582900 0.208600
-0.560000 0.210300
-0.537200 0.211700
-0.514300 0.212900
-0.491400 0.214000
-0.468600 0.215200
-0.445700 0.216400
-0.422800 0.217600
-0.400000 0.218900
-0.377100 0.220200
-0.354200 0.221500
-0.331300 0.222800
-0.308500 0.224200
-0.285600 0.225500
-0.262700 0.226800
-0.239900 0.228200
-0.217000 0.229600
-0.194100 0.231000
-0.171300 0.232500
-0.148400 0.233900
-0.125500 0.235500
-0.102700 0.237100
-0.079800 0.238600
-0.056900 0.240100
-0.034100 0.241400
-0.011200 0.242700
0.011700 0.243700
0.034600 0.244800
0.057400 0.245900
0.080300 0.247000
0.103200 0.248100
0.126000 0.249200
0.148900 0.250400
0.171800 0.251500
0.194600 0.252700
0.217500 0.253800
0.240400 0.255000
0.263200 0.256300
0.286100 0.257600
0.309000 0.258900
0.331900 0.260200
0.354700 0.261500
0.377600 0.262900
0.400500 0.264200
0.423300 0.265600
0.446200 0.266900
0.469100 0.268300
0.491900 0.269700
0.514800 0.271000
0.537700 0.272200
0.560500 0.273400
0.583400 0.274400
0.606300 0.275400
0.629200 0.276400
0.652000 0.277400
0.674900 0.278400
0.697800 0.279600
0.720600 0.280700
0.743500 0.281800
0.766400 0.283000
0.789200 0.284100
0.812100 0.285300
0.835000 0.286500
0.857800 0.287700
0.880700 0.288900
0.903600 0.290100
0.926500 0.291300
0.949300 0.292500
0.972200 0.293800
0.995100 0.295000
1.017900 0.296300
1.040800 0.297500
1.063700 0.298800
1.086500 0.300100
1.109400 0.301400
1.132300 0.302600
1.155100 0.303800
1.178000 0.305000
1.200900 0.306300
1.223800 0.307400
1.246600 0.308400
1.269500 0.309500
1.292400 0.310600
1.315200 0.311800
1.338100 0.312900
1.361000 0.314000
1.383800 0.315200
1.406700 0.316400
1.429600 0.317500
1.452400 0.318700
1.475300 0.319900
1.498200 0.321100
1.521000 0.322400
1.543900 0.323600
1.566800 0.324800
1.589700 0.326100
1.612500 0.327400
1.635400 0.328700
1.658300 0.330100
1.681100 0.331400
1.704000 0.332800
1.726900 0.334200
1.749700 0.335700
1.772600 0.337100
1.795500 0.338600
1.818300 0.340000
1.841200 0.341300
1.864100 0.342700
1.887000 0.344100
1.909800 0.345500
1.932700 0.346900
1.955600 0.348300
1.978400 0.349700
2.001300 0.351100
2.024200 0.352600
2.047000 0.354200
2.069900 0.355700
2.092800 0.357400
2.115600 0.359000
2.138500 0.360700
2.161400 0.362500
2.184300 0.364400
2.207100 0.366400
2.230000 0.368400
2.252900 0.370500
2.275700 0.372600
2.298600 0.374900
2.321500 0.377300
2.344300 0.379800
2.367200 0.382500
2.390100 0.385500
2.412900 0.388700
2.435800 0.392200
2.458700 0.396000
2.481600 0.400200
2.504400 0.404700
2.527300 0.409600
2.550200 0.414800
2.573000 0.421000
2.595900 0.428300
2.618800 0.435600
2.641600 0.445100
2.664500 0.455600
2.687400 0.461600
2.710200 0.461700
2.733100 0.455100
2.756000 0.447800
2.778900 0.447600
2.801700 0.447000
2.824600 0.443000
2.847500 0.438300
2.870300 0.438300
2.893200 0.441100
2.916100 0.443500
2.938900 0.438500
2.961800 0.434200
2.984700 0.432600
3.007500 0.430100
3.030400 0.424600
3.053300 0.420600
3.076200 0.416900
3.099000 0.414600
3.121900 0.416600
3.144800 0.410400
3.167600 0.404100
3.190500 0.399800
3.213400 0.396500
3.236200 0.394500
3.259100 0.393500
3.282000 0.391800
3.304800 0.389800
3.327700 0.387900
3.350600 0.388300
3.373400 0.388300
3.396300 0.383200
3.419200 0.380900
3.442100 0.380700
3.464900 0.377900
3.487800 0.374200
3.510700 0.371600
3.533500 0.369600
3.556400 0.367500
3.579300 0.364700
3.602100 0.364600
3.625000 0.361200
3.647900 0.358300
3.670700 0.356400
3.693600 0.354800
3.716500 0.353400
3.739400 0.351400
3.762200 0.348300
3.785100 0.346400
3.808000 0.345900
3.830800 0.344100
3.853700 0.341800
3.876600 0.339600
3.899400 0.340000
3.922300 0.342600
3.945200 0.346300
3.968000 0.350400
3.990900 0.355900
4.013800 0.364100
4.036700 0.373400
4.059500 0.377000
4.082400 0.375800
4.105300 0.373700
4.128100 0.377700
4.151000 0.381600
4.173900 0.382300
4.196700 0.383700
4.219600 0.389800
4.242500 0.386100
4.265300 0.385200
4.288200 0.388000
4.311100 0.389100
4.334000 0.391000
4.356800 0.389900
4.379700 0.387400
4.402600 0.382500
4.425400 0.373300
4.448300 0.364900
4.471200 0.357400
4.494000 0.351500
4.516900 0.352600
4.539800 0.351300
4.562600 0.353400
4.585500 0.354200
4.608400 0.355900
4.631300 0.356300
4.654100 0.356800
4.677000 0.361200
4.699900 0.356700
4.722700 0.351700
4.745600 0.351100
4.768500 0.356100
4.791300 0.357800
4.814200 0.358400
4.837100 0.359100
4.859900 0.360200
4.882800 0.362000
4.905700 0.362900
4.928600 0.362700
4.951400 0.366000
4.974300 0.374500
4.997200 0.370100
5.020000 0.364300
5.042900 0.361900
5.065800 0.361800
5.088600 0.375500
5.111500 0.362900
5.134400 0.355200
5.157200 0.349500
5.180100 0.343100
5.203000 0.337900
5.225800 0.332900
5.248700 0.329700
5.271600 0.328100
5.294500 0.323500
5.317300 0.318300
5.340200 0.317100
5.363100 0.319500
5.385900 0.323100
5.408800 0.327200
5.431700 0.329200
5.454500 0.330900
5.477400 0.331100
5.500300 0.328500
5.523100 0.332300
5.546000 0.338900
5.568900 0.345600
5.591800 0.352500
5.614600 0.359500
5.637500 0.366700
5.660400 0.374000
5.683200 0.382000
5.706100 0.391000
5.729000 0.401600
5.751800 0.413500
5.774700 0.427700
5.797600 0.445200
5.820400 0.459300
5.843300 0.471000
5.866200 0.478000
5.889100 0.485900
5.911900 0.493200
5.934800 0.499900
5.957700 0.507300
5.980500 0.515000
6.003400 0.524400
6.026300 0.533800
6.049100 0.544200
6.072000 0.556500
6.094900 0.566600
6.117700 0.581600
6.140600 0.588700
6.163500 0.572900
6.186400 0.576300
6.209200 0.584500
6.232100 0.593100
6.255000 0.592400
6.277800 0.583600
6.300700 0.580800
6.323600 0.575700
6.346400 0.569900
6.369300 0.565800
6.392200 0.563300
6.415000 0.557400
6.437900 0.550400
6.460800 0.544800
6.483700 0.537000
6.506500 0.529200
6.529400 0.523800
6.552300 0.519900
6.575100 0.517500
6.598000 0.515100
6.620900 0.513000
6.643700 0.509300
6.666600 0.504900
6.689500 0.505300
6.712300 0.511200
6.735200 0.506400
6.758100 0.490600
6.781000 0.472500
6.803800 0.459000
6.826700 0.450300
6.849600 0.443000
6.872400 0.437100
6.895300 0.432400
6.918200 0.428800
6.941000 0.426100
6.963900 0.423800
6.986800 0.421200
7.009600 0.418900
7.032500 0.417100
7.055400 0.415800
7.078200 0.414800
7.101100 0.413800
7.124000 0.414300
7.146900 0.417700
7.169700 0.425600
7.192600 0.443900
7.215500 0.451000
7.238300 0.457200
7.261200 0.464000
7.284100 0.471100
7.306900 0.476800
7.329800 0.482200
7.352700 0.487800
7.375500 0.493600
7.398400 0.499700
7.421300 0.506300
7.444200 0.513400
7.467000 0.519500
7.489900 0.526400
7.512800 0.527300
7.535600 0.529200
7.558500 0.527100
7.581400 0.526400
7.604200 0.524600
7.627100 0.524200
7.650000 0.521100
7.672800 0.520000
7.695700 0.519100
7.718600 0.518300
7.741500 0.517800
7.764300 0.516500
7.787200 0.515700
7.810100 0.515500
7.832900 0.515200
7.855800 0.514800
7.878700 0.514300
7.901500 0.513900
7.924400 0.513600
7.947300 0.513300
7.970100 0.513200
7.993000 0.513100
8.015900 0.512800
8.038800 0.512400
8.061600 0.512100
8.084500 0.512800
8.107400 0.513700
8.130200 0.514700
8.153100 0.515700
8.176000 0.516400
8.198800 0.515700
8.221700 0.513600
8.244600 0.511400
8.267400 0.511100
8.290300 0.510800
8.313200 0.510600
8.336100 0.510300
8.358900 0.511600
8.381800 0.517500
8.404700 0.512200
8.427500 0.511100
8.450400 0.511200
8.473300 0.511700
8.496100 0.512400
8.519000 0.513500
8.541900 0.515000
8.564700 0.516600
8.587600 0.518400
8.610500 0.519800
8.633400 0.520700
8.656200 0.521800
8.679100 0.525100
8.702000 0.523800
8.724800 0.522600
8.747700 0.521600
8.770600 0.521700
8.793400 0.522000
8.816300 0.522300
8.839200 0.523100
8.862000 0.531700
8.884900 0.533800
8.907800 0.536300
8.930600 0.539100
8.953500 0.537200
8.976400 0.540000
8.999300 0.546700
9.022100 0.549800
9.045000 0.550500
9.067900 0.552800
9.090700 0.550200
9.113600 0.551100
9.136500 0.553200
9.159300 0.555500
9.182200 0.558000
9.205100 0.560800
9.227900 0.563100
9.250800 0.563300
9.273700 0.614500
9.296600 0.568700
9.319400 0.567900
9.342300 0.567300
9.365200 0.568000
9.388000 0.568600
9.410900 0.569300
9.433800 0.570000
9.456600 0.570800
9.479500 0.571500
9.502400 0.572300
9.525200 0.573600
9.548100 0.575100
9.571000 0.576500
9.593900 0.577800
9.616700 0.579000
9.639600 0.581000
9.662500 0.583700
9.685300 0.587000
9.708200 0.590800
9.731100 0.593700
9.753900 0.591300
9.776800 0.593600
9.799700 0.597200
9.822500 0.601400
9.845400 0.601000
9.868300 0.600600
9.891200 0.601500
9.914000 0.602600
9.936900 0.603900
9.959800 0.605200
9.982600 0.609400
10.005500 0.614600
10.028400 0.614100
10.051200 0.614800
10.074100 0.615600
10.097000 0.616400
10.119800 0.617700
10.142700 0.619900
10.165600 0.622400
10.188500 0.625400
10.211300 0.627100
10.234200 0.638400
10.257100 0.634300
10.279900 0.638000
10.302800 0.638500
10.325700 0.638700
10.348500 0.638900
10.371400 0.644900
10.394300 0.642900
10.417100 0.643100
10.440000 0.645700
10.462900 0.649500
10.485800 0.654000
10.508600 0.658300
10.531500 0.659800
10.554400 0.665200
10.577200 0.667300
10.600100 0.670600
10.623000 0.674500
10.645800 0.679900
10.668700 0.691500
10.691600 0.701700
10.714400 0.711300
10.737300 0.723000
10.760200 0.734200
10.783000 0.741100
10.805900 0.723900
10.828800 0.719600
10.851700 0.726400
10.874500 0.712800
10.897400 0.711700
10.920300 0.710300
10.943100 0.708500
10.966000 0.707000
10.988900 0.707300
11.011700 0.705300
11.034600 0.699600
11.057500 0.699800
11.080300 0.704200
11.103200 0.695600
11.126100 0.694200
11.149000 0.699500
11.171800 0.698100
11.194700 0.698400
11.217600 0.700700
11.240400 0.704400
11.263300 0.708500
11.286200 0.706000
11.309000 0.706300
11.331900 0.705400
11.354800 0.704800
11.377600 0.703600
11.400500 0.702900
11.423400 0.702700
11.446300 0.702900
11.469100 0.704000
11.492000 0.702100
11.514900 0.702100
11.537700 0.702100
11.560600 0.702200
11.583500 0.704000
11.606300 0.709300
11.629200 0.702300
11.652100 0.700000
11.674900 0.699100
11.697800 0.698700
11.720700 0.698900
11.743600 0.695300
11.766400 0.692000
11.789300 0.690200
11.812200 0.687600
11.835000 0.686200
11.857900 0.684300
11.880800 0.681500
11.903600 0.678700
11.926500 0.675900
11.949400 0.673500
11.972200 0.670900
11.995100 0.668300
12.018000 0.665600
12.040900 0.663300
12.063700 0.660500
12.086600 0.658500
12.109500 0.656600
12.132300 0.654800
12.155200 0.653200
12.178100 0.651700
12.200900 0.650100
12.223800 0.648300
12.246700 0.646500
12.269500 0.644600
12.292400 0.642700
12.315300 0.641500
12.338100 0.639800
12.361000 0.637400
12.383900 0.634400
12.406800 0.631200
12.429600 0.628400
12.452500 0.626000
12.475400 0.624200
12.498200 0.622700
12.521100 0.621100
12.544000 0.619400
12.566800 0.617600
12.589700 0.615600
12.612600 0.613400
12.635400 0.611200
12.658300 0.609500
12.681200 0.608100
12.704100 0.604600
12.726900 0.601200
12.749800 0.598100
12.772700 0.595200
12.795500 0.592400
12.818400 0.589800
12.841300 0.587400
12.864100 0.585200
12.887000 0.583000
12.909900 0.580800
12.932700 0.578900
12.955600 0.576900
12.978500 0.575000
13.001400 0.573200
13.024200 0.571400
13.047100 0.569700
13.070000 0.568300
13.092800 0.566800
13.115700 0.564900
13.138600 0.563500
13.161400 0.562400
13.184300 0.561800
13.207200 0.561300
13.230000 0.562000
13.252900 0.560500
13.275800 0.558400
13.298700 0.555900
13.321500 0.553400
13.344400 0.550900
13.367300 0.548500
13.390100 0.546200
13.413000 0.543900
13.435900 0.541900
13.458700 0.539700
13.481600 0.536600
13.504500 0.534000
13.527300 0.531400
13.550200 0.529100
13.573100 0.527800
13.596000 0.524700
13.618800 0.521000
13.641700 0.517600
13.664600 0.514600
13.687400 0.512000
13.710300 0.509800
13.733200 0.508200
13.756000 0.506900
13.778900 0.505900
13.801800 0.505200
13.824600 0.504800
13.847500 0.505300
13.870400 0.507500
13.893300 0.510700
13.916100 0.512500
13.939000 0.522800
13.961900 0.521500
13.984700 0.527900
14.007600 0.521400
14.030500 0.522500
14.053300 0.524600
14.076200 0.530000
14.099100 0.546900
14.121900 0.549700
14.144800 0.549400
14.167700 0.557900
14.190500 0.548800
14.213400 0.547500
14.236300 0.546200
14.259200 0.544300
14.282000 0.551000
14.304900 0.547900
