set title 'mp-973736 - Density of States'
set xlabel 'Energy (eV)'
set ylabel 'DOS (states/eV)'
set grid
set xrange [-10:10]
set yrange [0:3.652]
set xzeroaxis lt -1
set terminal png size 800,600
set output 'mp-973736_dos_gnuplot.png'
plot '-' using 1:2 with lines title 'DOS'
-21.013900 0.000000
-20.985400 0.000000
-20.956900 0.000000
-20.928400 0.000000
-20.899900 0.000000
-20.871400 0.000000
-20.842900 0.000000
-20.814400 0.000000
-20.785900 0.000000
-20.757400 0.000000
-20.728900 0.000000
-20.700400 0.000000
-20.671900 0.000000
-20.643400 0.000000
-20.614900 0.000000
-20.586400 0.000000
-20.557900 0.000000
-20.529400 0.000000
-20.500900 0.000000
-20.472300 0.000000
-20.443800 0.000000
-20.415300 0.000000
-20.386800 0.000000
-20.358300 0.000000
-20.329800 0.000000
-20.301300 0.000000
-20.272800 0.000000
-20.244300 0.000000
-20.215800 0.000000
-20.187300 0.000000
-20.158800 0.000000
-20.130300 0.000000
-20.101800 0.000000
-20.073300 0.000000
-20.044800 0.000000
-20.016300 0.000000
-19.987800 0.000000
-19.959300 0.000000
-19.930800 0.000000
-19.902200 0.000000
-19.873700 0.000000
-19.845200 0.000000
-19.816700 0.000000
-19.788200 0.000000
-19.759700 0.000000
-19.731200 0.000000
-19.702700 0.000000
-19.674200 0.000000
-19.645700 0.000000
-19.617200 0.000000
-19.588700 0.000000
-19.560200 0.000000
-19.531700 0.000000
-19.503200 0.000000
-19.474700 0.000000
-19.446200 0.000000
-19.417700 0.000000
-19.389200 0.000000
-19.360700 0.000000
-19.332100 0.000000
-19.303600 0.000000
-19.275100 0.000000
-19.246600 0.000000
-19.218100 0.000000
-19.189600 0.000000
-19.161100 0.000000
-19.132600 0.000000
-19.104100 0.000000
-19.075600 0.000000
-19.047100 0.000000
-19.018600 0.000000
-18.990100 0.000000
-18.961600 0.000000
-18.933100 0.000000
-18.904600 0.000000
-18.876100 0.000000
-18.847600 0.000000
-18.819100 0.000000
-18.790600 0.000000
-18.762000 0.000000
-18.733500 0.000000
-18.705000 0.000000
-18.676500 0.000000
-18.648000 0.000000
-18.619500 0.000000
-18.591000 0.000000
-18.562500 0.000000
-18.534000 0.000000
-18.505500 0.000000
-18.477000 0.000000
-18.448500 0.000000
-18.420000 196.265000
-18.391500 845.189800
-18.363000 85.508100
-18.334500 175.839500
-18.306000 0.000000
-18.277500 0.000000
-18.249000 0.000000
-18.220400 0.000000
-18.191900 0.000000
-18.163400 0.000000
-18.134900 0.000000
-18.106400 0.000000
-18.077900 0.000000
-18.049400 0.000000
-18.020900 0.000000
-17.992400 0.000000
-17.963900 0.000000
-17.935400 0.000000
-17.906900 0.000000
-17.878400 0.000000
-17.849900 0.000000
-17.821400 0.000000
-17.792900 0.000000
-17.764400 0.000000
-17.735900 0.000000
-17.707400 0.000000
-17.678900 0.000000
-17.650300 0.000000
-17.621800 0.000000
-17.593300 0.000000
-17.564800 0.000000
-17.536300 0.000000
-17.507800 0.000000
-17.479300 0.000000
-17.450800 0.000000
-17.422300 0.000000
-17.393800 0.000000
-17.365300 0.000000
-17.336800 0.000000
-17.308300 0.000000
-17.279800 0.000000
-17.251300 0.000000
-17.222800 0.000000
-17.194300 0.000000
-17.165800 0.000000
-17.137300 0.000000
-17.108800 0.000000
-17.080200 0.000000
-17.051700 0.000000
-17.023200 0.000000
-16.994700 0.000000
-16.966200 0.000000
-16.937700 0.000000
-16.909200 0.000000
-16.880700 0.000000
-16.852200 0.000000
-16.823700 0.000000
-16.795200 0.000000
-16.766700 0.000000
-16.738200 0.000000
-16.709700 0.000000
-16.681200 0.000000
-16.652700 0.000000
-16.624200 0.000000
-16.595700 0.000000
-16.567200 0.000000
-16.538700 0.000000
-16.510100 0.000000
-16.481600 0.000000
-16.453100 0.000000
-16.424600 0.000000
-16.396100 0.000000
-16.367600 0.000000
-16.339100 0.000000
-16.310600 0.000000
-16.282100 0.000000
-16.253600 0.000000
-16.225100 0.000000
-16.196600 0.000000
-16.168100 0.000000
-16.139600 0.000000
-16.111100 0.000000
-16.082600 0.000000
-16.054100 0.000000
-16.025600 0.000000
-15.997100 0.000000
-15.968600 0.000000
-15.940000 0.000000
-15.911500 0.000000
-15.883000 0.000000
-15.854500 0.000000
-15.826000 0.000000
-15.797500 0.000000
-15.769000 0.000000
-15.740500 0.000000
-15.712000 0.000000
-15.683500 0.000000
-15.655000 0.000000
-15.626500 0.000000
-15.598000 0.000000
-15.569500 0.000000
-15.541000 0.000000
-15.512500 0.000000
-15.484000 0.000000
-15.455500 0.000000
-15.427000 0.000000
-15.398400 0.000000
-15.369900 0.000000
-15.341400 0.000000
-15.312900 0.000000
-15.284400 0.000000
-15.255900 0.000000
-15.227400 0.000000
-15.198900 0.000000
-15.170400 0.000000
-15.141900 0.000000
-15.113400 0.000000
-15.084900 0.000000
-15.056400 0.000000
-15.027900 0.000000
-14.999400 0.000000
-14.970900 0.000000
-14.942400 0.000000
-14.913900 0.000000
-14.885400 0.000000
-14.856900 0.000000
-14.828300 0.000000
-14.799800 0.000000
-14.771300 0.000000
-14.742800 0.000000
-14.714300 0.000000
-14.685800 0.000000
-14.657300 0.000000
-14.628800 0.000000
-14.600300 0.000000
-14.571800 0.000000
-14.543300 0.000000
-14.514800 0.000000
-14.486300 0.000000
-14.457800 0.000000
-14.429300 0.000000
-14.400800 0.000000
-14.372300 0.000000
-14.343800 0.000000
-14.315300 0.000000
-14.286800 0.000000
-14.258200 0.000000
-14.229700 0.000000
-14.201200 0.000000
-14.172700 0.000000
-14.144200 0.000000
-14.115700 0.000000
-14.087200 0.000000
-14.058700 0.000000
-14.030200 0.000000
-14.001700 0.000000
-13.973200 0.000000
-13.944700 0.000000
-13.916200 0.000000
-13.887700 0.000000
-13.859200 0.000000
-13.830700 0.000000
-13.802200 0.000000
-13.773700 0.000000
-13.745200 0.000000
-13.716700 0.000000
-13.688100 0.000000
-13.659600 0.000000
-13.631100 0.000000
-13.602600 0.000000
-13.574100 0.000000
-13.545600 0.000000
-13.517100 0.000000
-13.488600 0.000000
-13.460100 0.000000
-13.431600 0.000000
-13.403100 0.000000
-13.374600 0.000000
-13.346100 0.000000
-13.317600 0.000000
-13.289100 0.000000
-13.260600 0.000000
-13.232100 0.000000
-13.203600 0.000000
-13.175100 0.000000
-13.146600 0.000000
-13.118000 0.000000
-13.089500 0.000000
-13.061000 0.000000
-13.032500 0.000000
-13.004000 0.000000
-12.975500 0.000000
-12.947000 0.000000
-12.918500 0.000000
-12.890000 0.000000
-12.861500 0.000000
-12.833000 0.000000
-12.804500 0.000000
-12.776000 0.000000
-12.747500 0.000000
-12.719000 0.000000
-12.690500 0.000000
-12.662000 0.000000
-12.633500 0.000000
-12.605000 0.000000
-12.576500 0.000000
-12.547900 0.000000
-12.519400 0.000000
-12.490900 0.000000
-12.462400 0.000000
-12.433900 0.000000
-12.405400 0.000000
-12.376900 0.000000
-12.348400 0.000000
-12.319900 0.000000
-12.291400 0.000000
-12.262900 0.000000
-12.234400 0.000000
-12.205900 0.000000
-12.177400 0.000000
-12.148900 0.000000
-12.120400 0.000000
-12.091900 0.000000
-12.063400 0.000000
-12.034900 0.000000
-12.006300 0.000000
-11.977800 0.000000
-11.949300 0.000000
-11.920800 0.000000
-11.892300 0.000000
-11.863800 0.000000
-11.835300 0.000000
-11.806800 0.000000
-11.778300 0.000000
-11.749800 0.000000
-11.721300 0.000000
-11.692800 0.000000
-11.664300 0.000000
-11.635800 0.000000
-11.607300 0.000000
-11.578800 0.000000
-11.550300 0.000000
-11.521800 0.000000
-11.493300 0.000000
-11.464800 0.000000
-11.436200 0.000000
-11.407700 0.000000
-11.379200 0.000000
-11.350700 0.000000
-11.322200 0.000000
-11.293700 0.000000
-11.265200 0.000000
-11.236700 0.000000
-11.208200 0.000000
-11.179700 0.000000
-11.151200 0.000000
-11.122700 0.000000
-11.094200 0.000000
-11.065700 0.000000
-11.037200 0.000000
-11.008700 0.000000
-10.980200 0.000000
-10.951700 0.000000
-10.923200 0.000000
-10.894700 0.000000
-10.866100 0.000000
-10.837600 0.000000
-10.809100 0.000000
-10.780600 0.000000
-10.752100 0.000000
-10.723600 0.000000
-10.695100 0.000000
-10.666600 0.000000
-10.638100 0.000000
-10.609600 0.000000
-10.581100 0.000000
-10.552600 0.000000
-10.524100 0.000000
-10.495600 0.000000
-10.467100 0.000000
-10.438600 0.000000
-10.410100 0.000000
-10.381600 0.000000
-10.353100 0.000000
-10.324600 0.000000
-10.296000 0.000000
-10.267500 0.000000
-10.239000 0.000000
-10.210500 0.000000
-10.182000 0.000000
-10.153500 0.000000
-10.125000 0.000000
-10.096500 0.000000
-10.068000 0.000000
-10.039500 0.000000
-10.011000 0.000000
-9.982500 0.000000
-9.954000 0.000000
-9.925500 0.000000
-9.897000 0.000000
-9.868500 0.000000
-9.840000 0.000000
-9.811500 0.000000
-9.783000 0.000000
-9.754500 0.000000
-9.725900 0.000000
-9.697400 0.000000
-9.668900 0.000000
-9.640400 0.000000
-9.611900 0.000000
-9.583400 0.000000
-9.554900 0.000000
-9.526400 0.000000
-9.497900 0.000000
-9.469400 0.000000
-9.440900 0.000000
-9.412400 0.000000
-9.383900 0.000000
-9.355400 0.000000
-9.326900 0.000000
-9.298400 0.000000
-9.269900 0.000000
-9.241400 0.000000
-9.212900 0.000000
-9.184400 0.000000
-9.155800 0.000000
-9.127300 0.000000
-9.098800 0.000000
-9.070300 0.000000
-9.041800 0.000000
-9.013300 0.000000
-8.984800 0.000000
-8.956300 0.000000
-8.927800 0.000000
-8.899300 0.000000
-8.870800 0.000000
-8.842300 0.000000
-8.813800 0.000000
-8.785300 0.000000
-8.756800 0.000000
-8.728300 0.000000
-8.699800 0.000000
-8.671300 0.000000
-8.642800 0.000000
-8.614200 0.000000
-8.585700 0.000000
-8.557200 0.000000
-8.528700 0.000000
-8.500200 0.006600
-8.471700 0.057100
-8.443200 0.124100
-8.414700 0.193900
-8.386200 0.232200
-8.357700 0.243600
-8.329200 0.256300
-8.300700 0.283800
-8.272200 0.313000
-8.243700 0.337800
-8.215200 0.366000
-8.186700 0.395900
-8.158200 0.415600
-8.129700 0.429700
-8.101200 0.443600
-8.072700 0.458500
-8.044100 0.477300
-8.015600 0.497600
-7.987100 0.518600
-7.958600 0.540200
-7.930100 0.562500
-7.901600 0.616900
-7.873100 0.650800
-7.844600 0.667200
-7.816100 0.667000
-7.787600 0.670300
-7.759100 0.660700
-7.730600 0.663500
-7.702100 0.665100
-7.673600 0.667800
-7.645100 0.669900
-7.616600 0.671100
-7.588100 0.666700
-7.559600 0.660200
-7.531100 0.656700
-7.502600 0.656400
-7.474000 0.659300
-7.445500 0.662500
-7.417000 0.666100
-7.388500 0.669500
-7.360000 0.672900
-7.331500 0.676300
-7.303000 0.679700
-7.274500 0.682800
-7.246000 0.685100
-7.217500 0.684400
-7.189000 0.681700
-7.160500 0.678100
-7.132000 0.675600
-7.103500 0.676300
-7.075000 0.677300
-7.046500 0.678500
-7.018000 0.679800
-6.989500 0.726100
-6.961000 0.747600
-6.932500 0.777200
-6.903900 0.801400
-6.875400 0.820200
-6.846900 0.834200
-6.818400 0.846200
-6.789900 0.864700
-6.761400 0.883900
-6.732900 0.903600
-6.704400 0.919000
-6.675900 0.927800
-6.647400 0.941100
-6.618900 0.955500
-6.590400 0.970300
-6.561900 0.986000
-6.533400 1.004800
-6.504900 1.028000
-6.476400 1.059100
-6.447900 1.095900
-6.419400 1.136900
-6.390900 1.237100
-6.362400 1.286800
-6.333800 1.322100
-6.305300 1.343000
-6.276800 1.349700
-6.248300 1.301100
-6.219800 1.293400
-6.191300 1.286600
-6.162800 1.281500
-6.134300 1.278000
-6.105800 1.262900
-6.077300 1.245500
-6.048800 1.230000
-6.020300 1.216300
-5.991800 1.204400
-5.963300 1.194700
-5.934800 1.175800
-5.906300 1.256900
-5.877800 1.304000
-5.849300 1.365700
-5.820800 1.413200
-5.792200 1.445900
-5.763700 1.492800
-5.735200 1.487400
-5.706700 1.486600
-5.678200 1.490900
-5.649700 1.500700
-5.621200 1.498000
-5.592700 1.526600
-5.564200 1.564600
-5.535700 1.612200
-5.507200 1.668500
-5.478700 1.718900
-5.450200 1.692300
-5.421700 1.676400
-5.393200 1.660200
-5.364700 1.643800
-5.336200 1.634000
-5.307700 1.628700
-5.279200 1.617400
-5.250700 1.597800
-5.222100 1.570300
-5.193600 1.547600
-5.165100 1.528200
-5.136600 1.524700
-5.108100 1.517600
-5.079600 1.505600
-5.051100 1.490400
-5.022600 1.469700
-4.994100 1.443500
-4.965600 1.428300
-4.937100 1.462800
-4.908600 1.486400
-4.880100 1.504800
-4.851600 1.508400
-4.823100 1.419700
-4.794600 1.437400
-4.766100 1.469100
-4.737600 1.523800
-4.709100 1.626300
-4.680600 1.740400
-4.652000 1.866000
-4.623500 1.880000
-4.595000 1.824600
-4.566500 1.844800
-4.538000 2.003800
-4.509500 2.128500
-4.481000 2.067500
-4.452500 1.852400
-4.424000 1.791500
-4.395500 1.938700
-4.367000 2.147200
-4.338500 2.467500
-4.310000 2.624600
-4.281500 2.617800
-4.253000 2.441800
-4.224500 2.085900
-4.196000 1.814600
-4.167500 1.495300
-4.139000 1.200700
-4.110500 1.020500
-4.081900 0.898000
-4.053400 0.787100
-4.024900 0.693100
-3.996400 0.613700
-3.967900 0.604300
-3.939400 0.595000
-3.910900 0.585600
-3.882400 0.576200
-3.853900 0.566800
-3.825400 0.557400
-3.796900 0.548100
-3.768400 0.538700
-3.739900 0.529300
-3.711400 0.519900
-3.682900 0.510500
-3.654400 0.501100
-3.625900 0.491700
-3.597400 0.484200
-3.568900 0.481200
-3.540400 0.480500
-3.511800 0.481900
-3.483300 0.486000
-3.454800 0.490100
-3.426300 0.487500
-3.397800 0.464300
-3.369300 0.450900
-3.340800 0.440300
-3.312300 0.428900
-3.283800 0.417400
-3.255300 0.401200
-3.226800 0.388300
-3.198300 0.385400
-3.169800 0.380600
-3.141300 0.375200
-3.112800 0.369700
-3.084300 0.364300
-3.055800 0.365000
-3.027300 0.480100
-2.998800 0.703100
-2.970300 0.851800
-2.941700 0.930300
-2.913200 0.986500
-2.884700 0.957100
-2.856200 0.985500
-2.827700 1.013400
-2.799200 1.040600
-2.770700 1.088400
-2.742200 1.093600
-2.713700 1.089400
-2.685200 1.089700
-2.656700 1.106900
-2.628200 1.130200
-2.599700 1.159900
-2.571200 1.204200
-2.542700 1.256900
-2.514200 1.311600
-2.485700 1.423100
-2.457200 1.782300
-2.428700 1.935600
-2.400100 2.019200
-2.371600 2.096200
-2.343100 2.084300
-2.314600 2.009100
-2.286100 2.024800
-2.257600 2.011900
-2.229100 1.966300
-2.200600 2.053800
-2.172100 2.094100
-2.143600 2.117900
-2.115100 1.835000
-2.086600 1.478900
-2.058100 1.257000
-2.029600 1.054000
-2.001100 0.931800
-1.972600 0.903200
-1.944100 0.878700
-1.915600 0.855300
-1.887100 0.832900
-1.858600 0.811700
-1.830000 0.791600
-1.801500 0.772700
-1.773000 0.755000
-1.744500 0.738900
-1.716000 0.726600
-1.687500 0.717200
-1.659000 0.709400
-1.630500 0.696200
-1.602000 0.672600
-1.573500 0.632900
-1.545000 0.631600
-1.516500 0.633600
-1.488000 0.635800
-1.459500 0.637600
-1.431000 0.639100
-1.402500 0.640200
-1.374000 0.640600
-1.345500 0.628400
-1.317000 0.607500
-1.288500 0.580800
-1.259900 0.544900
-1.231400 0.523300
-1.202900 0.503500
-1.174400 0.483800
-1.145900 0.464300
-1.117400 0.445200
-1.088900 0.426400
-1.060400 0.407900
-1.031900 0.389800
-1.003400 0.372000
-0.974900 0.354500
-0.946400 0.337400
-0.917900 0.321300
-0.889400 0.311900
-0.860900 0.309000
-0.832400 0.306200
-0.803900 0.303400
-0.775400 0.300600
-0.746900 0.297900
-0.718400 0.295200
-0.689800 0.292500
-0.661300 0.287400
-0.632800 0.279700
-0.604300 0.276100
-0.575800 0.291400
-0.547300 0.307100
-0.518800 0.310600
-0.490300 0.306900
-0.461800 0.302600
-0.433300 0.297700
-0.404800 0.294900
-0.376300 0.304800
-0.347800 0.319200
-0.319300 0.340000
-0.290800 0.372300
-0.262300 0.418700
-0.233800 0.479000
-0.205300 0.532000
-0.176800 0.479200
-0.148300 0.466100
-0.119700 0.488400
-0.091200 0.528700
-0.062700 0.621700
-0.034200 0.605700
-0.005700 0.540500
0.022800 0.549300
0.051300 0.547400
0.079800 0.580500
0.108300 0.626300
0.136800 0.717500
0.165300 0.859500
0.193800 0.923100
0.222300 0.976300
0.250800 1.019600
0.279300 1.060300
0.307800 1.109500
0.336300 1.151500
0.364800 1.204400
0.393300 1.303800
0.421800 1.392000
0.450400 1.454400
0.478900 1.512700
0.507400 1.537300
0.535900 1.410400
0.564400 1.392600
0.592900 1.412300
0.621400 1.416500
0.649900 1.420200
0.678400 1.414200
0.706900 1.411900
0.735400 1.396100
0.763900 1.393700
0.792400 1.375800
0.820900 1.378800
0.849400 1.401900
0.877900 1.469500
0.906400 1.466100
0.934900 1.432400
0.963400 1.417400
0.992000 1.507700
1.020500 1.556600
1.049000 1.602800
1.077500 1.647400
1.106000 1.688100
1.134500 1.727400
1.163000 1.745600
1.191500 1.761900
1.220000 1.879600
1.248500 1.725100
1.277000 1.700300
1.305500 1.693000
1.334000 1.694700
1.362500 1.698400
1.391000 1.708100
1.419500 1.719200
1.448000 1.724700
1.476500 1.720000
1.505000 1.718000
1.533500 1.715200
1.562100 1.710200
1.590600 1.713500
1.619100 1.729300
1.647600 1.746600
1.676100 1.766000
1.704600 1.788100
1.733100 1.841700
1.761600 1.863600
1.790100 1.908500
1.818600 1.970500
1.847100 1.989300
1.875600 1.954000
1.904100 1.934600
1.932600 1.931500
1.961100 1.938000
1.989600 2.017200
2.018100 2.092200
2.046600 2.132500
2.075100 2.127300
2.103600 2.207900
2.132200 2.285000
2.160700 2.311800
2.189200 2.319800
2.217700 2.332600
2.246200 2.344600
2.274700 2.475500
2.303200 2.480400
2.331700 2.423100
2.360200 2.394200
2.388700 2.365700
2.417200 2.353000
2.445700 2.355500
2.474200 2.298800
2.502700 2.270600
2.531200 2.265600
2.559700 2.258900
2.588200 2.257600
2.616700 2.193000
2.645200 2.204300
2.673700 2.173400
2.702300 2.211100
2.730800 2.333900
2.759300 2.735300
2.787800 2.082300
2.816300 2.013100
2.844800 1.958000
2.873300 1.913000
2.901800 1.875500
2.930300 1.844900
2.958800 1.820000
2.987300 1.791900
3.015800 1.762300
3.044300 1.733600
3.072800 1.723400
3.101300 1.705200
3.129800 1.691200
3.158300 1.680800
3.186800 1.675300
3.215300 1.671200
3.243800 1.672500
3.272400 1.678900
3.300900 1.693500
3.329400 1.727100
3.357900 1.772900
3.386400 1.828600
3.414900 1.843000
3.443400 1.844300
3.471900 1.846700
3.500400 1.842000
3.528900 1.852300
3.557400 1.858000
3.585900 1.850100
3.614400 1.839600
3.642900 1.825200
3.671400 1.816200
3.699900 1.819300
3.728400 1.832000
3.756900 1.887800
3.785400 1.953900
3.813900 2.015600
3.842500 2.072800
3.871000 2.152100
3.899500 2.201400
3.928000 2.212900
3.956500 2.226500
3.985000 2.238700
4.013500 2.224600
4.042000 2.145800
4.070500 2.070800
4.099000 2.047400
4.127500 2.084400
4.156000 2.113100
4.184500 2.098100
4.213000 2.015600
4.241500 2.048200
4.270000 2.224700
4.298500 2.059000
4.327000 2.025800
4.355500 2.000500
4.384100 2.014800
4.412600 2.058700
4.441100 2.100800
4.469600 2.115300
4.498100 2.149100
4.526600 2.193500
4.555100 2.197400
4.583600 2.182000
4.612100 2.158600
4.640600 2.169100
4.669100 2.180200
4.697600 2.185600
4.726100 2.187600
4.754600 2.205900
4.783100 2.261000
4.811600 2.225100
4.840100 2.298200
4.868600 2.334900
4.897100 2.380700
4.925600 2.413400
4.954200 2.410000
4.982700 2.369500
5.011200 2.319600
5.039700 2.288800
5.068200 2.216400
5.096700 2.245700
5.125200 2.279800
5.153700 2.304600
5.182200 2.313100
5.210700 2.356700
5.239200 2.416800
5.267700 2.444200
5.296200 2.369600
5.324700 2.295400
5.353200 2.217400
5.381700 2.129100
5.410200 2.019600
5.438700 1.939400
5.467200 1.858000
5.495700 1.771700
5.524300 1.706200
5.552800 1.662800
5.581300 1.685000
5.609800 1.794800
5.638300 1.968200
5.666800 2.309600
5.695300 2.095900
5.723800 1.850900
5.752300 1.850400
5.780800 1.892800
5.809300 1.920100
5.837800 1.939400
5.866300 1.974300
5.894800 2.014800
5.923300 2.136500
5.951800 2.139700
5.980300 2.162800
6.008800 2.125900
6.037300 2.066100
6.065800 2.060600
6.094400 2.042400
6.122900 2.032000
6.151400 2.057600
6.179900 2.153200
6.208400 2.375500
6.236900 2.408400
6.265400 2.408700
6.293900 2.198600
6.322400 2.174600
6.350900 2.259500
6.379400 2.467100
6.407900 2.467700
6.436400 2.488200
6.464900 2.366300
6.493400 2.244400
6.521900 2.128300
6.550400 2.070700
6.578900 2.035500
6.607400 2.093400
6.635900 2.306600
6.664500 2.328600
6.693000 2.420500
6.721500 2.546500
6.750000 2.617000
6.778500 2.598400
6.807000 2.698300
6.835500 2.789200
6.864000 2.864600
6.892500 2.910100
6.921000 2.914400
6.949500 2.901500
6.978000 3.026000
7.006500 3.219000
7.035000 3.319700
7.063500 3.151200
7.092000 3.087500
7.120500 3.087400
7.149000 3.108500
7.177500 3.019700
7.206100 2.864600
7.234600 2.731500
7.263100 2.616600
7.291600 2.525500
7.320100 2.438500
7.348600 2.301700
7.377100 2.229300
7.405600 2.240700
7.434100 2.215600
7.462600 2.253600
7.491100 2.300700
7.519600 2.442100
7.548100 2.484400
7.576600 2.648300
7.605100 2.805400
7.633600 2.770800
7.662100 2.729100
7.690600 2.721800
7.719100 2.709600
7.747600 2.687000
7.776200 2.675900
7.804700 2.703600
7.833200 2.724400
7.861700 2.779200
7.890200 2.828600
7.918700 2.676400
7.947200 2.593800
7.975700 2.588600
8.004200 2.563700
8.032700 2.534200
8.061200 2.485100
8.089700 2.436400
8.118200 2.386700
8.146700 2.281300
8.175200 2.204000
8.203700 2.112000
8.232200 2.020100
8.260700 1.878300
8.289200 1.748600
8.317700 1.729900
8.346300 1.737200
8.374800 1.751100
