set title 'mp-20483 - Density of States'
set xlabel 'Energy (eV)'
set ylabel 'DOS (states/eV)'
set grid
set xrange [-10:10]
set yrange [0:1.190]
set xzeroaxis lt -1
set terminal png size 800,600
set output 'mp-20483_dos_gnuplot.png'
plot '-' using 1:2 with lines title 'DOS'
-12.560400 0.000000
-12.538400 0.000000
-12.516500 0.000000
-12.494500 0.000000
-12.472600 0.000000
-12.450700 0.000000
-12.428700 0.000000
-12.406800 0.000000
-12.384800 0.000000
-12.362900 0.000000
-12.340900 0.000000
-12.319000 0.000000
-12.297000 0.000000
-12.275100 0.000000
-12.253100 0.000000
-12.231200 0.000000
-12.209200 0.000000
-12.187300 0.000000
-12.165300 0.000000
-12.143400 0.000000
-12.121400 0.000000
-12.099500 0.000000
-12.077500 0.000000
-12.055600 0.000000
-12.033600 0.000000
-12.011700 0.000000
-11.989700 0.000000
-11.967800 0.000000
-11.945800 0.000000
-11.923900 0.000000
-11.901900 0.000000
-11.880000 0.000000
-11.858000 0.000000
-11.836100 0.000000
-11.814100 0.000000
-11.792200 0.000000
-11.770200 0.000000
-11.748300 0.000000
-11.726400 0.000000
-11.704400 0.000000
-11.682500 0.000000
-11.660500 0.000000
-11.638600 0.000000
-11.616600 0.000000
-11.594700 0.000000
-11.572700 0.000000
-11.550800 0.000000
-11.528800 0.000000
-11.506900 0.000000
-11.484900 0.000000
-11.463000 0.000000
-11.441000 0.000000
-11.419100 0.000000
-11.397100 0.000000
-11.375200 0.000000
-11.353200 0.000000
-11.331300 0.000000
-11.309300 0.000000
-11.287400 0.000000
-11.265400 0.000000
-11.243500 0.000000
-11.221500 0.000000
-11.199600 0.000000
-11.177600 0.000000
-11.155700 0.000000
-11.133700 0.000000
-11.111800 0.000000
-11.089800 0.000000
-11.067900 0.000000
-11.045900 0.000000
-11.024000 0.000000
-11.002100 0.000000
-10.980100 0.000000
-10.958200 0.000000
-10.936200 0.000000
-10.914300 0.000000
-10.892300 0.000000
-10.870400 0.000000
-10.848400 0.000000
-10.826500 0.000000
-10.804500 0.000000
-10.782600 0.000000
-10.760600 0.000000
-10.738700 0.000000
-10.716700 0.000000
-10.694800 0.000000
-10.672800 0.000000
-10.650900 0.000000
-10.628900 0.000000
-10.607000 0.000000
-10.585000 0.000000
-10.563100 0.489900
-10.541100 3.403000
-10.519200 5.826400
-10.497200 9.019000
-10.475300 16.746300
-10.453300 28.629400
-10.431400 33.648700
-10.409400 55.648000
-10.387500 30.715400
-10.365500 15.699300
-10.343600 22.336500
-10.321600 31.895700
-10.299700 19.512200
-10.277800 44.310300
-10.255800 32.690000
-10.233900 33.247200
-10.211900 38.325500
-10.190000 16.722200
-10.168000 0.000000
-10.146100 0.000000
-10.124100 0.000000
-10.102200 0.000000
-10.080200 0.000000
-10.058300 0.000000
-10.036300 0.000000
-10.014400 0.000000
-9.992400 0.000000
-9.970500 0.000000
-9.948500 0.000000
-9.926600 0.000000
-9.904600 0.000000
-9.882700 0.000000
-9.860700 0.000000
-9.838800 0.000000
-9.816800 0.000000
-9.794900 0.000000
-9.772900 0.000000
-9.751000 0.000000
-9.729000 0.000000
-9.707100 0.000000
-9.685100 0.000000
-9.663200 0.000000
-9.641200 0.000000
-9.619300 0.000000
-9.597400 0.000000
-9.575400 0.000000
-9.553500 0.000000
-9.531500 0.000000
-9.509600 0.000000
-9.487600 0.000000
-9.465700 0.000000
-9.443700 0.000000
-9.421800 0.000000
-9.399800 0.000000
-9.377900 0.000000
-9.355900 0.000000
-9.334000 0.000000
-9.312000 0.000000
-9.290100 0.000000
-9.268100 0.000000
-9.246200 0.000000
-9.224200 0.000000
-9.202300 0.000000
-9.180300 0.000000
-9.158400 0.000000
-9.136400 0.000000
-9.114500 0.000000
-9.092500 0.000000
-9.070600 0.000000
-9.048600 0.000000
-9.026700 0.000000
-9.004700 0.000000
-8.982800 0.000000
-8.960800 0.000000
-8.938900 0.000000
-8.916900 0.000000
-8.895000 0.000000
-8.873100 0.000000
-8.851100 0.000000
-8.829200 0.000000
-8.807200 0.000000
-8.785300 0.000000
-8.763300 0.000000
-8.741400 0.000000
-8.719400 0.000000
-8.697500 0.000000
-8.675500 0.000000
-8.653600 0.000000
-8.631600 0.000000
-8.609700 0.000000
-8.587700 0.000000
-8.565800 0.000000
-8.543800 0.000000
-8.521900 0.000000
-8.499900 0.000000
-8.478000 0.000000
-8.456000 0.000000
-8.434100 0.000000
-8.412100 0.000000
-8.390200 0.000000
-8.368200 0.000000
-8.346300 0.000000
-8.324300 0.000000
-8.302400 0.000000
-8.280400 0.000000
-8.258500 0.000000
-8.236500 0.000000
-8.214600 0.000000
-8.192600 0.000000
-8.170700 0.000000
-8.148800 0.000000
-8.126800 0.000000
-8.104900 0.000000
-8.082900 0.000000
-8.061000 0.000000
-8.039000 0.000000
-8.017100 0.000000
-7.995100 0.000000
-7.973200 0.000000
-7.951200 0.000000
-7.929300 0.000000
-7.907300 0.000000
-7.885400 0.000000
-7.863400 0.000000
-7.841500 0.000000
-7.819500 0.000000
-7.797600 0.000000
-7.775600 0.000000
-7.753700 0.000000
-7.731700 0.000000
-7.709800 0.000000
-7.687800 0.000000
-7.665900 0.000000
-7.643900 0.000000
-7.622000 0.000000
-7.600000 0.000000
-7.578100 0.000000
-7.556100 0.000000
-7.534200 0.000000
-7.512200 0.000000
-7.490300 0.000000
-7.468300 0.000000
-7.446400 0.000000
-7.424500 0.000000
-7.402500 0.000000
-7.380600 0.000000
-7.358600 0.000000
-7.336700 0.000000
-7.314700 0.000000
-7.292800 0.000000
-7.270800 0.000000
-7.248900 0.000000
-7.226900 0.000000
-7.205000 0.000000
-7.183000 0.000000
-7.161100 0.000000
-7.139100 0.000000
-7.117200 0.000000
-7.095200 0.000000
-7.073300 0.000000
-7.051300 0.000000
-7.029400 0.000000
-7.007400 0.000000
-6.985500 0.000000
-6.963500 0.000000
-6.941600 0.000000
-6.919600 0.000000
-6.897700 0.000000
-6.875700 0.000000
-6.853800 0.000000
-6.831800 0.000000
-6.809900 0.000000
-6.787900 0.000000
-6.766000 0.000000
-6.744000 0.000000
-6.722100 0.000000
-6.700200 0.000000
-6.678200 0.000000
-6.656300 0.000000
-6.634300 0.000000
-6.612400 0.000000
-6.590400 0.000000
-6.568500 0.000000
-6.546500 0.000000
-6.524600 0.000000
-6.502600 0.000000
-6.480700 0.000000
-6.458700 0.000000
-6.436800 0.000000
-6.414800 0.000000
-6.392900 0.000000
-6.370900 0.000000
-6.349000 0.000000
-6.327000 0.000000
-6.305100 0.000000
-6.283100 0.000000
-6.261200 0.000000
-6.239200 0.000000
-6.217300 0.000000
-6.195300 0.000000
-6.173400 0.000000
-6.151400 0.000000
-6.129500 0.000000
-6.107500 0.000000
-6.085600 0.000000
-6.063600 0.000000
-6.041700 0.000000
-6.019700 0.000000
-5.997800 0.000000
-5.975900 0.000000
-5.953900 0.000000
-5.932000 0.000000
-5.910000 0.000000
-5.888100 0.000000
-5.866100 0.000000
-5.844200 0.000000
-5.822200 0.000000
-5.800300 0.000000
-5.778300 0.000000
-5.756400 0.000000
-5.734400 0.000000
-5.712500 0.000000
-5.690500 0.000000
-5.668600 0.000000
-5.646600 0.000000
-5.624700 0.000000
-5.602700 0.000000
-5.580800 0.000000
-5.558800 0.000000
-5.536900 0.000000
-5.514900 0.000000
-5.493000 0.000000
-5.471000 0.000000
-5.449100 0.000000
-5.427100 0.000000
-5.405200 0.000000
-5.383200 0.000000
-5.361300 0.000000
-5.339300 0.000000
-5.317400 0.000000
-5.295500 0.000000
-5.273500 0.000000
-5.251600 0.000000
-5.229600 0.000000
-5.207700 0.000000
-5.185700 0.000000
-5.163800 0.000000
-5.141800 0.000000
-5.119900 0.000000
-5.097900 0.000000
-5.076000 0.000000
-5.054000 0.000000
-5.032100 0.000000
-5.010100 0.000000
-4.988200 0.000000
-4.966200 0.000000
-4.944300 0.000000
-4.922300 0.000000
-4.900400 0.000000
-4.878400 0.000000
-4.856500 0.000000
-4.834500 0.000000
-4.812600 0.000000
-4.790600 0.000000
-4.768700 0.000000
-4.746700 0.000000
-4.724800 0.000000
-4.702800 0.000000
-4.680900 0.000000
-4.658900 0.002000
-4.637000 0.021000
-4.615000 0.048500
-4.593100 0.048600
-4.571200 0.057800
-4.549200 0.067600
-4.527300 0.077800
-4.505300 0.084300
-4.483400 0.086100
-4.461400 0.090500
-4.439500 0.096100
-4.417500 0.101800
-4.395600 0.107600
-4.373600 0.113600
-4.351700 0.119800
-4.329700 0.121500
-4.307800 0.125000
-4.285800 0.128300
-4.263900 0.131500
-4.241900 0.134900
-4.220000 0.138700
-4.198000 0.142900
-4.176100 0.147200
-4.154100 0.151500
-4.132200 0.155800
-4.110200 0.159300
-4.088300 0.161400
-4.066300 0.163600
-4.044400 0.166400
-4.022400 0.169300
-4.000500 0.172200
-3.978500 0.175200
-3.956600 0.178100
-3.934600 0.181200
-3.912700 0.184500
-3.890700 0.187800
-3.868800 0.191100
-3.846900 0.194500
-3.824900 0.197900
-3.803000 0.200000
-3.781000 0.202400
-3.759100 0.204800
-3.737100 0.207000
-3.715200 0.209300
-3.693200 0.211800
-3.671300 0.214400
-3.649300 0.217100
-3.627400 0.219800
-3.605400 0.222500
-3.583500 0.225200
-3.561500 0.227900
-3.539600 0.230700
-3.517600 0.233600
-3.495700 0.236500
-3.473700 0.239400
-3.451800 0.242000
-3.429800 0.244100
-3.407900 0.246300
-3.385900 0.248600
-3.364000 0.251000
-3.342000 0.253300
-3.320100 0.255600
-3.298100 0.258000
-3.276200 0.260400
-3.254200 0.262900
-3.232300 0.265500
-3.210300 0.268100
-3.188400 0.270700
-3.166400 0.273300
-3.144500 0.276000
-3.122600 0.278700
-3.100600 0.281300
-3.078700 0.284000
-3.056700 0.286800
-3.034800 0.289200
-3.012800 0.291600
-2.990900 0.294000
-2.968900 0.296400
-2.947000 0.298800
-2.925000 0.301300
-2.903100 0.303900
-2.881100 0.306500
-2.859200 0.309100
-2.837200 0.311700
-2.815300 0.314300
-2.793300 0.317000
-2.771400 0.319700
-2.749400 0.322400
-2.727500 0.325200
-2.705500 0.328000
-2.683600 0.330800
-2.661600 0.333700
-2.639700 0.336500
-2.617700 0.339400
-2.595800 0.342300
-2.573800 0.345200
-2.551900 0.348000
-2.529900 0.351000
-2.508000 0.354000
-2.486000 0.357000
-2.464100 0.360000
-2.442100 0.363100
-2.420200 0.366300
-2.398300 0.369500
-2.376300 0.372700
-2.354400 0.376000
-2.332400 0.379300
-2.310500 0.382700
-2.288500 0.386000
-2.266600 0.389500
-2.244600 0.392900
-2.222700 0.396500
-2.200700 0.400100
-2.178800 0.403700
-2.156800 0.407400
-2.134900 0.411200
-2.112900 0.415000
-2.091000 0.418900
-2.069000 0.423200
-2.047100 0.427600
-2.025100 0.432000
-2.003200 0.436600
-1.981200 0.441300
-1.959300 0.446100
-1.937300 0.451000
-1.915400 0.456100
-1.893400 0.461200
-1.871500 0.466600
-1.849500 0.472100
-1.827600 0.477800
-1.805600 0.483600
-1.783700 0.489700
-1.761700 0.495800
-1.739800 0.502200
-1.717900 0.508700
-1.695900 0.515400
-1.674000 0.522600
-1.652000 0.530200
-1.630100 0.538200
-1.608100 0.546700
-1.586200 0.555700
-1.564200 0.566500
-1.542300 0.578000
-1.520300 0.590100
-1.498400 0.603100
-1.476400 0.617600
-1.454500 0.635800
-1.432500 0.658200
-1.410600 0.691300
-1.388600 0.724900
-1.366700 0.743800
-1.344700 0.754000
-1.322800 0.840700
-1.300800 0.774700
-1.278900 0.759500
-1.256900 0.753200
-1.235000 0.747600
-1.213000 0.742200
-1.191100 0.737800
-1.169100 0.734200
-1.147200 0.730800
-1.125200 0.726200
-1.103300 0.723700
-1.081300 0.740800
-1.059400 0.744200
-1.037400 0.743500
-1.015500 0.739400
-0.993600 0.730800
-0.971600 0.724200
-0.949700 0.720500
-0.927700 0.717700
-0.905800 0.715300
-0.883800 0.713500
-0.861900 0.711700
-0.839900 0.710100
-0.818000 0.708000
-0.796000 0.705500
-0.774100 0.702400
-0.752100 0.697600
-0.730200 0.696400
-0.708200 0.699600
-0.686300 0.704100
-0.664300 0.706400
-0.642400 0.706900
-0.620400 0.707100
-0.598500 0.706300
-0.576500 0.705100
-0.554600 0.703100
-0.532600 0.701900
-0.510700 0.701500
-0.488700 0.701000
-0.466800 0.701600
-0.444800 0.703300
-0.422900 0.706200
-0.400900 0.710500
-0.379000 0.717500
-0.357000 0.721700
-0.335100 0.727700
-0.313100 0.736400
-0.291200 0.747900
-0.269300 0.758800
-0.247300 0.768700
-0.225400 0.777500
-0.203400 0.788200
-0.181500 0.805100
-0.159500 0.832000
-0.137600 0.908500
-0.115600 1.069500
-0.093700 1.082100
-0.071700 0.696100
-0.049800 0.447800
-0.027800 0.357300
-0.005900 0.000000
0.016100 0.000000
0.038000 0.000000
0.060000 0.000000
0.081900 0.000000
0.103900 0.000000
0.125800 0.000000
0.147800 0.000000
0.169700 0.000000
0.191700 0.000000
0.213600 0.000000
0.235600 0.000000
0.257500 0.000000
0.279500 0.000000
0.301400 0.000000
0.323400 0.000000
0.345300 0.000000
0.367300 0.000000
0.389200 0.000000
0.411200 0.000000
0.433100 0.000000
0.455000 0.000000
0.477000 0.000000
0.498900 0.000000
0.520900 0.000000
0.542800 0.000000
0.564800 0.000000
0.586700 0.000000
0.608700 0.000000
0.630600 0.000000
0.652600 0.000000
0.674500 0.000000
0.696500 0.000000
0.718400 0.000000
0.740400 0.000000
0.762300 0.000000
0.784300 0.000000
0.806200 0.000000
0.828200 0.000000
0.850100 0.000000
0.872100 0.000000
0.894000 0.000000
0.916000 0.000000
0.937900 0.000000
0.959900 0.000000
0.981800 0.000000
1.003800 0.000000
1.025700 0.000000
1.047700 0.000000
1.069600 0.000000
1.091600 0.000000
1.113500 0.000000
1.135500 0.000000
1.157400 0.000000
1.179300 0.000000
1.201300 0.000000
1.223200 0.000000
1.245200 0.000000
1.267100 0.000000
1.289100 0.000000
1.311000 0.000000
1.333000 0.000000
1.354900 0.000000
1.376900 0.000000
1.398800 0.000000
1.420800 0.000000
1.442700 0.000000
1.464700 0.000000
1.486600 0.000000
1.508600 0.000000
1.530500 0.000000
1.552500 0.000000
1.574400 0.000000
1.596400 0.000000
1.618300 0.000000
1.640300 0.000000
1.662200 0.000000
1.684200 0.000000
1.706100 0.000000
1.728100 0.000000
1.750000 0.000000
1.772000 0.000000
1.793900 0.000000
1.815900 0.000000
1.837800 0.000000
1.859800 0.000000
1.881700 0.000000
1.903600 0.000000
1.925600 0.000000
1.947500 0.000000
1.969500 0.000000
1.991400 0.000000
2.013400 0.000000
2.035300 0.000000
2.057300 0.000000
2.079200 0.000000
2.101200 0.000000
2.123100 0.000000
2.145100 0.000000
2.167000 0.000000
2.189000 0.000000
2.210900 0.000000
2.232900 0.000000
2.254800 0.000000
2.276800 0.000000
2.298700 0.000000
2.320700 0.000000
2.342600 0.000000
2.364600 0.000000
2.386500 0.000000
2.408500 0.000000
2.430400 0.000000
2.452400 0.000000
2.474300 0.000000
2.496300 0.000000
2.518200 0.000000
2.540200 0.000000
2.562100 0.000000
2.584000 0.000000
2.606000 0.000000
2.627900 0.000000
2.649900 0.000000
2.671800 0.000000
2.693800 0.000000
2.715700 0.000000
2.737700 0.000000
2.759600 0.000000
2.781600 0.000000
2.803500 0.051000
2.825500 0.046300
2.847400 0.057700
2.869400 0.070300
2.891300 0.084000
2.913300 0.098900
2.935200 0.114800
2.957200 0.131900
2.979100 0.141300
3.001100 0.140300
3.023000 0.145800
3.045000 0.152000
3.066900 0.157300
3.088900 0.162000
3.110800 0.165900
3.132800 0.172600
3.154700 0.179300
3.176700 0.185900
3.198600 0.193200
3.220600 0.201400
3.242500 0.210100
3.264500 0.219200
3.286400 0.228100
3.308300 0.233500
3.330300 0.236900
3.352200 0.241000
3.374200 0.245200
3.396100 0.248900
3.418100 0.252400
3.440000 0.258300
3.462000 0.263400
3.483900 0.268400
3.505900 0.273500
3.527800 0.278700
3.549800 0.284300
3.571700 0.290300
3.593700 0.296400
3.615600 0.302600
3.637600 0.308900
3.659500 0.316000
3.681500 0.347700
3.703400 0.368400
3.725400 0.378500
3.747300 0.388900
3.769300 0.404900
3.791200 0.423100
3.813200 0.474500
3.835100 0.446500
3.857100 0.457400
3.879000 0.474700
3.901000 0.487200
3.922900 0.497500
3.944900 0.508600
3.966800 0.520700
3.988800 0.533700
4.010700 0.547900
4.032600 0.563200
4.054600 0.579800
4.076500 0.595200
4.098500 0.609200
4.120400 0.623600
4.142400 0.638200
4.164300 0.653600
4.186300 0.670600
4.208200 0.689000
4.230200 0.709200
4.252100 0.731100
4.274100 0.754900
4.296000 0.786700
4.318000 0.828400
4.339900 0.885800
4.361900 0.951200
4.383800 0.986700
4.405800 0.987600
4.427700 0.988800
4.449700 0.998600
4.471600 1.011200
4.493600 1.010400
4.515500 0.992200
4.537500 0.978700
4.559400 0.975300
4.581400 0.972300
4.603300 0.956000
4.625300 0.933500
4.647200 0.921300
4.669200 0.921500
4.691100 0.925200
4.713100 0.928400
4.735000 0.932400
4.756900 0.940100
4.778900 0.939400
4.800800 0.943600
4.822800 0.941300
4.844700 0.929500
4.866700 0.921800
4.888600 0.884800
4.910600 0.839100
4.932500 0.780600
4.954500 0.707400
4.976400 0.643000
4.998400 0.595200
5.020300 0.559000
5.042300 0.533900
5.064200 0.514800
5.086200 0.497800
5.108100 0.482800
5.130100 0.470000
5.152000 0.459600
5.174000 0.442600
5.195900 0.427600
5.217900 0.404400
5.239800 0.384300
5.261800 0.365600
5.283700 0.361900
5.305700 0.360000
5.327600 0.359900
5.349600 0.361600
5.371500 0.365000
5.393500 0.369100
5.415400 0.374100
5.437400 0.383100
5.459300 0.396600
5.481200 0.414600
5.503200 0.444800
5.525100 0.465900
5.547100 0.483900
5.569000 0.498600
5.591000 0.504000
5.612900 0.513800
5.634900 0.520800
5.656800 0.521000
5.678800 0.518700
5.700700 0.516500
5.722700 0.514600
5.744600 0.510100
5.766600 0.503800
5.788500 0.503300
5.810500 0.504000
5.832400 0.506000
5.854400 0.509100
5.876300 0.513000
5.898300 0.517200
5.920200 0.521800
5.942200 0.525500
5.964100 0.527300
5.986100 0.529700
6.008000 0.532500
6.030000 0.534900
6.051900 0.536800
6.073900 0.538500
6.095800 0.539700
6.117800 0.543700
6.139700 0.543600
6.161600 0.542700
6.183600 0.542100
6.205500 0.541500
6.227500 0.540900
6.249400 0.540200
6.271400 0.539400
6.293300 0.538600
6.315300 0.537800
6.337200 0.535700
6.359200 0.531000
6.381100 0.529200
6.403100 0.528600
6.425000 0.528200
6.447000 0.527500
6.468900 0.527800
6.490900 0.529500
6.512800 0.532600
6.534800 0.533300
6.556700 0.533800
6.578700 0.534300
6.600600 0.534700
6.622600 0.535100
6.644500 0.535500
6.666500 0.535800
6.688400 0.536000
6.710400 0.536200
6.732300 0.536400
6.754300 0.536400
6.776200 0.536400
6.798200 0.541100
6.820100 0.547000
6.842100 0.542900
6.864000 0.536100
6.885900 0.536600
6.907900 0.537000
6.929800 0.537900
6.951800 0.539000
6.973700 0.537200
6.995700 0.531300
7.017600 0.528300
7.039600 0.528500
7.061500 0.527900
7.083500 0.526900
7.105400 0.525400
7.127400 0.522800
7.149300 0.551800
7.171300 0.552300
7.193200 0.553600
7.215200 0.555900
7.237100 0.560000
7.259100 0.563600
7.281000 0.567300
7.303000 0.571300
7.324900 0.575600
7.346900 0.580200
7.368800 0.584900
7.390800 0.596700
7.412700 0.605200
7.434700 0.589700
7.456600 0.592000
7.478600 0.594600
7.500500 0.597300
7.522500 0.600200
7.544400 0.603200
7.566400 0.605900
7.588300 0.608700
7.610200 0.647200
7.632200 0.616500
7.654100 0.622200
7.676100 0.630200
7.698000 0.640300
7.720000 0.649500
7.741900 0.641000
7.763900 0.637900
7.785800 0.638900
7.807800 0.640500
7.829700 0.641900
7.851700 0.644100
7.873600 0.661500
7.895600 0.664000
7.917500 0.652800
7.939500 0.657100
7.961400 0.662200
7.983400 0.665400
8.005300 0.671300
8.027300 0.678100
8.049200 0.684900
8.071200 0.679400
8.093100 0.671200
8.115100 0.669800
8.137000 0.670100
8.159000 0.671800
8.180900 0.674300
8.202900 0.677100
8.224800 0.680100
8.246800 0.683400
8.268700 0.687100
8.290700 0.691100
8.312600 0.709100
8.334500 0.727200
8.356500 0.717000
8.378400 0.733700
8.400400 0.768400
8.422300 0.774700
8.444300 0.773500
8.466200 0.769700
8.488200 0.779200
8.510100 0.792300
8.532100 0.807800
8.554000 0.822400
8.576000 0.818600
8.597900 0.826300
8.619900 0.838000
8.641800 0.851100
8.663800 0.865800
8.685700 0.861300
8.707700 0.860100
8.729600 0.861900
8.751600 0.866100
8.773500 0.863800
8.795500 0.847100
8.817400 0.842100
8.839400 0.848600
8.861300 0.844000
8.883300 0.839500
8.905200 0.835300
8.927200 0.831100
8.949100 0.826500
8.971100 0.822300
8.993000 0.818600
9.015000 0.831800
9.036900 0.825500
9.058800 0.820400
9.080800 0.816400
9.102700 0.813200
9.124700 0.810800
9.146600 0.808000
9.168600 0.802800
9.190500 0.801300
9.212500 0.800200
9.234400 0.799300
9.256400 0.798500
9.278300 0.796600
9.300300 0.794900
9.322200 0.794800
9.344200 0.793100
9.366100 0.791200
9.388100 0.789400
9.410000 0.787600
9.432000 0.785900
9.453900 0.784100
9.475900 0.782100
9.497800 0.779800
9.519800 0.777300
9.541700 0.774500
9.563700 0.771500
9.585600 0.768200
9.607600 0.764700
9.629500 0.761000
9.651500 0.757400
9.673400 0.754100
9.695400 0.751100
9.717300 0.748800
9.739300 0.747200
9.761200 0.746700
9.783100 0.744900
9.805100 0.742700
9.827000 0.740400
9.849000 0.737900
9.870900 0.735400
9.892900 0.733000
9.914800 0.730600
9.936800 0.728500
9.958700 0.726000
9.980700 0.723900
10.002600 0.722100
10.024600 0.720700
10.046500 0.719100
10.068500 0.716800
10.090400 0.713800
10.112400 0.710800
10.134300 0.707700
10.156300 0.704600
10.178200 0.701500
10.200200 0.698600
10.222100 0.696000
10.244100 0.693800
10.266000 0.691800
10.288000 0.690000
10.309900 0.688300
10.331900 0.686900
10.353800 0.685600
10.375800 0.684600
10.397700 0.684400
10.419700 0.683900
10.441600 0.683200
10.463500 0.682100
10.485500 0.680600
10.507400 0.678800
10.529400 0.676700
10.551300 0.674200
10.573300 0.671400
