set title 'mp-568610 - Density of States'
set xlabel 'Energy (eV)'
set ylabel 'DOS (states/eV)'
set grid
set xrange [-10:10]
set yrange [0:1.738]
set xzeroaxis lt -1
set terminal png size 800,600
set output 'mp-568610_dos_gnuplot.png'
plot '-' using 1:2 with lines title 'DOS'
-8.680600 0.000000
-8.661100 0.000000
-8.641600 0.000000
-8.622200 0.000000
-8.602700 0.000000
-8.583200 0.000000
-8.563700 0.000000
-8.544300 0.000000
-8.524800 0.000000
-8.505300 0.000000
-8.485800 0.000000
-8.466400 0.000000
-8.446900 0.000000
-8.427400 0.000000
-8.407900 0.000000
-8.388500 0.000000
-8.369000 0.000000
-8.349500 0.000000
-8.330000 0.000000
-8.310600 0.000000
-8.291100 0.000000
-8.271600 0.000000
-8.252100 0.000000
-8.232700 0.000000
-8.213200 0.000000
-8.193700 0.000000
-8.174300 0.000000
-8.154800 0.000000
-8.135300 0.000000
-8.115800 0.000000
-8.096400 0.000000
-8.076900 0.000000
-8.057400 0.000000
-8.037900 0.000000
-8.018500 0.000000
-7.999000 0.000000
-7.979500 0.000000
-7.960000 0.000000
-7.940600 0.000000
-7.921100 0.000000
-7.901600 0.000000
-7.882100 0.000000
-7.862700 0.000000
-7.843200 0.000000
-7.823700 0.000000
-7.804200 0.000000
-7.784800 0.000000
-7.765300 0.000000
-7.745800 0.000000
-7.726400 0.000000
-7.706900 0.000000
-7.687400 0.000000
-7.667900 0.000000
-7.648500 0.000000
-7.629000 0.000000
-7.609500 0.000000
-7.590000 0.000000
-7.570600 0.000000
-7.551100 0.000000
-7.531600 0.000000
-7.512100 0.000000
-7.492700 0.000000
-7.473200 0.000000
-7.453700 0.000000
-7.434200 0.000000
-7.414800 0.000000
-7.395300 0.000000
-7.375800 0.000000
-7.356300 0.000000
-7.336900 0.000000
-7.317400 0.000000
-7.297900 0.000000
-7.278500 0.000000
-7.259000 0.000000
-7.239500 0.000000
-7.220000 0.000000
-7.200600 0.000000
-7.181100 0.000000
-7.161600 0.000000
-7.142100 0.000000
-7.122700 0.000000
-7.103200 0.000000
-7.083700 0.000000
-7.064200 0.000000
-7.044800 0.000000
-7.025300 0.000000
-7.005800 0.000000
-6.986300 0.000000
-6.966900 0.000000
-6.947400 0.000000
-6.927900 0.000000
-6.908400 0.000100
-6.889000 0.007600
-6.869500 0.028000
-6.850000 0.045000
-6.830600 0.053400
-6.811100 0.064200
-6.791600 0.075100
-6.772100 0.083800
-6.752700 0.091100
-6.733200 0.093600
-6.713700 0.098000
-6.694200 0.103800
-6.674800 0.110700
-6.655300 0.114900
-6.635800 0.121300
-6.616300 0.127700
-6.596900 0.132700
-6.577400 0.134500
-6.557900 0.138400
-6.538400 0.142800
-6.519000 0.147500
-6.499500 0.151800
-6.480000 0.155400
-6.460500 0.158200
-6.441100 0.161600
-6.421600 0.166100
-6.402100 0.171300
-6.382700 0.176600
-6.363200 0.179900
-6.343700 0.183100
-6.324200 0.185800
-6.304800 0.188500
-6.285300 0.191500
-6.265800 0.195200
-6.246300 0.198600
-6.226900 0.201900
-6.207400 0.205100
-6.187900 0.208300
-6.168400 0.211600
-6.149000 0.215100
-6.129500 0.218800
-6.110000 0.222800
-6.090500 0.226700
-6.071100 0.229900
-6.051600 0.233200
-6.032100 0.236600
-6.012600 0.239500
-5.993200 0.241800
-5.973700 0.244200
-5.954200 0.246800
-5.934800 0.249600
-5.915300 0.252500
-5.895800 0.256200
-5.876300 0.259500
-5.856900 0.262900
-5.837400 0.266300
-5.817900 0.269900
-5.798400 0.273600
-5.779000 0.277400
-5.759500 0.281000
-5.740000 0.284100
-5.720500 0.286800
-5.701100 0.289400
-5.681600 0.292400
-5.662100 0.295400
-5.642600 0.298400
-5.623200 0.301400
-5.603700 0.304500
-5.584200 0.307700
-5.564700 0.310900
-5.545300 0.314200
-5.525800 0.317500
-5.506300 0.320800
-5.486900 0.324100
-5.467400 0.327400
-5.447900 0.331500
-5.428400 0.335400
-5.409000 0.339400
-5.389500 0.343500
-5.370000 0.347100
-5.350500 0.350400
-5.331100 0.353500
-5.311600 0.356700
-5.292100 0.360200
-5.272600 0.363500
-5.253200 0.366900
-5.233700 0.370300
-5.214200 0.373900
-5.194700 0.377800
-5.175300 0.382000
-5.155800 0.386200
-5.136300 0.390400
-5.116800 0.394500
-5.097400 0.398700
-5.077900 0.403000
-5.058400 0.407300
-5.039000 0.411600
-5.019500 0.415900
-5.000000 0.420300
-4.980500 0.424500
-4.961100 0.429400
-4.941600 0.434100
-4.922100 0.438900
-4.902600 0.443800
-4.883200 0.448800
-4.863700 0.453800
-4.844200 0.458900
-4.824700 0.464100
-4.805300 0.469300
-4.785800 0.474500
-4.766300 0.479800
-4.746800 0.485200
-4.727400 0.491000
-4.707900 0.497200
-4.688400 0.503800
-4.668900 0.510500
-4.649500 0.517200
-4.630000 0.523800
-4.610500 0.530600
-4.591100 0.537400
-4.571600 0.544200
-4.552100 0.551500
-4.532600 0.559300
-4.513200 0.567100
-4.493700 0.575200
-4.474200 0.585100
-4.454700 0.594600
-4.435300 0.604400
-4.415800 0.614500
-4.396300 0.624800
-4.376800 0.635400
-4.357400 0.646400
-4.337900 0.657600
-4.318400 0.669100
-4.298900 0.681100
-4.279500 0.694200
-4.260000 0.708800
-4.240500 0.724600
-4.221000 0.741000
-4.201600 0.757900
-4.182100 0.775500
-4.162600 0.796300
-4.143200 0.818400
-4.123700 0.841900
-4.104200 0.872000
-4.084700 0.906300
-4.065300 0.945800
-4.045800 0.990300
-4.026300 1.040400
-4.006800 1.116700
-3.987400 1.201500
-3.967900 1.278100
-3.948400 1.260200
-3.928900 1.234800
-3.909500 1.214900
-3.890000 1.200700
-3.870500 1.220400
-3.851000 1.206300
-3.831600 1.232000
-3.812100 1.250900
-3.792600 1.227700
-3.773100 1.230100
-3.753700 1.220000
-3.734200 1.207500
-3.714700 1.194200
-3.695300 1.188700
-3.675800 1.183000
-3.656300 1.176700
-3.636800 1.213400
-3.617400 1.251700
-3.597900 1.239600
-3.578400 1.236300
-3.558900 1.210000
-3.539500 1.133500
-3.520000 1.011900
-3.500500 0.837500
-3.481000 0.695800
-3.461600 0.588500
-3.442100 0.522100
-3.422600 0.505600
-3.403100 0.487400
-3.383700 0.464300
-3.364200 0.442900
-3.344700 0.433300
-3.325200 0.425500
-3.305800 0.406300
-3.286300 0.389000
-3.266800 0.372900
-3.247400 0.358000
-3.227900 0.344400
-3.208400 0.333400
-3.188900 0.323000
-3.169500 0.313000
-3.150000 0.303900
-3.130500 0.295300
-3.111000 0.287300
-3.091600 0.275800
-3.072100 0.268900
-3.052600 0.262700
-3.033100 0.256400
-3.013700 0.249700
-2.994200 0.242800
-2.974700 0.235500
-2.955200 0.229700
-2.935800 0.222000
-2.916300 0.214700
-2.896800 0.208200
-2.877300 0.202300
-2.857900 0.196600
-2.838400 0.191200
-2.818900 0.186000
-2.799500 0.179600
-2.780000 0.173900
-2.760500 0.168500
-2.741000 0.164000
-2.721600 0.159700
-2.702100 0.155700
-2.682600 0.152000
-2.663100 0.148400
-2.643700 0.144500
-2.624200 0.140200
-2.604700 0.135900
-2.585200 0.130600
-2.565800 0.125900
-2.546300 0.121800
-2.526800 0.118100
-2.507300 0.114700
-2.487900 0.110700
-2.468400 0.106400
-2.448900 0.102300
-2.429400 0.098400
-2.410000 0.094900
-2.390500 0.092200
-2.371000 0.090300
-2.351600 0.088100
-2.332100 0.084800
-2.312600 0.080600
-2.293100 0.076000
-2.273700 0.071600
-2.254200 0.069500
-2.234700 0.065600
-2.215200 0.061900
-2.195800 0.058200
-2.176300 0.054700
-2.156800 0.051300
-2.137300 0.051800
-2.117900 0.048700
-2.098400 0.044500
-2.078900 0.039200
-2.059400 0.032800
-2.040000 0.028500
-2.020500 0.024600
-2.001000 0.019600
-1.981500 0.013600
-1.962100 0.000000
-1.942600 0.000000
-1.923100 0.000000
-1.903700 0.000000
-1.884200 0.000000
-1.864700 0.000000
-1.845200 0.000000
-1.825800 0.000000
-1.806300 0.000000
-1.786800 0.000000
-1.767300 0.000000
-1.747900 0.000000
-1.728400 0.000000
-1.708900 0.000000
-1.689400 0.000000
-1.670000 0.000000
-1.650500 0.000000
-1.631000 0.000000
-1.611500 0.000000
-1.592100 0.000000
-1.572600 0.000000
-1.553100 0.000000
-1.533600 0.000000
-1.514200 0.000000
-1.494700 0.000000
-1.475200 0.000000
-1.455800 0.000000
-1.436300 0.000000
-1.416800 0.000000
-1.397300 0.000000
-1.377900 0.000000
-1.358400 0.000000
-1.338900 0.000000
-1.319400 0.000000
-1.300000 0.000000
-1.280500 0.000000
-1.261000 0.000000
-1.241500 0.000000
-1.222100 0.000000
-1.202600 0.000000
-1.183100 0.000000
-1.163600 0.000000
-1.144200 0.000000
-1.124700 0.000000
-1.105200 0.000000
-1.085700 0.000000
-1.066300 0.000000
-1.046800 0.000000
-1.027300 0.000000
-1.007900 0.000000
-0.988400 0.000000
-0.968900 0.000000
-0.949400 0.000000
-0.930000 0.000000
-0.910500 0.000000
-0.891000 0.000000
-0.871500 0.000000
-0.852100 0.000000
-0.832600 0.000000
-0.813100 0.000000
-0.793600 0.000000
-0.774200 0.000000
-0.754700 0.000000
-0.735200 0.000000
-0.715700 0.000000
-0.696300 0.000000
-0.676800 0.000000
-0.657300 0.000000
-0.637900 0.000000
-0.618400 0.000000
-0.598900 0.000000
-0.579400 0.000000
-0.560000 0.000000
-0.540500 0.000000
-0.521000 0.000000
-0.501500 0.000000
-0.482100 0.000000
-0.462600 0.000000
-0.443100 0.000000
-0.423600 0.000000
-0.404200 0.000000
-0.384700 0.000000
-0.365200 0.000000
-0.345700 0.000000
-0.326300 0.000000
-0.306800 0.000000
-0.287300 0.000000
-0.267800 0.000000
-0.248400 0.000000
-0.228900 0.000000
-0.209400 0.000000
-0.190000 0.000000
-0.170500 0.000000
-0.151000 0.000000
-0.131500 0.000000
-0.112100 0.000000
-0.092600 0.000000
-0.073100 0.000000
-0.053600 0.000000
-0.034200 0.000000
-0.014700 0.000000
0.004800 0.000000
0.024300 0.000000
0.043700 0.000000
0.063200 0.000000
0.082700 0.000000
0.102200 0.000000
0.121600 0.000000
0.141100 0.000000
0.160600 0.000000
0.180100 0.000000
0.199500 0.000000
0.219000 0.000000
0.238500 0.000000
0.257900 0.000000
0.277400 0.000000
0.296900 0.000000
0.316400 0.000000
0.335800 0.000000
0.355300 0.000000
0.374800 0.000000
0.394300 0.000000
0.413700 0.000000
0.433200 0.000000
0.452700 0.000000
0.472200 0.000000
0.491600 0.000000
0.511100 0.000000
0.530600 0.000000
0.550100 0.000000
0.569500 0.000000
0.589000 0.000000
0.608500 0.000000
0.628000 0.000000
0.647400 0.000000
0.666900 0.000000
0.686400 0.000000
0.705800 0.000000
0.725300 0.000000
0.744800 0.000000
0.764300 0.000000
0.783700 0.000000
0.803200 0.000000
0.822700 0.000000
0.842200 0.000000
0.861600 0.000000
0.881100 0.000000
0.900600 0.000000
0.920100 0.000000
0.939500 0.000000
0.959000 0.000000
0.978500 0.000000
0.998000 0.000000
1.017400 0.000000
1.036900 0.000000
1.056400 0.000000
1.075900 0.000000
1.095300 0.000000
1.114800 0.000000
1.134300 0.000000
1.153700 0.000000
1.173200 0.000000
1.192700 0.000000
1.212200 0.000000
1.231600 0.000000
1.251100 0.000000
1.270600 0.000000
1.290100 0.000000
1.309500 0.000000
1.329000 0.000000
1.348500 0.000000
1.368000 0.000000
1.387400 0.000000
1.406900 0.000000
1.426400 0.000000
1.445900 0.000000
1.465300 0.000000
1.484800 0.000000
1.504300 0.000000
1.523800 0.000000
1.543200 0.000000
1.562700 0.039800
1.582200 0.083200
1.601600 0.097800
1.621100 0.113200
1.640600 0.135700
1.660100 0.157800
1.679500 0.172900
1.699000 0.192800
1.718500 0.218500
1.738000 0.240000
1.757400 0.252800
1.776900 0.252600
1.796400 0.257400
1.815900 0.271300
1.835300 0.286500
1.854800 0.299600
1.874300 0.310500
1.893800 0.320600
1.913200 0.340900
1.932700 0.330200
1.952200 0.343100
1.971700 0.356400
1.991100 0.370000
2.010600 0.384100
2.030100 0.398600
2.049500 0.412800
2.069000 0.423800
2.088500 0.432100
2.108000 0.436800
2.127400 0.446800
2.146900 0.457800
2.166400 0.469200
2.185900 0.479000
2.205300 0.481600
2.224800 0.491300
2.244300 0.500900
2.263800 0.509900
2.283200 0.520800
2.302700 0.532000
2.322200 0.543700
2.341700 0.555800
2.361100 0.568800
2.380600 0.582600
2.400100 0.597000
2.419600 0.612400
2.439000 0.629000
2.458500 0.641800
2.478000 0.655000
2.497400 0.666700
2.516900 0.678700
2.536400 0.694200
2.555900 0.712800
2.575300 0.733300
2.594800 0.756700
2.614300 0.780700
2.633800 0.805600
2.653200 0.834600
2.672700 0.868400
2.692200 0.908800
2.711700 0.947300
2.731100 0.982300
2.750600 1.014000
2.770100 1.040700
2.789600 1.061500
2.809000 1.102000
2.828500 1.095500
2.848000 1.089700
2.867500 1.094800
2.886900 1.067900
2.906400 1.042800
2.925900 1.026000
2.945300 1.011200
2.964800 0.952800
2.984300 0.975900
3.003800 0.918600
3.023200 0.888500
3.042700 0.860000
3.062200 0.833200
3.081700 0.809000
3.101100 0.787100
3.120600 0.766600
3.140100 0.745700
3.159600 0.723900
3.179000 0.709500
3.198500 0.697900
3.218000 0.687700
3.237500 0.676100
3.256900 0.665500
3.276400 0.655800
3.295900 0.634000
3.315400 0.622600
3.334800 0.611100
3.354300 0.617900
3.373800 0.580700
3.393200 0.573900
3.412700 0.567600
3.432200 0.561400
3.451700 0.555300
3.471100 0.549300
3.490600 0.539500
3.510100 0.534500
3.529600 0.529900
3.549000 0.525900
3.568500 0.522800
3.588000 0.520300
3.607500 0.518100
3.626900 0.515800
3.646400 0.536900
3.665900 0.542800
3.685400 0.527600
3.704800 0.527600
3.724300 0.527600
3.743800 0.525100
3.763300 0.522500
3.782700 0.522500
3.802200 0.522300
3.821700 0.521900
3.841100 0.527900
3.860600 0.528700
3.880100 0.537500
3.899600 0.540200
3.919000 0.541000
3.938500 0.545100
3.958000 0.550700
3.977500 0.556000
3.996900 0.561100
4.016400 0.565900
4.035900 0.571300
4.055400 0.562200
4.074800 0.564200
4.094300 0.566000
4.113800 0.567400
4.133300 0.568600
4.152700 0.569600
4.172200 0.569300
4.191700 0.567300
4.211200 0.564900
4.230600 0.561900
4.250100 0.577900
4.269600 0.565500
4.289000 0.548100
4.308500 0.543300
4.328000 0.539200
4.347500 0.535800
4.366900 0.533400
4.386400 0.532200
4.405900 0.535400
4.425400 0.539000
4.444800 0.541300
4.464300 0.544500
4.483800 0.550400
4.503300 0.552300
4.522700 0.546500
4.542200 0.547200
4.561700 0.549200
4.581200 0.551300
4.600600 0.560400
4.620100 0.571100
4.639600 0.583000
4.659100 0.590700
4.678500 0.588500
4.698000 0.598000
4.717500 0.608900
4.736900 0.609900
4.756400 0.620300
4.775900 0.624700
4.795400 0.632700
4.814800 0.636300
4.834300 0.648600
4.853800 0.660400
4.873300 0.641500
4.892700 0.644800
4.912200 0.647600
4.931700 0.648800
4.951200 0.651400
4.970600 0.653800
4.990100 0.671100
5.009600 0.663600
5.029100 0.648600
5.048500 0.648500
5.068000 0.648200
5.087500 0.646900
5.107000 0.648100
5.126400 0.649900
5.145900 0.651200
5.165400 0.652200
5.184800 0.652800
5.204300 0.653100
5.223800 0.653400
5.243300 0.661800
5.262700 0.662600
5.282200 0.662700
5.301700 0.662500
5.321200 0.662700
5.340600 0.662900
5.360100 0.663400
5.379600 0.678900
5.399100 0.674800
5.418500 0.672600
5.438000 0.670100
5.457500 0.668200
5.477000 0.664700
5.496400 0.657400
5.515900 0.652800
5.535400 0.652600
5.554900 0.651900
5.574300 0.653000
5.593800 0.654100
5.613300 0.655000
5.632700 0.655900
5.652200 0.656700
5.671700 0.657500
5.691200 0.658300
5.710600 0.661000
5.730100 0.663200
5.749600 0.664600
5.769100 0.664900
5.788500 0.664500
5.808000 0.664600
5.827500 0.666500
5.847000 0.666500
5.866400 0.666800
5.885900 0.666600
5.905400 0.665800
5.924900 0.665400
5.944300 0.667800
5.963800 0.668800
5.983300 0.677900
6.002800 0.676400
6.022200 0.677300
6.041700 0.680100
6.061200 0.681800
6.080600 0.678000
6.100100 0.670800
6.119600 0.667300
6.139100 0.667200
6.158500 0.665200
6.178000 0.665000
6.197500 0.664900
6.217000 0.664800
6.236400 0.665200
6.255900 0.668100
6.275400 0.670600
6.294900 0.672800
6.314300 0.673700
6.333800 0.673700
6.353300 0.673700
6.372800 0.673800
6.392200 0.674000
6.411700 0.674500
6.431200 0.675400
6.450700 0.676300
6.470100 0.677300
6.489600 0.678100
6.509100 0.677700
6.528500 0.677900
6.548000 0.678500
6.567500 0.679100
6.587000 0.679800
6.606400 0.681600
6.625900 0.682200
6.645400 0.682900
6.664900 0.683500
6.684300 0.697600
6.703800 0.722400
6.723300 0.709400
6.742800 0.708300
6.762200 0.699400
6.781700 0.685900
6.801200 0.686300
6.820700 0.686900
6.840100 0.690400
6.859600 0.694100
6.879100 0.697000
6.898600 0.697800
6.918000 0.696900
6.937500 0.696200
6.957000 0.695700
6.976400 0.695900
6.995900 0.696000
7.015400 0.696200
7.034900 0.696500
7.054300 0.696900
7.073800 0.697400
7.093300 0.697500
7.112800 0.698000
7.132200 0.698600
7.151700 0.699300
7.171200 0.700100
7.190700 0.701000
7.210100 0.701900
7.229600 0.702700
7.249100 0.703500
7.268600 0.704300
7.288000 0.705300
7.307500 0.705500
7.327000 0.706500
7.346500 0.707400
7.365900 0.708300
7.385400 0.709400
7.404900 0.717600
7.424300 0.727700
7.443800 0.739500
7.463300 0.750400
7.482800 0.747900
7.502200 0.754400
7.521700 0.736200
7.541200 0.739800
7.560700 0.734200
7.580100 0.731800
7.599600 0.732000
7.619100 0.732100
7.638600 0.732000
7.658000 0.732900
7.677500 0.733100
7.697000 0.733300
7.716500 0.733600
7.735900 0.732100
7.755400 0.732300
7.774900 0.739600
7.794400 0.747800
7.813800 0.754500
7.833300 0.762800
7.852800 0.758400
7.872200 0.755500
7.891700 0.752500
7.911200 0.747900
7.930700 0.743400
7.950100 0.738300
7.969600 0.732500
7.989100 0.726200
8.008600 0.719400
8.028000 0.717500
8.047500 0.708400
8.067000 0.701500
8.086500 0.695500
8.105900 0.690900
8.125400 0.687000
8.144900 0.691700
8.164400 0.701800
8.183800 0.697900
8.203300 0.693100
8.222800 0.691800
8.242300 0.689800
8.261700 0.689200
8.281200 0.690000
8.300700 0.690500
8.320100 0.690100
8.339600 0.689000
8.359100 0.695300
8.378600 0.691700
8.398000 0.690300
8.417500 0.690900
8.437000 0.692700
8.456500 0.692100
8.475900 0.694000
8.495400 0.696000
8.514900 0.698100
8.534400 0.700200
8.553800 0.702400
8.573300 0.703700
8.592800 0.704800
8.612300 0.706800
8.631700 0.709000
8.651200 0.711000
8.670700 0.714100
8.690200 0.717300
8.709600 0.720600
8.729100 0.724100
8.748600 0.727800
8.768000 0.731900
8.787500 0.732400
8.807000 0.737300
8.826500 0.747300
8.845900 0.764400
8.865400 0.768900
8.884900 0.775600
8.904400 0.784100
8.923800 0.793200
8.943300 0.803000
8.962800 0.811500
8.982300 0.822300
9.001700 0.833800
9.021200 0.845800
9.040700 0.858500
9.060200 0.872000
9.079600 0.886300
9.099100 0.902200
9.118600 0.921100
9.138100 0.942300
9.157500 0.964700
9.177000 0.988300
9.196500 1.013700
9.215900 1.041200
9.235400 1.070800
9.254900 1.102300
9.274400 1.136600
9.293800 1.175400
9.313300 1.215900
9.332800 1.264300
9.352300 1.336400
9.371700 1.385200
9.391200 1.385100
9.410700 1.377900
9.430200 1.368700
9.449600 1.360600
9.469100 1.354300
9.488600 1.580200
9.508100 1.228100
9.527500 0.979400
9.547000 0.906900
9.566500 0.856500
9.586000 0.821400
9.605400 0.799900
9.624900 0.782700
9.644400 0.767300
9.663800 0.743500
9.683300 0.727800
9.702800 0.709100
9.722300 0.686800
9.741700 0.662800
9.761200 0.637000
9.780700 0.615700
9.800200 0.606700
9.819600 0.586300
9.839100 0.566400
9.858600 0.546700
9.878100 0.527200
9.897500 0.508400
9.917000 0.492200
9.936500 0.473500
9.956000 0.459500
9.975400 0.446500
9.994900 0.445600
10.014400 0.434700
10.033800 0.429900
10.053300 0.421100
10.072800 0.412100
10.092300 0.404000
10.111700 0.396900
10.131200 0.390500
10.150700 0.384500
10.170200 0.387100
10.189600 0.385000
10.209100 0.412600
10.228600 0.401900
10.248100 0.391400
10.267500 0.375200
10.287000 0.363200
10.306500 0.358700
10.326000 0.356400
10.345400 0.355600
10.364900 0.355700
10.384400 0.347600
10.403900 0.343700
10.423300 0.340300
10.442800 0.337100
10.462300 0.359800
10.481700 0.335600
10.501200 0.346000
10.520700 0.333400
10.540200 0.324000
10.559600 0.315100
10.579100 0.310500
10.598600 0.307700
10.618100 0.307200
10.637500 0.306800
10.657000 0.304500
10.676500 0.303700
10.696000 0.302100
10.715400 0.299600
10.734900 0.296300
10.754400 0.294000
10.773900 0.295400
10.793300 0.300900
10.812800 0.292200
10.832300 0.286300
10.851800 0.283100
10.871200 0.280100
10.890700 0.275200
10.910200 0.270900
10.929600 0.268800
10.949100 0.267800
10.968600 0.266600
10.988100 0.265100
11.007500 0.263500
11.027000 0.261800
11.046500 0.265800
11.066000 0.254700
11.085400 0.247700
11.104900 0.243500
11.124400 0.238900
11.143900 0.234300
11.163300 0.230200
11.182800 0.226900
11.202300 0.224600
11.221800 0.223200
11.241200 0.222700
11.260700 0.228000
11.280200 0.216600
11.299700 0.210400
11.319100 0.204600
11.338600 0.199000
11.358100 0.193700
11.377500 0.188400
11.397000 0.183500
11.416500 0.179400
11.436000 0.184900
11.455400 0.167400
11.474900 0.162700
11.494400 0.163700
11.513900 0.165000
11.533300 0.166400
11.552800 0.168000
11.572300 0.169600
11.591800 0.171200
11.611200 0.172800
11.630700 0.174500
11.650200 0.175900
11.669700 0.177400
11.689100 0.178800
11.708600 0.180100
11.728100 0.181400
11.747600 0.182400
11.767000 0.183800
11.786500 0.185200
11.806000 0.186700
11.825400 0.188200
11.844900 0.189700
11.864400 0.191300
11.883900 0.192800
11.903300 0.194500
11.922800 0.196100
11.942300 0.197900
11.961800 0.199300
11.981200 0.200800
12.000700 0.202300
12.020200 0.203700
12.039700 0.205100
