set title 'mp-1223945 - Density of States'
set xlabel 'Energy (eV)'
set ylabel 'DOS (states/eV)'
set grid
set xrange [-10:10]
set yrange [0:24.813]
set xzeroaxis lt -1
set terminal png size 800,600
set output 'mp-1223945_dos_gnuplot.png'
plot '-' using 1:2 with lines title 'DOS'
-6.893000 0.000000
-6.872000 0.000000
-6.851100 0.000000
-6.830100 0.000000
-6.809200 0.000000
-6.788300 0.000000
-6.767300 0.000000
-6.746400 0.000000
-6.725400 0.000000
-6.704500 0.000000
-6.683500 0.000000
-6.662600 0.000000
-6.641700 0.000000
-6.620700 0.000000
-6.599800 0.000000
-6.578800 0.000000
-6.557900 0.000000
-6.536900 0.000000
-6.516000 0.000000
-6.495100 0.000000
-6.474100 0.000000
-6.453200 0.000000
-6.432200 0.000000
-6.411300 0.000000
-6.390400 0.000000
-6.369400 0.000000
-6.348500 0.000000
-6.327500 0.000000
-6.306600 0.000000
-6.285600 0.000000
-6.264700 0.000000
-6.243800 0.000000
-6.222800 0.000000
-6.201900 0.000000
-6.180900 0.000000
-6.160000 0.000000
-6.139100 0.000000
-6.118100 0.000000
-6.097200 0.000000
-6.076200 0.000000
-6.055300 0.000000
-6.034300 0.000000
-6.013400 0.000000
-5.992500 0.000000
-5.971500 0.000000
-5.950600 0.000000
-5.929600 0.000000
-5.908700 0.000000
-5.887800 0.000000
-5.866800 0.000000
-5.845900 0.000000
-5.824900 0.000000
-5.804000 0.000000
-5.783000 0.000000
-5.762100 0.000000
-5.741200 0.000000
-5.720200 0.000000
-5.699300 0.000000
-5.678300 0.000000
-5.657400 0.000000
-5.636500 0.000000
-5.615500 0.000000
-5.594600 0.000000
-5.573600 0.000000
-5.552700 0.000000
-5.531700 0.000000
-5.510800 0.000000
-5.489900 0.000000
-5.468900 0.000000
-5.448000 0.000000
-5.427000 0.000000
-5.406100 0.000000
-5.385200 0.000000
-5.364200 0.000000
-5.343300 0.000000
-5.322300 0.000000
-5.301400 0.000000
-5.280400 0.000000
-5.259500 0.000000
-5.238600 0.000000
-5.217600 0.000000
-5.196700 0.000000
-5.175700 0.000000
-5.154800 0.000000
-5.133900 0.000000
-5.112900 0.000000
-5.092000 0.000000
-5.071000 0.000000
-5.050100 0.000000
-5.029100 0.000000
-5.008200 0.000000
-4.987300 0.000400
-4.966300 0.010400
-4.945400 0.027900
-4.924400 0.051800
-4.903500 0.084500
-4.882500 0.121100
-4.861600 0.157700
-4.840700 0.194400
-4.819700 0.231000
-4.798800 0.267600
-4.777800 0.304200
-4.756900 0.340900
-4.736000 0.377500
-4.715000 0.355000
-4.694100 0.336200
-4.673100 0.317200
-4.652200 0.269700
-4.631200 0.263200
-4.610300 0.268700
-4.589400 0.274200
-4.568400 0.279700
-4.547500 0.285200
-4.526500 0.290700
-4.505600 0.296200
-4.484700 0.301700
-4.463700 0.307200
-4.442800 0.312800
-4.421800 0.318300
-4.400900 0.323800
-4.379900 0.329300
-4.359000 0.334800
-4.338100 0.340300
-4.317100 0.345800
-4.296200 0.351300
-4.275200 0.356800
-4.254300 0.362300
-4.233400 0.368000
-4.212400 0.376700
-4.191500 0.388300
-4.170500 0.403700
-4.149600 0.421500
-4.128600 0.443100
-4.107700 0.474300
-4.086800 0.847200
-4.065800 1.434500
-4.044900 2.056600
-4.023900 2.543100
-4.003000 2.813900
-3.982100 3.084800
-3.961100 3.355800
-3.940200 3.626800
-3.919200 3.471600
-3.898300 3.665800
-3.877300 3.686600
-3.856400 3.469100
-3.835500 3.361800
-3.814500 3.254400
-3.793600 3.144400
-3.772600 3.029200
-3.751700 2.914100
-3.730800 2.817400
-3.709800 2.735700
-3.688900 2.664300
-3.667900 2.618900
-3.647000 2.847400
-3.626000 2.835900
-3.605100 2.776600
-3.584200 3.555400
-3.563200 4.873300
-3.542300 6.291800
-3.521300 7.987700
-3.500400 6.999800
-3.479400 6.656000
-3.458500 6.322300
-3.437600 5.999500
-3.416600 5.808800
-3.395700 5.988100
-3.374700 6.167400
-3.353800 6.471500
-3.332900 7.995200
-3.311900 10.392400
-3.291000 6.851700
-3.270000 5.986200
-3.249100 5.041500
-3.228100 4.863900
-3.207200 4.863400
-3.186300 3.505800
-3.165300 3.812700
-3.144400 4.143600
-3.123400 4.446400
-3.102500 5.184300
-3.081600 5.285800
-3.060600 9.773400
-3.039700 7.855300
-3.018700 5.924700
-2.997800 5.452900
-2.976800 5.565300
-2.955900 5.192600
-2.935000 5.670300
-2.914000 6.138800
-2.893100 7.966700
-2.872100 10.458900
-2.851200 11.993600
-2.830300 15.268000
-2.809300 2.238000
-2.788400 2.686700
-2.767400 3.140000
-2.746500 10.897200
-2.725500 3.728300
-2.704600 3.742200
-2.683700 3.751800
-2.662700 4.081400
-2.641800 4.251700
-2.620800 4.502000
-2.599900 4.825600
-2.579000 5.693300
-2.558000 7.079100
-2.537100 8.646900
-2.516100 9.694100
-2.495200 10.774300
-2.474200 9.686600
-2.453300 9.690100
-2.432400 7.638000
-2.411400 5.720100
-2.390500 4.852900
-2.369500 4.683800
-2.348600 4.259200
-2.327700 3.524100
-2.306700 2.543400
-2.285800 2.116100
-2.264800 4.286900
-2.243900 7.361800
-2.222900 5.497800
-2.202000 5.105900
-2.181100 4.962200
-2.160100 3.890700
-2.139200 3.919300
-2.118200 3.866000
-2.097300 3.917400
-2.076300 3.816700
-2.055400 3.527000
-2.034500 3.390600
-2.013500 3.300200
-1.992600 3.223000
-1.971600 3.183100
-1.950700 3.316900
-1.929800 3.924000
-1.908800 4.776900
-1.887900 3.921400
-1.866900 4.045800
-1.846000 3.700400
-1.825000 3.564000
-1.804100 3.511200
-1.783200 3.423700
-1.762200 3.655100
-1.741300 3.967200
-1.720300 4.309700
-1.699400 5.177000
-1.678500 7.471800
-1.657500 5.952300
-1.636600 3.961600
-1.615600 3.583900
-1.594700 3.918100
-1.573700 4.546100
-1.552800 5.620100
-1.531900 9.371200
-1.510900 6.976500
-1.490000 6.035500
-1.469000 5.238900
-1.448100 5.390200
-1.427200 6.092800
-1.406200 6.710600
-1.385300 7.510800
-1.364300 8.422800
-1.343400 9.058100
-1.322400 9.662100
-1.301500 8.625000
-1.280600 8.179400
-1.259600 8.199400
-1.238700 8.281200
-1.217700 8.306600
-1.196800 8.423100
-1.175900 8.712400
-1.154900 10.357600
-1.134000 8.490600
-1.113000 7.149900
-1.092100 6.859700
-1.071100 6.875900
-1.050200 6.824100
-1.029300 7.361100
-1.008300 8.293400
-0.987400 8.493700
-0.966400 8.892600
-0.945500 10.325300
-0.924600 11.236900
-0.903600 10.118400
-0.882700 9.554200
-0.861700 7.132400
-0.840800 7.172100
-0.819800 7.323200
-0.798900 10.144500
-0.778000 8.823200
-0.757000 8.646500
-0.736100 8.620700
-0.715100 9.278000
-0.694200 10.943600
-0.673300 9.066300
-0.652300 12.623800
-0.631400 9.646300
-0.610400 6.882900
-0.589500 4.898000
-0.568500 4.955300
-0.547600 5.242300
-0.526700 5.312600
-0.505700 5.040900
-0.484800 5.306400
-0.463800 5.097800
-0.442900 5.499600
-0.421900 6.201600
-0.401000 7.257100
-0.380100 11.004800
-0.359100 16.713900
-0.338200 12.648600
-0.317200 8.379900
-0.296300 8.086600
-0.275400 6.735900
-0.254400 6.610600
-0.233500 6.623700
-0.212500 6.887500
-0.191600 7.302100
-0.170600 9.863100
-0.149700 6.807100
-0.128800 6.722600
-0.107800 7.058400
-0.086900 7.441000
-0.065900 7.638000
-0.045000 7.923900
-0.024100 8.497300
-0.003100 10.076100
0.017800 13.185100
0.038800 12.740600
0.059700 9.776000
0.080700 9.443900
0.101600 9.541500
0.122500 11.120200
0.143500 10.271600
0.164400 10.700500
0.185400 17.748600
0.206300 22.557700
0.227200 17.804200
0.248200 14.248600
0.269100 11.917800
0.290100 14.517900
0.311000 14.236100
0.332000 13.368800
0.352900 12.413000
0.373800 9.155800
0.394800 9.911600
0.415700 10.642300
0.436700 10.892000
0.457600 14.119200
0.478500 17.505300
0.499500 12.512000
0.520400 11.777600
0.541400 11.802900
0.562300 12.644100
0.583300 13.986800
0.604200 13.707200
0.625100 15.149400
0.646100 12.750500
0.667000 11.913800
0.688000 11.414300
0.708900 11.093700
0.729800 12.240200
0.750800 11.293700
0.771700 12.655500
0.792700 10.640000
0.813600 9.944300
0.834600 9.858800
0.855500 8.827500
0.876400 8.433100
0.897400 8.412100
0.918300 8.259300
0.939300 9.070200
0.960200 7.801600
0.981200 7.517800
1.002100 7.392700
1.023000 7.402100
1.044000 7.152500
1.064900 7.033100
1.085900 7.004800
1.106800 6.994200
1.127700 7.930000
1.148700 10.685100
1.169600 13.420800
1.190600 12.164100
1.211500 11.364900
1.232500 10.678500
1.253400 10.546400
1.274300 11.146700
1.295300 9.690400
1.316200 9.967400
1.337200 9.997300
1.358100 10.054900
1.379000 11.491400
1.400000 10.520600
1.420900 11.401300
1.441900 12.750700
1.462800 10.388600
1.483800 10.750800
1.504700 9.774900
1.525600 13.020400
1.546600 11.772100
1.567500 9.942300
1.588500 9.624000
1.609400 9.248500
1.630300 9.303100
1.651300 9.313900
1.672200 10.502200
1.693200 10.395700
1.714100 10.444700
1.735100 10.587800
1.756000 10.431700
1.776900 9.974900
1.797900 9.149000
1.818800 8.679400
1.839800 8.439000
1.860700 8.314300
1.881600 8.367100
1.902600 8.561600
1.923500 8.544400
1.944500 8.720800
1.965400 8.903200
1.986400 9.203100
2.007300 8.925900
2.028200 9.119700
2.049200 9.269000
2.070100 9.269800
2.091100 9.722800
2.112000 9.916400
2.132900 10.186300
2.153900 10.414400
2.174800 9.853500
2.195800 9.149700
2.216700 8.476600
2.237700 7.864900
2.258600 7.909300
2.279500 20.718700
2.300500 14.613900
2.321400 6.341500
2.342400 6.130600
2.363300 6.383400
2.384300 6.702400
2.405200 7.017200
2.426100 7.572500
2.447100 10.991300
2.468000 9.981100
2.489000 11.875900
2.509900 10.028000
2.530800 7.428200
2.551800 4.801600
2.572700 3.814600
2.593700 3.581700
2.614600 3.350700
2.635600 3.109600
2.656500 2.758900
2.677400 2.620500
2.698400 2.576100
2.719300 2.532600
2.740300 2.461500
2.761200 2.391900
2.782100 2.346600
2.803100 2.304800
2.824000 2.266300
2.845000 2.231300
2.865900 2.200900
2.886900 2.175400
2.907800 2.157700
2.928700 2.136800
2.949700 2.125600
2.970600 2.115600
2.991600 2.108700
3.012500 2.057900
3.033400 1.984200
3.054400 1.927600
3.075300 1.927500
3.096300 1.999200
3.117200 2.083800
3.138200 2.152700
3.159100 2.237500
3.180000 2.311000
3.201000 2.279700
3.221900 2.165600
3.242900 2.047100
3.263800 1.925500
3.284700 1.800700
3.305700 1.737500
3.326600 1.696500
3.347600 1.667800
3.368500 1.647100
3.389500 1.631400
3.410400 1.620400
3.431300 1.613800
3.452300 1.613400
3.473200 1.613500
3.494200 1.613800
3.515100 1.614300
3.536000 1.614800
3.557000 1.615500
3.577900 1.616300
3.598900 1.617100
3.619800 1.618100
3.640800 1.622800
3.661700 1.629300
3.682600 1.637800
3.703600 1.648200
3.724500 1.660400
3.745500 1.674600
3.766400 1.687000
3.787300 1.703600
3.808300 1.729900
3.829200 1.748400
3.850200 1.731300
3.871100 1.758500
3.892100 1.778600
3.913000 1.789400
3.933900 1.790600
3.954900 1.780100
3.975800 1.757300
3.996800 1.702100
4.017700 1.662300
4.038700 1.639100
4.059600 1.625600
4.080500 1.614700
4.101500 1.605600
4.122400 1.597500
4.143400 1.589000
4.164300 1.812400
4.185200 4.564900
4.206200 1.657200
4.227100 1.349600
4.248100 1.342400
4.269000 1.337400
4.290000 1.334900
4.310900 1.335000
4.331800 1.337100
4.352800 1.341800
4.373700 1.349000
4.394700 1.358600
4.415600 1.372500
4.436500 1.437000
4.457500 1.470300
4.478400 1.472400
4.499400 1.443800
4.520300 1.403000
4.541300 1.357600
4.562200 1.331400
4.583100 1.320700
4.604100 1.310200
4.625000 1.299200
4.646000 1.289700
4.666900 1.281900
4.687800 1.278400
4.708800 1.282100
4.729700 1.286700
4.750700 1.292200
4.771600 1.297900
4.792600 1.303300
4.813500 1.307800
4.834400 1.310300
4.855400 1.312900
4.876300 1.315600
4.897300 1.321700
4.918200 1.332300
4.939100 1.347300
4.960100 1.363100
4.981000 1.375100
5.002000 1.398700
5.022900 1.429100
5.043900 1.469600
5.064800 1.520100
5.085700 1.591200
5.106700 1.661500
5.127600 1.730800
5.148600 1.799100
5.169500 1.866300
5.190400 1.932400
5.211400 1.796200
5.232300 1.699600
5.253300 1.665400
5.274200 1.647700
5.295200 1.636100
5.316100 1.626500
5.337000 1.626300
5.358000 1.624300
5.378900 1.621600
5.399900 1.620800
5.420800 1.624600
5.441800 1.622800
5.462700 1.620200
5.483600 1.633100
5.504600 1.638100
5.525500 1.634500
5.546500 1.624500
5.567400 1.608700
5.588300 1.585300
5.609300 1.553600
5.630200 1.524100
5.651200 1.512500
5.672100 1.501500
5.693100 1.490500
5.714000 1.479400
5.734900 1.468900
5.755900 1.457400
5.776800 1.455500
5.797800 1.447800
5.818700 1.439700
5.839600 1.431300
5.860600 1.423100
5.881500 1.416100
5.902500 1.583200
5.923400 1.623700
5.944400 1.347500
5.965300 1.275000
5.986200 1.223200
6.007200 1.189600
6.028100 1.175600
6.049100 1.196700
6.070000 1.227200
6.090900 1.263100
6.111900 1.305400
6.132800 1.357300
6.153800 1.424300
6.174700 1.502200
6.195700 1.579600
6.216600 1.651300
6.237500 1.710700
6.258500 1.759700
6.279400 1.795600
6.300400 1.820700
6.321300 1.834900
6.342200 1.854200
6.363200 1.923000
6.384100 2.038000
6.405100 1.869500
6.426000 1.623600
6.447000 1.557800
6.467900 1.557500
6.488800 1.538200
6.509800 1.535100
6.530700 1.542900
6.551700 1.562600
6.572600 1.569300
6.593500 1.575600
6.614500 1.592100
6.635400 1.597000
6.656400 1.659800
6.677300 1.725100
6.698300 1.786300
6.719200 1.834900
6.740100 1.850400
6.761100 1.826200
6.782000 1.796500
6.803000 1.732500
6.823900 1.699400
6.844800 1.796200
6.865800 1.813300
6.886700 1.827200
6.907700 1.835700
6.928600 1.840200
6.949600 1.841900
6.970500 1.841200
6.991400 1.838100
7.012400 1.822700
7.033300 1.788500
7.054300 1.734500
7.075200 1.691900
7.096200 1.687200
7.117100 1.609500
7.138000 1.454100
7.159000 1.395400
7.179900 1.345600
7.200900 1.303300
7.221800 1.272500
7.242700 1.253900
7.263700 1.251600
7.284600 1.255300
7.305600 1.264100
7.326500 1.289900
7.347500 1.408200
7.368400 1.497200
7.389300 1.506000
7.410300 1.461600
7.431200 1.353200
7.452200 1.260800
7.473100 1.229200
7.494000 1.203300
7.515000 1.183500
7.535900 1.170100
7.556900 1.162700
7.577800 1.156300
7.598800 1.142900
7.619700 1.132500
7.640600 1.125300
7.661600 1.121000
7.682500 1.119600
7.703500 1.121000
7.724400 1.132900
7.745300 1.167000
7.766300 1.205700
7.787200 1.249500
7.808200 1.297900
7.829100 1.349600
7.850100 1.419000
7.871000 1.519300
7.891900 1.586600
7.912900 1.617800
7.933800 1.644600
7.954800 1.675300
7.975700 1.720400
7.996600 1.758000
8.017600 1.779800
8.038500 1.784900
8.059500 1.772800
8.080400 1.743500
8.101400 1.704000
8.122300 1.675400
8.143200 1.632800
8.164200 1.607000
8.185100 1.603900
8.206100 1.614200
8.227000 1.629700
8.247900 1.644500
8.268900 1.655300
8.289800 1.661600
8.310800 1.671400
8.331700 1.682400
8.352700 1.692400
8.373600 1.692700
8.394500 1.653800
8.415500 1.624600
8.436400 1.596300
8.457400 1.565700
8.478300 1.616400
8.499300 1.607000
8.520200 1.603400
8.541100 1.610900
8.562100 1.637300
8.583000 1.695000
8.604000 1.794600
8.624900 1.904100
8.645800 1.984300
8.666800 2.003700
8.687700 2.039000
8.708700 2.115700
8.729600 2.219500
8.750600 2.311300
8.771500 2.370900
8.792400 2.403300
8.813400 2.420800
8.834300 2.422900
8.855300 2.416200
8.876200 2.393800
8.897100 2.354400
8.918100 2.298400
8.939000 2.190100
8.960000 2.112100
8.980900 2.067200
9.001900 2.002900
9.022800 1.919300
9.043700 1.835000
9.064700 1.783000
9.085600 1.732800
9.106600 1.692200
9.127500 1.656000
9.148400 1.623700
9.169400 1.598900
9.190300 1.581900
9.211300 1.570400
9.232200 1.566500
9.253200 1.568500
9.274100 1.573700
9.295000 1.582000
9.316000 1.594300
9.336900 1.613800
9.357900 1.637800
9.378800 1.664000
9.399700 1.689300
9.420700 1.706800
9.441600 1.714100
9.462600 1.713300
9.483500 1.715200
9.504500 1.721200
9.525400 1.730200
9.546300 1.742300
9.567300 1.754000
9.588200 1.762500
9.609200 1.770300
9.630100 1.779600
9.651000 1.790100
9.672000 1.798600
9.692900 1.804700
9.713900 1.808300
9.734800 1.809200
9.755800 1.803500
9.776700 1.797800
9.797600 1.790400
9.818600 1.777800
9.839500 1.759300
9.860500 1.736300
9.881400 1.709800
9.902400 1.678500
9.923300 1.641200
9.944200 1.600300
9.965200 1.562800
9.986100 1.529700
10.007100 1.495300
10.028000 1.461700
10.048900 1.431100
10.069900 1.403800
10.090800 1.380900
10.111800 1.359600
10.132700 1.338400
10.153700 1.477400
10.174600 1.346700
10.195500 1.330800
10.216500 1.314700
10.237400 1.302700
10.258400 1.296200
10.279300 1.298200
10.300200 1.304500
10.321200 1.313100
10.342100 1.318300
10.363100 1.321800
10.384000 1.321500
10.405000 1.327600
10.425900 1.340700
10.446800 1.353400
10.467800 1.377100
10.488700 1.402300
10.509700 1.440600
10.530600 1.483400
10.551500 1.526800
10.572500 1.565600
10.593400 1.599600
10.614400 1.621700
10.635300 1.639200
10.656300 1.662200
10.677200 1.692900
10.698100 1.726200
10.719100 1.752000
10.740000 1.798300
10.761000 1.839200
10.781900 1.872800
10.802800 1.898800
10.823800 1.919100
10.844700 1.937200
10.865700 1.951400
10.886600 1.962100
10.907600 1.969300
10.928500 1.973000
10.949400 1.973100
10.970400 1.973000
10.991300 1.973100
11.012300 1.972700
11.033200 1.976400
11.054100 1.986800
11.075100 2.000100
11.096000 2.004100
11.117000 1.978600
11.137900 1.948400
11.158900 1.927100
11.179800 1.917400
11.200700 1.915300
11.221700 1.917300
11.242600 1.920200
11.263600 1.924000
11.284500 1.930000
11.305400 1.959400
11.326400 2.025100
11.347300 2.040000
11.368300 2.047500
11.389200 2.052400
11.410200 2.054300
11.431100 2.054400
11.452000 2.054500
11.473000 2.057100
11.493900 2.063600
11.514900 2.064900
11.535800 2.057900
11.556800 2.045500
11.577700 2.025100
11.598600 1.983500
11.619600 1.941600
11.640500 1.931700
11.661500 1.919000
11.682400 1.908400
11.703300 1.900300
11.724300 1.894000
11.745200 1.883000
11.766200 1.872700
11.787100 1.863800
11.808100 1.856300
11.829000 1.849000
11.849900 1.842200
11.870900 1.835400
11.891800 1.829700
11.912800 1.836100
11.933700 1.859500
11.954600 1.878500
11.975600 1.893000
11.996500 1.903700
12.017500 1.916600
12.038400 1.928800
12.059400 1.934700
12.080300 1.933500
12.101200 1.924100
12.122200 1.913100
12.143100 1.906300
12.164100 1.899900
12.185000 1.895400
12.205900 1.894200
12.226900 1.901300
12.247800 1.913900
12.268800 1.926800
12.289700 1.939600
12.310700 1.951700
12.331600 1.963800
12.352500 1.977100
12.373500 1.991500
12.394400 2.013800
12.415400 2.024900
12.436300 2.033300
12.457200 2.041800
12.478200 2.050700
12.499100 2.060000
12.520100 2.069600
12.541000 2.078700
12.562000 2.086400
12.582900 2.093200
12.603800 2.097700
12.624800 2.099200
12.645700 2.098000
12.666700 2.095200
12.687600 2.094000
12.708500 2.091700
12.729500 2.088500
12.750400 2.084600
12.771400 2.079900
12.792300 2.074900
12.813300 2.070800
12.834200 2.068400
12.855100 2.067800
12.876100 2.069300
12.897000 2.074300
12.918000 2.083200
12.938900 2.087800
12.959900 2.088200
12.980800 2.086900
13.001700 2.092900
13.022700 2.102800
13.043600 2.106500
13.064600 2.118200
13.085500 2.136200
13.106400 2.160200
13.127400 2.190100
13.148300 2.215300
13.169300 2.240400
13.190200 2.265100
13.211200 2.293800
13.232100 2.320600
13.253000 2.338500
13.274000 2.345100
13.294900 2.342600
13.315900 2.335400
13.336800 2.323500
13.357700 2.319500
13.378700 2.312700
13.399600 2.287300
13.420600 2.255200
13.441500 2.224300
13.462500 2.234800
13.483400 2.255100
13.504300 2.287100
13.525300 2.349900
13.546200 2.447300
13.567200 2.561500
13.588100 2.652200
13.609000 2.698900
13.630000 2.699700
13.650900 2.572800
13.671900 2.454900
13.692800 2.370500
13.713800 2.326200
13.734700 2.345700
13.755600 2.369900
13.776600 2.389900
13.797500 2.405000
13.818500 2.416100
13.839400 2.426200
13.860300 2.430200
13.881300 2.433400
13.902200 2.437400
13.923200 2.429500
13.944100 2.405500
13.965100 2.384800
13.986000 2.373000
14.006900 2.363300
14.027900 2.358200
14.048800 2.365000
14.069800 2.387500
14.090700 2.436300
14.111600 2.493500
14.132600 2.484900
14.153500 2.467900
14.174500 2.448200
14.195400 2.425900
14.216400 2.431500
14.237300 2.463600
14.258200 2.495400
14.279200 2.526200
14.300100 2.555700
14.321100 2.581100
14.342000 2.672000
14.363000 2.566700
14.383900 2.552900
14.404800 2.539400
14.425800 2.524000
14.446700 2.506900
14.467700 2.493800
14.488600 2.481600
14.509500 2.470000
14.530500 2.458900
14.551400 2.450200
14.572400 2.443100
14.593300 2.438800
14.614300 2.435800
14.635200 2.433200
14.656100 2.441000
14.677100 2.449700
14.698000 2.459800
14.719000 2.466200
14.739900 2.480400
14.760800 2.496600
14.781800 2.510300
14.802700 2.522100
14.823700 2.536300
14.844600 2.546800
14.865600 2.556100
14.886500 2.566600
14.907400 2.581300
14.928400 2.597400
14.949300 2.614300
14.970300 2.631800
14.991200 2.655700
15.012100 2.680000
15.033100 2.696700
15.054000 2.679600
15.075000 2.647900
15.095900 2.619700
15.116900 2.610500
15.137800 2.607800
15.158700 2.604900
15.179700 2.610300
15.200600 2.611700
15.221600 2.570500
15.242500 2.491800
