set title 'mp-990424 - Density of States'
set xlabel 'Energy (eV)'
set ylabel 'DOS (states/eV)'
set grid
set xrange [-10:10]
set yrange [0:6.927]
set xzeroaxis lt -1
set terminal png size 800,600
set output 'mp-990424_dos_gnuplot.png'
plot '-' using 1:2 with lines title 'DOS'
-23.483800 0.000000
-23.461500 0.000000
-23.439300 0.000000
-23.417000 0.000000
-23.394800 0.000000
-23.372500 0.000000
-23.350200 0.000000
-23.328000 0.000000
-23.305700 0.000000
-23.283500 0.000000
-23.261200 0.000000
-23.238900 0.000000
-23.216700 0.000000
-23.194400 0.000000
-23.172200 0.000000
-23.149900 0.000000
-23.127600 0.000000
-23.105400 0.000000
-23.083100 0.000000
-23.060900 0.000000
-23.038600 0.000000
-23.016300 0.000000
-22.994100 0.000000
-22.971800 0.000000
-22.949600 0.000000
-22.927300 0.000000
-22.905000 0.000000
-22.882800 0.000000
-22.860500 0.000000
-22.838300 0.000000
-22.816000 0.000000
-22.793700 0.000000
-22.771500 0.000000
-22.749200 0.000000
-22.727000 0.000000
-22.704700 0.000000
-22.682400 0.000000
-22.660200 0.000000
-22.637900 0.000000
-22.615700 0.000000
-22.593400 0.000000
-22.571100 0.000000
-22.548900 0.000000
-22.526600 0.000000
-22.504400 0.000000
-22.482100 0.000000
-22.459800 0.000000
-22.437600 0.000000
-22.415300 0.000000
-22.393100 0.000000
-22.370800 0.000000
-22.348500 0.000000
-22.326300 0.000000
-22.304000 0.000000
-22.281800 0.000000
-22.259500 0.000000
-22.237200 0.000000
-22.215000 0.000000
-22.192700 0.000000
-22.170400 0.000000
-22.148200 0.000000
-22.125900 0.000000
-22.103700 0.000000
-22.081400 0.000000
-22.059100 0.000000
-22.036900 0.000000
-22.014600 0.000000
-21.992400 0.000000
-21.970100 0.000000
-21.947800 0.000000
-21.925600 0.000000
-21.903300 0.000000
-21.881100 0.000000
-21.858800 0.000000
-21.836500 0.000000
-21.814300 0.000000
-21.792000 0.000000
-21.769800 0.000000
-21.747500 0.000000
-21.725200 0.000000
-21.703000 0.000000
-21.680700 0.000000
-21.658500 0.000000
-21.636200 0.000000
-21.613900 0.000000
-21.591700 0.000000
-21.569400 0.000000
-21.547200 0.000000
-21.524900 0.000000
-21.502600 0.000000
-21.480400 0.000000
-21.458100 0.019000
-21.435900 0.229300
-21.413600 0.439500
-21.391300 0.265700
-21.369100 0.472500
-21.346800 0.702600
-21.324600 0.582200
-21.302300 0.617500
-21.280000 0.618900
-21.257800 0.614900
-21.235500 0.623600
-21.213300 0.619700
-21.191000 0.603900
-21.168700 0.596700
-21.146500 0.609100
-21.124200 0.621500
-21.102000 0.634000
-21.079700 0.619500
-21.057400 0.624400
-21.035200 0.629300
-21.012900 0.608000
-20.990700 0.605400
-20.968400 0.604700
-20.946100 0.606600
-20.923900 0.608400
-20.901600 0.611800
-20.879400 0.618200
-20.857100 0.624500
-20.834800 0.630900
-20.812600 0.634400
-20.790300 0.629500
-20.768100 0.624600
-20.745800 0.625000
-20.723500 0.617500
-20.701300 0.610000
-20.679000 0.609600
-20.656800 0.610800
-20.634500 0.612000
-20.612200 0.613300
-20.590000 0.615400
-20.567700 0.618000
-20.545400 0.620500
-20.523200 0.624000
-20.500900 0.627900
-20.478700 0.631700
-20.456400 0.635600
-20.434100 0.628900
-20.411900 0.629500
-20.389600 0.630000
-20.367400 0.619800
-20.345100 0.617000
-20.322800 0.615900
-20.300600 0.615200
-20.278300 0.614600
-20.256100 0.615800
-20.233800 0.617400
-20.211500 0.619000
-20.189300 0.620600
-20.167000 0.622200
-20.144800 0.623800
-20.122500 0.625600
-20.100200 0.627700
-20.078000 0.629800
-20.055700 0.632100
-20.033500 0.634800
-20.011200 0.634800
-19.988900 0.632500
-19.966700 0.630700
-19.944400 0.628700
-19.922200 0.624900
-19.899900 0.622100
-19.877600 0.621900
-19.855400 0.621600
-19.833100 0.621400
-19.810900 0.621200
-19.788600 0.621800
-19.766300 0.622400
-19.744100 0.623200
-19.721800 0.624600
-19.699600 0.626100
-19.677300 0.627600
-19.655000 0.629000
-19.632800 0.630500
-19.610500 0.631900
-19.588300 0.633400
-19.566000 0.634900
-19.543700 0.636400
-19.521500 0.638100
-19.499200 0.639800
-19.477000 0.635700
-19.454700 0.636000
-19.432400 0.631600
-19.410200 0.630100
-19.387900 0.628800
-19.365700 0.628300
-19.343400 0.627800
-19.321100 0.627800
-19.298900 0.628200
-19.276600 0.628700
-19.254400 0.629200
-19.232100 0.629700
-19.209800 0.630200
-19.187600 0.630700
-19.165300 0.631500
-19.143100 0.632300
-19.120800 0.633300
-19.098500 0.634600
-19.076300 0.635800
-19.054000 0.637100
-19.031800 0.638400
-19.009500 0.639700
-18.987200 0.640900
-18.965000 0.642200
-18.942700 0.643500
-18.920400 0.644100
-18.898200 0.642800
-18.875900 0.641400
-18.853700 0.640300
-18.831400 0.638300
-18.809100 0.636700
-18.786900 0.636600
-18.764600 0.636500
-18.742400 0.636500
-18.720100 0.636400
-18.697800 0.636700
-18.675600 0.637000
-18.653300 0.637400
-18.631100 0.638200
-18.608800 0.638900
-18.586500 0.639600
-18.564300 0.640400
-18.542000 0.641100
-18.519800 0.641800
-18.497500 0.642600
-18.475200 0.643300
-18.453000 0.644100
-18.430700 0.645100
-18.408500 0.646000
-18.386200 0.647100
-18.363900 0.648300
-18.341700 0.649500
-18.319400 0.650600
-18.297200 0.651800
-18.274900 0.652900
-18.252600 0.651700
-18.230400 0.651900
-18.208100 0.652100
-18.185900 0.649500
-18.163600 0.648800
-18.141300 0.648500
-18.119100 0.648300
-18.096800 0.648200
-18.074600 0.648700
-18.052300 0.649100
-18.030000 0.649600
-18.007800 0.650100
-17.985500 0.650700
-17.963300 0.651200
-17.941000 0.651800
-17.918700 0.652600
-17.896500 0.653300
-17.874200 0.654300
-17.852000 0.655200
-17.829700 0.656200
-17.807400 0.657100
-17.785200 0.658100
-17.762900 0.659000
-17.740700 0.660000
-17.718400 0.660900
-17.696100 0.661900
-17.673900 0.662800
-17.651600 0.663800
-17.629400 0.664900
-17.607100 0.666000
-17.584800 0.667300
-17.562600 0.668600
-17.540300 0.669200
-17.518100 0.669300
-17.495800 0.669400
-17.473500 0.669100
-17.451300 0.668800
-17.429000 0.669400
-17.406800 0.670000
-17.384500 0.670600
-17.362200 0.671200
-17.340000 0.672000
-17.317700 0.672900
-17.295400 0.673900
-17.273200 0.675100
-17.250900 0.676300
-17.228700 0.677700
-17.206400 0.679000
-17.184100 0.680500
-17.161900 0.682100
-17.139600 0.683600
-17.117400 0.685100
-17.095100 0.686900
-17.072800 0.688800
-17.050600 0.690900
-17.028300 0.693300
-17.006100 0.695600
-16.983800 0.697900
-16.961500 0.700200
-16.939300 0.702500
-16.917000 0.704900
-16.894800 0.707200
-16.872500 0.709500
-16.850200 0.711800
-16.828000 0.714100
-16.805700 0.716400
-16.783500 0.719200
-16.761200 0.723100
-16.738900 0.727800
-16.716700 0.734100
-16.694400 0.740900
-16.672200 0.747800
-16.649900 0.755100
-16.627600 0.762500
-16.605400 0.770400
-16.583100 0.778400
-16.560900 0.786300
-16.538600 0.794300
-16.516300 0.802200
-16.494100 0.811100
-16.471800 0.821800
-16.449600 0.833500
-16.427300 0.847400
-16.405000 0.958100
-16.382800 0.952900
-16.360500 1.044400
-16.338300 1.017900
-16.316000 0.991400
-16.293700 0.964900
-16.271500 1.231100
-16.249200 1.121700
-16.227000 1.308600
-16.204700 1.096100
-16.182400 0.883700
-16.160200 0.716200
-16.137900 0.632200
-16.115700 0.616400
-16.093400 0.600600
-16.071100 0.584800
-16.048900 0.569000
-16.026600 0.553200
-16.004400 0.537400
-15.982100 0.521600
-15.959800 0.507100
-15.937600 0.493800
-15.915300 0.487600
-15.893100 0.538500
-15.870800 1.002400
-15.848500 0.707100
-15.826300 0.945700
-15.804000 0.430800
-15.781800 0.421400
-15.759500 0.411900
-15.737200 0.402500
-15.715000 0.393000
-15.692700 0.383500
-15.670400 0.374100
-15.648200 0.364600
-15.625900 0.355200
-15.603700 0.345700
-15.581400 0.336200
-15.559100 0.326800
-15.536900 0.317300
-15.514600 0.307900
-15.492400 0.298400
-15.470100 0.289000
-15.447800 0.279500
-15.425600 0.270000
-15.403300 0.260600
-15.381100 0.251100
-15.358800 0.241700
-15.336500 0.238900
-15.314300 0.251600
-15.292000 0.273700
-15.269800 0.295900
-15.247500 0.318000
-15.225200 0.340100
-15.203000 0.362300
-15.180700 0.262400
-15.158500 0.269400
-15.136200 0.161100
-15.113900 0.164900
-15.091700 0.210700
-15.069400 0.278400
-15.047200 0.346100
-15.024900 0.413800
-15.002600 0.481400
-14.980400 0.549100
-14.958100 0.616800
-14.935900 0.684500
-14.913600 0.581100
-14.891300 0.474000
-14.869100 0.488400
-14.846800 0.607000
-14.824600 0.964200
-14.802300 1.382900
-14.780000 0.978700
-14.757800 0.582500
-14.735500 0.584800
-14.713300 0.587100
-14.691000 0.589300
-14.668700 0.591600
-14.646500 0.593900
-14.624200 0.596100
-14.602000 0.598400
-14.579700 0.600700
-14.557400 0.602900
-14.535200 0.605200
-14.512900 0.610200
-14.490700 0.625600
-14.468400 0.647700
-14.446100 0.669700
-14.423900 1.173600
-14.401600 0.758700
-14.379400 0.786900
-14.357100 0.815100
-14.334800 0.843300
-14.312600 0.871400
-14.290300 0.899600
-14.268100 0.927800
-14.245800 0.956000
-14.223500 0.984200
-14.201300 1.012400
-14.179000 1.043000
-14.156800 1.074800
-14.134500 1.108200
-14.112200 1.141600
-14.090000 0.996000
-14.067700 0.830400
-14.045400 0.822800
-14.023200 0.815100
-14.000900 0.807500
-13.978700 0.799800
-13.956400 0.792100
-13.934100 0.784500
-13.911900 0.777000
-13.889600 0.769600
-13.867400 0.762200
-13.845100 0.754800
-13.822800 0.747400
-13.800600 0.740500
-13.778300 0.734000
-13.756100 0.727800
-13.733800 0.721600
-13.711500 0.715300
-13.689300 0.709100
-13.667000 0.702900
-13.644800 0.696700
-13.622500 0.690500
-13.600200 0.684200
-13.578000 0.678000
-13.555700 0.671800
-13.533500 0.665600
-13.511200 0.659300
-13.488900 0.653000
-13.466700 0.646500
-13.444400 0.639900
-13.422200 0.634900
-13.399900 0.632700
-13.377600 0.630800
-13.355400 0.628900
-13.333100 0.627100
-13.310900 0.625300
-13.288600 0.623500
-13.266300 0.621800
-13.244100 0.620000
-13.221800 0.618300
-13.199600 0.616500
-13.177300 0.614700
-13.155000 0.613000
-13.132800 0.611200
-13.110500 0.609400
-13.088300 0.607500
-13.066000 0.605600
-13.043700 0.603700
-13.021500 0.601800
-12.999200 0.599900
-12.977000 0.598000
-12.954700 0.596100
-12.932400 0.594200
-12.910200 0.574100
-12.887900 0.555100
-12.865700 0.554200
-12.843400 0.553400
-12.821100 0.552500
-12.798900 0.551700
-12.776600 0.550800
-12.754400 0.549900
-12.732100 0.549100
-12.709800 0.548200
-12.687600 0.547400
-12.665300 0.546500
-12.643100 0.545600
-12.620800 0.544700
-12.598500 0.543800
-12.576300 0.542900
-12.554000 0.542000
-12.531800 0.541100
-12.509500 0.540200
-12.487200 0.539300
-12.465000 0.538200
-12.442700 0.554600
-12.420400 0.573200
-12.398200 0.591800
-12.375900 0.610400
-12.353700 0.629000
-12.331400 0.647600
-12.309100 0.666200
-12.286900 0.684800
-12.264600 0.703400
-12.242400 0.722000
-12.220100 0.740600
-12.197800 0.759200
-12.175600 0.777800
-12.153300 0.796400
-12.131100 0.761900
-12.108800 0.722000
-12.086500 0.720600
-12.064300 0.720900
-12.042000 0.721400
-12.019800 0.722000
-11.997500 0.722300
-11.975200 0.722500
-11.953000 0.722400
-11.930700 0.722300
-11.908500 0.722200
-11.886200 0.722100
-11.863900 0.722000
-11.841700 0.722000
-11.819400 0.721900
-11.797200 0.721800
-11.774900 0.722500
-11.752600 0.726100
-11.730400 0.730000
-11.708100 0.733900
-11.685900 0.737900
-11.663600 0.741800
-11.641300 0.745700
-11.619100 0.749600
-11.596800 0.753600
-11.574600 0.757500
-11.552300 0.761400
-11.530000 0.765400
-11.507800 0.769300
-11.485500 0.773100
-11.463300 0.776900
-11.441000 0.767300
-11.418700 0.756200
-11.396500 0.755700
-11.374200 0.755200
-11.352000 0.755000
-11.329700 0.755100
-11.307400 0.755400
-11.285200 0.755700
-11.262900 0.755900
-11.240700 0.756200
-11.218400 0.756500
-11.196100 0.756700
-11.173900 0.757000
-11.151600 0.757200
-11.129400 0.757500
-11.107100 0.757800
-11.084800 0.758000
-11.062600 0.781700
-11.040300 0.783200
-11.018100 0.784800
-10.995800 0.786300
-10.973500 0.787900
-10.951300 0.789400
-10.929000 0.791000
-10.906800 0.792500
-10.884500 0.794000
-10.862200 0.795200
-10.840000 0.795600
-10.817700 0.795300
-10.795400 0.795000
-10.773200 0.794700
-10.750900 0.794500
-10.728700 0.794200
-10.706400 0.793900
-10.684100 0.793600
-10.661900 0.793400
-10.639600 0.793100
-10.617400 0.792800
-10.595100 0.792500
-10.572800 0.794100
-10.550600 0.796300
-10.528300 0.797700
-10.506100 0.802000
-10.483800 0.806800
-10.461500 0.811500
-10.439300 0.816100
-10.417000 0.820000
-10.394800 0.823500
-10.372500 0.826900
-10.350200 0.830400
-10.328000 0.833900
-10.305700 0.837300
-10.283500 0.840800
-10.261200 0.843900
-10.238900 0.846900
-10.216700 0.849800
-10.194400 0.852800
-10.172200 0.855700
-10.149900 0.857600
-10.127600 0.858700
-10.105400 0.859800
-10.083100 0.860900
-10.060900 0.861900
-10.038600 0.863000
-10.016300 0.864100
-9.994100 0.865200
-9.971800 0.866300
-9.949600 0.867300
-9.927300 0.868400
-9.905000 0.869500
-9.882800 0.870600
-9.860500 0.871700
-9.838300 0.872700
-9.816000 0.897800
-9.793700 1.044200
-9.771500 1.183100
-9.749200 1.077000
-9.727000 1.102700
-9.704700 1.135100
-9.682400 1.159600
-9.660200 1.179900
-9.637900 1.197500
-9.615700 1.202200
-9.593400 1.192600
-9.571100 1.183100
-9.548900 1.184800
-9.526600 1.194500
-9.504400 1.203900
-9.482100 1.212300
-9.459800 1.220400
-9.437600 1.228400
-9.415300 1.236500
-9.393100 1.244500
-9.370800 1.252500
-9.348500 1.235000
-9.326300 1.237900
-9.304000 1.240800
-9.281700 1.243700
-9.259500 1.246500
-9.237200 1.250000
-9.215000 1.294700
-9.192700 1.451500
-9.170400 1.608200
-9.148200 1.491600
-9.125900 1.509100
-9.103700 1.526700
-9.081400 1.549800
-9.059100 1.574700
-9.036900 1.598000
-9.014600 1.601200
-8.992400 1.620900
-8.970100 1.655700
-8.947800 1.692700
-8.925600 1.731000
-8.903300 1.769300
-8.881100 1.805200
-8.858800 1.835600
-8.836500 1.865600
-8.814300 1.895600
-8.792000 1.918200
-8.769800 1.900300
-8.747500 1.900600
-8.725200 1.900900
-8.703000 1.901300
-8.680700 1.901600
-8.658500 1.900200
-8.636200 1.900300
-8.613900 1.900800
-8.591700 1.677800
-8.569400 1.635000
-8.547200 1.592200
-8.524900 1.549300
-8.502600 1.586900
-8.480400 1.731400
-8.458100 1.897300
-8.435900 2.071300
-8.413600 2.340200
-8.391300 2.437100
-8.369100 2.462500
-8.346800 2.487300
-8.324600 2.365500
-8.302300 2.158500
-8.280000 2.043300
-8.257800 2.075300
-8.235500 1.975800
-8.213300 1.884000
-8.191000 1.876300
-8.168700 1.874700
-8.146500 1.873100
-8.124200 1.871600
-8.102000 1.909100
-8.079700 2.056800
-8.057400 2.204500
-8.035200 2.013800
-8.012900 1.679300
-7.990700 1.421800
-7.968400 1.477300
-7.946100 1.532700
-7.923900 1.538700
-7.901600 1.552300
-7.879400 1.572900
-7.857100 1.599900
-7.834800 1.644400
-7.812600 1.679000
-7.790300 1.620600
-7.768100 1.562100
-7.745800 1.503700
-7.723500 1.445300
-7.701300 1.459900
-7.679000 1.493500
-7.656700 1.386500
-7.634500 1.286500
-7.612200 1.186600
-7.590000 1.084000
-7.567700 1.099600
-7.545400 1.184800
-7.523200 1.333000
-7.500900 1.481200
-7.478700 1.346800
-7.456400 1.423500
-7.434100 1.469700
-7.411900 1.439900
-7.389600 1.408500
-7.367400 1.388300
-7.345100 1.391400
-7.322800 1.394400
-7.300600 1.151000
-7.278300 1.405700
-7.256100 1.644200
-7.233800 1.582400
-7.211500 1.521700
-7.189300 1.461100
-7.167000 1.400500
-7.144800 1.339800
-7.122500 1.339300
-7.100200 1.360500
-7.078000 1.381600
-7.055700 1.402900
-7.033500 1.424700
-7.011200 1.430100
-6.988900 1.412400
-6.966700 1.394700
-6.944400 1.372400
-6.922200 1.351500
-6.899900 1.330700
-6.877600 1.309800
-6.855400 1.303300
-6.833100 1.291500
-6.810900 1.284600
-6.788600 1.277500
-6.766300 1.273100
-6.744100 1.268100
-6.721800 1.262100
-6.699600 1.256100
-6.677300 1.250000
-6.655000 1.244000
-6.632800 1.238000
-6.610500 1.232200
-6.588300 1.228000
-6.566000 1.223800
-6.543700 1.219700
-6.521500 1.215500
-6.499200 1.211300
-6.477000 1.207200
-6.454700 1.203000
-6.432400 1.198800
-6.410200 1.194700
-6.387900 1.190500
-6.365700 1.186300
-6.343400 1.182500
-6.321100 1.180800
-6.298900 1.177900
-6.276600 1.174200
-6.254400 1.178200
-6.232100 1.198800
-6.209800 1.196700
-6.187600 1.192000
-6.165300 1.187400
-6.143100 1.182800
-6.120800 1.178200
-6.098500 1.173600
-6.076300 1.169300
-6.054000 1.163300
-6.031700 1.158500
-6.009500 1.153700
-5.987200 1.148900
-5.965000 1.144200
-5.942700 1.139900
-5.920400 1.135600
-5.898200 1.131300
-5.875900 1.127000
-5.853700 1.122700
-5.831400 1.121400
-5.809100 1.122800
-5.786900 1.125300
-5.764600 1.128400
-5.742400 1.131700
-5.720100 1.162900
-5.697800 1.159800
-5.675600 1.156700
-5.653300 1.153600
-5.631100 1.150500
-5.608800 1.147400
-5.586500 1.144000
-5.564300 1.136500
-5.542000 1.129900
-5.519800 1.123400
-5.497500 1.116900
-5.475200 1.111100
-5.453000 1.105600
-5.430700 1.100100
-5.408500 1.094600
-5.386200 1.097900
-5.363900 1.112400
-5.341700 1.127000
-5.319400 1.141600
-5.297200 1.141100
-5.274900 1.131000
-5.252600 1.120600
-5.230400 1.110600
-5.208100 1.100900
-5.185900 1.146900
-5.163600 1.174800
-5.141300 1.141900
-5.119100 1.109300
-5.096800 1.077500
-5.074600 1.257400
-5.052300 1.148000
-5.030000 1.039200
-5.007800 0.930500
-4.985500 0.821700
-4.963300 0.715700
-4.941000 0.716700
-4.918700 0.722800
-4.896500 0.728900
-4.874200 0.735000
-4.852000 0.741100
-4.829700 0.747100
-4.807400 0.752800
-4.785200 0.759000
-4.762900 0.765600
-4.740700 0.772200
-4.718400 0.779800
-4.696100 0.793900
-4.673900 0.809300
-4.651600 0.824800
-4.629400 0.840200
-4.607100 0.855600
-4.584800 0.871100
-4.562600 0.886500
-4.540300 0.904400
-4.518100 0.922800
-4.495800 0.941200
-4.473500 1.086700
-4.451300 1.053100
-4.429000 1.020400
-4.406700 0.988200
-4.384500 0.966600
-4.362200 0.953600
-4.340000 0.944000
-4.317700 1.329300
-4.295400 0.981900
-4.273200 0.995600
-4.250900 1.009300
-4.228700 1.175200
-4.206400 1.085400
-4.184100 0.995700
-4.161900 0.906000
-4.139600 0.816300
-4.117400 0.825000
-4.095100 0.861000
-4.072800 0.897000
-4.050600 0.679000
-4.028300 0.716100
-4.006100 0.725700
-3.983800 0.700900
-3.961500 0.676000
-3.939300 0.656500
-3.917000 0.643800
-3.894800 0.631100
-3.872500 0.618400
-3.850200 0.605700
-3.828000 0.593000
-3.805700 0.580300
-3.783500 0.567600
-3.761200 0.554900
-3.738900 0.546500
-3.716700 0.472300
-3.694400 0.473400
-3.672200 0.474600
-3.649900 0.475700
-3.627600 0.476700
-3.605400 0.473100
-3.583100 0.467300
-3.560900 0.460900
-3.538600 0.454500
-3.516300 0.448200
-3.494100 0.441800
-3.471800 0.387100
-3.449600 0.383300
-3.427300 0.379400
-3.405000 0.375500
-3.382800 0.371700
-3.360500 0.367800
-3.338300 0.363900
-3.316000 0.360100
-3.293700 0.353200
-3.271500 0.345100
-3.249200 0.336700
-3.227000 0.326600
-3.204700 0.316500
-3.182400 0.306400
-3.160200 0.299000
-3.137900 0.293000
-3.115700 0.287000
-3.093400 0.281000
-3.071100 0.275000
-3.048900 0.269000
-3.026600 0.263000
-3.004400 0.257000
-2.982100 0.251000
-2.959800 0.248300
-2.937600 0.246600
-2.915300 0.244800
-2.893100 0.243100
-2.870800 0.241300
-2.848500 0.239600
-2.826300 0.200400
-2.804000 0.196600
-2.781700 0.192800
-2.759500 0.188900
-2.737200 0.185100
-2.715000 0.181200
-2.692700 0.177400
-2.670400 0.173500
-2.648200 0.169700
-2.625900 0.165800
-2.603700 0.162000
-2.581400 0.158200
-2.559100 0.129600
-2.536900 0.124300
-2.514600 0.119100
-2.492400 0.113800
-2.470100 0.108500
-2.447800 0.103300
-2.425600 0.098000
-2.403300 0.092800
-2.381100 0.087500
-2.358800 0.082200
-2.336500 0.077000
-2.314300 0.071700
-2.292000 0.066500
-2.269800 0.061200
-2.247500 0.055900
-2.225200 0.050700
-2.203000 0.045400
-2.180700 0.040200
-2.158500 0.034900
-2.136200 0.029600
-2.113900 0.024400
-2.091700 0.021500
-2.069400 0.018600
-2.047200 0.015700
-2.024900 0.012800
-2.002600 0.009900
-1.980400 0.007000
-1.958100 0.004200
-1.935900 0.001300
-1.913600 0.001500
-1.891300 0.004100
-1.869100 0.006700
-1.846800 0.009300
-1.824600 0.011900
-1.802300 0.014500
-1.780000 0.017100
-1.757800 0.019700
-1.735500 0.022300
-1.713300 0.027400
-1.691000 0.033000
-1.668700 0.038600
-1.646500 0.044100
-1.624200 0.049700
-1.602000 0.055300
-1.579700 0.060800
-1.557400 0.066400
-1.535200 0.072000
-1.512900 0.077500
-1.490700 0.083100
-1.468400 0.088700
-1.446100 0.094200
-1.423900 0.099800
-1.401600 0.105400
-1.379400 0.110900
-1.357100 0.116500
-1.334800 0.122100
-1.312600 0.127600
-1.290300 0.133200
-1.268100 0.138800
-1.245800 0.144300
-1.223500 0.179600
-1.201300 0.183900
-1.179000 0.188200
-1.156700 0.192600
-1.134500 0.196900
-1.112200 0.201300
