set title 'mp-1097832 - Density of States'
set xlabel 'Energy (eV)'
set ylabel 'DOS (states/eV)'
set grid
set xrange [-10:10]
set yrange [0:1.141]
set xzeroaxis lt -1
set terminal png size 800,600
set output 'mp-1097832_dos_gnuplot.png'
plot '-' using 1:2 with lines title 'DOS'
-22.388400 0.000000
-22.334700 0.000000
-22.281000 0.000000
-22.227300 0.000000
-22.173600 0.000000
-22.119900 0.000000
-22.066200 0.000000
-22.012500 0.000000
-21.958800 0.000000
-21.905100 0.000000
-21.851400 0.000000
-21.797700 0.000000
-21.744000 0.000000
-21.690300 0.000000
-21.636600 0.000000
-21.582900 0.000000
-21.529100 0.000000
-21.475400 0.000000
-21.421700 0.000000
-21.368000 0.000000
-21.314300 0.000000
-21.260600 0.000000
-21.206900 0.000000
-21.153200 0.000000
-21.099500 0.000000
-21.045800 0.000000
-20.992100 0.000000
-20.938400 0.000000
-20.884700 0.000000
-20.831000 0.000000
-20.777300 0.000000
-20.723600 0.000000
-20.669900 0.000000
-20.616200 0.000000
-20.562500 0.000000
-20.508800 0.000000
-20.455100 0.000000
-20.401400 0.000000
-20.347700 0.000000
-20.294000 0.000000
-20.240300 0.000000
-20.186600 0.000000
-20.132900 0.000000
-20.079200 0.000000
-20.025500 0.000000
-19.971800 0.000000
-19.918100 0.000000
-19.864400 0.000000
-19.810700 0.000000
-19.757000 0.000000
-19.703300 0.000000
-19.649600 0.000000
-19.595900 0.000000
-19.542200 0.000000
-19.488500 0.000000
-19.434800 0.000000
-19.381100 0.000000
-19.327400 0.000000
-19.273700 0.000000
-19.220000 0.000000
-19.166300 0.000000
-19.112600 0.000000
-19.058900 0.000000
-19.005200 0.000000
-18.951500 0.000000
-18.897800 0.000000
-18.844100 0.000000
-18.790400 0.000000
-18.736700 0.000000
-18.683000 0.000000
-18.629300 0.000000
-18.575600 0.000000
-18.521900 0.000000
-18.468200 0.000000
-18.414500 0.000000
-18.360800 0.000000
-18.307100 0.000000
-18.253400 0.000000
-18.199700 0.000000
-18.146000 0.000000
-18.092300 0.000000
-18.038600 0.000000
-17.984900 0.000000
-17.931200 0.000000
-17.877500 0.000000
-17.823800 0.000000
-17.770100 0.000000
-17.716400 0.000000
-17.662700 0.000000
-17.609000 0.000000
-17.555300 0.000000
-17.501600 0.013900
-17.447900 0.354300
-17.394200 0.261200
-17.340500 0.308000
-17.286800 0.301100
-17.233100 0.280100
-17.179400 0.289600
-17.125700 0.299100
-17.072000 0.312600
-17.018300 0.287100
-16.964600 0.288000
-16.910900 0.288900
-16.857200 0.293100
-16.803500 0.300400
-16.749800 0.307700
-16.696100 0.291900
-16.642400 0.290100
-16.588700 0.289900
-16.535000 0.290900
-16.481300 0.294200
-16.427600 0.297500
-16.373900 0.300900
-16.320200 0.304200
-16.266500 0.293600
-16.212700 0.292800
-16.159000 0.292000
-16.105300 0.292200
-16.051600 0.293700
-15.997900 0.295200
-15.944200 0.296900
-15.890500 0.298900
-15.836800 0.301700
-15.783100 0.300900
-15.729400 0.295500
-15.675700 0.294500
-15.622000 0.293400
-15.568300 0.293600
-15.514600 0.294600
-15.460900 0.295700
-15.407200 0.296700
-15.353500 0.298000
-15.299800 0.299800
-15.246100 0.301500
-15.192400 0.303200
-15.138700 0.297300
-15.085000 0.296300
-15.031300 0.295500
-14.977600 0.295400
-14.923900 0.296000
-14.870200 0.296600
-14.816500 0.297100
-14.762800 0.297800
-14.709100 0.298800
-14.655400 0.299800
-14.601700 0.301000
-14.548000 0.302300
-14.494300 0.303600
-14.440600 0.299200
-14.386900 0.298500
-14.333200 0.298000
-14.279500 0.297700
-14.225800 0.298000
-14.172100 0.298300
-14.118400 0.298600
-14.064700 0.298900
-14.011000 0.299700
-13.957300 0.300600
-13.903600 0.301500
-13.849900 0.302400
-13.796200 0.303300
-13.742500 0.304200
-13.688800 0.303800
-13.635100 0.301400
-13.581400 0.300800
-13.527700 0.300300
-13.474000 0.300300
-13.420300 0.300600
-13.366600 0.300800
-13.312900 0.301100
-13.259200 0.301600
-13.205500 0.302200
-13.151800 0.302800
-13.098100 0.303500
-13.044400 0.304100
-12.990700 0.304700
-12.937000 0.305400
-12.883300 0.306200
-12.829600 0.306800
-12.775900 0.304500
-12.722200 0.304200
-12.668500 0.303900
-12.614800 0.303900
-12.561100 0.304100
-12.507400 0.304300
-12.453700 0.304600
-12.400000 0.304900
-12.346300 0.305400
-12.292600 0.305900
-12.238900 0.306400
-12.185200 0.306900
-12.131500 0.307500
-12.077800 0.308100
-12.024100 0.308800
-11.970400 0.309600
-11.916700 0.310300
-11.863000 0.309800
-11.809300 0.309100
-11.755600 0.309000
-11.701900 0.308900
-11.648200 0.309100
-11.594500 0.309400
-11.540800 0.309700
-11.487100 0.310000
-11.433400 0.310500
-11.379700 0.311100
-11.326000 0.311600
-11.272300 0.312100
-11.218600 0.312700
-11.164900 0.313200
-11.111200 0.313800
-11.057500 0.314400
-11.003800 0.315100
-10.950000 0.315700
-10.896300 0.316400
-10.842600 0.316400
-10.788900 0.316700
-10.735200 0.317000
-10.681500 0.317600
-10.627800 0.318200
-10.574100 0.318800
-10.520400 0.319400
-10.466700 0.320000
-10.413000 0.320700
-10.359300 0.321300
-10.305600 0.322000
-10.251900 0.322600
-10.198200 0.323200
-10.144500 0.323900
-10.090800 0.324600
-10.037100 0.325300
-9.983400 0.325900
-9.929700 0.326700
-9.876000 0.327500
-9.822300 0.331300
-9.768600 0.333800
-9.714900 0.335900
-9.661200 0.337900
-9.607500 0.339500
-9.553800 0.341000
-9.500100 0.342500
-9.446400 0.344100
-9.392700 0.345400
-9.339000 0.346700
-9.285300 0.348000
-9.231600 0.349300
-9.177900 0.350500
-9.124200 0.351800
-9.070500 0.353300
-9.016800 0.354500
-8.963100 0.355700
-8.909400 0.377700
-8.855700 0.407000
-8.802000 0.422900
-8.748300 0.438800
-8.694600 0.450100
-8.640900 0.460000
-8.587200 0.469800
-8.533500 0.479600
-8.479800 0.476100
-8.426100 0.411100
-8.372400 0.390700
-8.318700 0.370400
-8.265000 0.353600
-8.211300 0.344700
-8.157600 0.335800
-8.103900 0.325400
-8.050200 0.314500
-7.996500 0.306400
-7.942800 0.300700
-7.889100 0.294900
-7.835400 0.289100
-7.781700 0.283300
-7.728000 0.277500
-7.674300 0.270200
-7.620600 0.265900
-7.566900 0.261800
-7.513200 0.257700
-7.459500 0.253600
-7.405800 0.249500
-7.352100 0.245700
-7.298400 0.241800
-7.244700 0.237900
-7.191000 0.233900
-7.137300 0.230600
-7.083600 0.227600
-7.029900 0.224600
-6.976200 0.221700
-6.922500 0.218700
-6.868800 0.215700
-6.815100 0.212600
-6.761400 0.209500
-6.707700 0.206500
-6.654000 0.203600
-6.600300 0.200800
-6.546600 0.198200
-6.492900 0.195900
-6.439200 0.194000
-6.385500 0.191900
-6.331800 0.189700
-6.278100 0.187500
-6.224400 0.185200
-6.170700 0.183000
-6.117000 0.180600
-6.063300 0.178300
-6.009600 0.176200
-5.955900 0.174000
-5.902200 0.171800
-5.848500 0.169900
-5.794800 0.168000
-5.741100 0.166000
-5.687300 0.164100
-5.633600 0.162200
-5.579900 0.160300
-5.526200 0.159100
-5.472500 0.191300
-5.418800 0.277600
-5.365100 0.294600
-5.311400 0.383200
-5.257700 0.408700
-5.204000 0.391900
-5.150300 0.400300
-5.096600 0.395200
-5.042900 0.390100
-4.989200 0.464900
-4.935500 0.504300
-4.881800 0.537700
-4.828100 0.559000
-4.774400 0.577400
-4.720700 0.596900
-4.667000 0.616500
-4.613300 0.637800
-4.559600 0.654500
-4.505900 0.665800
-4.452200 0.637300
-4.398500 0.623800
-4.344800 0.618400
-4.291100 0.617500
-4.237400 0.616100
-4.183700 0.618200
-4.130000 0.621600
-4.076300 0.623300
-4.022600 0.622700
-3.968900 0.622800
-3.915200 0.621300
-3.861500 0.622000
-3.807800 0.623600
-3.754100 0.627700
-3.700400 0.632300
-3.646700 0.635700
-3.593000 0.638700
-3.539300 0.642100
-3.485600 0.644900
-3.431900 0.646100
-3.378200 0.648300
-3.324500 0.648900
-3.270800 0.643800
-3.217100 0.642500
-3.163400 0.642200
-3.109700 0.643000
-3.056000 0.644600
-3.002300 0.647200
-2.948600 0.653100
-2.894900 0.656100
-2.841200 0.658500
-2.787500 0.660600
-2.733800 0.661300
-2.680100 0.662400
-2.626400 0.662800
-2.572700 0.664300
-2.519000 0.666600
-2.465300 0.669400
-2.411600 0.672500
-2.357900 0.676400
-2.304200 0.681300
-2.250500 0.689800
-2.196800 0.693100
-2.143100 0.696900
-2.089400 0.702000
-2.035700 0.707200
-1.982000 0.711700
-1.928300 0.715700
-1.874600 0.719500
-1.820900 0.720500
-1.767200 0.732300
-1.713500 0.749100
-1.659800 0.758000
-1.606100 0.765500
-1.552400 0.773500
-1.498700 0.782000
-1.445000 0.810800
-1.391300 0.851300
-1.337600 0.830900
-1.283900 1.037100
-1.230200 0.952200
-1.176500 0.867100
-1.122800 0.825900
-1.069100 0.769400
-1.015400 0.746500
-0.961700 0.733500
-0.908000 0.721500
-0.854300 0.712600
-0.800600 0.725000
-0.746900 0.749700
-0.693200 0.697600
-0.639500 0.683400
-0.585800 0.674000
-0.532100 0.668000
-0.478400 0.662000
-0.424700 0.655900
-0.370900 0.649900
-0.317200 0.644200
-0.263500 0.919700
-0.209800 1.010500
-0.156100 0.916500
-0.102400 0.826200
-0.048700 0.742200
0.005000 0.680100
0.058700 0.635900
0.112400 0.610100
0.166100 0.592100
0.219800 0.557400
0.273500 0.527700
0.327200 0.508000
0.380900 0.492900
0.434600 0.475400
0.488300 0.457400
0.542000 0.443100
0.595700 0.428400
0.649400 0.413800
0.703100 0.401100
0.756800 0.412100
0.810500 0.445300
0.864200 0.483300
0.917900 0.514200
0.971600 0.539300
1.025300 0.553100
1.079000 0.563800
1.132700 0.576400
1.186400 0.590300
1.240100 0.605200
1.293800 0.620500
1.347500 0.636200
1.401200 0.625800
1.454900 0.604100
1.508600 0.593100
1.562300 0.586600
1.616000 0.597000
1.669700 0.620900
1.723400 0.618900
1.777100 0.604600
1.830800 0.603600
1.884500 0.610500
1.938200 0.628200
1.991900 0.654700
2.045600 0.678400
2.099300 0.662100
2.153000 0.837800
2.206700 0.718500
2.260400 0.581400
2.314100 0.575900
2.367800 0.570900
2.421500 0.561500
2.475200 0.550100
2.528900 0.546800
2.582600 0.546300
2.636300 0.542400
2.690000 0.540600
2.743700 0.544300
2.797400 0.550400
2.851100 0.560500
2.904800 0.570900
2.958500 0.581000
3.012200 0.592100
3.065900 0.643900
3.119600 0.790600
3.173300 0.902400
3.227000 0.911700
3.280700 0.917900
3.334400 0.830700
3.388100 0.764100
3.441800 0.721500
3.495500 0.681200
3.549200 0.660600
3.602900 0.637000
3.656600 0.614100
3.710300 0.593400
3.764000 0.577300
3.817700 0.567000
3.871400 0.557100
3.925100 0.545400
3.978800 0.534000
4.032500 0.522600
4.086200 0.511800
4.139900 0.506100
4.193600 0.501500
4.247300 0.496900
4.301000 0.492500
4.354700 0.486000
4.408400 0.478600
4.462100 0.471200
4.515800 0.464100
4.569500 0.460200
4.623200 0.456400
4.676900 0.452600
4.730600 0.448900
4.784300 0.442400
4.838000 0.457200
4.891800 0.470700
4.945500 0.479800
4.999200 0.481100
5.052900 0.485300
5.106600 0.488200
5.160300 0.490600
5.214000 0.492300
5.267700 0.495600
5.321400 0.500900
5.375100 0.526300
5.428800 0.513200
5.482500 0.510000
5.536200 0.508300
5.589900 0.502400
5.643600 0.498700
5.697300 0.497100
5.751000 0.495100
5.804700 0.493000
5.858400 0.490100
5.912100 0.485800
5.965800 0.487300
6.019500 0.513900
6.073200 0.506500
6.126900 0.510100
6.180600 0.514700
6.234300 0.513800
6.288000 0.513300
6.341700 0.516000
6.395400 0.519800
6.449100 0.518900
6.502800 0.538800
6.556500 0.558700
6.610200 0.582400
6.663900 0.597200
6.717600 0.611600
6.771300 0.619300
6.825000 0.617700
6.878700 0.606000
6.932400 0.595000
6.986100 0.584500
7.039800 0.575200
7.093500 0.567000
7.147200 0.559000
7.200900 0.548400
7.254600 0.522300
7.308300 0.507500
7.362000 0.494500
7.415700 0.484300
7.469400 0.476400
7.523100 0.469400
7.576800 0.464000
7.630500 0.461800
7.684200 0.459700
7.737900 0.458400
7.791600 0.443400
7.845300 0.433700
7.899000 0.422900
7.952700 0.412900
8.006400 0.402200
8.060100 0.389300
8.113800 0.369600
8.167500 0.357700
8.221200 0.332100
8.274900 0.330600
8.328600 0.353900
8.382300 0.349600
8.436000 0.356200
8.489700 0.361600
8.543400 0.367100
8.597100 0.372500
8.650800 0.364500
8.704500 0.385100
8.758200 0.403900
8.811900 0.427100
8.865600 0.453700
8.919300 0.478300
8.973000 0.522500
9.026700 0.610600
9.080400 0.652700
9.134100 0.670700
9.187800 0.649100
9.241500 0.654500
9.295200 0.643800
9.348900 0.635500
9.402600 0.630300
9.456300 0.427400
9.510000 0.480300
9.563700 0.597900
9.617400 0.673200
9.671100 0.705300
9.724800 0.721500
9.778500 0.707300
9.832200 0.709200
9.885900 0.741500
9.939600 0.774800
9.993300 0.738800
10.047000 0.672000
10.100700 0.651400
10.154500 0.661100
10.208200 0.683800
10.261900 0.680600
10.315600 0.688900
10.369300 0.695500
10.423000 0.700600
10.476700 0.706600
10.530400 0.736100
10.584100 0.697600
10.637800 0.684100
10.691500 0.679100
10.745200 0.673100
10.798900 0.670800
10.852600 0.674000
10.906300 0.678700
10.960000 0.713800
11.013700 0.712200
11.067400 0.677400
11.121100 0.678900
11.174800 0.684600
11.228500 0.691000
11.282200 0.698100
11.335900 0.706600
11.389600 0.750700
11.443300 0.787900
11.497000 0.799200
11.550700 0.800500
11.604400 0.790200
11.658100 0.772000
11.711800 0.752000
11.765500 0.762200
11.819200 0.836000
11.872900 0.760400
11.926600 0.743100
11.980300 0.726800
12.034000 0.716900
12.087700 0.716200
12.141400 0.721900
12.195100 0.721700
12.248800 0.716400
12.302500 0.699000
12.356200 0.685400
12.409900 0.686500
12.463600 0.684600
12.517300 0.681200
12.571000 0.678600
12.624700 0.675600
12.678400 0.674900
12.732100 0.675500
12.785800 0.676900
12.839500 0.696400
12.893200 0.731300
12.946900 0.729100
13.000600 0.736800
13.054300 0.749000
13.108000 0.773700
13.161700 0.796300
13.215400 0.836900
13.269100 0.724900
13.322800 0.715900
13.376500 0.718400
13.430200 0.702800
13.483900 0.731100
13.537600 0.719500
13.591300 0.709400
13.645000 0.731200
13.698700 0.792500
13.752400 0.793600
13.806100 0.825500
13.859800 0.816600
13.913500 0.824300
13.967200 0.835600
14.020900 0.929000
14.074600 0.980700
14.128300 1.050900
14.182000 1.084100
14.235700 1.136600
14.289400 1.175800
14.343100 1.205500
14.396800 1.224000
14.450500 1.213600
14.504200 1.188600
14.557900 1.170800
14.611600 1.156600
14.665300 1.128900
14.719000 1.109600
14.772700 1.094700
14.826400 1.075500
14.880100 1.053600
14.933800 1.032700
14.987500 1.017100
15.041200 0.995500
15.094900 0.976800
15.148600 0.959200
15.202300 0.940800
15.256000 0.927400
15.309700 0.918100
15.363400 0.907500
15.417100 0.899000
15.470900 0.892700
15.524600 0.889600
15.578300 0.912600
15.632000 0.948900
15.685700 0.983800
15.739400 1.029100
15.793100 1.070600
15.846800 1.003300
15.900500 0.988000
15.954200 0.941800
16.007900 0.867200
16.061600 0.846200
16.115300 0.863100
16.169000 0.889800
16.222700 0.925700
16.276400 1.018500
16.330100 1.049900
16.383800 1.103500
16.437500 1.162100
16.491200 1.231600
16.544900 1.310600
16.598600 1.395600
16.652300 1.476600
16.706000 1.559600
16.759700 1.551900
16.813400 1.576400
16.867100 1.650500
16.920800 1.728800
16.974500 1.799400
17.028200 1.820600
17.081900 1.853300
17.135600 1.591300
17.189300 1.487600
17.243000 1.408100
17.296700 1.378100
17.350400 1.367300
17.404100 1.429700
17.457800 1.418800
17.511500 1.428200
17.565200 1.366700
17.618900 1.312300
17.672600 1.275300
17.726300 1.244000
17.780000 1.213000
17.833700 1.192600
17.887400 1.165100
17.941100 1.140600
17.994800 1.121700
18.048500 1.081600
18.102200 1.052000
18.155900 1.047100
18.209600 1.045500
18.263300 1.061600
18.317000 1.087100
18.370700 1.123500
18.424400 1.157500
18.478100 1.159300
18.531800 1.141500
18.585500 1.145000
18.639200 1.144900
18.692900 1.148900
18.746600 1.172900
18.800300 1.179900
18.854000 1.187900
18.907700 1.176700
18.961400 1.143900
19.015100 1.119300
19.068800 1.092700
19.122500 1.071000
19.176200 1.056500
19.229900 1.046000
19.283600 1.038600
19.337300 1.038200
19.391000 1.036200
19.444700 1.037200
19.498400 1.044800
19.552100 1.106100
19.605800 1.112800
19.659500 1.118200
19.713200 1.126900
19.766900 1.134600
19.820600 1.126600
19.874300 1.109500
19.928000 1.088700
19.981700 1.072700
20.035400 1.046600
20.089100 1.043600
20.142800 0.991300
20.196500 0.938600
20.250200 0.875300
20.303900 0.831500
20.357600 0.803300
20.411300 0.786400
20.465000 0.778300
20.518700 0.800800
20.572400 0.798000
20.626100 0.774200
20.679800 0.770600
20.733600 0.769900
20.787300 0.773800
20.841000 0.772600
20.894700 0.774900
20.948400 0.789900
21.002100 0.927200
21.055800 0.819100
21.109500 0.808700
21.163200 0.824100
21.216900 0.846100
21.270600 0.848200
21.324300 0.856700
21.378000 0.880700
21.431700 0.914000
21.485400 0.899300
21.539100 0.892700
21.592800 0.891500
21.646500 0.892500
21.700200 0.901300
21.753900 0.925700
21.807600 0.862500
21.861300 0.826500
21.915000 0.786800
21.968700 0.787800
22.022400 0.764300
22.076100 0.732800
22.129800 0.712600
22.183500 0.688300
22.237200 0.673100
22.290900 0.657900
22.344600 0.638200
22.398300 0.619200
22.452000 0.606000
22.505700 0.603200
22.559400 0.596600
22.613100 0.591000
22.666800 0.593700
22.720500 0.608800
22.774200 0.627200
22.827900 0.624800
22.881600 0.605800
22.935300 0.606400
22.989000 0.606600
23.042700 0.607700
23.096400 0.612900
23.150100 0.624200
23.203800 0.638400
23.257500 0.655200
23.311200 0.673800
23.364900 0.690800
23.418600 0.706200
23.472300 0.721600
23.526000 0.741100
23.579700 0.789900
23.633400 0.848200
23.687100 0.872300
23.740800 0.868900
23.794500 0.880300
23.848200 0.895300
23.901900 0.922300
23.955600 0.968200
24.009300 0.988700
24.063000 1.029900
24.116700 1.060600
24.170400 1.060800
24.224100 1.088800
24.277800 1.098800
24.331500 1.126000
24.385200 1.127400
24.438900 1.123400
24.492600 1.111100
24.546300 1.108100
24.600000 1.109700
24.653700 1.115300
24.707400 1.120700
24.761100 1.197000
24.814800 1.143700
24.868500 1.125200
24.922200 1.096300
24.975900 1.052600
25.029600 1.048600
25.083300 1.030400
25.137000 1.023000
25.190700 1.018400
25.244400 1.012800
25.298100 1.062100
25.351800 1.014900
25.405500 1.032800
25.459200 1.032800
25.512900 1.023200
25.566600 1.022600
25.620300 1.020700
25.674000 1.025000
25.727700 1.029300
25.781400 1.037300
25.835100 1.054800
25.888800 1.063000
25.942500 1.058400
25.996300 1.049700
26.050000 1.065100
26.103700 1.074200
26.157400 1.079700
26.211100 1.083400
26.264800 1.087000
26.318500 1.096600
26.372200 1.124300
26.425900 1.138500
26.479600 1.130800
26.533300 1.108900
26.587000 1.118600
26.640700 1.130600
26.694400 1.131500
26.748100 1.152500
26.801800 1.184000
26.855500 1.138000
26.909200 1.118500
26.962900 1.148500
27.016600 1.085300
27.070300 1.007700
27.124000 0.938100
27.177700 0.880700
27.231400 0.802600
27.285100 0.728900
27.338800 0.667800
27.392500 0.633300
27.446200 0.642900
27.499900 0.657300
27.553600 0.697900
27.607300 0.706200
27.661000 0.720600
27.714700 0.735300
27.768400 0.755900
27.822100 0.790000
27.875800 0.771600
27.929500 0.791800
27.983200 0.801000
28.036900 0.802100
28.090600 0.890000
28.144300 0.887300
28.198000 0.872900
28.251700 0.910500
28.305400 0.841600
28.359100 0.803400
28.412800 0.775100
28.466500 0.749600
28.520200 0.770000
28.573900 0.776300
28.627600 0.762200
28.681300 0.744800
28.735000 0.730400
28.788700 0.712600
28.842400 0.701700
28.896100 0.688500
28.949800 0.682500
29.003500 0.677100
29.057200 0.673700
29.110900 0.672500
29.164600 0.678400
29.218300 0.702600
29.272000 0.713200
29.325700 0.720100
29.379400 0.731200
29.433100 0.743800
29.486800 0.765500
29.540500 0.761300
29.594200 0.778300
29.647900 0.803900
29.701600 0.790100
29.755300 0.808000
29.809000 0.823700
29.862700 0.844300
29.916400 0.861000
29.970100 0.857700
30.023800 0.866700
30.077500 0.878900
30.131200 0.894600
30.184900 0.912500
30.238600 0.926500
30.292300 0.923900
30.346000 0.912800
30.399700 0.918100
30.453400 0.925400
30.507100 0.925200
30.560800 0.932500
30.614500 0.911700
30.668200 0.913300
30.721900 0.916400
30.775600 0.915000
30.829300 0.914900
30.883000 0.932800
30.936700 0.948700
30.990400 0.961300
31.044100 0.970000
31.097800 0.986100
31.151500 1.006000
31.205200 1.033100
31.258900 1.059500
31.312700 1.084700
31.366400 1.097500
31.420100 1.134200
31.473800 1.111000
31.527500 1.067200
31.581200 1.046900
31.634900 1.027000
31.688600 1.046300
31.742300 0.966600
31.796000 0.962600
31.849700 0.948400
31.903400 0.934000
31.957100 0.915000
32.010800 0.906900
32.064500 0.934800
32.118200 0.917900
32.171900 0.922600
32.225600 0.929400
32.279300 0.930600
32.333000 0.949700
32.386700 0.926800
32.440400 0.927500
32.494100 0.931800
32.547800 0.956000
32.601500 0.979400
32.655200 1.000800
32.708900 1.022400
32.762600 1.052200
32.816300 1.091300
32.870000 1.125300
32.923700 1.191700
32.977400 1.191300
33.031100 1.205700
33.084800 1.222800
33.138500 1.275000
