set title 'mp-1187976 - Density of States'
set xlabel 'Energy (eV)'
set ylabel 'DOS (states/eV)'
set grid
set xrange [-10:10]
set yrange [0:62.359]
set xzeroaxis lt -1
set terminal png size 800,600
set output 'mp-1187976_dos_gnuplot.png'
plot '-' using 1:2 with lines title 'DOS'
-17.613900 0.000000
-17.584600 0.000000
-17.555300 0.000000
-17.526100 0.000000
-17.496800 0.000000
-17.467600 0.000000
-17.438300 0.000000
-17.409000 0.000000
-17.379800 0.000000
-17.350500 0.000000
-17.321200 0.000000
-17.292000 0.000000
-17.262700 0.000000
-17.233500 0.000000
-17.204200 0.000000
-17.174900 0.000000
-17.145700 0.000000
-17.116400 0.000000
-17.087100 0.000000
-17.057900 0.000000
-17.028600 0.000000
-16.999400 0.000000
-16.970100 0.000000
-16.940800 0.000000
-16.911600 0.000000
-16.882300 0.000000
-16.853000 0.000000
-16.823800 0.000000
-16.794500 0.000000
-16.765300 0.000000
-16.736000 0.000000
-16.706700 0.000000
-16.677500 0.000000
-16.648200 0.000000
-16.618900 0.000000
-16.589700 0.000000
-16.560400 0.000000
-16.531200 0.000000
-16.501900 0.000000
-16.472600 0.000000
-16.443400 0.000000
-16.414100 0.000000
-16.384800 0.000000
-16.355600 0.000000
-16.326300 0.000000
-16.297100 0.000000
-16.267800 0.000000
-16.238500 0.000000
-16.209300 0.000000
-16.180000 0.000000
-16.150700 0.000000
-16.121500 0.000000
-16.092200 0.000000
-16.063000 0.000000
-16.033700 0.000000
-16.004400 0.000000
-15.975200 0.000000
-15.945900 0.000000
-15.916600 0.000000
-15.887400 0.000000
-15.858100 0.000000
-15.828900 0.000000
-15.799600 0.000000
-15.770300 0.000000
-15.741100 0.000000
-15.711800 0.000000
-15.682500 0.000000
-15.653300 0.000000
-15.624000 0.000000
-15.594800 0.000000
-15.565500 0.000000
-15.536200 0.000000
-15.507000 0.000000
-15.477700 0.000000
-15.448500 0.000000
-15.419200 0.000000
-15.389900 0.000000
-15.360700 0.000000
-15.331400 0.000000
-15.302100 0.000000
-15.272900 0.000000
-15.243600 0.000000
-15.214400 0.000000
-15.185100 0.000000
-15.155800 0.000000
-15.126600 0.000000
-15.097300 0.000000
-15.068000 0.001100
-15.038800 0.019100
-15.009500 0.177400
-14.980300 0.979200
-14.951000 3.678200
-14.921700 11.526300
-14.892500 32.245000
-14.863200 71.077000
-14.833900 112.704500
-14.804700 130.327600
-14.775400 123.430800
-14.746200 116.981400
-14.716900 119.045500
-14.687600 112.219700
-14.658400 85.188800
-14.629100 51.554100
-14.599800 27.433600
-14.570600 14.092200
-14.541300 7.293200
-14.512100 3.544300
-14.482800 1.320100
-14.453500 0.316700
-14.424300 0.044500
-14.395000 0.003500
-14.365700 0.000100
-14.336500 0.000000
-14.307200 0.000000
-14.278000 0.000000
-14.248700 0.000000
-14.219400 0.000000
-14.190200 0.000000
-14.160900 0.000000
-14.131600 0.000000
-14.102400 0.000000
-14.073100 0.000000
-14.043900 0.000000
-14.014600 0.000000
-13.985300 0.000000
-13.956100 0.000000
-13.926800 0.000000
-13.897500 0.000000
-13.868300 0.000000
-13.839000 0.000000
-13.809800 0.000000
-13.780500 0.000000
-13.751200 0.000000
-13.722000 0.000000
-13.692700 0.000000
-13.663400 0.000000
-13.634200 0.000000
-13.604900 0.000000
-13.575700 0.000000
-13.546400 0.000000
-13.517100 0.000000
-13.487900 0.000000
-13.458600 0.000000
-13.429300 0.000000
-13.400100 0.000000
-13.370800 0.000000
-13.341600 0.000000
-13.312300 0.000000
-13.283000 0.000000
-13.253800 0.000000
-13.224500 0.000000
-13.195200 0.000000
-13.166000 0.000000
-13.136700 0.000000
-13.107500 0.000000
-13.078200 0.000000
-13.048900 0.000000
-13.019700 0.000000
-12.990400 0.000000
-12.961100 0.000000
-12.931900 0.000000
-12.902600 0.000000
-12.873400 0.000000
-12.844100 0.000000
-12.814800 0.000000
-12.785600 0.000000
-12.756300 0.000000
-12.727000 0.000000
-12.697800 0.000000
-12.668500 0.000000
-12.639300 0.000000
-12.610000 0.000000
-12.580700 0.000000
-12.551500 0.000000
-12.522200 0.000000
-12.492900 0.000000
-12.463700 0.000000
-12.434400 0.000000
-12.405200 0.000000
-12.375900 0.000000
-12.346600 0.000000
-12.317400 0.000000
-12.288100 0.000000
-12.258800 0.000000
-12.229600 0.000000
-12.200300 0.000000
-12.171100 0.000000
-12.141800 0.000000
-12.112500 0.000000
-12.083300 0.000000
-12.054000 0.000000
-12.024700 0.000000
-11.995500 0.000000
-11.966200 0.000000
-11.937000 0.000000
-11.907700 0.000000
-11.878400 0.000000
-11.849200 0.000000
-11.819900 0.000000
-11.790600 0.000000
-11.761400 0.000000
-11.732100 0.000000
-11.702900 0.000000
-11.673600 0.000000
-11.644300 0.000000
-11.615100 0.000000
-11.585800 0.000000
-11.556500 0.000000
-11.527300 0.000000
-11.498000 0.000000
-11.468800 0.000000
-11.439500 0.000000
-11.410200 0.000000
-11.381000 0.000000
-11.351700 0.000000
-11.322400 0.000000
-11.293200 0.000000
-11.263900 0.000000
-11.234700 0.000000
-11.205400 0.000000
-11.176100 0.000000
-11.146900 0.000000
-11.117600 0.000000
-11.088300 0.000000
-11.059100 0.000000
-11.029800 0.000000
-11.000600 0.000000
-10.971300 0.000000
-10.942000 0.000000
-10.912800 0.000000
-10.883500 0.000000
-10.854200 0.000000
-10.825000 0.000000
-10.795700 0.000000
-10.766500 0.000000
-10.737200 0.000000
-10.707900 0.000000
-10.678700 0.000000
-10.649400 0.000000
-10.620100 0.000000
-10.590900 0.000000
-10.561600 0.000000
-10.532400 0.000000
-10.503100 0.000000
-10.473800 0.000000
-10.444600 0.000000
-10.415300 0.000000
-10.386000 0.000000
-10.356800 0.000000
-10.327500 0.000000
-10.298300 0.000000
-10.269000 0.000000
-10.239700 0.000000
-10.210500 0.000000
-10.181200 0.000000
-10.151900 0.000000
-10.122700 0.000000
-10.093400 0.000000
-10.064200 0.000000
-10.034900 0.000000
-10.005600 0.000000
-9.976400 0.000000
-9.947100 0.000000
-9.917800 0.000000
-9.888600 0.000000
-9.859300 0.000000
-9.830100 0.000000
-9.800800 0.000000
-9.771500 0.000000
-9.742300 0.000000
-9.713000 0.000000
-9.683700 0.000000
-9.654500 0.000000
-9.625200 0.000000
-9.596000 0.000000
-9.566700 0.000000
-9.537400 0.000000
-9.508200 0.000000
-9.478900 0.000000
-9.449600 0.000000
-9.420400 0.000000
-9.391100 0.000000
-9.361900 0.000000
-9.332600 0.000000
-9.303300 0.000000
-9.274100 0.000000
-9.244800 0.000000
-9.215500 0.000000
-9.186300 0.000000
-9.157000 0.000000
-9.127800 0.000000
-9.098500 0.000000
-9.069200 0.000000
-9.040000 0.000000
-9.010700 0.000000
-8.981400 0.000000
-8.952200 0.000000
-8.922900 0.000000
-8.893700 0.000000
-8.864400 0.000000
-8.835100 0.000000
-8.805900 0.000000
-8.776600 0.000000
-8.747300 0.000000
-8.718100 0.000000
-8.688800 0.000000
-8.659600 0.000000
-8.630300 0.000000
-8.601000 0.000000
-8.571800 0.000000
-8.542500 0.000000
-8.513200 0.000000
-8.484000 0.000000
-8.454700 0.000000
-8.425500 0.000000
-8.396200 0.000000
-8.366900 0.000000
-8.337700 0.000000
-8.308400 0.000000
-8.279100 0.000000
-8.249900 0.000000
-8.220600 0.000000
-8.191400 0.000000
-8.162100 0.000000
-8.132800 0.000000
-8.103600 0.000000
-8.074300 0.000000
-8.045000 0.000000
-8.015800 0.000000
-7.986500 0.000000
-7.957300 0.000000
-7.928000 0.000000
-7.898700 0.000000
-7.869500 0.000000
-7.840200 0.000000
-7.810900 0.000000
-7.781700 0.000000
-7.752400 0.000000
-7.723200 0.000000
-7.693900 0.000000
-7.664600 0.000000
-7.635400 0.000000
-7.606100 0.000000
-7.576800 0.000000
-7.547600 0.000000
-7.518300 0.000000
-7.489100 0.000000
-7.459800 0.000000
-7.430500 0.000000
-7.401300 0.000000
-7.372000 0.000000
-7.342700 0.000000
-7.313500 0.000000
-7.284200 0.000000
-7.255000 0.000000
-7.225700 0.000000
-7.196400 0.000000
-7.167200 0.000000
-7.137900 0.000000
-7.108600 0.000000
-7.079400 0.000000
-7.050100 0.000000
-7.020900 0.000000
-6.991600 0.000000
-6.962300 0.000000
-6.933100 0.000000
-6.903800 0.000000
-6.874500 0.000000
-6.845300 0.000000
-6.816000 0.000000
-6.786800 0.000000
-6.757500 0.000000
-6.728200 0.000000
-6.699000 0.000000
-6.669700 0.000000
-6.640400 0.000000
-6.611200 0.000000
-6.581900 0.000000
-6.552700 0.000000
-6.523400 0.000000
-6.494100 0.000000
-6.464900 0.000000
-6.435600 0.000000
-6.406300 0.000000
-6.377100 0.000000
-6.347800 0.000000
-6.318600 0.000000
-6.289300 0.000000
-6.260000 0.000000
-6.230800 0.000000
-6.201500 0.000000
-6.172200 0.000000
-6.143000 0.000000
-6.113700 0.000000
-6.084500 0.000000
-6.055200 0.000000
-6.025900 0.000000
-5.996700 0.000000
-5.967400 0.000000
-5.938100 0.000000
-5.908900 0.000000
-5.879600 0.000000
-5.850400 0.000000
-5.821100 0.000000
-5.791800 0.000000
-5.762600 0.000000
-5.733300 0.000000
-5.704000 0.000000
-5.674800 0.000000
-5.645500 0.000000
-5.616300 0.000000
-5.587000 0.000000
-5.557700 0.000000
-5.528500 0.000000
-5.499200 0.000000
-5.469900 0.000000
-5.440700 0.000000
-5.411400 0.000000
-5.382200 0.000000
-5.352900 0.000000
-5.323600 0.000000
-5.294400 0.000000
-5.265100 0.000000
-5.235800 0.000000
-5.206600 0.000000
-5.177300 0.000000
-5.148100 0.000000
-5.118800 0.000000
-5.089500 0.000000
-5.060300 0.000000
-5.031000 0.000000
-5.001700 0.000000
-4.972500 0.000000
-4.943200 0.000000
-4.914000 0.000000
-4.884700 0.000000
-4.855400 0.000000
-4.826200 0.000000
-4.796900 0.000000
-4.767600 0.000000
-4.738400 0.000000
-4.709100 0.000000
-4.679900 0.000000
-4.650600 0.000000
-4.621300 0.000000
-4.592100 0.000000
-4.562800 0.000000
-4.533500 0.000000
-4.504300 0.000000
-4.475000 0.000000
-4.445800 0.000000
-4.416500 0.000000
-4.387200 0.000000
-4.358000 0.000000
-4.328700 0.000000
-4.299400 0.000000
-4.270200 0.000000
-4.240900 0.000000
-4.211700 0.000000
-4.182400 0.000000
-4.153100 0.000000
-4.123900 0.000000
-4.094600 0.000200
-4.065400 0.001700
-4.036100 0.009600
-4.006800 0.030200
-3.977600 0.058400
-3.948300 0.092800
-3.919000 0.154600
-3.889800 0.250900
-3.860500 0.340000
-3.831300 0.342300
-3.802000 0.243800
-3.772700 0.165000
-3.743500 0.240900
-3.714200 0.414600
-3.684900 0.488000
-3.655700 0.416600
-3.626400 0.358800
-3.597200 0.451500
-3.567900 0.628700
-3.538600 0.673000
-3.509400 0.519900
-3.480100 0.361000
-3.450800 0.339500
-3.421600 0.456800
-3.392300 0.635400
-3.363100 0.677800
-3.333800 0.510500
-3.304500 0.362700
-3.275300 0.445100
-3.246000 0.681500
-3.216700 0.824800
-3.187500 0.802300
-3.158200 0.820700
-3.129000 0.947500
-3.099700 1.017000
-3.070400 0.897200
-3.041200 0.623200
-3.011900 0.428500
-2.982600 0.488900
-2.953400 0.735000
-2.924100 0.907800
-2.894900 0.853000
-2.865600 0.763000
-2.836300 0.809400
-2.807100 0.920800
-2.777800 0.978900
-2.748500 0.818900
-2.719300 0.562400
-2.690000 0.575000
-2.660800 0.893000
-2.631500 1.149500
-2.602200 1.048200
-2.573000 0.830000
-2.543700 0.862400
-2.514400 1.080400
-2.485200 1.233500
-2.455900 1.108000
-2.426700 0.715600
-2.397400 0.451800
-2.368100 0.583400
-2.338900 0.843700
-2.309600 0.891500
-2.280300 0.834600
-2.251100 0.847100
-2.221800 0.804400
-2.192600 0.715200
-2.163300 0.667800
-2.134000 0.629300
-2.104800 0.719700
-2.075500 1.023600
-2.046200 1.335000
-2.017000 1.377200
-1.987700 1.276900
-1.958500 1.301300
-1.929200 1.404500
-1.899900 1.323300
-1.870700 0.962300
-1.841400 0.695700
-1.812100 0.733500
-1.782900 0.891200
-1.753600 1.037400
-1.724400 1.078600
-1.695100 1.017300
-1.665800 0.998000
-1.636600 0.997200
-1.607300 0.844500
-1.578000 0.569800
-1.548800 0.484400
-1.519500 0.733000
-1.490300 1.197500
-1.461000 1.705700
-1.431700 1.941000
-1.402500 1.729500
-1.373200 1.393500
-1.343900 1.298300
-1.314700 1.319300
-1.285400 1.261600
-1.256200 1.360500
-1.226900 1.739000
-1.197600 1.947700
-1.168400 1.742400
-1.139100 1.506700
-1.109800 1.458500
-1.080600 1.569700
-1.051300 1.790900
-1.022100 1.978800
-0.992800 1.960000
-0.963500 1.714900
-0.934300 1.456700
-0.905000 1.379000
-0.875700 1.441200
-0.846500 1.505700
-0.817200 1.581300
-0.788000 1.646700
-0.758700 1.592200
-0.729400 1.468600
-0.700200 1.490200
-0.670900 1.789600
-0.641600 2.372100
-0.612400 2.902100
-0.583100 2.869000
-0.553900 2.657100
-0.524600 2.975000
-0.495300 3.798600
-0.466100 5.128500
-0.436800 6.984300
-0.407500 8.965400
-0.378300 11.086700
-0.349000 15.187200
-0.319800 25.031400
-0.290500 41.710900
-0.261200 56.690300
-0.232000 55.289300
-0.202700 37.016700
-0.173400 18.533500
-0.144200 9.424000
-0.114900 6.951700
-0.085700 6.372200
-0.056400 5.337400
-0.027100 4.057300
0.002100 3.140200
0.031400 2.563100
0.060700 2.311500
0.089900 2.298700
0.119200 2.406900
0.148400 2.480900
0.177700 2.361900
0.207000 2.188500
0.236200 1.962000
0.265500 1.589100
0.294800 1.443700
0.324000 1.791300
0.353300 2.178600
0.382500 2.197700
0.411800 2.159100
0.441100 2.384800
0.470300 2.652000
0.499600 2.696700
0.528900 2.477500
0.558100 2.029700
0.587400 1.550300
0.616600 1.476200
0.645900 1.841500
0.675200 2.169400
0.704400 2.312500
0.733700 2.278000
0.763000 1.875600
0.792200 1.458700
0.821500 1.547300
0.850700 2.039100
0.880000 2.400300
0.909300 2.471300
0.938500 2.528200
0.967800 2.439100
0.997100 2.080200
1.026300 1.860800
1.055600 1.730300
1.084800 1.416300
1.114100 1.151500
1.143400 1.152100
1.172600 1.248500
1.201900 1.265400
1.231200 1.260700
1.260400 1.270300
1.289700 1.295600
1.318900 1.414400
1.348200 1.503400
1.377500 1.258400
1.406700 0.766600
1.436000 0.457100
1.465300 0.444400
1.494500 0.472300
1.523800 0.421400
1.553000 0.348500
1.582300 0.305100
1.611600 0.383900
1.640800 0.519700
1.670100 0.457800
1.699400 0.250000
1.728600 0.173800
1.757900 0.287200
1.787100 0.503900
1.816400 0.710000
1.845700 0.778200
1.874900 0.729800
1.904200 0.604200
1.933500 0.481300
1.962700 0.456800
1.992000 0.415800
2.021200 0.350400
2.050500 0.389600
2.079800 0.427200
2.109000 0.356000
2.138300 0.255300
2.167600 0.244800
2.196800 0.407600
2.226100 0.620300
2.255300 0.703300
2.284600 0.823700
2.313900 1.190000
2.343100 1.611100
2.372400 1.805800
2.401700 1.739700
2.430900 1.431700
2.460200 1.092700
2.489400 1.058700
2.518700 1.218400
2.548000 1.319800
2.577200 1.288700
2.606500 1.109900
2.635800 1.109300
2.665000 1.659900
2.694300 2.502000
2.723500 3.022400
2.752800 2.817600
2.782100 2.028800
2.811300 1.329600
2.840600 1.160800
2.869900 1.381600
2.899100 1.629700
2.928400 1.620300
2.957600 1.468300
2.986900 1.403200
3.016200 1.338300
3.045400 1.221200
3.074700 1.174500
3.104000 1.419000
3.133200 2.035200
3.162500 2.668700
3.191700 2.822100
3.221000 2.490200
3.250300 2.084400
3.279500 1.965800
3.308800 2.167900
3.338100 2.354300
3.367300 2.124200
3.396600 1.485800
3.425800 1.083100
3.455100 1.224300
3.484400 1.655400
3.513600 1.865500
3.542900 1.493700
3.572200 1.075000
3.601400 1.160400
3.630700 1.435300
3.659900 1.424400
3.689200 1.168500
3.718500 0.981700
3.747700 0.867100
3.777000 0.672200
3.806300 0.708600
3.835500 1.257900
3.864800 1.767900
3.894000 1.752200
3.923300 1.849500
3.952600 2.223500
3.981800 2.016000
4.011100 1.260700
4.040400 0.789200
4.069600 0.988300
4.098900 1.461700
4.128100 1.540500
4.157400 1.271000
4.186700 1.159700
4.215900 1.236000
4.245200 1.362300
4.274500 1.653400
4.303700 2.085800
4.333000 2.456500
4.362200 2.462600
4.391500 2.038500
4.420800 1.584600
4.450000 1.355200
4.479300 1.215500
4.508600 1.249300
4.537800 1.777600
4.567100 2.453700
4.596300 2.601800
4.625600 2.365900
4.654900 2.285300
4.684100 2.221200
4.713400 1.886700
4.742700 1.424200
4.771900 1.213400
4.801200 1.425600
4.830400 1.714800
4.859700 2.043300
4.889000 2.633000
4.918200 3.162500
4.947500 3.205400
4.976800 2.687100
5.006000 2.016700
5.035300 1.657600
5.064500 1.534400
5.093800 1.391800
5.123100 1.350800
5.152300 1.610600
5.181600 1.954700
5.210900 2.117600
5.240100 2.218600
5.269400 2.259400
5.298600 2.030200
5.327900 1.817000
5.357200 1.801600
5.386400 1.728400
5.415700 1.694600
5.445000 1.824200
5.474200 1.911100
5.503500 1.996200
5.532700 2.225300
5.562000 2.326800
5.591300 2.081200
5.620500 1.845000
5.649800 2.026600
5.679100 2.458200
5.708300 2.464000
5.737600 1.999700
5.766800 1.733900
5.796100 1.610500
5.825400 1.268500
5.854600 1.051300
5.883900 1.276600
5.913200 1.880600
5.942400 2.607400
5.971700 2.865000
6.000900 2.309900
6.030200 1.446000
6.059500 1.005200
6.088700 1.199200
6.118000 1.739600
6.147300 2.035800
6.176500 1.923400
6.205800 1.886400
6.235000 1.958900
6.264300 1.897300
6.293600 1.959100
6.322800 2.221200
6.352100 2.437900
6.381400 2.657800
6.410600 2.939000
6.439900 3.054400
6.469100 2.681200
6.498400 2.040100
6.527700 1.701400
6.556900 1.533800
6.586200 1.245400
6.615500 1.192900
6.644700 1.362500
6.674000 1.311500
6.703200 1.187700
6.732500 1.234300
6.761800 1.444000
6.791000 1.967900
6.820300 2.572800
6.849600 2.648700
6.878800 2.283100
6.908100 1.985300
6.937300 1.727400
6.966600 1.375500
6.995900 1.248100
7.025100 1.500300
7.054400 1.726900
7.083600 1.768200
7.112900 1.925300
7.142200 2.340500
7.171400 2.812700
7.200700 3.051500
7.230000 2.907900
7.259200 2.515500
7.288500 2.192600
7.317700 2.229800
7.347000 2.563200
7.376300 2.701400
7.405500 2.435400
7.434800 2.215200
7.464100 2.230500
7.493300 2.185700
7.522600 1.895400
7.551800 1.411300
7.581100 1.221900
7.610400 1.661500
7.639600 2.427400
7.668900 2.915700
7.698200 2.845100
7.727400 2.541900
7.756700 2.382900
7.785900 2.382200
7.815200 2.420100
7.844500 2.353800
7.873700 2.085800
7.903000 1.741100
7.932300 1.605300
7.961500 1.609500
7.990800 1.514400
8.020000 1.430700
8.049300 1.670200
8.078600 2.172400
8.107800 2.394100
8.137100 2.129700
8.166400 1.868200
8.195600 2.034500
8.224900 2.341100
8.254100 2.311800
8.283400 2.153500
8.312700 2.378200
8.341900 2.872000
8.371200 3.173600
8.400500 3.009300
8.429700 2.550000
8.459000 2.089400
8.488200 1.514200
8.517500 1.034200
8.546800 0.927700
8.576000 0.950400
8.605300 1.107000
8.634600 1.657100
8.663800 2.577700
8.693100 3.699500
8.722300 4.343900
8.751600 3.996400
8.780900 3.208400
8.810100 2.536500
8.839400 1.924800
8.868700 1.506000
8.897900 1.837600
8.927200 2.851000
8.956400 3.596800
8.985700 3.483500
9.015000 2.857800
9.044200 2.216600
9.073500 1.837700
9.102800 1.891200
9.132000 2.116300
9.161300 2.055000
9.190500 1.916900
9.219800 2.207100
9.249100 2.766800
9.278300 3.086000
9.307600 3.023700
9.336900 2.771200
9.366100 2.613100
9.395400 2.701300
9.424600 2.914700
9.453900 3.057100
9.483200 3.091900
9.512400 2.890500
9.541700 2.356700
9.571000 1.737700
9.600200 1.428000
9.629500 1.683200
9.658700 2.338400
9.688000 2.857700
9.717300 2.928600
9.746500 2.894900
9.775800 3.135100
9.805100 3.505300
9.834300 3.676000
9.863600 3.414700
9.892800 2.849100
9.922100 2.348800
9.951400 2.115000
9.980600 2.095900
10.009900 2.117900
10.039200 1.888200
10.068400 1.360600
10.097700 1.153500
10.126900 1.653700
10.156200 2.268300
10.185500 2.373500
10.214700 2.238700
10.244000 2.238800
10.273300 2.191200
10.302500 1.987000
10.331800 2.062500
10.361000 2.702400
10.390300 3.294400
10.419600 3.180800
10.448800 2.535200
10.478100 1.930000
10.507400 1.785400
10.536600 2.071500
10.565900 2.314500
10.595100 2.255900
10.624400 2.051000
10.653700 1.854200
10.682900 1.674900
10.712200 1.466100
10.741500 1.432600
10.770700 1.855200
10.800000 2.471600
10.829200 2.604500
10.858500 2.083800
10.887800 1.649400
10.917000 1.830100
10.946300 2.256000
10.975600 2.529800
11.004800 2.844400
11.034100 3.632200
11.063300 4.771700
11.092600 5.295100
11.121900 4.793200
11.151100 3.969000
11.180400 3.131200
11.209700 2.349600
11.238900 1.862500
11.268200 1.664700
11.297400 1.574100
11.326700 1.659300
11.356000 2.055400
11.385200 2.448200
11.414500 2.585700
11.443800 2.714400
11.473000 2.968500
11.502300 2.832600
11.531500 2.168300
11.560800 1.668400
11.590100 1.696700
11.619300 1.993200
11.648600 2.340400
11.677900 2.809600
11.707100 3.310000
11.736400 3.466200
11.765600 3.275800
11.794900 3.090300
11.824200 2.816400
11.853400 2.349800
11.882700 1.968500
11.912000 1.641100
11.941200 1.308600
11.970500 1.191200
11.999700 1.384900
12.029000 1.641700
12.058300 1.782800
12.087500 2.012300
12.116800 2.520900
12.146100 3.038500
12.175300 3.540600
12.204600 4.191500
12.233800 4.292400
12.263100 3.733600
12.292400 3.375800
12.321600 3.276800
12.350900 3.005000
12.380200 2.516100
12.409400 2.048700
12.438700 1.742700
12.467900 1.480900
12.497200 1.332300
12.526500 1.336000
12.555700 1.249400
12.585000 1.106800
12.614300 1.148700
12.643500 1.359300
12.672800 1.558500
12.702000 1.727300
12.731300 1.992000
12.760600 2.421600
12.789800 2.800100
