set title 'mp-971718 - Density of States'
set xlabel 'Energy (eV)'
set ylabel 'DOS (states/eV)'
set grid
set xrange [-10:10]
set yrange [0:97.420]
set xzeroaxis lt -1
set terminal png size 800,600
set output 'mp-971718_dos_gnuplot.png'
plot '-' using 1:2 with lines title 'DOS'
-9.298400 0.000000
-9.279700 0.000000
-9.260900 0.000000
-9.242200 0.000000
-9.223400 0.000000
-9.204700 0.000000
-9.186000 0.000000
-9.167200 0.000000
-9.148500 0.000000
-9.129700 0.000000
-9.111000 0.000000
-9.092300 0.000000
-9.073500 0.000000
-9.054800 0.000000
-9.036000 0.000000
-9.017300 0.000000
-8.998600 0.000000
-8.979800 0.000000
-8.961100 0.000000
-8.942400 0.000000
-8.923600 0.000000
-8.904900 0.000000
-8.886100 0.000000
-8.867400 0.000000
-8.848700 0.000000
-8.829900 0.000000
-8.811200 0.000000
-8.792400 0.000000
-8.773700 0.000000
-8.755000 0.000000
-8.736200 0.000000
-8.717500 0.000000
-8.698700 0.000000
-8.680000 0.000000
-8.661300 0.000000
-8.642500 0.000000
-8.623800 0.000000
-8.605000 0.000000
-8.586300 0.000000
-8.567600 0.000000
-8.548800 0.000000
-8.530100 0.000000
-8.511300 0.000000
-8.492600 0.000000
-8.473900 0.000000
-8.455100 0.000000
-8.436400 0.000000
-8.417700 0.000000
-8.398900 0.000000
-8.380200 0.000000
-8.361400 0.000000
-8.342700 0.000000
-8.324000 0.000000
-8.305200 0.000000
-8.286500 0.000000
-8.267700 0.000000
-8.249000 0.000000
-8.230300 0.000000
-8.211500 0.000000
-8.192800 0.000000
-8.174000 0.000000
-8.155300 0.000000
-8.136600 0.000000
-8.117800 0.000000
-8.099100 0.000000
-8.080300 0.000000
-8.061600 0.000000
-8.042900 0.000000
-8.024100 0.000000
-8.005400 0.000000
-7.986600 0.000000
-7.967900 0.000000
-7.949200 0.000000
-7.930400 0.000000
-7.911700 0.000000
-7.893000 0.000000
-7.874200 0.000000
-7.855500 0.000000
-7.836700 0.000000
-7.818000 0.000000
-7.799300 0.000000
-7.780500 0.000000
-7.761800 0.000000
-7.743000 0.000000
-7.724300 0.000000
-7.705600 0.000200
-7.686800 0.000900
-7.668100 0.003500
-7.649300 0.011000
-7.630600 0.027400
-7.611900 0.054900
-7.593100 0.091200
-7.574400 0.130700
-7.555600 0.174400
-7.536900 0.234500
-7.518200 0.316700
-7.499400 0.392200
-7.480700 0.410000
-7.461900 0.354900
-7.443200 0.279000
-7.424500 0.258500
-7.405700 0.325700
-7.387000 0.446700
-7.368300 0.558400
-7.349500 0.629100
-7.330800 0.678700
-7.312000 0.727800
-7.293300 0.745300
-7.274600 0.682700
-7.255800 0.547500
-7.237100 0.409600
-7.218300 0.334400
-7.199600 0.335800
-7.180900 0.400300
-7.162100 0.534400
-7.143400 0.752900
-7.124600 1.011500
-7.105900 1.187200
-7.087200 1.176000
-7.068400 1.005100
-7.049700 0.812300
-7.030900 0.717500
-7.012200 0.735600
-6.993500 0.800600
-6.974700 0.840700
-6.956000 0.832300
-6.937200 0.794200
-6.918500 0.743900
-6.899800 0.684900
-6.881000 0.645400
-6.862300 0.678900
-6.843600 0.801100
-6.824800 0.963400
-6.806100 1.120700
-6.787300 1.284900
-6.768600 1.469800
-6.749900 1.612500
-6.731100 1.607700
-6.712400 1.425700
-6.693600 1.166300
-6.674900 0.982900
-6.656200 0.957700
-6.637400 1.045000
-6.618700 1.123700
-6.599900 1.108500
-6.581200 1.020100
-6.562500 0.947400
-6.543700 0.944800
-6.525000 0.993200
-6.506200 1.067700
-6.487500 1.192700
-6.468800 1.398600
-6.450000 1.666000
-6.431300 1.952400
-6.412500 2.236000
-6.393800 2.481400
-6.375100 2.588500
-6.356300 2.457300
-6.337600 2.114800
-6.318900 1.718500
-6.300100 1.421600
-6.281400 1.276400
-6.262600 1.244400
-6.243900 1.242000
-6.225200 1.196700
-6.206400 1.119500
-6.187700 1.118800
-6.168900 1.299600
-6.150200 1.623600
-6.131500 1.896900
-6.112700 1.950800
-6.094000 1.824000
-6.075200 1.702000
-6.056500 1.693100
-6.037800 1.727000
-6.019000 1.664800
-6.000300 1.450000
-5.981500 1.145800
-5.962800 0.865700
-5.944100 0.686000
-5.925300 0.601300
-5.906600 0.552900
-5.887800 0.501300
-5.869100 0.467700
-5.850400 0.503300
-5.831600 0.624300
-5.812900 0.786800
-5.794200 0.930700
-5.775400 1.029300
-5.756700 1.086900
-5.737900 1.119900
-5.719200 1.149900
-5.700500 1.186000
-5.681700 1.213700
-5.663000 1.219000
-5.644200 1.207600
-5.625500 1.200900
-5.606800 1.232000
-5.588000 1.332800
-5.569300 1.498700
-5.550500 1.664100
-5.531800 1.732600
-5.513100 1.664800
-5.494300 1.554500
-5.475600 1.577400
-5.456800 1.813700
-5.438100 2.140800
-5.419400 2.344500
-5.400600 2.338500
-5.381900 2.251400
-5.363100 2.296900
-5.344400 2.564200
-5.325700 2.930300
-5.306900 3.168400
-5.288200 3.158000
-5.269500 2.975500
-5.250700 2.772100
-5.232000 2.608500
-5.213200 2.434100
-5.194500 2.176000
-5.175800 1.833400
-5.157000 1.518100
-5.138300 1.394500
-5.119500 1.543400
-5.100800 1.883800
-5.082100 2.246600
-5.063300 2.526500
-5.044600 2.747300
-5.025800 2.963300
-5.007100 3.127400
-4.988400 3.134100
-4.969600 2.983300
-4.950900 2.774900
-4.932100 2.518000
-4.913400 2.109400
-4.894700 1.560000
-4.875900 1.092400
-4.857200 0.943900
-4.838400 1.163400
-4.819700 1.617400
-4.801000 2.109400
-4.782200 2.468700
-4.763500 2.596000
-4.744800 2.494600
-4.726000 2.273700
-4.707300 2.087200
-4.688500 2.030200
-4.669800 2.096500
-4.651100 2.239200
-4.632300 2.429300
-4.613600 2.630500
-4.594800 2.756600
-4.576100 2.735500
-4.557400 2.633900
-4.538600 2.632200
-4.519900 2.803400
-4.501100 2.988600
-4.482400 2.970300
-4.463700 2.727300
-4.444900 2.453600
-4.426200 2.345100
-4.407400 2.415200
-4.388700 2.517200
-4.370000 2.531900
-4.351200 2.515300
-4.332500 2.623600
-4.313700 2.900800
-4.295000 3.196600
-4.276300 3.299700
-4.257500 3.112300
-4.238800 2.717200
-4.220100 2.323200
-4.201300 2.125100
-4.182600 2.180900
-4.163800 2.395500
-4.145100 2.596000
-4.126400 2.647400
-4.107600 2.531400
-4.088900 2.318300
-4.070100 2.077200
-4.051400 1.826400
-4.032700 1.547800
-4.013900 1.236000
-3.995200 0.942000
-3.976400 0.761700
-3.957700 0.758900
-3.939000 0.892600
-3.920200 1.034300
-3.901500 1.074900
-3.882700 1.011100
-3.864000 0.905800
-3.845300 0.785000
-3.826500 0.625400
-3.807800 0.432000
-3.789000 0.268700
-3.770300 0.206800
-3.751600 0.267500
-3.732800 0.403200
-3.714100 0.519300
-3.695400 0.538600
-3.676600 0.464600
-3.657900 0.363300
-3.639100 0.284900
-3.620400 0.231400
-3.601700 0.193200
-3.582900 0.171200
-3.564200 0.159900
-3.545400 0.140600
-3.526700 0.103600
-3.508000 0.060300
-3.489200 0.027000
-3.470500 0.009300
-3.451700 0.002400
-3.433000 0.000500
-3.414300 0.000100
-3.395500 0.000000
-3.376800 0.000000
-3.358000 0.000000
-3.339300 0.000000
-3.320600 0.000000
-3.301800 0.000000
-3.283100 0.000000
-3.264300 0.000000
-3.245600 0.000000
-3.226900 0.000000
-3.208100 0.000000
-3.189400 0.000000
-3.170700 0.000000
-3.151900 0.000000
-3.133200 0.000000
-3.114400 0.000000
-3.095700 0.000000
-3.077000 0.000000
-3.058200 0.000000
-3.039500 0.000000
-3.020700 0.000000
-3.002000 0.000000
-2.983300 0.000000
-2.964500 0.000000
-2.945800 0.000000
-2.927000 0.000000
-2.908300 0.000000
-2.889600 0.000000
-2.870800 0.000000
-2.852100 0.000000
-2.833300 0.000000
-2.814600 0.000000
-2.795900 0.000000
-2.777100 0.000000
-2.758400 0.000000
-2.739600 0.000000
-2.720900 0.000000
-2.702200 0.000000
-2.683400 0.000000
-2.664700 0.000000
-2.646000 0.000000
-2.627200 0.000000
-2.608500 0.000000
-2.589700 0.000000
-2.571000 0.000000
-2.552300 0.000000
-2.533500 0.000000
-2.514800 0.000000
-2.496000 0.000000
-2.477300 0.000000
-2.458600 0.000000
-2.439800 0.000000
-2.421100 0.000000
-2.402300 0.000000
-2.383600 0.000000
-2.364900 0.000000
-2.346100 0.000000
-2.327400 0.000000
-2.308600 0.000000
-2.289900 0.000000
-2.271200 0.000000
-2.252400 0.000000
-2.233700 0.000000
-2.214900 0.000000
-2.196200 0.000000
-2.177500 0.000000
-2.158700 0.000000
-2.140000 0.000000
-2.121300 0.000000
-2.102500 0.000000
-2.083800 0.000000
-2.065000 0.000000
-2.046300 0.000000
-2.027600 0.000000
-2.008800 0.000000
-1.990100 0.000000
-1.971300 0.000000
-1.952600 0.000000
-1.933900 0.000000
-1.915100 0.000000
-1.896400 0.000000
-1.877600 0.000000
-1.858900 0.000000
-1.840200 0.000000
-1.821400 0.000000
-1.802700 0.000000
-1.783900 0.000000
-1.765200 0.000000
-1.746500 0.000000
-1.727700 0.000000
-1.709000 0.000000
-1.690200 0.000000
-1.671500 0.000000
-1.652800 0.000000
-1.634000 0.000000
-1.615300 0.000000
-1.596600 0.000000
-1.577800 0.000000
-1.559100 0.000000
-1.540300 0.000100
-1.521600 0.001000
-1.502900 0.008900
-1.484100 0.064200
-1.465400 0.358800
-1.446600 1.563300
-1.427900 5.337500
-1.409200 14.381400
-1.390400 30.862400
-1.371700 53.375800
-1.352900 75.465300
-1.334200 88.563200
-1.315500 87.363600
-1.296700 72.842300
-1.278000 51.147400
-1.259200 29.923300
-1.240500 14.399100
-1.221800 5.636400
-1.203000 1.781600
-1.184300 0.452900
-1.165500 0.092400
-1.146800 0.015100
-1.128100 0.002000
-1.109300 0.000200
-1.090600 0.000000
-1.071900 0.000000
-1.053100 0.000000
-1.034400 0.000000
-1.015600 0.000000
-0.996900 0.000000
-0.978200 0.000000
-0.959400 0.000000
-0.940700 0.000000
-0.921900 0.000000
-0.903200 0.000000
-0.884500 0.000000
-0.865700 0.000000
-0.847000 0.000000
-0.828200 0.000000
-0.809500 0.000000
-0.790800 0.000000
-0.772000 0.000000
-0.753300 0.000000
-0.734500 0.000000
-0.715800 0.000000
-0.697100 0.000000
-0.678300 0.000000
-0.659600 0.000000
-0.640800 0.000000
-0.622100 0.000000
-0.603400 0.000000
-0.584600 0.000000
-0.565900 0.000000
-0.547200 0.000000
-0.528400 0.000000
-0.509700 0.000000
-0.490900 0.000000
-0.472200 0.000000
-0.453500 0.000000
-0.434700 0.000000
-0.416000 0.000000
-0.397200 0.000000
-0.378500 0.000000
-0.359800 0.000000
-0.341000 0.000000
-0.322300 0.000000
-0.303500 0.000000
-0.284800 0.000000
-0.266100 0.000000
-0.247300 0.000000
-0.228600 0.000000
-0.209800 0.000000
-0.191100 0.000000
-0.172400 0.000000
-0.153600 0.000000
-0.134900 0.000000
-0.116100 0.000000
-0.097400 0.000100
-0.078700 0.000600
-0.059900 0.003200
-0.041200 0.013000
-0.022500 0.040000
-0.003700 0.095000
0.015000 0.176100
0.033800 0.260300
0.052500 0.317600
0.071200 0.337600
0.090000 0.340500
0.108700 0.367900
0.127500 0.458300
0.146200 0.615100
0.164900 0.796900
0.183700 0.942600
0.202400 1.008700
0.221200 1.012700
0.239900 1.046600
0.258600 1.183900
0.277400 1.355500
0.296100 1.399400
0.314900 1.266700
0.333600 1.108700
0.352300 1.107000
0.371100 1.247500
0.389800 1.322800
0.408600 1.179300
0.427300 0.907100
0.446000 0.743300
0.464800 0.842300
0.483500 1.176000
0.502200 1.598600
0.521000 1.957300
0.539700 2.165200
0.558500 2.223200
0.577200 2.202400
0.595900 2.189700
0.614700 2.206300
0.633400 2.166500
0.652200 1.962100
0.670900 1.606300
0.689600 1.247300
0.708400 1.017000
0.727100 0.924000
0.745900 0.921600
0.764600 1.006000
0.783300 1.193400
0.802100 1.450600
0.820800 1.699600
0.839600 1.864300
0.858300 1.902100
0.877000 1.826400
0.895800 1.707200
0.914500 1.628600
0.933300 1.634700
0.952000 1.708400
0.970700 1.796300
0.989500 1.868500
1.008200 1.944900
1.026900 2.031000
1.045700 2.055900
1.064400 1.951700
1.083200 1.789500
1.101900 1.737300
1.120600 1.837400
1.139400 1.913300
1.158100 1.778500
1.176900 1.486400
1.195600 1.294800
1.214300 1.391500
1.233100 1.698600
1.251800 1.955400
1.270600 1.974900
1.289300 1.782000
1.308000 1.504200
1.326800 1.223100
1.345500 0.984500
1.364300 0.867900
1.383000 0.951800
1.401700 1.219500
1.420500 1.541000
1.439200 1.760900
1.458000 1.796900
1.476700 1.658400
1.495400 1.404100
1.514200 1.119600
1.532900 0.928500
1.551600 0.953100
1.570400 1.218000
1.589100 1.614700
1.607900 1.977400
1.626600 2.185400
1.645300 2.202200
1.664100 2.063400
1.682800 1.868900
1.701600 1.751300
1.720300 1.783500
1.739000 1.919500
1.757800 2.064600
1.776500 2.164700
1.795300 2.186400
1.814000 2.082600
1.832700 1.859000
1.851500 1.625800
1.870200 1.517100
1.889000 1.579800
1.907700 1.762000
1.926400 1.977700
1.945200 2.148500
1.963900 2.196200
1.982700 2.058900
2.001400 1.773400
2.020100 1.519800
2.038900 1.527200
2.057600 1.888000
2.076300 2.444800
2.095100 2.884100
2.113800 2.986400
2.132600 2.795200
2.151300 2.538300
2.170000 2.394300
2.188800 2.372400
2.207500 2.415100
2.226300 2.525600
2.245000 2.734200
2.263700 3.015200
2.282500 3.293700
2.301200 3.468300
2.320000 3.415900
2.338700 3.078100
2.357400 2.582300
2.376200 2.208200
2.394900 2.174300
2.413700 2.443700
2.432400 2.759200
2.451100 2.881500
2.469900 2.771400
2.488600 2.553100
2.507400 2.369600
2.526100 2.306400
2.544800 2.400500
2.563600 2.650600
2.582300 2.984500
2.601000 3.237500
2.619800 3.238300
2.638500 2.966400
2.657300 2.590600
2.676000 2.299900
2.694700 2.135700
2.713500 2.056800
2.732200 2.100700
2.751000 2.337200
2.769700 2.692700
2.788400 2.980300
2.807200 3.113700
2.825900 3.155200
2.844700 3.153700
2.863400 3.081300
2.882100 2.938900
2.900900 2.787700
2.919600 2.658700
2.938400 2.534100
2.957100 2.413600
2.975800 2.314000
2.994600 2.212300
3.013300 2.064500
3.032100 1.879300
3.050800 1.720800
3.069500 1.653600
3.088300 1.722800
3.107000 1.935000
3.125700 2.190500
3.144500 2.306300
3.163200 2.213400
3.182000 2.084900
3.200700 2.150000
3.219400 2.396300
3.238200 2.557200
3.256900 2.402100
3.275700 1.962800
3.294400 1.463300
3.313100 1.108200
3.331900 0.974000
3.350600 1.036400
3.369400 1.226500
3.388100 1.451700
3.406800 1.613000
3.425600 1.651000
3.444300 1.579900
3.463100 1.459600
3.481800 1.336800
3.500500 1.220200
3.519300 1.124100
3.538000 1.122100
3.556800 1.294900
3.575500 1.597800
3.594200 1.843200
3.613000 1.868700
3.631700 1.698400
3.650400 1.513200
3.669200 1.473400
3.687900 1.583100
3.706700 1.719400
3.725400 1.777500
3.744100 1.764400
3.762900 1.755400
3.781600 1.799600
3.800400 1.898700
3.819100 2.049500
3.837800 2.270200
3.856600 2.564800
3.875300 2.844000
3.894100 2.920100
3.912800 2.690700
3.931500 2.320100
3.950300 2.110400
3.969000 2.176200
3.987800 2.352000
4.006500 2.431800
4.025200 2.397000
4.044000 2.371100
4.062700 2.423300
4.081500 2.486500
4.100200 2.467000
4.118900 2.394000
4.137700 2.409600
4.156400 2.616200
4.175100 2.997300
4.193900 3.464900
4.212600 3.898200
4.231400 4.172900
4.250100 4.243800
4.268800 4.139800
4.287600 3.841700
4.306300 3.290700
4.325100 2.559200
4.343800 1.892400
4.362500 1.530900
4.381300 1.541800
4.400000 1.809600
4.418800 2.137600
4.437500 2.365000
4.456200 2.406600
4.475000 2.231800
4.493700 1.884200
4.512500 1.502800
4.531200 1.233400
4.549900 1.128100
4.568700 1.175000
4.587400 1.377100
4.606100 1.734900
4.624900 2.155900
4.643600 2.440600
4.662400 2.417600
4.681100 2.104400
4.699800 1.706200
4.718600 1.442600
4.737300 1.401700
4.756100 1.545200
4.774800 1.776100
4.793500 1.966600
4.812300 1.999900
4.831000 1.878000
4.849800 1.759800
4.868500 1.806600
4.887200 2.014000
4.906000 2.252000
4.924700 2.421600
4.943500 2.510300
4.962200 2.532700
4.980900 2.479400
4.999700 2.344400
5.018400 2.172000
5.037200 2.022500
5.055900 1.906100
5.074600 1.801100
5.093400 1.739200
5.112100 1.816500
5.130800 2.086400
5.149600 2.474000
5.168300 2.836100
5.187100 3.076500
5.205800 3.179500
5.224500 3.169800
5.243300 3.064900
5.262000 2.867100
5.280800 2.613300
5.299500 2.384000
5.318200 2.220100
5.337000 2.079400
5.355700 1.904100
5.374500 1.678400
5.393200 1.411500
5.411900 1.117200
5.430700 0.837000
5.449400 0.649500
5.468200 0.624700
5.486900 0.766900
5.505600 1.007500
5.524400 1.246200
5.543100 1.414100
5.561900 1.517200
5.580600 1.614100
5.599300 1.742800
5.618100 1.886900
5.636800 2.002600
5.655500 2.054600
5.674300 2.039800
5.693000 1.994900
5.711800 1.958900
5.730500 1.934500
5.749200 1.913500
5.768000 1.920100
5.786700 1.980400
5.805500 2.054100
5.824200 2.051700
5.842900 1.943700
5.861700 1.809000
5.880400 1.752300
5.899200 1.810300
5.917900 1.976300
5.936600 2.279500
5.955400 2.744100
5.974100 3.248000
5.992900 3.536000
6.011600 3.473700
6.030300 3.212300
6.049100 3.021100
6.067800 3.027300
6.086600 3.175300
6.105300 3.346200
6.124000 3.420300
6.142800 3.285400
6.161500 2.912100
6.180200 2.419800
6.199000 1.976600
6.217700 1.650100
6.236500 1.423100
6.255200 1.324000
6.273900 1.467900
6.292700 1.944800
6.311400 2.669800
6.330200 3.354800
6.348900 3.663700
6.367600 3.453100
6.386400 2.889800
6.405100 2.308600
6.423900 1.943900
6.442600 1.813700
6.461300 1.822200
6.480100 1.901000
6.498800 2.060500
6.517600 2.355800
6.536300 2.793100
6.555000 3.249100
6.573800 3.541900
6.592500 3.621100
6.611300 3.606100
6.630000 3.585300
6.648700 3.479500
6.667500 3.194800
6.686200 2.814900
6.704900 2.522900
6.723700 2.393700
6.742400 2.364000
6.761200 2.360600
6.779900 2.387300
6.798600 2.519000
6.817400 2.851200
6.836100 3.420400
6.854900 4.119000
6.873600 4.686700
6.892300 4.858400
6.911100 4.581700
6.929800 4.055400
6.948600 3.540400
6.967300 3.198100
6.986000 3.077200
7.004800 3.119700
7.023500 3.169700
7.042300 3.091900
7.061000 2.903500
7.079700 2.728400
7.098500 2.613800
7.117200 2.472200
7.136000 2.231700
7.154700 1.963600
7.173400 1.806100
7.192200 1.820200
7.210900 1.977300
7.229600 2.258600
7.248400 2.692400
7.267100 3.253000
7.285900 3.770400
7.304600 4.028600
7.323300 3.957400
7.342100 3.659100
7.360800 3.262700
7.379600 2.847800
7.398300 2.510400
7.417000 2.391500
7.435800 2.569600
7.454500 2.951400
7.473300 3.347900
7.492000 3.673200
7.510700 3.980200
7.529500 4.279600
7.548200 4.441200
7.567000 4.342100
7.585700 4.030100
7.604400 3.664300
7.623200 3.344500
7.641900 3.082600
7.660700 2.896300
7.679400 2.825700
7.698100 2.875600
7.716900 3.025400
7.735600 3.282600
7.754300 3.661200
7.773100 4.100800
7.791800 4.453400
7.810600 4.567500
7.829300 4.374000
7.848000 3.910400
7.866800 3.302400
7.885500 2.721800
7.904300 2.327900
7.923000 2.221900
7.941700 2.407500
7.960500 2.761500
7.979200 3.080100
7.998000 3.194600
8.016700 3.045100
8.035400 2.680300
8.054200 2.232600
8.072900 1.865200
8.091700 1.682700
8.110400 1.697200
8.129100 1.881000
8.147900 2.168500
8.166600 2.412300
8.185400 2.490700
8.204100 2.489000
8.222800 2.624500
8.241600 2.950400
8.260300 3.253700
8.279000 3.291500
8.297800 3.044500
8.316500 2.684100
8.335300 2.362700
8.354000 2.106500
8.372700 1.866700
8.391500 1.621100
8.410200 1.448000
8.429000 1.506300
8.447700 1.877400
8.466400 2.390300
8.485200 2.683200
8.503900 2.532800
8.522700 2.087600
8.541400 1.700800
8.560100 1.598900
8.578900 1.780800
8.597600 2.121700
8.616400 2.442800
8.635100 2.550700
8.653800 2.358500
8.672600 1.980900
8.691300 1.625700
8.710100 1.384400
8.728800 1.201900
8.747500 1.035600
8.766300 0.954800
8.785000 1.052200
8.803700 1.302400
8.822500 1.546800
8.841200 1.627700
8.860000 1.518700
8.878700 1.318900
8.897400 1.162500
8.916200 1.151600
8.934900 1.320800
8.953700 1.613900
8.972400 1.894500
8.991100 2.010600
9.009900 1.888600
9.028600 1.580700
9.047400 1.219400
9.066100 0.934000
9.084800 0.797400
9.103600 0.807100
9.122300 0.888800
9.141100 0.937700
9.159800 0.886400
9.178500 0.747900
9.197300 0.593600
9.216000 0.495000
9.234800 0.489400
9.253500 0.578200
9.272200 0.719400
9.291000 0.832500
9.309700 0.858400
9.328400 0.837700
9.347200 0.891500
9.365900 1.082100
9.384700 1.309800
9.403400 1.410500
9.422100 1.352800
9.440900 1.274500
9.459600 1.318800
9.478400 1.502300
9.497100 1.745200
9.515800 1.972500
9.534600 2.181900
9.553300 2.432800
9.572100 2.747700
9.590800 3.017500
9.609500 3.057100
9.628300 2.776400
9.647000 2.271400
9.665800 1.750600
9.684500 1.397100
9.703200 1.290700
9.722000 1.403100
9.740700 1.641300
9.759500 1.921800
9.778200 2.211600
9.796900 2.480100
9.815700 2.645300
9.834400 2.632200
9.853100 2.469800
9.871900 2.271000
9.890600 2.136500
9.909400 2.116400
9.928100 2.221400
9.946800 2.435500
9.965600 2.751100
9.984300 3.163800
10.003100 3.564300
10.021800 3.707800
10.040500 3.412100
10.059300 2.748200
10.078000 1.965600
10.096800 1.290600
10.115500 0.832900
10.134200 0.611700
10.153000 0.619400
10.171700 0.862200
10.190500 1.332100
10.209200 1.932300
10.227900 2.463400
10.246700 2.741400
10.265400 2.767300
10.284200 2.765500
10.302900 2.979600
10.321600 3.390700
10.340400 3.687100
10.359100 3.560200
10.377800 2.991800
10.396600 2.229700
10.415300 1.557800
10.434100 1.154200
10.452800 1.091600
10.471500 1.339700
10.490300 1.750200
10.509000 2.115400
10.527800 2.299500
10.546500 2.309600
10.565200 2.227100
10.584000 2.107200
10.602700 1.990400
10.621500 1.951000
10.640200 2.054000
