set title 'mp-1180050 - Density of States'
set xlabel 'Energy (eV)'
set ylabel 'DOS (states/eV)'
set grid
set xrange [-10:10]
set yrange [0:15.126]
set xzeroaxis lt -1
set terminal png size 800,600
set output 'mp-1180050_dos_gnuplot.png'
plot '-' using 1:2 with lines title 'DOS'
-29.788000 0.000000
-29.759800 0.000000
-29.731600 0.000000
-29.703400 0.000000
-29.675200 0.000000
-29.647000 0.000000
-29.618800 0.000000
-29.590500 0.000000
-29.562300 0.000000
-29.534100 0.000000
-29.505900 0.000000
-29.477700 0.000000
-29.449500 0.000000
-29.421200 0.000000
-29.393000 0.000000
-29.364800 0.000000
-29.336600 0.000000
-29.308400 0.000000
-29.280200 0.000000
-29.252000 0.000000
-29.223700 0.000000
-29.195500 0.000000
-29.167300 0.000000
-29.139100 0.000000
-29.110900 0.000000
-29.082700 0.000000
-29.054400 0.000000
-29.026200 0.000000
-28.998000 0.000000
-28.969800 0.000000
-28.941600 0.000000
-28.913400 0.000000
-28.885200 0.000000
-28.856900 0.000000
-28.828700 0.000000
-28.800500 0.000000
-28.772300 0.000000
-28.744100 0.000000
-28.715900 0.000000
-28.687600 0.000000
-28.659400 0.000000
-28.631200 0.000000
-28.603000 0.000000
-28.574800 0.000000
-28.546600 0.000000
-28.518400 0.000000
-28.490100 0.000000
-28.461900 0.000000
-28.433700 0.000000
-28.405500 0.000000
-28.377300 0.000000
-28.349100 0.000000
-28.320800 0.000000
-28.292600 0.000000
-28.264400 0.000000
-28.236200 0.000000
-28.208000 0.000000
-28.179800 0.000000
-28.151600 0.000000
-28.123300 0.000000
-28.095100 0.000000
-28.066900 0.000000
-28.038700 0.000000
-28.010500 0.000000
-27.982300 0.000000
-27.954000 0.000000
-27.925800 0.000000
-27.897600 0.000000
-27.869400 0.000000
-27.841200 0.000000
-27.813000 0.000000
-27.784800 0.000000
-27.756500 0.000000
-27.728300 0.000000
-27.700100 0.000000
-27.671900 0.000000
-27.643700 0.000000
-27.615500 0.000000
-27.587200 0.000000
-27.559000 0.000000
-27.530800 0.000000
-27.502600 0.000000
-27.474400 0.000000
-27.446200 0.000000
-27.418000 0.000000
-27.389700 0.000000
-27.361500 0.000000
-27.333300 0.000000
-27.305100 0.000000
-27.276900 0.000000
-27.248700 0.000000
-27.220400 1.057400
-27.192200 16.913400
-27.164000 12.392000
-27.135800 9.823100
-27.107600 9.672200
-27.079400 26.338000
-27.051200 39.244800
-27.022900 28.636100
-26.994700 0.000000
-26.966500 0.000000
-26.938300 0.000000
-26.910100 0.000000
-26.881900 0.000000
-26.853600 0.000000
-26.825400 0.000000
-26.797200 0.000000
-26.769000 0.000000
-26.740800 0.000000
-26.712600 0.000000
-26.684400 0.000000
-26.656100 0.000000
-26.627900 0.000000
-26.599700 0.000000
-26.571500 0.000000
-26.543300 0.000000
-26.515100 0.000000
-26.486900 0.000000
-26.458600 0.000000
-26.430400 0.000000
-26.402200 0.000000
-26.374000 0.000000
-26.345800 0.000000
-26.317600 0.000000
-26.289300 0.000000
-26.261100 0.000000
-26.232900 0.000000
-26.204700 0.000000
-26.176500 0.000000
-26.148300 0.000000
-26.120100 0.000000
-26.091800 0.000000
-26.063600 0.000000
-26.035400 0.000000
-26.007200 0.000000
-25.979000 0.000000
-25.950800 0.000000
-25.922500 0.000000
-25.894300 0.000000
-25.866100 0.000000
-25.837900 0.000000
-25.809700 0.000000
-25.781500 0.000000
-25.753300 0.000000
-25.725000 0.000000
-25.696800 0.000000
-25.668600 0.000000
-25.640400 0.000000
-25.612200 0.000000
-25.584000 0.000000
-25.555700 0.000000
-25.527500 0.000000
-25.499300 0.000000
-25.471100 0.000000
-25.442900 0.000000
-25.414700 0.000000
-25.386500 0.000000
-25.358200 0.000000
-25.330000 0.000000
-25.301800 0.000000
-25.273600 0.000000
-25.245400 0.000000
-25.217200 0.000000
-25.188900 0.000000
-25.160700 0.000000
-25.132500 0.000000
-25.104300 0.000000
-25.076100 0.000000
-25.047900 0.000000
-25.019700 0.000000
-24.991400 0.000000
-24.963200 0.000000
-24.935000 0.000000
-24.906800 0.000000
-24.878600 0.000000
-24.850400 0.000000
-24.822100 0.000000
-24.793900 0.000000
-24.765700 0.000000
-24.737500 0.000000
-24.709300 0.000000
-24.681100 0.000000
-24.652900 0.000000
-24.624600 0.000000
-24.596400 0.000000
-24.568200 0.000000
-24.540000 0.000000
-24.511800 0.000000
-24.483600 0.000000
-24.455300 0.000000
-24.427100 0.000000
-24.398900 0.000000
-24.370700 0.000000
-24.342500 0.000000
-24.314300 0.000000
-24.286100 0.000000
-24.257800 0.000000
-24.229600 0.000000
-24.201400 0.000000
-24.173200 0.000000
-24.145000 0.000000
-24.116800 0.000000
-24.088500 0.000000
-24.060300 0.000000
-24.032100 0.000000
-24.003900 0.000000
-23.975700 0.000000
-23.947500 0.000000
-23.919300 0.000000
-23.891000 0.000000
-23.862800 0.000000
-23.834600 0.000000
-23.806400 0.000000
-23.778200 0.000000
-23.750000 0.000000
-23.721700 0.000000
-23.693500 0.000000
-23.665300 0.000000
-23.637100 0.000000
-23.608900 0.000000
-23.580700 0.000000
-23.552500 0.000000
-23.524200 0.000000
-23.496000 0.000000
-23.467800 0.000000
-23.439600 0.000000
-23.411400 0.000000
-23.383200 0.000000
-23.354900 0.000000
-23.326700 0.000000
-23.298500 0.000000
-23.270300 0.000000
-23.242100 0.000000
-23.213900 0.000000
-23.185700 0.000000
-23.157400 0.000000
-23.129200 0.000000
-23.101000 0.000000
-23.072800 0.000000
-23.044600 0.000000
-23.016400 0.000000
-22.988200 0.000000
-22.959900 0.000000
-22.931700 0.000000
-22.903500 0.000000
-22.875300 0.000000
-22.847100 0.000000
-22.818900 0.000000
-22.790600 0.000000
-22.762400 0.000000
-22.734200 0.000000
-22.706000 0.000000
-22.677800 0.000000
-22.649600 0.000000
-22.621400 0.000000
-22.593100 0.000000
-22.564900 0.000000
-22.536700 0.000000
-22.508500 0.000000
-22.480300 0.000000
-22.452100 0.000000
-22.423800 0.000000
-22.395600 0.000000
-22.367400 0.000000
-22.339200 0.000000
-22.311000 0.000000
-22.282800 0.000000
-22.254600 0.000000
-22.226300 0.000000
-22.198100 0.000000
-22.169900 0.000000
-22.141700 0.000000
-22.113500 0.000000
-22.085300 0.000000
-22.057000 0.000000
-22.028800 0.000000
-22.000600 0.000000
-21.972400 0.000000
-21.944200 0.000000
-21.916000 0.000000
-21.887800 0.000000
-21.859500 0.000000
-21.831300 0.000000
-21.803100 0.000000
-21.774900 0.000000
-21.746700 0.000000
-21.718500 0.000000
-21.690200 0.000000
-21.662000 0.000000
-21.633800 0.000000
-21.605600 0.000000
-21.577400 0.000000
-21.549200 0.000000
-21.521000 0.000000
-21.492700 0.000000
-21.464500 0.000000
-21.436300 0.000000
-21.408100 0.000000
-21.379900 0.000000
-21.351700 0.000000
-21.323400 0.000000
-21.295200 0.000000
-21.267000 0.000000
-21.238800 0.000000
-21.210600 0.000000
-21.182400 0.000000
-21.154200 0.000000
-21.125900 0.000000
-21.097700 0.000000
-21.069500 0.000000
-21.041300 0.000000
-21.013100 0.000000
-20.984900 0.000000
-20.956600 0.000000
-20.928400 0.000000
-20.900200 0.000000
-20.872000 0.000000
-20.843800 0.000000
-20.815600 0.000000
-20.787400 0.000000
-20.759100 0.000000
-20.730900 0.000000
-20.702700 0.000000
-20.674500 0.000000
-20.646300 0.000000
-20.618100 0.000000
-20.589800 0.000000
-20.561600 0.000000
-20.533400 0.000000
-20.505200 0.000000
-20.477000 0.000000
-20.448800 0.000000
-20.420600 0.188500
-20.392300 2.896300
-20.364100 2.697400
-20.335900 3.178800
-20.307700 3.448800
-20.279500 2.760700
-20.251300 2.073300
-20.223000 1.871100
-20.194800 1.693100
-20.166600 1.799200
-20.138400 2.915300
-20.110200 3.619800
-20.082000 3.853100
-20.053800 4.772900
-20.025500 4.846900
-19.997300 3.351000
-19.969100 3.093700
-19.940900 2.926000
-19.912700 2.723100
-19.884500 2.474600
-19.856200 2.474600
-19.828000 2.443600
-19.799800 2.288400
-19.771600 2.168500
-19.743400 2.048000
-19.715200 1.900200
-19.687000 1.852600
-19.658700 1.852600
-19.630500 1.852600
-19.602300 1.852600
-19.574100 1.852200
-19.545900 1.817100
-19.517700 1.769300
-19.489400 1.685900
-19.461200 1.603000
-19.433000 1.527200
-19.404800 1.502100
-19.376600 1.497000
-19.348400 1.497000
-19.320200 1.497000
-19.291900 1.497100
-19.263700 1.497100
-19.235500 1.497100
-19.207300 1.469600
-19.179100 1.440500
-19.150900 1.414700
-19.122700 1.367400
-19.094400 1.320000
-19.066200 1.301700
-19.038000 1.280900
-19.009800 1.272000
-18.981600 1.272000
-18.953400 1.272000
-18.925100 1.272000
-18.896900 1.272000
-18.868700 1.272000
-18.840500 1.272000
-18.812300 1.262800
-18.784100 1.240100
-18.755900 1.222900
-18.727600 1.201700
-18.699400 1.178600
-18.671200 2.566800
-18.643000 2.900300
-18.614800 1.516100
-18.586600 0.565800
-18.558300 0.565800
-18.530100 0.565800
-18.501900 0.565800
-18.473700 0.565800
-18.445500 0.565800
-18.417300 0.565800
-18.389100 0.565800
-18.360800 0.565800
-18.332600 0.967400
-18.304400 2.341400
-18.276200 2.353300
-18.248000 0.408000
-18.219800 0.000000
-18.191500 1.456600
-18.163300 3.047400
-18.135100 1.026300
-18.106900 0.529700
-18.078700 0.529700
-18.050500 0.529700
-18.022300 0.529700
-17.994000 0.529700
-17.965800 0.529700
-17.937600 0.529700
-17.909400 0.529700
-17.881200 0.529700
-17.853000 0.529700
-17.824700 0.529700
-17.796500 1.010800
-17.768300 2.598500
-17.740100 2.780600
-17.711900 1.184800
-17.683700 0.981600
-17.655500 0.979800
-17.627200 0.978600
-17.599000 0.978500
-17.570800 0.978500
-17.542600 0.978500
-17.514400 0.978500
-17.486200 0.978500
-17.457900 0.978500
-17.429700 0.978500
-17.401500 0.978500
-17.373300 0.978500
-17.345100 0.978500
-17.316900 0.978500
-17.288700 0.978500
-17.260400 0.978500
-17.232200 0.978500
-17.204000 0.972800
-17.175800 0.971000
-17.147600 0.975100
-17.119400 0.978400
-17.091100 0.977700
-17.062900 0.977700
-17.034700 0.977700
-17.006500 0.977700
-16.978300 0.977700
-16.950100 0.977700
-16.921900 0.977700
-16.893600 0.977700
-16.865400 0.977700
-16.837200 0.977700
-16.809000 0.977700
-16.780800 0.977700
-16.752600 0.977700
-16.724300 0.977700
-16.696100 0.977700
-16.667900 1.022300
-16.639700 1.057800
-16.611500 1.057800
-16.583300 1.056700
-16.555100 1.052800
-16.526800 1.050300
-16.498600 1.047200
-16.470400 1.046600
-16.442200 1.046600
-16.414000 1.046600
-16.385800 1.046600
-16.357500 1.046600
-16.329300 1.046600
-16.301100 1.046600
-16.272900 1.054200
-16.244700 1.158400
-16.216500 1.232800
-16.188300 1.232800
-16.160000 1.232800
-16.131800 1.232700
-16.103600 1.232700
-16.075400 1.232700
-16.047200 1.232700
-16.019000 1.232700
-15.990700 1.232700
-15.962500 1.232600
-15.934300 1.353400
-15.906100 1.697200
-15.877900 1.727400
-15.849700 1.731400
-15.821500 1.731200
-15.793200 1.731100
-15.765000 1.730900
-15.736800 2.243900
-15.708600 3.468500
-15.680400 3.870300
-15.652200 2.762900
-15.624000 0.661700
-15.595700 0.427400
-15.567500 0.427400
-15.539300 0.427400
-15.511100 0.427400
-15.482900 0.427400
-15.454700 0.427400
-15.426400 0.427400
-15.398200 0.427400
-15.370000 0.427400
-15.341800 0.427400
-15.313600 0.428600
-15.285400 0.450700
-15.257200 0.467800
-15.228900 0.485800
-15.200700 0.486100
-15.172500 0.486100
-15.144300 0.486100
-15.116100 0.486100
-15.087900 0.486100
-15.059600 0.486100
-15.031400 0.486100
-15.003200 0.486100
-14.975000 0.486100
-14.946800 0.486100
-14.918600 0.486100
-14.890400 0.486100
-14.862100 0.486100
-14.833900 0.486100
-14.805700 0.486100
-14.777500 0.486100
-14.749300 0.531800
-14.721100 0.596700
-14.692800 0.665400
-14.664600 0.681600
-14.636400 0.681600
-14.608200 0.681600
-14.580000 0.681600
-14.551800 0.681600
-14.523600 0.681600
-14.495300 0.681600
-14.467100 0.681600
-14.438900 6.146600
-14.410700 8.536500
-14.382500 9.261300
-14.354300 7.751900
-14.326000 6.916300
-14.297800 6.586200
-14.269600 6.455300
-14.241400 6.042400
-14.213200 5.413400
-14.185000 4.503700
-14.156800 3.833300
-14.128500 3.848400
-14.100300 3.847700
-14.072100 3.841600
-14.043900 4.588700
-14.015700 4.796000
-13.987500 6.329500
-13.959200 6.755300
-13.931000 2.099800
-13.902800 0.934800
-13.874600 0.934800
-13.846400 0.934700
-13.818200 0.934700
-13.790000 0.929700
-13.761700 0.908900
-13.733500 0.879900
-13.705300 0.821400
-13.677100 0.792300
-13.648900 0.777300
-13.620700 0.777300
-13.592400 0.777300
-13.564200 0.777300
-13.536000 0.777300
-13.507800 0.777300
-13.479600 0.777400
-13.451400 0.776300
-13.423200 0.771200
-13.394900 0.765000
-13.366700 0.754000
-13.338500 0.744600
-13.310300 0.741600
-13.282100 0.741600
-13.253900 0.741600
-13.225600 0.741600
-13.197400 0.741700
-13.169200 0.741700
-13.141000 0.741700
-13.112800 0.741700
-13.084600 0.748200
-13.056400 0.767600
-13.028100 0.795400
-12.999900 0.858900
-12.971700 0.903400
-12.943500 0.909000
-12.915300 0.909000
-12.887100 0.909100
-12.858800 0.909100
-12.830600 0.909100
-12.802400 0.909200
-12.774200 1.035600
-12.746000 1.241900
-12.717800 1.566900
-12.689600 2.212000
-12.661300 2.130600
-12.633100 1.796200
-12.604900 1.284900
-12.576700 0.040600
-12.548500 0.000000
-12.520300 0.000000
-12.492000 0.000000
-12.463800 0.000000
-12.435600 0.000000
-12.407400 0.000000
-12.379200 0.000000
-12.351000 0.000000
-12.322800 0.000000
-12.294500 0.000000
-12.266300 0.000000
-12.238100 0.000000
-12.209900 0.000000
-12.181700 0.000000
-12.153500 0.000000
-12.125200 0.000000
-12.097000 0.000000
-12.068800 0.000000
-12.040600 0.000000
-12.012400 0.000000
-11.984200 0.000000
-11.956000 0.000000
-11.927700 0.000000
-11.899500 0.000000
-11.871300 0.000000
-11.843100 0.000000
-11.814900 0.000000
-11.786700 0.000000
-11.758500 0.000000
-11.730200 0.000000
-11.702000 0.000000
-11.673800 0.000000
-11.645600 0.000000
-11.617400 0.000000
-11.589200 0.000000
-11.560900 0.000000
-11.532700 0.000000
-11.504500 0.000000
-11.476300 0.000000
-11.448100 0.000000
-11.419900 0.000000
-11.391700 0.000000
-11.363400 0.000000
-11.335200 0.000000
-11.307000 0.000000
-11.278800 0.000000
-11.250600 0.000000
-11.222400 0.000000
-11.194100 0.000000
-11.165900 0.000000
-11.137700 0.000000
-11.109500 0.000000
-11.081300 0.000000
-11.053100 0.000000
-11.024900 0.000000
-10.996600 0.000000
-10.968400 0.000000
-10.940200 0.000000
-10.912000 0.000000
-10.883800 0.000000
-10.855600 0.000000
-10.827300 0.000000
-10.799100 0.000000
-10.770900 0.000000
-10.742700 0.000000
-10.714500 0.000000
-10.686300 0.000000
-10.658100 0.000000
-10.629800 0.000000
-10.601600 0.000000
-10.573400 0.000000
-10.545200 0.000000
-10.517000 0.000000
-10.488800 0.000000
-10.460500 0.000000
-10.432300 0.000000
-10.404100 0.000000
-10.375900 0.000000
-10.347700 0.000000
-10.319500 0.000000
-10.291300 0.000000
-10.263000 0.000000
-10.234800 0.000000
-10.206600 0.000000
-10.178400 0.000000
-10.150200 0.000000
-10.122000 0.000000
-10.093700 0.000000
-10.065500 0.000000
-10.037300 0.000000
-10.009100 0.000000
-9.980900 0.000000
-9.952700 0.000000
-9.924500 0.000000
-9.896200 0.000000
-9.868000 0.000000
-9.839800 0.000000
-9.811600 0.000000
-9.783400 0.000000
-9.755200 0.000000
-9.726900 0.000000
-9.698700 0.000000
-9.670500 0.000000
-9.642300 0.000000
-9.614100 0.000000
-9.585900 0.000000
-9.557700 0.000000
-9.529400 0.000000
-9.501200 0.000000
-9.473000 0.000000
-9.444800 0.000000
-9.416600 0.000000
-9.388400 0.000000
-9.360100 0.000000
-9.331900 0.000000
-9.303700 0.000000
-9.275500 0.000000
-9.247300 0.000000
-9.219100 0.000000
-9.190900 0.000000
-9.162600 0.000000
-9.134400 0.000000
-9.106200 0.000000
-9.078000 0.000000
-9.049800 0.000000
-9.021600 0.000000
-8.993300 0.000000
-8.965100 0.000000
-8.936900 0.000000
-8.908700 0.000000
-8.880500 0.000000
-8.852300 0.000000
-8.824100 0.000000
-8.795800 0.000000
-8.767600 0.000000
-8.739400 0.696400
-8.711200 1.278600
-8.683000 2.611300
-8.654800 4.087200
-8.626500 6.825900
-8.598300 8.380700
-8.570100 7.944100
-8.541900 9.404000
-8.513700 9.050400
-8.485500 8.484700
-8.457300 7.638000
-8.429000 5.989700
-8.400800 5.194400
-8.372600 4.468500
-8.344400 3.960100
-8.316200 3.748400
-8.288000 3.643900
-8.259800 3.538000
-8.231500 3.452600
-8.203300 3.410200
-8.175100 3.373700
-8.146900 3.388300
-8.118700 3.498400
-8.090500 3.763600
-8.062200 4.011800
-8.034000 4.029900
-8.005800 3.692400
-7.977600 3.540300
-7.949400 3.608900
-7.921200 4.056300
-7.893000 1.482700
-7.864700 1.942100
-7.836500 2.976100
-7.808300 4.230700
-7.780100 6.042800
-7.751900 5.744700
-7.723700 6.325300
-7.695400 7.818500
-7.667200 8.870800
-7.639000 11.181900
-7.610800 11.111400
-7.582600 8.252800
-7.554400 8.770500
-7.526200 9.167800
-7.497900 9.935100
-7.469700 9.486900
-7.441500 8.253300
-7.413300 7.711500
-7.385100 7.663200
-7.356900 7.378700
-7.328600 6.501300
-7.300400 4.506600
-7.272200 2.982300
-7.244000 4.613000
-7.215800 7.243600
-7.187600 11.880000
-7.159400 13.750800
-7.131100 11.056200
-7.102900 8.674300
-7.074700 9.325000
-7.046500 9.232100
-7.018300 9.833500
-6.990100 11.205900
-6.961800 11.976900
-6.933600 10.656200
-6.905400 5.183100
-6.877200 4.112000
-6.849000 3.056700
-6.820800 1.720300
-6.792600 1.460100
-6.764300 1.116900
-6.736100 0.996300
-6.707900 1.231800
-6.679700 2.039000
-6.651500 2.535100
-6.623300 2.727700
-6.595000 2.666000
-6.566800 2.080200
-6.538600 1.508200
-6.510400 1.283200
-6.482200 1.237000
-6.454000 1.216900
-6.425800 1.186600
-6.397500 1.108000
-6.369300 1.057300
-6.341100 1.023500
-6.312900 0.997700
-6.284700 0.979100
-6.256500 0.976600
-6.228200 0.976600
-6.200000 0.976700
-6.171800 0.976700
-6.143600 0.965400
-6.115400 0.925600
-6.087200 0.864300
-6.059000 0.771600
-6.030700 0.766800
-6.002500 0.766800
-5.974300 0.766800
-5.946100 0.766800
-5.917900 0.766800
-5.889700 0.766900
-5.861400 0.766900
-5.833200 0.766900
-5.805000 0.764100
-5.776800 0.758000
-5.748600 0.749200
-5.720400 0.731100
-5.692200 0.718400
-5.663900 0.709800
-5.635700 0.706500
-5.607500 0.706500
-5.579300 0.706500
-5.551100 0.706500
-5.522900 0.706500
-5.494600 0.706500
-5.466400 0.706500
-5.438200 0.706500
-5.410000 0.706500
-5.381800 0.702500
-5.353600 0.682800
-5.325400 0.659900
-5.297100 0.659900
-5.268900 0.659900
-5.240700 0.659900
-5.212500 0.659900
-5.184300 0.659900
-5.156100 0.659900
-5.127800 0.659900
-5.099600 0.659900
-5.071400 0.659900
-5.043200 0.659900
-5.015000 0.662600
-4.986800 0.666000
-4.958600 0.671300
-4.930300 0.678900
-4.902100 0.682800
-4.873900 0.683800
-4.845700 0.683800
-4.817500 0.683800
-4.789300 0.683800
-4.761100 0.683800
-4.732800 0.683700
-4.704600 0.683700
-4.676400 0.683700
-4.648200 0.683700
-4.620000 0.683700
-4.591800 0.683700
-4.563500 0.683700
-4.535300 0.683700
-4.507100 0.688100
-4.478900 0.694500
-4.450700 0.694500
-4.422500 0.694500
-4.394300 0.694500
-4.366000 0.694500
-4.337800 0.694500
-4.309600 0.698600
-4.281400 0.711300
-4.253200 0.729500
-4.225000 0.757500
-4.196700 0.772700
-4.168500 0.783600
-4.140300 0.791000
-4.112100 0.790900
-4.083900 0.790900
-4.055700 0.790900
-4.027500 0.790900
-3.999200 0.790900
-3.971000 0.790800
-3.942800 0.790800
-3.914600 1.685600
-3.886400 2.279900
-3.858200 2.354500
-3.829900 2.282300
-3.801700 2.316100
-3.773500 2.367200
-3.745300 2.375800
-3.717100 2.383100
-3.688900 2.524300
-3.660700 2.693600
-3.632400 2.786200
-3.604200 2.831400
-3.576000 2.861800
-3.547800 2.898100
-3.519600 2.948400
-3.491400 3.004200
-3.463100 3.056300
-3.434900 3.058200
-3.406700 3.069000
-3.378500 3.019900
-3.350300 3.623400
-3.322100 4.048600
-3.293900 3.378200
-3.265600 3.167900
-3.237400 3.184900
-3.209200 3.734000
-3.181000 4.265500
-3.152800 4.785300
-3.124600 5.168500
-3.096300 5.135500
-3.068100 5.278900
-3.039900 6.247000
-3.011700 4.884900
-2.983500 3.980000
-2.955300 3.772000
-2.927100 3.604100
-2.898800 4.063200
-2.870600 4.170600
-2.842400 4.802900
-2.814200 4.429000
-2.786000 4.498300
-2.757800 4.582200
-2.729500 4.549300
-2.701300 4.624600
-2.673100 4.670700
-2.644900 4.670000
-2.616700 4.570600
-2.588500 4.707400
-2.560300 5.422600
-2.532000 5.418800
-2.503800 4.532500
-2.475600 3.620500
-2.447400 4.912000
-2.419200 7.292100
-2.391000 7.382400
-2.362700 6.853400
-2.334500 7.331400
-2.306300 7.563800
-2.278100 7.372900
-2.249900 8.109100
-2.221700 8.786300
-2.193500 7.607200
-2.165200 7.249700
-2.137000 6.481200
-2.108800 6.002500
-2.080600 11.333000
-2.052400 12.309500
-2.024200 13.390000
-1.995900 9.500600
-1.967700 7.715800
-1.939500 6.945300
-1.911300 5.247800
-1.883100 4.172800
-1.854900 3.735600
-1.826700 3.636300
-1.798400 3.849000
-1.770200 5.329900
-1.742000 5.444500
-1.713800 4.691600
-1.685600 4.305100
-1.657400 4.500200
-1.629100 4.764400
-1.600900 5.129600
