set title 'mp-1018100 - Density of States'
set xlabel 'Energy (eV)'
set ylabel 'DOS (states/eV)'
set grid
set xrange [-10:10]
set yrange [0:6.328]
set xzeroaxis lt -1
set terminal png size 800,600
set output 'mp-1018100_dos_gnuplot.png'
plot '-' using 1:2 with lines title 'DOS'
-7.716400 0.000000
-7.698300 0.000000
-7.680300 0.000000
-7.662300 0.000000
-7.644300 0.000000
-7.626300 0.000000
-7.608300 0.000000
-7.590300 0.000000
-7.572300 0.000000
-7.554300 0.000000
-7.536300 0.000000
-7.518200 0.000000
-7.500200 0.000000
-7.482200 0.000000
-7.464200 0.000000
-7.446200 0.000000
-7.428200 0.000000
-7.410200 0.000000
-7.392200 0.000000
-7.374200 0.000000
-7.356100 0.000000
-7.338100 0.000000
-7.320100 0.000000
-7.302100 0.000000
-7.284100 0.000000
-7.266100 0.000000
-7.248100 0.000000
-7.230100 0.000000
-7.212100 0.000000
-7.194000 0.000000
-7.176000 0.000000
-7.158000 0.000000
-7.140000 0.000000
-7.122000 0.000000
-7.104000 0.000000
-7.086000 0.000000
-7.068000 0.000000
-7.050000 0.000000
-7.031900 0.000000
-7.013900 0.000000
-6.995900 0.000000
-6.977900 0.000000
-6.959900 0.000000
-6.941900 0.000000
-6.923900 0.000000
-6.905900 0.000000
-6.887900 0.000000
-6.869800 0.000000
-6.851800 0.000000
-6.833800 0.000000
-6.815800 0.000000
-6.797800 0.000000
-6.779800 0.000000
-6.761800 0.000000
-6.743800 0.000000
-6.725800 0.000000
-6.707700 0.000000
-6.689700 0.000000
-6.671700 0.000000
-6.653700 0.000000
-6.635700 0.000000
-6.617700 0.000000
-6.599700 0.000000
-6.581700 0.000000
-6.563700 0.000000
-6.545600 0.000000
-6.527600 0.000000
-6.509600 0.000000
-6.491600 0.000000
-6.473600 0.000000
-6.455600 0.000000
-6.437600 0.000000
-6.419600 0.000000
-6.401600 0.000000
-6.383500 0.000000
-6.365500 0.000000
-6.347500 0.000000
-6.329500 0.000000
-6.311500 0.000000
-6.293500 0.000000
-6.275500 0.000000
-6.257500 0.000000
-6.239500 0.000000
-6.221400 0.000000
-6.203400 0.000000
-6.185400 0.000000
-6.167400 0.000000
-6.149400 0.000000
-6.131400 0.000000
-6.113400 0.000000
-6.095400 0.000000
-6.077400 0.000000
-6.059300 0.005200
-6.041300 0.019100
-6.023300 0.041700
-6.005300 0.073000
-5.987300 0.113000
-5.969300 0.161800
-5.951300 0.219300
-5.933300 0.284800
-5.915300 0.354600
-5.897200 0.428000
-5.879200 0.505100
-5.861200 0.575300
-5.843200 0.603700
-5.825200 0.627300
-5.807200 0.646100
-5.789200 0.660000
-5.771200 0.669100
-5.753200 0.673300
-5.735100 0.672800
-5.717100 0.696200
-5.699100 0.725900
-5.681100 0.756000
-5.663100 0.786500
-5.645100 0.817400
-5.627100 0.848700
-5.609100 0.880500
-5.591100 0.912700
-5.573000 0.945300
-5.555000 0.978200
-5.537000 1.011000
-5.519000 1.043200
-5.501000 1.075000
-5.483000 1.106400
-5.465000 1.137300
-5.447000 1.167400
-5.429000 1.196500
-5.410900 1.224500
-5.392900 1.251500
-5.374900 1.277400
-5.356900 1.306300
-5.338900 1.341700
-5.320900 1.374100
-5.302900 1.406800
-5.284900 1.439900
-5.266900 1.474700
-5.248800 1.511400
-5.230800 1.550000
-5.212800 1.590500
-5.194800 1.632900
-5.176800 1.677200
-5.158800 1.723000
-5.140800 1.769900
-5.122800 1.817900
-5.104800 1.867000
-5.086800 1.917100
-5.068700 1.968300
-5.050700 2.020600
-5.032700 2.076100
-5.014700 2.135400
-4.996700 2.198800
-4.978700 2.267800
-4.960700 2.343000
-4.942700 2.424200
-4.924700 2.511500
-4.906600 2.604900
-4.888600 2.704300
-4.870600 2.806200
-4.852600 2.902100
-4.834600 3.511300
-4.816600 4.042800
-4.798600 4.138600
-4.780600 4.175400
-4.762600 4.205700
-4.744500 3.881100
-4.726500 3.632900
-4.708500 3.644200
-4.690500 3.653000
-4.672500 3.650800
-4.654500 3.637800
-4.636500 3.613900
-4.618500 3.579200
-4.600500 3.562900
-4.582400 3.550700
-4.564400 3.536800
-4.546400 3.542400
-4.528400 3.569000
-4.510400 3.684400
-4.492400 3.816700
-4.474400 3.891400
-4.456400 3.918700
-4.438400 3.923900
-4.420300 3.908400
-4.402300 3.872200
-4.384300 3.815100
-4.366300 3.763200
-4.348300 4.073000
-4.330300 4.680400
-4.312300 5.012000
-4.294300 4.858200
-4.276300 5.116000
-4.258200 4.525700
-4.240200 3.757600
-4.222200 2.811800
-4.204200 1.675300
-4.186200 0.212800
-4.168200 0.000000
-4.150200 0.000000
-4.132200 0.000000
-4.114200 0.000000
-4.096100 0.000000
-4.078100 0.000000
-4.060100 0.000000
-4.042100 0.000000
-4.024100 0.000000
-4.006100 0.000000
-3.988100 0.000000
-3.970100 0.000000
-3.952100 0.000000
-3.934000 0.000000
-3.916000 0.000000
-3.898000 0.000000
-3.880000 0.000000
-3.862000 0.000000
-3.844000 0.000000
-3.826000 0.000000
-3.808000 0.000000
-3.790000 0.000000
-3.771900 0.000000
-3.753900 0.000000
-3.735900 0.000000
-3.717900 0.000000
-3.699900 0.000000
-3.681900 0.000000
-3.663900 0.000000
-3.645900 0.000000
-3.627900 0.000000
-3.609800 0.000000
-3.591800 0.000000
-3.573800 0.000000
-3.555800 0.000000
-3.537800 0.000000
-3.519800 0.000000
-3.501800 0.000000
-3.483800 0.000000
-3.465800 0.000000
-3.447700 0.000000
-3.429700 0.000000
-3.411700 0.000000
-3.393700 0.000000
-3.375700 0.000000
-3.357700 0.000000
-3.339700 0.000000
-3.321700 0.000000
-3.303700 0.000000
-3.285600 0.000000
-3.267600 0.000000
-3.249600 0.000000
-3.231600 0.000000
-3.213600 0.000000
-3.195600 0.000000
-3.177600 0.000000
-3.159600 0.000000
-3.141600 0.000000
-3.123500 0.000000
-3.105500 0.000000
-3.087500 0.000000
-3.069500 0.000000
-3.051500 0.000000
-3.033500 0.000000
-3.015500 0.000000
-2.997500 0.000000
-2.979500 0.000000
-2.961400 0.000000
-2.943400 0.000000
-2.925400 0.000000
-2.907400 0.000000
-2.889400 0.000000
-2.871400 0.000000
-2.853400 0.000000
-2.835400 0.000000
-2.817400 0.000000
-2.799400 0.000000
-2.781300 0.000000
-2.763300 0.000000
-2.745300 0.000000
-2.727300 0.000000
-2.709300 0.000000
-2.691300 0.000000
-2.673300 0.000000
-2.655300 0.000000
-2.637300 0.000000
-2.619200 0.000000
-2.601200 0.000000
-2.583200 0.000000
-2.565200 0.000000
-2.547200 0.000000
-2.529200 0.000000
-2.511200 0.000000
-2.493200 0.000000
-2.475200 0.000000
-2.457100 0.000000
-2.439100 0.000000
-2.421100 0.000000
-2.403100 0.000000
-2.385100 0.000000
-2.367100 0.000000
-2.349100 0.000000
-2.331100 0.000000
-2.313100 0.000000
-2.295000 0.000000
-2.277000 0.000000
-2.259000 0.000000
-2.241000 0.000000
-2.223000 0.000000
-2.205000 0.000000
-2.187000 0.000000
-2.169000 0.000000
-2.151000 0.000000
-2.132900 0.000000
-2.114900 0.000000
-2.096900 0.000000
-2.078900 0.000000
-2.060900 0.000000
-2.042900 0.000000
-2.024900 0.000000
-2.006900 0.000000
-1.988900 0.000000
-1.970800 0.000000
-1.952800 0.000000
-1.934800 0.000000
-1.916800 0.000000
-1.898800 0.000000
-1.880800 0.000000
-1.862800 0.000000
-1.844800 0.000000
-1.826800 0.000000
-1.808700 0.000000
-1.790700 0.000000
-1.772700 0.000000
-1.754700 0.000000
-1.736700 0.000000
-1.718700 0.000000
-1.700700 0.000000
-1.682700 0.000000
-1.664700 0.000000
-1.646600 0.000000
-1.628600 0.000000
-1.610600 0.000000
-1.592600 0.000000
-1.574600 0.000000
-1.556600 0.000000
-1.538600 0.000000
-1.520600 0.000000
-1.502600 0.000000
-1.484500 0.000000
-1.466500 0.000000
-1.448500 0.000000
-1.430500 0.000000
-1.412500 0.000000
-1.394500 0.000000
-1.376500 0.000000
-1.358500 0.000000
-1.340500 0.000000
-1.322400 0.000000
-1.304400 0.000000
-1.286400 0.000000
-1.268400 0.000000
-1.250400 0.000000
-1.232400 0.000000
-1.214400 0.000000
-1.196400 0.000000
-1.178400 0.000000
-1.160300 0.000000
-1.142300 0.000000
-1.124300 0.000000
-1.106300 0.000000
-1.088300 0.000000
-1.070300 0.000000
-1.052300 0.000000
-1.034300 0.000000
-1.016300 0.000000
-0.998200 0.035100
-0.980200 0.169500
-0.962200 0.404500
-0.944200 0.739700
-0.926200 1.137000
-0.908200 1.570300
-0.890200 2.039700
-0.872200 2.523500
-0.854200 3.068000
-0.836100 4.533700
-0.818100 5.143800
-0.800100 5.164700
-0.782100 5.113500
-0.764100 5.059000
-0.746100 5.086700
-0.728100 5.214100
-0.710100 5.212000
-0.692100 5.028800
-0.674000 3.897500
-0.656000 3.606500
-0.638000 3.387400
-0.620000 3.216000
-0.602000 3.082500
-0.584000 2.961500
-0.566000 2.851700
-0.548000 2.753000
-0.530000 2.665500
-0.511900 2.589200
-0.493900 2.524100
-0.475900 2.470100
-0.457900 2.427400
-0.439900 2.394300
-0.421900 2.365800
-0.403900 2.341700
-0.385900 2.321100
-0.367900 2.300100
-0.349900 2.278000
-0.331800 2.254800
-0.313800 2.230600
-0.295800 2.205300
-0.277800 2.178900
-0.259800 2.148000
-0.241800 2.086100
-0.223800 2.000800
-0.205800 1.978400
-0.187800 1.957700
-0.169700 1.938800
-0.151700 1.919800
-0.133700 1.899300
-0.115700 1.873800
-0.097700 1.842800
-0.079700 1.806200
-0.061700 1.764000
-0.043700 1.716200
-0.025700 1.662900
-0.007600 1.604000
0.010400 1.539500
0.028400 1.469400
0.046400 1.393700
0.064400 1.312500
0.082400 1.225700
0.100400 1.190200
0.118400 1.169700
0.136400 1.150000
0.154500 1.130900
0.172500 1.112400
0.190500 1.094700
0.208500 1.077700
0.226500 1.061300
0.244500 1.045400
0.262500 1.029700
0.280500 1.014100
0.298500 0.998800
0.316600 0.983600
0.334600 0.968500
0.352600 0.953700
0.370600 0.939000
0.388600 0.924500
0.406600 0.910100
0.424600 0.895900
0.442600 0.881900
0.460600 0.868000
0.478700 0.854300
0.496700 0.840700
0.514700 0.827200
0.532700 0.813800
0.550700 0.800600
0.568700 0.787500
0.586700 0.774500
0.604700 0.761600
0.622700 0.748900
0.640800 0.736300
0.658800 0.723800
0.676800 0.711500
0.694800 0.699200
0.712800 0.687200
0.730800 0.675200
0.748800 0.663400
0.766800 0.651600
0.784800 0.640100
0.802900 0.628600
0.820900 0.618800
0.838900 0.613400
0.856900 0.612500
0.874900 0.616000
0.892900 0.624000
0.910900 0.636500
0.928900 0.648400
0.946900 0.660100
0.965000 0.685800
0.983000 0.711600
1.001000 0.737300
1.019000 0.763000
1.037000 0.788700
1.055000 0.819500
1.073000 0.871900
1.091000 0.947400
1.109000 1.045800
1.127100 1.167200
1.145100 1.311600
1.163100 1.478900
1.181100 1.847400
1.199100 1.941800
1.217100 2.025300
1.235100 2.097700
1.253100 2.159200
1.271100 2.209600
1.289200 2.249000
1.307200 2.277200
1.325200 2.294300
1.343200 2.300300
1.361200 2.299500
1.379200 2.299300
1.397200 2.299600
1.415200 2.300500
1.433200 2.302000
1.451300 2.304100
1.469300 2.306800
1.487300 2.300700
1.505300 2.224200
1.523300 2.124000
1.541300 2.036700
1.559300 1.962100
1.577300 1.900400
1.595300 1.851500
1.613400 1.815300
1.631400 1.792000
1.649400 1.780200
1.667400 1.876400
1.685400 1.979800
1.703400 2.081400
1.721400 2.180800
1.739400 2.276500
1.757400 2.368000
1.775500 2.455400
1.793500 2.538600
1.811500 2.617800
1.829500 2.692800
1.847500 2.763700
1.865500 2.830500
1.883500 2.899600
1.901500 3.016300
1.919500 3.189700
1.937500 3.419900
1.955600 3.706700
1.973600 3.988200
1.991600 3.603600
2.009600 2.687400
2.027600 2.697700
2.045600 2.701100
2.063600 2.705300
2.081600 2.713100
2.099600 2.724500
2.117700 2.738100
2.135700 2.752300
2.153700 2.767600
2.171700 2.784000
2.189700 2.802200
2.207700 2.822300
2.225700 2.844400
2.243700 2.868300
2.261700 2.893300
2.279800 2.918400
2.297800 2.945500
2.315800 2.971300
2.333800 2.993400
2.351800 3.012000
2.369800 3.027200
2.387800 3.039000
2.405800 3.047500
2.423800 3.052500
2.441900 3.053700
2.459900 3.050000
2.477900 3.041200
2.495900 3.027300
2.513900 3.737800
2.531900 4.241600
2.549900 4.250900
2.567900 4.238100
2.585900 4.214300
2.604000 4.147200
2.622000 4.036800
2.640000 3.883100
2.658000 3.694700
2.676000 3.610600
2.694000 3.596700
2.712000 3.598800
2.730000 3.616800
2.748000 3.650800
2.766100 3.698300
2.784100 3.757100
2.802100 3.836000
2.820100 3.952100
2.838100 4.114400
2.856100 4.315900
2.874100 4.556800
2.892100 4.836900
2.910100 5.156200
2.928200 5.514900
2.946200 5.727600
2.964200 5.741900
2.982200 5.753000
3.000200 5.689500
3.018200 5.563000
3.036200 5.421000
3.054200 5.268800
3.072200 5.106900
3.090300 4.699400
3.108300 4.298300
3.126300 4.042300
3.144300 3.910900
3.162300 3.802700
3.180300 3.703900
3.198300 3.608000
3.216300 3.508700
3.234300 3.417200
3.252400 3.333300
3.270400 3.256900
3.288400 3.184400
3.306400 3.114900
3.324400 3.048400
3.342400 2.982600
3.360400 2.911400
3.378400 2.834500
3.396400 2.751900
3.414500 2.663500
3.432500 2.569500
3.450500 2.473000
3.468500 2.375000
3.486500 2.280300
3.504500 2.194200
3.522500 2.116500
3.540500 2.086800
3.558500 2.052300
3.576600 2.014100
3.594600 1.974100
3.612600 1.932100
3.630600 1.888200
3.648600 1.842400
3.666600 1.794600
3.684600 1.740100
3.702600 1.681400
3.720600 1.623000
3.738700 1.565600
3.756700 1.509000
3.774700 1.453400
3.792700 1.398600
3.810700 1.344800
3.828700 1.291800
3.846700 1.239800
3.864700 1.188600
3.882700 1.138400
3.900800 1.089200
3.918800 1.041600
3.936800 0.995900
3.954800 0.951900
3.972800 0.912200
3.990800 0.876700
4.008800 0.841900
4.026800 0.807800
4.044800 0.774400
4.062900 0.741300
4.080900 0.708200
4.098900 0.675300
4.116900 0.642700
4.134900 0.610400
4.152900 0.578200
4.170900 0.546300
4.188900 0.514000
4.206900 0.462900
4.224900 0.412000
4.243000 0.361100
4.261000 0.310300
4.279000 0.259600
4.297000 0.212300
4.315000 0.169800
4.333000 0.132000
4.351000 0.099100
4.369000 0.070900
4.387000 0.047400
4.405100 0.028600
4.423100 0.014600
4.441100 0.005200
4.459100 0.000600
4.477100 0.000000
4.495100 0.000000
4.513100 0.000000
4.531100 0.000000
4.549100 0.000000
4.567200 0.000000
4.585200 0.000000
4.603200 0.000000
4.621200 0.000000
4.639200 0.000000
4.657200 0.000000
4.675200 0.000000
4.693200 0.000000
4.711200 0.000000
4.729300 0.000000
4.747300 0.000000
4.765300 0.000000
4.783300 0.000000
4.801300 0.000000
4.819300 0.000000
4.837300 0.000000
4.855300 0.000000
4.873300 0.000000
4.891400 0.000000
4.909400 0.000000
4.927400 0.000000
4.945400 0.000000
4.963400 0.000000
4.981400 0.000000
4.999400 0.000000
5.017400 0.000000
5.035400 0.000000
5.053500 0.000000
5.071500 0.000000
5.089500 0.000000
5.107500 0.000000
5.125500 0.000000
5.143500 0.000000
5.161500 0.000000
5.179500 0.000000
5.197500 0.000000
5.215600 0.000000
5.233600 0.000000
5.251600 0.000000
5.269600 0.000000
5.287600 0.000000
5.305600 0.000000
5.323600 0.000000
5.341600 0.000000
5.359600 0.000000
5.377700 0.000000
5.395700 0.000200
5.413700 0.001000
5.431700 0.002300
5.449700 0.004300
5.467700 0.006700
5.485700 0.009800
5.503700 0.013400
5.521700 0.017600
5.539800 0.022300
5.557800 0.027700
5.575800 0.033300
5.593800 0.039300
5.611800 0.045500
5.629800 0.052000
5.647800 0.059300
5.665800 0.075600
5.683800 0.103600
5.701900 0.143400
5.719900 0.194900
5.737900 0.270500
5.755900 0.378300
5.773900 0.518400
5.791900 0.657100
5.809900 0.771600
5.827900 0.876200
5.845900 0.971000
5.864000 1.064500
5.882000 1.159500
5.900000 1.252000
5.918000 1.342100
5.936000 1.429600
5.954000 1.514500
5.972000 1.597000
5.990000 1.676900
6.008000 1.754200
6.026100 1.829100
6.044100 1.901400
6.062100 1.971200
6.080100 2.039900
6.098100 2.108700
6.116100 2.177500
6.134100 2.246400
6.152100 2.315300
6.170100 2.384300
6.188200 2.462700
6.206200 2.616400
6.224200 2.652600
6.242200 2.668600
6.260200 2.683600
6.278200 2.697900
6.296200 2.711200
6.314200 2.724300
6.332200 2.741100
6.350300 2.762400
6.368300 2.802900
6.386300 3.315900
6.404300 4.022500
6.422300 4.056500
6.440300 4.089800
6.458300 4.121500
6.476300 4.151500
6.494300 4.179900
6.512400 3.960200
6.530400 3.905100
6.548400 3.851100
6.566400 3.799100
6.584400 3.749200
6.602400 3.701400
6.620400 3.655700
6.638400 3.612100
6.656400 3.570600
6.674400 3.531200
6.692500 3.495000
6.710500 3.459300
6.728500 3.423000
6.746500 3.386700
6.764500 3.348800
6.782500 3.305700
6.800500 3.257600
6.818500 3.171600
6.836500 3.040500
6.854600 2.931000
6.872600 2.843800
6.890600 2.775500
6.908600 2.723000
6.926600 2.684800
6.944600 2.646000
6.962600 2.602700
6.980600 2.554800
6.998600 2.502400
7.016700 2.447400
7.034700 2.387600
7.052700 2.313900
7.070700 2.224700
7.088700 2.137600
7.106700 2.059500
7.124700 1.990300
7.142700 2.166200
7.160700 2.431900
7.178800 2.625000
7.196800 2.745300
7.214800 2.792800
7.232800 2.783400
7.250800 1.000200
7.268800 0.928100
7.286800 0.870400
7.304800 0.846400
7.322800 0.861300
7.340900 0.915100
7.358900 1.007800
7.376900 1.139400
7.394900 1.309900
7.412900 1.519400
7.430900 1.772300
7.448900 2.080400
7.466900 2.378700
7.484900 2.687000
7.503000 3.088500
7.521000 3.583100
7.539000 4.170700
7.557000 4.639000
7.575000 4.945400
7.593000 5.209800
7.611000 5.432000
7.629000 5.415400
7.647000 4.999500
7.665100 4.998100
7.683100 4.989500
7.701100 4.975000
7.719100 4.954500
7.737100 4.928200
7.755100 4.885200
7.773100 4.839800
7.791100 4.781300
7.809100 4.764000
7.827200 4.718200
7.845200 4.635500
7.863200 4.516000
7.881200 4.383800
7.899200 4.272700
7.917200 4.183300
7.935200 4.117900
7.953200 4.078300
7.971200 4.091700
7.989300 4.166000
8.007300 4.301200
8.025300 4.498100
8.043300 4.762100
8.061300 4.860200
8.079300 4.400100
8.097300 4.221200
8.115300 4.182200
8.133300 3.642400
8.151400 3.371800
8.169400 3.266200
8.187400 3.162700
8.205400 3.061400
8.223400 2.962300
8.241400 2.865300
8.259400 2.788000
8.277400 2.724800
8.295400 2.664800
8.313500 2.608000
8.331500 2.554300
8.349500 2.503800
8.367500 2.456400
8.385500 2.412200
8.403500 2.370600
8.421500 2.330700
8.439500 2.296300
8.457500 2.273000
8.475600 2.260600
8.493600 2.262000
8.511600 2.286700
8.529600 2.337700
8.547600 2.416000
8.565600 2.521600
8.583600 2.654600
8.601600 2.814800
8.619600 3.018100
8.637700 3.294000
8.655700 3.446200
8.673700 3.552300
8.691700 3.743200
8.709700 3.851500
8.727700 3.878600
8.745700 3.881400
8.763700 3.903400
8.781700 3.933600
8.799800 3.946200
8.817800 3.912400
8.835800 3.830500
8.853800 3.694600
8.871800 3.551000
8.889800 3.506800
8.907800 3.453800
8.925800 3.387500
8.943800 3.309300
8.961800 3.233100
8.979900 3.158800
8.997900 3.086500
9.015900 3.016100
9.033900 2.947700
9.051900 2.881200
9.069900 2.816700
9.087900 2.752800
9.105900 2.687700
9.123900 2.637300
9.142000 2.598100
9.160000 2.570300
9.178000 2.536100
9.196000 2.495400
9.214000 2.448200
9.232000 2.394400
9.250000 2.334300
9.268000 2.276300
9.286000 2.267500
9.304100 2.258700
9.322100 2.249900
9.340100 2.699400
9.358100 2.798300
9.376100 2.857100
9.394100 2.879600
9.412100 2.875600
9.430100 2.845700
9.448100 2.789800
9.466200 2.708000
9.484200 2.600300
9.502200 2.506600
9.520200 2.468200
9.538200 2.430700
9.556200 2.394000
9.574200 2.359500
9.592200 2.328000
9.610200 2.299400
9.628300 2.273700
9.646300 2.251000
9.664300 2.231100
9.682300 2.219100
9.700300 2.241200
9.718300 2.295200
9.736300 2.380400
9.754300 2.496500
9.772300 2.616300
9.790400 2.697100
9.808400 2.742500
9.826400 2.775600
9.844400 2.800100
9.862400 2.841100
9.880400 2.959000
9.898400 3.089200
9.916400 3.231300
9.934400 3.383800
9.952500 3.546600
9.970500 3.719800
9.988500 3.655100
10.006500 3.467900
10.024500 3.324300
10.042500 3.135900
10.060500 2.898500
10.078500 2.611900
10.096500 2.276200
10.114600 1.891500
10.132600 1.747700
10.150600 1.746400
10.168600 1.747300
10.186600 1.750500
10.204600 1.755900
10.222600 1.763500
10.240600 1.773400
10.258600 1.761200
10.276700 1.988200
10.294700 2.054800
10.312700 2.050500
10.330700 2.048900
10.348700 2.050200
10.366700 2.055900
10.384700 2.105700
10.402700 2.155300
10.420700 2.204800
10.438800 2.254000
10.456800 2.303100
10.474800 2.351900
10.492800 2.398800
10.510800 2.443600
10.528800 2.486200
10.546800 2.526700
10.564800 2.565000
10.582800 2.602500
10.600900 2.641400
10.618900 2.681800
10.636900 2.919000
10.654900 4.242900
10.672900 4.285800
10.690900 4.341300
10.708900 4.411800
10.726900 4.496500
10.744900 4.595500
10.763000 4.708800
10.781000 4.818500
10.799000 4.545700
10.817000 4.183800
10.835000 4.007700
10.853000 4.023800
10.871000 4.077200
10.889000 4.074400
10.907000 4.033100
10.925100 3.916700
10.943100 3.792300
10.961100 3.693200
10.979100 3.619500
10.997100 3.783400
11.015100 3.850900
11.033100 3.782800
11.051100 3.689600
11.069100 3.593900
11.087200 3.495600
11.105200 3.394800
11.123200 3.291400
11.141200 3.185500
11.159200 3.101800
11.177200 3.048200
11.195200 3.005400
11.213200 2.977600
11.231200 2.965400
11.249300 2.968900
11.267300 3.055000
11.285300 3.171000
11.303300 3.306200
11.321300 3.460100
11.339300 3.632100
11.357300 3.816500
11.375300 4.011800
11.393300 4.218000
11.411300 4.435100
11.429400 4.663200
11.447400 4.299100
11.465400 3.996200
11.483400 3.845700
