set title 'mp-1065250 - Density of States'
set xlabel 'Energy (eV)'
set ylabel 'DOS (states/eV)'
set grid
set xrange [-10:10]
set yrange [0:24.389]
set xzeroaxis lt -1
set terminal png size 800,600
set output 'mp-1065250_dos_gnuplot.png'
plot '-' using 1:2 with lines title 'DOS'
-17.469700 0.000000
-17.448800 0.000000
-17.427900 0.000000
-17.407000 0.000000
-17.386200 0.000000
-17.365300 0.000000
-17.344400 0.000000
-17.323500 0.000000
-17.302600 0.000000
-17.281800 0.000000
-17.260900 0.000000
-17.240000 0.000000
-17.219100 0.000000
-17.198200 0.000000
-17.177400 0.000000
-17.156500 0.000000
-17.135600 0.000000
-17.114700 0.000000
-17.093900 0.000000
-17.073000 0.000000
-17.052100 0.000000
-17.031200 0.000000
-17.010300 0.000000
-16.989500 0.000000
-16.968600 0.000000
-16.947700 0.000000
-16.926800 0.000000
-16.905900 0.000000
-16.885100 0.000000
-16.864200 0.000000
-16.843300 0.000000
-16.822400 0.000000
-16.801500 0.000000
-16.780700 0.000000
-16.759800 0.000000
-16.738900 0.000000
-16.718000 0.000000
-16.697200 0.000000
-16.676300 0.000000
-16.655400 0.000000
-16.634500 0.000000
-16.613600 0.000000
-16.592800 0.000000
-16.571900 0.000000
-16.551000 0.000000
-16.530100 0.000000
-16.509200 0.000000
-16.488400 0.000000
-16.467500 0.000000
-16.446600 0.000000
-16.425700 0.000000
-16.404900 0.000000
-16.384000 0.000000
-16.363100 0.000000
-16.342200 0.000000
-16.321300 0.000000
-16.300500 0.000000
-16.279600 0.000000
-16.258700 0.000000
-16.237800 0.000000
-16.216900 0.000000
-16.196100 0.000000
-16.175200 0.000000
-16.154300 0.000000
-16.133400 0.000000
-16.112600 0.000000
-16.091700 0.000000
-16.070800 0.000000
-16.049900 0.000000
-16.029000 0.000000
-16.008200 0.000000
-15.987300 0.000000
-15.966400 0.000000
-15.945500 0.000000
-15.924600 0.000000
-15.903800 0.000000
-15.882900 0.000000
-15.862000 0.000000
-15.841100 0.000000
-15.820200 0.000000
-15.799400 0.000000
-15.778500 0.000000
-15.757600 0.000000
-15.736700 0.000000
-15.715900 0.000000
-15.695000 0.000000
-15.674100 0.000000
-15.653200 0.000000
-15.632300 0.000000
-15.611500 0.000000
-15.590600 0.000000
-15.569700 0.004300
-15.548800 0.663300
-15.527900 1.774100
-15.507100 2.967600
-15.486200 5.201300
-15.465300 5.939900
-15.444400 5.939900
-15.423600 5.940000
-15.402700 5.940000
-15.381800 5.940100
-15.360900 5.686000
-15.340000 4.883100
-15.319200 4.119800
-15.298300 2.909200
-15.277400 1.992500
-15.256500 1.992500
-15.235600 1.992500
-15.214800 1.992500
-15.193900 1.992500
-15.173000 1.992500
-15.152100 1.992600
-15.131300 1.992600
-15.110400 1.992600
-15.089500 1.992600
-15.068600 1.992600
-15.047700 1.992600
-15.026900 1.992600
-15.006000 1.992600
-14.985100 1.992600
-14.964200 1.992600
-14.943300 1.992600
-14.922500 1.992600
-14.901600 1.992600
-14.880700 1.992600
-14.859800 1.992600
-14.838900 1.992600
-14.818100 1.992600
-14.797200 1.985600
-14.776300 1.854100
-14.755400 1.725500
-14.734600 1.602800
-14.713700 1.237200
-14.692800 1.212600
-14.671900 1.212600
-14.651000 1.212600
-14.630200 1.212600
-14.609300 1.212600
-14.588400 1.212600
-14.567500 1.212600
-14.546600 1.212600
-14.525800 1.212600
-14.504900 1.212600
-14.484000 1.212600
-14.463100 1.212600
-14.442300 1.212600
-14.421400 1.212600
-14.400500 1.212600
-14.379600 1.212600
-14.358700 1.212600
-14.337900 1.212600
-14.317000 1.212600
-14.296100 1.212600
-14.275200 1.212600
-14.254300 1.212600
-14.233500 1.212600
-14.212600 1.212600
-14.191700 1.212600
-14.170800 1.212600
-14.150000 1.212600
-14.129100 1.212600
-14.108200 1.212600
-14.087300 1.212600
-14.066400 1.212600
-14.045600 1.212600
-14.024700 1.212600
-14.003800 1.212600
-13.982900 1.212600
-13.962000 1.212600
-13.941200 1.212600
-13.920300 1.212600
-13.899400 1.212600
-13.878500 1.212600
-13.857600 1.304100
-13.836800 9.235700
-13.815900 5.172400
-13.795000 0.606900
-13.774100 6.502600
-13.753300 0.000000
-13.732400 0.000000
-13.711500 0.000000
-13.690600 0.000000
-13.669700 0.000000
-13.648900 0.000000
-13.628000 0.000000
-13.607100 0.000000
-13.586200 0.000000
-13.565300 0.000000
-13.544500 0.000000
-13.523600 0.000000
-13.502700 0.000000
-13.481800 0.000000
-13.461000 0.000000
-13.440100 0.000000
-13.419200 0.000000
-13.398300 0.000000
-13.377400 0.000000
-13.356600 0.000000
-13.335700 0.000000
-13.314800 0.000000
-13.293900 0.000000
-13.273000 0.000000
-13.252200 0.000000
-13.231300 0.000000
-13.210400 0.000000
-13.189500 0.000000
-13.168700 0.000000
-13.147800 0.000000
-13.126900 0.000000
-13.106000 0.000000
-13.085100 0.000000
-13.064300 0.000000
-13.043400 0.000000
-13.022500 0.000000
-13.001600 0.000000
-12.980700 0.000000
-12.959900 0.000000
-12.939000 0.000000
-12.918100 0.000000
-12.897200 0.000000
-12.876300 0.000000
-12.855500 0.000000
-12.834600 0.000000
-12.813700 0.000000
-12.792800 0.000000
-12.772000 0.000000
-12.751100 0.000000
-12.730200 0.000000
-12.709300 0.000000
-12.688400 0.000000
-12.667600 0.000000
-12.646700 0.000000
-12.625800 0.000000
-12.604900 0.000000
-12.584000 0.000000
-12.563200 1.319100
-12.542300 8.099800
-12.521400 9.645100
-12.500500 20.399900
-12.479700 0.729300
-12.458800 0.729300
-12.437900 0.729300
-12.417000 0.729300
-12.396100 0.729300
-12.375300 0.729300
-12.354400 0.729300
-12.333500 0.729300
-12.312600 0.729300
-12.291700 0.729300
-12.270900 0.729300
-12.250000 0.729300
-12.229100 0.729300
-12.208200 0.729300
-12.187400 0.729300
-12.166500 0.729300
-12.145600 0.729300
-12.124700 0.729300
-12.103800 0.729300
-12.083000 0.729300
-12.062100 0.729300
-12.041200 0.729300
-12.020300 0.729300
-11.999400 0.729300
-11.978600 0.729300
-11.957700 0.729300
-11.936800 0.729300
-11.915900 0.729300
-11.895000 0.729300
-11.874200 0.729300
-11.853300 0.729300
-11.832400 0.729300
-11.811500 0.729300
-11.790700 0.729300
-11.769800 0.729300
-11.748900 0.729300
-11.728000 0.729300
-11.707100 0.729300
-11.686300 0.729300
-11.665400 0.729300
-11.644500 0.729300
-11.623600 0.729300
-11.602700 0.729300
-11.581900 0.729300
-11.561000 0.729300
-11.540100 0.729300
-11.519200 0.729300
-11.498400 0.729300
-11.477500 0.729300
-11.456600 0.729300
-11.435700 0.729300
-11.414800 0.729300
-11.394000 0.729300
-11.373100 0.729300
-11.352200 0.729300
-11.331300 0.729300
-11.310400 0.729300
-11.289600 0.729300
-11.268700 0.729300
-11.247800 0.729300
-11.226900 0.729300
-11.206100 0.729300
-11.185200 0.729300
-11.164300 0.729300
-11.143400 0.729300
-11.122500 0.729300
-11.101700 0.729300
-11.080800 0.729300
-11.059900 0.729300
-11.039000 0.729300
-11.018100 0.729300
-10.997300 0.729300
-10.976400 0.726700
-10.955500 0.704100
-10.934600 0.690400
-10.913700 0.680600
-10.892900 0.680600
-10.872000 0.680600
-10.851100 0.680600
-10.830200 0.680600
-10.809400 0.680600
-10.788500 0.680600
-10.767600 0.680600
-10.746700 0.680600
-10.725800 0.680600
-10.705000 0.680600
-10.684100 0.680600
-10.663200 0.680600
-10.642300 0.680600
-10.621400 0.680600
-10.600600 0.680600
-10.579700 0.680600
-10.558800 0.680600
-10.537900 0.680600
-10.517100 0.680600
-10.496200 0.680600
-10.475300 0.680600
-10.454400 0.680600
-10.433500 0.680600
-10.412700 0.680600
-10.391800 0.680600
-10.370900 0.680600
-10.350000 0.680600
-10.329100 0.680600
-10.308300 0.680600
-10.287400 0.680600
-10.266500 0.680600
-10.245600 0.680600
-10.224800 0.680600
-10.203900 0.680600
-10.183000 0.680600
-10.162100 0.680600
-10.141200 0.680600
-10.120400 0.680600
-10.099500 0.680600
-10.078600 0.680600
-10.057700 0.680600
-10.036800 0.680600
-10.016000 0.680600
-9.995100 0.680600
-9.974200 0.680600
-9.953300 0.680600
-9.932400 0.680600
-9.911600 0.680600
-9.890700 0.680600
-9.869800 0.680600
-9.848900 0.680600
-9.828100 0.680600
-9.807200 0.680600
-9.786300 0.680600
-9.765400 0.680600
-9.744500 0.680600
-9.723700 0.680600
-9.702800 0.680600
-9.681900 0.680600
-9.661000 0.680600
-9.640100 0.680600
-9.619300 0.680600
-9.598400 0.680600
-9.577500 0.680600
-9.556600 0.680600
-9.535800 0.680600
-9.514900 0.680600
-9.494000 0.680600
-9.473100 0.680600
-9.452200 0.680600
-9.431400 0.680600
-9.410500 0.680600
-9.389600 0.680600
-9.368700 0.680600
-9.347800 0.680600
-9.327000 0.680600
-9.306100 0.680600
-9.285200 0.817400
-9.264300 0.978100
-9.243400 1.089200
-9.222600 1.105900
-9.201700 1.105800
-9.180800 1.105800
-9.159900 1.105700
-9.139100 1.105700
-9.118200 1.105700
-9.097300 1.105600
-9.076400 1.105600
-9.055500 1.105600
-9.034700 1.105500
-9.013800 1.105500
-8.992900 1.105500
-8.972000 1.105400
-8.951100 1.105400
-8.930300 1.105400
-8.909400 1.105300
-8.888500 1.105300
-8.867600 1.105200
-8.846800 1.105200
-8.825900 1.105200
-8.805000 1.105100
-8.784100 1.105100
-8.763200 1.105100
-8.742400 1.105000
-8.721500 1.105000
-8.700600 1.105000
-8.679700 1.104900
-8.658800 1.104900
-8.638000 1.104800
-8.617100 1.104800
-8.596200 1.104800
-8.575300 1.104700
-8.554500 1.104700
-8.533600 1.104700
-8.512700 1.104600
-8.491800 1.104600
-8.470900 1.104600
-8.450100 1.104500
-8.429200 1.104500
-8.408300 1.104500
-8.387400 1.104400
-8.366500 1.104400
-8.345700 1.104300
-8.324800 1.104300
-8.303900 0.985700
-8.283000 0.804000
-8.262100 0.673300
-8.241300 0.555000
-8.220400 0.414900
-8.199500 0.269500
-8.178600 0.157900
-8.157800 0.079300
-8.136900 0.009500
-8.116000 0.000000
-8.095100 0.000000
-8.074200 0.000000
-8.053400 0.000000
-8.032500 0.000000
-8.011600 0.000000
-7.990700 0.000000
-7.969800 0.000000
-7.949000 0.000000
-7.928100 0.000000
-7.907200 0.000000
-7.886300 0.000000
-7.865500 0.000000
-7.844600 0.000000
-7.823700 0.000000
-7.802800 0.000000
-7.781900 0.000000
-7.761100 0.000000
-7.740200 0.000000
-7.719300 0.000000
-7.698400 0.000000
-7.677500 0.000000
-7.656700 0.000000
-7.635800 0.000000
-7.614900 0.000000
-7.594000 0.000000
-7.573200 0.000000
-7.552300 0.000000
-7.531400 0.000000
-7.510500 0.000000
-7.489600 0.000000
-7.468800 0.000000
-7.447900 0.000000
-7.427000 0.000000
-7.406100 0.000000
-7.385200 0.000000
-7.364400 0.000000
-7.343500 0.000000
-7.322600 0.000000
-7.301700 0.000000
-7.280800 0.000000
-7.260000 0.000000
-7.239100 0.000000
-7.218200 0.000000
-7.197300 0.000000
-7.176500 0.000000
-7.155600 0.000000
-7.134700 0.000000
-7.113800 0.000000
-7.092900 0.000000
-7.072100 0.000000
-7.051200 0.000000
-7.030300 0.000000
-7.009400 0.000000
-6.988500 0.000000
-6.967700 0.000000
-6.946800 0.000000
-6.925900 0.000000
-6.905000 0.000000
-6.884200 0.000000
-6.863300 0.000000
-6.842400 0.000000
-6.821500 0.000000
-6.800600 0.000000
-6.779800 0.000000
-6.758900 0.000000
-6.738000 0.000000
-6.717100 0.000000
-6.696200 0.000000
-6.675400 0.000000
-6.654500 0.000000
-6.633600 0.000000
-6.612700 0.000000
-6.591900 0.000000
-6.571000 0.000000
-6.550100 0.000000
-6.529200 0.000000
-6.508300 0.000000
-6.487500 0.000000
-6.466600 0.000000
-6.445700 0.000000
-6.424800 0.000000
-6.403900 0.000000
-6.383100 0.000000
-6.362200 0.000000
-6.341300 0.000000
-6.320400 0.135800
-6.299500 0.862200
-6.278700 2.100300
-6.257800 2.103800
-6.236900 2.103100
-6.216000 2.102500
-6.195200 2.101800
-6.174300 2.101200
-6.153400 2.100500
-6.132500 2.099900
-6.111600 2.099200
-6.090800 2.098600
-6.069900 2.098000
-6.049000 2.097300
-6.028100 2.096700
-6.007200 2.096000
-5.986400 2.095400
-5.965500 2.094800
-5.944600 2.094100
-5.923700 2.093500
-5.902900 2.092800
-5.882000 2.092200
-5.861100 2.091500
-5.840200 2.090900
-5.819300 2.002700
-5.798500 1.886000
-5.777600 1.812900
-5.756700 1.751000
-5.735800 1.689200
-5.714900 1.627900
-5.694100 1.571600
-5.673200 1.538400
-5.652300 1.508100
-5.631400 1.483200
-5.610600 1.479300
-5.589700 1.478900
-5.568800 1.478600
-5.547900 1.478300
-5.527000 1.478000
-5.506200 1.477700
-5.485300 1.477300
-5.464400 1.477000
-5.443500 1.476700
-5.422600 1.476400
-5.401800 1.476100
-5.380900 1.475800
-5.360000 1.475400
-5.339100 1.475100
-5.318200 1.474800
-5.297400 1.474500
-5.276500 1.474200
-5.255600 1.473800
-5.234700 1.473500
-5.213900 1.473200
-5.193000 1.472900
-5.172100 1.472600
-5.151200 1.472200
-5.130300 1.471900
-5.109500 1.471600
-5.088600 1.433600
-5.067700 1.408700
-5.046800 1.382500
-5.025900 1.368800
-5.005100 1.355200
-4.984200 1.341700
-4.963300 1.328300
-4.942400 1.315100
-4.921600 1.302100
-4.900700 1.290200
-4.879800 1.281800
-4.858900 1.277900
-4.838000 1.274400
-4.817200 1.271000
-4.796300 1.267500
-4.775400 1.264000
-4.754500 1.262400
-4.733600 1.261800
-4.712800 1.261800
-4.691900 1.261800
-4.671000 1.261800
-4.650100 1.261800
-4.629300 1.261800
-4.608400 1.261700
-4.587500 1.261700
-4.566600 1.261700
-4.545700 1.261700
-4.524900 1.261700
-4.504000 1.261700
-4.483100 1.261600
-4.462200 1.261600
-4.441300 1.261600
-4.420500 1.261600
-4.399600 1.261600
-4.378700 1.261600
-4.357800 1.261500
-4.336900 1.261500
-4.316100 1.261500
-4.295200 1.261500
-4.274300 1.261500
-4.253400 1.261500
-4.232600 1.261400
-4.211700 1.261400
-4.190800 2.063300
-4.169900 3.460800
-4.149000 3.565400
-4.128200 2.352700
-4.107300 2.305000
-4.086400 2.389600
-4.065500 2.627800
-4.044600 2.615500
-4.023800 2.617600
-4.002900 2.338500
-3.982000 2.040200
-3.961100 1.810500
-3.940300 2.119100
-3.919400 2.327100
-3.898500 2.482700
-3.877600 2.547800
-3.856700 2.208500
-3.835900 1.982800
-3.815000 1.774100
-3.794100 1.931800
-3.773200 2.057300
-3.752300 2.090500
-3.731500 2.206200
-3.710600 2.053300
-3.689700 1.951700
-3.668800 1.863200
-3.648000 1.772600
-3.627100 1.660500
-3.606200 1.524800
-3.585300 1.646800
-3.564400 1.776000
-3.543600 1.939400
-3.522700 2.157900
-3.501800 2.397900
-3.480900 2.854500
-3.460000 3.103100
-3.439200 3.250500
-3.418300 3.390700
-3.397400 3.527300
-3.376500 3.404200
-3.355600 3.282200
-3.334800 3.163900
-3.313900 3.093200
-3.293000 2.900400
-3.272100 2.916600
-3.251300 2.930300
-3.230400 2.981000
-3.209500 3.031600
-3.188600 3.077400
-3.167700 3.149700
-3.146900 3.321100
-3.126000 3.530100
-3.105100 4.729600
-3.084200 6.925400
-3.063300 8.461000
-3.042500 8.844100
-3.021600 7.008700
-3.000700 5.627600
-2.979800 5.430500
-2.959000 4.568400
-2.938100 3.437300
-2.917200 3.959800
-2.896300 4.622100
-2.875400 5.287700
-2.854600 5.362200
-2.833700 4.230000
-2.812800 3.689400
-2.791900 1.512800
-2.771000 1.300300
-2.750200 1.102500
-2.729300 0.919600
-2.708400 0.751500
-2.687500 0.598200
-2.666700 0.459800
-2.645800 0.336100
-2.624900 0.227200
-2.604000 0.134400
-2.583100 0.065100
-2.562300 0.020700
-2.541400 0.058600
-2.520500 0.180900
-2.499600 0.314500
-2.478700 0.458300
-2.457900 0.567800
-2.437000 0.667100
-2.416100 0.772400
-2.395200 0.883800
-2.374300 1.464600
-2.353500 1.611200
-2.332600 1.610700
-2.311700 1.338700
-2.290800 1.357300
-2.270000 1.468200
-2.249100 1.884100
-2.228200 1.899800
-2.207300 1.903500
-2.186400 1.895100
-2.165600 1.818900
-2.144700 1.347200
-2.123800 1.351800
-2.102900 1.356400
-2.082000 1.361000
-2.061200 1.365600
-2.040300 1.370300
-2.019400 5.104300
-1.998500 3.810600
-1.977700 3.966200
-1.956800 6.244600
-1.935900 4.834400
-1.915000 5.079000
-1.894100 5.263400
-1.873300 5.163900
-1.852400 5.046300
-1.831500 4.722800
-1.810600 3.323800
-1.789700 2.658700
-1.768900 2.237700
-1.748000 2.060600
-1.727100 2.141400
-1.706200 2.260200
-1.685400 2.385600
-1.664500 2.515200
-1.643600 2.644900
-1.622700 2.769500
-1.601800 2.840600
-1.581000 2.893500
-1.560100 2.946500
-1.539200 2.989200
-1.518300 3.004200
-1.497400 3.005000
-1.476600 3.005300
-1.455700 3.005700
-1.434800 3.006000
-1.413900 3.006300
-1.393000 3.066000
-1.372200 3.254900
-1.351300 3.445700
-1.330400 3.628500
-1.309500 3.730500
-1.288700 3.831900
-1.267800 3.932900
-1.246900 4.675300
-1.226000 4.573300
-1.205100 4.376200
-1.184300 4.165400
-1.163400 4.210000
-1.142500 4.566600
-1.121600 4.269600
-1.100700 3.830400
-1.079900 2.569400
-1.059000 2.234700
-1.038100 1.958300
-1.017200 1.732000
-0.996400 1.573500
-0.975500 3.893800
-0.954600 2.936000
-0.933700 3.846300
-0.912800 2.560400
-0.892000 2.213300
-0.871100 2.179100
-0.850200 1.978900
-0.829300 2.095000
-0.808400 2.294200
-0.787600 2.440500
-0.766700 2.881300
-0.745800 3.555500
-0.724900 4.232100
-0.704100 4.964400
-0.683200 6.146400
-0.662300 6.552500
-0.641400 6.656900
-0.620500 8.884600
-0.599700 4.977300
-0.578800 4.573800
-0.557900 4.452200
-0.537000 4.330600
-0.516100 4.209000
-0.495300 4.087300
-0.474400 3.965600
-0.453500 3.843900
-0.432600 3.722100
-0.411700 3.600400
-0.390900 3.478500
-0.370000 3.356700
-0.349100 3.234800
-0.328200 3.112800
-0.307400 2.504300
-0.286500 2.456100
-0.265600 2.456100
-0.244700 2.456000
-0.223800 2.456000
-0.203000 2.456000
-0.182100 2.455900
-0.161200 2.455900
-0.140300 2.455900
-0.119400 2.455800
-0.098600 2.455800
-0.077700 2.452600
-0.056800 2.409500
-0.035900 2.319100
-0.015100 2.197000
0.005800 2.021700
0.026700 1.755700
0.047600 1.572700
0.068500 1.246400
0.089300 1.212400
0.110200 1.212400
0.131100 1.069400
0.152000 0.873600
0.172900 0.680200
0.193700 0.479800
0.214600 0.292400
0.235500 0.178300
0.256400 0.087400
0.277200 0.024500
0.298100 0.000300
0.319000 0.000000
0.339900 0.000000
0.360800 0.000000
0.381600 0.000000
0.402500 0.000000
0.423400 0.000000
0.444300 0.000000
0.465200 0.000000
0.486000 0.000000
0.506900 0.000000
0.527800 0.000000
0.548700 0.000000
0.569600 0.000000
0.590400 0.000000
0.611300 0.000000
0.632200 0.000000
0.653100 0.000000
0.673900 0.000000
0.694800 0.000000
0.715700 0.000000
0.736600 0.000000
0.757500 0.000000
0.778300 0.000000
0.799200 0.000000
0.820100 0.000000
0.841000 0.000000
0.861900 0.000000
0.882700 0.000000
0.903600 0.000000
0.924500 0.000000
0.945400 0.000000
0.966200 0.000000
0.987100 0.227900
1.008000 0.653500
1.028900 1.596200
1.049800 2.835500
1.070600 3.627500
1.091500 4.153300
1.112400 4.483000
1.133300 4.924000
1.154200 5.451700
1.175000 5.540500
1.195900 5.537700
1.216800 5.534900
1.237700 5.532100
1.258500 5.529400
1.279400 5.526700
1.300300 5.524000
1.321200 5.338900
1.342100 5.038100
1.362900 4.533800
1.383800 4.071800
1.404700 3.818900
1.425600 3.598500
1.446500 3.421800
1.467300 3.313600
1.488200 2.966000
1.509100 2.410100
1.530000 2.031500
1.550900 1.625400
1.571700 1.184100
1.592600 0.783800
1.613500 0.571300
1.634400 0.488500
1.655200 0.446800
1.676100 0.441300
1.697000 0.441300
1.717900 0.441300
1.738800 0.441300
1.759600 0.441300
1.780500 0.441300
1.801400 0.441300
1.822300 0.441300
1.843200 0.441300
1.864000 0.441300
1.884900 0.441300
1.905800 0.441300
1.926700 0.441300
1.947500 0.441300
1.968400 0.441300
1.989300 0.441300
2.010200 0.441300
2.031100 0.441300
2.051900 0.441300
2.072800 0.441300
2.093700 0.441300
2.114600 0.441300
2.135500 0.441300
2.156300 0.441300
2.177200 0.441300
2.198100 0.441300
2.219000 0.441300
2.239800 0.441300
2.260700 0.441300
2.281600 0.441300
2.302500 0.441300
2.323400 0.441300
2.344200 0.441300
2.365100 0.441300
2.386000 0.441300
2.406900 0.441300
2.427800 0.441300
2.448600 0.441300
2.469500 0.441300
2.490400 0.441300
2.511300 0.441300
2.532200 0.441300
2.553000 0.441300
2.573900 0.441300
2.594800 0.441300
2.615700 0.441300
2.636500 0.441300
2.657400 0.441300
2.678300 0.441300
2.699200 0.441300
2.720100 0.441300
2.740900 0.441300
2.761800 0.441300
2.782700 0.441300
2.803600 0.441300
2.824500 0.441300
2.845300 0.441300
2.866200 0.441300
2.887100 0.441300
2.908000 0.441300
2.928800 0.441300
2.949700 0.441300
2.970600 0.441300
2.991500 0.441300
3.012400 0.441300
3.033200 0.441300
3.054100 0.441300
3.075000 0.441300
3.095900 0.441300
3.116800 0.441300
3.137600 0.441300
3.158500 0.441300
3.179400 0.441300
3.200300 0.441300
3.221100 0.441300
3.242000 0.441300
3.262900 0.441300
3.283800 0.441300
3.304700 0.441300
3.325500 0.441300
3.346400 0.441300
3.367300 0.441300
3.388200 0.441300
3.409100 0.441300
3.429900 0.441300
3.450800 0.441300
3.471700 0.441300
3.492600 0.441300
3.513500 0.441300
3.534300 0.441300
3.555200 0.441300
3.576100 0.441300
3.597000 0.441300
3.617800 0.441300
3.638700 0.441300
3.659600 0.441300
3.680500 0.443000
3.701400 0.452700
3.722200 0.471000
3.743100 0.497800
3.764000 0.533200
3.784900 0.577000
3.805800 0.629400
3.826600 0.690400
3.847500 0.759900
3.868400 0.862400
3.889300 1.040100
3.910100 1.294100
3.931000 1.624800
3.951900 2.074100
3.972800 2.563500
3.993700 3.035800
