set title 'mp-1079938 - Density of States'
set xlabel 'Energy (eV)'
set ylabel 'DOS (states/eV)'
set grid
set xrange [-10:10]
set yrange [0:210.860]
set xzeroaxis lt -1
set terminal png size 800,600
set output 'mp-1079938_dos_gnuplot.png'
plot '-' using 1:2 with lines title 'DOS'
-6.854000 0.000000
-6.839200 0.000000
-6.824400 0.000000
-6.809600 0.000000
-6.794900 0.000000
-6.780100 0.000000
-6.765300 0.000000
-6.750600 0.000000
-6.735800 0.000000
-6.721000 0.000000
-6.706200 0.000000
-6.691500 0.000000
-6.676700 0.000000
-6.661900 0.000000
-6.647200 0.000000
-6.632400 0.000000
-6.617600 0.000000
-6.602800 0.000000
-6.588100 0.000000
-6.573300 0.000000
-6.558500 0.000000
-6.543800 0.000000
-6.529000 0.000000
-6.514200 0.000000
-6.499500 0.000000
-6.484700 0.000000
-6.469900 0.000000
-6.455100 0.000000
-6.440400 0.000000
-6.425600 0.000000
-6.410800 0.000000
-6.396100 0.000000
-6.381300 0.000000
-6.366500 0.000000
-6.351700 0.000000
-6.337000 0.000000
-6.322200 0.000000
-6.307400 0.000000
-6.292700 0.000000
-6.277900 0.000000
-6.263100 0.000000
-6.248300 0.000000
-6.233600 0.000000
-6.218800 0.000000
-6.204000 0.000000
-6.189300 0.000000
-6.174500 0.000000
-6.159700 0.000000
-6.145000 0.000000
-6.130200 0.000000
-6.115400 0.000000
-6.100600 0.000000
-6.085900 0.000000
-6.071100 0.000000
-6.056300 0.000000
-6.041600 0.000000
-6.026800 0.000000
-6.012000 0.000000
-5.997200 0.000000
-5.982500 0.000000
-5.967700 0.000000
-5.952900 0.000000
-5.938200 0.000000
-5.923400 0.000000
-5.908600 0.000000
-5.893800 0.000000
-5.879100 0.000000
-5.864300 0.000000
-5.849500 0.000000
-5.834800 0.000000
-5.820000 0.000000
-5.805200 0.000000
-5.790400 0.000000
-5.775700 0.000000
-5.760900 0.000000
-5.746100 0.000000
-5.731400 0.000000
-5.716600 0.000000
-5.701800 0.000000
-5.687100 0.000000
-5.672300 0.000000
-5.657500 0.000000
-5.642700 0.000000
-5.628000 0.000000
-5.613200 0.000000
-5.598400 0.000000
-5.583700 0.000000
-5.568900 0.000000
-5.554100 0.000000
-5.539300 0.000000
-5.524600 0.000000
-5.509800 0.210900
-5.495000 2.502200
-5.480300 12.937400
-5.465500 32.157600
-5.450700 103.842900
-5.435900 61.083600
-5.421200 68.921100
-5.406400 105.065300
-5.391600 191.691200
-5.376900 151.957500
-5.362100 123.353800
-5.347300 144.989800
-5.332500 100.957900
-5.317800 50.054700
-5.303000 32.037900
-5.288200 29.195000
-5.273500 25.828700
-5.258700 26.146100
-5.243900 27.533100
-5.229200 32.594300
-5.214400 47.344900
-5.199600 0.000000
-5.184800 0.000000
-5.170100 0.000000
-5.155300 0.000000
-5.140500 0.000000
-5.125800 0.000000
-5.111000 0.000000
-5.096200 0.000000
-5.081400 0.000000
-5.066700 0.000000
-5.051900 0.000000
-5.037100 0.000000
-5.022400 0.000000
-5.007600 0.000000
-4.992800 0.000000
-4.978000 0.000000
-4.963300 0.000000
-4.948500 0.000000
-4.933700 0.000000
-4.919000 0.000000
-4.904200 0.000000
-4.889400 0.000000
-4.874600 0.000000
-4.859900 0.000000
-4.845100 0.000000
-4.830300 0.000000
-4.815600 0.000000
-4.800800 0.000000
-4.786000 0.000000
-4.771300 0.000000
-4.756500 0.000000
-4.741700 0.000000
-4.726900 0.000000
-4.712200 0.000000
-4.697400 0.000000
-4.682600 0.000000
-4.667900 0.000000
-4.653100 0.000000
-4.638300 0.000000
-4.623500 0.000000
-4.608800 0.000000
-4.594000 0.000000
-4.579200 0.000000
-4.564500 0.000000
-4.549700 0.000000
-4.534900 0.000000
-4.520100 0.000000
-4.505400 0.000000
-4.490600 0.000000
-4.475800 0.000000
-4.461100 0.000000
-4.446300 0.000000
-4.431500 0.000000
-4.416800 0.000000
-4.402000 0.000000
-4.387200 0.000000
-4.372400 0.000000
-4.357700 0.000000
-4.342900 0.000000
-4.328100 0.000000
-4.313400 0.000000
-4.298600 0.000000
-4.283800 0.000000
-4.269000 0.000000
-4.254300 0.000000
-4.239500 0.000000
-4.224700 0.000000
-4.210000 0.000000
-4.195200 0.000000
-4.180400 0.000000
-4.165600 0.000000
-4.150900 0.000000
-4.136100 0.000000
-4.121300 0.000000
-4.106600 0.000000
-4.091800 0.000000
-4.077000 0.000000
-4.062200 0.000000
-4.047500 0.000000
-4.032700 0.000000
-4.017900 0.000000
-4.003200 0.000000
-3.988400 0.000000
-3.973600 0.000000
-3.958900 0.000000
-3.944100 0.000000
-3.929300 0.000000
-3.914500 0.000000
-3.899800 0.000000
-3.885000 0.000000
-3.870200 0.000000
-3.855500 0.000000
-3.840700 0.000000
-3.825900 0.000000
-3.811100 0.000000
-3.796400 0.000000
-3.781600 0.000000
-3.766800 0.000000
-3.752100 0.000000
-3.737300 0.000000
-3.722500 0.000000
-3.707700 0.000000
-3.693000 0.000000
-3.678200 0.000000
-3.663400 0.000000
-3.648700 0.000000
-3.633900 0.000000
-3.619100 0.000000
-3.604300 0.000000
-3.589600 0.000000
-3.574800 0.000000
-3.560000 0.000000
-3.545300 0.000000
-3.530500 0.000000
-3.515700 0.000000
-3.501000 0.000000
-3.486200 0.000000
-3.471400 0.000000
-3.456600 0.000000
-3.441900 0.000000
-3.427100 0.000000
-3.412300 0.000000
-3.397600 0.000000
-3.382800 0.000000
-3.368000 0.000000
-3.353200 0.000000
-3.338500 0.000000
-3.323700 0.000000
-3.308900 0.000000
-3.294200 0.000000
-3.279400 0.000000
-3.264600 0.000000
-3.249800 0.000000
-3.235100 0.000000
-3.220300 0.000000
-3.205500 0.000000
-3.190800 0.000000
-3.176000 0.000000
-3.161200 0.000000
-3.146400 0.000000
-3.131700 0.003700
-3.116900 0.033400
-3.102100 0.092900
-3.087400 0.171400
-3.072600 0.205600
-3.057800 0.213200
-3.043100 0.228400
-3.028300 0.251100
-3.013500 0.275400
-2.998700 0.300200
-2.984000 0.325200
-2.969200 0.350400
-2.954400 0.368200
-2.939700 0.381100
-2.924900 0.390200
-2.910100 0.404800
-2.895300 0.420000
-2.880600 0.435100
-2.865800 0.450000
-2.851000 0.461600
-2.836300 0.476500
-2.821500 0.491700
-2.806700 0.507300
-2.791900 0.523600
-2.777200 0.540700
-2.762400 0.558000
-2.747600 0.571700
-2.732900 0.584600
-2.718100 0.598500
-2.703300 0.615300
-2.688600 0.639600
-2.673800 0.663700
-2.659000 0.683900
-2.644200 0.700200
-2.629500 0.712600
-2.614700 0.760800
-2.599900 0.718300
-2.585200 0.726200
-2.570400 0.735300
-2.555600 0.743500
-2.540800 0.750300
-2.526100 0.755700
-2.511300 0.760200
-2.496500 0.763800
-2.481800 0.765200
-2.467000 0.764500
-2.452200 0.769300
-2.437400 0.782900
-2.422700 0.786800
-2.407900 0.784900
-2.393100 0.786200
-2.378400 0.790700
-2.363600 0.841500
-2.348800 0.908800
-2.334000 0.881100
-2.319300 0.898500
-2.304500 0.918900
-2.289700 0.944300
-2.275000 0.967600
-2.260200 0.985400
-2.245400 0.990900
-2.230700 0.989100
-2.215900 1.003900
-2.201100 1.022300
-2.186300 1.042700
-2.171600 1.065400
-2.156800 1.088000
-2.142000 1.109900
-2.127300 1.131000
-2.112500 1.150400
-2.097700 1.163600
-2.082900 1.173500
-2.068200 1.192400
-2.053400 1.211300
-2.038600 1.230900
-2.023900 1.251000
-2.009100 1.271600
-1.994300 1.292800
-1.979500 1.314500
-1.964800 1.336900
-1.950000 1.360800
-1.935200 1.385900
-1.920500 1.412000
-1.905700 1.438700
-1.890900 1.465800
-1.876100 1.493600
-1.861400 1.522100
-1.846600 1.548700
-1.831800 1.577100
-1.817100 1.611300
-1.802300 1.646400
-1.787500 1.682300
-1.772800 1.723300
-1.758000 1.761700
-1.743200 1.801200
-1.728400 1.845300
-1.713700 1.890700
-1.698900 1.940600
-1.684100 1.991800
-1.669400 2.045200
-1.654600 2.101400
-1.639800 2.162000
-1.625000 2.227500
-1.610300 2.297000
-1.595500 2.374200
-1.580700 2.461500
-1.566000 2.560000
-1.551200 2.697200
-1.536400 2.922700
-1.521600 3.250600
-1.506900 3.739300
-1.492100 3.683600
-1.477300 3.659900
-1.462600 3.606200
-1.447800 3.363800
-1.433000 3.204900
-1.418200 3.136900
-1.403500 3.095200
-1.388700 3.101900
-1.373900 3.099000
-1.359200 3.080600
-1.344400 3.100100
-1.329600 3.136000
-1.314900 3.192600
-1.300100 3.293600
-1.285300 3.416300
-1.270500 3.546400
-1.255800 3.706200
-1.241000 3.922100
-1.226200 4.199900
-1.211500 4.410400
-1.196700 4.846200
-1.181900 12.382400
-1.167100 6.058700
-1.152400 4.476000
-1.137600 5.937000
-1.122800 11.023900
-1.108100 9.048200
-1.093300 7.986200
-1.078500 6.254000
-1.063700 4.994000
-1.049000 3.847600
-1.034200 2.917800
-1.019400 2.216900
-1.004700 1.584200
-0.989900 0.000000
-0.975100 0.000000
-0.960400 0.000000
-0.945600 0.000000
-0.930800 0.000000
-0.916000 0.000000
-0.901300 0.000000
-0.886500 0.000000
-0.871700 0.000000
-0.857000 0.000000
-0.842200 0.000000
-0.827400 0.000000
-0.812600 0.000000
-0.797900 0.000000
-0.783100 0.000000
-0.768300 0.000000
-0.753600 0.000000
-0.738800 0.000000
-0.724000 0.000000
-0.709200 0.000000
-0.694500 0.000000
-0.679700 0.000000
-0.664900 0.000000
-0.650200 0.000000
-0.635400 0.000000
-0.620600 0.000000
-0.605800 0.000000
-0.591100 0.000000
-0.576300 0.000000
-0.561500 0.000000
-0.546800 0.000000
-0.532000 0.000000
-0.517200 0.000000
-0.502500 0.000000
-0.487700 0.000000
-0.472900 0.000000
-0.458100 0.000000
-0.443400 0.000000
-0.428600 0.000000
-0.413800 0.000000
-0.399100 0.000000
-0.384300 0.000000
-0.369500 0.000000
-0.354700 0.000000
-0.340000 0.000000
-0.325200 0.000000
-0.310400 0.000000
-0.295700 0.000000
-0.280900 0.000000
-0.266100 0.000000
-0.251300 0.000000
-0.236600 0.000000
-0.221800 0.000000
-0.207000 0.000000
-0.192300 0.000000
-0.177500 0.000000
-0.162700 0.000000
-0.147900 0.000000
-0.133200 0.000000
-0.118400 0.000000
-0.103600 0.000000
-0.088900 0.000000
-0.074100 0.000000
-0.059300 0.000000
-0.044600 0.000000
-0.029800 0.000000
-0.015000 0.000000
-0.000200 0.000000
0.014500 0.000000
0.029300 0.000000
0.044100 0.000000
0.058800 0.000000
0.073600 0.000000
0.088400 0.000000
0.103200 0.000000
0.117900 0.000000
0.132700 0.000000
0.147500 0.000000
0.162200 0.000000
0.177000 0.000000
0.191800 0.000000
0.206600 0.000000
0.221300 0.000000
0.236100 0.000000
0.250900 0.000000
0.265600 0.000000
0.280400 0.000000
0.295200 0.000000
0.310000 0.000000
0.324700 0.000000
0.339500 0.000000
0.354300 0.000000
0.369000 0.000000
0.383800 0.000000
0.398600 0.000000
0.413300 0.000000
0.428100 0.000000
0.442900 0.000000
0.457700 0.000000
0.472400 0.000000
0.487200 0.000000
0.502000 0.000000
0.516700 0.000000
0.531500 0.000000
0.546300 0.000000
0.561100 0.000000
0.575800 0.000000
0.590600 0.000000
0.605400 0.000000
0.620100 0.000000
0.634900 0.000000
0.649700 0.000000
0.664500 0.000000
0.679200 0.000000
0.694000 0.000000
0.708800 0.000000
0.723500 0.000000
0.738300 0.000000
0.753100 0.000000
0.767800 0.001400
0.782600 0.014400
0.797400 0.041200
0.812200 0.084800
0.826900 0.124100
0.841700 0.148900
0.856500 0.171000
0.871200 0.193400
0.886000 0.208300
0.900800 0.232000
0.915600 0.256800
0.930300 0.295300
0.945100 0.429500
0.959900 0.687500
0.974600 1.109000
0.989400 1.488200
1.004200 1.440800
1.019000 1.200900
1.033700 1.286600
1.048500 1.373800
1.063300 1.463000
1.078000 1.538000
1.092800 1.498800
1.107600 1.604400
1.122400 1.721500
1.137100 1.854100
1.151900 2.117100
1.166700 2.254800
1.181400 2.245400
1.196200 2.274700
1.211000 2.343500
1.225700 2.439300
1.240500 2.556600
1.255300 2.637100
1.270100 2.716400
1.284800 2.804500
1.299600 2.882200
1.314400 3.098800
1.329100 3.436400
1.343900 3.907900
1.358700 5.135900
1.373500 6.108700
1.388200 6.686300
1.403000 7.033200
1.417800 6.377400
1.432500 5.922900
1.447300 5.706300
1.462100 5.819900
1.476900 6.154600
1.491600 6.184000
1.506400 4.936300
1.521200 4.641600
1.535900 5.025200
1.550700 4.890200
1.565500 5.601600
1.580300 7.077600
1.595000 8.426300
1.609800 8.825200
1.624600 8.461000
1.639300 8.477900
1.654100 8.354000
1.668900 8.540900
1.683600 7.890000
1.698400 7.486700
1.713200 6.700600
1.728000 6.242200
1.742700 4.866700
1.757500 4.049300
1.772300 3.604400
1.787000 3.338400
1.801800 2.882800
1.816600 2.649100
1.831400 2.629100
1.846100 2.634100
1.860900 2.491600
1.875700 2.180700
1.890400 2.087000
1.905200 2.058100
1.920000 2.061500
1.934800 2.171800
1.949500 2.596900
1.964300 3.622300
1.979100 4.532000
1.993800 6.486600
2.008600 10.092500
2.023400 10.260000
2.038200 9.912200
2.052900 9.816900
2.067700 10.469500
2.082500 11.282900
2.097200 8.554200
2.112000 8.412200
2.126800 9.345000
2.141500 9.717200
2.156300 9.519100
2.171100 8.221200
2.185900 8.583100
2.200600 9.419000
2.215400 11.409600
2.230200 12.707200
2.244900 13.769800
2.259700 16.958800
2.274500 19.281200
2.289300 14.956700
2.304000 12.790500
2.318800 11.791700
2.333600 12.295500
2.348300 16.524000
2.363100 21.998700
2.377900 22.814600
2.392700 20.381200
2.407400 17.788200
2.422200 17.824200
2.437000 18.630300
2.451700 17.798300
2.466500 18.091300
2.481300 18.003600
2.496000 20.382500
2.510800 21.707900
2.525600 24.316600
2.540400 25.084000
2.555100 24.199800
2.569900 21.103000
2.584700 19.595200
2.599400 20.477800
2.614200 21.911000
2.629000 21.621900
2.643800 25.059600
2.658500 26.132300
2.673300 23.515500
2.688100 20.307100
2.702800 18.394000
2.717600 16.759400
2.732400 16.582600
2.747200 17.983700
2.761900 18.157500
2.776700 20.653900
2.791500 19.304300
2.806200 17.670800
2.821000 15.572700
2.835800 15.331400
2.850600 15.096700
2.865300 14.124600
2.880100 13.776600
2.894900 13.267400
2.909600 13.391900
2.924400 16.744400
2.939200 16.972600
2.953900 15.184300
2.968700 13.749400
2.983500 14.802000
2.998300 14.954100
3.013000 11.606500
3.027800 12.104900
3.042600 13.808400
3.057300 12.572200
3.072100 13.268300
3.086900 12.200800
3.101700 11.483600
3.116400 10.133900
3.131200 9.645700
3.146000 10.525600
3.160700 11.018800
3.175500 11.359600
3.190300 12.746900
3.205100 15.308100
3.219800 16.081000
3.234600 15.515000
3.249400 15.724200
3.264100 17.142700
3.278900 18.569200
3.293700 19.957700
3.308500 20.390300
3.323200 19.122100
3.338000 21.897000
3.352800 22.763600
3.367500 19.639000
3.382300 17.961800
3.397100 18.746200
3.411800 18.810600
3.426600 19.848200
3.441400 18.130700
3.456200 17.240600
3.470900 17.390700
3.485700 16.610000
3.500500 16.238000
3.515200 13.976100
3.530000 13.448900
3.544800 13.804300
3.559600 16.570000
3.574300 16.200600
3.589100 17.122800
3.603900 20.848300
3.618600 13.953200
3.633400 14.112700
3.648200 14.076600
3.663000 14.961800
3.677700 15.119900
3.692500 14.916700
3.707300 13.700800
3.722000 12.740700
3.736800 12.083900
3.751600 12.362500
3.766300 11.019200
3.781100 10.618300
3.795900 10.967000
3.810700 12.086600
3.825400 13.109400
3.840200 12.785500
3.855000 12.287100
3.869700 11.676000
3.884500 12.186900
3.899300 12.843000
3.914100 12.874300
3.928800 12.396200
3.943600 11.964700
3.958400 11.365400
3.973100 11.229900
3.987900 11.342200
4.002700 12.479500
4.017500 13.424600
4.032200 14.204800
4.047000 13.922500
4.061800 12.987700
4.076500 13.283600
4.091300 12.683000
4.106100 13.050400
4.120900 12.793900
4.135600 11.931200
4.150400 11.388300
4.165200 11.300600
4.179900 10.967300
4.194700 10.961600
4.209500 11.151300
4.224200 11.122900
4.239000 12.333800
4.253800 12.945600
4.268600 14.254100
4.283300 17.392100
4.298100 18.009300
4.312900 18.172800
4.327600 16.853000
4.342400 15.509900
4.357200 15.155700
4.372000 14.849300
4.386700 15.583700
4.401500 17.679200
4.416300 19.640200
4.431000 21.681700
4.445800 23.408600
4.460600 24.532400
4.475400 26.710200
4.490100 25.548300
4.504900 25.998800
4.519700 27.351500
4.534400 22.194000
4.549200 26.498500
4.564000 24.813400
4.578800 24.054200
4.593500 26.971400
4.608300 24.927600
4.623100 23.044100
4.637800 22.192800
4.652600 25.023500
4.667400 23.250000
4.682100 22.196200
4.696900 21.193500
4.711700 20.426200
4.726500 19.314400
4.741200 17.857400
4.756000 16.092000
4.770800 15.844400
4.785500 15.577500
4.800300 15.903400
4.815100 16.527300
4.829900 15.912700
4.844600 15.627000
4.859400 15.512400
4.874200 15.438500
4.888900 16.714800
4.903700 17.481700
4.918500 17.371600
4.933300 16.365300
4.948000 17.430100
4.962800 21.483100
4.977600 18.708100
4.992300 17.946000
5.007100 17.610800
5.021900 16.967700
5.036700 16.857200
5.051400 17.198400
5.066200 15.624300
5.081000 12.956900
5.095700 12.420700
5.110500 11.723200
5.125300 11.661200
5.140000 11.530100
5.154800 13.700000
5.169600 16.915500
5.184400 15.742700
5.199100 13.029300
5.213900 11.224400
5.228700 10.344700
5.243400 10.001400
5.258200 10.200900
5.273000 11.186300
5.287800 12.509900
5.302500 12.649200
5.317300 13.737400
5.332100 11.991400
5.346800 10.286500
5.361600 9.535800
5.376400 9.168000
5.391200 8.983900
5.405900 8.673400
5.420700 8.670900
5.435500 8.635500
5.450200 9.354500
5.465000 10.333600
5.479800 11.140300
5.494500 10.121500
5.509300 10.044600
5.524100 10.471400
5.538900 13.035600
5.553600 12.100200
5.568400 10.862800
5.583200 10.396400
5.597900 11.308400
5.612700 9.179700
5.627500 6.938000
5.642300 6.765700
5.657000 7.545900
5.671800 8.519100
5.686600 8.615100
5.701300 10.020400
5.716100 14.494900
5.730900 15.553800
5.745700 13.374800
5.760400 10.381500
5.775200 5.879900
5.790000 2.988500
5.804700 1.873100
5.819500 1.627000
5.834300 1.560400
5.849100 1.500300
5.863800 1.434900
5.878600 1.362500
5.893400 1.267600
5.908100 1.196300
5.922900 1.165000
5.937700 1.111300
5.952400 1.029900
5.967200 0.915400
5.982000 0.838900
5.996800 0.799800
6.011500 0.776900
6.026300 0.826300
6.041100 0.884500
6.055800 0.926800
6.070600 0.955600
6.085400 1.039100
6.100200 1.139700
6.114900 1.283400
6.129700 1.405800
6.144500 1.534800
6.159200 1.681800
6.174000 1.841100
6.188800 2.026100
6.203600 2.307300
6.218300 2.595800
6.233100 2.860300
6.247900 3.250200
6.262600 3.968500
6.277400 4.590300
6.292200 4.287400
6.307000 3.891000
6.321700 3.790900
6.336500 3.744900
6.351300 3.693200
6.366000 3.620200
6.380800 3.547400
6.395600 3.518200
6.410300 3.499200
6.425100 3.479100
6.439900 3.468500
6.454700 3.445100
6.469400 3.384800
6.484200 3.344300
6.499000 3.316500
6.513700 3.296400
6.528500 3.266300
6.543300 3.245600
6.558100 3.199000
6.572800 3.140000
6.587600 3.065600
6.602400 3.006300
6.617100 2.973400
6.631900 2.941300
6.646700 2.907000
6.661500 2.880600
6.676200 2.863000
6.691000 2.845800
6.705800 2.832300
6.720500 2.819200
6.735300 2.816900
6.750100 2.820900
6.764900 2.806300
6.779600 2.790400
6.794400 2.775200
6.809200 2.782200
6.823900 2.798100
6.838700 2.822600
6.853500 2.845000
6.868200 2.845500
6.883000 2.864600
6.897800 2.856500
6.912600 2.853500
6.927300 2.870800
6.942100 2.923300
6.956900 2.960500
6.971600 3.015300
6.986400 3.079900
7.001200 3.160800
7.016000 3.189100
7.030700 3.184000
7.045500 3.195300
7.060300 3.228700
7.075000 3.314700
7.089800 3.408300
7.104600 3.458900
7.119400 3.539300
7.134100 3.276500
7.148900 3.214000
7.163700 3.157600
7.178400 3.059000
7.193200 2.939200
7.208000 2.936800
7.222700 2.935300
7.237500 2.940600
7.252300 2.964900
7.267100 3.004500
7.281800 3.030500
7.296600 3.011500
7.311400 2.982800
7.326100 2.964000
7.340900 2.964200
7.355700 2.962600
7.370500 2.965800
7.385200 2.952400
7.400000 2.910800
7.414800 2.824600
7.429500 2.730100
7.444300 2.684600
7.459100 2.646400
7.473900 2.611300
7.488600 2.574000
7.503400 2.535900
7.518200 2.486800
7.532900 2.393500
7.547700 2.350600
7.562500 2.302300
7.577300 2.234800
7.592000 2.183100
7.606800 2.138900
7.621600 2.101800
7.636300 2.070900
7.651100 2.046300
7.665900 2.019900
7.680600 1.985200
7.695400 1.995800
7.710200 2.015200
7.725000 2.045100
7.739700 2.071400
7.754500 2.094300
7.769300 2.120900
7.784000 2.146000
7.798800 2.135100
7.813600 2.125100
7.828400 2.122400
7.843100 2.108100
7.857900 2.098600
7.872700 2.086600
7.887400 2.078800
7.902200 2.079800
7.917000 2.093700
7.931800 2.112900
7.946500 2.124900
7.961300 2.131100
7.976100 2.137500
7.990800 2.177400
8.005600 2.236800
8.020400 2.303700
8.035200 2.345200
8.049900 2.438200
8.064700 2.506100
8.079500 2.513900
8.094200 2.530600
8.109000 2.525000
8.123800 2.496300
8.138500 2.463000
8.153300 2.449900
8.168100 2.402900
8.182900 2.359700
8.197600 2.326100
8.212400 2.321700
8.227200 2.330200
8.241900 2.339100
8.256700 2.351800
8.271500 2.368600
8.286300 2.390600
8.301000 2.343300
8.315800 2.214000
8.330600 2.178300
8.345300 2.172000
8.360100 2.185400
8.374900 2.233200
8.389700 2.289900
8.404400 2.292100
8.419200 2.298100
8.434000 2.302000
8.448700 2.336600
8.463500 2.362100
8.478300 2.409100
8.493100 2.496300
8.507800 2.564200
8.522600 2.556300
8.537400 2.587600
8.552100 2.624600
8.566900 2.663200
8.581700 2.706500
8.596400 2.791900
8.611200 2.919100
8.626000 3.050500
8.640800 2.888400
8.655500 2.894900
8.670300 2.911800
8.685100 2.923900
8.699800 2.930100
8.714600 2.925600
