set title 'mp-725294 - Density of States'
set xlabel 'Energy (eV)'
set ylabel 'DOS (states/eV)'
set grid
set xrange [-10:10]
set yrange [0:97.713]
set xzeroaxis lt -1
set terminal png size 800,600
set output 'mp-725294_dos_gnuplot.png'
plot '-' using 1:2 with lines title 'DOS'
-14.949100 0.000000
-14.936700 0.000000
-14.924400 0.000000
-14.912100 0.000000
-14.899700 0.000000
-14.887400 0.000000
-14.875100 0.000000
-14.862800 0.000000
-14.850400 0.000000
-14.838100 0.000000
-14.825800 0.000000
-14.813400 0.000000
-14.801100 0.000000
-14.788800 0.000000
-14.776500 0.000000
-14.764100 0.000000
-14.751800 0.000000
-14.739500 0.000000
-14.727200 0.000000
-14.714800 0.000000
-14.702500 0.000000
-14.690200 0.000000
-14.677800 0.000000
-14.665500 0.000000
-14.653200 0.000000
-14.640900 0.000000
-14.628500 0.000000
-14.616200 0.000000
-14.603900 0.000000
-14.591600 0.000000
-14.579200 0.000000
-14.566900 0.000000
-14.554600 0.000000
-14.542200 0.000000
-14.529900 0.000000
-14.517600 0.000000
-14.505300 0.000000
-14.492900 0.000000
-14.480600 0.000000
-14.468300 0.000000
-14.456000 0.000000
-14.443600 0.000000
-14.431300 0.000000
-14.419000 0.000000
-14.406600 0.000000
-14.394300 0.000000
-14.382000 0.000000
-14.369700 0.000000
-14.357300 0.000000
-14.345000 0.000000
-14.332700 0.000000
-14.320300 0.000000
-14.308000 0.000000
-14.295700 0.000000
-14.283400 0.000000
-14.271000 0.000000
-14.258700 0.000000
-14.246400 0.000000
-14.234100 0.000000
-14.221700 0.000000
-14.209400 0.000000
-14.197100 0.000000
-14.184700 0.000000
-14.172400 0.000000
-14.160100 0.000000
-14.147800 0.000000
-14.135400 0.000000
-14.123100 0.000000
-14.110800 0.000000
-14.098500 0.000000
-14.086100 0.000000
-14.073800 0.000000
-14.061500 0.000000
-14.049100 0.000000
-14.036800 0.000000
-14.024500 0.000000
-14.012200 0.000000
-13.999800 0.000000
-13.987500 0.000000
-13.975200 0.000000
-13.962800 0.000000
-13.950500 0.000000
-13.938200 0.000000
-13.925900 0.000000
-13.913500 0.000000
-13.901200 0.000000
-13.888900 0.000000
-13.876600 0.000000
-13.864200 0.000000
-13.851900 0.000000
-13.839600 0.000000
-13.827200 0.170600
-13.814900 18.253800
-13.802600 18.253000
-13.790300 18.252200
-13.777900 18.251500
-13.765600 12.216200
-13.753300 6.211000
-13.741000 6.211000
-13.728600 6.210900
-13.716300 6.210900
-13.704000 6.210800
-13.691600 6.210800
-13.679300 6.210700
-13.667000 6.210700
-13.654700 6.210600
-13.642300 6.210600
-13.630000 6.210500
-13.617700 6.210500
-13.605400 5.100900
-13.593000 3.984100
-13.580700 3.984100
-13.568400 3.984100
-13.556000 3.984000
-13.543700 3.984000
-13.531400 3.983900
-13.519100 3.983900
-13.506700 3.983900
-13.494400 3.983800
-13.482100 3.983800
-13.469700 3.983800
-13.457400 3.983700
-13.445100 3.983700
-13.432800 3.983700
-13.420400 3.983600
-13.408100 3.983600
-13.395800 3.983600
-13.383500 3.983500
-13.371100 3.983500
-13.358800 4.212400
-13.346500 4.696600
-13.334100 4.696300
-13.321800 4.695900
-13.309500 4.695500
-13.297200 4.695200
-13.284800 4.694800
-13.272500 4.694500
-13.260200 4.694100
-13.247900 13.824600
-13.235500 25.465600
-13.223200 26.416800
-13.210900 26.410800
-13.198500 18.470300
-13.186200 12.547600
-13.173900 12.381900
-13.161600 12.136800
-13.149200 10.899700
-13.136900 9.976200
-13.124600 7.688800
-13.112300 7.688400
-13.099900 7.688000
-13.087600 7.687700
-13.075300 7.687300
-13.062900 6.156700
-13.050600 5.642000
-13.038300 5.638900
-13.026000 5.638500
-13.013600 5.638100
-13.001300 5.637700
-12.989000 5.637400
-12.976600 5.637000
-12.964300 5.636600
-12.952000 5.636200
-12.939700 5.635900
-12.927300 5.635500
-12.915000 5.635100
-12.902700 6.250000
-12.890400 9.481000
-12.878000 10.735900
-12.865700 11.261800
-12.853400 11.288100
-12.841000 11.021800
-12.828700 9.185900
-12.816400 4.656900
-12.804100 4.661900
-12.791700 4.667000
-12.779400 4.672100
-12.767100 0.293800
-12.754800 0.459200
-12.742400 1.019300
-12.730100 2.081400
-12.717800 3.018400
-12.705400 3.656500
-12.693100 3.845600
-12.680800 3.848600
-12.668500 3.849500
-12.656100 3.850400
-12.643800 3.851300
-12.631500 3.852200
-12.619200 3.853100
-12.606800 3.854000
-12.594500 3.854900
-12.582200 3.855800
-12.569800 3.856700
-12.557500 3.857600
-12.545200 3.858500
-12.532900 3.859300
-12.520500 3.860200
-12.508200 3.861100
-12.495900 3.862000
-12.483500 3.862900
-12.471200 3.030000
-12.458900 2.574800
-12.446600 2.468400
-12.434200 2.468400
-12.421900 2.468400
-12.409600 2.468400
-12.397300 2.468400
-12.384900 2.468400
-12.372600 2.468400
-12.360300 2.468400
-12.347900 2.468400
-12.335600 2.468400
-12.323300 2.468400
-12.311000 2.468400
-12.298600 2.468400
-12.286300 2.468400
-12.274000 2.468400
-12.261700 2.468500
-12.249300 2.468500
-12.237000 2.468500
-12.224700 2.468500
-12.212300 2.468500
-12.200000 2.468500
-12.187700 2.468500
-12.175400 2.468500
-12.163000 2.468500
-12.150700 2.468500
-12.138400 2.468500
-12.126100 2.468500
-12.113700 2.468500
-12.101400 2.468600
-12.089100 2.468600
-12.076700 2.468600
-12.064400 3.076400
-12.052100 3.258300
-12.039800 11.319400
-12.027400 11.318700
-12.015100 11.317900
-12.002800 11.317100
-11.990400 11.316400
-11.978100 11.315600
-11.965800 11.314900
-11.953500 11.314100
-11.941100 11.313300
-11.928800 11.312600
-11.916500 8.192000
-11.904200 8.048500
-11.891800 8.047700
-11.879500 8.046900
-11.867200 8.046100
-11.854800 8.045300
-11.842500 8.044500
-11.830200 8.043700
-11.817900 8.042900
-11.805500 8.042200
-11.793200 8.041400
-11.780900 8.040600
-11.768600 9.696600
-11.756200 13.794400
-11.743900 15.485600
-11.731600 15.677200
-11.719200 16.051800
-11.706900 18.088000
-11.694600 18.592900
-11.682300 16.882800
-11.669900 13.386600
-11.657600 9.891500
-11.645300 8.706500
-11.633000 8.197600
-11.620600 8.050200
-11.608300 8.050600
-11.596000 8.059600
-11.583600 198.039300
-11.571300 114.635700
-11.559000 97.617800
-11.546700 160.454900
-11.534300 89.282100
-11.522000 71.518700
-11.509700 34.695300
-11.497300 24.292300
-11.485000 17.830600
-11.472700 13.353000
-11.460400 9.903200
-11.448000 7.936700
-11.435700 8.118800
-11.423400 8.198300
-11.411100 8.271200
-11.398700 5.087900
-11.386400 2.051600
-11.374100 46.871600
-11.361700 147.918300
-11.349400 65.451300
-11.337100 41.546600
-11.324800 28.005800
-11.312400 23.522100
-11.300100 14.395000
-11.287800 9.016200
-11.275500 3.606100
-11.263100 1.224200
-11.250800 0.097000
-11.238500 0.000000
-11.226100 0.000000
-11.213800 0.000000
-11.201500 0.000000
-11.189200 0.000000
-11.176800 0.000000
-11.164500 0.000000
-11.152200 0.000000
-11.139900 0.000000
-11.127500 0.000000
-11.115200 0.000000
-11.102900 0.000000
-11.090500 0.000000
-11.078200 0.000000
-11.065900 0.000000
-11.053600 0.000000
-11.041200 0.000000
-11.028900 0.000000
-11.016600 0.000000
-11.004200 0.000000
-10.991900 0.000000
-10.979600 0.000000
-10.967300 0.000000
-10.954900 0.000000
-10.942600 0.000000
-10.930300 0.000000
-10.918000 0.000000
-10.905600 0.000000
-10.893300 0.000000
-10.881000 0.000000
-10.868600 0.000000
-10.856300 0.000000
-10.844000 0.000000
-10.831700 0.000000
-10.819300 0.000000
-10.807000 0.000000
-10.794700 0.000000
-10.782400 0.000000
-10.770000 0.000000
-10.757700 0.000000
-10.745400 0.000000
-10.733000 0.000000
-10.720700 0.000000
-10.708400 0.000000
-10.696100 0.000000
-10.683700 0.000000
-10.671400 0.000000
-10.659100 0.000000
-10.646800 0.000000
-10.634400 0.000000
-10.622100 0.000000
-10.609800 0.000000
-10.597400 0.000000
-10.585100 0.000000
-10.572800 0.000000
-10.560500 0.000000
-10.548100 0.000000
-10.535800 0.000000
-10.523500 0.000000
-10.511100 0.000000
-10.498800 0.000000
-10.486500 0.000000
-10.474200 0.000000
-10.461800 0.000000
-10.449500 0.000000
-10.437200 0.000000
-10.424900 0.000000
-10.412500 5.892100
-10.400200 13.983300
-10.387900 17.446500
-10.375500 18.055800
-10.363200 17.049800
-10.350900 11.366100
-10.338600 7.087300
-10.326200 6.191600
-10.313900 6.150200
-10.301600 6.151300
-10.289300 6.152400
-10.276900 6.153500
-10.264600 6.154500
-10.252300 6.155600
-10.239900 6.156700
-10.227600 6.157700
-10.215300 6.158800
-10.203000 6.159900
-10.190600 5.500200
-10.178300 4.854800
-10.166000 4.738000
-10.153700 4.736000
-10.141300 4.736400
-10.129000 4.736700
-10.116700 4.737000
-10.104300 4.737300
-10.092000 4.737600
-10.079700 4.737900
-10.067400 4.738200
-10.055000 4.738600
-10.042700 4.738900
-10.030400 4.739200
-10.018000 4.739500
-10.005700 4.739800
-9.993400 4.740100
-9.981100 6.559200
-9.968700 9.162000
-9.956400 9.541700
-9.944100 9.543500
-9.931800 9.545300
-9.919400 9.547000
-9.907100 9.548700
-9.894800 9.550500
-9.882400 8.969000
-9.870100 2.522200
-9.857800 0.145500
-9.845500 0.000000
-9.833100 0.000000
-9.820800 0.000000
-9.808500 0.000000
-9.796200 0.000000
-9.783800 0.000000
-9.771500 0.000000
-9.759200 0.000000
-9.746800 0.000000
-9.734500 0.000000
-9.722200 0.000000
-9.709900 0.000000
-9.697500 0.000000
-9.685200 0.000000
-9.672900 0.000000
-9.660600 0.000000
-9.648200 0.000000
-9.635900 0.000000
-9.623600 0.000000
-9.611200 0.000000
-9.598900 0.000000
-9.586600 0.000000
-9.574300 0.000000
-9.561900 0.000000
-9.549600 0.000000
-9.537300 0.000000
-9.524900 0.000000
-9.512600 0.000000
-9.500300 0.000000
-9.488000 0.000000
-9.475600 0.000000
-9.463300 0.000000
-9.451000 0.000000
-9.438700 0.000000
-9.426300 0.000000
-9.414000 0.000000
-9.401700 0.000000
-9.389300 0.000000
-9.377000 0.000000
-9.364700 0.000000
-9.352400 0.000000
-9.340000 0.000000
-9.327700 0.000000
-9.315400 0.000000
-9.303100 0.000000
-9.290700 0.000000
-9.278400 0.000000
-9.266100 0.000000
-9.253700 0.000000
-9.241400 0.000000
-9.229100 0.000000
-9.216800 0.000000
-9.204400 0.000000
-9.192100 0.000000
-9.179800 0.000000
-9.167400 0.000000
-9.155100 0.000000
-9.142800 0.000000
-9.130500 0.000000
-9.118100 0.000000
-9.105800 0.000000
-9.093500 0.000000
-9.081200 0.000000
-9.068800 0.000000
-9.056500 0.000000
-9.044200 0.000000
-9.031800 0.000000
-9.019500 0.000000
-9.007200 0.000000
-8.994900 0.000000
-8.982500 0.000000
-8.970200 0.000000
-8.957900 0.000000
-8.945600 0.000000
-8.933200 0.000000
-8.920900 0.000000
-8.908600 0.000000
-8.896200 0.000000
-8.883900 0.000000
-8.871600 0.000000
-8.859300 0.000000
-8.846900 0.000000
-8.834600 0.000000
-8.822300 0.000000
-8.810000 0.000000
-8.797600 0.000000
-8.785300 0.000000
-8.773000 0.000000
-8.760600 0.000000
-8.748300 0.000000
-8.736000 0.000000
-8.723700 0.000000
-8.711300 0.000000
-8.699000 0.000000
-8.686700 0.000000
-8.674300 0.000000
-8.662000 0.000000
-8.649700 0.000000
-8.637400 0.000000
-8.625000 0.000000
-8.612700 0.000000
-8.600400 0.000000
-8.588100 0.000000
-8.575700 0.000000
-8.563400 0.000000
-8.551100 0.000000
-8.538700 0.000000
-8.526400 0.000000
-8.514100 0.000000
-8.501800 0.000000
-8.489400 0.000000
-8.477100 0.000000
-8.464800 0.000000
-8.452500 0.000000
-8.440100 0.000000
-8.427800 0.000000
-8.415500 0.000000
-8.403100 0.000000
-8.390800 0.000000
-8.378500 0.000000
-8.366200 0.000000
-8.353800 0.000000
-8.341500 0.000000
-8.329200 0.000000
-8.316900 0.000000
-8.304500 0.000000
-8.292200 0.000000
-8.279900 0.000000
-8.267500 0.000000
-8.255200 0.000000
-8.242900 0.000000
-8.230600 0.000000
-8.218200 0.000000
-8.205900 0.000000
-8.193600 0.000000
-8.181200 0.000000
-8.168900 0.000000
-8.156600 0.000000
-8.144300 0.000000
-8.131900 0.000000
-8.119600 0.000000
-8.107300 0.000000
-8.095000 0.000000
-8.082600 0.000000
-8.070300 0.000000
-8.058000 0.000000
-8.045600 0.000000
-8.033300 0.000000
-8.021000 0.000000
-8.008700 0.000000
-7.996300 0.000000
-7.984000 0.000000
-7.971700 0.000000
-7.959400 0.000000
-7.947000 0.000000
-7.934700 0.000000
-7.922400 0.000000
-7.910000 0.000000
-7.897700 0.000000
-7.885400 0.000000
-7.873100 0.000000
-7.860700 0.000000
-7.848400 0.000000
-7.836100 0.000000
-7.823800 0.000000
-7.811400 0.000000
-7.799100 0.000000
-7.786800 0.000000
-7.774400 0.000000
-7.762100 0.000000
-7.749800 0.000000
-7.737500 0.000000
-7.725100 0.000000
-7.712800 0.000000
-7.700500 0.000000
-7.688100 0.000000
-7.675800 0.000000
-7.663500 0.000000
-7.651200 0.000000
-7.638800 0.000000
-7.626500 0.000000
-7.614200 0.000000
-7.601900 0.000000
-7.589500 0.000000
-7.577200 0.000000
-7.564900 0.000000
-7.552500 0.000000
-7.540200 0.000000
-7.527900 0.000000
-7.515600 0.000000
-7.503200 0.000000
-7.490900 0.000000
-7.478600 0.000000
-7.466300 0.000000
-7.453900 0.000000
-7.441600 0.000000
-7.429300 0.000000
-7.416900 0.000000
-7.404600 0.000000
-7.392300 0.000000
-7.380000 0.000000
-7.367600 0.000000
-7.355300 0.000000
-7.343000 0.000000
-7.330700 0.000000
-7.318300 0.000000
-7.306000 0.000000
-7.293700 0.000000
-7.281300 0.000000
-7.269000 0.000000
-7.256700 0.000000
-7.244400 0.000000
-7.232000 0.000000
-7.219700 0.000000
-7.207400 0.000000
-7.195000 0.000000
-7.182700 0.000000
-7.170400 0.000000
-7.158100 0.000000
-7.145700 0.000000
-7.133400 0.000000
-7.121100 0.000000
-7.108800 0.000000
-7.096400 0.000000
-7.084100 0.000000
-7.071800 0.000000
-7.059400 0.000000
-7.047100 0.000000
-7.034800 0.000000
-7.022500 0.000000
-7.010100 0.000000
-6.997800 0.000000
-6.985500 0.000000
-6.973200 0.000000
-6.960800 0.000000
-6.948500 0.000000
-6.936200 0.000000
-6.923800 0.000000
-6.911500 0.000000
-6.899200 0.000000
-6.886900 0.000000
-6.874500 0.000000
-6.862200 0.000000
-6.849900 0.000000
-6.837600 0.000000
-6.825200 0.000000
-6.812900 0.000000
-6.800600 0.000000
-6.788200 0.000000
-6.775900 0.000000
-6.763600 0.000000
-6.751300 0.000000
-6.738900 0.000000
-6.726600 0.000000
-6.714300 0.000000
-6.701900 0.000000
-6.689600 0.000000
-6.677300 0.000000
-6.665000 0.000000
-6.652600 0.000000
-6.640300 0.000000
-6.628000 0.000000
-6.615700 0.000000
-6.603300 0.000000
-6.591000 0.000000
-6.578700 0.000000
-6.566300 0.000000
-6.554000 0.000000
-6.541700 0.000000
-6.529400 0.000000
-6.517000 0.000000
-6.504700 0.000000
-6.492400 0.000000
-6.480100 0.000000
-6.467700 0.000000
-6.455400 0.000000
-6.443100 0.000000
-6.430700 0.000000
-6.418400 0.000000
-6.406100 0.000000
-6.393800 0.000000
-6.381400 0.000000
-6.369100 0.000000
-6.356800 0.000000
-6.344500 0.000000
-6.332100 0.000000
-6.319800 0.000000
-6.307500 0.000000
-6.295100 0.000000
-6.282800 0.000000
-6.270500 0.000000
-6.258200 0.000000
-6.245800 0.000000
-6.233500 0.000000
-6.221200 0.000000
-6.208800 0.000000
-6.196500 0.000000
-6.184200 0.000000
-6.171900 0.000000
-6.159500 0.000000
-6.147200 0.000000
-6.134900 0.000000
-6.122600 0.000000
-6.110200 0.000000
-6.097900 0.000000
-6.085600 0.000000
-6.073200 0.000000
-6.060900 0.000000
-6.048600 0.000000
-6.036300 0.000000
-6.023900 0.000000
-6.011600 0.000000
-5.999300 0.000000
-5.987000 0.000000
-5.974600 0.000000
-5.962300 0.000000
-5.950000 0.000000
-5.937600 0.000000
-5.925300 0.000000
-5.913000 0.000000
-5.900700 0.000000
-5.888300 0.000000
-5.876000 0.000000
-5.863700 0.000000
-5.851400 0.000000
-5.839000 0.000000
-5.826700 0.000000
-5.814400 0.000000
-5.802000 0.000000
-5.789700 0.000000
-5.777400 1.429400
-5.765100 3.552800
-5.752700 3.607200
-5.740400 3.607200
-5.728100 3.607100
-5.715700 3.607100
-5.703400 3.607000
-5.691100 3.607000
-5.678800 3.607000
-5.666400 3.606900
-5.654100 3.606900
-5.641800 3.606800
-5.629500 3.606800
-5.617100 3.606800
-5.604800 3.606700
-5.592500 3.606700
-5.580100 3.606700
-5.567800 3.606600
-5.555500 3.606600
-5.543200 3.606500
-5.530800 3.606500
-5.518500 3.606500
-5.506200 3.606400
-5.493900 1.716300
-5.481500 1.346300
-5.469200 1.346300
-5.456900 1.346300
-5.444500 1.346300
-5.432200 1.346300
-5.419900 1.346300
-5.407600 1.346300
-5.395200 1.346300
-5.382900 1.346300
-5.370600 1.346200
-5.358300 1.346200
-5.345900 1.346200
-5.333600 1.346200
-5.321300 1.346200
-5.308900 1.346200
-5.296600 1.346200
-5.284300 1.346200
-5.272000 1.346200
-5.259600 1.346200
-5.247300 1.346100
-5.235000 1.346100
-5.222600 1.346100
-5.210300 1.346100
-5.198000 4.743300
-5.185700 4.743300
-5.173300 4.743300
-5.161000 4.743200
-5.148700 4.743200
-5.136400 4.743200
-5.124000 4.743200
-5.111700 4.743200
-5.099400 4.743200
-5.087000 4.743200
-5.074700 4.743200
-5.062400 4.743200
-5.050100 4.743100
-5.037700 4.743100
-5.025400 4.743100
-5.013100 4.743100
-5.000800 4.743100
-4.988400 4.743100
-4.976100 4.743100
-4.963800 4.743100
-4.951400 4.743100
-4.939100 4.743000
-4.926800 4.743000
-4.914500 4.743000
-4.902100 3.019200
-4.889800 3.017300
-4.877500 3.015400
-4.865200 3.013400
-4.852800 3.011600
-4.840500 3.009700
-4.828200 3.007800
-4.815800 3.005900
-4.803500 3.004100
-4.791200 3.002200
-4.778900 3.000400
-4.766500 3.079500
-4.754200 3.348700
-4.741900 3.610400
-4.729500 3.696900
-4.717200 3.698700
-4.704900 3.694500
-4.692600 3.690200
-4.680200 3.686000
-4.667900 3.681800
-4.655600 3.677700
-4.643300 3.673600
-4.630900 3.669400
-4.618600 3.665400
-4.606300 3.661300
-4.593900 3.657300
-4.581600 3.653300
-4.569300 3.649300
-4.557000 3.645400
-4.544600 3.641500
-4.532300 3.637600
-4.520000 3.633700
-4.507700 3.629800
-4.495300 3.626000
-4.483000 3.622200
-4.470700 6.885100
-4.458300 9.600800
-4.446000 9.217000
-4.433700 8.934000
-4.421400 8.926600
-4.409000 9.254200
-4.396700 9.732500
-4.384400 10.275500
-4.372000 10.834500
-4.359700 11.334400
-4.347400 11.825200
-4.335100 15.535500
-4.322700 18.883400
-4.310400 18.552400
-4.298100 18.256500
-4.285800 18.244800
-4.273400 18.445600
-4.261100 18.647300
-4.248800 18.849800
-4.236400 19.053100
-4.224100 22.310600
-4.211800 28.469800
-4.199500 34.769200
-4.187100 44.114200
-4.174800 37.138600
-4.162500 26.371100
-4.150200 29.148500
-4.137800 28.960200
-4.125500 29.678700
-4.113200 29.491900
-4.100800 28.386900
-4.088500 18.912500
-4.076200 14.756400
-4.063900 5.560500
-4.051500 2.793600
-4.039200 2.794100
-4.026900 2.794700
-4.014600 2.795200
-4.002200 2.795700
-3.989900 2.796300
-3.977600 2.796800
-3.965200 2.797400
-3.952900 2.798000
-3.940600 2.798600
-3.928300 2.799200
-3.915900 2.799800
-3.903600 2.800400
-3.891300 2.801000
-3.878900 2.801600
-3.866600 2.802200
-3.854300 2.802800
-3.842000 2.803500
-3.829600 2.804100
-3.817300 2.804800
-3.805000 2.805400
-3.792700 2.806100
-3.780300 2.806800
-3.768000 2.807400
-3.755700 2.808100
-3.743300 2.808800
-3.731000 2.809500
-3.718700 2.810200
-3.706400 2.810900
-3.694000 2.811700
-3.681700 2.812400
-3.669400 2.813100
-3.657100 2.813900
-3.644700 2.814600
-3.632400 2.807900
-3.620100 2.775700
-3.607700 2.705400
-3.595400 2.607500
-3.583100 2.549700
-3.570800 2.532200
-3.558400 2.531400
-3.546100 2.530500
-3.533800 2.529700
-3.521500 2.528900
-3.509100 2.528100
-3.496800 2.527300
-3.484500 2.526500
-3.472100 2.525700
-3.459800 2.524900
-3.447500 2.524200
-3.435200 2.523400
-3.422800 2.522600
-3.410500 2.521800
-3.398200 2.521100
-3.385800 2.520300
-3.373500 2.519500
-3.361200 2.518800
-3.348900 2.518000
-3.336500 5.339000
-3.324200 8.710500
-3.311900 14.198400
-3.299600 13.963900
-3.287200 13.852400
-3.274900 12.411400
-3.262600 13.553300
-3.250200 14.327500
-3.237900 13.512900
-3.225600 14.235600
-3.213300 13.622200
-3.200900 13.708900
-3.188600 12.670400
-3.176300 12.220900
-3.164000 12.076000
-3.151600 12.094900
-3.139300 12.091400
-3.127000 12.291600
-3.114600 12.884600
-3.102300 13.474900
-3.090000 14.021100
-3.077700 14.026600
-3.065300 14.195100
-3.053000 13.985100
-3.040700 13.938000
-3.028400 13.499100
-3.016000 13.173700
-3.003700 12.875900
-2.991400 12.551700
-2.979000 12.201100
-2.966700 11.852000
-2.954400 11.603900
-2.942100 11.361700
-2.929700 11.253200
-2.917400 11.294300
-2.905100 11.073900
-2.892700 10.699800
-2.880400 10.733400
-2.868100 10.617000
-2.855800 10.645500
-2.843400 10.675200
-2.831100 10.705900
-2.818800 10.737900
-2.806500 10.771100
-2.794100 10.814900
-2.781800 11.032200
-2.769500 11.292100
-2.757100 11.392700
-2.744800 11.216400
-2.732500 11.858200
-2.720200 11.922700
-2.707800 10.867700
-2.695500 9.738600
-2.683200 9.277700
-2.670900 8.990000
-2.658500 8.662000
-2.646200 8.350900
-2.633900 8.057000
-2.621500 7.684400
-2.609200 7.371600
-2.596900 7.162300
-2.584600 6.956700
-2.572200 6.744700
-2.559900 6.526500
-2.547600 6.306100
-2.535300 6.148900
-2.522900 6.075600
