set title 'mp-632329 - Density of States'
set xlabel 'Energy (eV)'
set ylabel 'DOS (states/eV)'
set grid
set xrange [-10:10]
set yrange [0:1.293]
set xzeroaxis lt -1
set terminal png size 800,600
set output 'mp-632329_dos_gnuplot.png'
plot '-' using 1:2 with lines title 'DOS'
-21.488200 0.000000
-21.425000 0.000000
-21.361900 0.000000
-21.298800 0.000000
-21.235700 0.000000
-21.172600 0.000000
-21.109400 0.000000
-21.046300 0.000000
-20.983200 0.000000
-20.920100 0.000000
-20.856900 0.000000
-20.793800 0.000000
-20.730700 0.000000
-20.667600 0.000000
-20.604400 0.000000
-20.541300 0.000000
-20.478200 0.000000
-20.415100 0.000000
-20.351900 0.000000
-20.288800 0.000000
-20.225700 0.000000
-20.162600 0.000000
-20.099500 0.000000
-20.036300 0.000000
-19.973200 0.000000
-19.910100 0.000000
-19.847000 0.000000
-19.783800 0.000000
-19.720700 0.000000
-19.657600 0.000000
-19.594500 0.000000
-19.531300 0.000000
-19.468200 0.000000
-19.405100 0.000000
-19.342000 0.000000
-19.278800 0.000000
-19.215700 0.000000
-19.152600 0.000000
-19.089500 0.000000
-19.026300 0.000000
-18.963200 0.000000
-18.900100 0.000000
-18.837000 0.000000
-18.773900 0.000000
-18.710700 0.000000
-18.647600 0.000000
-18.584500 0.000000
-18.521400 0.000000
-18.458200 0.000000
-18.395100 0.000000
-18.332000 0.000000
-18.268900 0.000000
-18.205700 0.000000
-18.142600 0.000000
-18.079500 0.000000
-18.016400 0.000000
-17.953200 0.000000
-17.890100 0.000000
-17.827000 0.000000
-17.763900 0.000000
-17.700800 0.000000
-17.637600 0.000000
-17.574500 0.000000
-17.511400 0.000000
-17.448300 0.000000
-17.385100 0.000000
-17.322000 0.000000
-17.258900 0.000000
-17.195800 0.000000
-17.132600 0.000000
-17.069500 0.000000
-17.006400 0.000000
-16.943300 0.000000
-16.880100 0.000000
-16.817000 0.000000
-16.753900 0.000000
-16.690800 0.000000
-16.627700 0.000000
-16.564500 0.000000
-16.501400 0.000000
-16.438300 0.000000
-16.375200 0.000000
-16.312000 0.000000
-16.248900 0.000000
-16.185800 0.000000
-16.122700 0.000000
-16.059500 0.000000
-15.996400 0.000000
-15.933300 0.000000
-15.870200 0.000000
-15.807000 0.000000
-15.743900 0.003400
-15.680800 0.143400
-15.617700 0.262800
-15.554500 0.303300
-15.491400 0.309400
-15.428300 0.302500
-15.365200 0.312200
-15.302100 0.311900
-15.238900 0.303000
-15.175800 0.305500
-15.112700 0.313200
-15.049600 0.313500
-14.986400 0.309700
-14.923300 0.305300
-14.860200 0.307500
-14.797100 0.311200
-14.733900 0.316100
-14.670800 0.314300
-14.607700 0.308900
-14.544600 0.307700
-14.481400 0.309200
-14.418300 0.311500
-14.355200 0.314200
-14.292100 0.316900
-14.229000 0.315200
-14.165800 0.311700
-14.102700 0.310700
-14.039600 0.311100
-13.976500 0.312600
-13.913300 0.314600
-13.850200 0.316700
-13.787100 0.318700
-13.724000 0.317700
-13.660800 0.314800
-13.597700 0.314000
-13.534600 0.314400
-13.471500 0.315100
-13.408300 0.316200
-13.345200 0.317700
-13.282100 0.319500
-13.219000 0.321300
-13.155900 0.321100
-13.092700 0.319300
-13.029600 0.318300
-12.966500 0.318400
-12.903400 0.319000
-12.840200 0.320000
-12.777100 0.321000
-12.714000 0.322100
-12.650900 0.323500
-12.587700 0.325200
-12.524600 0.326100
-12.461500 0.325400
-12.398400 0.324300
-12.335200 0.324400
-12.272100 0.325100
-12.209000 0.325900
-12.145900 0.327000
-12.082800 0.328300
-12.019600 0.329700
-11.956500 0.331000
-11.893400 0.332500
-11.830300 0.334100
-11.767100 0.334700
-11.704000 0.334700
-11.640900 0.335500
-11.577800 0.336700
-11.514600 0.338300
-11.451500 0.340300
-11.388400 0.342500
-11.325300 0.345200
-11.262100 0.348400
-11.199000 0.351600
-11.135900 0.354900
-11.072800 0.358400
-11.009600 0.364100
-10.946500 0.372800
-10.883400 0.383300
-10.820300 0.394500
-10.757200 0.407100
-10.694000 0.452300
-10.630900 0.495600
-10.567800 0.554400
-10.504700 0.564000
-10.441500 0.433600
-10.378400 0.337700
-10.315300 0.285100
-10.252200 0.263100
-10.189000 0.303100
-10.125900 0.314300
-10.062800 0.253700
-9.999700 0.201000
-9.936500 0.187500
-9.873400 0.174100
-9.810300 0.160600
-9.747200 0.147200
-9.684100 0.133700
-9.620900 0.127100
-9.557800 0.136800
-9.494700 0.156000
-9.431600 0.142100
-9.368400 0.120800
-9.305300 0.178400
-9.242200 0.272800
-9.179100 0.286700
-9.115900 0.321700
-9.052800 0.420400
-8.989700 0.289400
-8.926600 0.291100
-8.863400 0.292900
-8.800300 0.300200
-8.737200 0.368700
-8.674100 0.450700
-8.611000 0.406800
-8.547800 0.452400
-8.484700 0.499100
-8.421600 0.544200
-8.358500 0.509400
-8.295300 0.431000
-8.232200 0.399100
-8.169100 0.388200
-8.106000 0.377600
-8.042800 0.367900
-7.979700 0.358900
-7.916600 0.350000
-7.853500 0.341200
-7.790300 0.332300
-7.727200 0.323600
-7.664100 0.317700
-7.601000 0.313800
-7.537800 0.311300
-7.474700 0.308800
-7.411600 0.306300
-7.348500 0.303700
-7.285400 0.301000
-7.222200 0.298300
-7.159100 0.285300
-7.096000 0.278600
-7.032900 0.275300
-6.969700 0.274100
-6.906600 0.272800
-6.843500 0.271600
-6.780400 0.270300
-6.717200 0.273600
-6.654100 0.298100
-6.591000 0.324400
-6.527900 0.350700
-6.464700 0.377000
-6.401600 0.386300
-6.338500 0.361100
-6.275400 0.360900
-6.212300 0.361000
-6.149100 0.360900
-6.086000 0.360700
-6.022900 0.362500
-5.959800 0.367700
-5.896600 0.373300
-5.833500 0.378800
-5.770400 0.384400
-5.707300 0.383800
-5.644100 0.379300
-5.581000 0.377500
-5.517900 0.377900
-5.454800 0.378300
-5.391600 0.378600
-5.328500 0.386100
-5.265400 0.392800
-5.202300 0.395000
-5.139200 0.396900
-5.076000 0.397500
-5.012900 0.397100
-4.949800 0.396700
-4.886700 0.396300
-4.823500 0.397400
-4.760400 0.402000
-4.697300 0.408200
-4.634200 0.413300
-4.571000 0.418200
-4.507900 0.422800
-4.444800 0.426900
-4.381700 0.429400
-4.318500 0.430900
-4.255400 0.469500
-4.192300 0.486700
-4.129200 0.504700
-4.066000 0.517100
-4.002900 0.530100
-3.939800 0.557900
-3.876700 0.579200
-3.813600 0.596100
-3.750400 0.612300
-3.687300 0.627800
-3.624200 0.643900
-3.561100 0.660400
-3.497900 0.676300
-3.434800 0.691000
-3.371700 0.708200
-3.308600 0.734300
-3.245400 0.821700
-3.182300 0.906900
-3.119200 0.936300
-3.056100 0.943300
-2.992900 0.882300
-2.929800 0.842300
-2.866700 0.822600
-2.803600 0.811300
-2.740500 0.919300
-2.677300 1.094800
-2.614200 1.175600
-2.551100 1.155000
-2.488000 1.102300
-2.424800 1.016800
-2.361700 0.943700
-2.298600 0.886800
-2.235500 0.790300
-2.172300 0.751500
-2.109200 0.738300
-2.046100 0.745100
-1.983000 0.774700
-1.919800 0.702700
-1.856700 0.647100
-1.793600 0.653500
-1.730500 0.649000
-1.667400 0.645500
-1.604200 0.670900
-1.541100 0.791100
-1.478000 0.699600
-1.414900 0.684700
-1.351700 0.686400
-1.288600 0.690400
-1.225500 0.696900
-1.162400 0.701600
-1.099200 0.673400
-1.036100 0.639600
-0.973000 0.629400
-0.909900 0.621900
-0.846700 0.615000
-0.783600 0.608500
-0.720500 0.602200
-0.657400 0.596100
-0.594200 0.591100
-0.531100 0.592300
-0.468000 0.598900
-0.404900 0.592200
-0.341800 0.585400
-0.278600 0.578600
-0.215500 0.572300
-0.152400 0.566200
-0.089300 0.562300
-0.026100 0.569200
0.037000 0.577000
0.100100 0.577500
0.163200 0.571600
0.226400 0.564100
0.289500 0.555900
0.352600 0.554500
0.415700 0.562000
0.478900 0.561000
0.542000 0.577100
0.605100 0.568700
0.668200 0.538400
0.731300 0.473900
0.794500 0.402700
0.857600 0.377200
0.920700 0.391200
0.983800 0.418900
1.047000 0.436100
1.110100 0.441900
1.173200 0.469200
1.236300 0.453300
1.299500 0.458400
1.362600 0.447700
1.425700 0.440500
1.488800 0.432400
1.552000 0.425100
1.615100 0.420200
1.678200 0.413600
1.741300 0.400800
1.804400 0.365600
1.867600 0.342900
1.930700 0.308300
1.993800 0.281500
2.056900 0.260800
2.120100 0.241900
2.183200 0.225100
2.246300 0.211400
2.309400 0.199900
2.372600 0.189600
2.435700 0.178200
2.498800 0.165700
2.561900 0.157000
2.625100 0.151000
2.688200 0.142000
2.751300 0.130700
2.814400 0.118900
2.877600 0.108700
2.940700 0.099500
3.003800 0.091600
3.066900 0.084600
3.130000 0.077700
3.193200 0.070500
3.256300 0.062600
3.319400 0.053700
3.382500 0.042800
3.445700 0.034000
3.508800 0.027900
3.571900 0.022700
3.635000 0.019300
3.698200 0.017100
3.761300 0.016000
3.824400 0.016000
3.887500 0.016900
3.950700 0.018700
4.013800 0.021600
4.076900 0.025700
4.140000 0.031300
4.203100 0.039300
4.266300 0.049800
4.329400 0.063200
4.392500 0.072900
4.455600 0.081000
4.518800 0.088900
4.581900 0.098000
4.645000 0.109700
4.708100 0.123000
4.771300 0.137700
4.834400 0.154100
4.897500 0.180700
4.960600 0.213900
5.023800 0.238800
5.086900 0.308100
5.150000 0.359400
5.213100 0.359000
5.276200 0.369200
5.339400 0.379000
5.402500 0.383700
5.465600 0.389000
5.528700 0.395400
5.591900 0.405000
5.655000 0.402900
5.718100 0.410200
5.781200 0.410300
5.844400 0.420600
5.907500 0.439800
5.970600 0.431400
6.033700 0.423800
6.096900 0.390100
6.160000 0.359300
6.223100 0.342600
6.286200 0.328400
6.349400 0.316800
6.412500 0.307700
6.475600 0.300100
6.538700 0.293500
6.601800 0.287400
6.665000 0.281700
6.728100 0.276200
6.791200 0.270900
6.854300 0.265900
6.917500 0.261300
6.980600 0.256900
7.043700 0.252800
7.106800 0.248800
7.170000 0.245100
7.233100 0.241600
7.296200 0.238200
7.359300 0.235000
7.422500 0.233000
7.485600 0.242600
7.548700 0.250900
7.611800 0.260400
7.674900 0.263800
7.738100 0.264900
7.801200 0.266200
7.864300 0.268200
7.927400 0.270000
7.990600 0.271500
8.053700 0.272900
8.116800 0.274800
8.179900 0.277000
8.243100 0.278500
8.306200 0.279000
8.369300 0.279700
8.432400 0.280900
8.495600 0.282100
8.558700 0.283600
8.621800 0.285100
8.684900 0.286800
8.748000 0.288100
8.811200 0.288800
8.874300 0.289400
8.937400 0.290400
9.000500 0.291800
9.063700 0.293400
9.126800 0.295100
9.189900 0.297100
9.253000 0.299800
9.316200 0.302900
9.379300 0.305900
9.442400 0.309500
9.505500 0.315500
9.568700 0.335600
9.631800 0.349400
9.694900 0.355200
9.758000 0.350200
9.821200 0.346200
9.884300 0.338000
9.947400 0.321800
10.010500 0.288400
10.073600 0.257900
10.136800 0.241100
10.199900 0.236000
10.263000 0.248200
10.326100 0.248100
10.389300 0.291700
10.452400 0.303300
10.515500 0.308200
10.578600 0.314200
10.641800 0.320800
10.704900 0.327400
10.768000 0.326900
10.831100 0.326700
10.894300 0.330400
10.957400 0.342500
11.020500 0.386300
11.083600 0.437500
11.146700 0.515400
11.209900 0.638900
11.273000 0.760900
11.336100 0.865000
11.399200 0.885700
11.462400 0.855300
11.525500 0.832000
11.588600 0.821700
11.651700 0.852200
11.714900 0.905900
11.778000 0.949600
11.841100 0.991300
11.904200 1.004500
11.967400 1.027300
12.030500 1.206100
12.093600 1.430300
12.156700 1.660200
12.219800 1.738500
12.283000 1.703800
12.346100 1.429200
12.409200 1.252000
12.472300 1.104100
12.535500 1.003000
12.598600 0.927400
12.661700 0.878200
12.724800 0.895200
12.788000 0.904400
12.851100 0.913300
12.914200 0.945300
12.977300 0.975200
13.040500 1.012000
13.103600 0.990700
13.166700 0.959800
13.229800 0.962400
13.293000 0.984500
13.356100 1.029500
13.419200 0.924800
13.482300 0.884800
13.545400 0.833100
13.608600 0.781500
13.671700 0.692200
13.734800 0.673300
13.797900 0.673100
13.861100 0.684400
13.924200 0.833400
13.987300 0.924500
14.050400 1.015600
14.113600 1.118800
14.176700 1.121500
14.239800 1.126000
14.302900 1.102700
14.366100 1.114500
14.429200 1.095000
14.492300 0.963700
14.555400 0.847000
14.618500 0.880500
14.681700 0.915200
14.744800 0.881400
14.807900 0.849600
14.871000 0.811000
14.934200 0.811600
14.997300 0.814600
15.060400 0.787800
15.123500 0.754600
15.186700 0.696700
15.249800 0.650600
15.312900 0.637400
15.376000 0.630800
15.439200 0.677600
15.502300 0.691200
15.565400 0.691500
15.628500 0.652700
15.691600 0.594300
15.754800 0.596400
15.817900 0.601600
15.881000 0.639100
15.944100 0.668300
16.007300 0.653300
16.070400 0.622000
16.133500 0.603500
16.196600 0.613200
16.259800 0.725500
16.322900 0.850000
16.386000 0.955700
16.449100 0.958100
16.512300 0.899000
16.575400 0.837300
16.638500 0.793700
16.701600 0.750900
16.764700 0.736100
16.827900 0.726700
16.891000 0.711800
16.954100 0.700400
17.017200 0.685300
17.080400 0.671500
17.143500 0.657200
17.206600 0.659500
17.269700 0.649900
17.332900 0.645500
17.396000 0.642300
17.459100 0.645700
17.522200 0.667000
17.585400 0.664200
17.648500 0.653500
17.711600 0.665900
17.774700 0.674100
17.837900 0.667100
17.901000 0.666600
17.964100 0.670300
18.027200 0.677600
18.090300 0.683200
18.153500 0.707300
18.216600 0.713500
18.279700 0.721000
18.342800 0.735700
18.406000 0.766400
18.469100 0.748700
18.532200 0.737100
18.595300 0.726600
18.658500 0.719900
18.721600 0.715300
18.784700 0.712100
18.847800 0.713100
18.911000 0.734300
18.974100 0.737900
19.037200 0.753100
19.100300 0.761900
19.163400 0.764600
19.226600 0.756500
19.289700 0.749600
19.352800 0.735700
19.415900 0.725100
19.479100 0.725800
19.542200 0.718900
19.605300 0.718600
19.668400 0.731500
19.731600 0.745700
19.794700 0.768800
19.857800 0.800000
19.920900 0.842000
19.984100 0.930300
20.047200 0.875700
20.110300 0.851600
20.173400 0.830200
20.236500 0.841100
20.299700 0.798500
20.362800 0.747000
20.425900 0.690200
20.489000 0.641600
20.552200 0.610000
20.615300 0.574700
20.678400 0.538100
20.741500 0.514900
20.804700 0.501400
20.867800 0.441600
20.930900 0.446800
20.994000 0.528300
21.057200 0.605500
21.120300 0.636800
21.183400 0.700800
21.246500 0.790600
21.309700 0.888000
21.372800 0.990300
21.435900 1.108100
21.499000 1.178700
21.562100 1.295200
21.625300 1.304800
21.688400 1.341700
21.751500 1.405500
21.814600 1.455800
21.877800 1.374600
21.940900 1.313600
22.004000 1.294200
22.067100 1.300500
22.130300 1.226500
22.193400 1.119500
22.256500 1.048500
22.319600 0.990000
22.382800 0.952600
22.445900 0.925600
22.509000 0.892000
22.572100 0.864600
22.635200 0.854500
22.698400 0.830900
22.761500 0.809000
22.824600 0.791900
22.887700 0.730000
22.950900 0.704000
23.014000 0.678100
23.077100 0.654300
23.140200 0.631200
23.203400 0.618600
23.266500 0.612100
23.329600 0.615300
23.392700 0.622900
23.455900 0.632600
23.519000 0.668300
23.582100 0.582400
23.645200 0.574000
23.708300 0.577700
23.771500 0.597000
23.834600 0.607100
23.897700 0.602700
23.960800 0.581800
24.024000 0.557400
24.087100 0.540900
24.150200 0.529000
24.213300 0.519500
24.276500 0.526300
24.339600 0.527200
24.402700 0.550600
24.465800 0.597500
24.529000 0.673900
24.592100 0.711600
24.655200 0.758900
24.718300 0.828000
24.781500 0.843800
24.844600 0.874000
24.907700 0.852300
24.970800 0.831200
25.033900 0.818300
25.097100 0.824200
25.160200 0.840800
25.223300 0.843300
25.286400 0.825400
25.349600 0.808300
25.412700 0.820900
25.475800 0.798500
25.538900 0.792400
25.602100 0.784000
25.665200 0.783000
25.728300 0.764900
25.791400 0.760800
25.854600 0.755100
25.917700 0.750900
25.980800 0.764300
26.043900 0.775600
26.107000 0.799700
26.170200 0.837600
26.233300 0.895600
26.296400 0.906100
26.359500 0.920800
26.422700 0.951400
26.485800 0.970900
26.548900 0.994400
26.612000 1.034900
26.675200 1.042100
26.738300 1.092400
26.801400 1.112200
26.864500 1.134400
26.927700 1.124900
26.990800 1.096600
27.053900 1.059800
27.117000 1.033600
27.180100 0.889200
27.243300 0.681100
27.306400 0.607200
27.369500 0.556700
27.432600 0.533200
27.495800 0.515800
27.558900 0.556200
27.622000 0.622900
27.685100 0.641000
27.748300 0.681900
27.811400 0.677500
27.874500 0.674500
27.937600 0.688600
28.000800 0.708800
28.063900 0.719300
28.127000 0.745500
28.190100 0.765900
28.253300 0.774000
28.316400 0.789600
28.379500 0.761700
28.442600 0.698900
28.505700 0.676300
28.568900 0.702400
28.632000 0.742900
28.695100 0.790200
28.758200 0.851900
28.821400 0.899400
28.884500 0.941100
28.947600 0.965900
29.010700 1.037600
29.073900 1.119500
29.137000 1.143600
29.200100 1.171600
29.263200 1.165900
29.326400 1.187400
29.389500 1.175300
29.452600 1.156700
29.515700 1.144500
29.578800 1.138100
29.642000 1.152100
29.705100 1.175100
29.768200 1.196500
29.831300 1.250600
29.894500 1.320000
29.957600 1.323700
30.020700 1.324500
30.083800 1.325300
30.147000 1.224100
30.210100 1.198400
30.273200 1.113600
30.336300 1.023100
30.399500 0.970200
30.462600 0.945000
30.525700 0.923400
30.588800 0.931400
30.651900 0.947000
30.715100 0.969300
30.778200 1.001100
30.841300 1.030200
30.904400 1.034400
30.967600 1.057000
31.030700 1.052900
31.093800 1.053800
31.156900 1.014800
31.220100 0.963000
31.283200 0.928900
31.346300 0.907500
31.409400 0.870300
31.472600 0.837100
31.535700 0.814800
31.598800 0.783200
31.661900 0.748100
31.725100 0.726500
31.788200 0.715800
31.851300 0.723600
31.914400 0.757500
31.977500 0.805000
32.040700 0.896200
32.103800 1.000400
32.166900 1.053400
32.230000 1.084200
32.293200 1.081100
32.356300 1.096200
32.419400 1.048200
32.482500 1.003600
32.545700 0.971900
32.608800 0.956200
32.671900 0.969300
32.735000 0.976500
32.798200 0.986700
32.861300 1.004300
32.924400 1.060500
32.987500 1.040700
33.050600 1.017600
33.113800 0.962500
33.176900 0.894400
33.240000 0.842500
33.303100 0.802800
33.366300 0.767700
33.429400 0.743300
33.492500 0.709100
33.555600 0.683100
33.618800 0.656900
33.681900 0.645900
33.745000 0.620300
33.808100 0.567100
33.871300 0.562200
33.934400 0.560100
33.997500 0.559100
34.060600 0.540300
34.123700 0.529300
34.186900 0.522000
34.250000 0.513500
34.313100 0.505700
34.376200 0.501000
34.439400 0.502200
34.502500 0.510900
34.565600 0.510000
34.628700 0.515800
34.691900 0.528100
34.755000 0.554000
34.818100 0.568000
34.881200 0.579200
34.944400 0.587100
35.007500 0.594200
35.070600 0.583000
35.133700 0.581100
35.196900 0.582300
35.260000 0.583200
35.323100 0.579400
35.386200 0.579100
35.449300 0.577900
35.512500 0.581000
35.575600 0.586800
35.638700 0.595400
35.701800 0.618100
35.765000 0.634500
35.828100 0.647100
35.891200 0.660600
35.954300 0.679800
36.017500 0.690100
36.080600 0.719900
36.143700 0.762400
36.206800 0.779700
36.270000 0.796600
36.333100 0.798700
36.396200 0.797600
36.459300 0.798000
36.522400 0.794900
36.585600 0.791800
36.648700 0.783100
36.711800 0.768800
36.774900 0.744700
36.838100 0.725300
36.901200 0.708500
36.964300 0.695000
37.027400 0.685000
37.090600 0.676400
37.153700 0.668800
37.216800 0.665800
37.279900 0.668400
37.343100 0.657400
37.406200 0.661400
37.469300 0.668400
37.532400 0.677200
37.595500 0.678800
37.658700 0.672300
37.721800 0.664500
37.784900 0.661300
37.848000 0.663600
37.911200 0.660900
37.974300 0.665200
38.037400 0.672500
38.100500 0.682000
38.163700 0.689500
38.226800 0.695600
38.289900 0.698500
38.353000 0.708100
38.416200 0.723600
38.479300 0.735400
38.542400 0.738600
38.605500 0.752700
38.668700 0.763100
38.731800 0.772900
38.794900 0.777200
38.858000 0.782700
38.921100 0.797900
38.984300 0.810600
39.047400 0.810300
39.110500 0.804000
39.173600 0.798700
39.236800 0.796400
39.299900 0.799700
39.363000 0.814900
39.426100 0.819500
39.489300 0.825800
39.552400 0.830100
39.615500 0.833700
39.678600 0.830500
39.741800 0.826100
39.804900 0.822200
39.868000 0.793500
39.931100 0.827000
39.994200 0.805000
40.057400 0.822200
40.120500 0.829600
40.183600 0.814100
40.246700 0.805900
40.309900 0.806800
40.373000 0.813800
40.436100 0.833300
40.499200 0.862200
40.562400 0.893400
40.625500 0.866100
40.688600 0.826800
40.751700 0.807800
40.814900 0.796200
40.878000 0.796000
40.941100 0.797000
41.004200 0.795600
41.067300 0.796500
41.130500 0.800800
41.193600 0.821400
41.256700 0.828200
41.319800 0.837500
41.383000 0.854200
41.446100 0.858400
41.509200 0.867100
41.572300 0.883200
41.635500 0.906200
41.698600 0.913600
41.761700 0.911300
41.824800 0.917200
41.888000 0.931800
41.951100 0.958700
42.014200 0.964000
42.077300 0.957700
42.140500 0.947100
42.203600 0.939700
42.266700 0.942500
42.329800 0.936300
42.392900 0.946000
42.456100 0.958700
42.519200 0.974100
42.582300 0.987800
42.645400 0.982300
42.708600 0.954100
42.771700 0.921300
42.834800 0.902800
42.897900 0.897900
42.961100 0.897000
43.024200 0.900300
43.087300 0.904100
43.150400 0.905600
43.213600 0.914600
43.276700 0.907400
43.339800 0.920400
43.402900 0.928600
43.466000 0.930800
43.529200 0.943300
43.592300 0.930400
43.655400 0.919300
43.718500 0.927600
43.781700 0.936100
43.844800 0.944600
