set title 'mp-1183656 - Density of States'
set xlabel 'Energy (eV)'
set ylabel 'DOS (states/eV)'
set grid
set xrange [-10:10]
set yrange [0:36.361]
set xzeroaxis lt -1
set terminal png size 800,600
set output 'mp-1183656_dos_gnuplot.png'
plot '-' using 1:2 with lines title 'DOS'
-10.496800 0.000000
-10.469800 0.000000
-10.442800 0.000000
-10.415800 0.000000
-10.388800 0.000000
-10.361800 0.000000
-10.334800 0.000000
-10.307800 0.000000
-10.280800 0.000000
-10.253800 0.000000
-10.226800 0.000000
-10.199800 0.000000
-10.172800 0.000000
-10.145800 0.000000
-10.118800 0.000000
-10.091800 0.000000
-10.064800 0.000000
-10.037800 0.000000
-10.010800 0.000000
-9.983800 0.000000
-9.956800 0.000000
-9.929800 0.000000
-9.902800 0.000000
-9.875800 0.000000
-9.848800 0.000000
-9.821800 0.000000
-9.794800 0.000000
-9.767800 0.000000
-9.740800 0.000000
-9.713800 0.000000
-9.686800 0.000000
-9.659800 0.000000
-9.632800 0.000000
-9.605800 0.000000
-9.578800 0.000000
-9.551800 0.000000
-9.524800 0.000000
-9.497800 0.000000
-9.470800 0.000000
-9.443700 0.000000
-9.416700 0.000000
-9.389700 0.000000
-9.362700 0.000000
-9.335700 0.000000
-9.308700 0.000000
-9.281700 0.000000
-9.254700 0.000000
-9.227700 0.000000
-9.200700 0.000000
-9.173700 0.000000
-9.146700 0.000000
-9.119700 0.000000
-9.092700 0.000000
-9.065700 0.000000
-9.038700 0.000000
-9.011700 0.000000
-8.984700 0.000000
-8.957700 0.000000
-8.930700 0.000000
-8.903700 0.000000
-8.876700 0.000000
-8.849700 0.000000
-8.822700 0.000000
-8.795700 0.000000
-8.768700 0.000000
-8.741700 0.000000
-8.714700 0.000000
-8.687700 0.000000
-8.660700 0.000000
-8.633700 0.000000
-8.606700 0.000000
-8.579700 0.000000
-8.552700 0.000000
-8.525700 0.000000
-8.498700 0.000000
-8.471700 0.000000
-8.444700 0.000000
-8.417700 0.000000
-8.390700 0.000000
-8.363700 0.000000
-8.336700 0.000000
-8.309700 0.000000
-8.282600 0.000000
-8.255600 0.000000
-8.228600 0.000000
-8.201600 0.000000
-8.174600 0.000000
-8.147600 0.000000
-8.120600 0.000000
-8.093600 0.000000
-8.066600 0.000000
-8.039600 0.408100
-8.012600 2.992700
-7.985600 4.640800
-7.958600 6.235500
-7.931600 6.168600
-7.904600 6.921000
-7.877600 8.113200
-7.850600 9.356900
-7.823600 10.356200
-7.796600 11.940800
-7.769600 14.412500
-7.742600 13.501200
-7.715600 12.702000
-7.688600 12.377500
-7.661600 14.888900
-7.634600 11.318000
-7.607600 12.061000
-7.580600 16.074000
-7.553600 29.233000
-7.526600 24.032600
-7.499600 20.255500
-7.472600 20.312400
-7.445600 16.520900
-7.418600 7.690700
-7.391600 4.967000
-7.364600 3.769100
-7.337600 3.017300
-7.310600 5.314900
-7.283600 16.498900
-7.256600 20.011100
-7.229600 21.555300
-7.202600 22.587100
-7.175600 17.579200
-7.148600 14.305900
-7.121500 13.141500
-7.094500 19.629100
-7.067500 26.452700
-7.040500 25.661900
-7.013500 31.518900
-6.986500 33.055600
-6.959500 21.266000
-6.932500 22.064800
-6.905500 21.455100
-6.878500 23.336800
-6.851500 17.786300
-6.824500 10.704000
-6.797500 9.701900
-6.770500 9.735500
-6.743500 6.860700
-6.716500 6.136400
-6.689500 5.439900
-6.662500 5.035400
-6.635500 4.517500
-6.608500 4.677900
-6.581500 3.955500
-6.554500 0.291700
-6.527500 0.303700
-6.500500 0.313400
-6.473500 0.297600
-6.446500 0.299200
-6.419500 0.300400
-6.392500 0.301400
-6.365500 0.302600
-6.338500 0.304000
-6.311500 0.305200
-6.284500 0.303700
-6.257500 0.302500
-6.230500 0.301800
-6.203500 0.303600
-6.176500 0.305700
-6.149500 0.307900
-6.122500 0.309700
-6.095500 0.324800
-6.068500 0.343900
-6.041500 0.364600
-6.014500 0.353200
-5.987400 0.358300
-5.960400 0.359600
-5.933400 0.364700
-5.906400 0.370000
-5.879400 0.375500
-5.852400 0.381400
-5.825400 0.384400
-5.798400 0.387500
-5.771400 0.390600
-5.744400 0.395600
-5.717400 0.401100
-5.690400 0.406700
-5.663400 0.412400
-5.636400 0.418100
-5.609400 0.423900
-5.582400 0.429800
-5.555400 0.434400
-5.528400 0.438300
-5.501400 0.437700
-5.474400 0.441300
-5.447400 0.444700
-5.420400 0.447900
-5.393400 0.451200
-5.366400 0.454600
-5.339400 0.458700
-5.312400 0.462800
-5.285400 0.467100
-5.258400 0.471500
-5.231400 0.476000
-5.204400 0.480600
-5.177400 0.485300
-5.150400 0.490000
-5.123400 0.494400
-5.096400 0.497500
-5.069400 0.500600
-5.042400 0.504200
-5.015400 0.507100
-4.988400 0.511100
-4.961400 0.515200
-4.934400 0.519400
-4.907400 0.523700
-4.880400 0.528100
-4.853400 0.532500
-4.826300 0.536600
-4.799300 0.540500
-4.772300 0.544900
-4.745300 0.549800
-4.718300 0.555100
-4.691300 0.560100
-4.664300 0.565100
-4.637300 0.570100
-4.610300 0.575200
-4.583300 0.580300
-4.556300 0.584000
-4.529300 0.588900
-4.502300 0.593900
-4.475300 0.598700
-4.448300 0.603500
-4.421300 0.608500
-4.394300 0.613600
-4.367300 0.618600
-4.340300 0.623200
-4.313300 0.628100
-4.286300 0.633300
-4.259300 0.638700
-4.232300 0.644100
-4.205300 0.648600
-4.178300 0.651500
-4.151300 0.652900
-4.124300 0.654100
-4.097300 0.656500
-4.070300 0.658700
-4.043300 0.660600
-4.016300 0.662400
-3.989300 0.664400
-3.962300 0.666200
-3.935300 0.667400
-3.908300 0.668800
-3.881300 0.670600
-3.854300 0.672600
-3.827300 0.674600
-3.800300 0.676600
-3.773300 0.678500
-3.746300 0.680300
-3.719300 0.682200
-3.692300 0.684000
-3.665200 0.685800
-3.638200 0.687700
-3.611200 0.689400
-3.584200 0.691500
-3.557200 0.693500
-3.530200 0.695600
-3.503200 0.697800
-3.476200 0.700200
-3.449200 0.705300
-3.422200 0.713300
-3.395200 0.719500
-3.368200 0.726000
-3.341200 0.732900
-3.314200 0.740100
-3.287200 0.747600
-3.260200 0.754800
-3.233200 0.761900
-3.206200 0.768900
-3.179200 0.776200
-3.152200 0.783400
-3.125200 0.790800
-3.098200 0.798400
-3.071200 0.806100
-3.044200 0.814000
-3.017200 0.821800
-2.990200 0.829400
-2.963200 0.837100
-2.936200 0.844800
-2.909200 0.852500
-2.882200 0.860300
-2.855200 0.868200
-2.828200 0.876400
-2.801200 0.885200
-2.774200 0.894700
-2.747200 0.903500
-2.720200 0.911800
-2.693200 0.920700
-2.666200 0.929900
-2.639200 0.939200
-2.612200 0.948600
-2.585200 0.958100
-2.558200 0.967900
-2.531100 0.978000
-2.504100 0.988600
-2.477100 0.999700
-2.450100 1.012000
-2.423100 1.024300
-2.396100 1.037200
-2.369100 1.052600
-2.342100 1.069000
-2.315100 1.092400
-2.288100 1.137600
-2.261100 1.163000
-2.234100 1.187900
-2.207100 1.210300
-2.180100 1.229100
-2.153100 1.247000
-2.126100 1.264000
-2.099100 1.377300
-2.072100 1.425900
-2.045100 1.431900
-2.018100 1.431800
-1.991100 1.411800
-1.964100 1.377100
-1.937100 1.361500
-1.910100 1.421900
-1.883100 1.411300
-1.856100 1.336200
-1.829100 1.328700
-1.802100 1.399500
-1.775100 1.480200
-1.748100 1.483400
-1.721100 1.504500
-1.694100 1.542300
-1.667100 1.593300
-1.640100 1.782100
-1.613100 1.621900
-1.586100 1.559000
-1.559100 1.539200
-1.532100 1.523600
-1.505100 1.479700
-1.478100 1.421900
-1.451100 1.405300
-1.424100 1.371100
-1.397100 1.263100
-1.370000 1.186000
-1.343000 1.148900
-1.316000 1.110700
-1.289000 1.076900
-1.262000 1.059100
-1.235000 1.030800
-1.208000 1.174600
-1.181000 1.009700
-1.154000 0.979400
-1.127000 0.908100
-1.100000 0.910300
-1.073000 1.016900
-1.046000 0.969500
-1.019000 0.853000
-0.992000 0.558100
-0.965000 0.371900
-0.938000 0.284800
-0.911000 0.278300
-0.884000 0.281100
-0.857000 0.284100
-0.830000 0.287100
-0.803000 0.290300
-0.776000 0.293500
-0.749000 0.296800
-0.722000 0.300100
-0.695000 0.303200
-0.668000 0.306300
-0.641000 0.309300
-0.614000 0.312300
-0.587000 0.315200
-0.560000 0.318100
-0.533000 0.321000
-0.506000 0.342300
-0.479000 0.378300
-0.452000 0.369100
-0.425000 0.373000
-0.398000 0.376800
-0.371000 0.380400
-0.344000 0.383900
-0.317000 0.386800
-0.290000 0.383800
-0.263000 0.381000
-0.235900 0.381200
-0.208900 0.383200
-0.181900 0.385300
-0.154900 0.387500
-0.127900 0.389700
-0.100900 0.392000
-0.073900 0.394300
-0.046900 0.392500
-0.019900 0.393900
0.007100 0.395400
0.034100 0.397100
0.061100 0.398700
0.088100 0.401000
0.115100 0.403400
0.142100 0.405800
0.169100 0.408300
0.196100 0.410800
0.223100 0.413400
0.250100 0.415800
0.277100 0.416800
0.304100 0.417700
0.331100 0.419700
0.358100 0.422000
0.385100 0.424200
0.412100 0.426500
0.439100 0.428900
0.466100 0.431400
0.493100 0.434100
0.520100 0.437200
0.547100 0.441300
0.574100 0.446600
0.601100 0.452300
0.628100 0.458000
0.655100 0.463900
0.682100 0.469700
0.709100 0.476700
0.736100 0.484300
0.763100 0.492600
0.790100 0.517000
0.817100 0.567000
0.844100 0.619700
0.871100 0.593600
0.898100 0.613300
0.925200 0.655400
0.952200 0.732100
0.979200 1.008400
1.006200 1.134600
1.033200 1.060800
1.060200 1.055500
1.087200 1.054700
1.114200 1.054100
1.141200 1.054500
1.168200 1.054400
1.195200 1.166300
1.222200 1.108900
1.249200 1.087200
1.276200 1.078500
1.303200 1.055300
1.330200 1.069400
1.357200 1.130200
1.384200 1.142700
1.411200 1.105000
1.438200 1.076500
1.465200 1.055300
1.492200 1.121400
1.519200 1.095500
1.546200 1.044500
1.573200 1.015400
1.600200 1.027000
1.627200 1.046700
1.654200 1.074400
1.681200 1.102400
1.708200 1.119300
1.735200 1.137300
1.762200 1.158700
1.789200 1.209100
1.816200 1.238000
1.843200 1.275400
1.870200 1.274000
1.897200 1.244300
1.924200 1.199200
1.951200 1.165500
1.978200 1.158000
2.005200 1.151700
2.032200 1.146000
2.059200 1.171300
2.086300 1.222800
2.113300 1.295300
2.140300 1.373900
2.167300 1.354400
2.194300 1.315700
2.221300 1.300000
2.248300 1.272700
2.275300 1.241600
2.302300 1.253700
2.329300 1.305400
2.356300 1.359200
2.383300 1.475900
2.410300 1.409300
2.437300 1.327300
2.464300 1.256300
2.491300 1.241400
2.518300 1.258200
2.545300 1.207200
2.572300 1.016500
2.599300 1.032500
2.626300 1.065400
2.653300 1.035100
2.680300 1.003800
2.707300 0.945800
2.734300 0.899500
2.761300 0.857400
2.788300 0.818600
2.815300 0.751700
2.842300 0.717800
2.869300 0.707200
2.896300 0.698800
2.923300 0.692800
2.950300 0.688000
2.977300 0.689500
3.004300 0.694200
3.031300 0.703300
3.058300 0.695400
3.085300 0.673000
3.112300 0.673900
3.139300 0.675400
3.166300 0.678300
3.193300 0.676500
3.220400 0.678000
3.247400 0.716200
3.274400 0.686300
3.301400 0.644200
3.328400 0.642200
3.355400 0.681400
3.382400 0.695100
3.409400 0.708200
3.436400 0.703500
3.463400 0.716900
3.490400 0.731900
3.517400 0.746800
3.544400 0.775100
3.571400 0.798200
3.598400 0.814100
3.625400 0.820200
3.652400 0.833000
3.679400 0.851500
3.706400 0.876000
3.733400 0.902500
3.760400 0.929800
3.787400 0.967800
3.814400 1.000500
3.841400 1.046600
3.868400 1.068900
3.895400 1.086900
3.922400 1.109400
3.949400 1.162800
3.976400 1.218600
4.003400 1.307900
4.030400 1.388800
4.057400 1.433200
4.084400 1.446800
4.111400 1.444100
4.138400 1.452200
4.165400 1.486100
4.192400 1.543500
4.219400 1.966900
4.246400 1.810300
4.273400 1.771100
4.300400 1.744300
4.327400 1.693400
4.354400 1.623800
4.381500 1.589800
4.408500 1.528300
4.435500 1.392000
4.462500 1.272100
4.489500 1.237500
4.516500 1.206000
4.543500 1.210700
4.570500 1.204400
4.597500 1.195300
4.624500 1.163300
4.651500 1.131100
4.678500 1.096300
4.705500 1.142000
4.732500 1.239200
4.759500 1.619100
4.786500 1.682600
4.813500 1.767300
4.840500 1.385600
4.867500 1.295000
4.894500 1.238700
4.921500 1.191100
4.948500 1.143500
4.975500 1.093800
5.002500 1.041100
5.029500 0.988900
5.056500 0.957300
5.083500 0.930300
5.110500 0.910100
5.137500 0.895700
5.164500 0.878700
5.191500 0.863600
5.218500 0.850900
5.245500 0.841100
5.272500 0.832600
5.299500 0.825500
5.326500 0.819700
5.353500 0.817400
5.380500 0.841500
5.407500 0.852400
5.434500 0.895900
5.461500 0.880900
5.488500 0.859500
5.515500 0.850800
5.542600 0.842700
5.569600 0.835200
5.596600 0.828400
5.623600 0.823800
5.650600 0.821100
5.677600 0.819500
5.704600 0.809600
5.731600 0.811100
5.758600 0.812900
5.785600 0.815100
5.812600 0.817500
5.839600 0.820700
5.866600 0.825300
5.893600 0.830100
5.920600 0.832900
5.947600 0.835900
5.974600 0.874300
6.001600 0.924600
6.028600 0.972600
6.055600 0.978600
6.082600 0.933100
6.109600 0.931500
6.136600 0.931100
6.163600 0.931700
6.190600 1.065100
6.217600 0.853200
6.244600 0.853800
6.271600 0.860800
6.298600 0.868200
6.325600 0.876000
6.352600 0.885700
6.379600 0.898100
6.406600 0.913300
6.433600 1.001700
6.460600 0.989400
6.487600 0.983800
6.514600 1.028400
6.541600 1.082900
6.568600 1.393400
6.595600 1.103700
6.622600 1.106500
6.649600 1.107500
6.676700 1.106600
6.703700 1.103800
6.730700 1.079200
6.757700 1.088900
6.784700 1.100700
6.811700 1.113100
6.838700 1.123300
6.865700 1.133100
6.892700 1.142100
6.919700 1.152800
6.946700 1.161800
6.973700 1.167300
7.000700 1.213400
7.027700 1.208500
7.054700 1.204000
7.081700 1.198700
7.108700 1.190400
7.135700 1.180100
7.162700 1.159500
7.189700 1.134400
7.216700 1.113200
7.243700 1.104300
7.270700 1.111000
7.297700 1.124600
7.324700 1.149900
7.351700 1.183000
7.378700 1.226700
7.405700 1.280900
7.432700 1.343800
7.459700 1.403900
7.486700 1.462800
7.513700 1.512000
7.540700 1.534900
7.567700 1.474000
7.594700 1.406300
7.621700 1.330800
7.648700 1.243800
7.675700 1.200700
7.702700 1.187200
7.729700 1.653700
7.756700 1.676200
7.783700 1.587800
7.810700 1.638900
7.837800 1.668100
7.864800 1.712700
7.891800 1.594100
7.918800 1.520400
7.945800 1.465800
7.972800 1.456000
7.999800 1.474900
8.026800 1.537900
8.053800 1.596700
8.080800 1.626300
8.107800 1.636300
8.134800 1.631500
8.161800 1.606700
8.188800 1.580900
8.215800 1.565600
8.242800 1.546100
8.269800 1.532200
8.296800 1.518000
8.323800 1.440400
8.350800 1.409500
8.377800 1.382500
8.404800 1.360200
8.431800 1.346300
8.458800 1.346100
8.485800 1.358400
8.512800 1.382000
8.539800 1.407700
8.566800 1.437800
8.593800 1.477300
8.620800 1.529000
8.647800 1.548600
8.674800 1.572100
8.701800 1.620800
8.728800 1.673600
8.755800 1.722900
8.782800 1.777900
8.809800 1.845500
8.836800 1.904600
8.863800 1.953700
8.890800 1.948200
8.917800 2.024500
8.944800 2.091800
8.971900 1.951300
8.998900 1.716600
9.025900 1.633800
9.052900 1.515400
9.079900 1.442200
9.106900 1.384300
9.133900 1.348700
9.160900 1.336900
9.187900 1.333100
9.214900 1.311600
9.241900 1.393300
9.268900 1.305700
9.295900 1.326800
9.322900 1.294700
9.349900 1.278900
9.376900 1.267100
9.403900 1.256600
9.430900 1.248700
9.457900 1.251000
9.484900 1.257400
9.511900 1.264800
9.538900 1.273500
9.565900 1.283500
9.592900 1.296200
9.619900 1.310300
9.646900 1.328400
9.673900 1.368300
9.700900 1.385500
9.727900 1.400400
9.754900 1.412100
9.781900 1.418500
9.808900 1.420500
9.835900 1.412400
9.862900 1.419400
9.889900 1.427800
9.916900 1.440700
9.943900 1.454800
9.970900 1.470800
9.997900 1.510600
10.024900 1.550600
10.051900 1.561400
10.078900 1.573800
10.105900 1.588500
10.133000 1.602400
10.160000 1.617300
10.187000 1.640800
10.214000 1.663700
10.241000 1.680500
10.268000 1.702900
10.295000 1.717600
10.322000 1.730300
10.349000 1.741000
10.376000 1.749200
10.403000 1.753300
10.430000 1.763900
10.457000 1.781600
10.484000 1.803500
10.511000 1.812800
10.538000 1.809200
10.565000 1.791700
10.592000 1.763600
10.619000 1.733700
10.646000 1.701400
10.673000 1.666600
10.700000 1.630200
10.727000 1.585900
10.754000 1.555300
10.781000 1.528800
10.808000 1.506500
10.835000 1.483800
10.862000 1.460100
10.889000 1.436300
10.916000 1.419600
10.943000 1.406200
10.970000 1.395300
10.997000 1.386600
11.024000 1.379900
11.051000 1.398200
11.078000 1.399500
11.105000 1.403100
11.132000 1.404400
11.159000 1.400500
11.186000 1.407300
11.213000 1.414700
11.240000 1.426400
11.267000 1.441800
11.294100 1.460700
11.321100 1.483200
11.348100 1.511500
11.375100 1.540600
11.402100 1.572100
11.429100 1.598500
11.456100 1.621000
11.483100 1.644500
11.510100 1.590600
11.537100 1.582000
11.564100 1.598800
11.591100 1.618400
11.618100 1.645900
11.645100 1.670100
11.672100 1.725100
11.699100 1.767500
11.726100 1.747100
11.753100 1.741800
11.780100 1.737400
11.807100 1.733400
11.834100 1.727300
11.861100 1.727200
11.888100 1.729200
11.915100 1.731500
11.942100 1.736000
11.969100 1.741600
11.996100 1.752300
12.023100 1.764900
12.050100 1.777700
12.077100 1.790700
12.104100 1.791000
12.131100 1.774300
12.158100 1.754500
12.185100 1.735000
12.212100 1.722200
12.239100 1.713000
12.266100 1.702600
12.293100 1.687500
12.320100 1.666000
12.347100 1.625100
12.374100 1.579500
12.401100 1.531100
12.428200 1.490300
12.455200 1.467100
12.482200 1.453700
12.509200 1.439100
12.536200 1.421200
12.563200 1.397500
12.590200 1.383200
12.617200 1.375800
12.644200 1.369500
12.671200 1.364200
12.698200 1.358400
12.725200 1.386800
12.752200 1.385200
12.779200 1.385600
12.806200 1.386200
12.833200 1.386300
12.860200 1.386300
12.887200 1.363200
12.914200 1.334900
12.941200 1.305200
12.968200 1.303500
12.995200 1.316000
13.022200 1.357900
13.049200 1.415600
13.076200 1.473800
13.103200 1.513300
13.130200 1.547600
13.157200 1.580700
13.184200 1.621700
13.211200 1.667000
13.238200 1.695400
13.265200 1.723100
13.292200 1.746500
13.319200 1.766300
13.346200 1.792300
13.373200 1.809300
13.400200 1.845500
13.427200 1.884900
13.454200 1.916500
13.481200 1.940800
13.508200 1.957100
13.535200 1.970100
13.562200 1.939100
13.589300 1.916600
13.616300 1.874000
13.643300 1.807400
13.670300 1.745300
13.697300 1.697300
13.724300 1.659000
13.751300 1.630900
13.778300 1.612900
13.805300 1.596800
13.832300 1.581100
13.859300 1.567700
13.886300 1.555000
13.913300 1.542700
13.940300 1.525900
13.967300 1.492300
13.994300 1.447600
14.021300 1.406200
14.048300 1.358900
14.075300 1.309600
14.102300 1.259700
14.129300 1.207000
14.156300 1.175600
14.183300 1.164600
14.210300 1.171900
14.237300 1.179500
14.264300 1.189600
14.291300 1.203500
14.318300 1.221400
14.345300 1.242500
14.372300 1.360700
14.399300 1.267300
14.426300 1.276900
14.453300 1.283800
14.480300 1.289700
14.507300 1.287600
14.534300 1.270000
14.561300 1.273500
14.588300 1.281600
14.615300 1.289200
14.642300 1.304400
14.669300 1.326500
14.696300 1.348200
14.723400 1.368500
14.750400 1.384800
14.777400 1.405500
14.804400 1.420800
14.831400 1.435600
14.858400 1.455900
14.885400 1.471600
14.912400 1.479500
14.939400 1.484300
14.966400 1.486100
14.993400 1.484900
15.020400 1.477700
15.047400 1.469200
15.074400 1.470100
15.101400 1.459000
15.128400 1.454400
15.155400 1.534900
15.182400 1.566800
15.209400 1.591800
15.236400 1.591500
15.263400 1.585400
15.290400 1.582000
15.317400 1.575200
15.344400 1.568600
15.371400 1.562200
15.398400 1.554300
15.425400 1.568100
15.452400 1.583100
15.479400 1.593900
15.506400 1.591600
15.533400 1.547100
15.560400 1.528100
15.587400 1.518400
15.614400 1.500300
15.641400 1.484900
15.668400 1.463500
15.695400 1.451600
15.722400 1.440400
15.749400 1.428000
15.776400 1.414000
15.803400 1.400300
15.830400 1.406300
15.857400 1.399400
15.884500 1.392700
15.911500 1.386800
15.938500 1.381300
15.965500 1.379100
15.992500 1.384300
16.019500 1.465000
16.046500 1.445100
16.073500 1.444700
16.100500 1.457300
16.127500 1.455400
16.154500 1.453700
16.181500 1.450400
16.208500 1.445400
16.235500 1.451100
16.262500 1.459400
16.289500 1.470000
16.316500 1.528100
16.343500 1.537100
16.370500 1.539500
16.397500 1.543200
16.424500 1.549000
16.451500 1.568500
16.478500 1.657000
16.505500 1.664300
16.532500 1.684100
16.559500 1.704900
16.586500 1.757500
16.613500 1.809300
16.640500 1.860100
16.667500 1.909800
16.694500 1.989700
16.721500 2.060600
16.748500 2.089000
16.775500 2.115000
16.802500 2.137600
16.829500 2.186000
16.856500 2.134100
16.883500 2.060600
16.910500 2.015200
16.937500 1.973200
16.964500 2.001200
16.991500 2.149000
17.018500 2.248000
17.045600 2.335000
17.072600 2.384600
17.099600 2.376300
17.126600 2.285200
17.153600 2.207600
17.180600 2.209200
17.207600 2.148700
17.234600 2.093700
17.261600 2.059700
17.288600 2.079100
17.315600 2.167800
17.342600 2.280100
17.369600 2.246700
17.396600 2.098800
17.423600 2.074500
17.450600 2.012300
17.477600 1.917400
17.504600 1.921100
17.531600 1.876600
17.558600 1.868000
17.585600 1.828800
17.612600 1.685200
17.639600 1.667200
17.666600 1.747300
17.693600 1.778400
17.720600 1.740200
17.747600 1.744900
17.774600 1.685400
17.801600 1.755800
17.828600 1.929800
17.855600 2.226400
17.882600 2.336700
17.909600 2.405600
17.936600 2.370300
