set title 'mp-1147643 - Density of States'
set xlabel 'Energy (eV)'
set ylabel 'DOS (states/eV)'
set grid
set xrange [-10:10]
set yrange [0:6.397]
set xzeroaxis lt -1
set terminal png size 800,600
set output 'mp-1147643_dos_gnuplot.png'
plot '-' using 1:2 with lines title 'DOS'
-16.391900 0.000000
-16.358800 0.000000
-16.325600 0.000000
-16.292500 0.000000
-16.259300 0.000000
-16.226200 0.000000
-16.193100 0.000000
-16.159900 0.000000
-16.126800 0.000000
-16.093600 0.000000
-16.060500 0.000000
-16.027400 0.000000
-15.994200 0.000000
-15.961100 0.000000
-15.928000 0.000000
-15.894800 0.000000
-15.861700 0.000000
-15.828500 0.000000
-15.795400 0.000000
-15.762300 0.000000
-15.729100 0.000000
-15.696000 0.000000
-15.662800 0.000000
-15.629700 0.000000
-15.596600 0.000000
-15.563400 0.000000
-15.530300 0.000000
-15.497200 0.000000
-15.464000 0.000000
-15.430900 0.000000
-15.397700 0.000000
-15.364600 0.000000
-15.331500 0.000000
-15.298300 0.000000
-15.265200 0.000000
-15.232000 0.000000
-15.198900 0.000000
-15.165800 0.000000
-15.132600 0.000000
-15.099500 0.000000
-15.066400 0.000000
-15.033200 0.000000
-15.000100 0.000000
-14.966900 0.000000
-14.933800 0.000000
-14.900700 0.000000
-14.867500 0.000000
-14.834400 0.000000
-14.801200 0.000000
-14.768100 0.000000
-14.735000 0.000000
-14.701800 0.000000
-14.668700 0.000000
-14.635600 0.000000
-14.602400 0.000000
-14.569300 0.000000
-14.536100 0.000000
-14.503000 0.000000
-14.469900 0.000000
-14.436700 0.000000
-14.403600 0.000000
-14.370400 0.000000
-14.337300 0.000000
-14.304200 0.000000
-14.271000 0.000000
-14.237900 0.000000
-14.204800 0.000000
-14.171600 0.000000
-14.138500 0.000000
-14.105300 0.000000
-14.072200 0.000000
-14.039100 0.000000
-14.005900 0.000000
-13.972800 0.000000
-13.939600 0.000000
-13.906500 0.000000
-13.873400 0.000000
-13.840200 0.000000
-13.807100 0.000000
-13.774000 0.000000
-13.740800 0.000000
-13.707700 0.000000
-13.674500 0.000000
-13.641400 0.000000
-13.608300 0.000000
-13.575100 0.000000
-13.542000 0.000000
-13.508800 0.000000
-13.475700 0.000000
-13.442600 0.000000
-13.409400 0.000000
-13.376300 0.001200
-13.343200 0.108400
-13.310000 0.281700
-13.276900 0.368300
-13.243700 0.447000
-13.210600 0.597700
-13.177500 0.681700
-13.144300 0.659600
-13.111200 0.653100
-13.078000 0.657200
-13.044900 0.663100
-13.011800 0.660800
-12.978600 0.641100
-12.945500 0.638000
-12.912400 0.649300
-12.879200 0.662800
-12.846100 0.673100
-12.812900 0.671100
-12.779800 0.667900
-12.746700 0.665800
-12.713500 0.656500
-12.680400 0.647100
-12.647200 0.646700
-12.614100 0.649100
-12.581000 0.653200
-12.547800 0.658500
-12.514700 0.665000
-12.481600 0.673400
-12.448400 0.679200
-12.415300 0.677300
-12.382100 0.674100
-12.349000 0.670200
-12.315900 0.662500
-12.282700 0.656700
-12.249600 0.656100
-12.216400 0.656800
-12.183300 0.658700
-12.150200 0.661200
-12.117000 0.664500
-12.083900 0.668600
-12.050800 0.672800
-12.017600 0.677000
-11.984500 0.681200
-11.951300 0.684800
-11.918200 0.683700
-11.885100 0.681200
-11.851900 0.678900
-11.818800 0.674400
-11.785600 0.670800
-11.752500 0.670400
-11.719400 0.670400
-11.686200 0.671100
-11.653100 0.672200
-11.620000 0.673700
-11.586800 0.675800
-11.553700 0.678200
-11.520500 0.680800
-11.487400 0.683600
-11.454300 0.686800
-11.421100 0.690300
-11.388000 0.694000
-11.354800 0.730000
-11.321700 0.998600
-11.288600 0.999700
-11.255400 1.015000
-11.222300 1.073000
-11.189200 0.877400
-11.156000 0.774000
-11.122900 0.717700
-11.089700 0.669300
-11.056600 0.626800
-11.023500 0.568800
-10.990300 0.553300
-10.957200 0.538600
-10.924000 0.523600
-10.890900 0.508600
-10.857800 0.481900
-10.824600 0.458500
-10.791500 0.437000
-10.758400 0.409900
-10.725200 0.399500
-10.692100 0.389100
-10.658900 0.378700
-10.625800 0.694900
-10.592700 0.808700
-10.559500 0.908500
-10.526400 0.993200
-10.493200 0.804100
-10.460100 0.818800
-10.427000 0.798400
-10.393800 0.780600
-10.360700 0.765000
-10.327600 0.747800
-10.294400 0.757400
-10.261300 0.767000
-10.228100 0.776700
-10.195000 0.781700
-10.161900 0.776600
-10.128700 0.774900
-10.095600 0.767200
-10.062400 0.776900
-10.029300 0.785800
-9.996200 0.795000
-9.963000 0.803800
-9.929900 0.810600
-9.896800 0.817300
-9.863600 0.823300
-9.830500 0.829100
-9.797300 0.835400
-9.764200 0.843700
-9.731100 0.853900
-9.697900 0.864500
-9.664800 0.875100
-9.631600 0.976600
-9.598500 0.928800
-9.565400 0.945000
-9.532200 0.940600
-9.499100 1.066300
-9.466000 1.223700
-9.432800 1.252200
-9.399700 1.585300
-9.366500 1.181500
-9.333400 1.100400
-9.300300 0.868100
-9.267100 0.844000
-9.234000 0.973300
-9.200800 0.916600
-9.167700 0.806500
-9.134600 0.694700
-9.101400 0.680200
-9.068300 0.665600
-9.035200 0.651100
-9.002000 0.637800
-8.968900 0.627500
-8.935700 0.616200
-8.902600 0.604900
-8.869500 0.595000
-8.836300 0.591200
-8.803200 0.679900
-8.770000 0.855900
-8.736900 0.562700
-8.703800 0.551400
-8.670600 0.540200
-8.637500 0.528900
-8.604400 0.517600
-8.571200 0.506400
-8.538100 0.495100
-8.504900 0.483900
-8.471800 0.472600
-8.438700 0.461300
-8.405500 0.450100
-8.372400 0.438800
-8.339200 0.430300
-8.306100 0.441200
-8.273000 0.468500
-8.239800 0.520500
-8.206700 0.511000
-8.173600 0.504600
-8.140400 0.467800
-8.107300 0.455800
-8.074100 0.443800
-8.041000 0.431800
-8.007900 0.419900
-7.974700 0.407900
-7.941600 0.396000
-7.908400 0.384000
-7.875300 0.372100
-7.842200 0.364000
-7.809000 0.363000
-7.775900 0.365900
-7.742800 0.372200
-7.709600 0.381600
-7.676500 0.395500
-7.643300 0.401700
-7.610200 0.401500
-7.577100 0.397100
-7.543900 0.388400
-7.510800 0.509400
-7.477600 0.517000
-7.444500 0.595000
-7.411400 0.585900
-7.378200 0.584300
-7.345100 0.561200
-7.312000 0.537300
-7.278800 0.865100
-7.245700 0.684200
-7.212500 0.744100
-7.179400 0.755000
-7.146300 0.681100
-7.113100 0.646500
-7.080000 0.541100
-7.046800 0.538800
-7.013700 0.516700
-6.980600 0.498800
-6.947400 0.487200
-6.914300 0.482100
-6.881200 0.486900
-6.848000 0.616900
-6.814900 0.588900
-6.781700 0.758300
-6.748600 0.519200
-6.715500 0.527100
-6.682300 0.535000
-6.649200 0.540200
-6.616000 0.539600
-6.582900 0.539300
-6.549800 0.541300
-6.516600 0.547500
-6.483500 0.553700
-6.450400 0.557900
-6.417200 0.560600
-6.384100 0.563500
-6.350900 0.572400
-6.317800 0.635800
-6.284700 0.661500
-6.251500 0.657000
-6.218400 0.628100
-6.185200 0.612200
-6.152100 0.604500
-6.119000 0.605400
-6.085800 0.609700
-6.052700 0.614400
-6.019600 0.621200
-5.986400 0.628700
-5.953300 0.636200
-5.920100 0.643600
-5.887000 0.650800
-5.853900 0.657700
-5.820700 0.662100
-5.787600 0.665500
-5.754400 0.672600
-5.721300 0.679800
-5.688200 0.686900
-5.655000 0.694000
-5.621900 0.720000
-5.588800 0.740700
-5.555600 0.739600
-5.522500 0.740500
-5.489300 0.744700
-5.456200 0.749000
-5.423100 0.753300
-5.389900 0.757500
-5.356800 0.762500
-5.323600 0.769200
-5.290500 0.777000
-5.257400 0.785800
-5.224200 0.794700
-5.191100 0.803600
-5.158000 0.812300
-5.124800 0.821000
-5.091700 0.829700
-5.058500 0.838300
-5.025400 0.847000
-4.992300 0.860800
-4.959100 0.895500
-4.926000 0.941400
-4.892800 0.995200
-4.859700 1.054000
-4.826600 1.113300
-4.793400 1.169800
-4.760300 1.222200
-4.727200 1.241100
-4.694000 1.239600
-4.660900 1.222800
-4.627700 1.196100
-4.594600 1.168700
-4.561500 1.137400
-4.528300 1.101900
-4.495200 1.063900
-4.462000 1.024200
-4.428900 0.973000
-4.395800 0.919500
-4.362600 0.880000
-4.329500 0.853600
-4.296400 0.828400
-4.263200 0.804700
-4.230100 0.785100
-4.196900 0.768500
-4.163800 0.752500
-4.130700 0.737000
-4.097500 0.721800
-4.064400 0.706900
-4.031200 0.697200
-3.998100 0.703500
-3.965000 0.699300
-3.931800 0.690400
-3.898700 0.656400
-3.865600 0.645700
-3.832400 0.634300
-3.799300 0.623000
-3.766100 0.611700
-3.733000 0.582900
-3.699900 0.550300
-3.666700 0.524800
-3.633600 0.501700
-3.600400 0.482500
-3.567300 0.464200
-3.534200 0.446700
-3.501000 0.430900
-3.467900 0.416000
-3.434800 0.401800
-3.401600 0.387800
-3.368500 0.387300
-3.335300 0.543900
-3.302200 0.702000
-3.269100 1.142000
-3.235900 1.071100
-3.202800 1.105100
-3.169600 1.184700
-3.136500 1.275000
-3.103400 1.235900
-3.070200 1.147400
-3.037100 1.147800
-3.004000 1.157700
-2.970800 1.173500
-2.937700 1.188800
-2.904500 1.209100
-2.871400 1.216200
-2.838300 1.186900
-2.805100 1.157200
-2.772000 1.148300
-2.738800 1.140100
-2.705700 1.133200
-2.672600 1.117200
-2.639400 1.117700
-2.606300 1.128900
-2.573200 1.198600
-2.540000 1.318500
-2.506900 1.353000
-2.473700 1.368200
-2.440600 1.285400
-2.407500 1.161100
-2.374300 1.012200
-2.341200 0.808700
-2.308000 0.643500
-2.274900 0.496600
-2.241800 0.481300
-2.208600 0.478400
-2.175500 0.480100
-2.142400 0.486900
-2.109200 0.498700
-2.076100 0.515600
-2.042900 0.548300
-2.009800 0.725400
-1.976700 0.924200
-1.943500 1.025400
-1.910400 1.139500
-1.877200 1.229400
-1.844100 1.293800
-1.811000 1.334200
-1.777800 1.340500
-1.744700 1.346000
-1.711600 1.347000
-1.678400 1.345200
-1.645300 1.340700
-1.612100 1.328500
-1.579000 1.298700
-1.545900 1.238800
-1.512700 1.188500
-1.479600 1.669600
-1.446400 1.775400
-1.413300 1.325200
-1.380200 1.234800
-1.347000 1.171600
-1.313900 1.121500
-1.280800 1.086900
-1.247600 1.051600
-1.214500 1.022000
-1.181300 1.001100
-1.148200 0.986600
-1.115100 0.979300
-1.081900 0.977100
-1.048800 0.980600
-1.015600 0.988100
-0.982500 1.001100
-0.949400 1.014800
-0.916200 1.028800
-0.883100 1.089400
-0.850000 1.959300
-0.816800 1.626200
-0.783700 1.596200
-0.750500 1.606100
-0.717400 1.697200
-0.684300 1.365100
-0.651100 0.999000
-0.618000 0.900900
-0.584800 0.854600
-0.551700 0.820100
-0.518600 0.800400
-0.485400 0.790700
-0.452300 0.787400
-0.419200 0.790500
-0.386000 0.802500
-0.352900 0.819300
-0.319700 0.838900
-0.286600 0.861800
-0.253500 0.889600
-0.220300 0.922400
-0.187200 0.978300
-0.154000 1.116400
-0.120900 1.175400
-0.087800 1.223400
-0.054600 1.287200
-0.021500 1.372400
0.011600 1.688100
0.044800 1.793900
0.077900 1.769100
0.111100 1.644900
0.144200 1.600400
0.177300 1.527500
0.210500 1.491400
0.243600 1.467800
0.276800 1.440500
0.309900 1.410900
0.343000 1.388500
0.376200 1.368800
0.409300 1.346300
0.442400 1.320700
0.475600 1.389400
0.508700 1.552000
0.541900 1.572300
0.575000 1.599600
0.608100 1.676900
0.641300 1.681400
0.674400 1.762100
0.707600 1.572300
0.740700 1.508900
0.773800 1.478100
0.807000 1.462800
0.840100 1.436300
0.873200 1.431300
0.906400 1.404000
0.939500 1.347600
0.972700 1.323300
1.005800 1.285300
1.038900 1.247500
1.072100 1.287800
1.105200 1.266100
1.138400 1.260400
1.171500 1.246200
1.204600 1.237000
1.237800 1.278400
1.270900 1.280600
1.304000 1.343200
1.337200 1.378500
1.370300 1.431000
1.403500 1.477900
1.436600 1.536100
1.469700 1.608100
1.502900 1.672400
1.536000 1.768300
1.569200 1.822300
1.602300 2.032500
1.635400 2.186600
1.668600 1.794500
1.701700 1.597400
1.734800 1.549100
1.768000 1.488100
1.801100 1.537800
1.834300 1.595900
1.867400 1.691500
1.900500 1.846100
1.933700 2.254200
1.966800 2.632100
2.000000 2.855500
2.033100 3.064400
2.066200 3.842500
2.099400 2.861900
2.132500 2.410600
2.165600 2.155200
2.198800 2.068600
2.231900 2.090000
2.265100 2.120800
2.298200 2.158400
2.331300 2.184300
2.364500 2.178300
2.397600 2.176300
2.430800 2.169800
2.463900 2.161600
2.497000 2.149800
2.530200 2.344200
2.563300 2.221100
2.596400 2.224800
2.629600 2.327800
2.662700 2.349900
2.695900 2.335800
2.729000 2.310800
2.762100 2.208900
2.795300 2.164100
2.828400 2.099200
2.861600 1.967800
2.894700 1.814700
2.927800 1.587200
2.961000 1.316400
2.994100 1.253400
3.027200 1.262400
3.060400 1.272200
3.093500 1.287700
3.126700 1.318800
3.159800 1.359500
3.192900 1.359900
3.226100 1.338400
3.259200 1.191200
3.292400 1.048800
3.325500 0.895900
3.358600 0.784500
3.391800 0.749400
3.424900 0.714600
3.458000 0.681800
3.491200 0.661000
3.524300 0.638300
3.557500 0.615400
3.590600 0.593400
3.623700 0.569300
3.656900 0.542900
3.690000 0.490300
3.723200 0.344300
3.756300 0.345000
3.789400 0.351400
3.822600 0.360600
3.855700 0.371300
3.888800 0.384300
3.922000 0.400900
3.955100 0.415600
3.988300 0.613300
4.021400 1.039500
4.054500 1.327400
4.087700 1.292100
4.120800 1.406500
4.154000 1.623500
4.187100 1.674700
4.220200 1.861200
4.253400 2.072800
4.286500 2.439900
4.319600 3.733500
4.352800 5.815300
4.385900 2.167600
4.419100 1.922600
4.452200 1.732200
4.485300 1.608700
4.518500 1.448500
4.551600 1.337800
4.584800 1.351500
4.617900 1.668800
4.651000 1.921700
4.684200 2.079200
4.717300 2.350700
4.750400 2.367600
4.783600 2.322800
4.816700 2.297000
4.849900 2.181400
4.883000 2.093200
4.916100 1.986400
4.949300 1.850000
4.982400 1.783000
5.015600 1.743300
5.048700 1.759200
5.081800 1.878800
5.115000 1.885000
5.148100 1.815800
5.181200 1.702400
5.214400 1.452300
5.247500 1.544900
5.280700 1.477200
5.313800 1.406000
5.346900 1.380400
5.380100 1.393300
5.413200 1.314800
5.446400 1.259900
5.479500 1.122100
5.512600 1.024700
5.545800 0.944700
5.578900 0.804600
5.612000 0.758100
5.645200 0.732300
5.678300 0.617400
5.711500 0.551500
5.744600 0.538700
5.777700 0.528700
5.810900 0.518600
5.844000 0.531900
5.877200 0.603000
5.910300 0.562300
5.943400 0.579900
5.976600 0.456700
6.009700 0.446600
6.042800 0.436500
6.076000 0.426400
6.109100 0.433600
6.142300 0.435400
6.175400 0.422400
6.208500 0.411000
6.241700 0.425300
6.274800 0.456900
6.308000 0.532400
6.341100 0.735500
6.374200 0.833500
6.407400 0.919200
6.440500 1.313400
6.473600 1.055900
6.506800 1.080400
6.539900 1.099100
6.573100 1.110200
6.606200 1.150100
6.639300 1.207500
6.672500 1.305800
6.705600 1.653400
6.738800 1.195600
6.771900 1.167200
6.805000 1.152900
6.838200 1.016500
6.871300 1.019500
6.904400 1.028400
6.937600 1.038100
6.970700 1.048400
7.003900 1.071500
7.037000 1.089800
7.070100 1.094200
7.103300 1.080800
7.136400 1.057100
7.169600 1.036600
7.202700 1.012700
7.235800 0.986900
7.269000 0.956700
7.302100 0.922600
7.335200 0.873900
7.368400 0.788500
7.401500 0.775900
7.434700 0.794400
7.467800 0.830500
7.500900 0.777100
7.534100 0.684400
7.567200 0.635600
7.600400 0.577800
7.633500 0.529200
7.666600 0.492000
7.699800 0.462300
7.732900 0.443900
7.766000 0.430700
7.799200 0.391600
7.832300 0.338000
7.865500 0.314000
7.898600 0.312900
7.931700 0.312900
7.964900 0.312900
7.998000 0.313000
8.031200 0.313000
8.064300 0.313000
8.097400 0.313100
8.130600 0.314000
8.163700 0.316600
8.196800 0.321200
8.230000 0.326500
8.263100 0.333300
8.296300 0.341500
8.329400 0.350800
8.362500 0.362200
8.395700 0.373200
8.428800 0.381600
8.461900 0.388500
8.495100 0.396800
8.528200 0.404700
8.561400 0.412500
8.594500 0.422100
8.627600 0.594900
8.660800 1.583700
8.693900 0.733700
8.727100 0.747500
8.760200 0.771500
8.793300 0.990400
8.826500 0.879200
8.859600 0.757900
8.892700 0.663600
8.925900 0.671600
8.959000 0.679600
8.992200 0.718800
9.025300 0.694500
9.058400 0.733200
9.091600 0.774000
9.124700 0.813600
9.157900 0.808700
9.191000 0.825500
9.224100 0.869600
9.257300 0.902800
9.290400 0.944300
9.323500 0.988100
9.356700 1.035000
9.389800 1.091100
9.423000 1.149300
9.456100 1.154400
9.489200 1.136900
9.522400 1.129800
9.555500 1.179700
9.588700 1.146900
9.621800 1.140200
9.654900 1.169000
9.688100 1.205400
9.721200 1.245700
9.754300 1.324900
9.787500 1.383700
9.820600 1.378400
9.853800 1.420200
9.886900 1.465800
9.920000 1.513200
9.953200 1.566500
9.986300 1.628500
10.019500 1.698700
10.052600 1.774900
10.085700 1.918700
10.118900 2.103800
10.152000 2.490600
10.185100 2.519500
10.218300 4.866200
10.251400 2.994500
10.284600 2.828700
10.317700 2.649200
10.350800 2.372100
10.384000 2.007600
10.417100 1.885500
10.450300 1.843900
10.483400 1.792800
10.516500 1.750200
10.549700 1.711900
10.582800 1.680900
10.615900 1.625600
10.649100 1.653300
10.682200 1.679600
10.715400 1.762000
10.748500 1.898200
10.781600 1.927000
10.814800 2.068900
10.847900 2.123800
10.881100 2.158900
10.914200 2.136400
10.947300 2.153700
10.980500 2.306400
11.013600 2.369700
11.046700 2.382600
11.079900 2.392900
11.113000 2.388100
11.146200 2.414500
11.179300 2.462100
11.212400 2.576200
11.245600 2.770700
11.278700 2.805900
11.311900 2.987200
11.345000 3.028400
11.378100 3.065900
11.411300 3.025500
11.444400 3.022400
11.477500 2.928200
11.510700 2.867700
11.543800 2.854200
11.577000 2.739700
11.610100 2.579400
11.643200 2.524300
11.676400 2.458900
11.709500 2.441000
11.742700 2.425700
11.775800 2.430500
11.808900 2.487900
11.842100 2.328300
11.875200 2.180600
11.908300 2.042800
11.941500 1.859800
11.974600 1.615500
12.007800 1.405500
12.040900 1.697300
12.074000 1.280300
12.107200 1.104400
12.140300 0.969000
12.173500 0.905900
12.206600 0.873300
12.239700 0.881100
12.272900 0.949000
12.306000 1.033500
12.339100 1.119000
12.372300 1.186800
12.405400 1.292200
12.438600 1.411200
12.471700 1.557200
12.504800 1.708900
12.538000 1.850100
12.571100 2.002100
12.604300 2.233500
12.637400 2.268900
12.670500 2.254300
12.703700 2.276900
12.736800 2.328800
12.769900 2.370300
12.803100 2.523900
12.836200 2.972300
12.869400 3.039600
12.902500 2.905500
12.935600 2.822800
12.968800 2.690300
13.001900 2.675000
13.035100 2.739000
13.068200 2.756100
13.101300 2.719000
13.134500 2.825500
13.167600 3.180100
13.200700 2.771600
13.233900 2.247500
13.267000 2.154100
13.300200 2.047600
13.333300 2.555700
13.366400 2.701300
13.399600 2.803600
13.432700 2.978700
13.465900 3.110400
13.499000 3.194700
13.532100 3.024400
13.565300 3.117400
13.598400 3.759100
13.631500 3.573900
13.664700 3.358800
13.697800 3.037100
13.731000 2.777700
13.764100 2.478900
13.797200 2.222200
13.830400 2.047600
13.863500 1.886600
13.896700 1.712000
13.929800 1.541900
13.962900 1.395200
13.996100 1.283200
14.029200 1.286100
14.062300 1.156600
14.095500 1.109100
14.128600 1.049200
14.161800 1.016000
14.194900 0.966200
14.228000 0.930400
14.261200 0.897100
14.294300 0.858200
14.327500 1.007900
14.360600 1.076600
14.393700 1.087400
14.426900 1.132700
14.460000 1.217100
14.493100 1.305100
14.526300 1.390600
14.559400 1.459200
14.592600 1.561300
14.625700 1.676900
14.658800 1.791900
14.692000 1.559500
14.725100 1.623300
14.758300 1.658900
14.791400 1.678400
14.824500 1.708200
14.857700 1.772200
14.890800 1.861900
14.923900 1.925400
14.957100 1.823600
14.990200 1.789900
15.023400 1.863100
15.056500 2.302500
15.089600 2.054400
15.122800 2.112800
15.155900 2.246700
15.189100 2.322100
15.222200 2.418400
15.255300 2.503300
15.288500 2.642100
15.321600 2.620300
15.354700 2.464900
15.387900 2.338900
15.421000 2.274800
15.454200 2.288500
15.487300 2.302400
15.520400 2.318500
15.553600 2.316100
15.586700 2.296400
15.619900 2.269200
15.653000 2.196900
15.686100 2.098100
15.719300 2.060800
15.752400 2.035300
15.785500 2.131700
15.818700 2.091000
15.851800 2.057100
15.885000 1.997700
15.918100 1.948600
15.951200 1.898000
15.984400 1.837400
16.017500 1.792900
16.050700 1.717900
16.083800 1.662400
16.116900 1.610100
16.150100 1.559900
16.183200 1.517500
16.216300 1.484300
16.249500 1.449500
16.282600 1.410800
16.315800 1.479100
16.348900 1.518700
16.382000 1.511500
16.415200 1.495400
16.448300 1.507800
16.481500 1.521200
16.514600 1.532700
16.547700 1.537900
16.580900 1.539700
16.614000 1.537400
16.647100 1.532000
16.680300 1.529400
16.713400 1.534200
16.746600 1.552100
16.779700 1.569200
16.812800 1.542500
16.846000 1.533500
16.879100 1.501900
16.912300 1.468900
16.945400 1.457400
16.978500 1.451400
17.011700 1.426200
17.044800 1.411300
17.077900 1.396200
17.111100 1.381300
17.144200 1.366700
17.177400 1.356500
17.210500 1.351600
17.243600 1.352800
17.276800 1.375000
17.309900 1.482400
17.343100 1.533700
17.376200 1.587900
17.409300 1.608800
17.442500 1.612700
17.475600 1.584500
17.508700 1.538500
17.541900 1.526400
17.575000 1.504100
17.608200 1.470400
17.641300 1.429700
17.674400 1.394400
17.707600 1.379800
17.740700 1.363200
17.773900 1.354100
17.807000 1.334600
17.840100 1.314900
17.873300 1.324300
17.906400 1.287400
17.939500 1.254800
17.972700 1.239400
18.005800 1.229900
18.039000 1.222700
18.072100 1.292000
18.105200 1.294400
18.138400 1.336700
