set title 'mp-971832 - Density of States'
set xlabel 'Energy (eV)'
set ylabel 'DOS (states/eV)'
set grid
set xrange [-10:10]
set yrange [0:85.272]
set xzeroaxis lt -1
set terminal png size 800,600
set output 'mp-971832_dos_gnuplot.png'
plot '-' using 1:2 with lines title 'DOS'
-10.439700 0.000000
-10.419800 0.000000
-10.399900 0.000000
-10.380000 0.000000
-10.360100 0.000000
-10.340200 0.000000
-10.320300 0.000000
-10.300400 0.000000
-10.280500 0.000000
-10.260600 0.000000
-10.240700 0.000000
-10.220800 0.000000
-10.200900 0.000000
-10.181000 0.000000
-10.161100 0.000000
-10.141200 0.000000
-10.121300 0.000000
-10.101400 0.000000
-10.081500 0.000000
-10.061600 0.000000
-10.041700 0.000000
-10.021800 0.000000
-10.001900 0.000000
-9.982000 0.000000
-9.962200 0.000000
-9.942300 0.000000
-9.922400 0.000000
-9.902500 0.000000
-9.882600 0.000000
-9.862700 0.000000
-9.842800 0.000000
-9.822900 0.000000
-9.803000 0.000000
-9.783100 0.000000
-9.763200 0.000000
-9.743300 0.000000
-9.723400 0.000000
-9.703500 0.000000
-9.683600 0.000000
-9.663700 0.000000
-9.643800 0.000000
-9.623900 0.000000
-9.604000 0.000000
-9.584100 0.000000
-9.564200 0.000000
-9.544300 0.000000
-9.524400 0.000000
-9.504500 0.000000
-9.484600 0.000000
-9.464700 0.000000
-9.444800 0.000000
-9.424900 0.000000
-9.405000 0.000000
-9.385100 0.000000
-9.365200 0.000000
-9.345300 0.000000
-9.325400 0.000000
-9.305500 0.000000
-9.285600 0.000000
-9.265800 0.000000
-9.245900 0.000000
-9.226000 0.000000
-9.206100 0.000000
-9.186200 0.000000
-9.166300 0.000000
-9.146400 0.000000
-9.126500 0.000000
-9.106600 0.000000
-9.086700 0.000000
-9.066800 0.000000
-9.046900 0.000000
-9.027000 0.000000
-9.007100 0.000000
-8.987200 0.000000
-8.967300 0.000000
-8.947400 0.000000
-8.927500 0.000000
-8.907600 0.000000
-8.887700 0.000000
-8.867800 0.000000
-8.847900 0.000000
-8.828000 0.000000
-8.808100 0.000000
-8.788200 0.000000
-8.768300 0.000000
-8.748400 0.000500
-8.728500 0.003700
-8.708600 0.021500
-8.688700 0.095200
-8.668800 0.324600
-8.648900 0.863800
-8.629000 1.846300
-8.609100 3.315800
-8.589200 5.336400
-8.569400 8.270000
-8.549500 12.887000
-8.529600 19.965700
-8.509700 29.500600
-8.489800 40.142900
-8.469900 49.470200
-8.450000 55.291100
-8.430100 57.326100
-8.410200 57.557600
-8.390300 58.478900
-8.370400 60.959500
-8.350500 63.859700
-8.330600 65.445400
-8.310700 65.181300
-8.290800 64.574100
-8.270900 66.051000
-8.251000 70.338000
-8.231100 75.226400
-8.211200 77.520400
-8.191300 75.851700
-8.171400 71.408100
-8.151500 66.488900
-8.131600 62.323500
-8.111700 57.865400
-8.091800 50.935000
-8.071900 40.763000
-8.052000 29.079800
-8.032100 18.624700
-8.012200 11.056700
-7.992300 6.364500
-7.972400 3.636000
-7.952500 1.989700
-7.932600 0.965600
-7.912700 0.387300
-7.892800 0.122800
-7.873000 0.030000
-7.853100 0.005600
-7.833200 0.000800
-7.813300 0.000100
-7.793400 0.000000
-7.773500 0.000000
-7.753600 0.000000
-7.733700 0.000000
-7.713800 0.000000
-7.693900 0.000000
-7.674000 0.000000
-7.654100 0.000000
-7.634200 0.000000
-7.614300 0.000000
-7.594400 0.000000
-7.574500 0.000000
-7.554600 0.000000
-7.534700 0.000000
-7.514800 0.000000
-7.494900 0.000000
-7.475000 0.000000
-7.455100 0.000000
-7.435200 0.000000
-7.415300 0.000000
-7.395400 0.000000
-7.375500 0.000000
-7.355600 0.000000
-7.335700 0.000000
-7.315800 0.000000
-7.295900 0.000000
-7.276000 0.000000
-7.256100 0.000000
-7.236200 0.000000
-7.216300 0.000000
-7.196400 0.000000
-7.176500 0.000000
-7.156700 0.000000
-7.136800 0.000000
-7.116900 0.000000
-7.097000 0.000000
-7.077100 0.000000
-7.057200 0.000000
-7.037300 0.000000
-7.017400 0.000000
-6.997500 0.000000
-6.977600 0.000000
-6.957700 0.000000
-6.937800 0.000000
-6.917900 0.000000
-6.898000 0.000000
-6.878100 0.000000
-6.858200 0.000000
-6.838300 0.000000
-6.818400 0.000000
-6.798500 0.000000
-6.778600 0.000000
-6.758700 0.000000
-6.738800 0.000000
-6.718900 0.000000
-6.699000 0.000000
-6.679100 0.000000
-6.659200 0.000000
-6.639300 0.000000
-6.619400 0.000000
-6.599500 0.000000
-6.579600 0.000000
-6.559700 0.000000
-6.539800 0.000000
-6.519900 0.000000
-6.500000 0.000000
-6.480100 0.000000
-6.460300 0.000000
-6.440400 0.000000
-6.420500 0.000000
-6.400600 0.000000
-6.380700 0.000000
-6.360800 0.000000
-6.340900 0.000000
-6.321000 0.000000
-6.301100 0.000000
-6.281200 0.000000
-6.261300 0.000000
-6.241400 0.000000
-6.221500 0.000000
-6.201600 0.000000
-6.181700 0.000000
-6.161800 0.000000
-6.141900 0.000000
-6.122000 0.000000
-6.102100 0.000000
-6.082200 0.000000
-6.062300 0.000000
-6.042400 0.000000
-6.022500 0.000000
-6.002600 0.000000
-5.982700 0.000000
-5.962800 0.000000
-5.942900 0.000000
-5.923000 0.000000
-5.903100 0.000000
-5.883200 0.000000
-5.863300 0.000000
-5.843400 0.000000
-5.823500 0.000000
-5.803600 0.000000
-5.783700 0.000000
-5.763900 0.000000
-5.744000 0.000000
-5.724100 0.000000
-5.704200 0.000000
-5.684300 0.000000
-5.664400 0.000000
-5.644500 0.000000
-5.624600 0.000000
-5.604700 0.000000
-5.584800 0.000000
-5.564900 0.000000
-5.545000 0.000000
-5.525100 0.000000
-5.505200 0.000000
-5.485300 0.000000
-5.465400 0.000000
-5.445500 0.000000
-5.425600 0.000000
-5.405700 0.000000
-5.385800 0.000000
-5.365900 0.000000
-5.346000 0.000000
-5.326100 0.000000
-5.306200 0.000000
-5.286300 0.000000
-5.266400 0.000000
-5.246500 0.000000
-5.226600 0.000000
-5.206700 0.000000
-5.186800 0.000000
-5.166900 0.000000
-5.147000 0.000000
-5.127100 0.000000
-5.107200 0.000000
-5.087300 0.000000
-5.067500 0.000000
-5.047600 0.000000
-5.027700 0.000000
-5.007800 0.000000
-4.987900 0.000000
-4.968000 0.000000
-4.948100 0.000000
-4.928200 0.000000
-4.908300 0.000000
-4.888400 0.000000
-4.868500 0.000000
-4.848600 0.000000
-4.828700 0.000000
-4.808800 0.000000
-4.788900 0.000000
-4.769000 0.000000
-4.749100 0.000000
-4.729200 0.000000
-4.709300 0.000000
-4.689400 0.000000
-4.669500 0.000000
-4.649600 0.000000
-4.629700 0.000000
-4.609800 0.000000
-4.589900 0.000000
-4.570000 0.000000
-4.550100 0.000000
-4.530200 0.000000
-4.510300 0.000000
-4.490400 0.000000
-4.470500 0.000000
-4.450600 0.000000
-4.430700 0.000000
-4.410800 0.000000
-4.390900 0.000000
-4.371100 0.000000
-4.351200 0.000000
-4.331300 0.000000
-4.311400 0.000000
-4.291500 0.000000
-4.271600 0.000000
-4.251700 0.000000
-4.231800 0.000000
-4.211900 0.000000
-4.192000 0.000000
-4.172100 0.000000
-4.152200 0.000000
-4.132300 0.000000
-4.112400 0.000000
-4.092500 0.000000
-4.072600 0.000000
-4.052700 0.000000
-4.032800 0.000000
-4.012900 0.000000
-3.993000 0.000000
-3.973100 0.000000
-3.953200 0.000000
-3.933300 0.000000
-3.913400 0.000000
-3.893500 0.000000
-3.873600 0.000000
-3.853700 0.000000
-3.833800 0.000000
-3.813900 0.000000
-3.794000 0.000000
-3.774100 0.000000
-3.754200 0.000000
-3.734300 0.000000
-3.714400 0.000000
-3.694500 0.000000
-3.674600 0.000000
-3.654800 0.000000
-3.634900 0.000000
-3.615000 0.000000
-3.595100 0.000000
-3.575200 0.000000
-3.555300 0.000000
-3.535400 0.000000
-3.515500 0.000000
-3.495600 0.000000
-3.475700 0.000000
-3.455800 0.000000
-3.435900 0.000000
-3.416000 0.000000
-3.396100 0.000000
-3.376200 0.000000
-3.356300 0.000000
-3.336400 0.000000
-3.316500 0.000000
-3.296600 0.000000
-3.276700 0.000000
-3.256800 0.000000
-3.236900 0.000000
-3.217000 0.000000
-3.197100 0.000000
-3.177200 0.000000
-3.157300 0.000100
-3.137400 0.000700
-3.117500 0.002900
-3.097600 0.009200
-3.077700 0.022100
-3.057800 0.040700
-3.037900 0.061300
-3.018000 0.081900
-2.998100 0.104000
-2.978200 0.130500
-2.958400 0.170600
-2.938500 0.238600
-2.918600 0.325300
-2.898700 0.380800
-2.878800 0.356200
-2.858900 0.259300
-2.839000 0.149200
-2.819100 0.083700
-2.799200 0.091200
-2.779300 0.175600
-2.759400 0.315000
-2.739500 0.453900
-2.719600 0.529900
-2.699700 0.523100
-2.679800 0.470900
-2.659900 0.433800
-2.640000 0.456500
-2.620100 0.534500
-2.600200 0.593900
-2.580300 0.546900
-2.560400 0.394800
-2.540500 0.234400
-2.520600 0.154100
-2.500700 0.163200
-2.480800 0.218000
-2.460900 0.290200
-2.441000 0.395600
-2.421100 0.545900
-2.401200 0.689100
-2.381300 0.746200
-2.361400 0.703700
-2.341500 0.634500
-2.321600 0.624400
-2.301700 0.692700
-2.281800 0.772300
-2.262000 0.761300
-2.242100 0.617600
-2.222200 0.403100
-2.202300 0.226500
-2.182400 0.161800
-2.162500 0.225000
-2.142600 0.386900
-2.122700 0.593300
-2.102800 0.792500
-2.082900 0.941200
-2.063000 0.993500
-2.043100 0.933300
-2.023200 0.813900
-2.003300 0.712600
-1.983400 0.653800
-1.963500 0.614800
-1.943600 0.581500
-1.923700 0.556100
-1.903800 0.538400
-1.883900 0.527100
-1.864000 0.518500
-1.844100 0.515000
-1.824200 0.550200
-1.804300 0.653200
-1.784400 0.776500
-1.764500 0.823200
-1.744600 0.761200
-1.724700 0.670100
-1.704800 0.670100
-1.684900 0.803600
-1.665000 0.990100
-1.645100 1.102900
-1.625200 1.069700
-1.605300 0.902700
-1.585400 0.691400
-1.565600 0.580600
-1.545700 0.695300
-1.525800 1.038100
-1.505900 1.446200
-1.486000 1.674400
-1.466100 1.583700
-1.446200 1.264400
-1.426300 0.938800
-1.406400 0.746100
-1.386500 0.660900
-1.366600 0.593800
-1.346700 0.511300
-1.326800 0.445300
-1.306900 0.429500
-1.287000 0.465300
-1.267100 0.556700
-1.247200 0.734300
-1.227300 1.003600
-1.207400 1.302300
-1.187500 1.562800
-1.167600 1.777900
-1.147700 1.953600
-1.127800 2.038300
-1.107900 1.984000
-1.088000 1.878900
-1.068100 1.933600
-1.048200 2.330900
-1.028300 3.127200
-1.008400 4.239900
-0.988500 5.462700
-0.968600 6.575600
-0.948700 7.645100
-0.928800 9.294900
-0.908900 12.477700
-0.889000 17.944000
-0.869200 26.348900
-0.849300 38.628900
-0.829400 54.424500
-0.809500 68.986700
-0.789600 74.078800
-0.769700 65.076500
-0.749800 46.271200
-0.729900 26.997100
-0.710000 13.669400
-0.690100 6.867000
-0.670200 4.047700
-0.650300 2.824900
-0.630400 2.104600
-0.610500 1.657800
-0.590600 1.452000
-0.570700 1.407300
-0.550800 1.433200
-0.530900 1.458300
-0.511000 1.452100
-0.491100 1.429400
-0.471200 1.387200
-0.451300 1.284300
-0.431400 1.118200
-0.411500 0.953600
-0.391600 0.846300
-0.371700 0.796200
-0.351800 0.782200
-0.331900 0.798400
-0.312000 0.835900
-0.292100 0.860500
-0.272200 0.849800
-0.252300 0.831400
-0.232400 0.846200
-0.212500 0.888600
-0.192600 0.923700
-0.172800 0.938000
-0.152900 0.945900
-0.133000 0.968800
-0.113100 1.013800
-0.093200 1.058800
-0.073300 1.076500
-0.053400 1.067100
-0.033500 1.071500
-0.013600 1.176100
0.006300 1.442400
0.026200 1.788100
0.046100 2.021400
0.066000 2.021200
0.085900 1.807100
0.105800 1.461700
0.125700 1.079000
0.145600 0.764800
0.165500 0.594400
0.185400 0.561300
0.205300 0.608000
0.225200 0.698400
0.245100 0.821200
0.265000 0.941000
0.284900 1.001500
0.304800 1.002600
0.324700 1.026100
0.344600 1.120900
0.364500 1.206800
0.384400 1.167800
0.404300 0.996300
0.424200 0.803200
0.444100 0.726700
0.464000 0.825900
0.483900 1.027300
0.503800 1.201300
0.523700 1.297600
0.543500 1.357600
0.563400 1.428600
0.583300 1.532100
0.603200 1.670300
0.623100 1.796100
0.643000 1.816400
0.662900 1.676700
0.682800 1.420700
0.702700 1.149100
0.722600 0.932100
0.742500 0.758200
0.762400 0.575500
0.782300 0.386100
0.802200 0.269700
0.822100 0.315900
0.842000 0.545300
0.861900 0.870000
0.881800 1.131500
0.901700 1.224200
0.921600 1.177700
0.941500 1.098400
0.961400 1.060600
0.981300 1.081900
1.001200 1.166600
1.021100 1.328200
1.041000 1.564300
1.060900 1.819100
1.080800 1.972000
1.100700 1.909700
1.120600 1.628100
1.140500 1.235500
1.160400 0.876900
1.180300 0.668700
1.200200 0.664400
1.220100 0.849600
1.239900 1.142200
1.259800 1.410100
1.279700 1.563700
1.299600 1.654300
1.319500 1.805000
1.339400 2.018400
1.359300 2.133900
1.379200 2.006100
1.399100 1.658800
1.419000 1.257500
1.438900 0.975600
1.458800 0.873600
1.478700 0.876100
1.498600 0.878400
1.518500 0.870300
1.538400 0.924700
1.558300 1.071300
1.578200 1.221400
1.598100 1.255400
1.618000 1.166600
1.637900 1.058500
1.657800 1.017500
1.677700 1.054400
1.697600 1.128000
1.717500 1.164900
1.737400 1.109300
1.757300 1.000500
1.777200 0.955900
1.797100 1.051800
1.817000 1.255300
1.836900 1.486500
1.856800 1.687900
1.876700 1.820000
1.896600 1.873300
1.916500 1.867100
1.936300 1.775200
1.956200 1.549500
1.976100 1.249200
1.996000 1.017200
2.015900 0.938600
2.035800 1.012200
2.055700 1.195600
2.075600 1.395100
2.095500 1.478600
2.115400 1.378800
2.135300 1.153700
2.155200 0.919100
2.175100 0.769500
2.195000 0.770400
2.214900 0.959200
2.234800 1.327100
2.254700 1.798000
2.274600 2.213000
2.294500 2.370800
2.314400 2.161800
2.334300 1.688500
2.354200 1.219500
2.374100 0.990900
2.394000 1.036200
2.413900 1.194900
2.433800 1.280400
2.453700 1.242300
2.473600 1.182700
2.493500 1.249000
2.513400 1.507100
2.533300 1.850500
2.553200 2.032800
2.573100 1.879800
2.593000 1.493300
2.612900 1.183200
2.632700 1.191000
2.652600 1.498100
2.672500 1.857100
2.692400 1.995300
2.712300 1.834500
2.732200 1.526800
2.752100 1.290700
2.772000 1.251600
2.791900 1.421700
2.811800 1.736600
2.831700 2.061600
2.851600 2.215800
2.871500 2.077200
2.891400 1.703200
2.911300 1.322500
2.931200 1.151700
2.951100 1.213000
2.971000 1.357500
2.990900 1.439400
3.010800 1.415700
3.030700 1.311400
3.050600 1.171300
3.070500 1.056400
3.090400 1.022900
3.110300 1.078300
3.130200 1.180200
3.150100 1.265900
3.170000 1.270900
3.189900 1.150300
3.209800 0.917800
3.229700 0.663800
3.249600 0.508200
3.269500 0.524300
3.289400 0.711700
3.309300 1.001200
3.329100 1.285100
3.349000 1.501700
3.368900 1.667500
3.388800 1.787000
3.408700 1.813000
3.428600 1.755300
3.448500 1.724900
3.468400 1.792600
3.488300 1.883700
3.508200 1.881000
3.528100 1.763100
3.548000 1.607900
3.567900 1.515400
3.587800 1.538800
3.607700 1.651900
3.627600 1.768400
3.647500 1.803800
3.667400 1.732100
3.687300 1.592700
3.707200 1.433800
3.727100 1.272800
3.747000 1.137500
3.766900 1.092400
3.786800 1.171400
3.806700 1.338000
3.826600 1.532800
3.846500 1.688600
3.866400 1.717000
3.886300 1.579700
3.906200 1.366800
3.926100 1.249900
3.946000 1.366000
3.965900 1.719800
3.985800 2.142400
4.005700 2.378600
4.025600 2.273700
4.045400 1.889200
4.065300 1.453500
4.085200 1.190000
4.105100 1.157200
4.125000 1.259100
4.144900 1.393700
4.164800 1.529500
4.184700 1.655300
4.204600 1.743700
4.224500 1.768300
4.244400 1.723800
4.264300 1.635000
4.284200 1.535800
4.304100 1.434100
4.324000 1.344000
4.343900 1.326100
4.363800 1.414100
4.383700 1.547500
4.403600 1.652700
4.423500 1.714000
4.443400 1.728900
4.463300 1.689500
4.483200 1.634200
4.503100 1.644300
4.523000 1.771400
4.542900 1.990100
4.562800 2.194100
4.582700 2.240300
4.602600 2.060800
4.622500 1.744400
4.642400 1.456300
4.662300 1.266800
4.682200 1.111200
4.702100 0.929500
4.722000 0.775300
4.741800 0.754200
4.761700 0.896600
4.781600 1.112100
4.801500 1.266000
4.821400 1.290400
4.841300 1.207400
4.861200 1.084000
4.881100 1.004800
4.901000 1.035800
4.920900 1.175200
4.940800 1.367200
4.960700 1.534300
4.980600 1.589800
5.000500 1.522200
5.020400 1.474200
5.040300 1.601700
5.060200 1.842300
5.080100 1.961300
5.100000 1.821000
5.119900 1.493600
5.139800 1.129900
5.159700 0.829700
5.179600 0.642500
5.199500 0.598800
5.219400 0.709000
5.239300 0.984100
5.259200 1.454900
5.279100 2.095100
5.299000 2.736100
5.318900 3.168600
5.338800 3.314200
5.358700 3.221600
5.378600 2.994600
5.398500 2.768300
5.418400 2.630900
5.438200 2.565500
5.458100 2.527700
5.478000 2.491900
5.497900 2.403300
5.517800 2.205900
5.537700 1.932100
5.557600 1.691900
5.577500 1.569000
5.597400 1.532600
5.617300 1.454700
5.637200 1.243500
5.657100 0.941100
5.677000 0.677500
5.696900 0.569200
5.716800 0.659900
5.736700 0.909400
5.756600 1.250200
5.776500 1.661600
5.796400 2.132300
5.816300 2.545400
5.836200 2.692800
5.856100 2.464700
5.876000 1.971100
5.895900 1.437000
5.915800 1.031300
5.935700 0.827300
5.955600 0.866800
5.975500 1.186400
5.995400 1.738700
6.015300 2.303600
6.035200 2.577800
6.055100 2.431300
6.075000 2.026200
6.094900 1.641400
6.114800 1.440100
6.134600 1.418100
6.154500 1.505800
6.174400 1.654600
6.194300 1.808900
6.214200 1.862100
6.234100 1.720800
6.254000 1.405600
6.273900 1.062900
6.293800 0.868800
6.313700 0.904300
6.333600 1.105800
6.353500 1.327400
6.373400 1.455700
6.393300 1.482400
6.413200 1.482900
6.433100 1.550200
6.453000 1.744400
6.472900 2.057100
6.492800 2.415100
6.512700 2.726200
6.532600 2.877900
6.552500 2.756100
6.572400 2.400600
6.592300 2.079900
6.612200 2.089800
6.632100 2.484400
6.652000 3.001100
6.671900 3.248800
6.691800 3.032800
6.711700 2.511900
6.731600 2.024600
6.751500 1.814400
6.771400 1.923400
6.791300 2.228500
6.811200 2.512200
6.831000 2.578300
6.850900 2.387600
6.870800 2.047400
6.890700 1.658700
6.910600 1.261200
6.930500 0.912100
6.950400 0.700800
6.970300 0.698400
6.990200 0.937000
7.010100 1.376800
7.030000 1.873200
7.049900 2.230600
7.069800 2.314800
7.089700 2.126600
7.109600 1.793700
7.129500 1.476100
7.149400 1.267100
7.169300 1.187400
7.189200 1.221200
7.209100 1.313200
7.229000 1.385100
7.248900 1.403700
7.268800 1.403800
7.288700 1.431100
7.308600 1.490200
7.328500 1.570000
7.348400 1.692900
7.368300 1.875600
7.388200 2.057900
7.408100 2.151200
7.428000 2.141600
7.447900 2.065700
7.467800 1.933600
7.487700 1.771300
7.507600 1.663900
7.527400 1.666900
7.547300 1.737700
7.567200 1.796800
7.587100 1.811600
7.607000 1.817400
7.626900 1.877700
7.646800 2.005600
7.666700 2.108400
7.686600 2.053700
7.706500 1.817100
7.726400 1.520800
7.746300 1.325600
7.766200 1.313700
7.786100 1.450100
7.806000 1.627900
7.825900 1.787900
7.845800 1.985100
7.865700 2.278000
7.885600 2.595400
7.905500 2.801000
7.925400 2.845800
7.945300 2.774000
7.965200 2.636400
7.985100 2.472400
8.005000 2.334600
8.024900 2.286500
8.044800 2.388000
8.064700 2.630900
8.084600 2.837000
8.104500 2.745300
8.124400 2.317800
8.144300 1.852100
8.164200 1.674600
8.184100 1.807000
8.204000 2.027900
8.223900 2.178600
8.243700 2.269000
8.263600 2.319300
8.283500 2.268700
8.303400 2.080600
8.323300 1.839500
8.343200 1.719400
8.363100 1.848300
8.383000 2.143100
8.402900 2.329600
8.422800 2.227400
8.442700 1.948000
8.462600 1.715600
8.482500 1.592100
8.502400 1.485500
8.522300 1.337600
8.542200 1.188300
8.562100 1.100900
8.582000 1.105400
8.601900 1.202300
8.621800 1.381100
8.641700 1.643500
8.661600 1.965100
8.681500 2.198400
8.701400 2.129600
8.721300 1.723900
8.741200 1.210800
8.761100 0.878500
8.781000 0.877100
8.800900 1.197400
8.820800 1.693500
8.840700 2.120800
8.860600 2.285300
8.880500 2.195500
8.900400 2.020700
8.920300 1.901800
8.940100 1.832700
8.960000 1.750800
8.979900 1.715800
8.999800 1.883600
9.019700 2.268800
9.039600 2.662000
9.059500 2.865300
9.079400 2.900900
9.099300 2.887300
9.119200 2.846200
9.139100 2.767800
9.159000 2.731600
9.178900 2.801800
9.198800 2.887000
9.218700 2.826200
9.238600 2.576800
9.258500 2.268800
9.278400 2.084600
9.298300 2.082200
9.318200 2.158300
9.338100 2.193100
9.358000 2.149000
9.377900 2.035900
9.397800 1.909700
9.417700 1.873200
9.437600 1.973700
9.457500 2.149800
9.477400 2.347200
9.497300 2.630400
9.517200 3.090900
9.537100 3.655700
9.557000 4.075500
9.576900 4.111600
9.596800 3.699800
9.616700 2.980800
9.636500 2.201300
9.656400 1.551400
9.676300 1.083900
9.696200 0.773400
9.716100 0.611500
9.736000 0.645000
9.755900 0.919500
9.775800 1.367800
9.795700 1.794200
9.815600 2.034500
9.835500 2.108700
9.855400 2.136400
9.875300 2.147600
9.895200 2.085600
9.915100 1.958000
9.935000 1.850700
9.954900 1.801800
9.974800 1.766800
9.994700 1.727600
10.014600 1.746200
10.034500 1.868900
10.054400 2.041300
10.074300 2.166500
10.094200 2.206800
10.114100 2.180100
10.134000 2.098900
10.153900 1.992300
10.173800 1.969000
10.193700 2.167800
10.213600 2.606700
10.233500 3.069300
10.253400 3.222700
10.273300 2.969000
10.293200 2.588200
10.313100 2.406900
10.332900 2.454100
10.352800 2.535300
10.372700 2.509900
10.392600 2.420800
10.412500 2.424200
10.432400 2.607400
10.452300 2.863700
10.472200 3.014300
10.492100 3.040600
10.512000 3.084100
10.531900 3.251500
10.551800 3.514400
10.571700 3.740600
10.591600 3.790300
10.611500 3.667100
10.631400 3.522800
10.651300 3.421300
