set title 'mp-985295 - Density of States'
set xlabel 'Energy (eV)'
set ylabel 'DOS (states/eV)'
set grid
set xrange [-10:10]
set yrange [0:18.029]
set xzeroaxis lt -1
set terminal png size 800,600
set output 'mp-985295_dos_gnuplot.png'
plot '-' using 1:2 with lines title 'DOS'
-8.923600 0.000000
-8.901200 0.000000
-8.878900 0.000000
-8.856600 0.000000
-8.834300 0.000000
-8.812000 0.000000
-8.789600 0.000000
-8.767300 0.000000
-8.745000 0.000000
-8.722700 0.000000
-8.700400 0.000000
-8.678100 0.000000
-8.655700 0.000000
-8.633400 0.000000
-8.611100 0.000000
-8.588800 0.000000
-8.566500 0.000000
-8.544200 0.000000
-8.521800 0.000000
-8.499500 0.000000
-8.477200 0.000000
-8.454900 0.000000
-8.432600 0.000000
-8.410300 0.000000
-8.387900 0.000000
-8.365600 0.000000
-8.343300 0.000000
-8.321000 0.000000
-8.298700 0.000000
-8.276400 0.000000
-8.254000 0.000000
-8.231700 0.000000
-8.209400 0.000000
-8.187100 0.000000
-8.164800 0.000000
-8.142500 0.000000
-8.120100 0.000000
-8.097800 0.000000
-8.075500 0.000000
-8.053200 0.000000
-8.030900 0.000000
-8.008600 0.000000
-7.986200 0.000000
-7.963900 0.000000
-7.941600 0.000000
-7.919300 0.000000
-7.897000 0.000000
-7.874600 0.000000
-7.852300 0.000000
-7.830000 0.000000
-7.807700 0.000000
-7.785400 0.000000
-7.763100 0.000000
-7.740700 0.000000
-7.718400 0.000000
-7.696100 0.000000
-7.673800 0.000000
-7.651500 0.000000
-7.629200 0.000000
-7.606800 0.000000
-7.584500 0.000000
-7.562200 0.000000
-7.539900 0.000000
-7.517600 0.000000
-7.495300 0.000000
-7.472900 0.000000
-7.450600 0.000000
-7.428300 0.000000
-7.406000 0.000000
-7.383700 0.000000
-7.361400 0.000000
-7.339000 0.000000
-7.316700 0.000000
-7.294400 0.000000
-7.272100 0.000000
-7.249800 0.000000
-7.227500 0.000000
-7.205100 0.000000
-7.182800 0.000000
-7.160500 0.000000
-7.138200 0.000000
-7.115900 0.000000
-7.093600 0.000000
-7.071200 0.000000
-7.048900 0.000000
-7.026600 0.000000
-7.004300 0.000100
-6.982000 0.000700
-6.959700 0.003200
-6.937300 0.011500
-6.915000 0.030800
-6.892700 0.066900
-6.870400 0.124200
-6.848100 0.197300
-6.825700 0.259400
-6.803400 0.281200
-6.781100 0.282600
-6.758800 0.321000
-6.736500 0.406700
-6.714200 0.490800
-6.691800 0.541200
-6.669500 0.555900
-6.647200 0.538800
-6.624900 0.527500
-6.602600 0.573000
-6.580300 0.657400
-6.557900 0.718700
-6.535600 0.751800
-6.513300 0.800100
-6.491000 0.889500
-6.468700 1.007700
-6.446400 1.092100
-6.424000 1.079300
-6.401700 1.010900
-6.379400 1.017200
-6.357100 1.167200
-6.334800 1.386000
-6.312500 1.555300
-6.290100 1.662800
-6.267800 1.782600
-6.245500 1.925400
-6.223200 1.986200
-6.200900 1.905900
-6.178600 1.824000
-6.156200 1.922800
-6.133900 2.187000
-6.111600 2.478500
-6.089300 2.731700
-6.067000 2.956100
-6.044700 3.199200
-6.022300 3.577200
-6.000000 4.187500
-5.977700 4.937800
-5.955400 5.547900
-5.933100 5.773800
-5.910700 5.585700
-5.888400 5.067600
-5.866100 4.214800
-5.843800 3.020400
-5.821500 1.735600
-5.799200 0.756000
-5.776800 0.240600
-5.754500 0.054700
-5.732200 0.008700
-5.709900 0.001000
-5.687600 0.000100
-5.665300 0.000000
-5.642900 0.000000
-5.620600 0.000000
-5.598300 0.000000
-5.576000 0.000000
-5.553700 0.000000
-5.531400 0.000000
-5.509000 0.000000
-5.486700 0.000000
-5.464400 0.000000
-5.442100 0.000000
-5.419800 0.000000
-5.397500 0.000000
-5.375100 0.000000
-5.352800 0.000000
-5.330500 0.000000
-5.308200 0.000000
-5.285900 0.000000
-5.263600 0.000000
-5.241200 0.000000
-5.218900 0.000000
-5.196600 0.000000
-5.174300 0.000000
-5.152000 0.000000
-5.129700 0.000000
-5.107300 0.000000
-5.085000 0.000000
-5.062700 0.000000
-5.040400 0.000000
-5.018100 0.000000
-4.995700 0.000000
-4.973400 0.000000
-4.951100 0.000000
-4.928800 0.000000
-4.906500 0.000000
-4.884200 0.000000
-4.861800 0.000000
-4.839500 0.000000
-4.817200 0.000000
-4.794900 0.000000
-4.772600 0.000000
-4.750300 0.000000
-4.727900 0.000000
-4.705600 0.000000
-4.683300 0.000000
-4.661000 0.000000
-4.638700 0.000000
-4.616400 0.000000
-4.594000 0.000000
-4.571700 0.000000
-4.549400 0.000000
-4.527100 0.000000
-4.504800 0.000000
-4.482500 0.000000
-4.460100 0.000000
-4.437800 0.000000
-4.415500 0.000000
-4.393200 0.000000
-4.370900 0.000000
-4.348600 0.000000
-4.326200 0.000000
-4.303900 0.000000
-4.281600 0.000000
-4.259300 0.000000
-4.237000 0.000000
-4.214700 0.000000
-4.192300 0.000000
-4.170000 0.000000
-4.147700 0.000000
-4.125400 0.000000
-4.103100 0.000000
-4.080800 0.000000
-4.058400 0.000000
-4.036100 0.000000
-4.013800 0.000000
-3.991500 0.000000
-3.969200 0.000000
-3.946800 0.000000
-3.924500 0.000000
-3.902200 0.000000
-3.879900 0.000000
-3.857600 0.000000
-3.835300 0.000000
-3.812900 0.000000
-3.790600 0.000000
-3.768300 0.000000
-3.746000 0.000000
-3.723700 0.000000
-3.701400 0.000000
-3.679000 0.000000
-3.656700 0.000000
-3.634400 0.000000
-3.612100 0.000000
-3.589800 0.000000
-3.567500 0.000000
-3.545100 0.000000
-3.522800 0.000000
-3.500500 0.000000
-3.478200 0.000000
-3.455900 0.000000
-3.433600 0.000000
-3.411200 0.000000
-3.388900 0.000000
-3.366600 0.000000
-3.344300 0.000000
-3.322000 0.000000
-3.299700 0.000000
-3.277300 0.000000
-3.255000 0.000000
-3.232700 0.000000
-3.210400 0.000000
-3.188100 0.000000
-3.165800 0.000000
-3.143400 0.000000
-3.121100 0.000000
-3.098800 0.000000
-3.076500 0.000000
-3.054200 0.000000
-3.031800 0.000000
-3.009500 0.000000
-2.987200 0.000000
-2.964900 0.000000
-2.942600 0.000000
-2.920300 0.000000
-2.897900 0.000000
-2.875600 0.000000
-2.853300 0.000000
-2.831000 0.000000
-2.808700 0.000000
-2.786400 0.000000
-2.764000 0.000000
-2.741700 0.000000
-2.719400 0.000000
-2.697100 0.000000
-2.674800 0.000000
-2.652500 0.000000
-2.630100 0.000000
-2.607800 0.000000
-2.585500 0.000000
-2.563200 0.000000
-2.540900 0.000000
-2.518600 0.000000
-2.496200 0.000000
-2.473900 0.000000
-2.451600 0.000200
-2.429300 0.001100
-2.407000 0.005100
-2.384700 0.018400
-2.362300 0.052000
-2.340000 0.118300
-2.317700 0.220900
-2.295400 0.344600
-2.273100 0.462200
-2.250800 0.547500
-2.228400 0.576500
-2.206100 0.565400
-2.183800 0.607200
-2.161500 0.773600
-2.139200 0.990200
-2.116800 1.137800
-2.094500 1.242900
-2.072200 1.415800
-2.049900 1.709000
-2.027600 2.182800
-2.005300 2.915400
-1.982900 3.829600
-1.960600 4.665900
-1.938300 5.136600
-1.916000 5.145100
-1.893700 4.954600
-1.871400 4.931900
-1.849000 5.104300
-1.826700 5.198600
-1.804400 5.008700
-1.782100 4.550100
-1.759800 3.970700
-1.737500 3.424700
-1.715100 3.006900
-1.692800 2.727900
-1.670500 2.537800
-1.648200 2.424200
-1.625900 2.446200
-1.603600 2.665900
-1.581200 3.165100
-1.558900 4.086600
-1.536600 5.498100
-1.514300 7.177700
-1.492000 8.660300
-1.469700 9.592000
-1.447300 9.896300
-1.425000 9.703100
-1.402700 9.382100
-1.380400 9.345400
-1.358100 9.711900
-1.335800 10.431600
-1.313400 11.466900
-1.291100 12.665100
-1.268800 13.668900
-1.246500 14.126000
-1.224200 14.092600
-1.201900 13.979600
-1.179500 13.979400
-1.157200 13.934000
-1.134900 13.654000
-1.112600 13.009400
-1.090300 11.993300
-1.067900 10.935700
-1.045600 10.318200
-1.023300 10.163300
-1.001000 10.022700
-0.978700 9.660800
-0.956400 9.219600
-0.934000 8.790300
-0.911700 8.313000
-0.889400 7.823500
-0.867100 7.516000
-0.844800 7.536800
-0.822500 7.835200
-0.800100 8.234900
-0.777800 8.523700
-0.755500 8.504700
-0.733200 8.146800
-0.710900 7.655000
-0.688600 7.239400
-0.666200 6.922200
-0.643900 6.728500
-0.621600 6.862900
-0.599300 7.447600
-0.577000 8.285600
-0.554700 9.077100
-0.532300 9.726000
-0.510000 10.327400
-0.487700 10.901900
-0.465400 11.217000
-0.443100 11.051000
-0.420800 10.693700
-0.398400 10.784300
-0.376100 11.477400
-0.353800 12.234100
-0.331500 12.517300
-0.309200 12.249000
-0.286900 11.644100
-0.264500 10.974700
-0.242200 10.455700
-0.219900 10.201600
-0.197600 10.201400
-0.175300 10.246300
-0.152900 10.125100
-0.130600 9.996300
-0.108300 10.238900
-0.086000 10.905200
-0.063700 11.549700
-0.041400 11.651200
-0.019000 11.148900
0.003300 10.414300
0.025600 9.724500
0.047900 9.092200
0.070200 8.585300
0.092500 8.356600
0.114900 8.427200
0.137200 8.826000
0.159500 9.644400
0.181800 10.721400
0.204100 11.659400
0.226400 12.170800
0.248800 12.236400
0.271100 12.025200
0.293400 11.730500
0.315700 11.586000
0.338000 11.919100
0.360300 12.908000
0.382700 14.338400
0.405000 15.680300
0.427300 16.389900
0.449600 16.219000
0.471900 15.303300
0.494200 14.033100
0.516600 12.853400
0.538900 12.079800
0.561200 11.755900
0.583500 11.636600
0.605800 11.451600
0.628100 11.149500
0.650500 10.731400
0.672800 10.078600
0.695100 9.148500
0.717400 8.145500
0.739700 7.362500
0.762000 6.932900
0.784400 6.764900
0.806700 6.625500
0.829000 6.309800
0.851300 5.846500
0.873600 5.471800
0.896000 5.332700
0.918300 5.316100
0.940600 5.261400
0.962900 5.340600
0.985200 6.078700
1.007500 7.751800
1.029900 9.798200
1.052200 11.150900
1.074500 11.220700
1.096800 10.315500
1.119100 9.185000
1.141400 8.413200
1.163800 8.091400
1.186100 7.849100
1.208400 7.301200
1.230700 6.503100
1.253000 5.846200
1.275300 5.580200
1.297700 5.591400
1.320000 5.566900
1.342300 5.296400
1.364600 4.854600
1.386900 4.470700
1.409200 4.239900
1.431600 4.075500
1.453900 3.888100
1.476200 3.650400
1.498500 3.344300
1.520800 2.968100
1.543100 2.577100
1.565500 2.260900
1.587800 2.055600
1.610100 1.956000
1.632400 2.005400
1.654700 2.240000
1.677000 2.552600
1.699400 2.715000
1.721700 2.593500
1.744000 2.311700
1.766300 2.097800
1.788600 2.026500
1.811000 2.035600
1.833300 2.054700
1.855600 2.020400
1.877900 1.921800
1.900200 1.811700
1.922500 1.690700
1.944900 1.539000
1.967200 1.429600
1.989500 1.417500
2.011800 1.428600
2.034100 1.395500
2.056400 1.362000
2.078800 1.387100
2.101100 1.439100
2.123400 1.424000
2.145700 1.309300
2.168000 1.187600
2.190300 1.174900
2.212700 1.264400
2.235000 1.329000
2.257300 1.282700
2.279600 1.187100
2.301900 1.169800
2.324200 1.278300
2.346600 1.448300
2.368900 1.615500
2.391200 1.807000
2.413500 2.042500
2.435800 2.208200
2.458100 2.164600
2.480500 1.931300
2.502800 1.665800
2.525100 1.509900
2.547400 1.515800
2.569700 1.691200
2.592000 1.985600
2.614400 2.179500
2.636700 2.033300
2.659000 1.655600
2.681300 1.408100
2.703600 1.411700
2.726000 1.466400
2.748300 1.419900
2.770600 1.321800
2.792900 1.263300
2.815200 1.309100
2.837500 1.555600
2.859900 2.061200
2.882200 2.655600
2.904500 2.983600
2.926800 2.873600
2.949100 2.522100
2.971400 2.206300
2.993800 2.006400
3.016100 1.903900
3.038400 1.901300
3.060700 1.928700
3.083000 1.884700
3.105300 1.805600
3.127700 1.780600
3.150000 1.810600
3.172300 1.843400
3.194600 1.812900
3.216900 1.706500
3.239200 1.627500
3.261600 1.661100
3.283900 1.704800
3.306200 1.593300
3.328500 1.350100
3.350800 1.147800
3.373100 1.083400
3.395500 1.101600
3.417800 1.105300
3.440100 1.091700
3.462400 1.123000
3.484700 1.229300
3.507000 1.426600
3.529400 1.720300
3.551700 2.019800
3.574000 2.148400
3.596300 2.010200
3.618600 1.700800
3.640900 1.461700
3.663300 1.533300
3.685600 1.921700
3.707900 2.304000
3.730200 2.357200
3.752500 2.125100
3.774900 1.820300
3.797200 1.470200
3.819500 1.061800
3.841800 0.742500
3.864100 0.614400
3.886400 0.588600
3.908800 0.573700
3.931100 0.593400
3.953400 0.675600
3.975700 0.771000
3.998000 0.812000
4.020300 0.809700
4.042700 0.863400
4.065000 1.033500
4.087300 1.228300
4.109600 1.291400
4.131900 1.183300
4.154200 1.013400
4.176600 0.917000
4.198900 0.939900
4.221200 1.023300
4.243500 1.089400
4.265800 1.135300
4.288100 1.210700
4.310500 1.307500
4.332800 1.337300
4.355100 1.271400
4.377400 1.200700
4.399700 1.160100
4.422000 1.054100
4.444400 0.849400
4.466700 0.673800
4.489000 0.667500
4.511300 0.838400
4.533600 1.083200
4.555900 1.324700
4.578300 1.577800
4.600600 1.847400
4.622900 2.060700
4.645200 2.142200
4.667500 2.068400
4.689900 1.882000
4.712200 1.706500
4.734500 1.641100
4.756800 1.651500
4.779100 1.662100
4.801400 1.674500
4.823800 1.717900
4.846100 1.772900
4.868400 1.805400
4.890700 1.794700
4.913000 1.726000
4.935300 1.614600
4.957700 1.485200
4.980000 1.345400
5.002300 1.206300
5.024600 1.095900
5.046900 1.088700
5.069200 1.229000
5.091600 1.360300
5.113900 1.276900
5.136200 1.078000
5.158500 1.059500
5.180800 1.282600
5.203100 1.544500
5.225500 1.721700
5.247800 1.872500
5.270100 2.022000
5.292400 2.058800
5.314700 1.874100
5.337000 1.513900
5.359400 1.130100
5.381700 0.838900
5.404000 0.693700
5.426300 0.703600
5.448600 0.801800
5.470900 0.863700
5.493300 0.815800
5.515600 0.687200
5.537900 0.541400
5.560200 0.413100
5.582500 0.323600
5.604900 0.288500
5.627200 0.292500
5.649500 0.323600
5.671800 0.413500
5.694100 0.594100
5.716400 0.836700
5.738800 1.034000
5.761100 1.064900
5.783400 0.918700
5.805700 0.706200
5.828000 0.533100
5.850300 0.419800
5.872700 0.354200
5.895000 0.361400
5.917300 0.469100
5.939600 0.629500
5.961900 0.750800
5.984200 0.815400
6.006600 0.869100
6.028900 0.907600
6.051200 0.903400
6.073500 0.904600
6.095800 0.969000
6.118100 1.046900
6.140500 1.048200
6.162800 0.976100
6.185100 0.917300
6.207400 0.955700
6.229700 1.089800
6.252000 1.194500
6.274400 1.116500
6.296700 0.837200
6.319000 0.514500
6.341300 0.353900
6.363600 0.450700
6.385900 0.735400
6.408300 1.044100
6.430600 1.259200
6.452900 1.374200
6.475200 1.448900
6.497500 1.558100
6.519800 1.729600
6.542200 1.874600
6.564500 1.851200
6.586800 1.654900
6.609100 1.453700
6.631400 1.386900
6.653800 1.426300
6.676100 1.469200
6.698400 1.476400
6.720700 1.459000
6.743000 1.405200
6.765300 1.306600
6.787700 1.179800
6.810000 1.039700
6.832300 0.925200
6.854600 0.892600
6.876900 0.956100
6.899200 1.079100
6.921600 1.198000
6.943900 1.268900
6.966200 1.316600
6.988500 1.374700
7.010800 1.408500
7.033100 1.406700
7.055500 1.456500
7.077800 1.580200
7.100100 1.649500
7.122400 1.592100
7.144700 1.491200
7.167000 1.426700
7.189400 1.394100
7.211700 1.364700
7.234000 1.312300
7.256300 1.203500
7.278600 1.043100
7.300900 0.934200
7.323300 1.002100
7.345600 1.219200
7.367900 1.414400
7.390200 1.494100
7.412500 1.539300
7.434800 1.665800
7.457200 1.860500
7.479500 1.982800
7.501800 1.946500
7.524100 1.843100
7.546400 1.835100
7.568800 1.961500
7.591100 2.087200
7.613400 2.087200
7.635700 2.010100
7.658000 1.958000
7.680300 1.921400
7.702700 1.834500
7.725000 1.692200
7.747300 1.530400
7.769600 1.355400
7.791900 1.193200
7.814200 1.139800
7.836600 1.230300
7.858900 1.333400
7.881200 1.312100
7.903500 1.206800
7.925800 1.148700
7.948100 1.185300
7.970500 1.252500
7.992800 1.259600
8.015100 1.195700
8.037400 1.154600
8.059700 1.208400
8.082000 1.315700
8.104400 1.414900
8.126700 1.478700
8.149000 1.480200
8.171300 1.442600
8.193600 1.434700
8.215900 1.459900
8.238300 1.468300
8.260600 1.467200
8.282900 1.513500
8.305200 1.594000
8.327500 1.616300
8.349800 1.554100
8.372200 1.480900
8.394500 1.439500
8.416800 1.437200
8.439100 1.562900
8.461400 1.875000
8.483700 2.195700
8.506100 2.275400
8.528400 2.120200
8.550700 1.936500
8.573000 1.859200
8.595300 1.912400
8.617700 2.066400
8.640000 2.193500
8.662300 2.146300
8.684600 1.930900
8.706900 1.654100
8.729200 1.381200
8.751600 1.157800
8.773900 1.056200
8.796200 1.145100
8.818500 1.440000
8.840800 1.837300
8.863100 2.123700
8.885500 2.145600
8.907800 1.946100
8.930100 1.668100
8.952400 1.424000
8.974700 1.345100
8.997000 1.570400
9.019400 2.053300
9.041700 2.549300
9.064000 2.831200
9.086300 2.839700
9.108600 2.702500
9.130900 2.603100
9.153300 2.581400
9.175600 2.512400
9.197900 2.270900
9.220200 1.877800
9.242500 1.491900
9.264800 1.271200
9.287200 1.250000
9.309500 1.378700
9.331800 1.650000
9.354100 2.029200
9.376400 2.307300
9.398700 2.310500
9.421100 2.141600
9.443400 1.955000
9.465700 1.749200
9.488000 1.557600
9.510300 1.534000
9.532700 1.688000
9.555000 1.788500
9.577300 1.716700
9.599600 1.635800
9.621900 1.637300
9.644200 1.579200
9.666600 1.417700
9.688900 1.365100
9.711200 1.570400
9.733500 1.879100
9.755800 2.050200
9.778100 2.026300
9.800500 1.901200
9.822800 1.819900
9.845100 1.894000
9.867400 2.037800
9.889700 2.018100
9.912000 1.778000
9.934400 1.516000
9.956700 1.372200
9.979000 1.258600
10.001300 1.084500
10.023600 0.953300
10.045900 1.045000
10.068300 1.381500
10.090600 1.752300
10.112900 1.897700
10.135200 1.752500
10.157500 1.452500
10.179800 1.164300
10.202200 0.985200
10.224500 0.937100
10.246800 0.971500
10.269100 1.004900
10.291400 1.032200
10.313700 1.134000
10.336100 1.291700
10.358400 1.355600
10.380700 1.270700
10.403000 1.169300
10.425300 1.178800
10.447700 1.250400
10.470000 1.252000
10.492300 1.180500
10.514600 1.138300
10.536900 1.120000
10.559200 1.038900
10.581600 0.927900
10.603900 0.918700
10.626200 1.060100
10.648500 1.286000
10.670800 1.544500
10.693100 1.808700
10.715500 1.963900
10.737800 1.917100
10.760100 1.807100
10.782400 1.840900
10.804700 1.963700
10.827000 1.932900
10.849400 1.685700
10.871700 1.449700
10.894000 1.457600
10.916300 1.667900
10.938600 1.867400
10.960900 1.957300
10.983300 1.995400
11.005600 2.054100
11.027900 2.136300
11.050200 2.175400
11.072500 2.144400
11.094800 2.136500
11.117200 2.245900
11.139500 2.400100
11.161800 2.396300
11.184100 2.197900
11.206400 2.069400
11.228700 2.182300
11.251100 2.339400
11.273400 2.348400
11.295700 2.301600
11.318000 2.288700
11.340300 2.208500
11.362600 2.001200
11.385000 1.798600
11.407300 1.797000
11.429600 2.094900
11.451900 2.549600
11.474200 2.819300
11.496600 2.760800
11.518900 2.615100
11.541200 2.592600
11.563500 2.578800
11.585800 2.420900
11.608100 2.194900
11.630500 2.029900
11.652800 1.870900
11.675100 1.591200
11.697400 1.258100
11.719700 1.077900
11.742000 1.129800
11.764400 1.345300
11.786700 1.658400
11.809000 2.005500
11.831300 2.295700
11.853600 2.432100
11.875900 2.327200
11.898300 2.064500
11.920600 1.947300
11.942900 2.167300
11.965200 2.575300
11.987500 2.872200
12.009800 2.916700
12.032200 2.791600
12.054500 2.578000
12.076800 2.241700
12.099100 1.839400
12.121400 1.555900
12.143700 1.441500
12.166100 1.369700
12.188400 1.278800
12.210700 1.299500
12.233000 1.592700
12.255300 2.060800
12.277600 2.345400
12.300000 2.236300
12.322300 1.936100
12.344600 1.765400
12.366900 1.769100
12.389200 1.794600
12.411600 1.769900
12.433900 1.721500
12.456200 1.672500
12.478500 1.668700
12.500800 1.822900
12.523100 2.194500
12.545500 2.598300
12.567800 2.737100
12.590100 2.583800
12.612400 2.374100
12.634700 2.236600
12.657000 2.123900
12.679400 2.046100
12.701700 2.079000
12.724000 2.199300
12.746300 2.347400
12.768600 2.558000
12.790900 2.825800
12.813300 2.970500
12.835600 2.815000
12.857900 2.409300
12.880200 1.953500
12.902500 1.612400
12.924800 1.465600
12.947200 1.482900
12.969500 1.519400
12.991800 1.439100
13.014100 1.263500
13.036400 1.133600
13.058700 1.128600
13.081100 1.203700
13.103400 1.290700
13.125700 1.349100
13.148000 1.348500
13.170300 1.315300
13.192600 1.304500
13.215000 1.282500
13.237300 1.191600
13.259600 1.074100
13.281900 1.002300
13.304200 0.994000
13.326600 1.042000
13.348900 1.130800
13.371200 1.235400
13.393500 1.347800
13.415800 1.447200
13.438100 1.440900
13.460500 1.248100
13.482800 0.953200
13.505100 0.751200
13.527400 0.737300
13.549700 0.849100
13.572000 0.991700
13.594400 1.124600
13.616700 1.238900
13.639000 1.325000
13.661300 1.365300
13.683600 1.367200
13.705900 1.398400
13.728300 1.524000
13.750600 1.730700
13.772900 1.931100
13.795200 1.991400
13.817500 1.818700
13.839800 1.479300
13.862200 1.188300
13.884500 1.141100
13.906800 1.336900
13.929100 1.569600
13.951400 1.638200
13.973700 1.587000
13.996100 1.652400
14.018400 1.947700
14.040700 2.288500
14.063000 2.412100
14.085300 2.282700
14.107600 2.058600
14.130000 1.853200
14.152300 1.654100
14.174600 1.418400
14.196900 1.164000
14.219200 0.966600
14.241500 0.905600
14.263900 1.019500
14.286200 1.302500
14.308500 1.701000
14.330800 2.064700
14.353100 2.245200
14.375500 2.309600
14.397800 2.402700
14.420100 2.453200
14.442400 2.330700
14.464700 2.106600
14.487000 1.937800
14.509400 1.891300
14.531700 1.931600
14.554000 1.972900
14.576300 1.980400
14.598600 1.991300
14.620900 2.008700
14.643300 1.999000
14.665600 1.997300
