set title 'mp-1018655 - Density of States'
set xlabel 'Energy (eV)'
set ylabel 'DOS (states/eV)'
set grid
set xrange [-10:10]
set yrange [0:4.792]
set xzeroaxis lt -1
set terminal png size 800,600
set output 'mp-1018655_dos_gnuplot.png'
plot '-' using 1:2 with lines title 'DOS'
-23.966700 0.000000
-23.932100 0.000000
-23.897600 0.000000
-23.863000 0.000000
-23.828500 0.000000
-23.793900 0.000000
-23.759300 0.000000
-23.724800 0.000000
-23.690200 0.000000
-23.655700 0.000000
-23.621100 0.000000
-23.586500 0.000000
-23.552000 0.000000
-23.517400 0.000000
-23.482900 0.000000
-23.448300 0.000000
-23.413800 0.000000
-23.379200 0.000000
-23.344600 0.000000
-23.310100 0.000000
-23.275500 0.000000
-23.241000 0.000000
-23.206400 0.000000
-23.171800 0.000000
-23.137300 0.000000
-23.102700 0.000000
-23.068200 0.000000
-23.033600 0.000000
-22.999100 0.000000
-22.964500 0.000000
-22.929900 0.000000
-22.895400 0.000000
-22.860800 0.000000
-22.826300 0.000000
-22.791700 0.000000
-22.757100 0.000000
-22.722600 0.000000
-22.688000 0.000000
-22.653500 0.000000
-22.618900 0.000000
-22.584300 0.000000
-22.549800 0.000000
-22.515200 0.000000
-22.480700 0.000000
-22.446100 0.000000
-22.411600 0.000000
-22.377000 0.000000
-22.342400 0.000000
-22.307900 0.000000
-22.273300 0.000000
-22.238800 0.000000
-22.204200 0.000000
-22.169600 0.000000
-22.135100 0.000000
-22.100500 0.000000
-22.066000 0.000000
-22.031400 0.000000
-21.996900 0.000000
-21.962300 0.000000
-21.927700 0.000000
-21.893200 0.000000
-21.858600 0.000000
-21.824100 0.000000
-21.789500 0.000000
-21.754900 0.000000
-21.720400 0.000000
-21.685800 0.000000
-21.651300 0.000000
-21.616700 0.000000
-21.582200 0.000000
-21.547600 0.000000
-21.513000 0.000000
-21.478500 0.000000
-21.443900 0.000000
-21.409400 0.000000
-21.374800 0.000000
-21.340200 0.000000
-21.305700 0.000000
-21.271100 0.000000
-21.236600 0.000000
-21.202000 0.000000
-21.167400 0.000000
-21.132900 0.000000
-21.098300 0.000000
-21.063800 0.000000
-21.029200 0.000000
-20.994700 0.000000
-20.960100 0.000000
-20.925500 0.000000
-20.891000 0.000000
-20.856400 0.000000
-20.821900 0.007300
-20.787300 0.089400
-20.752700 0.171500
-20.718200 0.253700
-20.683600 0.335800
-20.649100 0.417900
-20.614500 0.228000
-20.580000 0.234900
-20.545400 0.241800
-20.510800 0.248800
-20.476300 0.255700
-20.441700 0.262600
-20.407200 0.269600
-20.372600 0.276500
-20.338000 0.283400
-20.303500 0.290300
-20.268900 0.297300
-20.234400 0.369600
-20.199800 0.442900
-20.165300 0.516200
-20.130700 0.589500
-20.096100 0.662800
-20.061600 0.481200
-20.027000 0.490600
-19.992500 0.500100
-19.957900 0.509500
-19.923300 0.518900
-19.888800 0.528300
-19.854200 0.537700
-19.819700 0.547100
-19.785100 0.556500
-19.750500 0.566000
-19.716000 0.575400
-19.681400 0.574100
-19.646900 0.568400
-19.612300 0.562700
-19.577800 0.557000
-19.543200 0.551300
-19.508600 0.526600
-19.474100 0.528700
-19.439500 0.530900
-19.405000 0.533100
-19.370400 0.535300
-19.335800 0.537500
-19.301300 0.539600
-19.266700 0.541800
-19.232200 0.544000
-19.197600 0.546200
-19.163100 0.548400
-19.128500 0.552000
-19.093900 0.555900
-19.059400 0.559800
-19.024800 0.563600
-18.990300 0.567500
-18.955700 0.549700
-18.921100 0.550700
-18.886600 0.551800
-18.852000 0.552900
-18.817500 0.553900
-18.782900 0.555000
-18.748400 0.556100
-18.713800 0.557100
-18.679200 0.558200
-18.644700 0.559300
-18.610100 0.597700
-18.575600 0.690100
-18.541000 0.783100
-18.506400 0.876100
-18.471900 0.969000
-18.437300 0.795900
-18.402800 0.805500
-18.368200 0.815400
-18.333600 0.825400
-18.299100 0.835300
-18.264500 0.845300
-18.230000 0.855200
-18.195400 0.865100
-18.160900 0.875100
-18.126300 0.885000
-18.091700 0.889900
-18.057200 0.882500
-18.022600 0.871300
-17.988100 0.859900
-17.953500 0.848500
-17.918900 0.840900
-17.884400 0.842100
-17.849800 0.846100
-17.815300 0.850700
-17.780700 0.855300
-17.746200 0.859900
-17.711600 0.864500
-17.677000 0.869100
-17.642500 0.873600
-17.607900 0.878200
-17.573400 0.882800
-17.538800 0.887400
-17.504200 0.892000
-17.469700 0.896600
-17.435100 0.901200
-17.400600 0.882800
-17.366000 0.878900
-17.331400 0.879900
-17.296900 0.881100
-17.262300 0.882300
-17.227800 0.883500
-17.193200 0.884700
-17.158700 0.885900
-17.124100 0.887100
-17.089500 0.888300
-17.055000 0.891100
-17.020400 0.894500
-16.985900 0.898400
-16.951300 0.902400
-16.916700 0.906400
-16.882200 0.910300
-16.847600 0.914300
-16.813100 0.912600
-16.778500 0.915800
-16.744000 0.919000
-16.709400 0.922100
-16.674800 0.925300
-16.640300 0.928500
-16.605700 0.931700
-16.571200 0.932900
-16.536600 0.932400
-16.502000 0.931800
-16.467500 0.932500
-16.432900 0.933200
-16.398400 0.937100
-16.363800 0.941500
-16.329300 0.946300
-16.294700 0.951200
-16.260100 0.956100
-16.225600 0.960900
-16.191000 0.965800
-16.156500 0.970700
-16.121900 0.975500
-16.087300 0.980400
-16.052800 0.985300
-16.018200 0.990300
-15.983700 0.996000
-15.949100 1.002100
-15.914500 1.008700
-15.880000 1.015700
-15.845400 1.026100
-15.810900 1.036400
-15.776300 1.046800
-15.741800 1.057200
-15.707200 1.067500
-15.672600 1.077900
-15.638100 1.088200
-15.603500 1.098600
-15.569000 1.109000
-15.534400 1.119300
-15.499800 1.131000
-15.465300 1.423500
-15.430700 1.399200
-15.396200 1.374900
-15.361600 1.351500
-15.327100 1.333800
-15.292500 1.316000
-15.257900 1.298300
-15.223400 1.285500
-15.188800 1.274000
-15.154300 1.262500
-15.119700 1.251100
-15.085100 1.817800
-15.050600 1.660700
-15.016000 1.522800
-14.981500 1.391200
-14.946900 1.259600
-14.912400 1.128000
-14.877800 1.107300
-14.843200 1.099900
-14.808700 1.188100
-14.774100 1.349000
-14.739600 1.469800
-14.705000 1.416300
-14.670400 1.362900
-14.635900 1.309500
-14.601300 1.256000
-14.566800 1.200100
-14.532200 1.147200
-14.497600 1.094300
-14.463100 1.291000
-14.428500 1.635500
-14.394000 1.782300
-14.359400 1.411400
-14.324900 1.063800
-14.290300 0.818600
-14.255700 0.813500
-14.221200 0.808300
-14.186600 0.803100
-14.152100 0.798000
-14.117500 0.792800
-14.082900 0.787600
-14.048400 0.782500
-14.013800 0.816700
-13.979300 0.762900
-13.944700 0.709100
-13.910200 0.655300
-13.875600 0.601400
-13.841000 0.547600
-13.806500 0.493800
-13.771900 0.440000
-13.737400 0.386200
-13.702800 0.236200
-13.668200 0.189400
-13.633700 0.147800
-13.599100 0.142200
-13.564600 0.136600
-13.530000 0.131000
-13.495500 0.125400
-13.460900 0.119800
-13.426300 0.114300
-13.391800 0.108700
-13.357200 0.103100
-13.322700 0.097500
-13.288100 0.091900
-13.253500 0.086300
-13.219000 0.080700
-13.184400 0.075200
-13.149900 0.069600
-13.115300 0.064000
-13.080700 0.058400
-13.046200 0.052800
-13.011600 0.047200
-12.977100 0.041600
-12.942500 0.036100
-12.908000 0.030500
-12.873400 0.024900
-12.838800 0.019300
-12.804300 0.013700
-12.769700 0.008100
-12.735200 0.002500
-12.700600 0.002400
-12.666000 0.006900
-12.631500 0.011400
-12.596900 0.015800
-12.562400 0.020300
-12.527800 0.024800
-12.493300 0.029300
-12.458700 0.033700
-12.424100 0.038200
-12.389600 0.042700
-12.355000 0.047100
-12.320500 0.051600
-12.285900 0.056100
-12.251300 0.060600
-12.216800 0.065000
-12.182200 0.069500
-12.147700 0.074000
-12.113100 0.078400
-12.078500 0.082900
-12.044000 0.087400
-12.009400 0.091900
-11.974900 0.096300
-11.940300 0.100800
-11.905800 0.128900
-11.871200 0.162000
-11.836600 0.195100
-11.802100 0.289000
-11.767500 0.437700
-11.733000 0.586500
-11.698400 0.735200
-11.663800 0.883900
-11.629300 1.032700
-11.594700 1.251400
-11.560200 1.008600
-11.525600 1.199300
-11.491100 0.900200
-11.456500 1.013500
-11.421900 1.126900
-11.387400 1.808700
-11.352800 1.042200
-11.318300 1.126900
-11.283700 1.211700
-11.249100 1.296400
-11.214600 1.381200
-11.180000 1.465900
-11.145500 1.550700
-11.110900 0.990000
-11.076400 0.966700
-11.041800 0.943400
-11.007200 0.920100
-10.972700 0.896900
-10.938100 0.873600
-10.903600 0.850300
-10.869000 0.829400
-10.834400 0.808900
-10.799900 0.788300
-10.765300 0.767800
-10.730800 0.747200
-10.696200 0.726600
-10.661600 0.706600
-10.627100 0.689500
-10.592500 0.689900
-10.558000 0.701200
-10.523400 0.713100
-10.488900 0.725000
-10.454300 0.736900
-10.419700 0.748700
-10.385200 0.760600
-10.350600 0.772500
-10.316100 0.784400
-10.281500 0.796300
-10.246900 0.808200
-10.212400 0.820100
-10.177800 0.831900
-10.143300 1.580600
-10.108700 0.864300
-10.074200 0.866300
-10.039600 0.868800
-10.005000 0.872700
-9.970500 0.876600
-9.935900 0.880400
-9.901400 0.884300
-9.866800 0.888100
-9.832200 0.894300
-9.797700 0.902700
-9.763100 0.911200
-9.728600 0.919700
-9.694000 0.928100
-9.659500 0.936600
-9.624900 0.945100
-9.590300 0.953500
-9.555800 0.962000
-9.521200 0.970800
-9.486700 1.490800
-9.452100 1.426600
-9.417500 1.362400
-9.383000 1.298200
-9.348400 1.235000
-9.313900 1.172300
-9.279300 1.109600
-9.244700 1.046900
-9.210200 0.984200
-9.175600 0.921500
-9.141100 0.913400
-9.106500 0.895200
-9.072000 0.876900
-9.037400 0.858700
-9.002800 0.840500
-8.968300 0.822200
-8.933700 0.804000
-8.899200 0.785800
-8.864600 0.767500
-8.830000 0.749300
-8.795500 0.731800
-8.760900 0.714900
-8.726400 0.709300
-8.691800 0.707600
-8.657300 0.790000
-8.622700 0.883800
-8.588100 0.977600
-8.553600 1.071400
-8.519000 1.142700
-8.484500 0.930800
-8.449900 0.939200
-8.415300 0.947700
-8.380800 0.956200
-8.346200 0.964600
-8.311700 0.973100
-8.277100 0.981400
-8.242600 0.989700
-8.208000 0.998000
-8.173400 1.005700
-8.138900 1.000200
-8.104300 0.994700
-8.069800 0.989300
-8.035200 0.983800
-8.000600 0.982200
-7.966100 0.988600
-7.931500 0.995000
-7.897000 1.001300
-7.862400 1.033200
-7.827800 1.069900
-7.793300 1.106600
-7.758700 1.143300
-7.724200 1.180000
-7.689600 1.284700
-7.655100 1.514500
-7.620500 1.744300
-7.585900 1.974000
-7.551400 2.188800
-7.516800 1.985200
-7.482300 1.764500
-7.447700 1.561700
-7.413100 1.137500
-7.378600 0.911100
-7.344000 0.826100
-7.309500 0.754800
-7.274900 0.683600
-7.240400 0.615800
-7.205800 0.622700
-7.171200 0.629600
-7.136700 0.636200
-7.102100 0.642800
-7.067600 0.649500
-7.033000 0.656100
-6.998400 0.662700
-6.963900 0.669400
-6.929300 0.676000
-6.894800 0.682700
-6.860200 0.705300
-6.825600 0.727900
-6.791100 0.750500
-6.756500 0.773200
-6.722000 0.795800
-6.687400 0.871700
-6.652900 0.888000
-6.618300 0.904300
-6.583700 0.920600
-6.549200 0.936900
-6.514600 0.953600
-6.480100 0.970300
-6.445500 0.987100
-6.410900 1.003900
-6.376400 1.018000
-6.341800 1.032000
-6.307300 1.046000
-6.272700 0.948800
-6.238200 0.947500
-6.203600 0.948900
-6.169000 0.960600
-6.134500 0.972300
-6.099900 0.986200
-6.065400 1.004900
-6.030800 1.023700
-5.996200 1.042200
-5.961700 1.054000
-5.927100 1.065800
-5.892600 1.077700
-5.858000 1.091600
-5.823500 1.106800
-5.788900 1.121900
-5.754300 1.137300
-5.719800 2.057200
-5.685200 2.069700
-5.650700 2.082300
-5.616100 2.094900
-5.581500 2.107400
-5.547000 2.120000
-5.512400 2.134600
-5.477900 2.149800
-5.443300 2.165000
-5.408700 2.180100
-5.374200 2.210400
-5.339600 2.342000
-5.305100 2.473700
-5.270500 2.205500
-5.236000 2.210800
-5.201400 1.921800
-5.166800 1.827100
-5.132300 1.832000
-5.097700 1.863400
-5.063200 1.894800
-5.028600 1.932400
-4.994000 2.932600
-4.959500 2.895900
-4.924900 2.717600
-4.890400 2.291600
-4.855800 1.865500
-4.821300 1.574200
-4.786700 1.645800
-4.752100 1.557600
-4.717600 1.447100
-4.683000 1.424600
-4.648500 1.402200
-4.613900 1.379800
-4.579300 1.357400
-4.544800 1.335000
-4.510200 1.312500
-4.475700 1.290100
-4.441100 1.267700
-4.406600 1.245300
-4.372000 1.222900
-4.337400 1.200400
-4.302900 1.178000
-4.268300 1.696800
-4.233800 2.448900
-4.199200 2.541600
-4.164600 2.415300
-4.130100 2.309900
-4.095500 3.382800
-4.061000 2.821400
-4.026400 2.494600
-3.991800 2.330400
-3.957300 2.166200
-3.922700 2.005000
-3.888200 1.840900
-3.853600 1.800200
-3.819100 1.823600
-3.784500 1.847000
-3.749900 1.870500
-3.715400 1.893900
-3.680800 1.923300
-3.646300 3.489800
-3.611700 4.356000
-3.577100 4.268200
-3.542600 3.746300
-3.508000 2.663500
-3.473500 2.564500
-3.438900 2.350000
-3.404400 1.941700
-3.369800 1.769400
-3.335200 1.738300
-3.300700 1.707200
-3.266100 1.683400
-3.231600 1.662100
-3.197000 1.640800
-3.162400 1.619500
-3.127900 1.732100
-3.093300 1.865400
-3.058800 1.911000
-3.024200 1.941300
-2.989700 1.971600
-2.955100 2.017900
-2.920500 2.075800
-2.886000 2.133600
-2.851400 2.191500
-2.816900 2.249300
-2.782300 2.277800
-2.747700 2.253700
-2.713200 2.213800
-2.678600 2.174000
-2.644100 1.697200
-2.609500 1.479800
-2.574900 1.455300
-2.540400 1.454100
-2.505800 1.453000
-2.471300 1.451100
-2.436700 1.475500
-2.402200 1.502700
-2.367600 1.564300
-2.333000 1.626000
-2.298500 1.687600
-2.263900 1.749300
-2.229400 1.811000
-2.194800 1.872700
-2.160200 1.884400
-2.125700 1.833100
-2.091100 1.786500
-2.056600 1.739900
-2.022000 1.693200
-1.987500 1.646600
-1.952900 1.600000
-1.918300 1.562300
-1.883800 1.541100
-1.849200 1.520000
-1.814700 1.498900
-1.780100 1.477800
-1.745500 1.456700
-1.711000 1.435500
-1.676400 1.414400
-1.641900 1.396100
-1.607300 1.410200
-1.572700 1.420100
-1.538200 1.404700
-1.503600 1.402600
-1.469100 1.400400
-1.434500 1.398200
-1.400000 2.123200
-1.365400 1.487900
-1.330800 1.323700
-1.296300 1.321900
-1.261700 1.320100
-1.227200 1.331600
-1.192600 1.324600
-1.158000 1.317600
-1.123500 1.310700
-1.088900 1.303700
-1.054400 1.302600
-1.019800 1.302900
-0.985300 1.320700
-0.950700 1.338600
-0.916100 1.356400
-0.881600 1.228000
-0.847000 1.196100
-0.812500 1.164100
-0.777900 1.277300
-0.743300 1.226900
-0.708800 1.176500
-0.674200 1.181500
-0.639700 1.204900
-0.605100 1.231300
-0.570600 1.188700
-0.536000 1.789200
-0.501400 1.725500
-0.466900 1.658800
-0.432300 1.592200
-0.397800 1.535600
-0.363200 1.492600
-0.328600 1.449600
-0.294100 1.428200
-0.259500 1.368000
-0.225000 1.339000
-0.190400 1.330100
-0.155800 1.251100
-0.121300 1.238500
-0.086700 1.225900
-0.052200 1.213400
-0.017600 1.012100
0.016900 1.074000
0.051500 1.031900
0.086100 0.993200
0.120600 1.187100
0.155200 1.217800
0.189700 1.248500
0.224300 1.279100
0.258900 1.309800
0.293400 1.340500
0.328000 1.374600
0.362500 1.554000
0.397100 1.456900
0.431600 1.410800
0.466200 1.366300
0.500800 1.382900
0.535300 1.450600
0.569900 1.590900
0.604400 1.768700
0.639000 1.946300
0.673600 2.123900
0.708100 2.019800
0.742700 1.847600
0.777200 1.675400
0.811800 1.503100
0.846300 1.330700
0.880900 1.546200
0.915500 2.473500
0.950000 2.765500
0.984600 1.579500
1.019100 0.960200
1.053700 0.879200
1.088300 0.798200
1.122800 0.717300
1.157400 0.636300
1.191900 0.555300
1.226500 0.474300
1.261100 0.393300
1.295600 0.365900
1.330200 0.354500
1.364700 0.343100
1.399300 0.331600
1.433800 0.331800
1.468400 0.401300
1.503000 0.470900
1.537500 0.540500
1.572100 0.610000
1.606600 0.679600
1.641200 1.624700
1.675800 1.403000
1.710300 1.614600
1.744900 1.824400
1.779400 2.075000
1.814000 2.325600
1.848500 1.700800
1.883100 1.692600
1.917700 1.684500
1.952200 1.676300
1.986800 1.668200
2.021300 1.660100
2.055900 1.670600
2.090500 1.691400
2.125000 1.712200
2.159600 1.733100
2.194100 2.338800
2.228700 2.901600
2.263200 2.867900
2.297800 3.801900
2.332400 3.343100
2.366900 2.187500
2.401500 1.593700
2.436000 1.498700
2.470600 1.427900
2.505200 1.382000
2.539700 1.336100
2.574300 1.290200
2.608800 1.244200
2.643400 1.198300
2.678000 1.152400
2.712500 1.128200
2.747100 1.123800
2.781600 1.119400
2.816200 1.115000
2.850700 1.110600
2.885300 1.111600
2.919900 1.134900
2.954400 1.162100
2.989000 1.188000
3.023500 1.281500
3.058100 1.379700
3.092700 1.513700
3.127200 1.642500
3.161800 1.784500
3.196300 1.990700
3.230900 2.312700
3.265400 2.772600
3.300000 2.733700
3.334600 2.502200
3.369100 2.274900
3.403700 2.056600
3.438200 1.788000
3.472800 1.389600
3.507400 1.038500
3.541900 0.905900
3.576500 0.867300
3.611000 0.822700
3.645600 0.791100
3.680200 0.761500
3.714700 0.734100
3.749300 0.708800
3.783800 0.685600
3.818400 0.665300
3.852900 0.683000
3.887500 0.740600
3.922100 0.883400
3.956600 1.087800
3.991200 0.975900
4.025700 0.865500
4.060300 0.743200
4.094900 0.599100
4.129400 0.434300
4.164000 0.256100
4.198500 0.000000
4.233100 0.000000
4.267600 0.000000
4.302200 0.000000
4.336800 0.000000
4.371300 0.000000
4.405900 0.000000
4.440400 0.000000
4.475000 0.000000
4.509600 0.000000
4.544100 0.000000
4.578700 0.000000
4.613200 0.000000
4.647800 0.000000
4.682300 0.000000
4.716900 0.000000
4.751500 0.000000
4.786000 0.000000
4.820600 0.000000
4.855100 0.000000
4.889700 0.000000
4.924300 0.000000
4.958800 0.000000
4.993400 0.000000
5.027900 0.000000
5.062500 0.000000
5.097100 0.000000
5.131600 0.000000
5.166200 0.000000
5.200700 0.000000
5.235300 0.000000
5.269800 0.000000
5.304400 0.000000
5.339000 0.000000
5.373500 0.000000
5.408100 0.000000
5.442600 0.000000
5.477200 0.000000
5.511800 0.000000
5.546300 0.000000
5.580900 0.000000
5.615400 0.000000
5.650000 0.000000
5.684500 0.000000
5.719100 0.000000
5.753700 0.000000
5.788200 0.000000
5.822800 0.000000
5.857300 0.000000
5.891900 0.000000
5.926500 0.000000
5.961000 0.000000
5.995600 0.000000
6.030100 0.000000
6.064700 0.000000
6.099200 0.000000
6.133800 0.000000
6.168400 0.000000
6.202900 0.000000
6.237500 0.000000
6.272000 0.000000
6.306600 0.000000
6.341200 0.000000
6.375700 0.000000
6.410300 0.000000
6.444800 0.000000
6.479400 0.000000
6.514000 0.000000
6.548500 0.000000
6.583100 0.000000
6.617600 0.000000
6.652200 0.000000
6.686700 0.000000
6.721300 0.000000
6.755900 0.000000
6.790400 0.000000
6.825000 0.000000
6.859500 0.000000
6.894100 0.000000
6.928700 0.118600
6.963200 0.278500
6.997800 0.438400
7.032300 0.622900
7.066900 0.756100
7.101400 0.777400
7.136000 0.798600
7.170600 0.819900
7.205100 0.841200
7.239700 0.862400
7.274200 0.883700
7.308800 0.905000
7.343400 0.926200
7.377900 0.947500
7.412500 0.968800
7.447000 0.990000
7.481600 1.014700
7.516100 1.039900
7.550700 1.065000
7.585300 1.063500
7.619800 1.046300
7.654400 1.062400
7.688900 1.094600
7.723500 1.126700
7.758100 1.158800
7.792600 1.190900
7.827200 1.478100
7.861700 1.375200
7.896300 1.277200
7.930900 1.179200
7.965400 1.081100
8.000000 0.983100
8.034500 0.885000
8.069100 0.787000
8.103600 0.688900
8.138200 0.590900
8.172800 0.492900
8.207300 0.462300
8.241900 0.507700
8.276400 0.553100
8.311000 0.598500
8.345600 0.737300
8.380100 0.884000
8.414700 1.030700
8.449200 1.177300
8.483800 1.324000
8.518300 1.531000
8.552900 0.904100
8.587500 0.973400
8.622000 1.042700
8.656600 1.144900
8.691100 1.253800
8.725700 1.362000
8.760300 1.470100
8.794800 1.586200
8.829400 1.812200
8.863900 2.040300
8.898500 2.303400
8.933100 2.463700
8.967600 2.346000
9.002200 2.707600
9.036700 3.122800
9.071300 3.513600
9.105800 3.828000
9.140400 3.703200
9.175000 3.539900
9.209500 3.893400
9.244100 2.860300
9.278600 2.884600
9.313200 2.368500
9.347800 2.328200
9.382300 2.287600
9.416900 2.246700
9.451400 2.205500
9.486000 2.206000
9.520500 2.370400
9.555100 2.581300
9.589700 2.038200
9.624200 1.840700
9.658800 1.878300
9.693300 1.915800
9.727900 1.953300
9.762500 2.047800
9.797000 2.039300
9.831600 2.030700
9.866100 3.053200
9.900700 2.979600
9.935200 2.874900
9.969800 2.882400
10.004400 2.959400
10.038900 2.875700
10.073500 2.917800
10.108000 2.971900
10.142600 2.777200
10.177200 3.045300
10.211700 2.929300
10.246300 2.665800
10.280800 2.404300
10.315400 2.145500
10.350000 2.790300
10.384500 2.776400
10.419100 2.779500
10.453600 2.787600
10.488200 2.800400
10.522700 2.818100
10.557300 2.627800
10.591900 2.911800
10.626400 3.431800
10.661000 3.972000
10.695500 4.449600
10.730100 4.672800
10.764700 3.203500
10.799200 3.375800
10.833800 2.778100
10.868300 2.156700
10.902900 2.162000
10.937400 2.252500
10.972000 2.343300
11.006600 2.434300
11.041100 2.791300
11.075700 6.667100
11.110200 5.729400
11.144800 2.950400
11.179400 2.847900
11.213900 2.681200
11.248500 2.942700
11.283000 3.243000
11.317600 3.540500
11.352100 3.163600
11.386700 2.901700
11.421300 2.639700
11.455800 2.362300
11.490400 1.979500
11.524900 1.924900
11.559500 1.884000
11.594100 1.843900
11.628600 1.804600
