set title 'mp-1228120 - Density of States'
set xlabel 'Energy (eV)'
set ylabel 'DOS (states/eV)'
set grid
set xrange [-10:10]
set yrange [0:8.850]
set xzeroaxis lt -1
set terminal png size 800,600
set output 'mp-1228120_dos_gnuplot.png'
plot '-' using 1:2 with lines title 'DOS'
-5.615600 0.000000
-5.598400 0.000000
-5.581100 0.000000
-5.563900 0.000000
-5.546600 0.000000
-5.529400 0.000000
-5.512100 0.000000
-5.494900 0.000000
-5.477600 0.000000
-5.460400 0.000000
-5.443100 0.000000
-5.425800 0.000000
-5.408600 0.000000
-5.391300 0.000000
-5.374100 0.000000
-5.356800 0.000000
-5.339600 0.000000
-5.322300 0.000000
-5.305100 0.000000
-5.287800 0.000000
-5.270500 0.000000
-5.253300 0.000000
-5.236000 0.000000
-5.218800 0.000000
-5.201500 0.000000
-5.184300 0.000000
-5.167000 0.000000
-5.149800 0.000000
-5.132500 0.000000
-5.115200 0.000000
-5.098000 0.000000
-5.080700 0.000000
-5.063500 0.000000
-5.046200 0.000000
-5.029000 0.000000
-5.011700 0.000000
-4.994500 0.000000
-4.977200 0.000000
-4.959900 0.000000
-4.942700 0.000000
-4.925400 0.000000
-4.908200 0.000000
-4.890900 0.000000
-4.873700 0.000000
-4.856400 0.000000
-4.839200 0.000000
-4.821900 0.000000
-4.804600 0.000000
-4.787400 0.000000
-4.770100 0.000000
-4.752900 0.000000
-4.735600 0.000000
-4.718400 0.000000
-4.701100 0.000000
-4.683900 0.000000
-4.666600 0.000000
-4.649300 0.000000
-4.632100 0.000000
-4.614800 0.000000
-4.597600 0.000000
-4.580300 0.000000
-4.563100 0.000000
-4.545800 0.000000
-4.528600 0.000000
-4.511300 0.000000
-4.494100 0.000000
-4.476800 0.000000
-4.459500 0.000000
-4.442300 0.000000
-4.425000 0.000000
-4.407800 0.000000
-4.390500 0.000000
-4.373300 0.000000
-4.356000 0.000000
-4.338800 0.000000
-4.321500 0.000000
-4.304200 0.000000
-4.287000 0.000000
-4.269700 0.000000
-4.252500 0.000000
-4.235200 0.000000
-4.218000 0.000000
-4.200700 0.000000
-4.183500 0.000000
-4.166200 0.000000
-4.148900 0.000000
-4.131700 0.000000
-4.114400 0.000000
-4.097200 0.000000
-4.079900 0.000000
-4.062700 0.000000
-4.045400 0.000400
-4.028200 0.027100
-4.010900 0.070900
-3.993600 0.114700
-3.976400 0.158600
-3.959100 0.202400
-3.941900 0.246300
-3.924600 0.290100
-3.907400 0.333900
-3.890100 0.377800
-3.872900 0.421600
-3.855600 0.465400
-3.838300 0.344800
-3.821100 0.255800
-3.803800 0.259400
-3.786600 0.263100
-3.769300 0.266800
-3.752100 0.270500
-3.734800 0.274200
-3.717600 0.277800
-3.700300 0.281500
-3.683100 0.285200
-3.665800 0.288900
-3.648500 0.292500
-3.631300 0.296200
-3.614000 0.299900
-3.596800 0.303600
-3.579500 0.307300
-3.562300 0.310900
-3.545000 0.314600
-3.527800 0.318300
-3.510500 0.322000
-3.493200 0.325600
-3.476000 0.329300
-3.458700 0.333000
-3.441500 0.333900
-3.424200 0.329600
-3.407000 0.325100
-3.389700 0.320600
-3.372500 0.316100
-3.355200 0.311600
-3.337900 0.307100
-3.320700 0.302600
-3.303400 0.298100
-3.286200 0.293600
-3.268900 0.289100
-3.251700 0.285100
-3.234400 0.285300
-3.217200 0.286600
-3.199900 0.287900
-3.182600 0.289200
-3.165400 0.290500
-3.148100 0.291900
-3.130900 0.293200
-3.113600 0.294500
-3.096400 0.295800
-3.079100 0.297100
-3.061900 0.298400
-3.044600 0.299700
-3.027300 0.301000
-3.010100 0.302300
-2.992800 0.303600
-2.975600 0.304900
-2.958300 0.306200
-2.941100 0.307500
-2.923800 0.308800
-2.906600 0.310100
-2.889300 0.311400
-2.872000 0.312800
-2.854800 0.314100
-2.837500 0.315400
-2.820300 0.316700
-2.803000 0.318000
-2.785800 0.319300
-2.768500 0.320600
-2.751300 0.321900
-2.734000 0.323200
-2.716800 0.324500
-2.699500 0.325800
-2.682200 0.327100
-2.665000 0.320000
-2.647700 0.303900
-2.630500 0.303700
-2.613200 0.303400
-2.596000 0.303200
-2.578700 0.302900
-2.561500 0.302700
-2.544200 0.302400
-2.526900 0.302200
-2.509700 0.301900
-2.492400 0.305000
-2.475200 0.313300
-2.457900 0.325200
-2.440700 0.339200
-2.423400 0.355200
-2.406200 0.373200
-2.388900 0.392900
-2.371600 0.414000
-2.354400 0.436300
-2.337100 0.460000
-2.319900 0.485000
-2.302600 0.498800
-2.285400 0.486300
-2.268100 0.490100
-2.250900 0.495100
-2.233600 0.501600
-2.216300 0.509800
-2.199100 0.518200
-2.181800 0.527200
-2.164600 0.537100
-2.147300 0.548400
-2.130100 0.560400
-2.112800 0.571700
-2.095600 0.582000
-2.078300 0.591400
-2.061000 0.599800
-2.043800 0.607100
-2.026500 0.613000
-2.009300 0.617600
-1.992000 0.620700
-1.974800 0.622500
-1.957500 0.611200
-1.940300 0.603700
-1.923000 0.608000
-1.905800 0.612200
-1.888500 0.615700
-1.871200 0.618300
-1.854000 0.620300
-1.836700 0.621900
-1.819500 0.623700
-1.802200 0.626800
-1.785000 0.631300
-1.767700 0.637100
-1.750500 0.644400
-1.733200 0.652700
-1.715900 0.661300
-1.698700 0.670100
-1.681400 0.679200
-1.664200 0.687400
-1.646900 0.695900
-1.629700 0.704900
-1.612400 0.702800
-1.595200 0.699500
-1.577900 0.701300
-1.560600 0.703300
-1.543400 0.705100
-1.526100 0.706700
-1.508900 0.708300
-1.491600 0.710200
-1.474400 0.713500
-1.457100 0.717400
-1.439900 0.721700
-1.422600 0.726300
-1.405300 0.731200
-1.388100 0.736300
-1.370800 0.741700
-1.353600 0.747700
-1.336300 0.753900
-1.319100 0.760100
-1.301800 0.766200
-1.284600 0.772200
-1.267300 0.778300
-1.250000 0.784400
-1.232800 0.790600
-1.215500 0.796800
-1.198300 0.802700
-1.181000 0.808400
-1.163800 0.813800
-1.146500 0.819000
-1.129300 0.824100
-1.112000 0.829100
-1.094700 0.830500
-1.077500 0.833000
-1.060200 0.835700
-1.043000 0.838400
-1.025700 0.841300
-1.008500 0.844400
-0.991200 0.847600
-0.974000 0.850900
-0.956700 0.854200
-0.939500 0.857700
-0.922200 0.861100
-0.904900 0.864700
-0.887700 0.868500
-0.870400 0.872200
-0.853200 0.876000
-0.835900 0.882100
-0.818700 0.888400
-0.801400 0.894400
-0.784200 0.899800
-0.766900 0.903800
-0.749600 0.906900
-0.732400 0.911100
-0.715100 0.914500
-0.697900 0.916900
-0.680600 0.918300
-0.663400 0.918900
-0.646100 0.918400
-0.628900 0.917000
-0.611600 0.914600
-0.594300 0.911900
-0.577100 0.913900
-0.559800 0.915900
-0.542600 0.917900
-0.525300 0.919900
-0.508100 0.921900
-0.490800 0.923900
-0.473600 0.929500
-0.456300 0.939600
-0.439000 0.949100
-0.421800 0.956500
-0.404500 0.963400
-0.387300 0.970100
-0.370000 0.976100
-0.352800 0.981500
-0.335500 0.981800
-0.318300 0.980500
-0.301000 0.983500
-0.283700 0.986600
-0.266500 0.989800
-0.249200 0.992700
-0.232000 0.995500
-0.214700 0.998400
-0.197500 1.001500
-0.180200 1.004100
-0.163000 1.006700
-0.145700 1.009400
-0.128500 1.012200
-0.111200 1.015200
-0.093900 1.018100
-0.076700 1.020900
-0.059400 1.023700
-0.042200 1.026600
-0.024900 1.029600
-0.007700 1.032600
0.009600 1.035800
0.026800 1.038800
0.044100 1.042000
0.061400 1.046100
0.078600 1.050100
0.095900 1.054300
0.113100 1.058400
0.130400 1.061900
0.147600 1.065300
0.164900 1.068700
0.182100 1.072200
0.199400 1.075600
0.216700 1.079000
0.233900 1.082300
0.251200 1.085600
0.268400 1.089000
0.285700 1.092400
0.302900 1.095900
0.320200 1.099400
0.337400 1.102900
0.354700 1.106500
0.372000 1.110200
0.389200 1.113900
0.406500 1.117700
0.423700 1.121600
0.441000 1.125700
0.458200 1.129700
0.475500 1.133600
0.492700 1.137400
0.510000 1.141200
0.527300 1.145000
0.544500 1.148700
0.561800 1.152400
0.579000 1.155900
0.596300 1.159800
0.613500 1.163800
0.630800 1.167700
0.648000 1.171600
0.665300 1.175500
0.682600 1.179400
0.699800 1.183300
0.717100 1.187200
0.734300 1.191200
0.751600 1.195100
0.768800 1.199100
0.786100 1.322800
0.803300 1.321300
0.820600 1.319800
0.837800 1.318100
0.855100 1.316200
0.872400 1.314300
0.889600 1.312400
0.906900 1.310600
0.924100 1.308900
0.941400 1.307300
0.958600 1.305800
0.975900 1.304200
0.993100 1.302700
1.010400 1.301100
1.027700 1.299600
1.044900 1.298100
1.062200 1.296600
1.079400 1.295100
1.096700 1.293600
1.113900 1.292100
1.131200 1.290600
1.148400 1.289100
1.165700 1.287600
1.183000 1.287300
1.200200 1.292700
1.217500 1.303100
1.234700 1.313800
1.252000 1.316100
1.269200 1.308800
1.286500 1.293500
1.303700 1.273000
1.321000 1.271500
1.338300 1.270200
1.355500 1.728400
1.372800 1.684900
1.390000 1.641700
1.407300 1.598700
1.424500 1.555800
1.441800 1.513200
1.459000 1.470700
1.476300 1.428500
1.493600 1.386400
1.510800 1.344400
1.528100 1.302600
1.545300 1.260900
1.562600 1.219400
1.579800 1.178500
1.597100 1.158100
1.614300 1.160100
1.631600 1.161700
1.648900 1.162900
1.666100 1.164400
1.683400 1.166200
1.700600 1.168200
1.717900 1.170400
1.735100 1.173000
1.752400 1.176100
1.769600 1.179400
1.786900 1.182700
1.804100 1.185800
1.821400 1.189500
1.838700 1.193900
1.855900 1.199000
1.873200 1.204600
1.890400 1.210700
1.907700 1.217200
1.924900 1.223300
1.942200 1.230000
1.959400 1.237400
1.976700 1.245300
1.994000 1.253800
2.011200 1.262700
2.028500 1.271600
2.045700 1.280500
2.063000 1.289400
2.080200 1.298200
2.097500 1.307100
2.114700 1.316000
2.132000 1.324900
2.149300 1.333800
2.166500 1.342800
2.183800 1.351900
2.201000 1.361000
2.218300 1.370200
2.235500 1.379600
2.252800 1.389000
2.270000 1.398500
2.287300 1.408100
2.304600 1.417900
2.321800 1.427800
2.339100 1.437800
2.356300 1.447800
2.373600 1.457800
2.390800 1.467600
2.408100 1.477400
2.425300 1.545300
2.442600 1.786400
2.459900 1.763200
2.477100 1.683100
2.494400 1.575100
2.511600 1.534300
2.528900 1.498800
2.546100 1.468400
2.563400 1.441200
2.580600 1.413600
2.597900 1.382200
2.615100 1.346800
2.632400 1.307900
2.649700 1.288300
2.666900 1.206100
2.684200 1.195800
2.701400 1.188700
2.718700 1.184900
2.735900 1.185900
2.753200 1.191200
2.770400 1.196600
2.787700 1.202100
2.805000 1.207800
2.822200 1.214600
2.839500 1.223900
2.856700 1.234900
2.874000 1.247100
2.891200 1.260600
2.908500 1.275200
2.925700 1.291200
2.943000 1.308200
2.960300 1.326100
2.977500 1.345100
2.994800 1.365500
3.012000 1.388700
3.029300 1.414900
3.046500 1.614700
3.063800 1.626100
3.081000 1.635700
3.098300 1.644200
3.115600 1.653800
3.132800 1.664400
3.150100 1.676200
3.167300 1.689000
3.184600 1.701600
3.201800 1.713900
3.219100 1.723100
3.236300 1.727500
3.253600 1.730100
3.270900 1.730700
3.288100 1.728200
3.305400 1.722000
3.322600 1.706600
3.339900 1.690300
3.357100 1.674800
3.374400 1.660200
3.391600 1.646400
3.408900 1.633600
3.426200 1.622000
3.443400 1.610000
3.460700 1.596700
3.477900 1.582500
3.495200 1.567900
3.512400 1.552900
3.529700 1.537600
3.546900 1.522300
3.564200 3.244300
3.581400 1.933700
3.598700 2.965600
3.616000 1.556200
3.633200 1.412500
3.650500 1.378000
3.667700 1.368100
3.685000 1.381300
3.702200 1.419400
3.719500 1.456100
3.736700 1.488400
3.754000 1.516400
3.771300 1.540700
3.788500 1.570300
3.805800 1.593500
3.823000 1.640500
3.840300 1.692700
3.857500 1.717100
3.874800 1.661300
3.892000 1.619900
3.909300 1.612400
3.926600 1.604900
3.943800 1.599400
3.961100 1.596800
3.978300 1.592500
3.995600 1.586500
4.012800 1.587900
4.030100 1.584800
4.047300 1.569900
4.064600 1.543500
4.081900 1.504800
4.099100 1.463100
4.116400 1.418600
4.133600 1.368400
4.150900 1.320100
4.168100 1.276700
4.185400 1.238100
4.202600 1.214300
4.219900 1.205400
4.237200 1.208200
4.254400 1.225300
4.271700 1.259300
4.288900 1.310400
4.306200 1.378900
4.323400 1.460100
4.340700 1.473500
4.357900 1.491600
4.375200 1.503000
4.392400 1.513900
4.409700 1.535600
4.427000 1.573600
4.444200 1.631600
4.461500 1.700600
4.478700 1.754400
4.496000 1.791400
4.513200 1.811800
4.530500 1.797700
4.547700 1.756200
4.565000 1.747200
4.582300 1.760200
4.599500 1.748800
4.616800 1.743100
4.634000 1.738200
4.651300 1.739600
4.668500 1.747700
4.685800 1.810800
4.703000 1.981400
4.720300 1.944900
4.737600 1.819700
4.754800 1.703700
4.772100 1.630300
4.789300 1.562100
4.806600 1.532300
4.823800 1.520400
4.841100 1.525800
4.858300 1.544400
4.875600 1.574500
4.892900 1.616600
4.910100 1.667600
4.927400 1.714100
4.944600 1.749500
4.961900 1.776400
4.979100 1.796800
4.996400 1.811400
5.013600 1.817900
5.030900 1.819900
5.048200 1.825400
5.065400 1.799800
5.082700 1.759200
5.099900 1.722700
5.117200 1.673700
5.134400 1.603400
5.151700 1.589900
5.168900 1.635300
5.186200 1.724700
5.203500 1.799700
5.220700 1.843600
5.238000 1.874800
5.255200 1.899200
5.272500 1.952600
5.289700 2.195900
5.307000 2.388700
5.324200 2.458600
5.341500 3.848000
5.358700 1.905500
5.376000 1.897000
5.393300 1.893400
5.410500 1.978600
5.427800 2.026600
5.445000 2.041400
5.462300 2.095000
5.479500 2.137300
5.496800 2.169700
5.514000 2.191100
5.531300 2.196200
5.548600 2.179900
5.565800 2.158200
5.583100 2.133300
5.600300 2.107000
5.617600 2.079300
5.634800 2.056200
5.652100 2.032900
5.669300 2.008500
5.686600 1.985600
5.703900 1.977500
5.721100 1.974600
5.738400 1.971000
5.755600 1.962500
5.772900 1.948700
5.790100 1.929600
5.807400 1.910100
5.824600 1.916800
5.841900 1.932600
5.859200 1.959500
5.876400 1.984500
5.893700 2.011900
5.910900 2.041000
5.928200 2.068000
5.945400 2.016600
5.962700 1.904700
5.979900 1.737300
5.997200 1.700000
6.014500 1.673800
6.031700 1.659500
6.049000 1.658800
6.066200 1.662300
6.083500 1.663600
6.100700 1.662800
6.118000 1.663800
6.135200 1.667200
6.152500 1.669300
6.169700 1.666600
6.187000 1.649900
6.204300 1.625400
6.221500 1.599900
6.238800 1.573500
6.256000 1.546300
6.273300 1.515100
6.290500 1.464200
6.307800 1.436500
6.325000 1.419600
6.342300 1.404900
6.359600 1.396300
6.376800 1.395600
6.394100 1.402800
6.411300 1.405800
6.428600 1.405300
6.445800 1.407200
6.463100 1.410200
6.480300 1.415200
6.497600 1.423000
6.514900 1.433800
6.532100 1.446200
6.549400 1.457900
6.566600 1.466700
6.583900 1.467200
6.601100 1.457900
6.618400 1.439300
6.635600 1.411400
6.652900 1.395700
6.670200 1.385500
6.687400 1.378800
6.704700 1.377900
6.721900 1.387200
6.739200 1.406800
6.756400 1.433000
6.773700 1.470500
6.790900 1.501900
6.808200 1.516600
6.825500 1.527300
6.842700 1.545700
6.860000 1.566700
6.877200 1.587800
6.894500 1.607400
6.911700 1.619700
6.929000 1.629200
6.946200 1.657300
6.963500 1.746600
6.980800 1.894100
6.998000 1.983100
7.015300 2.016600
7.032500 2.030200
7.049800 2.027800
7.067000 2.034600
7.084300 2.042800
7.101500 2.050200
7.118800 2.056200
7.136000 2.059900
7.153300 2.059600
7.170600 2.046900
7.187800 2.025900
7.205100 2.016600
7.222300 2.005700
7.239600 1.990100
7.256800 1.968900
7.274100 1.946800
7.291300 1.933200
7.308600 1.922000
7.325900 1.912600
7.343100 1.905100
7.360400 1.903600
7.377600 1.908900
7.394900 1.929400
7.412100 1.977800
7.429400 2.041600
7.446600 2.120600
7.463900 8.045900
7.481200 2.140700
7.498400 2.156500
7.515700 2.175100
7.532900 2.187100
7.550200 2.168400
7.567400 2.195600
7.584700 2.220300
7.601900 2.220800
7.619200 2.213800
7.636500 2.207400
7.653700 2.201800
7.671000 2.196800
7.688200 2.191900
7.705500 2.186000
7.722700 2.184700
7.740000 2.179800
7.757200 2.170500
7.774500 2.158400
7.791800 2.143400
7.809000 2.125700
7.826300 2.105900
7.843500 2.083800
7.860800 2.059500
7.878000 2.035100
7.895300 2.013700
7.912500 1.995600
7.929800 1.980900
7.947000 1.970700
7.964300 1.965900
7.981600 1.965700
7.998800 1.979400
8.016100 2.006700
8.033300 2.048300
8.050600 2.105300
8.067800 2.131800
8.085100 2.145800
8.102300 2.154600
8.119600 2.176700
8.136900 2.212900
8.154100 2.258500
8.171400 2.285900
8.188600 2.301300
8.205900 2.302200
8.223100 2.296200
8.240400 2.287200
8.257600 2.272200
8.274900 2.251800
8.292200 2.226900
8.309400 2.207400
8.326700 2.182600
8.343900 2.139600
8.361200 2.083000
8.378400 2.027700
8.395700 1.976000
8.412900 1.917900
8.430200 1.853800
8.447500 1.843800
8.464700 1.842300
8.482000 1.848300
8.499200 1.857300
8.516500 1.866600
8.533700 1.879300
8.551000 1.896000
8.568200 1.903900
8.585500 1.855700
8.602800 1.827000
8.620000 1.822800
8.637300 1.823100
8.654500 1.823700
8.671800 1.821500
8.689000 1.818800
8.706300 1.815000
8.723500 1.809800
8.740800 1.803100
8.758100 1.794200
8.775300 1.784200
8.792600 1.775000
8.809800 1.770400
8.827100 1.770600
8.844300 1.776700
8.861600 1.785700
8.878800 1.795800
8.896100 1.807000
8.913300 1.819000
8.930600 1.833200
8.947900 1.845000
8.965100 1.854100
8.982400 1.860900
8.999600 1.865100
9.016900 1.848400
9.034100 1.847100
9.051400 1.877600
9.068600 1.885700
9.085900 1.892400
9.103200 1.898600
9.120400 1.909100
9.137700 1.921200
9.154900 1.942200
9.172200 1.965100
9.189400 1.992000
9.206700 2.026600
9.223900 2.052900
9.241200 2.053700
9.258500 2.041900
9.275700 2.029400
9.293000 2.016300
9.310200 2.020600
9.327500 2.037500
9.344700 2.058000
9.362000 2.075800
9.379200 2.086200
9.396500 2.087600
9.413800 2.080000
9.431000 2.061900
9.448300 2.045100
9.465500 2.041600
9.482800 2.039700
9.500000 2.046000
9.517300 2.063300
9.534500 2.083800
9.551800 2.107000
9.569100 2.127900
9.586300 2.144500
9.603600 2.153200
9.620800 2.155100
9.638100 2.155100
9.655300 2.170300
9.672600 2.186300
9.689800 2.201800
9.707100 2.217200
9.724400 2.233100
9.741600 2.249500
9.758900 2.260000
9.776100 2.265400
9.793400 2.273600
9.810600 2.283400
9.827900 2.292500
9.845100 2.299300
9.862400 2.299600
9.879600 2.302000
9.896900 2.306000
9.914200 2.306700
9.931400 2.306900
9.948700 2.308300
9.965900 2.312800
9.983200 2.322500
10.000400 2.320700
10.017700 2.348900
10.034900 2.669000
10.052200 2.473200
10.069500 2.460800
10.086700 2.424400
10.104000 2.388800
10.121200 2.366300
10.138500 2.356000
10.155700 2.351500
10.173000 2.346000
10.190200 2.340200
10.207500 2.326700
10.224800 2.307300
10.242000 2.290500
10.259300 2.274600
10.276500 2.260500
10.293800 2.250000
10.311000 2.239600
10.328300 2.235500
10.345500 2.256000
10.362800 2.297400
10.380100 2.336800
10.397300 2.364300
10.414600 2.384300
10.431800 2.397900
10.449100 2.404100
10.466300 2.503200
10.483600 2.423700
10.500800 2.412600
10.518100 2.396100
10.535400 2.374100
10.552600 2.348500
10.569900 2.328600
10.587100 2.319500
10.604400 2.311500
10.621600 2.303800
10.638900 2.295800
10.656100 2.287800
10.673400 2.280600
10.690600 2.275400
10.707900 2.277900
10.725200 2.279400
10.742400 2.272800
10.759700 2.266000
10.776900 2.260200
10.794200 2.255900
10.811400 2.252900
10.828700 2.250700
10.845900 2.250300
10.863200 2.247600
10.880500 2.241700
10.897700 2.232300
10.915000 2.220100
10.932200 2.205800
10.949500 2.190700
10.966700 2.175300
10.984000 2.157000
11.001200 2.131500
11.018500 2.108700
11.035800 2.081600
11.053000 2.070000
11.070300 2.067500
11.087500 2.068300
11.104800 2.072500
11.122000 2.079800
11.139300 2.090000
11.156500 2.103400
11.173800 2.118200
11.191100 2.132600
11.208300 2.154200
11.225600 2.183100
11.242800 2.219200
11.260100 2.262300
11.277300 2.295700
11.294600 2.312700
11.311800 2.319400
11.329100 2.325000
11.346400 2.328900
11.363600 2.330200
11.380900 2.329300
11.398100 2.327900
11.415400 2.324400
11.432600 2.319700
11.449900 2.313100
11.467100 2.304600
11.484400 2.301100
11.501700 2.320200
11.518900 2.341500
11.536200 2.357500
11.553400 2.382000
11.570700 2.399000
11.587900 2.405100
11.605200 2.410700
11.622400 2.416300
11.639700 2.422000
11.656900 2.426800
11.674200 2.431100
11.691500 2.434900
11.708700 2.441500
11.726000 2.452900
11.743200 2.463300
11.760500 2.472400
11.777700 2.481900
11.795000 2.490600
11.812200 2.500000
11.829500 2.510600
11.846800 2.522700
11.864000 2.533800
11.881300 2.564000
11.898500 2.611800
11.915800 2.576200
11.933000 2.475600
11.950300 2.465200
11.967500 2.460400
11.984800 2.458200
12.002100 2.457100
12.019300 2.457600
12.036600 2.460000
12.053800 2.464100
12.071100 2.469600
12.088300 2.476800
12.105600 2.486200
12.122800 2.496600
12.140100 2.506700
12.157400 2.516400
12.174600 2.523200
12.191900 2.536500
12.209100 2.552400
12.226400 2.566400
12.243600 2.580800
12.260900 2.589700
12.278100 2.604200
12.295400 2.856600
12.312700 2.820300
12.329900 2.673200
12.347200 2.674700
12.364400 2.676100
12.381700 2.676600
12.398900 2.676500
12.416200 2.676000
12.433400 2.676500
12.450700 2.677700
12.467900 2.679200
12.485200 2.680000
12.502500 2.679900
12.519700 2.678500
12.537000 2.674800
12.554200 2.667000
12.571500 2.651200
12.588700 2.639900
12.606000 2.625000
12.623200 2.604500
12.640500 2.587100
12.657800 2.572900
12.675000 2.559800
12.692300 2.586800
12.709500 2.600100
12.726800 2.588700
12.744000 2.554200
12.761300 2.521700
12.778500 2.497800
12.795800 2.488300
