set title 'mp-8641 - Density of States'
set xlabel 'Energy (eV)'
set ylabel 'DOS (states/eV)'
set grid
set xrange [-10:10]
set yrange [0:1.798]
set xzeroaxis lt -1
set terminal png size 800,600
set output 'mp-8641_dos_gnuplot.png'
plot '-' using 1:2 with lines title 'DOS'
-38.767200 0.000000
-38.690000 0.000000
-38.612900 0.000000
-38.535800 0.000000
-38.458700 0.000000
-38.381500 0.000000
-38.304400 0.000000
-38.227300 0.000000
-38.150100 0.000000
-38.073000 0.000000
-37.995900 0.000000
-37.918700 0.000000
-37.841600 0.000000
-37.764500 0.000000
-37.687400 0.000000
-37.610200 0.000000
-37.533100 0.000000
-37.456000 0.000000
-37.378800 0.000000
-37.301700 0.000000
-37.224600 0.000000
-37.147400 0.000000
-37.070300 0.000000
-36.993200 0.000000
-36.916100 0.000000
-36.838900 0.000000
-36.761800 0.000000
-36.684700 0.000000
-36.607500 0.000000
-36.530400 0.000000
-36.453300 0.000000
-36.376100 0.000000
-36.299000 0.000000
-36.221900 0.000000
-36.144800 0.000000
-36.067600 0.000000
-35.990500 0.000000
-35.913400 0.000000
-35.836200 0.000000
-35.759100 0.000000
-35.682000 0.000000
-35.604800 0.000000
-35.527700 0.000000
-35.450600 0.000000
-35.373500 0.000000
-35.296300 0.000000
-35.219200 0.000000
-35.142100 0.000000
-35.064900 0.000000
-34.987800 0.000000
-34.910700 0.000000
-34.833500 0.000000
-34.756400 0.000000
-34.679300 0.000000
-34.602200 0.000000
-34.525000 0.000000
-34.447900 0.000000
-34.370800 0.000000
-34.293600 0.000000
-34.216500 0.000000
-34.139400 0.000000
-34.062200 0.000000
-33.985100 0.000000
-33.908000 0.000000
-33.830900 0.000000
-33.753700 0.000000
-33.676600 0.000000
-33.599500 0.000000
-33.522300 0.000000
-33.445200 0.000000
-33.368100 0.000000
-33.290900 0.000000
-33.213800 0.000000
-33.136700 0.000000
-33.059600 0.000000
-32.982400 0.000000
-32.905300 0.000000
-32.828200 0.000000
-32.751000 0.000000
-32.673900 0.000000
-32.596800 0.000000
-32.519600 0.000000
-32.442500 0.000000
-32.365400 0.000000
-32.288300 0.000000
-32.211100 0.000000
-32.134000 0.000000
-32.056900 0.000000
-31.979700 0.000000
-31.902600 0.000000
-31.825500 0.000000
-31.748300 0.431100
-31.671200 2.297700
-31.594100 5.019500
-31.517000 7.768100
-31.439800 4.126500
-31.362700 1.578800
-31.285600 3.258200
-31.208400 3.871500
-31.131300 4.295400
-31.054200 4.710500
-30.977000 9.050000
-30.899900 9.600500
-30.822800 10.399800
-30.745700 6.168700
-30.668500 2.840100
-30.591400 0.000000
-30.514300 0.000000
-30.437100 0.000000
-30.360000 0.000000
-30.282900 0.000000
-30.205700 0.000000
-30.128600 0.000000
-30.051500 0.000000
-29.974400 0.000000
-29.897200 0.000000
-29.820100 0.000000
-29.743000 0.000000
-29.665800 0.000000
-29.588700 0.000000
-29.511600 0.000000
-29.434400 0.000000
-29.357300 0.000000
-29.280200 0.000000
-29.203100 0.000000
-29.125900 0.000000
-29.048800 0.000000
-28.971700 0.000000
-28.894500 0.000000
-28.817400 0.000000
-28.740300 0.000000
-28.663100 0.000000
-28.586000 0.000000
-28.508900 0.000000
-28.431800 0.000000
-28.354600 0.000000
-28.277500 0.000000
-28.200400 0.000000
-28.123200 0.000000
-28.046100 0.000000
-27.969000 0.000000
-27.891800 0.000000
-27.814700 0.000000
-27.737600 0.000000
-27.660500 0.000000
-27.583300 0.000000
-27.506200 0.000000
-27.429100 0.000000
-27.351900 0.000000
-27.274800 0.000000
-27.197700 0.000000
-27.120500 0.000000
-27.043400 0.000000
-26.966300 0.000000
-26.889200 0.000000
-26.812000 0.000000
-26.734900 0.000000
-26.657800 0.000000
-26.580600 0.000000
-26.503500 0.000000
-26.426400 0.000000
-26.349200 0.000000
-26.272100 0.000000
-26.195000 0.000000
-26.117900 0.000000
-26.040700 0.000000
-25.963600 0.000000
-25.886500 0.000000
-25.809300 0.000000
-25.732200 0.000000
-25.655100 0.000000
-25.577900 0.000000
-25.500800 0.000000
-25.423700 0.000000
-25.346600 0.000000
-25.269400 0.000000
-25.192300 0.000000
-25.115200 0.000000
-25.038000 0.000000
-24.960900 0.000000
-24.883800 0.000000
-24.806600 0.000000
-24.729500 0.000000
-24.652400 0.000000
-24.575300 0.000000
-24.498100 0.000000
-24.421000 0.000000
-24.343900 0.000000
-24.266700 0.000000
-24.189600 0.000000
-24.112500 0.000000
-24.035300 0.000000
-23.958200 0.000000
-23.881100 0.000000
-23.804000 0.000000
-23.726800 0.000000
-23.649700 0.000000
-23.572600 0.000000
-23.495400 0.000000
-23.418300 0.000000
-23.341200 0.000000
-23.264000 0.000000
-23.186900 0.000000
-23.109800 0.000000
-23.032700 0.000000
-22.955500 0.000000
-22.878400 0.000000
-22.801300 0.000000
-22.724100 0.000000
-22.647000 0.000000
-22.569900 0.000000
-22.492700 0.000000
-22.415600 0.000000
-22.338500 0.000000
-22.261400 0.000000
-22.184200 0.000000
-22.107100 0.000000
-22.030000 0.000000
-21.952800 0.000000
-21.875700 0.000000
-21.798600 0.000000
-21.721400 0.000000
-21.644300 0.000000
-21.567200 0.000000
-21.490100 0.000000
-21.412900 0.000000
-21.335800 0.000000
-21.258700 0.000000
-21.181500 0.000000
-21.104400 0.000000
-21.027300 0.000000
-20.950100 0.000000
-20.873000 0.000000
-20.795900 0.000000
-20.718800 0.000000
-20.641600 0.000000
-20.564500 0.000000
-20.487400 0.000000
-20.410200 0.000000
-20.333100 0.000000
-20.256000 0.000000
-20.178800 0.000000
-20.101700 0.000000
-20.024600 0.000000
-19.947500 0.000000
-19.870300 0.000000
-19.793200 0.000000
-19.716100 0.000000
-19.638900 0.000000
-19.561800 0.000000
-19.484700 0.000000
-19.407500 0.000000
-19.330400 0.000000
-19.253300 0.000000
-19.176200 0.000000
-19.099000 0.000000
-19.021900 0.000000
-18.944800 0.000000
-18.867600 0.000000
-18.790500 0.000000
-18.713400 0.000000
-18.636200 0.000000
-18.559100 0.000000
-18.482000 0.000000
-18.404900 0.000000
-18.327700 0.000000
-18.250600 0.000000
-18.173500 0.000000
-18.096300 0.000000
-18.019200 0.000000
-17.942100 0.000000
-17.864900 0.000000
-17.787800 0.000000
-17.710700 0.000000
-17.633600 0.000000
-17.556400 0.000000
-17.479300 0.000000
-17.402200 0.000000
-17.325000 0.000000
-17.247900 0.000000
-17.170800 0.000000
-17.093600 0.000000
-17.016500 0.000000
-16.939400 0.000000
-16.862300 0.000000
-16.785100 0.000000
-16.708000 0.000000
-16.630900 0.000000
-16.553700 0.000000
-16.476600 0.000000
-16.399500 0.000000
-16.322300 0.000000
-16.245200 0.000000
-16.168100 0.000000
-16.091000 0.000000
-16.013800 0.000000
-15.936700 0.000000
-15.859600 0.000000
-15.782400 0.000000
-15.705300 0.000000
-15.628200 0.000000
-15.551000 0.000000
-15.473900 0.000000
-15.396800 0.000000
-15.319700 0.000000
-15.242500 0.000000
-15.165400 0.000000
-15.088300 0.000000
-15.011100 0.000000
-14.934000 0.000000
-14.856900 0.000000
-14.779700 0.000000
-14.702600 0.000000
-14.625500 0.000000
-14.548400 0.000000
-14.471200 0.000000
-14.394100 0.000000
-14.317000 0.000000
-14.239800 0.000000
-14.162700 0.000000
-14.085600 0.000000
-14.008400 0.000000
-13.931300 0.000000
-13.854200 0.000000
-13.777100 0.000000
-13.699900 0.000000
-13.622800 0.000000
-13.545700 0.000000
-13.468500 0.000000
-13.391400 0.000000
-13.314300 0.000000
-13.237100 0.000000
-13.160000 0.000000
-13.082900 0.000000
-13.005800 0.000000
-12.928600 0.000000
-12.851500 0.000000
-12.774400 0.000000
-12.697200 0.000000
-12.620100 0.000000
-12.543000 0.000000
-12.465800 0.000000
-12.388700 0.000000
-12.311600 0.000000
-12.234500 0.000000
-12.157300 0.000000
-12.080200 0.000000
-12.003100 0.000000
-11.925900 0.000000
-11.848800 0.000000
-11.771700 0.000000
-11.694500 0.000000
-11.617400 0.000000
-11.540300 0.000000
-11.463200 0.000000
-11.386000 0.000000
-11.308900 0.000000
-11.231800 0.000000
-11.154600 0.000000
-11.077500 0.000000
-11.000400 0.000000
-10.923200 0.000000
-10.846100 0.000000
-10.769000 0.000000
-10.691900 0.000000
-10.614700 0.000000
-10.537600 0.000000
-10.460500 0.000000
-10.383300 0.000000
-10.306200 0.000000
-10.229100 0.000000
-10.151900 0.000000
-10.074800 0.000000
-9.997700 0.000000
-9.920600 0.000000
-9.843400 0.000000
-9.766300 0.000000
-9.689200 0.000000
-9.612000 0.000000
-9.534900 0.000000
-9.457800 0.000000
-9.380600 0.000000
-9.303500 0.000000
-9.226400 0.000000
-9.149300 0.000000
-9.072100 0.000000
-8.995000 0.000000
-8.917900 0.000000
-8.840700 0.000000
-8.763600 0.000000
-8.686500 0.000000
-8.609300 0.000000
-8.532200 0.000000
-8.455100 0.000000
-8.378000 0.000000
-8.300800 0.000000
-8.223700 0.000000
-8.146600 0.000000
-8.069400 0.000000
-7.992300 0.000000
-7.915200 0.000000
-7.838000 0.000000
-7.760900 0.000000
-7.683800 0.000000
-7.606700 0.000000
-7.529500 0.000000
-7.452400 0.000000
-7.375300 0.000000
-7.298100 0.000000
-7.221000 0.000000
-7.143900 0.000000
-7.066700 0.000000
-6.989600 0.000000
-6.912500 0.000000
-6.835400 0.000000
-6.758200 0.000000
-6.681100 0.000000
-6.604000 0.000000
-6.526800 0.000000
-6.449700 0.000000
-6.372600 0.000000
-6.295400 0.000000
-6.218300 0.000000
-6.141200 0.000000
-6.064100 0.000000
-5.986900 0.000000
-5.909800 0.000000
-5.832700 0.000000
-5.755500 0.000000
-5.678400 0.000000
-5.601300 0.000000
-5.524100 0.000000
-5.447000 0.000000
-5.369900 0.000000
-5.292800 0.000000
-5.215600 0.000000
-5.138500 0.000000
-5.061400 0.000000
-4.984200 0.000000
-4.907100 0.000000
-4.830000 0.000000
-4.752800 0.000000
-4.675700 0.000000
-4.598600 0.000000
-4.521500 0.000000
-4.444300 0.000000
-4.367200 0.000000
-4.290100 0.000000
-4.212900 0.000000
-4.135800 0.000000
-4.058700 0.000000
-3.981500 0.000000
-3.904400 0.000000
-3.827300 0.000000
-3.750200 0.000000
-3.673000 0.000000
-3.595900 0.000000
-3.518800 0.000000
-3.441600 0.000000
-3.364500 0.000000
-3.287400 0.000000
-3.210200 0.000000
-3.133100 0.000000
-3.056000 0.000000
-2.978900 0.000000
-2.901700 0.000000
-2.824600 0.000000
-2.747500 0.000000
-2.670300 0.000000
-2.593200 0.000000
-2.516100 0.000000
-2.438900 0.000000
-2.361800 0.000000
-2.284700 0.002800
-2.207600 0.021300
-2.130400 0.021600
-2.053300 0.027700
-1.976200 0.034000
-1.899000 0.037100
-1.821900 0.040300
-1.744800 0.044400
-1.667600 0.048700
-1.590500 0.053100
-1.513400 0.055800
-1.436300 0.058900
-1.359100 0.062100
-1.282000 0.065700
-1.204900 0.069500
-1.127700 0.073400
-1.050600 0.077100
-0.973500 0.080100
-0.896300 0.083700
-0.819200 0.087400
-0.742100 0.091200
-0.665000 0.095300
-0.587800 0.099600
-0.510700 0.104000
-0.433600 0.108200
-0.356400 0.112500
-0.279300 0.117100
-0.202200 0.122200
-0.125000 0.127500
-0.047900 0.133200
0.029200 0.139300
0.106300 0.145700
0.183500 0.152500
0.260600 0.159400
0.337700 0.167400
0.414900 0.176700
0.492000 0.187200
0.569100 0.198800
0.646300 0.212000
0.723400 0.226300
0.800500 0.242000
0.877600 0.269800
0.954800 0.308500
1.031900 0.374200
1.109000 0.503300
1.186200 0.504500
1.263300 0.606900
1.340400 0.662100
1.417600 0.730800
1.494700 0.817400
1.571800 0.804500
1.648900 0.822900
1.726100 0.812900
1.803200 0.821100
1.880300 0.839100
1.957500 0.840600
2.034600 0.847900
2.111700 0.853400
2.188900 0.946700
2.266000 0.969700
2.343100 0.991900
2.420200 0.996800
2.497400 0.997300
2.574500 0.995000
2.651600 0.998500
2.728800 1.001100
2.805900 1.004100
2.883000 1.041100
2.960200 1.021200
3.037300 0.979900
3.114400 0.947500
3.191500 0.863000
3.268700 0.760800
3.345800 0.657400
3.422900 0.534000
3.500100 0.592800
3.577200 0.666400
3.654300 0.892700
3.731500 1.286400
3.808600 1.301700
3.885700 1.221500
3.962800 1.079300
4.040000 0.920600
4.117100 0.843300
4.194200 0.825600
4.271400 0.824300
4.348500 0.772400
4.425600 0.899900
4.502800 0.981200
4.579900 0.970200
4.657000 1.005000
4.734100 1.116200
4.811300 1.187900
4.888400 1.214600
4.965500 1.246100
5.042700 1.223200
5.119800 1.191400
5.196900 1.210500
5.274100 1.236800
5.351200 1.307700
5.428300 1.456800
5.505400 1.410100
5.582600 1.443000
5.659700 1.452500
5.736800 1.366600
5.814000 1.171400
5.891100 1.180300
5.968200 1.174100
6.045400 1.368100
6.122500 1.259900
6.199600 1.289700
6.276700 1.177200
6.353900 1.229300
6.431000 1.369200
6.508100 1.634400
6.585300 1.336600
6.662400 1.120400
6.739500 1.006200
6.816700 0.921400
6.893800 0.841100
6.970900 0.820900
7.048000 0.800000
7.125200 0.783600
7.202300 0.732100
7.279400 0.737400
7.356600 0.750400
7.433700 0.748300
7.510800 0.712500
7.588000 0.771400
7.665100 0.737300
7.742200 0.731800
7.819300 0.775900
7.896500 0.881600
7.973600 1.026400
8.050700 1.111700
8.127900 1.289100
8.205000 1.141800
8.282100 1.015200
8.359300 0.965300
8.436400 0.894600
8.513500 0.834500
8.590600 0.791200
8.667800 0.750300
8.744900 0.716900
8.822000 0.682500
8.899200 0.648100
8.976300 0.638700
9.053400 0.674000
9.130600 0.767900
9.207700 0.756800
9.284800 0.738800
9.361900 0.703100
9.439100 0.685100
9.516200 0.678100
9.593300 0.675300
9.670500 0.676100
9.747600 0.672500
9.824700 0.676200
9.901900 0.682600
9.979000 0.694200
10.056100 0.702500
10.133200 0.705500
10.210400 0.721100
10.287500 0.743500
10.364600 0.750200
10.441800 0.752300
10.518900 0.759500
10.596000 0.771600
10.673200 0.803700
10.750300 0.880400
10.827400 0.945400
10.904500 1.008000
10.981700 1.072000
11.058800 1.237400
11.135900 1.213500
11.213100 1.249700
11.290200 1.263300
11.367300 1.265400
11.444500 1.262100
11.521600 1.069700
11.598700 0.972400
11.675800 0.895500
11.753000 0.827700
11.830100 0.779500
11.907200 0.726800
11.984400 0.671500
12.061500 0.629100
12.138600 0.601600
12.215800 0.361600
12.292900 0.355200
12.370000 0.355900
12.447100 0.356900
12.524300 0.357500
12.601400 0.357200
12.678500 0.359300
12.755700 0.367500
12.832800 0.370800
12.909900 0.367500
12.987100 0.367000
13.064200 0.367900
13.141300 0.370200
13.218400 0.374300
13.295600 0.385400
13.372700 0.431300
13.449800 0.448900
13.527000 0.453300
13.604100 0.530300
13.681200 0.525800
13.758400 0.485500
13.835500 0.460000
13.912600 0.433800
13.989700 0.417100
14.066900 0.403800
14.144000 0.389100
14.221100 0.372300
14.298300 0.357700
14.375400 0.346300
14.452500 0.336900
14.529700 0.327600
14.606800 0.317100
14.683900 0.309800
14.761000 0.302700
14.838200 0.293500
14.915300 0.283200
14.992400 0.279200
15.069600 0.241600
15.146700 0.207100
15.223800 0.187300
15.301000 0.164900
15.378100 0.152100
15.455200 0.136200
15.532300 0.119300
15.609500 0.101300
15.686600 0.093000
15.763700 0.140000
15.840900 0.240200
15.918000 0.371700
15.995100 0.502000
16.072300 0.521500
16.149400 0.497300
16.226500 0.479500
16.303600 0.452100
16.380800 0.460300
16.457900 0.466300
16.535000 0.472100
16.612200 0.480800
16.689300 0.498200
16.766400 0.502700
16.843600 0.496100
16.920700 0.469800
16.997800 0.460100
17.074900 0.480400
17.152100 0.468700
17.229200 0.452600
17.306300 0.465400
17.383500 0.396300
17.460600 0.391100
17.537700 0.388300
17.614900 0.380600
17.692000 0.372300
17.769100 0.365500
17.846200 0.371700
17.923400 0.377100
18.000500 0.388400
18.077600 0.379700
18.154800 0.365600
18.231900 0.356800
18.309000 0.354800
18.386200 0.355700
18.463300 0.373800
18.540400 0.388600
18.617500 0.406300
18.694700 0.433300
18.771800 0.442000
18.848900 0.421200
18.926100 0.435000
19.003200 0.398500
19.080300 0.371100
19.157500 0.375500
19.234600 0.381100
19.311700 0.379200
19.388800 0.375500
19.466000 0.382100
19.543100 0.379700
19.620200 0.379800
19.697400 0.396500
19.774500 0.420400
19.851600 0.440400
19.928800 0.456400
20.005900 0.469200
20.083000 0.484400
20.160100 0.503400
20.237300 0.525800
20.314400 0.545000
20.391500 0.547000
20.468700 0.550800
20.545800 0.557200
20.622900 0.571700
20.700100 0.567000
20.777200 0.565500
20.854300 0.571600
20.931400 0.578300
21.008600 0.586900
21.085700 0.597200
21.162800 0.608900
21.240000 0.623300
21.317100 0.643200
21.394200 0.657300
21.471400 0.697600
21.548500 0.687400
21.625600 0.696700
21.702800 0.712700
21.779900 0.732700
21.857000 0.770100
21.934100 0.815400
22.011300 0.857200
22.088400 0.942800
22.165500 0.982900
22.242700 0.959400
22.319800 0.906900
22.396900 0.872300
22.474100 0.860800
22.551200 0.834800
22.628300 0.800800
22.705400 0.798100
22.782600 0.844800
22.859700 0.820000
22.936800 0.804600
23.014000 0.803700
23.091100 0.818200
23.168200 0.824000
23.245400 0.882100
23.322500 0.921200
23.399600 0.859300
23.476700 0.849800
23.553900 0.873300
23.631000 0.938800
23.708100 1.074900
23.785300 1.180900
23.862400 1.000600
23.939500 0.886700
24.016700 0.807000
24.093800 0.754600
24.170900 0.720100
24.248000 0.701900
24.325200 0.680800
24.402300 0.657800
24.479400 0.627200
24.556600 0.573800
24.633700 0.541900
24.710800 0.514800
24.788000 0.452800
24.865100 0.411300
24.942200 0.379800
25.019300 0.358700
25.096500 0.339400
25.173600 0.312600
25.250700 0.296600
25.327900 0.299700
25.405000 0.329100
25.482100 0.336100
25.559300 0.404400
25.636400 0.463300
25.713500 0.459600
25.790600 0.509800
25.867800 0.567800
25.944900 0.758300
26.022000 0.731000
26.099200 0.696300
26.176300 0.721900
26.253400 0.683100
26.330600 0.693600
26.407700 0.673500
26.484800 0.652800
26.561900 0.637900
26.639100 0.633600
26.716200 0.640600
26.793300 0.649200
26.870500 0.655000
26.947600 0.659800
27.024700 0.665800
27.101900 0.676200
27.179000 0.685100
27.256100 0.697100
27.333200 0.713100
27.410400 0.734900
27.487500 0.765200
27.564600 0.806200
27.641800 0.886700
27.718900 0.934200
27.796000 0.928800
27.873200 0.918800
27.950300 0.859100
28.027400 0.822200
28.104500 0.821200
28.181700 0.763400
28.258800 0.737200
28.335900 0.715600
28.413100 0.702100
28.490200 0.629500
28.567300 0.578400
28.644500 0.527500
28.721600 0.457800
28.798700 0.397800
28.875800 0.359200
28.953000 0.316200
29.030100 0.290600
29.107200 0.269000
29.184400 0.249600
29.261500 0.239800
29.338600 0.246400
29.415800 0.238100
29.492900 0.230800
29.570000 0.224400
29.647100 0.225100
29.724300 0.235300
29.801400 0.258900
29.878500 0.311400
29.955700 0.341100
30.032800 0.305100
30.109900 0.317400
30.187100 0.332600
30.264200 0.348700
30.341300 0.367100
30.418400 0.385300
30.495600 0.403500
30.572700 0.422500
30.649800 0.442300
30.727000 0.462700
30.804100 0.503800
30.881200 0.527800
30.958400 0.531900
31.035500 0.570600
31.112600 0.602800
31.189700 0.652300
31.266900 0.729500
31.344000 0.789100
31.421100 0.755000
31.498300 0.752700
31.575400 0.789700
31.652500 0.816400
31.729700 0.775700
31.806800 0.768100
31.883900 0.763900
31.961000 0.717500
32.038200 0.695200
32.115300 0.704700
32.192400 0.663000
32.269600 0.646100
32.346700 0.644400
32.423800 0.651800
32.501000 0.690900
32.578100 0.622900
32.655200 0.609600
32.732300 0.617000
32.809500 0.609300
32.886600 0.595500
32.963700 0.582700
33.040900 0.567600
33.118000 0.561800
33.195100 0.564900
33.272300 0.567300
33.349400 0.564700
33.426500 0.563700
33.503600 0.578000
33.580800 0.586500
33.657900 0.597200
33.735000 0.607900
33.812200 0.622100
33.889300 0.642300
33.966400 0.669600
34.043600 0.708900
34.120700 0.776200
34.197800 0.920900
34.274900 0.983700
34.352100 1.106600
34.429200 1.091200
34.506300 1.077100
34.583500 1.043000
34.660600 1.009600
34.737700 0.980100
34.814900 0.980100
34.892000 0.971200
34.969100 0.975900
35.046200 0.984400
35.123400 0.982900
35.200500 1.025900
35.277600 1.088900
35.354800 1.124300
35.431900 1.129600
35.509000 1.168500
35.586200 1.220700
35.663300 1.277000
35.740400 1.338900
35.817500 1.431500
35.894700 1.201300
35.971800 1.030600
36.048900 0.898200
36.126100 0.815800
36.203200 0.751300
36.280300 0.741100
36.357500 0.730300
36.434600 0.745100
36.511700 0.721100
36.588800 0.713800
36.666000 0.705300
36.743100 0.689700
36.820200 0.692700
36.897400 0.712400
36.974500 0.792300
37.051600 0.882500
37.128800 0.977000
37.205900 1.166200
37.283000 1.422900
37.360100 1.881100
37.437300 1.001300
37.514400 0.903300
37.591500 1.050700
37.668700 1.387700
37.745800 2.056400
37.822900 2.191100
37.900100 2.151900
37.977200 2.272300
38.054300 2.895600
38.131400 3.650500
38.208600 1.655100
38.285700 1.283200
38.362800 1.162300
38.440000 0.924400
38.517100 0.808600
38.594200 0.745600
38.671400 0.690500
38.748500 0.652800
38.825600 0.639800
38.902700 0.651400
38.979900 0.664600
39.057000 0.673900
39.134100 0.725900
39.211300 0.846200
39.288400 0.870500
39.365500 0.764200
39.442700 0.734500
39.519800 0.725500
39.596900 0.737000
39.674000 0.766000
39.751200 0.799300
39.828300 0.864900
39.905400 0.959000
39.982600 1.028700
40.059700 1.030100
40.136800 1.245000
40.214000 1.038400
