set title 'mp-978496 - Density of States'
set xlabel 'Energy (eV)'
set ylabel 'DOS (states/eV)'
set grid
set xrange [-10:10]
set yrange [0:11.683]
set xzeroaxis lt -1
set terminal png size 800,600
set output 'mp-978496_dos_gnuplot.png'
plot '-' using 1:2 with lines title 'DOS'
-10.279400 0.000000
-10.262100 0.000000
-10.244900 0.000000
-10.227600 0.000000
-10.210400 0.000000
-10.193200 0.000000
-10.175900 0.000000
-10.158700 0.000000
-10.141400 0.000000
-10.124200 0.000000
-10.107000 0.000000
-10.089700 0.000000
-10.072500 0.000000
-10.055200 0.000000
-10.038000 0.000000
-10.020700 0.000000
-10.003500 0.000000
-9.986300 0.000000
-9.969000 0.000000
-9.951800 0.000000
-9.934500 0.000000
-9.917300 0.000000
-9.900100 0.000000
-9.882800 0.000000
-9.865600 0.000000
-9.848300 0.000000
-9.831100 0.000000
-9.813800 0.000000
-9.796600 0.000000
-9.779400 0.000000
-9.762100 0.000000
-9.744900 0.000000
-9.727600 0.000000
-9.710400 0.000000
-9.693200 0.000000
-9.675900 0.000000
-9.658700 0.000000
-9.641400 0.000000
-9.624200 0.000000
-9.607000 0.000000
-9.589700 0.000000
-9.572500 0.000000
-9.555200 0.000000
-9.538000 0.000000
-9.520700 0.000000
-9.503500 0.000000
-9.486300 0.000000
-9.469000 0.000000
-9.451800 0.000000
-9.434500 0.000000
-9.417300 0.000000
-9.400100 0.000000
-9.382800 0.000000
-9.365600 0.000000
-9.348300 0.000000
-9.331100 0.000000
-9.313800 0.000000
-9.296600 0.000000
-9.279400 0.000000
-9.262100 0.000000
-9.244900 0.000000
-9.227600 0.000000
-9.210400 0.000000
-9.193200 0.000000
-9.175900 0.000000
-9.158700 0.000000
-9.141400 0.000000
-9.124200 0.000000
-9.106900 0.000000
-9.089700 0.000000
-9.072500 0.000000
-9.055200 0.000000
-9.038000 0.000000
-9.020700 0.000000
-9.003500 0.000000
-8.986300 0.000000
-8.969000 0.000000
-8.951800 0.000000
-8.934500 0.000000
-8.917300 0.000000
-8.900000 0.000000
-8.882800 0.000000
-8.865600 0.000000
-8.848300 0.000000
-8.831100 0.000000
-8.813800 0.000000
-8.796600 0.000000
-8.779400 0.000000
-8.762100 0.000000
-8.744900 0.000000
-8.727600 0.000000
-8.710400 0.000800
-8.693100 0.120400
-8.675900 0.442200
-8.658700 0.548500
-8.641400 0.639900
-8.624200 0.758000
-8.606900 0.882300
-8.589700 1.000100
-8.572500 1.092400
-8.555200 1.179700
-8.538000 1.279000
-8.520700 1.382100
-8.503500 1.490100
-8.486300 1.606000
-8.469000 1.730900
-8.451800 1.863100
-8.434500 2.010800
-8.417300 2.170800
-8.400000 2.340900
-8.382800 2.521000
-8.365600 2.735500
-8.348300 3.008200
-8.331100 3.316300
-8.313800 3.735200
-8.296600 4.720900
-8.279400 5.225000
-8.262100 5.174000
-8.244900 5.584600
-8.227600 5.649600
-8.210400 5.719500
-8.193100 5.911100
-8.175900 6.248800
-8.158700 6.901000
-8.141400 7.604200
-8.124200 8.753300
-8.106900 7.266300
-8.089700 3.042500
-8.072500 0.000000
-8.055200 0.000000
-8.038000 0.000000
-8.020700 0.000000
-8.003500 0.000000
-7.986200 0.000000
-7.969000 0.000000
-7.951800 0.000000
-7.934500 0.000000
-7.917300 0.000000
-7.900000 0.000000
-7.882800 0.000000
-7.865600 0.000000
-7.848300 0.000000
-7.831100 0.000000
-7.813800 0.000000
-7.796600 0.000000
-7.779300 0.000000
-7.762100 0.000000
-7.744900 0.000000
-7.727600 0.000000
-7.710400 0.000000
-7.693100 0.000000
-7.675900 0.000000
-7.658700 0.000000
-7.641400 0.000000
-7.624200 0.000000
-7.606900 0.000000
-7.589700 0.000000
-7.572500 0.000000
-7.555200 0.000000
-7.538000 0.000000
-7.520700 0.000000
-7.503500 0.000000
-7.486200 0.000000
-7.469000 0.000000
-7.451800 0.000000
-7.434500 0.000000
-7.417300 0.000000
-7.400000 0.000000
-7.382800 0.000000
-7.365600 0.000000
-7.348300 0.000000
-7.331100 0.000000
-7.313800 0.000000
-7.296600 0.000000
-7.279300 0.000000
-7.262100 0.000000
-7.244900 0.000000
-7.227600 0.000000
-7.210400 0.000000
-7.193100 0.000000
-7.175900 0.000000
-7.158700 0.000000
-7.141400 0.000000
-7.124200 0.000000
-7.106900 0.000000
-7.089700 0.000000
-7.072400 0.000000
-7.055200 0.000000
-7.038000 0.000000
-7.020700 0.000000
-7.003500 0.000000
-6.986200 0.000000
-6.969000 0.000000
-6.951800 0.000000
-6.934500 0.000000
-6.917300 0.000000
-6.900000 0.000000
-6.882800 0.000000
-6.865500 0.000000
-6.848300 0.000000
-6.831100 0.000000
-6.813800 0.000000
-6.796600 0.000000
-6.779300 0.000000
-6.762100 0.000000
-6.744900 0.000000
-6.727600 0.000000
-6.710400 0.000000
-6.693100 0.000000
-6.675900 0.000000
-6.658600 0.000000
-6.641400 0.000000
-6.624200 0.000000
-6.606900 0.000000
-6.589700 0.000000
-6.572400 0.000000
-6.555200 0.000000
-6.538000 0.000000
-6.520700 0.000000
-6.503500 0.000000
-6.486200 0.000000
-6.469000 0.000000
-6.451800 0.000000
-6.434500 0.000000
-6.417300 0.000000
-6.400000 0.000000
-6.382800 0.000000
-6.365500 0.000000
-6.348300 0.000000
-6.331100 0.000000
-6.313800 0.000000
-6.296600 0.000000
-6.279300 0.000000
-6.262100 0.000000
-6.244900 0.000000
-6.227600 0.000000
-6.210400 0.660000
-6.193100 0.501600
-6.175900 0.602900
-6.158600 0.709800
-6.141400 0.822300
-6.124200 0.940400
-6.106900 1.062100
-6.089700 1.172900
-6.072400 1.266800
-6.055200 1.358200
-6.038000 1.444900
-6.020700 1.536800
-6.003500 1.642300
-5.986200 1.761800
-5.969000 1.896200
-5.951700 2.086200
-5.934500 2.275000
-5.917300 2.439300
-5.900000 2.631400
-5.882800 2.872700
-5.865500 3.219100
-5.848300 3.263100
-5.831100 3.527800
-5.813800 3.895300
-5.796600 6.003300
-5.779300 5.427000
-5.762100 4.187800
-5.744800 3.500500
-5.727600 3.281000
-5.710400 3.108500
-5.693100 2.939300
-5.675900 2.732000
-5.658600 2.501400
-5.641400 2.297100
-5.624200 2.116500
-5.606900 1.947900
-5.589700 1.834900
-5.572400 1.764400
-5.555200 1.751600
-5.537900 1.860200
-5.520700 2.403600
-5.503500 2.780500
-5.486200 3.229000
-5.469000 3.064100
-5.451700 1.873800
-5.434500 1.801800
-5.417300 2.196200
-5.400000 1.865500
-5.382800 1.954800
-5.365500 1.999700
-5.348300 1.999800
-5.331100 1.992000
-5.313800 1.981300
-5.296600 2.014900
-5.279300 2.076800
-5.262100 2.187100
-5.244800 2.313900
-5.227600 2.467500
-5.210400 2.613700
-5.193100 2.748700
-5.175900 2.827800
-5.158600 2.862000
-5.141400 2.877500
-5.124200 2.871200
-5.106900 2.835200
-5.089700 2.792300
-5.072400 2.771700
-5.055200 2.763700
-5.037900 2.744900
-5.020700 2.714600
-5.003500 2.735300
-4.986200 3.024700
-4.969000 3.622500
-4.951700 3.272400
-4.934500 3.297400
-4.917300 3.398100
-4.900000 3.524300
-4.882800 3.618000
-4.865500 3.684600
-4.848300 3.729600
-4.831000 3.732300
-4.813800 3.834700
-4.796600 3.864100
-4.779300 3.907500
-4.762100 3.989900
-4.744800 4.083200
-4.727600 4.205000
-4.710400 4.238500
-4.693100 4.017600
-4.675900 4.074000
-4.658600 4.113500
-4.641400 4.154500
-4.624100 4.241900
-4.606900 4.261400
-4.589700 4.288800
-4.572400 4.313100
-4.555200 4.345600
-4.537900 4.398300
-4.520700 4.648500
-4.503500 4.536700
-4.486200 4.433900
-4.469000 4.345600
-4.451700 4.250500
-4.434500 4.211600
-4.417300 4.069200
-4.400000 3.612500
-4.382800 3.213900
-4.365500 3.127300
-4.348300 3.174800
-4.331000 3.175400
-4.313800 3.162500
-4.296600 3.150200
-4.279300 3.150600
-4.262100 3.147700
-4.244800 3.104700
-4.227600 3.113900
-4.210400 3.036000
-4.193100 2.914600
-4.175900 2.648900
-4.158600 2.257800
-4.141400 1.910900
-4.124100 1.669000
-4.106900 1.471600
-4.089700 1.298500
-4.072400 1.179600
-4.055200 1.083700
-4.037900 1.003000
-4.020700 0.938900
-4.003500 0.957900
-3.986200 1.014000
-3.969000 1.073000
-3.951700 1.142900
-3.934500 1.227200
-3.917200 1.338500
-3.900000 1.495600
-3.882800 1.673700
-3.865500 1.794000
-3.848300 1.884700
-3.831000 1.952200
-3.813800 2.016100
-3.796600 2.158600
-3.779300 2.311000
-3.762100 2.456000
-3.744800 2.419900
-3.727600 2.168500
-3.710300 2.003000
-3.693100 1.897500
-3.675900 1.896000
-3.658600 1.931200
-3.641400 1.897400
-3.624100 1.854900
-3.606900 1.837600
-3.589700 1.857000
-3.572400 1.906900
-3.555200 1.924400
-3.537900 1.917200
-3.520700 1.897100
-3.503400 1.865400
-3.486200 1.822400
-3.469000 1.796600
-3.451700 1.769500
-3.434500 1.756800
-3.417200 1.747900
-3.400000 1.742100
-3.382800 1.738900
-3.365500 2.009700
-3.348300 2.119600
-3.331000 2.170000
-3.313800 2.246300
-3.296600 2.289200
-3.279300 2.290200
-3.262100 2.268200
-3.244800 2.246600
-3.227600 2.182300
-3.210300 2.087600
-3.193100 1.998100
-3.175900 1.914900
-3.158600 1.837100
-3.141400 1.752500
-3.124100 1.643300
-3.106900 1.610700
-3.089700 1.854100
-3.072400 1.656000
-3.055200 1.288300
-3.037900 1.253100
-3.020700 1.217800
-3.003400 1.179200
-2.986200 1.175600
-2.969000 1.190400
-2.951700 1.214700
-2.934500 1.232800
-2.917200 1.240700
-2.900000 1.238100
-2.882800 1.225100
-2.865500 1.201300
-2.848300 1.152200
-2.831000 1.128000
-2.813800 1.132300
-2.796500 1.146000
-2.779300 1.160100
-2.762100 1.206800
-2.744800 1.344400
-2.727600 1.487900
-2.710300 1.623900
-2.693100 1.741800
-2.675900 1.846200
-2.658600 2.117000
-2.641400 2.315900
-2.624100 2.568400
-2.606900 2.764300
-2.589600 2.936700
-2.572400 3.056000
-2.555200 3.103200
-2.537900 3.099700
-2.520700 3.127000
-2.503400 3.304800
-2.486200 3.405100
-2.469000 3.440700
-2.451700 3.437400
-2.434500 3.432400
-2.417200 3.425000
-2.400000 3.409300
-2.382700 3.385300
-2.365500 3.353100
-2.348300 3.041700
-2.331000 2.979800
-2.313800 2.727600
-2.296500 2.878400
-2.279300 2.821200
-2.262100 2.566300
-2.244800 2.505800
-2.227600 1.889400
-2.210300 1.343900
-2.193100 1.203000
-2.175900 1.187500
-2.158600 1.202600
-2.141400 1.234000
-2.124100 1.295100
-2.106900 1.383700
-2.089600 1.495200
-2.072400 1.646400
-2.055200 1.844500
-2.037900 2.029400
-2.020700 2.199500
-2.003400 2.407400
-1.986200 2.657300
-1.969000 2.943100
-1.951700 3.261600
-1.934500 3.597300
-1.917200 4.207900
-1.900000 4.951900
-1.882700 6.668800
-1.865500 9.038800
-1.848300 5.006000
-1.831000 4.364600
-1.813800 3.929500
-1.796500 3.590400
-1.779300 3.307900
-1.762100 3.096400
-1.744800 3.005200
-1.727600 2.957300
-1.710300 3.234200
-1.693100 3.294700
-1.675800 3.086800
-1.658600 2.913000
-1.641400 2.651100
-1.624100 2.631700
-1.606900 2.605300
-1.589600 2.874500
-1.572400 2.748800
-1.555200 2.648100
-1.537900 2.612200
-1.520700 2.739800
-1.503400 2.921000
-1.486200 3.012300
-1.468900 3.092700
-1.451700 3.137600
-1.434500 3.145000
-1.417200 3.237300
-1.400000 3.432700
-1.382700 3.600100
-1.365500 3.689200
-1.348300 3.738700
-1.331000 3.867900
-1.313800 3.128900
-1.296500 2.614300
-1.279300 2.393400
-1.262100 2.252200
-1.244800 2.189000
-1.227600 2.174000
-1.210300 2.163900
-1.193100 2.149200
-1.175800 2.156100
-1.158600 2.222500
-1.141400 2.308900
-1.124100 2.417300
-1.106900 2.550800
-1.089600 2.681000
-1.072400 2.882300
-1.055200 2.588800
-1.037900 2.569500
-1.020700 2.547200
-1.003400 2.541000
-0.986200 2.525000
-0.968900 3.509900
-0.951700 2.683600
-0.934500 2.353700
-0.917200 2.312800
-0.900000 2.336900
-0.882700 2.362200
-0.865500 2.383600
-0.848300 2.402000
-0.831000 2.442600
-0.813800 2.506700
-0.796500 2.590800
-0.779300 2.695400
-0.762000 2.813500
-0.744800 2.898400
-0.727600 2.950000
-0.710300 3.035000
-0.693100 3.645600
-0.675800 4.045100
-0.658600 4.214300
-0.641400 4.085400
-0.624100 4.128600
-0.606900 4.151400
-0.589600 4.195200
-0.572400 4.390400
-0.555100 4.730700
-0.537900 5.160900
-0.520700 5.733800
-0.503400 7.429300
-0.486200 7.077600
-0.468900 7.203300
-0.451700 7.237600
-0.434500 7.088500
-0.417200 6.703000
-0.400000 5.980800
-0.382700 5.162200
-0.365500 4.426700
-0.348200 3.713600
-0.331000 3.421200
-0.313800 3.350100
-0.296500 3.622300
-0.279300 4.357200
-0.262000 4.994700
-0.244800 5.280300
-0.227600 5.941400
-0.210300 6.084800
-0.193100 5.927100
-0.175800 5.507900
-0.158600 5.037800
-0.141400 4.666400
-0.124100 4.729500
-0.106900 4.769100
-0.089600 4.422400
-0.072400 4.189500
-0.055100 4.059200
-0.037900 3.979200
-0.020700 3.887200
-0.003400 3.810500
0.013800 3.747000
0.031100 3.661300
0.048300 3.754700
0.065500 3.738600
0.082800 3.631300
0.100000 3.458600
0.117300 3.247900
0.134500 3.145000
0.151800 3.468600
0.169000 3.601500
0.186200 3.666600
0.203500 3.656300
0.220700 3.636700
0.238000 4.266800
0.255200 5.043400
0.272400 5.372900
0.289700 5.238700
0.306900 4.888700
0.324200 4.711200
0.341400 3.801000
0.358700 3.409300
0.375900 3.208900
0.393100 3.198200
0.410400 3.314500
0.427600 3.266100
0.444900 3.327200
0.462100 3.225800
0.479300 3.131700
0.496600 3.078100
0.513800 3.088000
0.531100 3.189400
0.548300 2.965800
0.565600 2.964700
0.582800 2.988100
0.600000 2.986700
0.617300 2.963600
0.634500 2.941900
0.651800 2.908500
0.669000 2.867000
0.686200 2.839000
0.703500 2.811400
0.720700 2.795000
0.738000 3.193200
0.755200 3.080200
0.772400 2.987500
0.789700 3.049900
0.806900 1.990100
0.824200 1.638200
0.841400 1.405400
0.858700 1.255300
0.875900 1.187300
0.893100 1.205100
0.910400 1.285100
0.927600 1.410900
0.944900 1.583300
0.962100 1.813400
0.979300 2.101300
0.996600 2.640300
1.013800 3.659100
1.031100 3.437700
1.048300 4.340600
1.065600 5.329600
1.082800 5.675100
1.100000 5.102300
1.117300 4.379800
1.134500 3.189900
1.151800 2.988800
1.169000 2.873100
1.186200 2.786100
1.203500 2.735800
1.220700 2.771900
1.238000 2.874700
1.255200 3.049500
1.272500 3.231600
1.289700 2.953400
1.306900 2.909300
1.324200 3.101600
1.341400 3.202800
1.358700 3.199100
1.375900 3.143100
1.393100 3.087300
1.410400 3.040200
1.427600 3.011000
1.444900 3.144900
1.462100 3.144000
1.479400 3.132100
1.496600 3.190300
1.513800 3.326400
1.531100 3.577500
1.548300 3.583000
1.565600 3.002700
1.582800 2.794000
1.600000 2.677700
1.617300 2.666100
1.634500 2.752700
1.651800 2.879600
1.669000 2.990200
1.686300 3.094600
1.703500 3.281500
1.720700 3.387000
1.738000 3.338800
1.755200 3.338400
1.772500 3.452500
1.789700 3.543400
1.806900 3.613500
1.824200 3.659600
1.841400 3.697400
1.858700 3.724600
1.875900 3.747700
1.893100 3.754500
1.910400 3.838000
1.927600 4.032900
1.944900 4.229300
1.962100 4.463500
1.979400 4.179200
1.996600 3.846200
2.013800 3.917900
2.031100 4.067400
2.048300 4.215300
2.065600 4.336300
2.082800 4.395400
2.100000 4.514700
2.117300 5.022300
2.134500 4.650000
2.151800 4.673400
2.169000 4.707700
2.186300 4.749200
2.203500 4.782900
2.220700 4.787100
2.238000 4.758700
2.255200 4.698900
2.272500 4.704400
2.289700 4.786800
2.306900 4.908400
2.324200 5.037200
2.341400 5.019300
2.358700 4.720500
2.375900 3.740700
2.393200 3.863600
2.410400 4.117600
2.427600 4.649500
2.444900 5.680700
2.462100 8.217800
2.479400 8.227500
2.496600 7.789000
2.513800 8.425100
2.531100 8.710000
2.548300 6.900700
2.565600 6.350900
2.582800 5.880100
2.600100 5.509200
2.617300 5.252300
2.634500 5.205700
2.651800 4.951600
2.669000 4.864600
2.686300 4.999400
2.703500 5.223300
2.720700 5.473100
2.738000 5.801700
2.755200 5.956100
2.772500 5.337200
2.789700 5.167900
2.807000 6.243600
2.824200 5.679100
2.841400 5.720000
2.858700 4.711800
2.875900 4.559800
2.893200 4.489800
2.910400 4.494000
2.927600 4.649000
2.944900 4.947700
2.962100 5.183900
2.979400 5.283600
2.996600 5.375400
3.013800 5.475900
3.031100 5.020300
3.048300 4.827900
3.065600 4.805200
3.082800 4.952000
3.100100 5.326600
3.117300 5.508500
3.134500 5.905100
3.151800 6.056900
3.169000 6.151300
3.186300 6.273500
3.203500 6.290700
3.220700 6.331500
3.238000 7.294800
3.255200 6.192700
3.272500 5.890300
3.289700 5.917100
3.307000 5.966500
3.324200 6.106700
3.341400 6.324400
3.358700 6.702400
3.375900 7.258800
3.393200 7.880300
3.410400 8.845700
3.427600 10.274800
3.444900 10.621100
3.462100 9.822900
3.479400 7.906400
3.496600 7.158800
3.513900 6.719000
3.531100 6.311800
3.548300 5.964700
3.565600 5.786400
3.582800 5.635800
3.600100 5.448500
3.617300 5.537500
3.634500 5.561700
3.651800 5.470600
3.669000 5.804300
3.686300 6.151000
3.703500 6.524900
3.720800 5.874000
3.738000 5.781300
3.755200 5.599200
3.772500 5.399500
3.789700 5.520900
3.807000 5.008200
3.824200 5.073700
3.841400 5.455000
3.858700 5.621200
3.875900 6.116600
3.893200 6.437800
3.910400 6.088100
3.927600 5.769000
3.944900 5.248600
3.962100 5.522900
3.979400 5.359400
3.996600 5.264700
4.013900 5.254700
4.031100 5.605300
4.048300 6.262900
4.065600 7.011600
4.082800 7.078500
4.100100 6.098100
4.117300 5.065200
4.134500 5.190900
4.151800 4.992500
4.169000 5.456300
4.186300 5.607900
4.203500 5.503300
4.220800 5.501400
4.238000 5.649300
4.255200 5.050300
4.272500 4.488900
4.289700 4.350500
4.307000 4.094500
4.324200 3.768000
4.341400 3.876800
4.358700 4.152900
4.375900 4.378100
4.393200 4.416100
4.410400 4.410000
4.427700 4.198700
4.444900 4.143800
4.462100 4.174900
4.479400 4.461400
4.496600 4.684000
4.513900 4.843900
4.531100 4.891700
4.548300 4.870000
4.565600 4.903900
4.582800 5.122500
4.600100 5.331200
4.617300 5.521500
4.634600 5.559300
4.651800 5.484100
4.669000 5.542600
4.686300 5.888300
4.703500 6.134200
4.720800 6.258700
4.738000 5.891300
4.755200 5.486600
4.772500 5.815600
4.789700 6.065000
4.807000 6.791500
4.824200 6.926500
4.841500 6.860800
4.858700 7.115100
4.875900 7.201800
4.893200 7.348700
4.910400 7.519900
4.927700 7.714500
4.944900 7.600800
4.962100 7.063700
4.979400 5.891100
4.996600 5.572100
5.013900 4.868600
5.031100 4.707700
5.048300 4.835300
5.065600 5.022900
5.082800 5.096900
5.100100 5.182700
5.117300 5.263400
5.134600 5.550500
5.151800 5.739200
5.169000 6.000900
5.186300 6.292900
5.203500 6.534100
5.220800 6.745000
5.238000 6.881600
5.255200 6.445400
5.272500 6.289400
5.289700 5.728900
5.307000 5.061000
5.324200 4.242900
5.341500 3.839500
5.358700 3.629700
5.375900 3.186500
5.393200 2.908900
5.410400 2.822500
5.427700 2.886200
5.444900 2.811100
5.462100 2.575700
5.479400 2.581900
5.496600 2.347700
5.513900 2.188800
5.531100 2.048600
5.548400 1.918600
5.565600 1.804400
5.582800 1.720000
5.600100 1.660900
5.617300 1.626800
5.634600 1.609400
5.651800 1.594300
5.669000 1.578100
5.686300 1.598800
5.703500 1.650900
5.720800 1.626800
5.738000 1.574300
5.755300 1.498400
5.772500 1.398900
5.789700 1.368300
5.807000 1.246500
5.824200 0.814300
5.841500 0.412500
5.858700 0.364200
5.875900 0.380800
5.893200 0.395400
5.910400 0.607700
5.927700 0.406600
5.944900 0.423000
5.962200 0.441600
5.979400 0.462400
5.996600 0.485400
6.013900 0.510400
6.031100 0.537100
6.048400 0.565500
6.065600 0.595700
6.082800 0.629300
6.100100 0.666800
6.117300 0.708200
6.134600 0.753500
6.151800 0.802800
6.169000 0.856000
6.186300 0.933700
6.203500 1.060400
6.220800 1.362800
6.238000 1.483500
6.255300 1.524400
6.272500 1.529100
6.289700 1.519100
6.307000 1.513900
6.324200 1.487400
6.341500 1.465000
6.358700 1.471600
6.375900 1.566400
6.393200 1.649200
6.410400 1.715000
6.427700 1.699000
6.444900 1.672200
6.462200 1.653700
6.479400 1.646100
6.496600 1.649500
6.513900 1.659200
6.531100 1.672800
6.548400 1.688900
6.565600 1.705900
6.582800 1.730500
6.600100 1.761800
6.617300 1.796500
6.634600 1.834600
6.651800 1.923600
6.669100 2.038400
6.686300 2.130400
6.703500 2.206300
6.720800 2.508700
6.738000 2.769700
6.755300 2.876900
6.772500 2.846100
6.789700 2.941300
6.807000 3.051200
6.824200 2.783000
6.841500 2.536000
6.858700 2.360000
6.876000 2.360800
6.893200 2.281900
6.910400 1.960400
6.927700 1.635300
6.944900 1.324300
6.962200 1.098200
6.979400 0.978300
6.996600 0.905800
7.013900 0.855100
7.031100 0.840900
7.048400 0.807900
7.065600 0.728600
7.082800 0.564700
7.100100 0.361000
7.117300 0.345100
7.134600 0.334200
7.151800 0.324400
7.169100 0.316800
7.186300 0.312500
7.203500 0.311500
7.220800 0.313700
7.238000 0.319300
7.255300 0.321300
7.272500 0.317700
7.289700 0.312900
7.307000 0.307100
7.324200 0.300100
7.341500 0.292000
7.358700 0.282800
7.376000 0.272600
7.393200 0.261300
7.410400 0.251300
7.427700 0.243100
7.444900 0.236700
7.462200 0.230200
7.479400 0.222300
7.496600 0.214600
7.513900 0.207100
7.531100 0.199800
7.548400 0.192700
7.565600 0.185800
7.582900 0.179200
7.600100 0.172800
7.617300 0.166600
7.634600 0.160600
7.651800 0.154800
7.669100 0.149200
7.686300 0.143900
7.703500 0.138900
7.720800 0.134900
7.738000 0.131900
7.755300 0.129900
7.772500 0.128800
7.789800 0.128700
7.807000 0.129200
7.824200 0.129000
7.841500 0.128200
7.858700 0.126700
7.876000 0.425400
7.893200 0.600700
7.910400 0.695100
7.927700 0.765500
7.944900 0.822300
7.962200 0.884300
7.979400 1.015800
7.996700 1.309300
