set title 'mp-1591 - Density of States'
set xlabel 'Energy (eV)'
set ylabel 'DOS (states/eV)'
set grid
set xrange [-10:10]
set yrange [0:7.538]
set xzeroaxis lt -1
set terminal png size 800,600
set output 'mp-1591_dos_gnuplot.png'
plot '-' using 1:2 with lines title 'DOS'
-9.351500 0.000000
-9.317600 0.000000
-9.283700 0.000000
-9.249800 0.000000
-9.215800 0.000000
-9.181900 0.000000
-9.148000 0.000000
-9.114100 0.000000
-9.080200 0.000000
-9.046200 0.000000
-9.012300 0.000000
-8.978400 0.000000
-8.944500 0.000000
-8.910600 0.000000
-8.876600 0.000000
-8.842700 0.000000
-8.808800 0.000000
-8.774900 0.000000
-8.741000 0.000000
-8.707000 0.000000
-8.673100 0.000000
-8.639200 0.000000
-8.605300 0.000000
-8.571400 0.000000
-8.537400 0.000000
-8.503500 0.000000
-8.469600 0.000000
-8.435700 0.000000
-8.401800 0.000000
-8.367800 0.000000
-8.333900 0.000000
-8.300000 0.000000
-8.266100 0.000000
-8.232200 0.000000
-8.198200 0.000000
-8.164300 0.000000
-8.130400 0.000000
-8.096500 0.000000
-8.062600 0.000000
-8.028600 0.000000
-7.994700 0.000000
-7.960800 0.000000
-7.926900 0.000000
-7.893000 0.000000
-7.859000 0.000000
-7.825100 0.000000
-7.791200 0.000000
-7.757300 0.000000
-7.723400 0.000000
-7.689500 0.000000
-7.655500 0.000000
-7.621600 0.000000
-7.587700 0.000000
-7.553800 0.000000
-7.519900 0.000000
-7.485900 0.000000
-7.452000 0.000000
-7.418100 0.000000
-7.384200 0.000000
-7.350300 0.000000
-7.316300 0.000000
-7.282400 0.000000
-7.248500 0.000000
-7.214600 0.000000
-7.180700 0.000000
-7.146700 0.000000
-7.112800 0.000000
-7.078900 0.000000
-7.045000 0.000000
-7.011100 0.000000
-6.977100 0.000000
-6.943200 0.000000
-6.909300 0.000000
-6.875400 0.000000
-6.841500 0.000000
-6.807500 0.000000
-6.773600 0.000000
-6.739700 0.000000
-6.705800 0.000000
-6.671900 0.000000
-6.637900 0.000000
-6.604000 0.000000
-6.570100 0.000000
-6.536200 0.000000
-6.502300 0.000000
-6.468300 0.000000
-6.434400 0.000000
-6.400500 0.000000
-6.366600 0.000000
-6.332700 0.000000
-6.298700 0.000000
-6.264800 0.001200
-6.230900 0.021000
-6.197000 0.052400
-6.163100 0.093500
-6.129100 0.141700
-6.095200 0.196900
-6.061300 0.264400
-6.027400 0.337300
-5.993500 0.410300
-5.959500 0.483300
-5.925600 0.556200
-5.891700 0.629100
-5.857800 0.587200
-5.823900 0.579200
-5.789900 0.577500
-5.756000 0.571500
-5.722100 0.554300
-5.688200 0.513800
-5.654300 0.478700
-5.620300 0.486300
-5.586400 0.500100
-5.552500 0.527900
-5.518600 0.559200
-5.484700 0.594000
-5.450700 0.632200
-5.416800 0.674000
-5.382900 0.719200
-5.349000 0.767900
-5.315100 0.819500
-5.281100 0.874100
-5.247200 0.906200
-5.213300 0.926700
-5.179400 0.951500
-5.145500 0.980400
-5.111500 1.019300
-5.077600 1.059400
-5.043700 1.096500
-5.009800 1.130600
-4.975900 1.161700
-4.941900 1.189600
-4.908000 1.213800
-4.874100 1.230000
-4.840200 1.236800
-4.806300 1.230100
-4.772300 1.207600
-4.738400 1.183100
-4.704500 1.197600
-4.670600 1.213400
-4.636700 1.230500
-4.602700 1.249200
-4.568800 1.269600
-4.534900 1.290000
-4.501000 1.309600
-4.467100 1.329000
-4.433200 1.348300
-4.399200 1.367400
-4.365300 1.386300
-4.331400 1.405100
-4.297500 1.423900
-4.263600 1.442700
-4.229600 1.462000
-4.195700 1.482300
-4.161800 1.503400
-4.127900 1.525300
-4.094000 1.548000
-4.060000 1.571600
-4.026100 1.595800
-3.992200 1.620800
-3.958300 1.646400
-3.924400 1.673000
-3.890400 1.728400
-3.856500 2.241000
-3.822600 2.831200
-3.788700 3.121600
-3.754800 3.361300
-3.720800 3.145100
-3.686900 2.681000
-3.653000 2.380900
-3.619100 2.160500
-3.585200 2.033400
-3.551200 2.041400
-3.517300 2.055100
-3.483400 2.071500
-3.449500 2.159500
-3.415600 2.764300
-3.381600 2.920300
-3.347700 2.703000
-3.313800 2.648600
-3.279900 2.668900
-3.246000 2.732100
-3.212000 2.807400
-3.178100 2.826600
-3.144200 1.866300
-3.110300 1.714700
-3.076400 1.651500
-3.042400 1.631100
-3.008500 1.617100
-2.974600 1.609700
-2.940700 1.608700
-2.906800 1.620000
-2.872800 1.659000
-2.838900 1.737000
-2.805000 1.854300
-2.771100 2.054400
-2.737200 2.365300
-2.703200 3.388900
-2.669300 4.422900
-2.635400 5.601800
-2.601500 6.852900
-2.567600 5.328500
-2.533600 3.984400
-2.499700 2.392000
-2.465800 0.000000
-2.431900 0.000000
-2.398000 0.000000
-2.364000 0.000000
-2.330100 0.000000
-2.296200 0.000000
-2.262300 0.000000
-2.228400 0.000000
-2.194400 0.000000
-2.160500 0.000000
-2.126600 0.000000
-2.092700 0.000000
-2.058800 0.000000
-2.024800 0.000000
-1.990900 0.000000
-1.957000 0.000000
-1.923100 0.000000
-1.889200 0.000000
-1.855200 0.000000
-1.821300 0.000000
-1.787400 0.000000
-1.753500 0.000000
-1.719600 0.000000
-1.685600 0.000000
-1.651700 0.000000
-1.617800 0.000000
-1.583900 0.000000
-1.550000 0.000000
-1.516000 0.000000
-1.482100 0.000000
-1.448200 0.000000
-1.414300 0.000000
-1.380400 0.000000
-1.346400 0.000000
-1.312500 0.000000
-1.278600 0.000000
-1.244700 0.000000
-1.210800 0.000000
-1.176900 0.000000
-1.142900 0.000000
-1.109000 0.000000
-1.075100 0.000000
-1.041200 0.000000
-1.007300 0.000000
-0.973300 0.000000
-0.939400 0.000000
-0.905500 0.000000
-0.871600 0.000000
-0.837700 0.000000
-0.803700 0.000000
-0.769800 0.000000
-0.735900 0.000000
-0.702000 0.000000
-0.668100 0.000000
-0.634100 0.000000
-0.600200 0.000000
-0.566300 0.000000
-0.532400 0.000000
-0.498500 0.000000
-0.464500 0.000000
-0.430600 0.000000
-0.396700 0.000000
-0.362800 0.000000
-0.328900 0.000000
-0.294900 0.000000
-0.261000 0.000000
-0.227100 0.000000
-0.193200 0.007200
-0.159300 0.022300
-0.125300 0.043400
-0.091400 0.070400
-0.057500 0.103500
-0.023600 0.142800
0.010300 0.194500
0.044300 0.248100
0.078200 0.301700
0.112100 0.355200
0.146000 0.408800
0.179900 0.462300
0.213900 0.515900
0.247800 0.582900
0.281700 0.653500
0.315600 0.725300
0.349500 0.798500
0.383500 0.873000
0.417400 0.948700
0.451300 1.051300
0.485200 1.293800
0.519100 1.593500
0.553100 1.888300
0.587000 2.163700
0.620900 2.230300
0.654800 2.140700
0.688700 2.034800
0.722700 1.928400
0.756600 1.824300
0.790500 1.723200
0.824400 1.625000
0.858300 1.529800
0.892300 1.436700
0.926200 1.345500
0.960100 1.256200
0.994000 1.216700
1.027900 1.285700
1.061900 1.374400
1.095800 1.478700
1.129700 1.603700
1.163600 1.806800
1.197500 1.964900
1.231500 2.065800
1.265400 2.165600
1.299300 2.254700
1.333200 2.293500
1.367100 2.268900
1.401100 2.329000
1.435000 2.428900
1.468900 2.545200
1.502800 2.671300
1.536700 2.589400
1.570700 2.493900
1.604600 2.420000
1.638500 2.362900
1.672400 2.314200
1.706300 2.238400
1.740300 2.129800
1.774200 1.985700
1.808100 1.805500
1.842000 1.584400
1.875900 1.252100
1.909900 1.208900
1.943800 1.171300
1.977700 1.132900
2.011600 1.152600
2.045500 1.204200
2.079400 1.284400
2.113400 1.393000
2.147300 1.530100
2.181200 2.324500
2.215100 3.232300
2.249000 3.716700
2.283000 3.903700
2.316900 3.915600
2.350800 3.758500
2.384700 3.416700
2.418600 3.113000
2.452600 2.768700
2.486500 2.209900
2.520400 1.983600
2.554300 1.980400
2.588200 1.995100
2.622200 2.021900
2.656100 2.048500
2.690000 2.076400
2.723900 2.141900
2.757800 2.206500
2.791800 2.268600
2.825700 2.325100
2.859600 2.376200
2.893500 2.410000
2.927400 2.461300
2.961400 2.550400
2.995300 2.624200
3.029200 2.615800
3.063100 2.648000
3.097000 2.703800
3.131000 2.782500
3.164900 2.876500
3.198800 2.953300
3.232700 2.959100
3.266600 2.847800
3.300600 2.749600
3.334500 2.625800
3.368400 2.481700
3.402300 2.363300
3.436200 2.275400
3.470200 2.210400
3.504100 2.160100
3.538000 2.118600
3.571900 2.085700
3.605800 2.054100
3.639800 2.025400
3.673700 1.999900
3.707600 1.977800
3.741500 1.958900
3.775400 1.941800
3.809400 1.923700
3.843300 1.903600
3.877200 1.965900
3.911100 1.999700
3.945000 2.052400
3.979000 2.331400
4.012900 3.221300
4.046800 3.986300
4.080700 4.465000
4.114600 4.679100
4.148600 3.202800
4.182500 3.147600
4.216400 3.086900
4.250300 3.015000
4.284200 2.933600
4.318200 2.889000
4.352100 2.881800
4.386000 2.858900
4.419900 2.859900
4.453800 2.886800
4.487800 2.886200
4.521700 2.894700
4.555600 2.900500
4.589500 2.911600
4.623400 2.928100
4.657400 2.949400
4.691300 2.920000
4.725200 2.880400
4.759100 2.832200
4.793000 2.778700
4.827000 2.602800
4.860900 2.471600
4.894800 2.406100
4.928700 2.355400
4.962600 2.320200
4.996600 2.303300
5.030500 2.313400
5.064400 2.413300
5.098300 2.686000
5.132200 3.146600
5.166200 3.693100
5.200100 4.840700
5.234000 4.901600
5.267900 4.904700
5.301800 4.868900
5.335700 4.815500
5.369700 4.808000
5.403600 4.911500
5.437500 5.032400
5.471400 4.813900
5.505300 4.508200
5.539300 4.397000
5.573200 4.211800
5.607100 3.982600
5.641000 4.122700
5.674900 4.145600
5.708900 4.186200
5.742800 4.238600
5.776700 4.298100
5.810600 4.358100
5.844500 4.390000
5.878500 4.369300
5.912400 4.159700
5.946300 3.937300
5.980200 3.973800
6.014100 3.983500
6.048100 3.961800
6.082000 3.937400
6.115900 3.889000
6.149800 3.841500
6.183700 3.791400
6.217700 3.766600
6.251600 3.705400
6.285500 3.761500
6.319400 3.688200
6.353300 3.529600
6.387300 3.366700
6.421200 3.243600
6.455100 3.109000
6.489000 2.910100
6.522900 2.694700
6.556900 2.477600
6.590800 2.270600
6.624700 2.075300
6.658600 1.893400
6.692500 1.755400
6.726500 1.636400
6.760400 1.534100
6.794300 1.438900
6.828200 1.347600
6.862100 1.257400
6.896100 1.171000
6.930000 1.084600
6.963900 0.998100
6.997800 0.911500
7.031700 0.824800
7.065700 0.795000
7.099600 1.145100
7.133500 1.330300
7.167400 1.520800
7.201300 1.029400
7.235300 0.535700
7.269200 0.148300
7.303100 0.000000
7.337000 0.000000
7.370900 0.000000
7.404900 0.000000
7.438800 0.000000
7.472700 0.000000
7.506600 0.000000
7.540500 0.000000
7.574500 0.000000
7.608400 0.000000
7.642300 0.000000
7.676200 0.000000
7.710100 0.000000
7.744100 0.000000
7.778000 0.000000
7.811900 0.000000
7.845800 0.000000
7.879700 0.000000
7.913700 0.000000
7.947600 0.000000
7.981500 0.000000
8.015400 0.000000
8.049300 0.000000
8.083300 0.000000
8.117200 0.000000
8.151100 0.000000
8.185000 0.000000
8.218900 0.000000
8.252900 0.000000
8.286800 0.000000
8.320700 0.000000
8.354600 0.000000
8.388500 0.000000
8.422500 0.000000
8.456400 0.000000
8.490300 0.000000
8.524200 0.000000
8.558100 0.000000
8.592000 0.000000
8.626000 0.000000
8.659900 0.004200
8.693800 0.015400
8.727700 0.039900
8.761600 0.080200
8.795600 0.120400
8.829500 0.160600
8.863400 0.200800
8.897300 0.241000
8.931200 0.281100
8.965200 0.321200
8.999100 0.361300
9.033000 0.401400
9.066900 0.441400
9.100800 0.481400
9.134800 0.521400
9.168700 0.561400
9.202600 0.601300
9.236500 0.641200
9.270400 0.679800
9.304400 0.710900
9.338300 0.735300
9.372200 0.754800
9.406100 0.769900
9.440000 0.780800
9.474000 0.785000
9.507900 0.786300
9.541800 0.787500
9.575700 0.788700
9.609600 1.321600
9.643600 1.869000
9.677500 2.370300
9.711400 2.596900
9.745300 2.452500
9.779200 2.206900
9.813200 1.865000
9.847100 1.335300
9.881000 0.815600
9.914900 0.774800
9.948800 0.783600
9.982800 0.806000
10.016700 0.840700
10.050600 0.883900
10.084500 0.933300
10.118400 0.983200
10.152400 1.033000
10.186300 1.082900
10.220200 1.132700
10.254100 1.186600
10.288000 1.245200
10.322000 1.307000
10.355900 1.372300
10.389800 1.442200
10.423700 1.522600
10.457600 1.616100
10.491600 1.737300
10.525500 1.863100
10.559400 1.991300
10.593300 2.119300
10.627200 2.246200
10.661200 3.792900
10.695100 3.475400
10.729000 4.014400
10.762900 4.373700
10.796800 4.667200
10.830800 4.627300
10.864700 4.256700
10.898600 3.762400
10.932500 3.319300
10.966400 2.983100
11.000400 2.653400
11.034300 2.454700
11.068200 1.829800
11.102100 1.696800
11.136000 1.591100
11.170000 1.516400
11.203900 1.476800
11.237800 1.482700
11.271700 1.505800
11.305600 1.533000
11.339600 1.564200
11.373500 1.599400
11.407400 1.677700
11.441300 1.778800
11.475200 1.900000
11.509200 2.125700
11.543100 2.369600
11.577000 3.029200
11.610900 4.032900
11.644800 4.794200
11.678800 4.746400
11.712700 4.001300
11.746600 3.291300
11.780500 2.615300
11.814400 1.970400
11.848300 1.796700
11.882300 1.766300
11.916200 1.752500
11.950100 1.731300
11.984000 1.734100
12.017900 1.785100
12.051900 1.865000
12.085800 1.991600
12.119700 2.104400
12.153600 2.325600
12.187500 4.213400
12.221500 2.996900
12.255400 2.926700
12.289300 2.901100
12.323200 2.937400
12.357100 3.277900
12.391100 3.450500
12.425000 3.399400
12.458900 3.104500
12.492800 2.732100
12.526700 2.626200
12.560700 2.613600
12.594600 2.840000
12.628500 3.259400
12.662400 3.864600
12.696300 7.916600
12.730300 2.215200
12.764200 2.033700
12.798100 2.179600
12.832000 2.577800
12.865900 3.212500
12.899900 3.695500
12.933800 4.008000
12.967700 3.802600
13.001600 3.402600
13.035500 3.107500
13.069500 2.952500
13.103400 2.879600
13.137300 2.805100
13.171200 2.667000
13.205100 2.452700
13.239100 2.290700
13.273000 2.219800
13.306900 2.150700
13.340800 2.082700
13.374700 2.016000
13.408700 1.950400
13.442600 1.886000
13.476500 1.674800
13.510400 1.147900
13.544300 1.146000
13.578300 1.224500
13.612200 1.420200
13.646100 1.699200
13.680000 2.035700
13.713900 2.426900
13.747900 2.946300
13.781800 3.446400
13.815700 3.799900
13.849600 4.128100
13.883500 4.470800
13.917500 4.858900
13.951400 5.153200
13.985300 5.361800
14.019200 5.654700
14.053100 4.995700
14.087100 3.671100
14.121000 3.176600
14.154900 2.840500
14.188800 2.592600
14.222700 2.339700
14.256700 2.155700
14.290600 2.165300
14.324500 2.442600
14.358400 2.932600
14.392300 4.034900
14.426300 6.210900
14.460200 5.092600
14.494100 4.954600
14.528000 4.478200
14.561900 4.017200
14.595900 4.026600
14.629800 4.127800
14.663700 3.767100
14.697600 3.266400
14.731500 2.948100
14.765500 2.864500
14.799400 2.666200
14.833300 2.341200
14.867200 2.113400
14.901100 2.058000
14.935100 2.156800
14.969000 2.312800
15.002900 2.497900
15.036800 2.724800
15.070700 2.785300
15.104600 2.635500
15.138600 2.572500
15.172500 2.557700
15.206400 2.532300
15.240300 2.592400
15.274200 2.889100
15.308200 3.512500
15.342100 4.359000
15.376000 4.988000
15.409900 3.790000
15.443800 3.856800
15.477800 4.161300
15.511700 4.224800
15.545600 4.253300
15.579500 3.970000
15.613400 3.697600
15.647400 3.541700
15.681300 3.549400
15.715200 3.514600
15.749100 3.418700
15.783000 3.263800
15.817000 3.067300
15.850900 3.001900
15.884800 3.119700
15.918700 3.481200
15.952600 3.574200
15.986600 3.926700
16.020500 4.418100
16.054400 4.889200
16.088300 4.807900
16.122200 4.396000
16.156200 4.003100
16.190100 4.302800
16.224000 6.770000
16.257900 5.903000
16.291800 5.241200
16.325800 4.699200
16.359700 4.311400
16.393600 4.026600
16.427500 3.801600
16.461400 3.623700
16.495400 3.465200
16.529300 3.294500
16.563200 3.138200
16.597100 3.013200
16.631000 2.908000
16.665000 2.821000
16.698900 2.965000
16.732800 2.957800
16.766700 2.998900
16.800600 3.103700
16.834600 4.031400
16.868500 2.798700
16.902400 3.184000
16.936300 3.691000
16.970200 3.910500
17.004200 3.918200
17.038100 3.469100
17.072000 3.960500
17.105900 4.658000
17.139800 4.530000
17.173800 4.120500
17.207700 3.785200
17.241600 3.091700
17.275500 2.656600
17.309400 2.453400
17.343400 2.298100
17.377300 2.179200
17.411200 2.091200
17.445100 2.041000
17.479000 2.079900
17.513000 2.117200
17.546900 2.285500
17.580800 2.645700
17.614700 2.886000
17.648600 3.078100
17.682600 3.213700
17.716500 3.281600
17.750400 3.338700
17.784300 8.007900
17.818200 3.672700
17.852200 3.496500
17.886100 3.442100
17.920000 3.485200
17.953900 3.269900
17.987800 3.083500
18.021800 2.914500
18.055700 2.758800
18.089600 2.624800
18.123500 2.585500
18.157400 2.556400
18.191300 2.534000
18.225300 2.519000
18.259200 2.520500
18.293100 2.540600
18.327000 2.983700
18.360900 3.444200
18.394900 3.849400
18.428800 4.196100
18.462700 3.806600
18.496600 3.624100
18.530500 3.640500
18.564500 3.749800
18.598400 3.829800
18.632300 3.807400
18.666200 3.689100
18.700100 3.600700
18.734100 3.511400
18.768000 3.374700
18.801900 3.251200
18.835800 3.030700
18.869700 3.163100
18.903700 3.279100
18.937600 3.297700
18.971500 3.268100
19.005400 3.261400
19.039300 3.303000
19.073300 3.149700
19.107200 2.798200
19.141100 2.529300
19.175000 2.343200
19.208900 2.153700
19.242900 1.960900
19.276800 1.795700
19.310700 1.831500
19.344600 1.866600
19.378500 1.909800
19.412500 1.972600
19.446400 2.028500
19.480300 2.498400
19.514200 2.821000
19.548100 2.963600
19.582100 3.018000
19.616000 3.043400
19.649900 3.057300
19.683800 3.052400
19.717700 3.344400
19.751700 3.644200
19.785600 2.916700
19.819500 1.990800
19.853400 2.044200
19.887300 2.106500
19.921300 2.155000
19.955200 2.187100
19.989100 2.304000
20.023000 2.476000
20.056900 2.640600
20.090900 2.797600
20.124800 2.947200
20.158700 3.096100
20.192600 3.248100
20.226500 3.405300
20.260500 3.480600
20.294400 3.404000
20.328300 3.308900
20.362200 3.089900
20.396100 2.874000
20.430100 2.732800
20.464000 2.636000
20.497900 2.565600
20.531800 2.522600
20.565700 2.513100
20.599700 2.552700
20.633600 2.596900
20.667500 2.640500
20.701400 2.682000
20.735300 2.700700
20.769300 2.686000
20.803200 2.649100
20.837100 2.611700
20.871000 2.576700
20.904900 2.546900
20.938900 2.518200
20.972800 2.490600
21.006700 2.467000
21.040600 2.445200
21.074500 2.422200
21.108500 2.400400
21.142400 2.382100
21.176300 2.377100
21.210200 2.394500
21.244100 2.451900
21.278100 2.519500
21.312000 2.587100
21.345900 2.657300
21.379800 2.724800
21.413700 2.789300
21.447600 2.850500
21.481600 2.921800
21.515500 2.984700
21.549400 3.037900
21.583300 3.083500
21.617200 3.120600
21.651200 3.118100
21.685100 3.123900
21.719000 3.138000
21.752900 3.148400
21.786800 3.154100
21.820800 3.154900
21.854700 3.124100
21.888600 3.045500
21.922500 2.935500
21.956400 2.798400
21.990400 2.687400
22.024300 2.570200
22.058200 2.507000
22.092100 2.468200
22.126000 2.467700
22.160000 2.455200
22.193900 2.418600
22.227800 2.373100
22.261700 2.322700
22.295600 2.268900
22.329600 2.213500
22.363500 2.153300
22.397400 2.097500
22.431300 2.090300
22.465200 2.247900
22.499200 3.126200
22.533100 2.239700
22.567000 2.252700
22.600900 2.274100
22.634800 2.307300
22.668800 2.341700
22.702700 2.381600
22.736600 2.430000
22.770500 2.548000
22.804400 2.868100
22.838400 2.847300
22.872300 2.825200
22.906200 2.803200
22.940100 2.782100
22.974000 2.897400
23.008000 2.880900
23.041900 2.805800
23.075800 2.733300
23.109700 2.663700
23.143600 2.598600
23.177600 2.532100
23.211500 2.465800
23.245400 2.399700
23.279300 2.338400
23.313200 2.287800
23.347200 2.247700
23.381100 2.246600
23.415000 2.281400
23.448900 2.351200
23.482800 2.526000
23.516800 2.740100
23.550700 2.926400
23.584600 3.011800
23.618500 3.098900
23.652400 3.362200
23.686400 3.335100
23.720300 3.280400
23.754200 3.198600
23.788100 3.096100
23.822000 2.953400
23.856000 2.765000
23.889900 2.590800
23.923800 2.408200
23.957700 2.217400
23.991600 2.040300
24.025600 1.892400
24.059500 1.773300
24.093400 1.728400
24.127300 1.726500
24.161200 1.810600
24.195200 1.914100
24.229100 2.032300
24.263000 2.149400
24.296900 2.265100
24.330800 2.378900
24.364800 2.490900
24.398700 2.628000
24.432600 2.826400
24.466500 2.923900
24.500400 2.982800
24.534400 3.172800
24.568300 3.296100
24.602200 3.533000
24.636100 4.524400
24.670000 5.021600
24.703900 4.945500
24.737900 5.757400
24.771800 5.089100
24.805700 4.398000
24.839600 3.799100
24.873500 3.315600
24.907500 3.077200
24.941400 2.944500
24.975300 2.841400
25.009200 2.761400
25.043100 2.715600
25.077100 2.764900
25.111000 2.974000
25.144900 3.030700
25.178800 3.112700
25.212700 3.196000
25.246700 3.586700
25.280600 3.642600
25.314500 3.726500
25.348400 3.740300
25.382300 3.664100
25.416300 3.542700
25.450200 3.430100
25.484100 3.384300
25.518000 3.316200
25.551900 3.219000
25.585900 3.398100
25.619800 3.503200
25.653700 3.688400
25.687600 3.807100
25.721500 3.842300
25.755500 3.796400
25.789400 3.670700
25.823300 3.630100
25.857200 3.571900
25.891100 3.601900
25.925100 3.609900
25.959000 3.641900
25.992900 3.712600
26.026800 3.815600
26.060700 3.873300
26.094700 3.876100
26.128600 3.780200
26.162500 3.563800
26.196400 3.412900
26.230300 3.299200
26.264300 3.200800
26.298200 3.140600
26.332100 3.082900
