set title 'mp-1184502 - Density of States'
set xlabel 'Energy (eV)'
set ylabel 'DOS (states/eV)'
set grid
set xrange [-10:10]
set yrange [0:134.641]
set xzeroaxis lt -1
set terminal png size 800,600
set output 'mp-1184502_dos_gnuplot.png'
plot '-' using 1:2 with lines title 'DOS'
-9.700900 0.000000
-9.679000 0.000000
-9.657000 0.000000
-9.635100 0.000000
-9.613100 0.000000
-9.591200 0.000000
-9.569200 0.000000
-9.547200 0.000000
-9.525300 0.000000
-9.503300 0.000000
-9.481400 0.000000
-9.459400 0.000000
-9.437500 0.000000
-9.415500 0.000000
-9.393600 0.000000
-9.371600 0.000000
-9.349600 0.000000
-9.327700 0.000000
-9.305700 0.000000
-9.283800 0.000000
-9.261800 0.000000
-9.239900 0.000000
-9.217900 0.000000
-9.196000 0.000000
-9.174000 0.000000
-9.152000 0.000000
-9.130100 0.000000
-9.108100 0.000000
-9.086200 0.000000
-9.064200 0.000000
-9.042300 0.000000
-9.020300 0.000000
-8.998400 0.000000
-8.976400 0.000000
-8.954400 0.000000
-8.932500 0.000000
-8.910500 0.000000
-8.888600 0.000000
-8.866600 0.000000
-8.844700 0.000000
-8.822700 0.000000
-8.800800 0.000000
-8.778800 0.000000
-8.756800 0.000000
-8.734900 0.000000
-8.712900 0.000000
-8.691000 0.000000
-8.669000 0.000000
-8.647100 0.000000
-8.625100 0.000000
-8.603100 0.000000
-8.581200 0.000000
-8.559200 0.000000
-8.537300 0.000000
-8.515300 0.000000
-8.493400 0.000000
-8.471400 0.000000
-8.449500 0.000000
-8.427500 0.000000
-8.405500 0.000000
-8.383600 0.000000
-8.361600 0.000000
-8.339700 0.000000
-8.317700 0.000000
-8.295800 0.000000
-8.273800 0.000000
-8.251900 0.000000
-8.229900 0.000000
-8.207900 0.000000
-8.186000 0.000000
-8.164000 0.000000
-8.142100 0.000000
-8.120100 0.000000
-8.098200 0.000000
-8.076200 0.000000
-8.054300 0.000000
-8.032300 0.000000
-8.010300 0.000000
-7.988400 0.000000
-7.966400 0.000000
-7.944500 0.000000
-7.922500 0.000000
-7.900600 0.000000
-7.878600 0.000000
-7.856700 0.000000
-7.834700 0.000000
-7.812700 0.000000
-7.790800 0.000000
-7.768800 0.000000
-7.746900 0.000000
-7.724900 0.000000
-7.703000 1.081700
-7.681000 7.874800
-7.659000 11.621000
-7.637100 17.344000
-7.615100 29.343000
-7.593200 64.433200
-7.571200 78.511000
-7.549300 86.070100
-7.527300 72.446000
-7.505400 61.378600
-7.483400 98.116700
-7.461400 61.983100
-7.439500 72.774300
-7.417500 24.117300
-7.395600 63.954900
-7.373600 58.125200
-7.351700 62.970800
-7.329700 89.434200
-7.307800 62.532500
-7.285800 72.980400
-7.263800 94.220500
-7.241900 122.401300
-7.219900 68.899900
-7.198000 16.168300
-7.176000 0.000000
-7.154100 0.000000
-7.132100 0.000000
-7.110200 0.000000
-7.088200 0.000000
-7.066200 0.000000
-7.044300 0.000000
-7.022300 0.000000
-7.000400 0.000000
-6.978400 0.000000
-6.956500 0.000000
-6.934500 0.000000
-6.912600 0.000000
-6.890600 0.000000
-6.868600 0.000000
-6.846700 0.000000
-6.824700 0.000000
-6.802800 0.000000
-6.780800 0.000000
-6.758900 0.000000
-6.736900 0.000000
-6.714900 0.000000
-6.693000 0.000000
-6.671000 0.000000
-6.649100 0.000000
-6.627100 0.000000
-6.605200 0.000000
-6.583200 0.000000
-6.561300 0.000000
-6.539300 0.000000
-6.517300 0.000000
-6.495400 0.000000
-6.473400 0.000000
-6.451500 0.000000
-6.429500 0.000000
-6.407600 0.000000
-6.385600 0.000000
-6.363700 0.000000
-6.341700 0.000000
-6.319700 0.000000
-6.297800 0.000000
-6.275800 0.000000
-6.253900 0.000000
-6.231900 0.000000
-6.210000 0.000000
-6.188000 0.000000
-6.166100 0.000000
-6.144100 0.000000
-6.122100 0.000000
-6.100200 0.000000
-6.078200 0.000000
-6.056300 0.000000
-6.034300 0.000000
-6.012400 0.000000
-5.990400 0.000000
-5.968500 0.000000
-5.946500 0.000000
-5.924500 0.000000
-5.902600 0.000000
-5.880600 0.000000
-5.858700 0.000000
-5.836700 0.000000
-5.814800 0.000000
-5.792800 0.000000
-5.770800 0.000000
-5.748900 0.000000
-5.726900 0.000000
-5.705000 0.000000
-5.683000 0.000000
-5.661100 0.000000
-5.639100 0.000000
-5.617200 0.000000
-5.595200 0.000000
-5.573200 0.000000
-5.551300 0.000000
-5.529300 0.000000
-5.507400 0.000000
-5.485400 0.000000
-5.463500 0.000000
-5.441500 0.000000
-5.419600 0.000000
-5.397600 0.000000
-5.375600 0.000000
-5.353700 0.000000
-5.331700 0.000000
-5.309800 0.000000
-5.287800 0.000000
-5.265900 0.000000
-5.243900 0.000000
-5.222000 0.000000
-5.200000 0.000000
-5.178000 0.000000
-5.156100 0.000000
-5.134100 0.000000
-5.112200 0.000000
-5.090200 0.000000
-5.068300 0.000000
-5.046300 0.000000
-5.024400 0.000000
-5.002400 0.000000
-4.980400 0.000000
-4.958500 0.000000
-4.936500 0.000000
-4.914600 0.000000
-4.892600 0.000000
-4.870700 0.000000
-4.848700 0.000000
-4.826700 0.000000
-4.804800 0.000000
-4.782800 0.000000
-4.760900 0.000000
-4.738900 0.000000
-4.717000 0.000000
-4.695000 0.000000
-4.673100 0.000000
-4.651100 0.000000
-4.629100 0.000000
-4.607200 0.000000
-4.585200 0.000000
-4.563300 0.000000
-4.541300 0.000000
-4.519400 0.000000
-4.497400 0.000000
-4.475500 0.000000
-4.453500 0.000000
-4.431500 0.000000
-4.409600 0.000000
-4.387600 0.000000
-4.365700 0.000000
-4.343700 0.000000
-4.321800 0.000000
-4.299800 0.000000
-4.277900 0.000000
-4.255900 0.000000
-4.233900 0.000000
-4.212000 0.000000
-4.190000 0.000000
-4.168100 0.000000
-4.146100 0.000000
-4.124200 0.000000
-4.102200 0.000000
-4.080300 0.000000
-4.058300 0.000000
-4.036300 0.000000
-4.014400 0.000000
-3.992400 0.000000
-3.970500 0.000000
-3.948500 0.000000
-3.926600 0.000000
-3.904600 0.000000
-3.882600 0.000000
-3.860700 0.000000
-3.838700 0.000000
-3.816800 0.000000
-3.794800 0.000000
-3.772900 0.000000
-3.750900 0.000000
-3.729000 0.000000
-3.707000 0.000000
-3.685000 0.000000
-3.663100 0.000000
-3.641100 0.000000
-3.619200 0.000000
-3.597200 0.000000
-3.575300 0.000000
-3.553300 0.000000
-3.531400 0.000000
-3.509400 0.000000
-3.487400 0.000000
-3.465500 0.000000
-3.443500 0.000000
-3.421600 0.000000
-3.399600 0.000000
-3.377700 0.000000
-3.355700 0.000000
-3.333800 0.000000
-3.311800 0.000000
-3.289800 0.000000
-3.267900 0.000000
-3.245900 0.000000
-3.224000 0.000000
-3.202000 0.000000
-3.180100 0.000000
-3.158100 0.000000
-3.136200 0.000000
-3.114200 0.000000
-3.092200 0.000000
-3.070300 0.000000
-3.048300 0.000000
-3.026400 0.000000
-3.004400 0.000000
-2.982500 0.000000
-2.960500 0.000000
-2.938500 0.000000
-2.916600 0.000000
-2.894600 0.000000
-2.872700 0.000000
-2.850700 0.000000
-2.828800 0.000000
-2.806800 0.000000
-2.784900 0.000000
-2.762900 0.000000
-2.740900 0.000000
-2.719000 0.000000
-2.697000 0.000000
-2.675100 0.000000
-2.653100 0.000000
-2.631200 0.000000
-2.609200 0.000000
-2.587300 0.000000
-2.565300 0.000000
-2.543300 0.000000
-2.521400 0.000000
-2.499400 0.000000
-2.477500 0.000000
-2.455500 0.000000
-2.433600 0.000000
-2.411600 0.000000
-2.389700 0.000000
-2.367700 0.000000
-2.345700 0.000000
-2.323800 0.000000
-2.301800 0.000000
-2.279900 0.000000
-2.257900 0.000000
-2.236000 0.000000
-2.214000 0.000000
-2.192100 0.000000
-2.170100 0.000000
-2.148100 0.002300
-2.126200 0.018600
-2.104200 0.041700
-2.082300 0.070800
-2.060300 0.104100
-2.038400 0.140700
-2.016400 0.180300
-1.994400 0.204700
-1.972500 0.196600
-1.950500 0.201000
-1.928600 0.211000
-1.906600 0.220500
-1.884700 0.229900
-1.862700 0.241300
-1.840800 0.253200
-1.818800 0.264400
-1.796800 0.274900
-1.774900 0.285300
-1.752900 0.296400
-1.731000 0.308200
-1.709000 0.320200
-1.687100 0.334000
-1.665100 0.348600
-1.643200 0.359100
-1.621200 0.367300
-1.599200 0.373500
-1.577300 0.377400
-1.555300 0.378200
-1.533400 0.375800
-1.511400 0.370200
-1.489500 0.362900
-1.467500 0.370100
-1.445600 0.388200
-1.423600 0.402200
-1.401600 0.412000
-1.379700 0.417800
-1.357700 0.423100
-1.335800 0.428700
-1.313800 0.434700
-1.291900 0.441000
-1.269900 0.447500
-1.248000 0.454400
-1.226000 0.460600
-1.204000 0.466200
-1.182100 0.471300
-1.160100 0.476800
-1.138200 0.482600
-1.116200 0.488600
-1.094300 0.494800
-1.072300 0.501500
-1.050300 0.508700
-1.028400 0.516400
-1.006400 0.519200
-0.984500 0.523600
-0.962500 0.527700
-0.940600 0.531500
-0.918600 0.535400
-0.896700 0.539500
-0.874700 0.543700
-0.852700 0.547800
-0.830800 0.551900
-0.808800 0.555900
-0.786900 0.559800
-0.764900 0.563800
-0.743000 0.567800
-0.721000 0.571800
-0.699100 0.575800
-0.677100 0.579900
-0.655100 0.584100
-0.633200 0.588100
-0.611200 0.592100
-0.589300 0.596200
-0.567300 0.600300
-0.545400 0.604300
-0.523400 0.608200
-0.501500 0.612100
-0.479500 0.617000
-0.457500 0.622000
-0.435600 0.627100
-0.413600 0.632300
-0.391700 0.637100
-0.369700 0.641700
-0.347800 0.646300
-0.325800 0.650900
-0.303800 0.655400
-0.281900 0.659800
-0.259900 0.664200
-0.238000 0.668700
-0.216000 0.673500
-0.194100 0.678300
-0.172100 0.682400
-0.150200 0.686300
-0.128200 0.689800
-0.106200 0.693100
-0.084300 0.696300
-0.062300 0.699300
-0.040400 0.702200
-0.018400 0.705200
0.003500 0.708500
0.025500 0.712400
0.047400 0.720200
0.069400 0.732800
0.091400 0.750300
0.113300 0.763600
0.135300 0.745800
0.157200 0.721500
0.179200 0.722900
0.201100 0.724700
0.223100 0.726800
0.245000 0.729400
0.267000 0.732400
0.289000 0.735500
0.310900 0.739000
0.332900 0.743100
0.354800 0.747600
0.376800 0.752600
0.398700 0.758100
0.420700 0.764200
0.442600 0.772500
0.464600 0.781100
0.486600 0.788500
0.508500 0.794400
0.530500 0.798400
0.552400 0.800600
0.574400 0.801000
0.596300 0.801300
0.618300 0.803400
0.640300 0.807100
0.662200 0.811300
0.684200 0.815400
0.706100 0.819500
0.728100 0.823600
0.750000 0.827600
0.772000 0.831600
0.793900 0.835500
0.815900 0.839500
0.837900 0.843400
0.859800 0.847200
0.881800 0.851000
0.903700 0.854800
0.925700 0.858500
0.947600 0.861500
0.969600 0.864000
0.991500 0.866800
1.013500 0.869600
1.035500 0.872100
1.057400 0.874300
1.079400 0.876200
1.101300 0.877800
1.123300 0.879700
1.145200 0.883200
1.167200 0.886700
1.189100 0.890200
1.211100 0.893800
1.233100 0.897300
1.255000 0.900800
1.277000 0.904300
1.298900 0.908100
1.320900 0.911900
1.342800 0.915900
1.364800 0.919900
1.386700 0.924000
1.408700 0.928300
1.430700 0.932600
1.452600 0.936800
1.474600 0.941000
1.496500 0.945300
1.518500 0.949500
1.540400 0.953600
1.562400 0.957700
1.584400 0.961800
1.606300 0.966100
1.628300 0.970500
1.650200 0.975000
1.672200 0.979500
1.694100 0.984100
1.716100 0.988800
1.738000 0.993700
1.760000 0.998900
1.782000 1.004100
1.803900 1.009300
1.825900 1.014500
1.847800 1.019700
1.869800 1.024900
1.891700 1.030300
1.913700 1.035800
1.935600 1.044400
1.957600 1.056100
1.979600 1.075000
2.001500 1.090900
2.023500 1.103600
2.045400 1.113500
2.067400 1.122800
2.089300 1.132000
2.111300 1.141000
2.133200 1.152100
2.155200 1.161900
2.177200 1.170300
2.199100 1.177300
2.221100 1.182900
2.243000 1.187200
2.265000 1.190400
2.286900 1.192900
2.308900 1.194700
2.330800 1.196500
2.352800 1.198500
2.374800 1.200600
2.396700 1.209500
2.418700 1.232900
2.440600 1.278900
2.462600 1.318800
2.484500 1.343000
2.506500 1.351900
2.528500 1.352200
2.550400 1.347000
2.572400 1.336500
2.594300 1.327500
2.616300 1.325200
2.638200 1.315800
2.660200 1.299400
2.682100 1.276200
2.704100 1.258600
2.726100 1.244800
2.748000 1.231800
2.770000 1.207700
2.791900 1.185500
2.813900 1.165000
2.835800 1.139000
2.857800 1.108200
2.879700 1.083300
2.901700 1.081200
2.923700 1.085300
2.945600 1.091500
2.967600 1.093100
2.989500 1.093700
3.011500 1.094600
3.033400 1.095600
3.055400 1.096700
3.077300 1.098200
3.099300 1.099600
3.121300 1.101100
3.143200 1.103400
3.165200 1.107200
3.187100 1.120200
3.209100 1.143700
3.231000 1.163400
3.253000 1.177900
3.274900 1.187600
3.296900 1.193100
3.318900 1.191000
3.340800 1.185200
3.362800 1.180100
3.384700 1.173400
3.406700 1.155000
3.428600 1.122800
3.450600 1.084000
3.472600 1.050400
3.494500 1.024900
3.516500 1.002800
3.538400 0.982500
3.560400 0.964000
3.582300 0.967300
3.604300 1.018500
3.626200 1.032000
3.648200 1.021500
3.670200 0.998400
3.692100 0.952500
3.714100 0.908400
3.736000 0.891600
3.758000 0.900900
3.779900 0.927800
3.801900 0.970400
3.823800 1.024000
3.845800 1.090000
3.867800 1.159000
3.889700 1.243800
3.911700 1.300800
3.933600 1.339500
3.955600 1.361800
3.977500 1.357600
3.999500 1.335900
4.021400 1.320200
4.043400 1.312000
4.065400 1.314400
4.087300 1.332500
4.109300 1.363100
4.131200 1.442500
4.153200 1.458600
4.175100 1.401000
4.197100 1.336200
4.219000 1.329700
4.241000 1.268200
4.263000 1.230600
4.284900 1.153800
4.306900 1.038200
4.328800 1.019200
4.350800 1.022300
4.372700 1.048000
4.394700 1.087200
4.416700 1.149100
4.438600 1.213900
4.460600 1.311300
4.482500 1.412600
4.504500 1.462900
4.526400 1.417200
4.548400 1.349200
4.570300 1.318200
4.592300 1.279600
4.614300 1.232400
4.636200 1.182700
4.658200 1.141400
4.680100 1.104400
4.702100 1.066700
4.724000 1.033300
4.746000 1.013900
4.767900 0.989500
4.789900 0.962200
4.811900 0.931400
4.833800 0.892600
4.855800 0.853500
4.877700 0.819100
4.899700 0.790300
4.921600 0.768900
4.943600 0.754000
4.965500 0.743800
4.987500 0.737900
5.009500 0.736300
5.031400 0.739600
5.053400 0.751000
5.075300 0.783600
5.097300 0.820300
5.119200 0.832700
5.141200 0.813600
5.163100 0.787900
5.185100 0.763000
5.207100 0.751700
5.229000 0.752200
5.251000 0.749400
5.272900 0.749700
5.294900 0.757500
5.316800 0.771800
5.338800 0.788400
5.360800 0.807000
5.382700 0.827000
5.404700 0.846700
5.426600 0.884700
5.448600 0.943300
5.470500 0.975100
5.492500 0.996500
5.514400 1.011600
5.536400 1.031600
5.558400 1.069300
5.580300 1.109300
5.602300 1.151400
5.624200 1.196400
5.646200 1.244800
5.668100 1.294900
5.690100 1.338400
5.712000 1.367900
5.734000 1.387800
5.756000 1.401900
5.777900 1.413900
5.799900 1.429800
5.821800 1.445800
5.843800 1.462900
5.865700 1.483900
5.887700 1.520600
5.909600 1.536200
5.931600 1.548200
5.953600 1.554800
5.975500 1.555800
5.997500 1.550400
6.019400 1.554100
6.041400 1.569200
6.063300 1.592300
6.085300 1.636800
6.107200 1.686600
6.129200 1.742900
6.151200 1.805600
6.173100 1.826900
6.195100 1.845000
6.217000 1.899200
6.239000 1.934800
6.260900 1.868500
6.282900 1.812700
6.304900 1.757400
6.326800 1.710400
6.348800 1.657000
6.370700 1.620900
6.392700 1.594600
6.414600 1.575300
6.436600 1.557400
6.458500 1.555400
6.480500 1.570300
6.502500 1.586900
6.524400 1.570600
6.546400 1.520500
6.568300 1.347000
6.590300 1.235600
6.612200 1.177300
6.634200 1.128500
6.656100 1.102200
6.678100 1.095700
6.700100 1.092200
6.722000 1.102100
6.744000 1.138400
6.765900 1.199500
6.787900 1.273600
6.809800 1.338800
6.831800 1.576800
6.853700 1.611700
6.875700 1.551300
6.897700 1.481400
6.919600 1.423200
6.941600 1.427600
6.963500 1.480300
6.985500 1.458000
7.007400 1.457900
7.029400 1.468200
7.051300 1.484400
7.073300 1.505900
7.095300 1.530900
7.117200 1.558800
7.139200 1.570500
7.161100 1.577300
7.183100 1.584600
7.205000 1.592900
7.227000 1.603500
7.249000 1.608600
7.270900 1.625000
7.292900 1.610000
7.314800 1.529100
7.336800 1.496800
7.358700 1.478700
7.380700 1.464500
7.402600 1.449300
7.424600 1.434200
7.446600 1.419400
7.468500 1.404600
7.490500 1.389700
7.512400 1.375200
7.534400 1.361400
7.556300 1.351600
7.578300 1.347700
7.600200 1.347200
7.622200 1.344200
7.644200 1.338900
7.666100 1.306200
7.688100 1.311000
7.710000 1.304600
7.732000 1.276600
7.753900 1.262300
7.775900 1.257600
7.797800 1.252600
7.819800 1.246700
7.841800 1.239600
7.863700 1.235200
7.885700 1.232000
7.907600 1.232800
7.929600 1.235600
7.951500 1.243200
7.973500 1.257800
7.995400 1.278700
8.017400 1.302300
8.039400 1.329700
8.061300 1.359500
8.083300 1.391600
8.105200 1.426400
8.127200 1.465900
8.149100 1.515400
8.171100 1.601400
8.193100 1.705000
8.215000 1.769300
8.237000 1.794100
8.258900 1.836300
8.280900 1.876100
8.302800 1.890200
8.324800 1.877400
8.346700 1.838700
8.368700 1.796100
8.390700 1.783900
8.412600 1.781800
8.434600 1.784200
8.456500 1.784400
8.478500 1.779100
8.500400 1.773400
8.522400 1.770300
8.544300 1.772900
8.566300 1.774300
8.588300 1.776400
8.610200 1.779800
8.632200 1.779800
8.654100 1.776300
8.676100 1.772800
8.698000 1.765300
8.720000 1.756800
8.741900 1.749300
8.763900 1.742800
8.785900 1.736300
8.807800 1.730300
8.829800 1.727600
8.851700 1.734700
8.873700 1.751400
8.895600 1.779800
8.917600 1.789900
8.939500 1.770600
8.961500 1.725600
8.983500 1.679700
9.005400 1.638900
9.027400 1.608300
9.049300 1.583100
9.071300 1.563000
9.093200 1.549200
9.115200 1.543000
9.137200 1.543100
9.159100 1.537500
9.181100 1.503000
9.203000 1.476300
9.225000 1.457800
9.246900 1.447900
9.268900 1.446700
9.290800 1.451600
9.312800 1.457200
9.334800 1.464900
9.356700 1.472100
9.378700 1.478400
9.400600 1.484100
9.422600 1.490600
9.444500 1.501900
9.466500 1.515500
9.488400 1.531000
9.510400 1.547300
9.532400 1.560400
9.554300 1.569300
9.576300 1.585300
9.598200 1.616300
9.620200 1.659900
9.642100 1.689800
9.664100 1.699900
9.686000 1.709200
9.708000 1.719100
9.730000 1.733400
9.751900 1.754100
9.773900 1.773400
9.795800 1.782100
9.817800 1.783100
9.839700 1.779200
9.861700 1.766200
9.883600 1.744500
9.905600 1.714200
9.927600 1.682000
9.949500 1.674800
9.971500 1.658700
9.993400 1.662300
10.015400 1.671400
10.037300 1.685300
10.059300 1.699800
10.081300 1.711100
10.103200 1.721600
10.125200 1.731800
10.147100 1.740600
10.169100 1.750900
10.191000 1.762700
10.213000 1.776300
10.234900 1.790900
10.256900 1.807800
10.278900 1.826700
10.300800 1.844100
10.322800 1.856300
10.344700 1.870200
10.366700 1.886100
10.388600 1.899900
10.410600 1.907700
10.432500 1.907700
10.454500 1.898700
10.476500 1.884100
10.498400 1.869800
10.520400 1.879100
10.542300 1.877400
10.564300 1.880200
10.586200 1.881500
10.608200 1.877100
10.630100 1.864700
10.652100 1.845900
10.674100 1.829300
10.696000 1.817500
10.718000 1.805200
10.739900 1.794000
10.761900 1.785700
10.783800 1.780500
10.805800 1.777600
10.827700 1.793800
10.849700 1.813100
10.871700 1.812600
10.893600 1.845800
10.915600 1.811400
10.937500 1.786900
10.959500 1.769400
10.981400 1.756600
11.003400 1.747800
11.025400 1.742800
11.047300 1.742100
11.069300 1.744800
11.091200 1.750300
11.113200 1.756800
11.135100 1.759100
11.157100 1.756000
11.179000 1.750200
11.201000 1.749400
11.223000 1.753300
11.244900 1.757900
11.266900 1.760600
11.288800 1.761900
11.310800 1.763300
11.332700 1.812800
11.354700 1.848200
11.376600 1.888800
11.398600 1.922900
11.420600 1.950500
11.442500 1.973600
11.464500 1.980900
11.486400 1.987400
11.508400 2.000000
11.530300 2.018000
11.552300 2.041800
11.574200 2.073600
11.596200 2.111500
11.618200 2.153900
11.640100 2.201400
11.662100 2.254700
11.684000 2.310900
11.706000 2.361600
11.727900 2.392000
11.749900 2.402900
11.771800 2.409000
11.793800 2.407700
11.815800 2.404100
11.837700 2.398800
11.859700 2.391900
11.881600 2.386100
11.903600 2.375800
11.925500 2.349100
11.947500 2.281700
11.969500 2.249400
11.991400 2.208600
12.013400 2.170400
12.035300 2.134900
12.057300 2.104100
12.079200 2.087800
12.101200 2.090600
12.123100 2.084000
12.145100 2.064900
12.167100 2.034300
12.189000 2.033400
12.211000 2.033900
12.232900 2.037200
12.254900 2.039700
12.276800 2.043000
12.298800 2.047800
12.320700 2.055800
12.342700 2.068200
12.364700 2.073000
12.386600 2.095400
12.408600 2.133200
12.430500 2.131300
12.452500 2.131100
12.474400 2.130700
12.496400 2.128300
12.518300 2.134200
12.540300 2.137700
12.562300 2.137000
12.584200 2.131300
12.606200 2.129000
12.628100 2.153100
12.650100 2.160800
12.672000 2.152700
12.694000 2.128300
12.715900 2.105700
12.737900 2.084300
12.759900 2.064900
12.781800 2.048100
12.803800 2.032600
12.825700 2.019100
12.847700 2.007100
12.869600 2.002400
12.891600 1.996800
12.913600 1.987000
12.935500 1.969800
12.957500 1.946900
12.979400 1.932800
13.001400 1.919300
13.023300 1.903400
13.045300 1.892900
13.067200 1.882800
13.089200 1.872200
13.111200 1.862400
13.133100 1.855500
13.155100 1.851700
13.177000 1.850400
13.199000 1.850200
13.220900 1.850500
13.242900 1.852000
13.264800 1.854900
13.286800 1.856200
13.308800 1.856800
13.330700 1.859000
13.352700 1.862700
13.374600 1.867800
13.396600 1.872800
13.418500 1.877500
13.440500 1.881400
13.462400 1.883800
13.484400 1.880500
13.506400 1.940900
13.528300 1.917000
13.550300 1.876000
