set title 'mp-971934 - Density of States'
set xlabel 'Energy (eV)'
set ylabel 'DOS (states/eV)'
set grid
set xrange [-10:10]
set yrange [0:69.920]
set xzeroaxis lt -1
set terminal png size 800,600
set output 'mp-971934_dos_gnuplot.png'
plot '-' using 1:2 with lines title 'DOS'
-12.176400 0.000000
-12.153800 0.000000
-12.131100 0.000000
-12.108400 0.000000
-12.085700 0.000000
-12.063000 0.000000
-12.040400 0.000000
-12.017700 0.000000
-11.995000 0.000000
-11.972300 0.000000
-11.949700 0.000000
-11.927000 0.000000
-11.904300 0.000000
-11.881600 0.000000
-11.858900 0.000000
-11.836300 0.000000
-11.813600 0.000000
-11.790900 0.000000
-11.768200 0.000000
-11.745600 0.000000
-11.722900 0.000000
-11.700200 0.000000
-11.677500 0.000000
-11.654800 0.000000
-11.632200 0.000000
-11.609500 0.000000
-11.586800 0.000000
-11.564100 0.000000
-11.541500 0.000000
-11.518800 0.000000
-11.496100 0.000000
-11.473400 0.000000
-11.450800 0.000000
-11.428100 0.000000
-11.405400 0.000000
-11.382700 0.000000
-11.360000 0.000000
-11.337400 0.000000
-11.314700 0.000000
-11.292000 0.000000
-11.269300 0.000000
-11.246700 0.000000
-11.224000 0.000000
-11.201300 0.000000
-11.178600 0.000000
-11.155900 0.000000
-11.133300 0.000000
-11.110600 0.000000
-11.087900 0.000000
-11.065200 0.000000
-11.042600 0.000000
-11.019900 0.000000
-10.997200 0.000000
-10.974500 0.000000
-10.951800 0.000000
-10.929200 0.000000
-10.906500 0.000000
-10.883800 0.000000
-10.861100 0.000000
-10.838500 0.000000
-10.815800 0.000000
-10.793100 0.000000
-10.770400 0.000000
-10.747700 0.000000
-10.725100 0.000000
-10.702400 0.000000
-10.679700 0.000000
-10.657000 0.000000
-10.634400 0.000000
-10.611700 0.000000
-10.589000 0.000000
-10.566300 0.000000
-10.543600 0.000000
-10.521000 0.000000
-10.498300 0.000000
-10.475600 0.000000
-10.452900 0.000000
-10.430300 0.000000
-10.407600 0.000000
-10.384900 0.000000
-10.362200 0.000000
-10.339600 0.000000
-10.316900 0.000000
-10.294200 0.000000
-10.271500 0.000000
-10.248800 0.000000
-10.226200 0.000000
-10.203500 0.000000
-10.180800 0.000000
-10.158100 0.000000
-10.135500 0.000000
-10.112800 10.118700
-10.090100 99.516500
-10.067400 155.124600
-10.044700 60.562700
-10.022100 16.716200
-9.999400 0.000000
-9.976700 0.000000
-9.954000 0.000000
-9.931400 0.000000
-9.908700 0.000000
-9.886000 0.000000
-9.863300 0.000000
-9.840600 0.000000
-9.818000 0.000000
-9.795300 0.000000
-9.772600 0.000000
-9.749900 0.000000
-9.727300 0.000000
-9.704600 0.000000
-9.681900 0.000000
-9.659200 0.000000
-9.636500 0.000000
-9.613900 0.000000
-9.591200 0.000000
-9.568500 0.000000
-9.545800 0.000000
-9.523200 0.000000
-9.500500 0.000000
-9.477800 0.000000
-9.455100 0.000000
-9.432400 0.000000
-9.409800 0.000000
-9.387100 0.000000
-9.364400 0.000000
-9.341700 0.000000
-9.319100 0.000000
-9.296400 0.000000
-9.273700 0.000000
-9.251000 0.000000
-9.228400 0.000000
-9.205700 0.000000
-9.183000 0.000000
-9.160300 0.000000
-9.137600 0.000000
-9.115000 0.000000
-9.092300 0.000000
-9.069600 0.000000
-9.046900 0.000000
-9.024300 0.000000
-9.001600 0.000000
-8.978900 0.000000
-8.956200 0.000000
-8.933500 0.000000
-8.910900 0.000000
-8.888200 0.000000
-8.865500 0.000000
-8.842800 0.000000
-8.820200 0.000000
-8.797500 0.000000
-8.774800 0.000000
-8.752100 0.000000
-8.729400 0.000000
-8.706800 0.000000
-8.684100 0.000000
-8.661400 0.000000
-8.638700 0.000000
-8.616100 0.000000
-8.593400 0.000000
-8.570700 0.000000
-8.548000 0.000000
-8.525300 0.000000
-8.502700 0.000000
-8.480000 0.000000
-8.457300 0.000000
-8.434600 0.000000
-8.412000 0.000000
-8.389300 0.000000
-8.366600 0.000000
-8.343900 0.000000
-8.321200 0.000000
-8.298600 0.000000
-8.275900 0.000000
-8.253200 0.000000
-8.230500 0.000000
-8.207900 0.000000
-8.185200 0.000000
-8.162500 0.000000
-8.139800 0.000000
-8.117200 0.000000
-8.094500 0.000000
-8.071800 0.000000
-8.049100 0.000000
-8.026400 0.000000
-8.003800 0.000000
-7.981100 0.000000
-7.958400 0.000000
-7.935700 0.000000
-7.913100 0.000000
-7.890400 0.000000
-7.867700 0.000000
-7.845000 0.000000
-7.822300 0.000000
-7.799700 0.000000
-7.777000 0.000000
-7.754300 0.000000
-7.731600 0.000000
-7.709000 0.000000
-7.686300 0.000000
-7.663600 0.000000
-7.640900 0.000000
-7.618200 0.000000
-7.595600 0.000000
-7.572900 0.000000
-7.550200 0.000000
-7.527500 0.000000
-7.504900 0.000000
-7.482200 0.000000
-7.459500 0.000000
-7.436800 0.000000
-7.414100 0.000000
-7.391500 0.000000
-7.368800 0.000000
-7.346100 0.000000
-7.323400 0.000000
-7.300800 0.000000
-7.278100 0.000000
-7.255400 0.000000
-7.232700 0.000000
-7.210000 0.000000
-7.187400 0.000000
-7.164700 0.000000
-7.142000 0.000000
-7.119300 0.000000
-7.096700 0.000000
-7.074000 0.000000
-7.051300 0.000000
-7.028600 0.000000
-7.005900 0.000000
-6.983300 0.000000
-6.960600 0.000000
-6.937900 0.000000
-6.915200 0.000000
-6.892600 0.000000
-6.869900 0.000000
-6.847200 0.000000
-6.824500 0.000000
-6.801900 0.000000
-6.779200 0.000000
-6.756500 0.000000
-6.733800 0.000000
-6.711100 0.000000
-6.688500 0.000000
-6.665800 0.000000
-6.643100 0.000000
-6.620400 0.000000
-6.597800 0.000000
-6.575100 0.000000
-6.552400 0.000000
-6.529700 0.000000
-6.507000 0.000000
-6.484400 0.000000
-6.461700 0.000000
-6.439000 0.000000
-6.416300 0.000000
-6.393700 0.000000
-6.371000 0.000000
-6.348300 0.000000
-6.325600 0.000000
-6.302900 0.000000
-6.280300 0.000000
-6.257600 0.000000
-6.234900 0.000000
-6.212200 0.000000
-6.189600 0.000000
-6.166900 0.000000
-6.144200 0.000000
-6.121500 0.000000
-6.098800 0.000000
-6.076200 0.000000
-6.053500 0.000000
-6.030800 0.000000
-6.008100 0.000000
-5.985500 0.000000
-5.962800 0.000000
-5.940100 0.000000
-5.917400 0.000000
-5.894700 0.000000
-5.872100 0.000000
-5.849400 0.000000
-5.826700 0.000000
-5.804000 0.000000
-5.781400 0.000000
-5.758700 0.000000
-5.736000 0.000000
-5.713300 0.000000
-5.690700 0.000000
-5.668000 0.000000
-5.645300 0.000000
-5.622600 0.000000
-5.599900 0.000000
-5.577300 0.000000
-5.554600 0.000000
-5.531900 0.000000
-5.509200 0.000000
-5.486600 0.000000
-5.463900 0.000000
-5.441200 0.000000
-5.418500 0.000000
-5.395800 0.000000
-5.373200 0.000900
-5.350500 0.015200
-5.327800 0.046800
-5.305100 0.095600
-5.282500 0.141500
-5.259800 0.143300
-5.237100 0.151600
-5.214400 0.164300
-5.191700 0.179100
-5.169100 0.195800
-5.146400 0.212000
-5.123700 0.223200
-5.101000 0.238600
-5.078400 0.253800
-5.055700 0.265100
-5.033000 0.271900
-5.010300 0.274300
-4.987600 0.284400
-4.965000 0.294600
-4.942300 0.305000
-4.919600 0.315400
-4.896900 0.325000
-4.874300 0.333600
-4.851600 0.341300
-4.828900 0.348400
-4.806200 0.356800
-4.783500 0.366200
-4.760900 0.376400
-4.738200 0.387400
-4.715500 0.398900
-4.692800 0.406600
-4.670200 0.414400
-4.647500 0.422300
-4.624800 0.430100
-4.602100 0.437900
-4.579500 0.445700
-4.556800 0.453400
-4.534100 0.461100
-4.511400 0.469200
-4.488700 0.477400
-4.466100 0.485700
-4.443400 0.495700
-4.420700 0.505300
-4.398000 0.515100
-4.375400 0.525300
-4.352700 0.535900
-4.330000 0.546800
-4.307300 0.558200
-4.284600 0.569700
-4.262000 0.581500
-4.239300 0.593300
-4.216600 0.604900
-4.193900 0.616000
-4.171300 0.627200
-4.148600 0.640800
-4.125900 0.655900
-4.103200 0.672100
-4.080500 0.689400
-4.057900 0.708100
-4.035200 0.727600
-4.012500 0.748400
-3.989800 0.770500
-3.967200 0.793700
-3.944500 0.817900
-3.921800 0.843000
-3.899100 0.869100
-3.876400 0.898000
-3.853800 0.928800
-3.831100 0.961300
-3.808400 0.995600
-3.785700 1.032300
-3.763100 1.076600
-3.740400 1.145600
-3.717700 1.243200
-3.695000 1.350200
-3.672300 1.464400
-3.649700 1.627700
-3.627000 1.732200
-3.604300 1.855900
-3.581600 1.991100
-3.559000 2.175100
-3.536300 2.454100
-3.513600 3.112800
-3.490900 4.522000
-3.468200 13.407700
-3.445600 5.757000
-3.422900 4.271900
-3.400200 2.829500
-3.377500 2.237000
-3.354900 1.605000
-3.332200 0.000000
-3.309500 0.016800
-3.286800 1.191300
-3.264200 1.525300
-3.241500 2.482600
-3.218800 5.682100
-3.196100 7.458500
-3.173400 11.167200
-3.150800 14.959800
-3.128100 16.341700
-3.105400 33.228700
-3.082700 25.985600
-3.060100 54.488600
-3.037400 51.877200
-3.014700 53.074500
-2.992000 43.922100
-2.969300 40.479000
-2.946700 35.895900
-2.924000 24.368500
-2.901300 22.608400
-2.878600 31.584000
-2.856000 31.273000
-2.833300 30.322200
-2.810600 40.303600
-2.787900 40.553000
-2.765200 36.224100
-2.742600 40.049200
-2.719900 37.543400
-2.697200 54.081400
-2.674500 43.057400
-2.651900 63.563200
-2.629200 36.664600
-2.606500 39.895900
-2.583800 51.670800
-2.561100 47.705700
-2.538500 40.046200
-2.515800 35.379200
-2.493100 25.001600
-2.470400 37.585100
-2.447800 35.372400
-2.425100 18.738900
-2.402400 8.686400
-2.379700 2.922700
-2.357000 2.066700
-2.334400 1.887900
-2.311700 1.817900
-2.289000 1.764600
-2.266300 1.720600
-2.243700 1.679900
-2.221000 1.631300
-2.198300 1.586800
-2.175600 1.553800
-2.153000 1.464700
-2.130300 1.377100
-2.107600 1.285000
-2.084900 1.213500
-2.062200 1.163100
-2.039600 1.115100
-2.016900 1.071300
-1.994200 1.032200
-1.971500 0.998100
-1.948900 0.964000
-1.926200 0.951900
-1.903500 0.901200
-1.880800 0.860700
-1.858100 0.844200
-1.835500 0.826500
-1.812800 0.806700
-1.790100 0.784800
-1.767400 0.756700
-1.744800 0.726600
-1.722100 0.700000
-1.699400 0.689900
-1.676700 0.681400
-1.654000 0.675700
-1.631400 0.678400
-1.608700 0.689700
-1.586000 0.711100
-1.563300 0.742700
-1.540700 0.779900
-1.518000 0.776500
-1.495300 0.775300
-1.472600 0.781300
-1.449900 0.807100
-1.427300 0.825900
-1.404600 0.835500
-1.381900 0.849400
-1.359200 0.867500
-1.336600 0.892300
-1.313900 0.945100
-1.291200 0.987000
-1.268500 1.018600
-1.245800 1.040200
-1.223200 1.051300
-1.200500 1.036500
-1.177800 1.036700
-1.155100 1.049700
-1.132500 1.053900
-1.109800 1.047600
-1.087100 1.051400
-1.064400 1.061800
-1.041800 1.064400
-1.019100 1.058200
-0.996400 1.014200
-0.973700 0.994800
-0.951000 0.979500
-0.928400 0.968700
-0.905700 0.961100
-0.883000 0.956600
-0.860300 0.954700
-0.837700 0.952800
-0.815000 0.947700
-0.792300 0.940800
-0.769600 0.933000
-0.746900 0.927400
-0.724300 0.923000
-0.701600 0.919800
-0.678900 0.921300
-0.656200 0.924100
-0.633600 0.925200
-0.610900 0.904200
-0.588200 0.898400
-0.565500 0.893900
-0.542800 0.927600
-0.520200 0.928500
-0.497500 0.916200
-0.474800 0.912500
-0.452100 0.919300
-0.429500 0.927700
-0.406800 0.936400
-0.384100 0.945600
-0.361400 0.955500
-0.338700 0.969600
-0.316100 0.989800
-0.293400 1.013600
-0.270700 1.038300
-0.248000 1.057300
-0.225400 1.066300
-0.202700 1.068100
-0.180000 1.064900
-0.157300 1.053300
-0.134600 1.040200
-0.112000 1.029100
-0.089300 1.021100
-0.066600 1.015500
-0.043900 1.012000
-0.021300 1.008000
0.001400 1.004300
0.024100 1.017800
0.046800 1.017300
0.069400 1.020300
0.092100 1.028800
0.114800 1.040200
0.137500 1.062300
0.160200 1.065700
0.182800 1.067200
0.205500 1.068200
0.228200 1.067900
0.250900 1.066700
0.273500 1.068400
0.296200 1.068800
0.318900 1.068300
0.341600 1.070200
0.364300 1.071400
0.386900 1.068300
0.409600 1.058600
0.432300 1.055300
0.455000 1.057500
0.477600 1.059300
0.500300 1.060800
0.523000 1.061500
0.545700 1.061900
0.568400 1.063200
0.591000 1.064700
0.613700 1.079800
0.636400 1.117800
0.659100 1.078600
0.681700 1.066800
0.704400 1.065300
0.727100 1.063200
0.749800 1.061200
0.772500 1.055800
0.795100 1.057100
0.817800 1.060300
0.840500 1.065500
0.863200 1.072000
0.885800 1.078900
0.908500 1.085700
0.931200 1.092200
0.953900 1.099700
0.976600 1.108000
0.999200 1.119100
1.021900 1.129300
1.044600 1.138600
1.067300 1.148500
1.089900 1.155200
1.112600 1.141500
1.135300 1.144800
1.158000 1.148600
1.180700 1.153200
1.203300 1.159400
1.226000 1.167400
1.248700 1.176000
1.271400 1.192300
1.294000 1.202000
1.316700 1.212900
1.339400 1.224000
1.362100 1.264800
1.384700 1.276500
1.407400 1.285500
1.430100 1.293500
1.452800 1.285400
1.475500 1.269900
1.498100 1.274700
1.520800 1.285400
1.543500 1.277100
1.566200 1.268200
1.588800 1.259300
1.611500 1.253600
1.634200 1.246600
1.656900 1.236000
1.679600 1.229000
1.702200 1.219900
1.724900 1.236100
1.747600 1.207300
1.770300 1.189200
1.792900 1.181600
1.815600 1.183800
1.838300 1.190500
1.861000 1.198500
1.883700 1.202100
1.906300 1.205900
1.929000 1.210300
1.951700 1.215100
1.974400 1.220400
1.997000 1.226800
2.019700 1.241900
2.042400 1.249600
2.065100 1.256800
2.087800 1.263900
2.110400 1.272400
2.133100 1.283300
2.155800 1.298000
2.178500 1.315500
2.201100 1.358500
2.223800 1.305300
2.246500 1.291100
2.269200 1.269000
2.291900 1.245300
2.314500 1.233900
2.337200 1.225200
2.359900 1.218900
2.382600 1.212700
2.405200 1.206600
2.427900 1.201300
2.450600 1.196900
2.473300 1.183600
2.495900 1.177900
2.518600 1.175200
2.541300 1.176000
2.564000 1.172500
2.586700 1.179400
2.609300 1.176400
2.632000 1.183000
2.654700 1.178200
2.677400 1.172400
2.700000 1.176900
2.722700 1.189600
2.745400 1.201800
2.768100 1.210400
2.790800 1.215800
2.813400 1.218000
2.836100 1.219600
2.858800 1.228800
2.881500 1.279200
2.904100 1.252900
2.926800 1.238900
2.949500 1.238600
2.972200 1.209200
2.994900 1.219600
3.017500 1.222500
3.040200 1.228300
3.062900 1.240400
3.085600 1.255400
3.108200 1.277700
3.130900 1.303800
3.153600 1.331200
3.176300 1.357700
3.199000 1.377500
3.221600 1.394300
3.244300 1.412500
3.267000 1.433300
3.289700 1.477100
3.312300 1.500700
3.335000 1.509900
3.357700 1.510200
3.380400 1.509400
3.403100 1.503500
3.425700 1.492500
3.448400 1.482700
3.471100 1.465700
3.493800 1.453300
3.516400 1.448900
3.539100 1.445300
3.561800 1.442700
3.584500 1.441100
3.607100 1.440500
3.629800 1.446500
3.652500 1.434500
3.675200 1.419000
3.697900 1.404000
3.720500 1.386300
3.743200 1.367300
3.765900 1.354200
3.788600 1.345300
3.811200 1.333200
3.833900 1.336400
3.856600 1.352900
3.879300 1.309100
3.902000 1.278400
3.924600 1.267500
3.947300 1.270700
3.970000 1.282100
3.992700 1.317300
4.015300 1.353800
4.038000 1.367300
4.060700 1.374700
4.083400 1.377700
4.106100 1.373900
4.128700 1.371800
4.151400 1.369200
4.174100 1.365900
4.196800 1.361900
4.219400 1.357100
4.242100 1.351300
4.264800 1.341900
4.287500 1.358100
4.310200 1.329600
4.332800 1.302300
4.355500 1.277700
4.378200 1.256200
4.400900 1.229000
4.423500 1.210100
4.446200 1.196800
4.468900 1.195800
4.491600 1.198200
4.514300 1.201100
4.536900 1.204200
4.559600 1.207600
4.582300 1.211300
4.605000 1.215100
4.627600 1.171900
4.650300 1.162100
4.673000 1.157700
4.695700 1.194700
4.718400 1.186700
4.741000 1.180400
4.763700 1.176000
4.786400 1.177900
4.809100 1.186300
4.831700 1.197400
4.854400 1.211100
4.877100 1.227700
4.899800 1.241700
4.922400 1.246700
4.945100 1.244000
4.967800 1.245400
4.990500 1.255100
5.013200 1.267400
5.035800 1.281800
5.058500 1.297700
5.081200 1.313800
5.103900 1.327600
5.126500 1.344600
5.149200 1.358800
5.171900 1.383900
5.194600 1.420700
5.217300 1.452400
5.239900 1.483500
5.262600 1.510700
5.285300 1.538300
5.308000 1.572300
5.330600 1.549400
5.353300 1.537500
5.376000 1.535800
5.398700 1.543300
5.421400 1.556600
5.444000 1.575700
5.466700 1.601100
5.489400 1.618100
5.512100 1.628800
5.534700 1.649500
5.557400 1.689700
5.580100 1.690500
5.602800 1.660800
5.625500 1.642700
5.648100 1.612600
5.670800 1.582500
5.693500 1.554900
5.716200 1.535600
5.738800 1.525200
5.761500 1.522700
5.784200 1.522500
5.806900 1.523500
5.829600 1.528000
5.852200 1.539500
5.874900 1.556000
5.897600 1.590300
5.920300 1.601300
5.942900 1.575400
5.965600 1.581000
5.988300 1.576700
6.011000 1.573800
6.033600 1.574700
6.056300 1.577700
6.079000 1.581400
6.101700 1.586800
6.124400 1.577000
6.147000 1.576900
6.169700 1.579500
6.192400 1.587500
6.215100 1.596100
6.237700 1.606300
6.260400 1.619500
6.283100 1.588600
6.305800 1.612400
6.328500 1.634600
6.351100 1.670500
6.373800 1.710100
6.396500 1.705700
6.419200 1.690600
6.441800 1.679700
6.464500 1.650100
6.487200 1.618500
6.509900 1.579700
6.532600 1.553600
6.555200 1.570100
6.577900 1.555100
6.600600 1.540000
6.623300 1.524200
6.645900 1.500200
6.668600 1.469400
6.691300 1.432100
6.714000 1.408500
6.736700 1.387800
6.759300 1.370100
6.782000 1.359100
6.804700 1.353000
6.827400 1.346900
6.850000 1.346100
6.872700 1.342200
6.895400 1.336400
6.918100 1.337600
6.940800 1.348600
6.963400 1.357600
6.986100 1.369300
7.008800 1.383600
7.031500 1.395200
7.054100 1.400200
7.076800 1.404300
7.099500 1.406700
7.122200 1.409500
7.144800 1.419900
7.167500 1.433400
7.190200 1.452400
7.212900 1.475400
7.235600 1.500200
7.258200 1.526100
7.280900 1.553000
7.303600 1.582700
7.326300 1.611800
7.348900 1.643800
7.371600 1.669400
7.394300 1.698600
7.417000 1.729500
7.439700 1.754000
7.462300 1.801200
7.485000 1.801000
7.507700 1.817200
7.530400 1.847800
7.553000 1.877300
7.575700 1.904200
7.598400 1.927000
7.621100 1.947000
7.643800 2.003100
7.666400 2.009000
7.689100 1.980100
7.711800 1.929100
7.734500 1.899300
7.757100 1.859000
7.779800 1.811900
7.802500 1.775400
7.825200 1.752300
7.847900 1.732700
7.870500 1.713000
7.893200 1.693200
7.915900 1.666600
7.938600 1.656300
7.961200 1.641300
7.983900 1.629500
8.006600 1.613400
8.029300 1.592700
8.052000 1.560200
8.074600 1.525300
8.097300 1.501800
8.120000 1.482900
8.142700 1.462300
8.165300 1.425500
8.188000 1.412700
8.210700 1.425800
8.233400 1.433000
8.256000 1.437600
8.278700 1.446700
8.301400 1.458900
8.324100 1.474200
8.346800 1.492100
8.369400 1.510000
8.392100 1.529800
8.414800 1.549700
8.437500 1.578800
8.460100 1.617600
8.482800 1.668600
8.505500 1.716100
8.528200 1.760000
8.550900 1.790000
8.573500 1.830100
8.596200 1.874500
8.618900 1.944300
8.641600 1.961400
8.664200 2.000100
8.686900 2.034800
8.709600 2.061700
8.732300 2.060800
8.755000 2.027100
8.777600 1.994400
8.800300 1.961900
8.823000 1.929000
8.845700 1.895500
8.868300 1.855700
8.891000 1.819700
8.913700 1.815800
8.936400 1.817000
8.959100 1.818200
8.981700 1.818100
9.004400 1.816100
9.027100 1.813200
9.049800 1.810000
9.072400 1.806600
9.095100 1.804600
9.117800 1.800800
9.140500 1.794700
9.163200 1.782000
9.185800 1.769000
9.208500 1.752500
9.231200 1.730500
9.253900 1.706400
9.276500 1.680600
9.299200 1.655800
9.321900 1.632300
9.344600 1.610100
9.367300 1.598600
9.389900 1.589500
9.412600 1.581500
9.435300 1.570900
9.458000 1.555300
9.480600 1.543600
9.503300 1.536400
9.526000 1.538000
9.548700 1.526200
9.571300 1.535700
9.594000 1.551500
9.616700 1.569300
9.639400 1.593800
9.662100 1.631600
9.684700 1.663500
9.707400 1.691800
9.730100 1.718600
9.752800 1.745900
9.775400 1.774600
9.798100 1.822500
9.820800 1.863600
9.843500 1.873000
9.866200 1.873200
9.888800 1.914700
9.911500 1.917900
9.934200 1.920900
9.956900 1.919000
9.979500 2.013700
10.002200 1.987500
10.024900 2.020900
10.047600 2.060400
10.070300 2.097900
10.092900 2.144600
10.115600 2.211800
10.138300 2.301500
10.161000 2.332300
10.183600 2.130900
10.206300 2.131000
10.229000 2.135800
10.251700 2.144100
10.274400 2.127300
10.297000 2.116300
10.319700 2.117900
10.342400 2.122700
10.365100 2.128600
10.387700 2.128800
10.410400 2.131700
10.433100 2.133500
10.455800 2.134800
10.478500 2.142400
10.501100 2.141000
10.523800 2.138300
10.546500 2.135400
10.569200 2.132700
10.591800 2.135900
10.614500 2.136500
10.637200 2.134900
10.659900 2.130700
10.682500 2.134000
10.705200 2.120500
10.727900 2.110900
10.750600 2.106500
10.773300 2.100800
10.795900 2.090800
10.818600 2.080900
10.841300 2.071600
10.864000 2.059800
10.886600 2.046100
10.909300 2.056900
10.932000 2.005200
10.954700 1.987800
10.977400 1.976300
11.000000 1.981500
11.022700 1.980900
11.045400 1.986000
11.068100 1.998100
11.090700 2.012300
11.113400 2.029500
11.136100 2.050800
11.158800 2.073900
11.181500 2.094600
11.204100 2.112500
11.226800 2.137500
11.249500 2.165000
11.272200 2.194200
11.294800 2.220100
11.317500 2.245900
11.340200 2.270600
11.362900 2.267400
11.385600 2.270900
11.408200 2.279700
11.430900 2.286000
11.453600 2.290900
11.476300 2.296000
11.498900 2.306500
11.521600 2.349400
11.544300 2.361800
11.567000 2.364200
11.589700 2.375200
11.612300 2.376800
11.635000 2.369000
11.657700 2.384300
11.680400 2.358800
11.703000 2.333200
