set title 'mp-7755 - Density of States'
set xlabel 'Energy (eV)'
set ylabel 'DOS (states/eV)'
set grid
set xrange [-10:10]
set yrange [0:0.965]
set xzeroaxis lt -1
set terminal png size 800,600
set output 'mp-7755_dos_gnuplot.png'
plot '-' using 1:2 with lines title 'DOS'
-13.743500 0.000000
-13.716500 0.000000
-13.689500 0.000000
-13.662500 0.000000
-13.635600 0.000000
-13.608600 0.000000
-13.581600 0.000000
-13.554600 0.000000
-13.527600 0.000000
-13.500700 0.000000
-13.473700 0.000000
-13.446700 0.000000
-13.419700 0.000000
-13.392700 0.000000
-13.365700 0.000000
-13.338800 0.000000
-13.311800 0.000000
-13.284800 0.000000
-13.257800 0.000000
-13.230800 0.000000
-13.203900 0.000000
-13.176900 0.000000
-13.149900 0.000000
-13.122900 0.000000
-13.095900 0.000000
-13.069000 0.000000
-13.042000 0.000000
-13.015000 0.000000
-12.988000 0.000000
-12.961000 0.000000
-12.934100 0.000000
-12.907100 0.000000
-12.880100 0.000000
-12.853100 0.000000
-12.826100 0.000000
-12.799200 0.000000
-12.772200 0.000000
-12.745200 0.000000
-12.718200 0.000000
-12.691200 0.000000
-12.664300 0.000000
-12.637300 0.000000
-12.610300 0.000000
-12.583300 0.000000
-12.556300 0.000000
-12.529300 0.000000
-12.502400 0.000000
-12.475400 0.000000
-12.448400 0.000000
-12.421400 0.000000
-12.394400 0.000000
-12.367500 0.000000
-12.340500 0.000000
-12.313500 0.000000
-12.286500 0.000000
-12.259500 0.000000
-12.232600 0.000000
-12.205600 0.000000
-12.178600 0.000000
-12.151600 0.000000
-12.124600 0.000000
-12.097700 0.000000
-12.070700 0.000000
-12.043700 0.000000
-12.016700 0.000000
-11.989700 0.000000
-11.962800 0.000000
-11.935800 0.000000
-11.908800 0.000000
-11.881800 0.000000
-11.854800 0.000000
-11.827900 0.000000
-11.800900 0.000000
-11.773900 0.000000
-11.746900 0.000000
-11.719900 0.000000
-11.692900 0.000000
-11.666000 0.000000
-11.639000 0.000000
-11.612000 0.000000
-11.585000 0.000000
-11.558000 0.000000
-11.531100 0.000000
-11.504100 0.000000
-11.477100 0.000000
-11.450100 0.000000
-11.423100 0.000000
-11.396200 0.000000
-11.369200 0.000000
-11.342200 0.000000
-11.315200 0.000000
-11.288200 0.020900
-11.261300 0.041900
-11.234300 0.068400
-11.207300 0.071100
-11.180300 0.079400
-11.153300 0.089500
-11.126400 0.102000
-11.099400 0.108300
-11.072400 0.114000
-11.045400 0.119400
-11.018400 0.126500
-10.991500 0.134400
-10.964500 0.142400
-10.937500 0.148000
-10.910500 0.153000
-10.883500 0.157500
-10.856500 0.163000
-10.829600 0.168700
-10.802600 0.174500
-10.775600 0.180200
-10.748600 0.186400
-10.721600 0.191800
-10.694700 0.196600
-10.667700 0.200900
-10.640700 0.205600
-10.613700 0.210500
-10.586700 0.215500
-10.559800 0.220500
-10.532800 0.225700
-10.505800 0.231200
-10.478800 0.236900
-10.451800 0.241600
-10.424900 0.246100
-10.397900 0.250600
-10.370900 0.255300
-10.343900 0.260200
-10.316900 0.265200
-10.290000 0.270200
-10.263000 0.275300
-10.236000 0.280600
-10.209000 0.285900
-10.182000 0.291300
-10.155100 0.296300
-10.128100 0.301400
-10.101100 0.306700
-10.074100 0.312000
-10.047100 0.317400
-10.020100 0.322900
-9.993200 0.328400
-9.966200 0.334000
-9.939200 0.339700
-9.912200 0.345400
-9.885200 0.351100
-9.858300 0.357700
-9.831300 0.364400
-9.804300 0.371100
-9.777300 0.377900
-9.750300 0.384700
-9.723400 0.391600
-9.696400 0.398500
-9.669400 0.405500
-9.642400 0.412400
-9.615400 0.419500
-9.588500 0.428900
-9.561500 0.439000
-9.534500 0.449500
-9.507500 0.459600
-9.480500 0.469800
-9.453600 0.480200
-9.426600 0.490900
-9.399600 0.501300
-9.372600 0.518200
-9.345600 0.538800
-9.318700 0.562200
-9.291700 0.583900
-9.264700 0.605800
-9.237700 0.657300
-9.210700 0.672900
-9.183700 0.657000
-9.156800 0.654400
-9.129800 0.653100
-9.102800 0.653500
-9.075800 0.645200
-9.048800 0.641200
-9.021900 0.637800
-8.994900 0.636500
-8.967900 0.634500
-8.940900 0.631800
-8.913900 0.625700
-8.887000 0.621500
-8.860000 0.617800
-8.833000 0.615700
-8.806000 0.613500
-8.779000 0.611000
-8.752100 0.608100
-8.725100 0.605200
-8.698100 0.602100
-8.671100 0.596500
-8.644100 0.592900
-8.617200 0.590200
-8.590200 0.587600
-8.563200 0.585100
-8.536200 0.582400
-8.509200 0.579700
-8.482300 0.576900
-8.455300 0.573900
-8.428300 0.569700
-8.401300 0.566200
-8.374300 0.563100
-8.347300 0.560300
-8.320400 0.557700
-8.293400 0.555000
-8.266400 0.552300
-8.239400 0.549600
-8.212400 0.546800
-8.185500 0.544000
-8.158500 0.541100
-8.131500 0.537800
-8.104500 0.534900
-8.077500 0.532000
-8.050600 0.529200
-8.023600 0.526400
-7.996600 0.523500
-7.969600 0.520700
-7.942600 0.517900
-7.915700 0.515200
-7.888700 0.512600
-7.861700 0.510000
-7.834700 0.508100
-7.807700 0.505500
-7.780800 0.502600
-7.753800 0.499500
-7.726800 0.496300
-7.699800 0.493100
-7.672800 0.490200
-7.645900 0.487500
-7.618900 0.485000
-7.591900 0.482600
-7.564900 0.482800
-7.537900 0.480600
-7.510900 0.477300
-7.484000 0.473100
-7.457000 0.469500
-7.430000 0.466200
-7.403000 0.463000
-7.376000 0.459600
-7.349100 0.465300
-7.322100 0.463200
-7.295100 0.457400
-7.268100 0.446600
-7.241100 0.434200
-7.214200 0.413300
-7.187200 0.389200
-7.160200 0.360900
-7.133200 0.346800
-7.106200 0.333300
-7.079300 0.320500
-7.052300 0.306000
-7.025300 0.296800
-6.998300 0.287300
-6.971300 0.278100
-6.944400 0.269200
-6.917400 0.260700
-6.890400 0.252600
-6.863400 0.244400
-6.836400 0.237900
-6.809500 0.231400
-6.782500 0.224800
-6.755500 0.218300
-6.728500 0.211900
-6.701500 0.205800
-6.674600 0.199900
-6.647600 0.194000
-6.620600 0.189000
-6.593600 0.184100
-6.566600 0.179300
-6.539600 0.174500
-6.512700 0.169600
-6.485700 0.164900
-6.458700 0.160200
-6.431700 0.155700
-6.404700 0.151000
-6.377800 0.147100
-6.350800 0.143200
-6.323800 0.139400
-6.296800 0.135600
-6.269800 0.131900
-6.242900 0.128200
-6.215900 0.124500
-6.188900 0.120900
-6.161900 0.117300
-6.134900 0.113900
-6.108000 0.110400
-6.081000 0.107200
-6.054000 0.104100
-6.027000 0.100900
-6.000000 0.097800
-5.973100 0.094800
-5.946100 0.091800
-5.919100 0.088900
-5.892100 0.086100
-5.865100 0.083300
-5.838200 0.080500
-5.811200 0.077900
-5.784200 0.075000
-5.757200 0.072100
-5.730200 0.069200
-5.703200 0.066500
-5.676300 0.063800
-5.649300 0.061300
-5.622300 0.059000
-5.595300 0.056700
-5.568300 0.054200
-5.541400 0.051700
-5.514400 0.049600
-5.487400 0.046400
-5.460400 0.043300
-5.433400 0.040400
-5.406500 0.038100
-5.379500 0.035700
-5.352500 0.033200
-5.325500 0.030500
-5.298500 0.031100
-5.271600 0.025500
-5.244600 0.020300
-5.217600 0.015600
-5.190600 0.011500
-5.163600 0.000000
-5.136700 0.000000
-5.109700 0.000000
-5.082700 0.000000
-5.055700 0.000000
-5.028700 0.000000
-5.001800 0.000000
-4.974800 0.000000
-4.947800 0.000000
-4.920800 0.000000
-4.893800 0.000000
-4.866800 0.000000
-4.839900 0.000000
-4.812900 0.000000
-4.785900 0.000000
-4.758900 0.000000
-4.731900 0.000000
-4.705000 0.000000
-4.678000 0.000000
-4.651000 0.000000
-4.624000 0.000000
-4.597000 0.000000
-4.570100 0.000000
-4.543100 0.000000
-4.516100 0.000000
-4.489100 0.000000
-4.462100 0.000000
-4.435200 0.000000
-4.408200 0.000000
-4.381200 0.000000
-4.354200 0.000000
-4.327200 0.000000
-4.300300 0.000000
-4.273300 0.000000
-4.246300 0.000000
-4.219300 0.000000
-4.192300 0.000000
-4.165400 0.000000
-4.138400 0.000000
-4.111400 0.000000
-4.084400 0.000000
-4.057400 0.000000
-4.030400 0.000000
-4.003500 0.000000
-3.976500 0.000000
-3.949500 0.000000
-3.922500 0.000000
-3.895500 0.000000
-3.868600 0.000000
-3.841600 0.000000
-3.814600 0.000000
-3.787600 0.000000
-3.760600 0.000000
-3.733700 0.000000
-3.706700 0.000000
-3.679700 0.000000
-3.652700 0.000000
-3.625700 0.000000
-3.598800 0.000000
-3.571800 0.000000
-3.544800 0.000000
-3.517800 0.000000
-3.490800 0.000000
-3.463900 0.000000
-3.436900 0.000000
-3.409900 0.000000
-3.382900 0.000000
-3.355900 0.000000
-3.329000 0.000000
-3.302000 0.000000
-3.275000 0.000000
-3.248000 0.000000
-3.221000 0.000000
-3.194000 0.000000
-3.167100 0.000000
-3.140100 0.000000
-3.113100 0.000000
-3.086100 0.000000
-3.059100 0.000000
-3.032200 0.000000
-3.005200 0.000000
-2.978200 0.000000
-2.951200 0.000000
-2.924200 0.000000
-2.897300 0.000000
-2.870300 0.000000
-2.843300 0.000000
-2.816300 0.000000
-2.789300 0.000000
-2.762400 0.000000
-2.735400 0.000000
-2.708400 0.000000
-2.681400 0.000000
-2.654400 0.000000
-2.627500 0.000000
-2.600500 0.000000
-2.573500 0.000000
-2.546500 0.000000
-2.519500 0.000000
-2.492600 0.000000
-2.465600 0.000000
-2.438600 0.000000
-2.411600 0.000000
-2.384600 0.000000
-2.357600 0.000000
-2.330700 0.000000
-2.303700 0.000000
-2.276700 0.000000
-2.249700 0.000000
-2.222700 0.000000
-2.195800 0.000000
-2.168800 0.066800
-2.141800 0.098700
-2.114800 0.098000
-2.087800 0.110300
-2.060900 0.125700
-2.033900 0.143900
-2.006900 0.152300
-1.979900 0.163700
-1.952900 0.176400
-1.926000 0.190900
-1.899000 0.200100
-1.872000 0.209200
-1.845000 0.214100
-1.818000 0.220900
-1.791100 0.228100
-1.764100 0.235800
-1.737100 0.243600
-1.710100 0.251900
-1.683100 0.260700
-1.656200 0.269900
-1.629200 0.276000
-1.602200 0.283100
-1.575200 0.290700
-1.548200 0.298800
-1.521200 0.307100
-1.494300 0.315600
-1.467300 0.324300
-1.440300 0.333100
-1.413300 0.341400
-1.386300 0.347500
-1.359400 0.353600
-1.332400 0.360200
-1.305400 0.367200
-1.278400 0.374300
-1.251400 0.381300
-1.224500 0.388500
-1.197500 0.395900
-1.170500 0.403300
-1.143500 0.410800
-1.116500 0.418100
-1.089600 0.425700
-1.062600 0.433500
-1.035600 0.441500
-1.008600 0.449500
-0.981600 0.457700
-0.954700 0.465900
-0.927700 0.474200
-0.900700 0.482600
-0.873700 0.491000
-0.846700 0.500800
-0.819800 0.510600
-0.792800 0.520400
-0.765800 0.530200
-0.738800 0.540200
-0.711800 0.550300
-0.684800 0.559600
-0.657900 0.568900
-0.630900 0.578400
-0.603900 0.590900
-0.576900 0.604100
-0.549900 0.617700
-0.523000 0.630700
-0.496000 0.644000
-0.469000 0.657600
-0.442000 0.671600
-0.415000 0.685500
-0.388100 0.738300
-0.361100 0.770600
-0.334100 0.801100
-0.307100 0.822400
-0.280100 0.861100
-0.253200 0.860600
-0.226200 0.838700
-0.199200 0.837100
-0.172200 0.833400
-0.145200 0.828700
-0.118300 0.826000
-0.091300 0.842700
-0.064300 0.859500
-0.037300 0.877600
-0.010300 0.853400
0.016600 0.839500
0.043600 0.836200
0.070600 0.832800
0.097600 0.827300
0.124600 0.820400
0.151600 0.816800
0.178500 0.814500
0.205500 0.812900
0.232500 0.814600
0.259500 0.817200
0.286500 0.821300
0.313400 0.827200
0.340400 0.841500
0.367400 0.839900
0.394400 0.837300
0.421400 0.831900
0.448300 0.827600
0.475300 0.821400
0.502300 0.815600
0.529300 0.810200
0.556300 0.805500
0.583200 0.801100
0.610200 0.797900
0.637200 0.795600
0.664200 0.794300
0.691200 0.794600
0.718100 0.796100
0.745100 0.798300
0.772100 0.801100
0.799100 0.804500
0.826100 0.808900
0.853000 0.806300
0.880000 0.802600
0.907000 0.799400
0.934000 0.807400
0.961000 0.809400
0.987900 0.807900
1.014900 0.805000
1.041900 0.803600
1.068900 0.801500
1.095900 0.797500
1.122900 0.795400
1.149800 0.789300
1.176800 0.783200
1.203800 0.779500
1.230800 0.777200
1.257800 0.771200
1.284700 0.767600
1.311700 0.778600
1.338700 0.775200
1.365700 0.770900
1.392700 0.753200
1.419600 0.741100
1.446600 0.726200
1.473600 0.710100
1.500600 0.691700
1.527600 0.679700
1.554500 0.680900
1.581500 0.685700
1.608500 0.695500
1.635500 0.691500
1.662500 0.676800
1.689400 0.669900
1.716400 0.658600
1.743400 0.650100
1.770400 0.642500
1.797400 0.636400
1.824300 0.632100
1.851300 0.628100
1.878300 0.626300
1.905300 0.624300
1.932300 0.621500
1.959300 0.618300
1.986200 0.619700
2.013200 0.623700
2.040200 0.625700
2.067200 0.612700
2.094200 0.625000
2.121100 0.621000
2.148100 0.608900
2.175100 0.600700
2.202100 0.593700
2.229100 0.588500
2.256000 0.585100
2.283000 0.580300
2.310000 0.574600
2.337000 0.570800
2.364000 0.568800
2.390900 0.567500
2.417900 0.567400
2.444900 0.568900
2.471900 0.575400
2.498900 0.590400
2.525800 0.598000
2.552800 0.600800
2.579800 0.585500
2.606800 0.585000
2.633800 0.582400
2.660700 0.576400
2.687700 0.578300
2.714700 0.563900
2.741700 0.552300
2.768700 0.544100
2.795700 0.541300
2.822600 0.544100
2.849600 0.547500
2.876600 0.551700
2.903600 0.556400
2.930600 0.552300
2.957500 0.548400
2.984500 0.546000
3.011500 0.546200
3.038500 0.546500
3.065500 0.550000
3.092400 0.555400
3.119400 0.558000
3.146400 0.558600
3.173400 0.557000
3.200400 0.542700
3.227300 0.541300
3.254300 0.538200
3.281300 0.534700
3.308300 0.532000
3.335300 0.530500
3.362200 0.529100
3.389200 0.529000
3.416200 0.533900
3.443200 0.533700
3.470200 0.532700
3.497100 0.535700
3.524100 0.534300
3.551100 0.531200
3.578100 0.528100
3.605100 0.526600
3.632100 0.525000
3.659000 0.524800
3.686000 0.526600
3.713000 0.529500
3.740000 0.534900
3.767000 0.542300
3.793900 0.543400
3.820900 0.547000
3.847900 0.547400
3.874900 0.546200
3.901900 0.531100
3.928800 0.529200
3.955800 0.525800
3.982800 0.522300
4.009800 0.518300
4.036800 0.514000
4.063700 0.514100
4.090700 0.514600
4.117700 0.515400
4.144700 0.519700
4.171700 0.523200
4.198600 0.523900
4.225600 0.546600
4.252600 0.520000
4.279600 0.508000
4.306600 0.508200
4.333500 0.508800
4.360500 0.509500
4.387500 0.510300
4.414500 0.510900
4.441500 0.530000
4.468500 0.536500
4.495400 0.535100
4.522400 0.527900
4.549400 0.524000
4.576400 0.522900
4.603400 0.530900
4.630300 0.547000
4.657300 0.543000
4.684300 0.542200
4.711300 0.538700
4.738300 0.532700
4.765200 0.526300
4.792200 0.519900
4.819200 0.519900
4.846200 0.522200
4.873200 0.525800
4.900100 0.529100
4.927100 0.530100
4.954100 0.529900
4.981100 0.529500
5.008100 0.530200
5.035000 0.531800
5.062000 0.537400
5.089000 0.538000
5.116000 0.537900
5.143000 0.524300
5.169900 0.525200
5.196900 0.526900
5.223900 0.528100
5.250900 0.529100
5.277900 0.530300
5.304900 0.531400
5.331800 0.533000
5.358800 0.569300
5.385800 0.569000
5.412800 0.547500
5.439800 0.573900
5.466700 0.591900
5.493700 0.587300
5.520700 0.566100
5.547700 0.558600
5.574700 0.566000
5.601600 0.571900
5.628600 0.574600
5.655600 0.574400
5.682600 0.577100
5.709600 0.580400
5.736500 0.583600
5.763500 0.586300
5.790500 0.589000
5.817500 0.594400
5.844500 0.597500
5.871400 0.601300
5.898400 0.605200
5.925400 0.608800
5.952400 0.612400
5.979400 0.622700
6.006300 0.700900
6.033300 0.755000
6.060300 0.703300
6.087300 0.696300
6.114300 0.702000
6.141300 0.694900
6.168200 0.689000
6.195200 0.692800
6.222200 0.695400
6.249200 0.700200
6.276200 0.705100
6.303100 0.676100
6.330100 0.675200
6.357100 0.674300
6.384100 0.673300
6.411100 0.672700
6.438000 0.669400
6.465000 0.666700
6.492000 0.665100
6.519000 0.663600
6.546000 0.662200
6.572900 0.661200
6.599900 0.660300
6.626900 0.657800
6.653900 0.657300
6.680900 0.655600
6.707800 0.654300
6.734800 0.652800
6.761800 0.652100
6.788800 0.658600
6.815800 0.658600
6.842700 0.658400
6.869700 0.646500
6.896700 0.645100
6.923700 0.648900
6.950700 0.649000
6.977700 0.657900
7.004600 0.664300
7.031600 0.636300
7.058600 0.636000
7.085600 0.633600
7.112600 0.630500
7.139500 0.627000
7.166500 0.622800
7.193500 0.620200
7.220500 0.622100
7.247500 0.621900
7.274400 0.617600
7.301400 0.612400
7.328400 0.613200
7.355400 0.631700
7.382400 0.641000
7.409300 0.662600
7.436300 0.625400
7.463300 0.532400
7.490300 0.507900
7.517300 0.484500
7.544200 0.458600
7.571200 0.443600
7.598200 0.428000
7.625200 0.412600
7.652200 0.394100
7.679100 0.382400
7.706100 0.370900
7.733100 0.387700
7.760100 0.384600
7.787100 0.382600
7.814100 0.354300
7.841000 0.346900
7.868000 0.339700
7.895000 0.332600
7.922000 0.325500
7.949000 0.331800
7.975900 0.336400
8.002900 0.359800
8.029900 0.368400
8.056900 0.329500
8.083900 0.316800
8.110800 0.309600
8.137800 0.302600
8.164800 0.326500
8.191800 0.335300
8.218800 0.296500
8.245700 0.289300
8.272700 0.288200
8.299700 0.286800
8.326700 0.278300
8.353700 0.270900
8.380600 0.259100
8.407600 0.248000
8.434600 0.217900
8.461600 0.187100
8.488600 0.163500
8.515500 0.218500
8.542500 0.259600
8.569500 0.261800
8.596500 0.263300
8.623500 0.269800
8.650400 0.244200
8.677400 0.183800
8.704400 0.179900
8.731400 0.171400
8.758400 0.170000
8.785400 0.170900
8.812300 0.173200
8.839300 0.175600
8.866300 0.178100
8.893300 0.180600
8.920300 0.183200
8.947200 0.185800
8.974200 0.188400
9.001200 0.191200
9.028200 0.194000
9.055200 0.196900
9.082100 0.199700
9.109100 0.202400
9.136100 0.205200
9.163100 0.207200
9.190100 0.209200
9.217000 0.211200
9.244000 0.213500
9.271000 0.215800
9.298000 0.218000
9.325000 0.220300
9.351900 0.222500
9.378900 0.225000
9.405900 0.227500
9.432900 0.230100
9.459900 0.232700
9.486800 0.235400
9.513800 0.238100
9.540800 0.240800
9.567800 0.243600
9.594800 0.246500
9.621800 0.249300
9.648700 0.252100
9.675700 0.255000
9.702700 0.257900
9.729700 0.260700
9.756700 0.264000
9.783600 0.267800
9.810600 0.271300
9.837600 0.275000
9.864600 0.278800
9.891600 0.282700
9.918500 0.286800
9.945500 0.291400
9.972500 0.296000
9.999500 0.300700
10.026500 0.305000
10.053400 0.309500
10.080400 0.314100
10.107400 0.319000
10.134400 0.335700
10.161400 0.356000
10.188300 0.363100
10.215300 0.369600
10.242300 0.375400
10.269300 0.380500
10.296300 0.385000
10.323200 0.410400
10.350200 0.424600
10.377200 0.412300
10.404200 0.390200
10.431200 0.370500
10.458200 0.350600
10.485100 0.335700
10.512100 0.321400
10.539100 0.309200
10.566100 0.306100
10.593100 0.313200
10.620000 0.313400
10.647000 0.314800
10.674000 0.317300
10.701000 0.320600
10.728000 0.324500
10.754900 0.345400
10.781900 0.355900
10.808900 0.331200
10.835900 0.330200
10.862900 0.331000
10.889800 0.332200
10.916800 0.333800
10.943800 0.335700
10.970800 0.338100
10.997800 0.340300
11.024700 0.341000
11.051700 0.345000
11.078700 0.355900
11.105700 0.349400
11.132700 0.349200
11.159600 0.349100
11.186600 0.349100
11.213600 0.349100
11.240600 0.349100
11.267600 0.343100
11.294600 0.343500
11.321500 0.344500
11.348500 0.345600
11.375500 0.349100
11.402500 0.354400
11.429500 0.360400
11.456400 0.353300
11.483400 0.370900
11.510400 0.359800
11.537400 0.361000
11.564400 0.362200
11.591300 0.363300
11.618300 0.364200
11.645300 0.364700
11.672300 0.364900
11.699300 0.365800
11.726200 0.366000
11.753200 0.366500
11.780200 0.366400
11.807200 0.366200
11.834200 0.366000
11.861100 0.366400
11.888100 0.366900
11.915100 0.367200
11.942100 0.368100
11.969100 0.369200
11.996000 0.370500
12.023000 0.371600
12.050000 0.381500
12.077000 0.379600
12.104000 0.380900
12.131000 0.380500
12.157900 0.378700
12.184900 0.380000
12.211900 0.382000
12.238900 0.384100
12.265900 0.385900
12.292800 0.382100
12.319800 0.382800
12.346800 0.383500
12.373800 0.384300
12.400800 0.385100
12.427700 0.385800
12.454700 0.386300
12.481700 0.386700
12.508700 0.387100
12.535700 0.387800
12.562600 0.388700
12.589600 0.434600
12.616600 0.457300
12.643600 0.451900
12.670600 0.460700
12.697500 0.470900
12.724500 0.482200
12.751500 0.481500
12.778500 0.483400
12.805500 0.488700
12.832400 0.493700
12.859400 0.495700
12.886400 0.500500
12.913400 0.503700
12.940400 0.507500
12.967400 0.511200
12.994300 0.515400
13.021300 0.520900
13.048300 0.526500
13.075300 0.531000
13.102300 0.537100
13.129200 0.543300
13.156200 0.548600
13.183200 0.555200
13.210200 0.562300
13.237200 0.569400
13.264100 0.576400
13.291100 0.583300
13.318100 0.587300
13.345100 0.592400
13.372100 0.615700
13.399000 0.618300
13.426000 0.619600
13.453000 0.627100
13.480000 0.635100
13.507000 0.651500
13.533900 0.662400
13.560900 0.655800
13.587900 0.657600
13.614900 0.660200
13.641900 0.665300
13.668800 0.670300
13.695800 0.675600
13.722800 0.685700
13.749800 0.696700
13.776800 0.709100
13.803800 0.720800
13.830700 0.745500
13.857700 0.761800
13.884700 0.761500
13.911700 0.759800
13.938700 0.756100
13.965600 0.743400
13.992600 0.744000
14.019600 0.745300
14.046600 0.750900
14.073600 0.760000
14.100500 0.767500
14.127500 0.754500
14.154500 0.754300
14.181500 0.754100
14.208500 0.753700
14.235400 0.752400
14.262400 0.750600
14.289400 0.748900
14.316400 0.748800
14.343400 0.748100
14.370300 0.747200
14.397300 0.747800
14.424300 0.748200
14.451300 0.753200
14.478300 0.753800
14.505200 0.752100
14.532200 0.753800
14.559200 0.765900
