set title 'mp-634101 - Density of States'
set xlabel 'Energy (eV)'
set ylabel 'DOS (states/eV)'
set grid
set xrange [-10:10]
set yrange [0:8.427]
set xzeroaxis lt -1
set terminal png size 800,600
set output 'mp-634101_dos_gnuplot.png'
plot '-' using 1:2 with lines title 'DOS'
-22.696600 0.000000
-22.643800 0.000000
-22.591100 0.000000
-22.538300 0.000000
-22.485600 0.000000
-22.432800 0.000000
-22.380100 0.000000
-22.327300 0.000000
-22.274600 0.000000
-22.221800 0.000000
-22.169100 0.000000
-22.116300 0.000000
-22.063600 0.000000
-22.010800 0.000000
-21.958100 0.000000
-21.905300 0.000000
-21.852600 0.000000
-21.799800 0.000000
-21.747100 0.000000
-21.694300 0.000000
-21.641600 0.000000
-21.588800 0.000000
-21.536100 0.000000
-21.483300 0.000000
-21.430600 0.000000
-21.377800 0.000000
-21.325100 0.000000
-21.272300 0.000000
-21.219600 0.000000
-21.166800 0.000000
-21.114100 0.000000
-21.061300 0.000000
-21.008600 0.000000
-20.955800 0.000000
-20.903100 0.000000
-20.850300 0.000000
-20.797600 0.000000
-20.744800 0.000000
-20.692100 0.000000
-20.639300 0.000000
-20.586600 0.000000
-20.533800 0.000000
-20.481100 0.000000
-20.428300 0.000000
-20.375600 0.000000
-20.322800 0.000000
-20.270100 0.000000
-20.217300 0.000000
-20.164600 0.000000
-20.111800 0.000000
-20.059100 0.000000
-20.006300 0.000000
-19.953600 0.000000
-19.900800 0.000000
-19.848100 0.000000
-19.795300 0.000000
-19.742600 0.000000
-19.689800 0.000000
-19.637100 0.000000
-19.584300 0.000000
-19.531600 0.000000
-19.478800 0.000000
-19.426100 0.000000
-19.373300 0.000000
-19.320600 0.000000
-19.267800 0.000000
-19.215100 0.000000
-19.162300 0.000000
-19.109600 0.000000
-19.056800 0.000000
-19.004100 0.000000
-18.951300 0.000000
-18.898600 0.000000
-18.845800 0.000000
-18.793100 0.000000
-18.740300 0.000000
-18.687600 0.000000
-18.634800 0.000000
-18.582100 0.000000
-18.529300 0.000000
-18.476600 0.000000
-18.423800 0.000000
-18.371100 0.000000
-18.318300 0.000000
-18.265600 0.000000
-18.212800 0.000000
-18.160100 0.000000
-18.107300 0.000000
-18.054600 0.000000
-18.001800 0.000900
-17.949100 0.047300
-17.896300 0.499800
-17.843600 1.534900
-17.790800 1.806900
-17.738100 1.307200
-17.685300 2.513600
-17.632600 3.804900
-17.579800 2.248300
-17.527100 0.434300
-17.474300 0.019900
-17.421600 0.000200
-17.368800 0.000000
-17.316100 0.007400
-17.263300 0.247900
-17.210600 1.795500
-17.157800 3.885700
-17.105100 2.854200
-17.052300 0.651800
-16.999600 0.035800
-16.946800 0.000300
-16.894100 0.000000
-16.841300 0.000000
-16.788600 0.000000
-16.735800 0.000000
-16.683100 0.001200
-16.630300 0.093000
-16.577600 1.318100
-16.524800 4.179200
-16.472100 3.266200
-16.419300 0.599000
-16.366600 0.021900
-16.313800 0.000900
-16.261100 0.085300
-16.208300 1.211300
-16.155600 2.557200
-16.102800 0.844000
-16.050100 0.040600
-15.997300 0.000300
-15.944600 0.000000
-15.891800 0.000000
-15.839100 0.000000
-15.786300 0.000000
-15.733600 0.000000
-15.680800 0.000000
-15.628100 0.000000
-15.575300 0.000000
-15.522600 0.000000
-15.469800 0.000000
-15.417100 0.000000
-15.364300 0.000000
-15.311600 0.000000
-15.258800 0.000000
-15.206100 0.000000
-15.153300 0.000000
-15.100600 0.000000
-15.047800 0.000000
-14.995100 0.000000
-14.942300 0.000000
-14.889600 0.000000
-14.836800 0.000000
-14.784100 0.000000
-14.731300 0.000000
-14.678600 0.000000
-14.625800 0.000000
-14.573100 0.000000
-14.520300 0.000000
-14.467600 0.000000
-14.414800 0.000000
-14.362100 0.000000
-14.309300 0.000000
-14.256600 0.000000
-14.203800 0.000000
-14.151100 0.000000
-14.098300 0.000000
-14.045600 0.000000
-13.992800 0.000000
-13.940100 0.000000
-13.887300 0.000000
-13.834600 0.000000
-13.781800 0.000000
-13.729100 0.000000
-13.676300 0.000000
-13.623600 0.000000
-13.570800 0.000000
-13.518100 0.000000
-13.465300 0.000000
-13.412600 0.000000
-13.359800 0.000000
-13.307100 0.000000
-13.254300 0.000000
-13.201600 0.000000
-13.148800 0.000000
-13.096100 0.000000
-13.043300 0.000000
-12.990600 0.000000
-12.937800 0.000000
-12.885100 0.000000
-12.832300 0.000000
-12.779600 0.000000
-12.726800 0.000000
-12.674100 0.000000
-12.621300 0.000000
-12.568600 0.000000
-12.515800 0.000000
-12.463100 0.000000
-12.410300 0.000000
-12.357600 0.000000
-12.304800 0.000000
-12.252100 0.000000
-12.199300 0.000000
-12.146600 0.000000
-12.093800 0.000000
-12.041100 0.000000
-11.988300 0.000000
-11.935600 0.000000
-11.882800 0.000000
-11.830100 0.000000
-11.777300 0.000000
-11.724600 0.000000
-11.671800 0.000000
-11.619100 0.000000
-11.566300 0.000000
-11.513500 0.000000
-11.460800 0.000000
-11.408000 0.000000
-11.355300 0.000000
-11.302500 0.000000
-11.249800 0.000000
-11.197000 0.000000
-11.144300 0.000000
-11.091500 0.000000
-11.038800 0.000000
-10.986000 0.000300
-10.933300 0.040900
-10.880500 0.847100
-10.827800 2.558000
-10.775000 1.207500
-10.722300 0.084700
-10.669500 0.000800
-10.616800 0.000000
-10.564000 0.000000
-10.511300 0.000000
-10.458500 0.000000
-10.405800 0.000000
-10.353000 0.000000
-10.300300 0.000000
-10.247500 0.000200
-10.194800 0.033400
-10.142000 0.784900
-10.089300 3.703300
-10.036500 3.959000
-9.983800 0.951800
-9.931000 0.045600
-9.878300 0.000400
-9.825500 0.000000
-9.772800 0.000000
-9.720000 0.000000
-9.667300 0.000000
-9.614500 0.000000
-9.561800 0.000000
-9.509000 0.000000
-9.456300 0.000000
-9.403500 0.000000
-9.350800 0.000000
-9.298000 0.000000
-9.245300 0.000000
-9.192500 0.000000
-9.139800 0.000000
-9.087000 0.000000
-9.034300 0.000000
-8.981500 0.000000
-8.928800 0.000000
-8.876000 0.000000
-8.823300 0.000000
-8.770500 0.000000
-8.717800 0.000000
-8.665000 0.000000
-8.612300 0.000000
-8.559500 0.000000
-8.506800 0.000000
-8.454000 0.000000
-8.401300 0.000100
-8.348500 0.014600
-8.295800 0.412400
-8.243000 2.518900
-8.190300 4.217900
-8.137500 2.050500
-8.084800 0.257600
-8.032000 0.006600
-7.979300 0.000000
-7.926500 0.000000
-7.873800 0.000000
-7.821000 0.000000
-7.768300 0.000000
-7.715500 0.000000
-7.662800 0.000000
-7.610000 0.000000
-7.557300 0.000000
-7.504500 0.000000
-7.451800 0.000000
-7.399000 0.000000
-7.346300 0.000000
-7.293500 0.000000
-7.240800 0.000000
-7.188000 0.000000
-7.135300 0.000000
-7.082500 0.000000
-7.029800 0.000000
-6.977000 0.000000
-6.924300 0.000000
-6.871500 0.000000
-6.818800 0.000000
-6.766000 0.000000
-6.713300 0.000000
-6.660500 0.000000
-6.607800 0.000000
-6.555000 0.000000
-6.502300 0.000000
-6.449500 0.000000
-6.396800 0.000000
-6.344000 0.000000
-6.291300 0.000000
-6.238500 0.000000
-6.185800 0.000000
-6.133000 0.000000
-6.080300 0.000000
-6.027500 0.000000
-5.974800 0.000100
-5.922000 0.015700
-5.869300 0.432600
-5.816500 2.586400
-5.763800 4.215300
-5.711000 1.982500
-5.658300 0.240100
-5.605500 0.005900
-5.552800 0.000000
-5.500000 0.000000
-5.447300 0.000000
-5.394500 0.000000
-5.341800 0.000000
-5.289000 0.000000
-5.236300 0.000000
-5.183500 0.000000
-5.130800 0.000000
-5.078000 0.002300
-5.025300 0.071600
-4.972500 0.378300
-4.919800 0.621300
-4.867000 0.872700
-4.814300 1.194500
-4.761500 1.886100
-4.708800 2.332200
-4.656000 1.841000
-4.603300 1.533500
-4.550500 1.104100
-4.497800 1.283400
-4.445000 2.591800
-4.392300 2.754300
-4.339500 3.305000
-4.286800 3.077100
-4.234000 1.824100
-4.181300 1.629400
-4.128500 2.222000
-4.075800 3.356300
-4.023000 5.003900
-3.970300 7.108400
-3.917500 6.349500
-3.864800 3.030600
-3.812000 3.742500
-3.759300 3.921900
-3.706500 4.021600
-3.653800 7.660700
-3.601000 4.801200
-3.548300 0.985700
-3.495500 0.060900
-3.442800 0.000700
-3.390000 0.000000
-3.337300 0.000000
-3.284500 0.000000
-3.231800 0.000000
-3.179000 0.000000
-3.126300 0.000000
-3.073500 0.000000
-3.020800 0.000000
-2.968000 0.000000
-2.915300 0.000000
-2.862500 0.000000
-2.809800 0.000000
-2.757000 0.000000
-2.704300 0.000000
-2.651500 0.000000
-2.598800 0.000000
-2.546000 0.000000
-2.493300 0.000000
-2.440500 0.000000
-2.387800 0.000000
-2.335000 0.000000
-2.282300 0.000000
-2.229500 0.000000
-2.176800 0.000000
-2.124000 0.000000
-2.071300 0.000000
-2.018500 0.000000
-1.965800 0.000000
-1.913000 0.000000
-1.860300 0.000000
-1.807500 0.000000
-1.754800 0.000000
-1.702000 0.000000
-1.649300 0.000000
-1.596500 0.000000
-1.543800 0.000000
-1.491000 0.000000
-1.438300 0.000000
-1.385500 0.000000
-1.332800 0.000000
-1.280000 0.000000
-1.227300 0.000000
-1.174500 0.000000
-1.121800 0.000000
-1.069000 0.000000
-1.016300 0.000000
-0.963500 0.000000
-0.910800 0.000000
-0.858000 0.000000
-0.805300 0.000000
-0.752500 0.002500
-0.699800 0.085100
-0.647000 0.632100
-0.594300 1.566200
-0.541500 1.649600
-0.488800 0.704900
-0.436000 0.096100
-0.383300 0.002800
-0.330500 0.000000
-0.277800 0.000000
-0.225000 0.000000
-0.172300 0.000000
-0.119500 0.000000
-0.066800 0.000000
-0.014000 0.000000
0.038700 0.000000
0.091500 0.000000
0.144200 0.000000
0.197000 0.000000
0.249700 0.000000
0.302500 0.000000
0.355200 0.000000
0.408000 0.000000
0.460700 0.000000
0.513500 0.000000
0.566200 0.000000
0.619000 0.000000
0.671700 0.000000
0.724500 0.000000
0.777200 0.000000
0.830000 0.000000
0.882700 0.000000
0.935500 0.000000
0.988200 0.000000
1.041000 0.000000
1.093700 0.000000
1.146500 0.000000
1.199200 0.000000
1.252000 0.000000
1.304700 0.000000
1.357500 0.000000
1.410200 0.000000
1.463000 0.000800
1.515700 0.061300
1.568500 0.872100
1.621200 3.270600
1.674000 3.879800
1.726700 1.296700
1.779500 0.096200
1.832200 0.001200
1.885000 0.000000
1.937700 0.000000
1.990500 0.000000
2.043200 0.000000
2.096000 0.000000
2.148700 0.000000
2.201500 0.000000
2.254200 0.000000
2.307000 0.000000
2.359700 0.000000
2.412500 0.000000
2.465200 0.000000
2.518000 0.000000
2.570800 0.000000
2.623500 0.000000
2.676300 0.000000
2.729000 0.000000
2.781800 0.000000
2.834500 0.000000
2.887300 0.000000
2.940000 0.000000
2.992800 0.000000
3.045500 0.000000
3.098300 0.000000
3.151000 0.000000
3.203800 0.000100
3.256500 0.010000
3.309300 0.099600
3.362000 0.151800
3.414800 0.065600
3.467500 0.081700
3.520300 0.033400
3.573000 0.002100
3.625800 0.003300
3.678500 0.083800
3.731300 0.310500
3.784000 0.186500
3.836800 0.141700
3.889500 0.326100
3.942300 0.215300
3.995000 0.319600
4.047800 0.178800
4.100500 0.098300
4.153300 0.310400
4.206000 0.179600
4.258800 0.016100
4.311500 0.023100
4.364300 0.169600
4.417000 0.379000
4.469800 0.445100
4.522500 0.662600
4.575300 0.390300
4.628000 0.378400
4.680800 0.705200
4.733500 0.558600
4.786300 0.503700
4.839000 0.208700
4.891800 0.018800
4.944500 0.046200
4.997300 0.463100
5.050000 1.034900
5.102800 1.331800
5.155500 1.993100
5.208300 2.825900
5.261000 1.336900
5.313800 1.055200
5.366500 1.726000
5.419300 2.688000
5.472000 2.849100
5.524800 2.024500
5.577500 0.903300
5.630300 2.069100
5.683000 2.496700
5.735800 2.037700
5.788500 2.129100
5.841300 1.671900
5.894000 0.872100
5.946800 0.771400
5.999500 0.910600
6.052300 2.012900
6.105000 2.337200
6.157800 1.714700
6.210500 2.533900
6.263300 1.533500
6.316000 0.671500
6.368800 0.763500
6.421500 0.660800
6.474300 1.188400
6.527000 1.699000
6.579800 1.838100
6.632500 1.586800
6.685300 0.800400
6.738000 1.126800
6.790800 0.954100
6.843500 0.254800
6.896300 0.610400
6.949000 0.714800
7.001800 0.630700
7.054500 0.792300
7.107300 0.877900
7.160000 1.353100
7.212800 1.115200
7.265500 0.649800
7.318300 0.332400
7.371000 1.350000
7.423800 2.580400
7.476500 2.479400
7.529300 2.186300
7.582000 1.623400
7.634800 1.941700
7.687500 1.681900
7.740300 0.745300
7.793000 0.854300
7.845800 0.758400
7.898500 0.534800
7.951300 0.855300
8.004000 0.992900
8.056800 1.158100
8.109500 0.929600
8.162300 0.800400
8.215000 0.576500
8.267800 0.179500
8.320500 0.627400
8.373300 1.151200
8.426000 1.633100
8.478800 2.102400
8.531500 2.166800
8.584300 1.090700
8.637000 0.947800
8.689800 1.835400
8.742500 1.359100
8.795300 0.765100
8.848000 1.663500
8.900800 2.548100
8.953500 1.356500
9.006300 1.249900
9.059000 2.395000
9.111800 3.319300
9.164500 2.977900
9.217300 1.807300
9.270000 1.398400
9.322800 1.483300
9.375500 1.577400
9.428300 1.833400
9.481000 1.064200
9.533800 0.806100
9.586500 0.910100
9.639300 1.522800
9.692000 0.853000
9.744800 0.367700
9.797500 0.427200
9.850300 0.723400
9.903000 1.128400
9.955800 0.749000
10.008500 0.535200
10.061300 1.163500
10.114000 1.684600
10.166800 0.705200
10.219500 0.537100
10.272300 1.604900
10.325000 2.181700
10.377800 1.022200
10.430500 0.606000
10.483300 0.975900
10.536000 0.943800
10.588800 1.083800
10.641500 1.161000
10.694300 0.798800
10.747000 1.322700
10.799800 1.628500
10.852500 0.633100
10.905300 0.850600
10.958000 1.951900
11.010800 1.944300
11.063500 0.780400
11.116300 1.272700
11.169000 2.257100
11.221800 1.274800
11.274500 1.015300
11.327300 1.054000
11.380000 1.501800
11.432800 1.895600
11.485500 1.486600
11.538300 1.271600
11.591000 0.998000
11.643800 1.257500
11.696500 1.431900
11.749300 1.973400
11.802000 2.382400
11.854800 2.549600
11.907500 2.574800
11.960300 1.619400
12.013000 1.144900
12.065800 1.271500
12.118500 0.971500
12.171300 0.430900
12.224000 0.332200
12.276800 0.521600
12.329500 0.914700
12.382300 1.226000
12.435000 0.922400
12.487800 1.112400
12.540500 1.748300
12.593300 1.951500
12.646000 1.936100
12.698800 1.852200
12.751500 1.548000
12.804300 1.447400
12.857000 0.675800
12.909800 1.171400
12.962500 1.523500
13.015300 0.835800
13.068000 1.418800
13.120800 2.287100
13.173500 2.394200
13.226300 2.069300
13.279000 2.127600
13.331800 1.279000
13.384500 1.318500
13.437300 1.772600
13.490000 1.916600
13.542800 1.835000
13.595500 1.326700
13.648300 1.402200
13.701000 1.825000
13.753800 2.016000
13.806500 2.032900
13.859300 1.606400
13.912000 1.800200
13.964800 1.938800
14.017500 1.873900
14.070300 1.727100
14.123000 1.471500
14.175800 1.857300
14.228500 2.190200
14.281300 2.134600
14.334000 1.804800
14.386800 2.129500
14.439500 2.082100
14.492300 1.441500
14.545000 0.942900
14.597800 0.795800
14.650500 1.319700
14.703300 1.291100
14.756000 1.608100
14.808800 2.099600
14.861500 1.503500
14.914300 0.849500
14.967000 1.145200
15.019800 1.896700
15.072500 1.007500
15.125300 0.112000
15.178000 0.193600
15.230800 1.532500
15.283500 3.019200
15.336300 2.504100
15.389000 1.453600
15.441800 1.068000
15.494500 1.478300
15.547300 1.219500
15.600000 0.987600
15.652800 0.452600
15.705500 0.232600
15.758300 0.675900
15.811000 1.184200
15.863800 1.556100
15.916500 2.396800
15.969300 2.161200
16.022000 1.096800
16.074800 1.302600
16.127500 1.068300
16.180300 1.287600
16.233000 1.302300
16.285800 1.299800
16.338500 1.721800
16.391300 1.404300
16.444000 1.661500
16.496800 1.590800
16.549500 1.131300
16.602300 1.020800
16.655000 0.688200
16.707800 0.547800
16.760600 0.983300
16.813300 1.098600
16.866100 0.959700
16.918800 1.476300
16.971600 1.487200
17.024300 0.778100
17.077100 0.853300
17.129800 1.333500
17.182600 1.764000
17.235300 1.083200
17.288100 0.981700
17.340800 2.214500
17.393600 1.827400
17.446300 1.457600
17.499100 2.092100
17.551800 1.988200
17.604600 1.812500
17.657300 1.160400
17.710100 1.001200
17.762800 0.968500
17.815600 0.435300
17.868300 1.072900
17.921100 2.353100
17.973800 2.082200
18.026600 1.888700
18.079300 1.838800
18.132100 1.385400
18.184800 1.446700
18.237600 1.254500
18.290300 1.059400
18.343100 1.330400
18.395800 0.697300
18.448600 0.322200
18.501300 0.392300
18.554100 0.201800
18.606800 0.675100
18.659600 1.437500
18.712300 1.214100
18.765100 1.216500
18.817800 0.668800
18.870600 0.643500
18.923300 1.443400
18.976100 1.677000
19.028800 0.874500
19.081600 1.015900
19.134300 1.938600
19.187100 1.190500
19.239800 1.211900
19.292600 1.418100
19.345300 1.566700
19.398100 2.684600
19.450800 3.977900
19.503600 3.314200
19.556300 2.535700
19.609100 2.426300
19.661800 1.552500
19.714600 0.727500
19.767300 1.056400
19.820100 2.110500
19.872800 2.077000
19.925600 1.690700
19.978300 1.868100
20.031100 3.186900
20.083800 3.815900
20.136600 2.632300
20.189300 1.520900
20.242100 1.355000
20.294800 2.218500
20.347600 1.961900
20.400300 1.644200
20.453100 1.443300
20.505800 1.240600
20.558600 1.494600
20.611300 1.033700
20.664100 0.555100
20.716800 0.849000
20.769600 2.394200
20.822300 2.137100
20.875100 1.048900
20.927800 0.981800
20.980600 1.149200
21.033300 1.359500
21.086100 2.379500
21.138800 2.683700
21.191600 2.451100
21.244300 2.013700
21.297100 1.761500
21.349800 1.487000
21.402600 1.310800
21.455300 0.843100
21.508100 0.497600
21.560800 0.630500
21.613600 0.731500
21.666300 1.363400
21.719100 1.652900
21.771800 1.639600
21.824600 2.203500
21.877300 1.883700
21.930100 1.576800
21.982800 2.035100
22.035600 2.291500
22.088300 1.430900
22.141100 0.637700
22.193800 1.201900
22.246600 2.205600
22.299300 2.781500
22.352100 1.839300
22.404800 1.049600
22.457600 2.010000
22.510300 2.760600
22.563100 1.788500
22.615800 1.568500
22.668600 1.199700
22.721300 1.755600
22.774100 1.883800
22.826800 0.803700
22.879600 1.154700
22.932300 2.955700
22.985100 3.953700
23.037800 3.468900
23.090600 2.145000
23.143300 0.898200
23.196100 1.364800
23.248800 1.917500
23.301600 1.249500
23.354300 1.196700
23.407100 1.283100
23.459800 1.425900
23.512600 2.373700
23.565300 2.259900
23.618100 1.190900
23.670800 1.571700
23.723600 1.933200
23.776300 1.243900
23.829100 1.352100
23.881800 1.874600
23.934600 1.527400
23.987300 1.324000
24.040100 1.129300
24.092800 1.292000
24.145600 1.607000
24.198300 1.652400
24.251100 1.214600
24.303800 1.096000
24.356600 2.886300
24.409300 2.780100
24.462100 1.847400
24.514800 1.843400
24.567600 1.870500
24.620300 1.824500
24.673100 1.583100
24.725800 1.731200
24.778600 1.881500
24.831300 2.463100
24.884100 1.749300
24.936800 1.374300
24.989600 2.234800
25.042300 2.596700
25.095100 1.375100
25.147800 0.907600
25.200600 1.332400
25.253300 2.262100
25.306100 2.984900
25.358800 2.479300
25.411600 2.043500
25.464300 1.269700
25.517100 1.474400
25.569800 1.264300
25.622600 1.919900
25.675300 2.345500
25.728100 1.522400
25.780800 1.248500
25.833600 1.518500
25.886300 1.581200
25.939100 1.780400
25.991800 1.254400
26.044600 1.512100
26.097300 3.182200
26.150100 2.712400
26.202800 1.531500
26.255600 1.320400
26.308300 1.459500
26.361100 2.126300
26.413800 1.251600
26.466600 0.741100
26.519300 1.844700
26.572100 2.361000
26.624800 1.107600
26.677600 0.808000
26.730300 1.854400
26.783100 2.144300
26.835800 1.501000
26.888600 3.480600
26.941300 4.064100
26.994100 2.407400
27.046800 1.628500
27.099600 2.259000
27.152300 1.179200
27.205100 0.616300
27.257800 1.021600
27.310600 1.355100
27.363300 1.763200
27.416100 2.754200
27.468800 3.650100
27.521600 2.855100
27.574300 1.808000
27.627100 0.461700
27.679800 0.543800
27.732600 1.098800
27.785300 1.287900
27.838100 1.654600
27.890800 3.190900
27.943600 3.667000
27.996300 2.181700
28.049100 1.424900
28.101800 1.843200
28.154600 1.614500
28.207300 1.560800
28.260100 1.470100
28.312800 1.066800
28.365600 1.659800
28.418300 1.496800
28.471100 0.954600
28.523800 0.966300
28.576600 0.928400
28.629300 0.776100
28.682100 0.812200
28.734800 1.760700
28.787600 2.340900
28.840300 2.217100
28.893100 1.695800
28.945800 1.643200
28.998600 1.524800
29.051300 1.504000
29.104100 2.127500
29.156800 2.984100
29.209600 3.143200
29.262300 4.183600
29.315100 3.111400
29.367800 2.212300
29.420600 1.978000
29.473300 1.425800
29.526100 1.450500
29.578800 1.144400
29.631600 1.696300
29.684300 2.928600
29.737100 4.605500
29.789800 4.473000
29.842600 2.383300
29.895300 1.432000
29.948100 1.280800
30.000800 1.462700
30.053600 1.746000
30.106300 1.209700
30.159100 0.721000
30.211800 0.625800
30.264600 0.991100
30.317300 2.111300
30.370100 2.794500
30.422800 2.074800
30.475600 2.019100
30.528300 2.199900
30.581100 2.390200
30.633800 3.425400
30.686600 2.295500
30.739300 1.583500
30.792100 1.786800
30.844900 1.482500
30.897600 1.333900
30.950400 2.379000
31.003100 2.101200
31.055900 1.583000
31.108600 1.999700
31.161400 2.140100
31.214100 2.257200
31.266900 1.936400
31.319600 1.137700
31.372400 1.916300
31.425100 1.632200
31.477900 1.249700
31.530600 1.591300
31.583400 1.592200
31.636100 1.744800
31.688900 1.659300
31.741600 0.810300
31.794400 0.647800
31.847100 1.910000
