set title 'mp-1092293 - Density of States'
set xlabel 'Energy (eV)'
set ylabel 'DOS (states/eV)'
set grid
set xrange [-10:10]
set yrange [0:10.720]
set xzeroaxis lt -1
set terminal png size 800,600
set output 'mp-1092293_dos_gnuplot.png'
plot '-' using 1:2 with lines title 'DOS'
-8.426400 0.000000
-8.408500 0.000000
-8.390600 0.000000
-8.372800 0.000000
-8.354900 0.000000
-8.337000 0.000000
-8.319200 0.000000
-8.301300 0.000000
-8.283400 0.000000
-8.265500 0.000000
-8.247700 0.000000
-8.229800 0.000000
-8.211900 0.000000
-8.194100 0.000000
-8.176200 0.000000
-8.158300 0.000000
-8.140400 0.000000
-8.122600 0.000000
-8.104700 0.000000
-8.086800 0.000000
-8.068900 0.000000
-8.051100 0.000000
-8.033200 0.000000
-8.015300 0.000000
-7.997500 0.000000
-7.979600 0.000000
-7.961700 0.000000
-7.943800 0.000000
-7.926000 0.000000
-7.908100 0.000000
-7.890200 0.000000
-7.872400 0.000000
-7.854500 0.000000
-7.836600 0.000000
-7.818700 0.000000
-7.800900 0.000000
-7.783000 0.000000
-7.765100 0.000000
-7.747200 0.000000
-7.729400 0.000000
-7.711500 0.000000
-7.693600 0.000000
-7.675800 0.000000
-7.657900 0.000000
-7.640000 0.000000
-7.622100 0.000000
-7.604300 0.000000
-7.586400 0.000000
-7.568500 0.000000
-7.550700 0.000000
-7.532800 0.000000
-7.514900 0.000000
-7.497000 0.000000
-7.479200 0.000000
-7.461300 0.000000
-7.443400 0.000000
-7.425500 0.000000
-7.407700 0.000000
-7.389800 0.000000
-7.371900 0.000000
-7.354100 0.000000
-7.336200 0.000000
-7.318300 0.000000
-7.300400 0.000000
-7.282600 0.000000
-7.264700 0.000000
-7.246800 0.000000
-7.229000 0.000000
-7.211100 0.000000
-7.193200 0.000000
-7.175300 0.000000
-7.157500 0.000000
-7.139600 0.000000
-7.121700 0.000000
-7.103800 0.000000
-7.086000 0.000000
-7.068100 0.000000
-7.050200 0.000000
-7.032400 0.000000
-7.014500 0.000000
-6.996600 0.000000
-6.978700 0.000000
-6.960900 0.000000
-6.943000 0.000000
-6.925100 0.000000
-6.907300 0.000000
-6.889400 0.000000
-6.871500 0.000000
-6.853600 0.000000
-6.835800 0.000000
-6.817900 0.000000
-6.800000 0.000100
-6.782100 0.013600
-6.764300 0.049900
-6.746400 0.109200
-6.728500 0.165000
-6.710700 0.189400
-6.692800 0.201400
-6.674900 0.205800
-6.657000 0.226300
-6.639200 0.248400
-6.621300 0.271300
-6.603400 0.294100
-6.585600 0.315500
-6.567700 0.333000
-6.549800 0.346100
-6.531900 0.355700
-6.514100 0.364300
-6.496200 0.375000
-6.478300 0.388800
-6.460400 0.403000
-6.442600 0.417400
-6.424700 0.431800
-6.406800 0.446300
-6.389000 0.460300
-6.371100 0.473700
-6.353200 0.487400
-6.335300 0.500900
-6.317500 0.513600
-6.299600 0.526000
-6.281700 0.539000
-6.263900 0.553000
-6.246000 0.567900
-6.228100 0.583600
-6.210200 0.599100
-6.192400 0.614600
-6.174500 0.630300
-6.156600 0.646400
-6.138700 0.662700
-6.120900 0.679400
-6.103000 0.696700
-6.085100 0.714700
-6.067300 0.732600
-6.049400 0.750500
-6.031500 0.765900
-6.013600 0.774500
-5.995800 0.776600
-5.977900 0.778100
-5.960000 0.784200
-5.942200 0.789900
-5.924300 0.795300
-5.906400 0.800200
-5.888500 0.804800
-5.870700 0.809000
-5.852800 0.813000
-5.834900 0.818100
-5.817000 0.825200
-5.799200 0.832500
-5.781300 0.839900
-5.763400 0.847600
-5.745600 0.855400
-5.727700 0.863200
-5.709800 0.871200
-5.691900 0.879200
-5.674100 0.887400
-5.656200 0.895800
-5.638300 0.905600
-5.620500 0.926500
-5.602600 0.956000
-5.584700 0.980400
-5.566800 1.007400
-5.549000 1.036900
-5.531100 1.068100
-5.513200 1.099800
-5.495300 1.131400
-5.477500 1.163600
-5.459600 1.196500
-5.441700 1.230400
-5.423900 1.266000
-5.406000 1.303400
-5.388100 1.341300
-5.370200 1.379700
-5.352400 1.418900
-5.334500 1.458800
-5.316600 1.499300
-5.298800 1.538700
-5.280900 1.581200
-5.263000 1.632700
-5.245100 1.686300
-5.227300 1.742500
-5.209400 1.805300
-5.191500 1.873500
-5.173600 1.946400
-5.155800 2.021400
-5.137900 2.116400
-5.120000 2.260000
-5.102200 2.355500
-5.084300 2.471900
-5.066400 2.578700
-5.048500 2.679100
-5.030700 2.766000
-5.012800 2.823300
-4.994900 2.886500
-4.977100 3.060500
-4.959200 2.667300
-4.941300 2.676800
-4.923400 2.710500
-4.905600 2.680100
-4.887700 2.621200
-4.869800 2.661800
-4.851900 2.687900
-4.834100 2.700000
-4.816200 2.723900
-4.798300 2.762500
-4.780500 2.784200
-4.762600 2.803000
-4.744700 2.762800
-4.726800 2.885500
-4.709000 3.007100
-4.691100 2.684600
-4.673200 2.591100
-4.655400 2.888800
-4.637500 3.386400
-4.619600 4.236600
-4.601700 4.484500
-4.583900 4.367500
-4.566000 4.318300
-4.548100 4.466000
-4.530200 4.555200
-4.512400 4.443600
-4.494500 5.073400
-4.476600 3.715900
-4.458800 3.400300
-4.440900 3.200400
-4.423000 3.260900
-4.405100 3.327200
-4.387300 3.556600
-4.369400 3.051300
-4.351500 2.739800
-4.333600 2.488900
-4.315800 2.330000
-4.297900 1.943500
-4.280000 1.354600
-4.262200 1.005800
-4.244300 0.000000
-4.226400 0.000000
-4.208500 0.000000
-4.190700 0.000000
-4.172800 0.000000
-4.154900 0.000000
-4.137100 0.000000
-4.119200 0.000000
-4.101300 0.000000
-4.083400 0.000000
-4.065600 0.000000
-4.047700 0.000000
-4.029800 0.000000
-4.011900 0.000000
-3.994100 0.000000
-3.976200 0.000000
-3.958300 0.000000
-3.940500 0.000000
-3.922600 0.000000
-3.904700 0.000000
-3.886800 0.000000
-3.869000 0.000000
-3.851100 0.000000
-3.833200 0.000000
-3.815400 0.000000
-3.797500 0.000000
-3.779600 0.000000
-3.761700 0.000000
-3.743900 0.000000
-3.726000 0.000000
-3.708100 0.000000
-3.690200 0.000000
-3.672400 0.000000
-3.654500 0.000000
-3.636600 0.000000
-3.618800 0.000000
-3.600900 0.000000
-3.583000 0.000000
-3.565100 0.000000
-3.547300 0.000000
-3.529400 0.000000
-3.511500 0.000000
-3.493700 0.000000
-3.475800 0.000000
-3.457900 0.000000
-3.440000 0.000000
-3.422200 0.000000
-3.404300 0.000000
-3.386400 0.000000
-3.368500 0.000000
-3.350700 0.000000
-3.332800 0.000000
-3.314900 0.000000
-3.297100 0.000000
-3.279200 0.000000
-3.261300 0.000000
-3.243400 0.000000
-3.225600 0.000000
-3.207700 0.000000
-3.189800 0.000000
-3.172000 0.000000
-3.154100 0.000000
-3.136200 0.000000
-3.118300 0.000000
-3.100500 0.000000
-3.082600 0.000000
-3.064700 0.000000
-3.046800 0.000000
-3.029000 0.000000
-3.011100 0.000000
-2.993200 0.000000
-2.975400 0.000000
-2.957500 0.000000
-2.939600 0.000000
-2.921700 0.000000
-2.903900 0.000000
-2.886000 0.000000
-2.868100 0.000000
-2.850300 0.000000
-2.832400 0.000000
-2.814500 0.000000
-2.796600 0.000000
-2.778800 0.000000
-2.760900 0.000000
-2.743000 0.000000
-2.725100 0.000000
-2.707300 0.000000
-2.689400 0.000000
-2.671500 0.000000
-2.653700 0.000000
-2.635800 0.000000
-2.617900 0.000000
-2.600000 0.000000
-2.582200 0.000000
-2.564300 0.000000
-2.546400 0.000000
-2.528600 0.000000
-2.510700 0.000000
-2.492800 0.000000
-2.474900 0.000000
-2.457100 0.000000
-2.439200 0.000000
-2.421300 0.000000
-2.403400 0.000000
-2.385600 0.000000
-2.367700 0.000000
-2.349800 0.000000
-2.332000 0.000000
-2.314100 0.000000
-2.296200 0.000000
-2.278300 0.000000
-2.260500 0.000000
-2.242600 0.000000
-2.224700 0.000000
-2.206900 0.000000
-2.189000 0.000000
-2.171100 0.000000
-2.153200 0.000000
-2.135400 0.000000
-2.117500 0.000000
-2.099600 0.000000
-2.081700 0.000000
-2.063900 0.000000
-2.046000 0.000000
-2.028100 0.000000
-2.010300 0.000000
-1.992400 0.000000
-1.974500 0.000000
-1.956600 0.000000
-1.938800 0.000000
-1.920900 0.000000
-1.903000 0.000000
-1.885200 0.000000
-1.867300 0.000000
-1.849400 0.000000
-1.831500 0.000000
-1.813700 0.000000
-1.795800 0.000000
-1.777900 0.000000
-1.760000 0.000000
-1.742200 0.000000
-1.724300 0.000000
-1.706400 0.000000
-1.688600 0.000000
-1.670700 0.000000
-1.652800 0.000000
-1.634900 0.000000
-1.617100 0.000000
-1.599200 0.000000
-1.581300 0.000000
-1.563500 0.000000
-1.545600 0.000000
-1.527700 0.000000
-1.509800 0.000000
-1.492000 0.000000
-1.474100 0.000000
-1.456200 0.000000
-1.438300 0.000000
-1.420500 0.000000
-1.402600 0.000000
-1.384700 0.000000
-1.366900 0.000000
-1.349000 0.000000
-1.331100 0.000000
-1.313200 0.000000
-1.295400 0.000000
-1.277500 0.000000
-1.259600 0.000000
-1.241800 0.000000
-1.223900 0.000000
-1.206000 0.000000
-1.188100 0.000000
-1.170300 0.000000
-1.152400 0.000000
-1.134500 0.000000
-1.116600 0.000000
-1.098800 0.000000
-1.080900 0.000000
-1.063000 0.000000
-1.045200 0.000000
-1.027300 0.000000
-1.009400 0.000000
-0.991500 0.000000
-0.973700 0.000000
-0.955800 0.000000
-0.937900 0.000000
-0.920100 0.000000
-0.902200 0.000000
-0.884300 0.000000
-0.866400 0.000000
-0.848600 0.000000
-0.830700 0.000000
-0.812800 0.000000
-0.794900 0.000000
-0.777100 0.000000
-0.759200 0.000000
-0.741300 0.000000
-0.723500 0.000000
-0.705600 0.000000
-0.687700 0.000000
-0.669800 0.000000
-0.652000 0.000000
-0.634100 0.000000
-0.616200 0.000000
-0.598400 0.000000
-0.580500 0.000000
-0.562600 0.000000
-0.544700 0.000000
-0.526900 0.000000
-0.509000 0.000000
-0.491100 0.000000
-0.473200 0.000000
-0.455400 0.000000
-0.437500 0.000000
-0.419600 0.000000
-0.401800 0.000000
-0.383900 0.000000
-0.366000 0.000000
-0.348100 0.000000
-0.330300 0.000000
-0.312400 0.000000
-0.294500 0.000000
-0.276700 0.000000
-0.258800 0.000000
-0.240900 0.000000
-0.223000 0.000000
-0.205200 0.000000
-0.187300 0.000000
-0.169400 0.000000
-0.151500 0.000000
-0.133700 0.000000
-0.115800 0.000000
-0.097900 0.000000
-0.080100 0.000000
-0.062200 0.000000
-0.044300 0.000000
-0.026400 0.000000
-0.008600 0.000000
0.009300 0.000000
0.027200 0.000000
0.045000 0.000000
0.062900 0.000000
0.080800 0.000000
0.098700 0.000000
0.116500 0.000000
0.134400 0.000000
0.152300 0.000000
0.170200 0.000000
0.188000 0.000000
0.205900 0.000000
0.223800 0.000000
0.241600 0.000000
0.259500 0.000000
0.277400 0.000200
0.295300 0.028600
0.313100 0.158900
0.331000 0.226800
0.348900 0.259100
0.366700 0.285000
0.384600 0.317400
0.402500 0.358800
0.420400 0.407400
0.438200 0.461200
0.456100 0.711300
0.474000 0.678900
0.491900 0.764300
0.509700 0.861000
0.527600 0.980600
0.545500 1.036100
0.563300 1.015100
0.581200 1.066700
0.599100 1.138100
0.617000 1.209100
0.634800 1.291300
0.652700 1.382300
0.670600 1.427900
0.688400 1.427900
0.706300 1.451300
0.724200 1.488600
0.742100 1.525500
0.759900 1.563900
0.777800 1.640000
0.795700 1.695200
0.813600 1.737600
0.831400 1.859300
0.849300 1.982800
0.867200 2.105500
0.885000 2.187800
0.902900 2.209900
0.920800 2.260600
0.938700 2.285600
0.956500 2.344800
0.974400 2.267700
0.992300 2.193300
1.010100 2.154900
1.028000 2.141400
1.045900 2.141800
1.063800 2.167500
1.081600 2.189600
1.099500 2.160300
1.117400 2.133700
1.135300 2.080200
1.153100 2.047400
1.171000 2.026700
1.188900 2.009800
1.206700 1.993800
1.224600 2.000700
1.242500 2.026000
1.260400 2.055600
1.278200 2.020700
1.296100 2.016700
1.314000 2.033700
1.331800 2.097500
1.349700 2.337100
1.367600 2.378200
1.385500 2.432200
1.403300 2.565600
1.421200 2.699200
1.439100 2.642900
1.457000 2.579200
1.474800 2.670800
1.492700 2.760400
1.510600 3.525900
1.528400 3.566700
1.546300 3.545400
1.564200 3.545000
1.582100 3.438900
1.599900 3.338800
1.617800 3.213200
1.635700 3.191100
1.653600 3.159900
1.671400 3.128800
1.689300 3.113300
1.707200 3.200000
1.725000 3.171000
1.742900 3.423500
1.760800 3.431900
1.778700 3.331000
1.796500 3.328300
1.814400 3.284800
1.832300 3.240400
1.850100 3.268200
1.868000 3.799800
1.885900 4.233500
1.903800 4.505600
1.921600 4.705700
1.939500 5.138500
1.957400 5.573500
1.975300 5.487400
1.993100 5.297700
2.011000 5.509400
2.028900 4.988200
2.046700 5.641100
2.064600 6.510400
2.082500 6.100700
2.100400 5.482100
2.118200 5.382900
2.136100 5.706200
2.154000 6.082600
2.171800 7.306500
2.189700 8.762600
2.207600 9.745500
2.225500 9.394900
2.243300 8.591900
2.261200 6.750800
2.279100 5.287400
2.297000 4.392900
2.314800 2.128300
2.332700 1.315700
2.350600 1.268000
2.368400 1.385600
2.386300 1.555800
2.404200 2.041200
2.422100 2.268900
2.439900 2.628800
2.457800 3.322600
2.475700 4.149400
2.493500 4.575300
2.511400 4.812000
2.529300 4.953600
2.547200 5.501500
2.565000 5.804100
2.582900 6.174100
2.600800 6.325800
2.618700 6.179700
2.636500 5.556100
2.654400 4.868000
2.672300 4.381500
2.690100 4.080000
2.708000 4.268200
2.725900 4.541300
2.743800 4.869800
2.761600 5.517300
2.779500 5.608100
2.797400 6.512400
2.815200 7.246200
2.833100 7.320800
2.851000 7.800300
2.868900 7.262000
2.886700 5.644200
2.904600 5.367200
2.922500 4.857100
2.940400 4.485200
2.958200 4.482000
2.976100 4.685700
2.994000 4.996000
3.011800 5.443500
3.029700 5.599300
3.047600 5.265500
3.065500 4.868400
3.083300 4.561600
3.101200 4.014600
3.119100 4.386300
3.136900 2.545100
3.154800 2.444900
3.172700 2.905600
3.190600 2.486600
3.208400 2.511200
3.226300 3.805600
3.244200 5.444800
3.262100 7.062100
3.279900 5.244300
3.297800 4.369200
3.315700 3.777100
3.333500 3.645500
3.351400 3.310700
3.369300 3.164600
3.387200 3.390800
3.405000 3.935300
3.422900 4.514600
3.440800 4.676100
3.458600 4.690000
3.476500 4.734200
3.494400 4.998600
3.512300 5.664000
3.530100 7.444500
3.548000 6.292200
3.565900 5.579600
3.583800 4.216600
3.601600 3.698700
3.619500 3.465500
3.637400 3.054600
3.655200 2.669500
3.673100 2.429900
3.691000 2.331700
3.708900 2.318400
3.726700 2.455000
3.744600 2.293500
3.762500 2.214500
3.780300 2.074700
3.798200 1.913400
3.816100 1.833600
3.834000 1.766000
3.851800 1.711700
3.869700 1.673600
3.887600 1.626000
3.905500 1.582500
3.923300 1.550600
3.941200 1.532500
3.959100 1.528200
3.976900 1.514500
3.994800 1.499900
4.012700 1.497000
4.030600 1.529200
4.048400 1.558800
4.066300 1.582600
4.084200 1.599800
4.102000 1.622600
4.119900 1.598000
4.137800 1.554700
4.155700 1.507800
4.173500 1.487400
4.191400 1.469100
4.209300 1.458300
4.227200 1.471200
4.245000 1.510600
4.262900 1.560800
4.280800 1.607600
4.298600 1.642600
4.316500 1.767600
4.334400 1.771400
4.352300 1.716300
4.370100 1.772500
4.388000 1.856200
4.405900 1.941400
4.423700 2.086700
4.441600 2.078300
4.459500 2.067800
4.477400 2.086300
4.495200 2.112000
4.513100 2.127600
4.531000 2.134700
4.548900 2.136800
4.566700 2.129700
4.584600 2.115600
4.602500 2.103700
4.620300 2.092300
4.638200 2.084800
4.656100 2.084200
4.674000 2.084200
4.691800 2.081100
4.709700 2.074900
4.727600 2.065900
4.745400 2.044200
4.763300 2.005700
4.781200 1.968500
4.799100 1.928900
4.816900 1.894900
4.834800 1.842600
4.852700 1.815900
4.870600 1.794300
4.888400 1.775800
4.906300 1.759500
4.924200 1.746800
4.942000 1.737000
4.959900 1.729100
4.977800 1.725800
4.995700 1.723800
5.013500 1.718200
5.031400 1.715000
5.049300 1.714300
5.067100 1.711200
5.085000 1.701600
5.102900 1.691100
5.120800 1.681000
5.138600 1.672600
5.156500 1.667800
5.174400 1.667200
5.192300 1.660300
5.210100 1.654200
5.228000 1.641400
5.245900 1.629500
5.263700 1.633800
5.281600 1.625700
5.299500 1.635100
5.317400 1.657300
5.335200 1.683000
5.353100 1.712000
5.371000 1.743700
5.388800 1.769400
5.406700 1.786000
5.424600 1.806100
5.442500 1.830600
5.460300 1.858700
5.478200 1.885100
5.496100 1.930800
5.514000 1.990700
5.531800 2.045400
5.549700 2.076700
5.567600 2.102500
5.585400 2.089700
5.603300 2.070700
5.621200 2.055800
5.639100 2.044300
5.656900 2.043400
5.674800 2.058900
5.692700 2.031300
5.710500 2.009000
5.728400 2.000500
5.746300 2.001400
5.764200 2.004900
5.782000 1.998200
5.799900 1.987300
5.817800 1.968700
5.835700 1.946700
5.853500 1.919900
5.871400 1.872200
5.889300 1.818300
5.907100 1.770600
5.925000 1.729700
5.942900 1.693900
5.960800 1.662700
5.978600 1.635700
5.996500 1.612000
6.014400 1.591700
6.032200 1.576200
6.050100 1.581600
6.068000 1.594600
6.085900 1.590500
6.103700 1.573000
6.121600 1.552000
6.139500 1.532000
6.157400 1.511700
6.175200 1.490100
6.193100 1.468200
6.211000 1.444700
6.228800 1.423600
6.246700 1.402600
6.264600 1.381500
6.282500 1.368900
6.300300 1.358400
6.318200 1.346500
6.336100 1.333300
6.353900 1.321300
6.371800 1.314400
6.389700 1.315900
6.407600 1.309700
6.425400 1.249600
6.443300 1.195900
6.461200 1.173900
6.479100 1.156700
6.496900 1.141300
6.514800 1.126900
6.532700 1.114900
6.550500 1.108700
6.568400 1.106300
6.586300 1.105600
6.604200 1.118200
6.622000 1.149900
6.639900 1.130700
6.657800 1.115600
6.675600 1.118200
6.693500 1.126900
6.711400 1.141600
6.729300 1.160400
6.747100 1.177700
6.765000 1.190300
6.782900 1.198300
6.800800 1.204200
6.818600 1.241300
6.836500 1.284400
6.854400 1.258000
6.872200 1.270900
6.890100 1.312600
6.908000 1.368100
6.925900 1.389700
6.943700 1.412000
6.961600 1.461400
6.979500 1.520900
6.997300 1.589800
7.015200 1.672500
7.033100 1.656200
7.051000 1.626100
7.068800 1.603500
7.086700 1.599600
7.104600 1.593400
7.122500 1.586700
7.140300 1.579700
7.158200 1.575200
7.176100 1.571600
7.193900 1.574000
7.211800 1.528100
7.229700 1.481700
7.247600 1.465900
7.265400 1.470700
7.283300 1.488200
7.301200 1.509600
7.319000 1.539900
7.336900 1.583700
7.354800 1.605300
7.372700 1.619500
7.390500 1.627400
7.408400 1.638100
7.426300 1.650000
7.444200 1.669500
7.462000 1.639000
7.479900 1.637100
7.497800 1.655800
7.515600 1.701200
7.533500 1.713000
7.551400 1.726400
7.569300 1.741200
7.587100 1.748300
7.605000 1.762800
7.622900 1.783000
7.640800 1.785000
7.658600 1.802000
7.676500 1.847200
7.694400 1.894600
7.712200 1.897600
7.730100 1.893000
7.748000 1.889300
7.765900 1.873600
7.783700 1.835500
7.801600 1.791900
7.819500 1.754700
7.837300 1.721700
7.855200 1.693700
7.873100 1.670400
7.891000 1.691100
7.908800 1.673400
7.926700 1.642900
7.944600 1.627900
7.962500 1.629300
7.980300 1.632300
7.998200 1.583500
8.016100 1.571300
8.033900 1.561600
8.051800 1.550400
8.069700 1.534600
8.087600 1.507200
8.105400 1.491300
8.123300 1.478400
8.141200 1.456400
8.159000 1.436800
8.176900 1.420200
8.194800 1.405600
8.212700 1.392600
8.230500 1.379700
8.248400 1.382400
8.266300 1.379400
8.284200 1.386000
8.302000 1.411500
8.319900 1.435300
8.337800 1.463000
8.355600 1.513100
8.373500 1.549800
8.391400 1.580300
8.409300 1.602900
8.427100 1.616500
8.445000 1.623000
8.462900 1.631500
8.480700 1.660400
8.498600 1.664900
8.516500 1.661500
8.534400 1.662500
8.552200 1.667700
8.570100 1.678700
8.588000 1.694600
8.605900 1.737600
8.623700 1.755900
8.641600 1.751900
8.659500 1.749400
8.677300 1.748000
8.695200 1.739600
8.713100 1.732400
8.731000 1.728700
8.748800 1.727400
8.766700 1.731900
8.784600 1.740200
8.802400 1.750000
8.820300 1.760200
8.838200 1.780900
8.856100 1.787400
8.873900 1.787400
8.891800 1.782400
8.909700 1.777600
8.927600 1.775300
8.945400 1.776100
8.963300 1.781300
8.981200 1.791900
8.999000 1.806200
9.016900 1.821700
9.034800 1.838100
9.052700 1.845700
9.070500 1.839200
9.088400 1.834800
9.106300 1.838800
9.124100 1.837700
9.142000 1.834000
9.159900 1.819200
9.177800 1.807700
9.195600 1.799500
9.213500 1.793400
9.231400 1.788600
9.249300 1.782900
9.267100 1.781300
9.285000 1.786400
9.302900 1.792000
9.320700 1.789400
9.338600 1.779600
9.356500 1.761100
9.374400 1.733500
9.392200 1.705100
9.410100 1.702900
9.428000 1.682600
9.445800 1.664700
9.463700 1.649200
9.481600 1.629900
9.499500 1.611400
9.517300 1.586300
9.535200 1.583400
9.553100 1.554000
9.571000 1.523400
9.588800 1.491900
9.606700 1.459700
9.624600 1.426300
9.642400 1.366600
9.660300 1.279800
9.678200 1.210500
9.696100 1.135000
9.713900 1.044200
9.731800 0.978800
9.749700 0.914100
9.767500 0.851000
9.785400 0.789700
9.803300 0.731600
9.821200 0.678100
9.839000 0.626300
9.856900 0.552900
9.874800 0.496200
9.892700 0.493300
9.910500 0.501500
9.928400 0.511300
9.946300 0.523100
9.964100 0.538300
9.982000 0.554200
9.999900 0.569500
10.017800 0.584100
10.035600 0.598300
10.053500 0.611500
10.071400 0.626700
10.089200 0.643900
10.107100 0.661900
10.125000 0.680800
10.142900 0.700100
10.160700 0.720600
10.178600 0.742900
10.196500 0.766700
10.214400 0.792100
10.232200 0.819100
10.250100 0.848200
10.268000 0.880000
10.285800 0.914400
10.303700 0.952500
10.321600 0.995900
10.339500 1.037500
10.357300 1.077900
10.375200 1.103700
10.393100 1.108300
10.410900 1.091400
10.428800 1.058800
10.446700 1.021900
10.464600 0.990300
10.482400 0.969900
10.500300 0.956400
10.518200 0.945500
10.536100 0.940700
10.553900 0.943800
10.571800 0.949500
10.589700 0.957600
10.607500 0.967700
10.625400 0.978700
