set title 'mp-1224025 - Density of States'
set xlabel 'Energy (eV)'
set ylabel 'DOS (states/eV)'
set grid
set xrange [-10:10]
set yrange [0:129.680]
set xzeroaxis lt -1
set terminal png size 800,600
set output 'mp-1224025_dos_gnuplot.png'
plot '-' using 1:2 with lines title 'DOS'
-16.243900 0.000000
-16.222400 0.000000
-16.200800 0.000000
-16.179300 0.000000
-16.157700 0.000000
-16.136200 0.000000
-16.114600 0.000000
-16.093100 0.000000
-16.071500 0.000000
-16.050000 0.000000
-16.028400 0.000000
-16.006900 0.000000
-15.985400 0.000000
-15.963800 0.000000
-15.942300 0.000000
-15.920700 0.000000
-15.899200 0.000000
-15.877600 0.000000
-15.856100 0.000000
-15.834500 0.000000
-15.813000 0.000000
-15.791400 0.000000
-15.769900 0.000000
-15.748300 0.000000
-15.726800 0.000000
-15.705200 0.000000
-15.683700 0.000000
-15.662200 0.000000
-15.640600 0.000000
-15.619100 0.000000
-15.597500 0.000000
-15.576000 0.000000
-15.554400 0.000000
-15.532900 0.000000
-15.511300 0.000000
-15.489800 0.000000
-15.468200 0.000000
-15.446700 0.000000
-15.425100 0.000000
-15.403600 0.000000
-15.382000 0.000000
-15.360500 0.000000
-15.338900 0.000000
-15.317400 0.000000
-15.295900 0.000000
-15.274300 0.000000
-15.252800 0.000000
-15.231200 0.000000
-15.209700 0.000000
-15.188100 0.000000
-15.166600 0.000000
-15.145000 0.000000
-15.123500 0.000000
-15.101900 0.000000
-15.080400 0.000000
-15.058800 0.000000
-15.037300 0.000000
-15.015700 0.000000
-14.994200 0.000000
-14.972700 0.000000
-14.951100 0.000000
-14.929600 0.000000
-14.908000 0.000000
-14.886500 0.000000
-14.864900 0.000000
-14.843400 0.000000
-14.821800 0.000000
-14.800300 0.000000
-14.778700 0.000000
-14.757200 0.000000
-14.735600 0.000000
-14.714100 0.000000
-14.692500 0.000000
-14.671000 0.000000
-14.649500 0.000000
-14.627900 0.000000
-14.606400 0.000000
-14.584800 0.000000
-14.563300 0.000000
-14.541700 0.000000
-14.520200 0.000000
-14.498600 0.000000
-14.477100 0.000000
-14.455500 0.000000
-14.434000 0.000000
-14.412400 0.000000
-14.390900 0.000000
-14.369300 0.000000
-14.347800 0.000000
-14.326200 0.000000
-14.304700 0.000000
-14.283200 4.005800
-14.261600 26.432900
-14.240100 21.492900
-14.218500 30.430600
-14.197000 75.095600
-14.175400 50.439800
-14.153900 103.890900
-14.132300 110.686000
-14.110800 14.535400
-14.089200 23.977100
-14.067700 6.944400
-14.046100 0.000000
-14.024600 0.000000
-14.003000 0.000000
-13.981500 0.000000
-13.960000 0.000000
-13.938400 0.000000
-13.916900 0.000000
-13.895300 0.000000
-13.873800 0.000000
-13.852200 0.000000
-13.830700 0.000000
-13.809100 0.000000
-13.787600 0.000000
-13.766000 0.000000
-13.744500 0.000000
-13.722900 0.000000
-13.701400 0.000000
-13.679800 0.000000
-13.658300 0.000000
-13.636800 0.000000
-13.615200 0.000000
-13.593700 0.000000
-13.572100 0.000000
-13.550600 0.000000
-13.529000 0.000000
-13.507500 0.000000
-13.485900 0.000000
-13.464400 0.000000
-13.442800 0.000000
-13.421300 0.000000
-13.399700 0.000000
-13.378200 0.000000
-13.356600 0.000000
-13.335100 0.000000
-13.313500 0.000000
-13.292000 0.000000
-13.270500 0.000000
-13.248900 0.000000
-13.227400 0.000000
-13.205800 0.000000
-13.184300 0.000000
-13.162700 0.000000
-13.141200 0.000000
-13.119600 0.000000
-13.098100 0.000000
-13.076500 0.000000
-13.055000 0.000000
-13.033400 0.000000
-13.011900 0.000000
-12.990300 0.000000
-12.968800 0.000000
-12.947300 0.000000
-12.925700 0.000000
-12.904200 0.000000
-12.882600 0.000000
-12.861100 0.000000
-12.839500 0.000000
-12.818000 0.000000
-12.796400 0.000000
-12.774900 0.000000
-12.753300 0.000000
-12.731800 0.000000
-12.710200 0.000000
-12.688700 0.000000
-12.667100 0.000000
-12.645600 0.000000
-12.624100 0.000000
-12.602500 0.000000
-12.581000 0.000000
-12.559400 0.000000
-12.537900 0.000000
-12.516300 0.000000
-12.494800 0.000000
-12.473200 0.000000
-12.451700 0.000000
-12.430100 0.000000
-12.408600 0.000000
-12.387000 0.000000
-12.365500 0.000000
-12.343900 0.000000
-12.322400 0.000000
-12.300800 0.000000
-12.279300 0.000000
-12.257800 0.000000
-12.236200 0.000000
-12.214700 0.000000
-12.193100 0.000000
-12.171600 0.000000
-12.150000 0.000000
-12.128500 0.000000
-12.106900 0.000000
-12.085400 0.000000
-12.063800 0.000000
-12.042300 0.000000
-12.020700 0.000000
-11.999200 0.000000
-11.977600 0.000000
-11.956100 0.000000
-11.934600 0.000000
-11.913000 0.000000
-11.891500 0.000000
-11.869900 0.000000
-11.848400 0.000000
-11.826800 0.000000
-11.805300 0.000000
-11.783700 0.000000
-11.762200 0.000000
-11.740600 0.000000
-11.719100 0.000000
-11.697500 0.000000
-11.676000 0.000000
-11.654400 0.000000
-11.632900 0.000000
-11.611400 0.000000
-11.589800 0.000000
-11.568300 0.000000
-11.546700 0.000000
-11.525200 0.000000
-11.503600 0.000000
-11.482100 0.000000
-11.460500 0.000000
-11.439000 0.000000
-11.417400 0.000000
-11.395900 0.000000
-11.374300 0.000000
-11.352800 0.000000
-11.331200 0.000000
-11.309700 0.000000
-11.288100 0.000000
-11.266600 0.000000
-11.245100 0.000000
-11.223500 0.000000
-11.202000 0.000000
-11.180400 0.000000
-11.158900 0.000000
-11.137300 0.000000
-11.115800 0.000000
-11.094200 0.000000
-11.072700 0.000000
-11.051100 0.000000
-11.029600 0.000000
-11.008000 0.000000
-10.986500 0.000000
-10.964900 0.000000
-10.943400 0.000000
-10.921900 0.000000
-10.900300 0.000000
-10.878800 0.000000
-10.857200 0.000000
-10.835700 0.000000
-10.814100 0.000000
-10.792600 0.000000
-10.771000 0.000000
-10.749500 0.000000
-10.727900 0.000000
-10.706400 0.000000
-10.684800 0.000000
-10.663300 0.000000
-10.641700 0.000000
-10.620200 0.000000
-10.598600 0.000000
-10.577100 0.000000
-10.555600 0.000000
-10.534000 0.000000
-10.512500 0.000000
-10.490900 0.000000
-10.469400 0.000000
-10.447800 0.000000
-10.426300 0.000000
-10.404700 0.000000
-10.383200 0.000000
-10.361600 0.000000
-10.340100 0.000000
-10.318500 0.000000
-10.297000 0.000000
-10.275400 0.000000
-10.253900 0.000000
-10.232400 0.000000
-10.210800 0.000000
-10.189300 0.000000
-10.167700 0.000000
-10.146200 0.000000
-10.124600 0.000000
-10.103100 0.000000
-10.081500 0.000000
-10.060000 0.000000
-10.038400 0.000000
-10.016900 0.000000
-9.995300 0.000000
-9.973800 0.000000
-9.952200 0.000000
-9.930700 0.000000
-9.909200 0.000000
-9.887600 0.000000
-9.866100 0.000000
-9.844500 0.000000
-9.823000 0.000000
-9.801400 0.000000
-9.779900 0.000000
-9.758300 0.000000
-9.736800 0.000000
-9.715200 0.000000
-9.693700 0.000000
-9.672100 0.000000
-9.650600 0.000000
-9.629000 0.000000
-9.607500 0.000000
-9.585900 0.000000
-9.564400 0.000000
-9.542900 0.000000
-9.521300 0.000000
-9.499800 0.000000
-9.478200 0.000000
-9.456700 0.000000
-9.435100 0.000000
-9.413600 0.000000
-9.392000 0.000000
-9.370500 0.000000
-9.348900 0.000000
-9.327400 0.000000
-9.305800 0.000000
-9.284300 0.000000
-9.262700 0.000000
-9.241200 0.000000
-9.219700 0.000000
-9.198100 0.000000
-9.176600 0.000000
-9.155000 0.000000
-9.133500 0.000000
-9.111900 0.000000
-9.090400 0.000000
-9.068800 0.000000
-9.047300 0.000000
-9.025700 0.000000
-9.004200 0.000000
-8.982600 0.000000
-8.961100 0.000000
-8.939500 0.000000
-8.918000 0.000000
-8.896500 0.000000
-8.874900 0.000000
-8.853400 0.000000
-8.831800 0.000000
-8.810300 0.000000
-8.788700 0.000000
-8.767200 0.000000
-8.745600 0.000000
-8.724100 0.000000
-8.702500 0.000000
-8.681000 0.000000
-8.659400 0.000000
-8.637900 0.000000
-8.616300 0.000000
-8.594800 0.000000
-8.573200 0.000000
-8.551700 0.000000
-8.530200 0.000000
-8.508600 0.000000
-8.487100 0.000000
-8.465500 0.000000
-8.444000 0.000000
-8.422400 0.000000
-8.400900 0.000000
-8.379300 0.000000
-8.357800 0.000000
-8.336200 0.000000
-8.314700 0.000000
-8.293100 0.000000
-8.271600 0.000000
-8.250000 0.000000
-8.228500 0.000000
-8.207000 0.000000
-8.185400 0.000000
-8.163900 0.000000
-8.142300 0.000000
-8.120800 0.000000
-8.099200 0.000000
-8.077700 0.000000
-8.056100 0.000000
-8.034600 0.000000
-8.013000 0.000000
-7.991500 0.000000
-7.969900 0.000000
-7.948400 0.000000
-7.926800 0.000000
-7.905300 0.000000
-7.883800 0.000000
-7.862200 0.000000
-7.840700 0.000000
-7.819100 0.000000
-7.797600 0.000000
-7.776000 0.000000
-7.754500 0.000000
-7.732900 0.000000
-7.711400 0.000000
-7.689800 0.000000
-7.668300 0.000000
-7.646700 0.000000
-7.625200 0.000000
-7.603600 0.000000
-7.582100 0.000000
-7.560500 0.000000
-7.539000 0.000000
-7.517500 0.000000
-7.495900 9.090900
-7.474400 10.000900
-7.452800 20.150400
-7.431300 18.062100
-7.409700 61.845100
-7.388200 99.013300
-7.366600 73.823000
-7.345100 76.228900
-7.323500 56.046700
-7.302000 40.586500
-7.280400 62.312100
-7.258900 64.041600
-7.237300 99.137100
-7.215800 83.942500
-7.194300 45.072200
-7.172700 91.013800
-7.151200 91.975300
-7.129600 92.590800
-7.108100 81.442100
-7.086500 50.600900
-7.065000 117.891000
-7.043400 34.647100
-7.021900 23.733000
-7.000300 6.878300
-6.978800 5.540700
-6.957200 0.000000
-6.935700 0.000000
-6.914100 0.000000
-6.892600 0.000000
-6.871100 0.000000
-6.849500 0.000000
-6.828000 0.000000
-6.806400 0.000000
-6.784900 0.000000
-6.763300 0.000000
-6.741800 0.000000
-6.720200 0.000000
-6.698700 0.000000
-6.677100 0.000000
-6.655600 0.000000
-6.634000 0.000000
-6.612500 0.000000
-6.590900 0.000000
-6.569400 0.000000
-6.547800 0.000000
-6.526300 0.000000
-6.504800 0.000000
-6.483200 0.000000
-6.461700 0.000000
-6.440100 0.000000
-6.418600 0.000000
-6.397000 0.000000
-6.375500 0.000000
-6.353900 0.000000
-6.332400 0.000000
-6.310800 0.000000
-6.289300 0.000000
-6.267700 0.000000
-6.246200 0.000000
-6.224600 0.000000
-6.203100 0.000000
-6.181600 0.000000
-6.160000 0.000000
-6.138500 0.000000
-6.116900 0.000000
-6.095400 0.000000
-6.073800 0.000000
-6.052300 0.000000
-6.030700 0.000000
-6.009200 0.000000
-5.987600 0.000000
-5.966100 0.000000
-5.944500 0.000000
-5.923000 0.000000
-5.901400 0.000000
-5.879900 0.000000
-5.858400 0.000000
-5.836800 0.000000
-5.815300 0.000000
-5.793700 0.000000
-5.772200 0.000000
-5.750600 0.000000
-5.729100 0.000000
-5.707500 0.000000
-5.686000 0.000000
-5.664400 0.000000
-5.642900 0.000000
-5.621300 0.000000
-5.599800 0.000000
-5.578200 0.000000
-5.556700 0.000000
-5.535100 0.000000
-5.513600 0.000000
-5.492100 0.000000
-5.470500 0.000000
-5.449000 0.000000
-5.427400 0.000000
-5.405900 0.000000
-5.384300 0.000000
-5.362800 0.000000
-5.341200 0.000000
-5.319700 0.000000
-5.298100 0.000000
-5.276600 0.000000
-5.255000 0.000000
-5.233500 0.000000
-5.211900 0.000000
-5.190400 0.000000
-5.168900 0.000000
-5.147300 0.000000
-5.125800 0.000000
-5.104200 0.000000
-5.082700 0.000000
-5.061100 0.000000
-5.039600 0.000000
-5.018000 0.000000
-4.996500 0.000000
-4.974900 0.000000
-4.953400 0.000000
-4.931800 0.000000
-4.910300 0.000000
-4.888700 0.000000
-4.867200 0.000000
-4.845700 0.000000
-4.824100 0.000000
-4.802600 0.000000
-4.781000 0.000000
-4.759500 0.000000
-4.737900 0.000000
-4.716400 0.000000
-4.694800 0.000000
-4.673300 0.000000
-4.651700 0.000000
-4.630200 0.000000
-4.608600 0.000000
-4.587100 0.000000
-4.565500 0.000000
-4.544000 0.000000
-4.522400 0.000000
-4.500900 0.000000
-4.479400 0.000000
-4.457800 0.000000
-4.436300 0.000000
-4.414700 0.000000
-4.393200 0.000000
-4.371600 0.000000
-4.350100 0.000000
-4.328500 0.000000
-4.307000 0.000000
-4.285400 0.000000
-4.263900 0.000000
-4.242300 0.000000
-4.220800 0.000000
-4.199200 0.000000
-4.177700 0.000000
-4.156200 0.000000
-4.134600 0.000000
-4.113100 0.000000
-4.091500 0.000000
-4.070000 0.000000
-4.048400 0.000000
-4.026900 0.000000
-4.005300 0.000000
-3.983800 0.000000
-3.962200 0.000000
-3.940700 0.000000
-3.919100 0.000000
-3.897600 0.000000
-3.876000 0.000000
-3.854500 0.000000
-3.833000 0.000000
-3.811400 0.000000
-3.789900 0.000000
-3.768300 0.000000
-3.746800 0.000000
-3.725200 0.000000
-3.703700 0.000000
-3.682100 0.000000
-3.660600 0.000000
-3.639000 0.000000
-3.617500 0.000000
-3.595900 0.000000
-3.574400 0.000000
-3.552800 0.000000
-3.531300 0.000000
-3.509700 0.000000
-3.488200 0.000000
-3.466700 0.000000
-3.445100 0.000000
-3.423600 0.000000
-3.402000 0.000000
-3.380500 0.000000
-3.358900 0.000000
-3.337400 0.000000
-3.315800 0.000000
-3.294300 0.000000
-3.272700 0.000000
-3.251200 0.000000
-3.229600 0.000000
-3.208100 0.000000
-3.186500 0.000000
-3.165000 0.000000
-3.143500 0.000000
-3.121900 0.000000
-3.100400 0.000000
-3.078800 0.000000
-3.057300 0.000000
-3.035700 0.000000
-3.014200 0.000000
-2.992600 0.000000
-2.971100 0.000000
-2.949500 0.000000
-2.928000 0.000000
-2.906400 0.000000
-2.884900 0.000000
-2.863300 0.000000
-2.841800 0.000000
-2.820200 0.000000
-2.798700 0.000000
-2.777200 0.000000
-2.755600 0.000000
-2.734100 0.005900
-2.712500 0.069100
-2.691000 0.189300
-2.669400 0.350500
-2.647900 0.428000
-2.626300 0.433200
-2.604800 0.384900
-2.583200 0.365200
-2.561700 0.378100
-2.540100 0.391000
-2.518600 0.402600
-2.497000 0.412600
-2.475500 0.421800
-2.454000 0.423200
-2.432400 0.412200
-2.410900 0.398200
-2.389300 0.387100
-2.367800 0.387600
-2.346200 0.388300
-2.324700 0.389800
-2.303100 0.392500
-2.281600 0.396600
-2.260000 0.398600
-2.238500 0.399700
-2.216900 0.400700
-2.195400 0.404000
-2.173800 0.408300
-2.152300 0.412600
-2.130800 0.414600
-2.109200 0.412500
-2.087700 0.406200
-2.066100 0.398400
-2.044600 0.393800
-2.023000 0.391900
-2.001500 0.393400
-1.979900 0.395000
-1.958400 0.396600
-1.936800 0.398000
-1.915300 0.398600
-1.893700 0.398600
-1.872200 0.398200
-1.850600 0.397700
-1.829100 0.398000
-1.807500 0.399100
-1.786000 0.401200
-1.764500 0.403700
-1.742900 0.406100
-1.721400 0.408500
-1.699800 0.410900
-1.678300 0.413300
-1.656700 0.413900
-1.635200 0.423400
-1.613600 0.442200
-1.592100 0.475000
-1.570500 0.505100
-1.549000 0.525600
-1.527400 0.544700
-1.505900 0.564400
-1.484300 0.583600
-1.462800 0.591800
-1.441300 0.607200
-1.419700 0.623400
-1.398200 0.640700
-1.376600 0.658100
-1.355100 0.671400
-1.333500 0.681200
-1.312000 0.693400
-1.290400 0.707600
-1.268900 0.723900
-1.247300 0.742000
-1.225800 0.761400
-1.204200 0.782200
-1.182700 0.800500
-1.161100 0.804000
-1.139600 0.792600
-1.118100 0.798400
-1.096500 0.811900
-1.075000 0.820500
-1.053400 0.819200
-1.031900 0.815300
-1.010300 0.810200
-0.988800 0.802600
-0.967200 0.796400
-0.945700 0.791800
-0.924100 0.789000
-0.902600 0.788400
-0.881000 0.789700
-0.859500 0.791400
-0.837900 0.793600
-0.816400 0.795800
-0.794800 0.798000
-0.773300 0.800000
-0.751800 0.801900
-0.730200 0.803600
-0.708700 0.805000
-0.687100 0.803900
-0.665600 0.801400
-0.644000 0.799500
-0.622500 0.801800
-0.600900 0.808200
-0.579400 0.818700
-0.557800 0.831600
-0.536300 0.843100
-0.514700 0.853600
-0.493200 0.863200
-0.471600 0.872600
-0.450100 0.882100
-0.428600 0.891700
-0.407000 0.901600
-0.385500 0.911600
-0.363900 0.921300
-0.342400 0.930600
-0.320800 0.940000
-0.299300 0.950000
-0.277700 0.960300
-0.256200 0.970700
-0.234600 0.980700
-0.213100 0.989100
-0.191500 0.995500
-0.170000 1.000000
-0.148400 1.004500
-0.126900 1.009900
-0.105400 1.015900
-0.083800 1.022600
-0.062300 1.030100
-0.040700 1.037600
-0.019200 1.045100
0.002400 1.052700
0.023900 1.060200
0.045500 1.067900
0.067000 1.075600
0.088600 1.083400
0.110100 1.092200
0.131700 1.101400
0.153200 1.110400
0.174800 1.118700
0.196300 1.127200
0.217900 1.136200
0.239400 1.145700
0.260900 1.155200
0.282500 1.164600
0.304000 1.174000
0.325600 1.183300
0.347100 1.192800
0.368700 1.202300
0.390200 1.212900
0.411800 1.227600
0.433300 1.246100
0.454900 1.265700
0.476400 1.289200
0.498000 1.317400
0.519500 1.350000
0.541100 1.377500
0.562600 1.387800
0.584100 1.391500
0.605700 1.436500
0.627200 1.554300
0.648800 1.516100
0.670300 1.484800
0.691900 1.457100
0.713400 1.431200
0.735000 1.406100
0.756500 1.382500
0.778100 1.359000
0.799600 1.335000
0.821200 1.318200
0.842700 1.301500
0.864300 1.284200
0.885800 1.263700
0.907300 1.240300
0.928900 1.217700
0.950400 1.196000
0.972000 1.175400
0.993500 1.172800
1.015100 1.183900
1.036600 1.195200
1.058200 1.207500
1.079700 1.221100
1.101300 1.239700
1.122800 1.262400
1.144400 1.231700
1.165900 1.143200
1.187500 1.147500
1.209000 1.151300
1.230600 1.154900
1.252100 1.158500
1.273600 1.162300
1.295200 1.166300
1.316700 1.170600
1.338300 1.175300
1.359800 1.180300
1.381400 1.184000
1.402900 1.185900
1.424500 1.188000
1.446000 1.190200
1.467600 1.192500
1.489100 1.195500
1.510700 1.199600
1.532200 1.203900
1.553800 1.208400
1.575300 1.213200
1.596800 1.218500
1.618400 1.224200
1.639900 1.230300
1.661500 1.241300
1.683000 1.256700
1.704600 1.269300
1.726100 1.279600
1.747700 1.291400
1.769200 1.300900
1.790800 1.307900
1.812300 1.315100
1.833900 1.321900
1.855400 1.328400
1.877000 1.336400
1.898500 1.347100
1.920000 1.384600
1.941600 1.425100
1.963100 1.436600
1.984700 1.449200
2.006200 1.461500
2.027800 1.507300
2.049300 1.618000
2.070900 1.670400
2.092400 1.678900
2.114000 1.697400
2.135500 1.714700
2.157100 1.649300
2.178600 1.558700
2.200200 1.470200
2.221700 1.384400
2.243300 1.327600
2.264800 1.292600
2.286300 1.264100
2.307900 1.236800
2.329400 1.210000
2.351000 1.199100
2.372500 1.192400
2.394100 1.187000
2.415600 1.200400
2.437200 1.247500
2.458700 1.299700
2.480300 1.347700
2.501800 1.396400
2.523400 1.445400
2.544900 1.494700
2.566500 1.545900
2.588000 1.602600
2.609500 1.613400
2.631100 1.637300
2.652600 1.676100
2.674200 1.714800
2.695700 1.732400
2.717300 1.753200
2.738800 1.748200
2.760400 1.702200
2.781900 1.653800
2.803500 1.599400
2.825000 1.528300
2.846600 1.471500
2.868100 1.416200
2.889700 1.391200
2.911200 1.379300
2.932700 1.362900
2.954300 1.345800
2.975800 1.329700
2.997400 1.312900
3.018900 1.295500
3.040500 1.278700
3.062000 1.265100
3.083600 1.254300
3.105100 1.246300
3.126700 1.240800
3.148200 1.236100
3.169800 1.235000
3.191300 1.261300
3.212900 1.273600
3.234400 1.291700
3.256000 1.313700
3.277500 1.340000
3.299000 1.366900
3.320600 1.396200
3.342100 1.427900
3.363700 1.456100
3.385200 1.477700
3.406800 1.495800
3.428300 1.526400
3.449900 1.636900
3.471400 1.606500
3.493000 1.568000
3.514500 1.654100
3.536100 1.645900
3.557600 1.596800
3.579200 1.564000
3.600700 1.581200
3.622200 1.596800
3.643800 1.595700
3.665300 1.538400
3.686900 1.512300
3.708400 1.508700
3.730000 1.506200
3.751500 1.479500
3.773100 1.452600
3.794600 1.427700
3.816200 1.410000
3.837700 1.413000
3.859300 1.431000
3.880800 1.447200
3.902400 1.464900
3.923900 1.484900
3.945500 1.509300
3.967000 1.540300
3.988500 1.653500
4.010100 1.722200
4.031600 1.763000
4.053200 1.780000
4.074700 1.777700
4.096300 1.702100
4.117800 1.647600
4.139400 1.600900
4.160900 1.530200
4.182500 1.460400
4.204000 1.414200
4.225600 1.382900
4.247100 1.368000
4.268700 1.368700
4.290200 1.385700
4.311700 1.418600
4.333300 1.442500
4.354800 1.447600
4.376400 1.450900
4.397900 1.473100
4.419500 1.514200
4.441000 1.612000
4.462600 1.623700
4.484100 1.468400
4.505700 1.378500
4.527200 1.325300
4.548800 1.276000
4.570300 1.242600
4.591900 1.235800
4.613400 1.242000
4.634900 1.262400
4.656500 1.281500
4.678000 1.285900
4.699600 1.288400
4.721100 1.289700
4.742700 1.309900
4.764200 1.336600
4.785800 1.362300
4.807300 1.390900
4.828900 1.405900
4.850400 1.402800
4.872000 1.381600
4.893500 1.374100
4.915100 1.367600
4.936600 1.359700
4.958200 1.342100
4.979700 1.309100
5.001200 1.267000
5.022800 1.253600
5.044300 1.266700
5.065900 1.299700
5.087400 1.349500
5.109000 1.388400
5.130500 1.412300
5.152100 1.445500
5.173600 1.493500
5.195200 1.504200
5.216700 1.537600
5.238300 1.647100
5.259800 1.702500
5.281400 1.703900
5.302900 1.704100
5.324400 1.717600
5.346000 1.723100
5.367500 1.665200
5.389100 1.662300
5.410600 1.657600
5.432200 1.659200
5.453700 1.671100
5.475300 1.694100
5.496800 1.701100
5.518400 1.691800
5.539900 1.671700
5.561500 1.647300
5.583000 1.638500
5.604600 1.681300
5.626100 1.721100
5.647600 1.775300
5.669200 1.834100
5.690700 1.891900
5.712300 1.956600
5.733800 2.003500
5.755400 2.035700
5.776900 2.057200
5.798500 2.076600
5.820000 2.103400
5.841600 2.140600
5.863100 2.176600
5.884700 2.208800
5.906200 2.246100
5.927800 2.291700
5.949300 2.318800
5.970900 2.340500
5.992400 2.376400
6.013900 2.403200
6.035500 2.413400
