set title 'mp-1063156 - Density of States'
set xlabel 'Energy (eV)'
set ylabel 'DOS (states/eV)'
set grid
set xrange [-10:10]
set yrange [0:37.221]
set xzeroaxis lt -1
set terminal png size 800,600
set output 'mp-1063156_dos_gnuplot.png'
plot '-' using 1:2 with lines title 'DOS'
-26.685600 0.000000
-26.647700 0.000000
-26.609700 0.000000
-26.571800 0.000000
-26.533800 0.000000
-26.495900 0.000000
-26.457900 0.000000
-26.420000 0.000000
-26.382000 0.000000
-26.344100 0.000000
-26.306100 0.000000
-26.268200 0.000000
-26.230200 0.000000
-26.192300 0.000000
-26.154300 0.000000
-26.116400 0.000000
-26.078400 0.000000
-26.040500 0.000000
-26.002500 0.000000
-25.964600 0.000000
-25.926600 0.000000
-25.888700 0.000000
-25.850700 0.000000
-25.812800 0.000000
-25.774800 0.000000
-25.736900 0.000000
-25.698900 0.000000
-25.661000 0.000000
-25.623000 0.000000
-25.585100 0.000000
-25.547100 0.000000
-25.509200 0.000000
-25.471200 0.000000
-25.433300 0.000000
-25.395300 0.000000
-25.357400 0.000000
-25.319400 0.000000
-25.281500 0.000000
-25.243500 0.000000
-25.205600 0.000000
-25.167700 0.000000
-25.129700 0.000000
-25.091800 0.000000
-25.053800 0.000000
-25.015900 0.000000
-24.977900 0.000000
-24.940000 0.000000
-24.902000 0.000000
-24.864100 0.000000
-24.826100 0.000000
-24.788200 0.000000
-24.750200 0.000000
-24.712300 0.000000
-24.674300 0.000000
-24.636400 0.000000
-24.598400 0.000000
-24.560500 0.000000
-24.522500 0.000000
-24.484600 0.000000
-24.446600 0.000000
-24.408700 0.000000
-24.370700 0.000000
-24.332800 0.000000
-24.294800 0.000000
-24.256900 0.000000
-24.218900 0.000000
-24.181000 0.000000
-24.143000 0.000000
-24.105100 0.000000
-24.067100 0.000000
-24.029200 0.000000
-23.991200 0.000000
-23.953300 0.000000
-23.915300 0.000000
-23.877400 0.000000
-23.839400 0.000000
-23.801500 0.000000
-23.763500 0.000000
-23.725600 0.000000
-23.687600 0.000000
-23.649700 0.000000
-23.611700 0.000000
-23.573800 0.000000
-23.535800 0.000000
-23.497900 0.000000
-23.459900 0.000000
-23.422000 0.000000
-23.384000 0.000000
-23.346100 0.000000
-23.308100 0.000000
-23.270200 0.000000
-23.232200 10.176700
-23.194300 3.545700
-23.156300 3.545700
-23.118400 2.334400
-23.080400 2.334400
-23.042500 2.334400
-23.004500 2.117400
-22.966600 2.117400
-22.928600 38.873700
-22.890700 41.180500
-22.852700 1.897400
-22.814800 1.897400
-22.776800 1.897400
-22.738900 2.190700
-22.700900 2.190700
-22.663000 2.190700
-22.625000 3.223800
-22.587100 3.223800
-22.549100 0.000000
-22.511200 0.000000
-22.473200 0.000000
-22.435300 0.000000
-22.397300 0.000000
-22.359400 0.000000
-22.321400 0.000000
-22.283500 0.000000
-22.245500 0.000000
-22.207600 0.000000
-22.169600 0.000000
-22.131700 0.000000
-22.093800 0.000000
-22.055800 0.000000
-22.017900 0.000000
-21.979900 0.000000
-21.942000 0.000000
-21.904000 0.000000
-21.866100 0.000000
-21.828100 0.000000
-21.790200 0.000000
-21.752200 0.000000
-21.714300 0.000000
-21.676300 0.000000
-21.638400 0.000000
-21.600400 0.000000
-21.562500 0.000000
-21.524500 0.000000
-21.486600 0.000000
-21.448600 0.000000
-21.410700 0.000000
-21.372700 0.000000
-21.334800 0.000000
-21.296800 0.000000
-21.258900 0.000000
-21.220900 0.000000
-21.183000 0.000000
-21.145000 0.000000
-21.107100 0.000000
-21.069100 0.000000
-21.031200 0.000000
-20.993200 0.000000
-20.955300 0.000000
-20.917300 0.000000
-20.879400 0.000000
-20.841400 0.000000
-20.803500 0.000000
-20.765500 0.000000
-20.727600 0.000000
-20.689600 0.000000
-20.651700 0.000000
-20.613700 0.000000
-20.575800 0.000000
-20.537800 0.000000
-20.499900 0.000000
-20.461900 0.000000
-20.424000 0.000000
-20.386000 0.000000
-20.348100 0.000000
-20.310100 0.000000
-20.272200 0.000000
-20.234200 0.000000
-20.196300 0.000000
-20.158300 0.000000
-20.120400 0.000000
-20.082400 0.000000
-20.044500 0.000000
-20.006500 0.000000
-19.968600 0.000000
-19.930600 0.000000
-19.892700 0.000000
-19.854700 0.000000
-19.816800 0.000000
-19.778800 0.000000
-19.740900 0.000000
-19.702900 0.000000
-19.665000 0.000000
-19.627000 0.000000
-19.589100 0.000000
-19.551100 0.000000
-19.513200 0.000000
-19.475200 0.000000
-19.437300 0.000000
-19.399300 0.000000
-19.361400 0.000000
-19.323400 0.000000
-19.285500 0.000000
-19.247500 0.000000
-19.209600 0.000000
-19.171600 0.000000
-19.133700 0.000000
-19.095700 0.000000
-19.057800 0.000000
-19.019900 0.000000
-18.981900 0.000000
-18.944000 0.000000
-18.906000 0.000000
-18.868100 0.000000
-18.830100 0.000000
-18.792200 0.000000
-18.754200 0.000000
-18.716300 0.000000
-18.678300 0.000000
-18.640400 0.000000
-18.602400 0.000000
-18.564500 0.000000
-18.526500 0.000000
-18.488600 0.000000
-18.450600 0.000000
-18.412700 0.000000
-18.374700 0.000000
-18.336800 0.000000
-18.298800 0.000000
-18.260900 0.000000
-18.222900 0.000000
-18.185000 0.000000
-18.147000 0.000000
-18.109100 0.000000
-18.071100 0.000000
-18.033200 0.000000
-17.995200 0.000000
-17.957300 0.000000
-17.919300 0.000000
-17.881400 0.000000
-17.843400 0.000000
-17.805500 0.000000
-17.767500 0.000000
-17.729600 0.000000
-17.691600 0.000000
-17.653700 0.000000
-17.615700 0.000000
-17.577800 0.000000
-17.539800 0.000000
-17.501900 0.000000
-17.463900 0.000000
-17.426000 0.000000
-17.388000 0.000000
-17.350100 0.000000
-17.312100 0.000000
-17.274200 0.000000
-17.236200 0.000000
-17.198300 0.000000
-17.160300 0.000000
-17.122400 0.000000
-17.084400 0.000000
-17.046500 0.000000
-17.008500 0.000000
-16.970600 0.000000
-16.932600 0.000000
-16.894700 0.000000
-16.856700 0.000000
-16.818800 0.000000
-16.780800 0.000000
-16.742900 0.000000
-16.704900 0.000000
-16.667000 0.000000
-16.629000 0.000000
-16.591100 0.000000
-16.553100 0.000000
-16.515200 0.000000
-16.477200 0.000000
-16.439300 0.000000
-16.401300 0.000000
-16.363400 0.000000
-16.325400 0.000000
-16.287500 0.000000
-16.249500 0.000000
-16.211600 0.000000
-16.173600 0.000000
-16.135700 0.000000
-16.097700 0.000000
-16.059800 0.000000
-16.021800 0.000000
-15.983900 0.000000
-15.945900 0.000000
-15.908000 0.000000
-15.870100 0.000000
-15.832100 0.000000
-15.794200 0.000000
-15.756200 0.000000
-15.718300 0.000000
-15.680300 0.000000
-15.642400 0.000000
-15.604400 0.000000
-15.566500 0.000000
-15.528500 0.000000
-15.490600 0.000000
-15.452600 0.000000
-15.414700 0.000000
-15.376700 0.000000
-15.338800 0.000000
-15.300800 0.000000
-15.262900 0.000000
-15.224900 0.000000
-15.187000 0.000000
-15.149000 0.000000
-15.111100 0.000000
-15.073100 0.000000
-15.035200 0.000000
-14.997200 0.000000
-14.959300 0.000000
-14.921300 0.000000
-14.883400 0.000000
-14.845400 0.000000
-14.807500 0.000000
-14.769500 0.000000
-14.731600 0.000000
-14.693600 0.000000
-14.655700 0.000000
-14.617700 0.000000
-14.579800 0.000000
-14.541800 0.000000
-14.503900 0.000000
-14.465900 0.000000
-14.428000 0.000000
-14.390000 0.000000
-14.352100 0.000000
-14.314100 0.000000
-14.276200 0.000000
-14.238200 0.000000
-14.200300 0.000000
-14.162300 0.000000
-14.124400 0.000000
-14.086400 0.000000
-14.048500 0.000000
-14.010500 0.000000
-13.972600 0.000000
-13.934600 0.000000
-13.896700 0.000000
-13.858700 0.000000
-13.820800 0.000000
-13.782800 0.000000
-13.744900 0.000000
-13.706900 0.000000
-13.669000 0.000000
-13.631000 0.000000
-13.593100 0.000000
-13.555100 0.000000
-13.517200 0.000000
-13.479200 0.000000
-13.441300 0.000000
-13.403300 0.000000
-13.365400 0.000000
-13.327400 0.000000
-13.289500 0.000000
-13.251500 0.000000
-13.213600 0.000000
-13.175600 0.000000
-13.137700 0.000000
-13.099700 0.000000
-13.061800 0.000000
-13.023800 0.000000
-12.985900 0.000000
-12.947900 0.000000
-12.910000 0.000000
-12.872000 0.000000
-12.834100 0.000000
-12.796200 0.000000
-12.758200 0.000000
-12.720300 0.000000
-12.682300 0.000000
-12.644400 0.000000
-12.606400 0.000000
-12.568500 0.000000
-12.530500 0.000000
-12.492600 0.000000
-12.454600 0.000000
-12.416700 0.000000
-12.378700 0.000000
-12.340800 0.000000
-12.302800 0.000000
-12.264900 0.000000
-12.226900 0.000000
-12.189000 0.000000
-12.151000 0.000000
-12.113100 0.000000
-12.075100 0.000000
-12.037200 0.000000
-11.999200 0.000000
-11.961300 0.000000
-11.923300 0.000000
-11.885400 0.000000
-11.847400 0.000000
-11.809500 0.000000
-11.771500 0.000000
-11.733600 0.000000
-11.695600 0.000000
-11.657700 0.000000
-11.619700 0.000000
-11.581800 0.000000
-11.543800 0.000000
-11.505900 0.000000
-11.467900 0.000000
-11.430000 0.000000
-11.392000 0.000000
-11.354100 0.000000
-11.316100 0.000000
-11.278200 0.000000
-11.240200 0.000000
-11.202300 0.000000
-11.164300 0.000000
-11.126400 0.000000
-11.088400 0.000000
-11.050500 0.000000
-11.012500 0.000000
-10.974600 0.000000
-10.936600 0.000000
-10.898700 0.000000
-10.860700 0.000000
-10.822800 0.000000
-10.784800 0.000000
-10.746900 0.000000
-10.708900 0.000000
-10.671000 0.000000
-10.633000 0.000000
-10.595100 0.000000
-10.557100 0.000000
-10.519200 0.000000
-10.481200 0.000000
-10.443300 0.000000
-10.405300 0.000000
-10.367400 0.000000
-10.329400 0.000000
-10.291500 0.000000
-10.253500 0.000000
-10.215600 0.000000
-10.177600 0.000000
-10.139700 0.000000
-10.101700 0.000000
-10.063800 0.000000
-10.025800 0.000000
-9.987900 0.000000
-9.949900 0.000000
-9.912000 0.000000
-9.874000 0.000000
-9.836100 0.000000
-9.798100 0.000000
-9.760200 0.000000
-9.722300 0.000000
-9.684300 0.000000
-9.646400 0.000000
-9.608400 0.000000
-9.570500 0.000000
-9.532500 0.000000
-9.494600 0.000000
-9.456600 0.000000
-9.418700 0.000000
-9.380700 0.000000
-9.342800 0.000000
-9.304800 0.000000
-9.266900 0.000000
-9.228900 0.000000
-9.191000 0.000000
-9.153000 0.000000
-9.115100 0.000000
-9.077100 0.000000
-9.039200 0.000000
-9.001200 0.000000
-8.963300 0.000000
-8.925300 0.000000
-8.887400 0.000000
-8.849400 0.000000
-8.811500 0.000000
-8.773500 0.000000
-8.735600 0.000000
-8.697600 0.000000
-8.659700 0.000000
-8.621700 0.000000
-8.583800 0.000000
-8.545800 0.000000
-8.507900 0.000000
-8.469900 0.000000
-8.432000 0.000000
-8.394000 0.000000
-8.356100 0.000000
-8.318100 0.000000
-8.280200 0.000000
-8.242200 0.000000
-8.204300 0.000000
-8.166300 0.000000
-8.128400 0.000000
-8.090400 0.000000
-8.052500 0.000000
-8.014500 0.000000
-7.976600 0.000000
-7.938600 0.000000
-7.900700 0.000000
-7.862700 0.000000
-7.824800 0.000000
-7.786800 0.000000
-7.748900 0.000000
-7.710900 0.000000
-7.673000 0.000000
-7.635000 0.000000
-7.597100 0.000000
-7.559100 0.000000
-7.521200 0.000000
-7.483200 0.000000
-7.445300 0.000000
-7.407300 0.000000
-7.369400 0.000000
-7.331400 0.000000
-7.293500 0.000000
-7.255500 0.000000
-7.217600 0.000000
-7.179600 0.000000
-7.141700 0.000000
-7.103700 0.000000
-7.065800 0.000000
-7.027800 0.000000
-6.989900 0.000000
-6.951900 0.000000
-6.914000 0.000000
-6.876000 0.788700
-6.838100 13.117800
-6.800100 14.202600
-6.762200 18.363600
-6.724200 19.848900
-6.686300 30.602500
-6.648300 25.979300
-6.610400 29.729300
-6.572500 28.251700
-6.534500 11.793400
-6.496600 20.874400
-6.458600 27.410400
-6.420700 21.328200
-6.382700 26.976800
-6.344800 23.395700
-6.306800 29.742800
-6.268900 29.298400
-6.230900 33.527100
-6.193000 33.837300
-6.155000 27.836400
-6.117100 26.822000
-6.079100 8.215000
-6.041200 5.663000
-6.003200 4.229900
-5.965300 4.232800
-5.927300 2.794600
-5.889400 0.589000
-5.851400 0.000000
-5.813500 0.000000
-5.775500 0.000000
-5.737600 0.000000
-5.699600 0.000000
-5.661700 0.000000
-5.623700 0.000000
-5.585800 0.000000
-5.547800 0.000000
-5.509900 0.000000
-5.471900 0.000000
-5.434000 0.000000
-5.396000 0.000000
-5.358100 0.000000
-5.320100 0.000000
-5.282200 0.000000
-5.244200 0.000000
-5.206300 0.000000
-5.168300 0.000000
-5.130400 0.000000
-5.092400 0.000000
-5.054500 0.000000
-5.016500 0.000000
-4.978600 0.000000
-4.940600 0.000000
-4.902700 0.000000
-4.864700 0.000000
-4.826800 0.000000
-4.788800 0.000000
-4.750900 0.019400
-4.712900 0.078100
-4.675000 0.137600
-4.637000 0.146500
-4.599100 0.157700
-4.561100 0.182300
-4.523200 0.208100
-4.485200 0.232400
-4.447300 0.248400
-4.409300 0.256000
-4.371400 0.264300
-4.333400 0.275100
-4.295500 0.288700
-4.257500 0.302500
-4.219600 0.316300
-4.181600 0.330600
-4.143700 0.344500
-4.105700 0.357000
-4.067800 0.367900
-4.029800 0.375500
-3.991900 0.384200
-3.953900 0.393600
-3.916000 0.402500
-3.878000 0.411200
-3.840100 0.420700
-3.802100 0.431700
-3.764200 0.443100
-3.726200 0.454800
-3.688300 0.465900
-3.650300 0.475800
-3.612400 0.485800
-3.574400 0.496200
-3.536500 0.505600
-3.498600 0.514000
-3.460600 0.523000
-3.422700 0.533500
-3.384700 0.545100
-3.346800 0.557200
-3.308800 0.569700
-3.270900 0.582700
-3.232900 0.596200
-3.195000 0.625300
-3.157000 0.664800
-3.119100 0.678900
-3.081100 0.687900
-3.043200 0.694600
-3.005200 0.699300
-2.967300 0.700600
-2.929300 0.751700
-2.891400 0.845700
-2.853400 0.781200
-2.815500 0.710800
-2.777500 0.693200
-2.739600 0.680000
-2.701600 0.657400
-2.663700 0.628300
-2.625700 0.613100
-2.587800 0.611900
-2.549800 0.625500
-2.511900 0.646200
-2.473900 0.672500
-2.436000 0.704400
-2.398000 0.739700
-2.360100 0.758500
-2.322100 0.786700
-2.284200 0.839200
-2.246200 0.895300
-2.208300 0.956700
-2.170300 0.963100
-2.132400 0.903700
-2.094400 0.910200
-2.056500 0.914500
-2.018500 0.912400
-1.980600 0.911100
-1.942600 0.914200
-1.904700 0.920800
-1.866700 0.923200
-1.828800 0.924700
-1.790800 0.925100
-1.752900 0.923200
-1.714900 0.920000
-1.677000 0.920600
-1.639000 0.926800
-1.601100 0.931400
-1.563100 0.937300
-1.525200 0.942400
-1.487200 0.947000
-1.449300 0.951900
-1.411300 0.956900
-1.373400 0.961200
-1.335400 0.964800
-1.297500 0.966700
-1.259500 0.963800
-1.221600 0.956100
-1.183600 0.953300
-1.145700 0.951600
-1.107700 0.942000
-1.069800 0.936300
-1.031800 0.933800
-0.993900 0.932600
-0.955900 0.932500
-0.918000 0.932700
-0.880000 0.935000
-0.842100 0.938600
-0.804100 0.942700
-0.766200 0.949300
-0.728200 0.955700
-0.690300 0.957300
-0.652300 0.957600
-0.614400 0.957800
-0.576400 0.958400
-0.538500 0.958600
-0.500500 0.958400
-0.462600 0.958100
-0.424700 0.957700
-0.386700 0.957400
-0.348800 0.957100
-0.310800 0.956500
-0.272900 0.955700
-0.234900 0.953900
-0.197000 0.955000
-0.159000 0.955800
-0.121100 0.956700
-0.083100 0.957900
-0.045200 0.959200
-0.007200 0.960800
0.030700 0.962600
0.068700 0.965000
0.106600 0.974500
0.144600 0.990900
0.182500 1.010800
0.220500 1.028200
0.258400 1.046300
0.296400 1.069100
0.334300 1.083800
0.372300 1.112300
0.410200 1.269600
0.448200 1.425900
0.486100 1.612300
0.524100 1.805700
0.562000 1.630700
0.600000 1.573200
0.637900 1.519000
0.675900 1.466600
0.713800 1.425900
0.751800 1.389300
0.789700 1.342100
0.827700 1.351800
0.865600 1.359700
0.903600 1.440300
0.941500 1.412900
0.979500 1.295700
1.017400 1.279100
1.055400 1.270900
1.093300 1.298100
1.131300 1.342800
1.169200 1.450600
1.207200 1.629600
1.245100 1.883400
1.283100 2.026400
1.321000 2.103200
1.359000 2.120600
1.396900 2.107200
1.434900 2.002000
1.472800 1.960200
1.510800 1.975200
1.548700 1.997900
1.586700 2.015600
1.624600 2.040000
1.662600 2.104300
1.700500 2.186900
1.738500 2.186100
1.776400 2.174400
1.814400 2.148200
1.852300 2.129300
1.890300 2.099900
1.928200 2.016200
1.966200 1.789300
2.004100 1.518700
2.042100 1.405900
2.080000 1.335600
2.118000 1.279300
2.155900 1.239600
2.193900 1.237900
2.231800 1.263200
2.269800 1.344500
2.307700 1.511600
2.345700 1.785100
2.383600 2.125100
2.421600 2.455500
2.459500 2.920700
2.497500 2.905000
2.535400 2.470200
2.573400 1.973600
2.611300 1.572900
2.649200 1.538100
2.687200 1.558700
2.725100 1.762300
2.763100 2.134000
2.801000 2.244400
2.839000 2.412100
2.876900 2.526300
2.914900 2.722700
2.952800 2.763400
2.990800 2.889000
3.028700 3.060600
3.066700 3.461500
3.104600 3.752100
3.142600 3.724500
3.180500 4.339400
3.218500 4.524900
3.256400 4.302600
3.294400 3.775100
3.332300 3.682500
3.370300 3.529700
3.408200 3.447000
3.446200 3.747900
3.484100 3.906200
3.522100 3.408600
3.560000 3.257800
3.598000 3.355900
3.635900 3.446000
3.673900 3.728900
3.711800 4.227800
3.749800 3.838000
3.787700 3.513900
3.825700 2.683600
3.863600 2.046800
3.901600 1.759000
3.939500 1.632300
3.977500 1.674000
4.015400 1.677200
4.053400 1.731900
4.091300 1.827200
4.129300 2.054200
4.167200 2.514800
4.205200 2.744000
4.243100 2.557400
4.281100 2.480700
4.319000 2.333400
4.357000 2.192400
4.394900 2.048900
4.432900 1.900500
4.470800 1.811400
4.508800 1.610100
4.546700 1.502900
4.584700 1.673500
4.622600 1.922500
4.660600 2.115200
4.698500 2.127900
4.736500 2.182500
4.774400 2.308200
4.812400 2.664000
4.850300 2.618300
4.888300 2.338500
4.926200 2.157400
4.964200 1.623000
5.002100 1.490700
5.040100 1.527400
5.078000 1.510700
5.116000 1.532900
5.153900 1.575100
5.191900 1.553000
5.229800 1.607900
5.267800 1.810900
5.305700 2.160700
5.343700 2.588700
5.381600 2.931700
5.419600 3.177500
5.457500 2.794600
5.495500 2.450000
5.533400 2.217000
5.571400 2.082400
5.609300 1.978100
5.647300 1.862400
5.685200 1.857300
5.723200 2.150400
5.761100 2.197500
5.799000 2.209300
5.837000 2.377900
5.874900 2.380900
5.912900 2.383400
5.950800 2.321800
5.988800 2.312300
6.026700 2.324500
6.064700 2.342100
6.102600 2.446700
6.140600 2.664000
6.178500 2.690300
6.216500 2.750100
6.254400 2.874700
6.292400 3.064700
6.330300 3.433100
6.368300 3.696900
6.406200 3.835900
6.444200 3.780400
6.482100 3.571100
6.520100 3.466400
6.558000 3.396400
6.596000 3.303400
6.633900 3.375200
6.671900 3.547000
6.709800 1.950600
6.747800 1.787500
6.785700 1.588500
6.823700 1.401800
6.861600 1.376500
6.899600 1.331200
6.937500 1.481800
6.975500 1.356200
7.013400 1.184800
7.051400 1.084300
7.089300 0.995500
7.127300 0.918500
7.165200 0.853600
7.203200 0.800000
7.241100 0.763700
7.279100 0.700500
7.317000 0.643400
7.355000 0.689600
7.392900 0.785400
7.430900 0.848200
7.468800 0.885100
7.506800 0.905500
7.544700 0.926400
7.582700 0.952000
7.620600 0.986100
7.658600 1.028800
7.696500 1.072800
7.734500 1.078600
7.772400 1.152200
7.810400 1.108200
7.848300 1.310600
7.886300 1.593500
7.924200 1.932500
7.962200 1.973100
8.000100 1.880400
8.038100 1.821300
8.076000 1.747700
8.114000 1.610100
8.151900 1.438600
8.189900 1.650000
8.227800 1.360000
8.265800 1.264500
8.303700 1.178200
8.341700 1.119100
8.379600 1.110200
8.417600 1.181200
8.455500 1.357600
8.493500 1.511800
8.531400 1.488000
8.569400 1.408700
8.607300 1.475900
8.645300 1.995600
8.683200 1.713600
8.721200 1.682000
8.759100 1.708200
8.797100 1.835100
8.835000 1.895000
8.872900 1.914800
8.910900 2.127900
8.948800 2.346600
8.986800 2.586200
9.024700 2.512100
9.062700 2.389000
9.100600 2.298300
9.138600 2.302400
9.176500 2.338800
9.214500 2.388900
9.252400 2.451600
9.290400 2.436200
9.328300 2.411600
9.366300 2.364500
9.404200 2.279400
9.442200 2.226500
9.480100 2.177700
9.518100 2.161700
9.556000 2.175300
9.594000 2.185200
9.631900 2.210900
9.669900 2.243200
9.707800 2.277300
9.745800 2.333600
9.783700 2.379100
9.821700 2.370000
9.859600 2.351600
9.897600 2.300800
9.935500 2.158600
9.973500 2.041600
10.011400 1.960500
10.049400 1.916500
10.087300 1.939400
10.125300 1.997900
10.163200 1.988400
10.201200 2.003900
10.239100 2.010400
10.277100 2.074200
10.315000 2.100000
10.353000 2.097800
10.390900 2.150700
10.428900 2.182900
10.466800 2.183000
10.504800 2.144200
10.542700 2.133400
10.580700 2.133900
10.618600 2.250100
10.656600 2.424800
10.694500 2.484800
10.732500 2.480200
10.770400 2.150000
10.808400 2.050700
10.846300 2.034500
10.884300 1.887800
10.922200 1.814200
10.960200 1.751300
10.998100 1.710400
11.036100 1.680100
11.074000 1.661500
11.112000 1.679300
11.149900 1.713800
11.187900 1.755100
11.225800 1.824500
11.263800 1.845800
11.301700 1.858200
11.339700 1.975900
11.377600 2.167600
11.415600 2.437600
11.453500 2.588000
11.491500 2.709500
11.529400 2.882000
11.567400 2.724100
11.605300 2.532000
11.643300 2.434100
11.681200 2.397000
11.719200 2.529400
11.757100 2.516400
11.795100 2.450800
11.833000 2.345100
11.871000 2.189400
11.908900 2.039400
11.946800 1.913200
11.984800 1.730200
12.022700 1.668500
12.060700 1.732400
12.098600 1.904400
12.136600 2.167400
12.174500 2.422600
12.212500 2.693200
12.250400 2.878000
