set title 'mp-1040425 - Density of States'
set xlabel 'Energy (eV)'
set ylabel 'DOS (states/eV)'
set grid
set xrange [-10:10]
set yrange [0:4.151]
set xzeroaxis lt -1
set terminal png size 800,600
set output 'mp-1040425_dos_gnuplot.png'
plot '-' using 1:2 with lines title 'DOS'
-25.112700 0.000000
-25.081200 0.000000
-25.049700 0.000000
-25.018200 0.000000
-24.986800 0.000000
-24.955300 0.000000
-24.923800 0.000000
-24.892300 0.000000
-24.860800 0.000000
-24.829400 0.000000
-24.797900 0.000000
-24.766400 0.000000
-24.734900 0.000000
-24.703400 0.000000
-24.672000 0.000000
-24.640500 0.000000
-24.609000 0.000000
-24.577500 0.000000
-24.546000 0.000000
-24.514500 0.000000
-24.483100 0.000000
-24.451600 0.000000
-24.420100 0.000000
-24.388600 0.000000
-24.357100 0.000000
-24.325700 0.000000
-24.294200 0.000000
-24.262700 0.000000
-24.231200 0.000000
-24.199700 0.000000
-24.168200 0.000000
-24.136800 0.000000
-24.105300 0.000000
-24.073800 0.000000
-24.042300 0.000000
-24.010800 0.000000
-23.979400 0.000000
-23.947900 0.000000
-23.916400 0.000000
-23.884900 0.000000
-23.853400 0.000000
-23.821900 0.000000
-23.790500 0.000000
-23.759000 0.000000
-23.727500 0.000000
-23.696000 0.000000
-23.664500 0.000000
-23.633100 0.000000
-23.601600 0.000000
-23.570100 0.000000
-23.538600 0.000000
-23.507100 0.000000
-23.475700 0.000000
-23.444200 0.000000
-23.412700 0.000000
-23.381200 0.000000
-23.349700 0.000000
-23.318200 0.000000
-23.286800 0.000000
-23.255300 0.000000
-23.223800 0.000000
-23.192300 0.000000
-23.160800 0.000000
-23.129400 0.000000
-23.097900 0.000000
-23.066400 0.000000
-23.034900 0.000000
-23.003400 0.000000
-22.971900 0.000000
-22.940500 0.000000
-22.909000 0.000000
-22.877500 0.000000
-22.846000 0.000000
-22.814500 0.000000
-22.783100 0.000000
-22.751600 0.000000
-22.720100 0.000000
-22.688600 0.000000
-22.657100 0.000000
-22.625600 0.000000
-22.594200 0.000000
-22.562700 0.000000
-22.531200 0.000000
-22.499700 0.000000
-22.468200 0.000000
-22.436800 0.000000
-22.405300 0.000000
-22.373800 0.000000
-22.342300 0.000000
-22.310800 0.000000
-22.279300 0.000000
-22.247900 0.027100
-22.216400 0.326300
-22.184900 0.264300
-22.153400 0.289300
-22.121900 0.314300
-22.090500 0.339200
-22.059000 0.308600
-22.027500 0.289400
-21.996000 0.298200
-21.964500 0.307000
-21.933100 0.315800
-21.901600 0.324600
-21.870100 0.305900
-21.838600 0.304100
-21.807100 0.302200
-21.775600 0.300300
-21.744200 0.303700
-21.712700 0.308200
-21.681200 0.312700
-21.649700 0.317200
-21.618200 0.321700
-21.586800 0.314100
-21.555300 0.303500
-21.523800 0.304400
-21.492300 0.305300
-21.460800 0.306100
-21.429300 0.307000
-21.397900 0.307900
-21.366400 0.310600
-21.334900 0.313400
-21.303400 0.316100
-21.271900 0.318900
-21.240500 0.321600
-21.209000 0.311000
-21.177500 0.309000
-21.146000 0.306900
-21.114500 0.306900
-21.083000 0.308000
-21.051600 0.309100
-21.020100 0.310300
-20.988600 0.311400
-20.957100 0.312500
-20.925600 0.313700
-20.894200 0.315500
-20.862700 0.317300
-20.831200 0.319200
-20.799700 0.317100
-20.768200 0.311900
-20.736800 0.311200
-20.705300 0.311000
-20.673800 0.310900
-20.642300 0.310700
-20.610800 0.310500
-20.579300 0.311400
-20.547900 0.312400
-20.516400 0.313500
-20.484900 0.314500
-20.453400 0.315500
-20.421900 0.316600
-20.390500 0.317600
-20.359000 0.318600
-20.327500 0.319900
-20.296000 0.321300
-20.264500 0.316100
-20.233000 0.315000
-20.201600 0.314000
-20.170100 0.313700
-20.138600 0.314100
-20.107100 0.314400
-20.075600 0.314800
-20.044200 0.315100
-20.012700 0.315500
-19.981200 0.315800
-19.949700 0.316700
-19.918200 0.317600
-19.886700 0.318500
-19.855300 0.319400
-19.823800 0.320300
-19.792300 0.321200
-19.760800 0.322100
-19.729300 0.323000
-19.697900 0.320900
-19.666400 0.318500
-19.634900 0.318500
-19.603400 0.318400
-19.571900 0.318300
-19.540500 0.318300
-19.509000 0.318400
-19.477500 0.318900
-19.446000 0.319400
-19.414500 0.319900
-19.383000 0.320400
-19.351600 0.321000
-19.320100 0.321500
-19.288600 0.322000
-19.257100 0.322500
-19.225600 0.323400
-19.194200 0.324200
-19.162700 0.325000
-19.131200 0.325800
-19.099700 0.326600
-19.068200 0.327500
-19.036700 0.325200
-19.005300 0.324700
-18.973800 0.324200
-18.942300 0.324100
-18.910800 0.324300
-18.879300 0.324700
-18.847900 0.325000
-18.816400 0.325400
-18.784900 0.325800
-18.753400 0.326100
-18.721900 0.326800
-18.690400 0.327500
-18.659000 0.328200
-18.627500 0.328800
-18.596000 0.329500
-18.564500 0.330200
-18.533000 0.330900
-18.501600 0.331500
-18.470100 0.332200
-18.438600 0.333000
-18.407100 0.333900
-18.375600 0.334900
-18.344100 0.335200
-18.312700 0.334400
-18.281200 0.334500
-18.249700 0.334900
-18.218200 0.335400
-18.186700 0.335800
-18.155300 0.336200
-18.123800 0.337100
-18.092300 0.337900
-18.060800 0.338700
-18.029300 0.339800
-17.997900 0.340900
-17.966400 0.342000
-17.934900 0.343000
-17.903400 0.344300
-17.871900 0.346000
-17.840400 0.347600
-17.809000 0.349300
-17.777500 0.350900
-17.746000 0.352500
-17.714500 0.354200
-17.683000 0.355800
-17.651600 0.357400
-17.620100 0.359100
-17.588600 0.361100
-17.557100 0.365400
-17.525600 0.370200
-17.494100 0.375000
-17.462700 0.380300
-17.431200 0.385900
-17.399700 0.391500
-17.368200 0.397100
-17.336700 0.402700
-17.305300 0.408500
-17.273800 0.418300
-17.242300 0.428200
-17.210800 0.534900
-17.179300 0.516200
-17.147800 0.497500
-17.116400 0.478800
-17.084900 0.786700
-17.053400 0.638000
-17.021900 0.489300
-16.990400 0.340600
-16.959000 0.313500
-16.927500 0.302300
-16.896000 0.291100
-16.864500 0.280000
-16.833000 0.268800
-16.801600 0.257600
-16.770100 0.247400
-16.738600 0.241500
-16.707100 0.306600
-16.675600 0.770400
-16.644100 0.217900
-16.612700 0.211200
-16.581200 0.204500
-16.549700 0.197800
-16.518200 0.191100
-16.486700 0.184400
-16.455300 0.177800
-16.423800 0.171100
-16.392300 0.164400
-16.360800 0.157700
-16.329300 0.151000
-16.297800 0.144300
-16.266400 0.137600
-16.234900 0.131000
-16.203400 0.124300
-16.171900 0.117600
-16.140400 0.126200
-16.109000 0.141800
-16.077500 0.157400
-16.046000 0.173000
-16.014500 0.188600
-15.983000 0.081700
-15.951500 0.077700
-15.920100 0.102900
-15.888600 0.150800
-15.857100 0.198600
-15.825600 0.246400
-15.794100 0.294300
-15.762700 0.342100
-15.731200 0.232700
-15.699700 0.242900
-15.668200 0.317700
-15.636700 0.603500
-15.605200 0.290600
-15.573800 0.292300
-15.542300 0.294000
-15.510800 0.295800
-15.479300 0.297500
-15.447800 0.299200
-15.416400 0.301000
-15.384900 0.302700
-15.353400 0.304400
-15.321900 0.314500
-15.290400 0.329600
-15.259000 0.344700
-15.227500 0.382800
-15.196000 0.402300
-15.164500 0.421800
-15.133000 0.441200
-15.101500 0.460700
-15.070100 0.480200
-15.038600 0.499700
-15.007100 0.519400
-14.975600 0.542600
-14.944100 0.565800
-14.912700 0.418200
-14.881200 0.412800
-14.849700 0.407400
-14.818200 0.402000
-14.786700 0.396600
-14.755200 0.391200
-14.723800 0.385900
-14.692300 0.380700
-14.660800 0.375500
-14.629300 0.370300
-14.597800 0.365800
-14.566400 0.361400
-14.534900 0.357000
-14.503400 0.352600
-14.471900 0.348200
-14.440400 0.343800
-14.408900 0.339400
-14.377500 0.335000
-14.346000 0.330600
-14.314500 0.326200
-14.283000 0.321500
-14.251500 0.317400
-14.220100 0.316100
-14.188600 0.314800
-14.157100 0.313400
-14.125600 0.312200
-14.094100 0.311000
-14.062700 0.309700
-14.031200 0.308500
-13.999700 0.307200
-13.968200 0.306000
-13.936700 0.304700
-13.905200 0.303300
-13.873800 0.302000
-13.842300 0.300600
-13.810800 0.299300
-13.779300 0.298000
-13.747800 0.296600
-13.716400 0.277600
-13.684900 0.277000
-13.653400 0.276400
-13.621900 0.275800
-13.590400 0.275200
-13.558900 0.274600
-13.527500 0.274000
-13.496000 0.273400
-13.464500 0.272700
-13.433000 0.272100
-13.401500 0.271500
-13.370100 0.270800
-13.338600 0.270200
-13.307100 0.269500
-13.275600 0.275200
-13.244100 0.288400
-13.212600 0.301500
-13.181200 0.314600
-13.149700 0.327800
-13.118200 0.340900
-13.086700 0.354100
-13.055200 0.367200
-13.023800 0.380400
-12.992300 0.393500
-12.960800 0.406600
-12.929300 0.360600
-12.897800 0.360500
-12.866300 0.360900
-12.834900 0.361200
-12.803400 0.361300
-12.771900 0.361300
-12.740400 0.361200
-12.708900 0.361200
-12.677500 0.361100
-12.646000 0.361000
-12.614500 0.361000
-12.583000 0.363000
-12.551500 0.365700
-12.520100 0.368500
-12.488600 0.371300
-12.457100 0.374100
-12.425600 0.376900
-12.394100 0.379600
-12.362600 0.382400
-12.331200 0.385200
-12.299700 0.387900
-12.268200 0.390000
-12.236700 0.378100
-12.205200 0.377800
-12.173800 0.377600
-12.142300 0.377800
-12.110800 0.378000
-12.079300 0.378200
-12.047800 0.378400
-12.016300 0.378500
-11.984900 0.378700
-11.953400 0.378900
-11.921900 0.379100
-11.890400 0.391000
-11.858900 0.392100
-11.827500 0.393200
-11.796000 0.394300
-11.764500 0.395400
-11.733000 0.396500
-11.701500 0.397500
-11.670000 0.397900
-11.638600 0.397700
-11.607100 0.397500
-11.575600 0.397300
-11.544100 0.397100
-11.512600 0.396900
-11.481200 0.396700
-11.449700 0.396500
-11.418200 0.396300
-11.386700 0.398100
-11.355200 0.399000
-11.323800 0.402400
-11.292300 0.405700
-11.260800 0.409000
-11.229300 0.411400
-11.197800 0.413900
-11.166300 0.416300
-11.134900 0.418800
-11.103400 0.421200
-11.071900 0.423300
-11.040400 0.425400
-11.008900 0.427500
-10.977500 0.429000
-10.946000 0.429700
-10.914500 0.430500
-10.883000 0.431300
-10.851500 0.432000
-10.820000 0.432800
-10.788600 0.433600
-10.757100 0.434300
-10.725600 0.435100
-10.694100 0.435900
-10.662600 0.436600
-10.631200 0.437400
-10.599700 0.430700
-10.568200 0.431900
-10.536700 0.447600
-10.505200 0.456500
-10.473700 0.460400
-10.442300 0.464100
-10.410800 0.467800
-10.379300 0.471500
-10.347800 0.476100
-10.316300 0.689000
-10.284900 0.901400
-10.253400 0.713900
-10.221900 0.734100
-10.190400 0.754200
-10.158900 0.774300
-10.127500 0.758300
-10.096000 0.739300
-10.064500 0.745300
-10.033000 0.753800
-10.001500 0.761800
-9.970000 0.769700
-9.938600 0.777700
-9.907100 0.787000
-9.875600 0.771400
-9.844100 0.777700
-9.812600 0.808800
-9.781200 0.827000
-9.749700 0.849000
-9.718200 0.871700
-9.686700 0.888900
-9.655200 0.905700
-9.623700 0.921100
-9.592300 0.934900
-9.560800 0.939500
-9.529300 0.942200
-9.497800 0.974500
-9.466300 1.010200
-9.434900 1.045900
-9.403400 1.081600
-9.371900 1.117400
-9.340400 1.160800
-9.308900 1.176000
-9.277400 1.138300
-9.246000 1.098200
-9.214500 1.073200
-9.183000 1.048200
-9.151500 1.021900
-9.120000 0.713300
-9.088600 0.677100
-9.057100 0.617500
-9.025600 0.591700
-8.994100 0.656100
-8.962600 0.720500
-8.931100 0.785000
-8.899700 0.849400
-8.868200 0.912100
-8.836700 0.949200
-8.805200 1.180400
-8.773700 1.202900
-8.742300 1.182900
-8.710800 1.165100
-8.679300 1.147300
-8.647800 1.082000
-8.616300 0.899000
-8.584900 0.764300
-8.553400 0.719200
-8.521900 0.665500
-8.490400 0.603400
-8.458900 0.544100
-8.427400 0.484800
-8.396000 0.485300
-8.364500 0.496800
-8.333000 0.508300
-8.301500 0.519800
-8.270000 0.531300
-8.238600 0.544100
-8.207100 0.557100
-8.175600 0.570100
-8.144100 0.583100
-8.112600 0.657900
-8.081100 0.940500
-8.049700 0.902600
-8.018200 0.865700
-7.986700 0.828800
-7.955200 0.791900
-7.923700 0.760900
-7.892300 0.741900
-7.860800 0.723400
-7.829300 0.704900
-7.797800 0.686400
-7.766300 0.668000
-7.734800 0.649500
-7.703400 0.631000
-7.671900 0.636500
-7.640400 0.635300
-7.608900 0.634100
-7.577400 0.632400
-7.546000 0.629500
-7.514500 0.626600
-7.483000 0.623700
-7.451500 0.620800
-7.420000 0.617900
-7.388600 0.614200
-7.357100 0.608900
-7.325600 0.604800
-7.294100 0.601400
-7.262600 0.598000
-7.231100 0.594600
-7.199700 0.591200
-7.168200 0.588400
-7.136700 0.587100
-7.105200 0.585500
-7.073700 0.593700
-7.042300 0.597600
-7.010800 0.594400
-6.979300 0.591200
-6.947800 0.588100
-6.916300 0.584900
-6.884800 0.582000
-6.853400 0.579100
-6.821900 0.576200
-6.790400 0.573300
-6.758900 0.570400
-6.727400 0.567600
-6.696000 0.564700
-6.664500 0.562900
-6.633000 0.562100
-6.601500 0.563600
-6.570000 0.565000
-6.538500 0.579000
-6.507100 0.576700
-6.475600 0.574400
-6.444100 0.572100
-6.412600 0.569400
-6.381100 0.565000
-6.349700 0.560900
-6.318200 0.556900
-6.286700 0.553000
-6.255200 0.549000
-6.223700 0.546500
-6.192200 0.556700
-6.160800 0.566900
-6.129300 0.570200
-6.097800 0.562900
-6.066300 0.556300
-6.034800 0.549700
-6.003400 0.593400
-5.971900 0.570700
-5.940400 0.548100
-5.908900 0.640200
-5.877400 0.560600
-5.846000 0.480500
-5.814500 0.401400
-5.783000 0.353700
-5.751500 0.356700
-5.720000 0.361000
-5.688500 0.365900
-5.657100 0.370700
-5.625600 0.375500
-5.594100 0.380400
-5.562600 0.386000
-5.531100 0.393400
-5.499700 0.400900
-5.468200 0.408300
-5.436700 0.415700
-5.405200 0.423200
-5.373700 0.431700
-5.342200 0.452800
-5.310800 0.473900
-5.279300 0.495000
-5.247800 0.516100
-5.216300 0.537200
-5.184800 0.747500
-5.153400 0.670200
-5.121900 0.592900
-5.090400 0.515600
-5.058900 0.439100
-5.027400 0.577900
-4.995900 0.829700
-4.964500 0.422700
-4.933000 0.405900
-4.901500 0.389000
-4.870000 0.372100
-4.838500 0.355200
-4.807100 0.338300
-4.775600 0.321400
-4.744100 0.304500
-4.712600 0.287600
-4.681100 0.270700
-4.649700 0.261500
-4.618200 0.261500
-4.586700 0.261400
-4.555200 0.261300
-4.523700 0.261200
-4.492200 0.261200
-4.460800 0.261100
-4.429300 0.261000
-4.397800 0.200600
-4.366300 0.203000
-4.334800 0.205300
-4.303400 0.207700
-4.271900 0.206400
-4.240400 0.201700
-4.208900 0.194700
-4.177400 0.187800
-4.145900 0.180900
-4.114500 0.173900
-4.083000 0.167000
-4.051500 0.160100
-4.020000 0.153100
-3.988500 0.146200
-3.957100 0.139300
-3.925600 0.132300
-3.894100 0.125400
-3.862600 0.123600
-3.831100 0.122400
-3.799600 0.121200
-3.768200 0.119900
-3.736700 0.118700
-3.705200 0.117500
-3.673700 0.116300
-3.642200 0.115100
-3.610800 0.113800
-3.579300 0.112600
-3.547800 0.111400
-3.516300 0.070400
-3.484800 0.067500
-3.453300 0.064700
-3.421900 0.061800
-3.390400 0.058900
-3.358900 0.056000
-3.327400 0.053100
-3.295900 0.050200
-3.264500 0.047400
-3.233000 0.044500
-3.201500 0.041600
-3.170000 0.038700
-3.138500 0.035800
-3.107100 0.032900
-3.075600 0.030100
-3.044100 0.027200
-3.012600 0.024300
-2.981100 0.021400
-2.949600 0.018500
-2.918200 0.015600
-2.886700 0.012800
-2.855200 0.009900
-2.823700 0.007000
-2.792200 0.004100
-2.760800 0.001200
-2.729300 0.001700
-2.697800 0.004800
-2.666300 0.007800
-2.634800 0.010900
-2.603300 0.013900
-2.571900 0.017000
-2.540400 0.020000
-2.508900 0.023000
-2.477400 0.026100
-2.445900 0.029100
-2.414500 0.032200
-2.383000 0.035200
-2.351500 0.038300
-2.320000 0.041300
-2.288500 0.044400
-2.257000 0.047400
-2.225600 0.050400
-2.194100 0.053500
-2.162600 0.056500
-2.131100 0.059600
-2.099600 0.062600
-2.068200 0.065700
-2.036700 0.068700
-2.005200 0.071800
-1.973700 0.129300
-1.942200 0.129100
-1.910800 0.128900
-1.879300 0.128700
-1.847800 0.128500
-1.816300 0.128300
-1.784800 0.128100
-1.753300 0.127900
-1.721900 0.127700
-1.690400 0.132000
-1.658900 0.142800
-1.627400 0.153600
-1.595900 0.164300
-1.564500 0.175100
-1.533000 0.185900
-1.501500 0.196700
-1.470000 0.207500
-1.438500 0.218300
-1.407000 0.229100
-1.375600 0.239900
-1.344100 0.250700
-1.312600 0.261500
-1.281100 0.534900
-1.249600 0.378200
-1.218200 0.267000
-1.186700 0.303100
-1.155200 0.339100
-1.123700 0.375200
-1.092200 0.411300
-1.060700 0.704800
-1.029300 1.107100
-0.997800 0.743000
-0.966300 0.818500
-0.934800 0.571200
-0.903300 0.544000
-0.871900 0.516900
-0.840400 0.489700
-0.808900 0.465000
-0.777400 0.447700
-0.745900 0.430500
-0.714400 0.413200
-0.683000 0.395900
-0.651500 0.387000
-0.620000 0.379200
-0.588500 0.371400
-0.557000 0.364400
-0.525600 0.357600
-0.494100 0.350800
-0.462600 0.344100
-0.431100 0.337300
-0.399600 0.327900
-0.368200 0.323200
-0.336700 0.318500
-0.305200 0.313800
-0.273700 0.309800
-0.242200 0.306500
-0.210700 0.303700
-0.179300 0.301100
-0.147800 0.298500
-0.116300 0.295900
-0.084800 0.293300
-0.053300 0.290800
-0.021900 0.288200
0.009600 0.285600
0.041100 0.283000
0.072600 0.280400
0.104100 0.277800
0.135600 0.275400
0.167000 0.273000
0.198500 0.270600
0.230000 0.268200
0.261500 0.265700
0.293000 0.263500
0.324400 0.261500
0.355900 0.259400
0.387400 0.257400
0.418900 0.255300
0.450400 0.252200
0.481900 0.249100
0.513300 0.246000
0.544800 0.326700
0.576300 0.488200
0.607800 0.431300
0.639300 0.443700
0.670700 0.456000
0.702200 0.468400
0.733700 0.480700
0.765200 0.474900
0.796700 0.456700
0.828100 0.444900
0.859600 0.448500
0.891100 0.452100
0.922600 0.455700
0.954100 0.459400
0.985600 0.463000
1.017000 0.466700
1.048500 0.449400
1.080000 0.447200
1.111500 0.445000
1.143000 0.442800
1.174400 0.440600
1.205900 0.441100
1.237400 0.442300
1.268900 0.458900
1.300400 0.541500
1.331900 0.659000
1.363300 0.682100
1.394800 0.647700
1.426300 0.654500
1.457800 0.660000
1.489300 0.663400
1.520700 0.661300
1.552200 0.647400
1.583700 0.638100
1.615200 0.640400
1.646700 0.665900
1.678200 0.712900
1.709600 0.746200
1.741100 0.781800
1.772600 0.817200
1.804100 0.846300
1.835600 0.869700
1.867000 0.876500
1.898500 0.868000
1.930000 0.861500
1.961500 0.861100
1.993000 0.860900
2.024400 0.859700
2.055900 0.858200
2.087400 0.861100
2.118900 0.867200
2.150400 0.870600
2.181900 0.870000
2.213300 0.870900
2.244800 0.885800
2.276300 0.904900
2.307800 0.920500
2.339300 0.937600
2.370700 0.958600
2.402200 0.981300
2.433700 1.008200
2.465200 1.035500
2.496700 1.061600
2.528200 1.084500
2.559600 1.105100
2.591100 1.115100
2.622600 1.111800
2.654100 1.116600
2.685600 1.116800
2.717000 1.114500
2.748500 1.113600
2.780000 1.361300
2.811500 1.322800
2.843000 1.286600
2.874500 1.251900
2.905900 1.217300
2.937400 1.182700
2.968900 1.148000
3.000400 1.117400
3.031900 1.096700
3.063300 1.077300
3.094800 1.055500
3.126300 1.036800
3.157800 1.038500
3.189300 1.048500
3.220800 0.956800
3.252200 0.889100
3.283700 0.889600
3.315200 0.968300
3.346700 1.221600
3.378200 1.500600
3.409600 1.466500
3.441100 1.445200
3.472600 1.448200
3.504100 1.440000
3.535600 1.400900
3.567000 1.282700
3.598500 1.144700
3.630000 1.033500
3.661500 1.005100
3.693000 1.022500
3.724500 1.046100
3.755900 1.074600
3.787400 1.108400
3.818900 1.146400
3.850400 1.180500
3.881900 1.208500
3.913300 1.241800
3.944800 1.269300
3.976300 1.281400
4.007800 1.240000
4.039300 1.183400
4.070800 1.162600
4.102200 1.181100
4.133700 1.202200
4.165200 1.223100
4.196700 1.242400
4.228200 1.259300
4.259600 1.279500
4.291100 1.295300
4.322600 1.315100
4.354100 1.342700
4.385600 1.377900
4.417100 1.416100
4.448500 1.457000
4.480000 1.506100
4.511500 1.571600
4.543000 1.534400
4.574500 1.599900
4.605900 1.813400
4.637400 2.033400
4.668900 2.243800
4.700400 2.339900
4.731900 2.435000
4.763300 2.373100
4.794800 2.295800
4.826300 2.228700
4.857800 1.932600
4.889300 1.746000
4.920800 1.608100
4.952200 1.556000
4.983700 1.576900
5.015200 1.612700
5.046700 1.660900
5.078200 1.722700
5.109600 1.801500
5.141100 1.842800
5.172600 1.913100
5.204100 2.031600
5.235600 2.169200
5.267100 2.233400
5.298500 2.341300
5.330000 2.442300
5.361500 2.497600
5.393000 2.526600
5.424500 2.530100
5.455900 2.532900
5.487400 2.555600
5.518900 2.557900
5.550400 2.678900
5.581900 2.923500
5.613400 3.096100
5.644800 2.967300
5.676300 2.969600
5.707800 2.815500
5.739300 2.522300
5.770800 2.330000
5.802200 2.249100
5.833700 2.206200
5.865200 2.193100
5.896700 2.191900
5.928200 2.192300
5.959700 2.194900
5.991100 2.199700
6.022600 2.223700
6.054100 2.270400
6.085600 2.285900
6.117100 2.279200
6.148500 2.281000
6.180000 2.388400
6.211500 2.670500
6.243000 2.634200
6.274500 2.521800
6.305900 2.444000
6.337400 2.372200
6.368900 2.305400
6.400400 2.243800
6.431900 2.187800
6.463400 2.146200
6.494800 2.113500
6.526300 2.090400
6.557800 2.059600
6.589300 2.028200
6.620800 2.003900
6.652200 2.027000
6.683700 2.065900
6.715200 2.109400
6.746700 2.157300
6.778200 2.201000
6.809700 2.244000
6.841100 2.286400
6.872600 2.327500
6.904100 2.532800
6.935600 2.299600
6.967100 2.227500
6.998500 2.186900
7.030000 2.160800
7.061500 2.131300
7.093000 2.086100
