set title 'mp-27258 - Density of States'
set xlabel 'Energy (eV)'
set ylabel 'DOS (states/eV)'
set grid
set xrange [-10:10]
set yrange [0:27.300]
set xzeroaxis lt -1
set terminal png size 800,600
set output 'mp-27258_dos_gnuplot.png'
plot '-' using 1:2 with lines title 'DOS'
-10.911500 0.000000
-10.894500 0.000000
-10.877500 0.000000
-10.860500 0.000000
-10.843500 0.000000
-10.826400 0.000000
-10.809400 0.000000
-10.792400 0.000000
-10.775400 0.000000
-10.758400 0.000000
-10.741400 0.000000
-10.724400 0.000000
-10.707400 0.000000
-10.690400 0.000000
-10.673400 0.000000
-10.656400 0.000000
-10.639400 0.000000
-10.622300 0.000000
-10.605300 0.000000
-10.588300 0.000000
-10.571300 0.000000
-10.554300 0.000000
-10.537300 0.000000
-10.520300 0.000000
-10.503300 0.000000
-10.486300 0.000000
-10.469300 0.000000
-10.452300 0.000000
-10.435300 0.000000
-10.418200 0.000000
-10.401200 0.000000
-10.384200 0.000000
-10.367200 0.000000
-10.350200 0.000000
-10.333200 0.000000
-10.316200 0.000000
-10.299200 0.000000
-10.282200 0.000000
-10.265200 0.000000
-10.248200 0.000000
-10.231200 0.000000
-10.214100 0.000000
-10.197100 0.000000
-10.180100 0.000000
-10.163100 0.000000
-10.146100 0.000000
-10.129100 0.000000
-10.112100 0.000000
-10.095100 0.000000
-10.078100 0.000000
-10.061100 0.000000
-10.044100 0.000000
-10.027100 0.000000
-10.010000 0.000000
-9.993000 0.000000
-9.976000 0.000000
-9.959000 0.000000
-9.942000 0.000000
-9.925000 0.000000
-9.908000 0.000000
-9.891000 0.000000
-9.874000 0.000000
-9.857000 0.000000
-9.840000 0.000000
-9.823000 0.000000
-9.805900 0.000000
-9.788900 0.000000
-9.771900 0.000000
-9.754900 0.000000
-9.737900 0.000000
-9.720900 0.000000
-9.703900 0.000000
-9.686900 0.000000
-9.669900 0.000000
-9.652900 0.000000
-9.635900 0.000000
-9.618900 0.000000
-9.601800 0.000000
-9.584800 0.000000
-9.567800 0.000000
-9.550800 0.000000
-9.533800 0.000000
-9.516800 0.000000
-9.499800 0.000000
-9.482800 0.000000
-9.465800 0.000000
-9.448800 0.000000
-9.431800 0.000000
-9.414800 0.000000
-9.397700 0.000000
-9.380700 0.000000
-9.363700 0.001100
-9.346700 0.165200
-9.329700 0.535800
-9.312700 0.916500
-9.295700 1.087500
-9.278700 1.297000
-9.261700 1.525400
-9.244700 1.890300
-9.227700 2.302200
-9.210700 2.481000
-9.193600 2.442300
-9.176600 2.498300
-9.159600 2.630500
-9.142600 2.770300
-9.125600 2.911800
-9.108600 3.053700
-9.091600 3.347100
-9.074600 4.408800
-9.057600 3.941000
-9.040600 3.032600
-9.023600 2.747300
-9.006600 2.649100
-8.989500 2.523700
-8.972500 2.376400
-8.955500 2.213600
-8.938500 2.086700
-8.921500 1.972100
-8.904500 1.933400
-8.887500 1.899000
-8.870500 1.865100
-8.853500 1.829900
-8.836500 1.792000
-8.819500 1.738100
-8.802500 1.689800
-8.785400 1.660300
-8.768400 1.635200
-8.751400 1.603700
-8.734400 1.583700
-8.717400 1.558800
-8.700400 1.529300
-8.683400 1.507300
-8.666400 1.488200
-8.649400 1.469700
-8.632400 1.450400
-8.615400 1.426100
-8.598400 1.405400
-8.581300 1.391300
-8.564300 1.380000
-8.547300 1.371500
-8.530300 1.367000
-8.513300 1.366900
-8.496300 1.366900
-8.479300 1.367000
-8.462300 1.367100
-8.445300 3.646700
-8.428300 2.538700
-8.411300 2.105700
-8.394300 1.847600
-8.377200 1.858600
-8.360200 1.757900
-8.343200 1.280900
-8.326200 0.715600
-8.309200 0.315600
-8.292200 0.076900
-8.275200 0.000000
-8.258200 0.000000
-8.241200 0.000000
-8.224200 0.000000
-8.207200 0.000000
-8.190200 0.000000
-8.173100 0.000000
-8.156100 0.000000
-8.139100 0.000000
-8.122100 0.000000
-8.105100 0.109700
-8.088100 2.933300
-8.071100 2.464000
-8.054100 2.249300
-8.037100 2.688300
-8.020100 2.404100
-8.003100 1.797100
-7.986100 1.345000
-7.969000 1.165900
-7.952000 1.146800
-7.935000 1.146600
-7.918000 1.146500
-7.901000 1.146400
-7.884000 1.146400
-7.867000 1.146400
-7.850000 1.264200
-7.833000 1.502300
-7.816000 1.597200
-7.799000 1.715600
-7.781900 1.832000
-7.764900 1.950700
-7.747900 2.190400
-7.730900 2.473600
-7.713900 2.653100
-7.696900 2.816500
-7.679900 2.970600
-7.662900 3.129400
-7.645900 3.288200
-7.628900 3.463200
-7.611900 3.520400
-7.594900 3.567700
-7.577800 3.696600
-7.560800 3.938200
-7.543800 4.243000
-7.526800 4.585000
-7.509800 5.230100
-7.492800 5.449800
-7.475800 6.684300
-7.458800 7.159900
-7.441800 7.923200
-7.424800 7.868900
-7.407800 7.103200
-7.390800 7.094400
-7.373700 6.358500
-7.356700 5.983200
-7.339700 5.345500
-7.322700 4.919700
-7.305700 4.442300
-7.288700 4.117700
-7.271700 4.075100
-7.254700 3.911800
-7.237700 3.580800
-7.220700 3.332300
-7.203700 3.280500
-7.186700 3.317100
-7.169600 2.037400
-7.152600 1.779800
-7.135600 1.748000
-7.118600 1.760700
-7.101600 1.880400
-7.084600 2.135900
-7.067600 2.478600
-7.050600 2.574800
-7.033600 2.277300
-7.016600 1.860300
-6.999600 1.675900
-6.982600 1.610000
-6.965500 1.544500
-6.948500 1.478800
-6.931500 1.410400
-6.914500 1.338000
-6.897500 1.269000
-6.880500 1.202600
-6.863500 1.140800
-6.846500 1.084500
-6.829500 1.033900
-6.812500 0.991800
-6.795500 0.965800
-6.778500 0.951700
-6.761400 0.940900
-6.744400 0.932700
-6.727400 0.918200
-6.710400 0.895500
-6.693400 0.859900
-6.676400 0.806800
-6.659400 0.749300
-6.642400 0.683800
-6.625400 0.608500
-6.608400 0.523300
-6.591400 0.443500
-6.574400 0.367400
-6.557300 0.298700
-6.540300 0.233300
-6.523300 0.175400
-6.506300 0.125000
-6.489300 0.082000
-6.472300 0.046500
-6.455300 0.019400
-6.438300 0.003900
-6.421300 0.000000
-6.404300 0.000000
-6.387300 0.000000
-6.370300 0.000000
-6.353200 0.000000
-6.336200 0.000000
-6.319200 0.000000
-6.302200 0.000000
-6.285200 0.000000
-6.268200 0.000000
-6.251200 0.000000
-6.234200 0.000000
-6.217200 0.000000
-6.200200 0.000000
-6.183200 0.000000
-6.166200 0.000000
-6.149100 0.000000
-6.132100 0.000000
-6.115100 0.000000
-6.098100 0.000000
-6.081100 0.000000
-6.064100 0.000000
-6.047100 0.000000
-6.030100 0.000000
-6.013100 0.000000
-5.996100 0.000000
-5.979100 0.000000
-5.962100 0.000000
-5.945000 0.000000
-5.928000 0.000000
-5.911000 0.000000
-5.894000 0.000000
-5.877000 0.000000
-5.860000 0.000000
-5.843000 0.000000
-5.826000 0.000000
-5.809000 0.000000
-5.792000 0.000000
-5.775000 0.000000
-5.758000 0.000000
-5.740900 0.000000
-5.723900 0.000000
-5.706900 0.009800
-5.689900 0.044500
-5.672900 0.104300
-5.655900 0.189300
-5.638900 0.330900
-5.621900 0.491600
-5.604900 0.565500
-5.587900 0.858000
-5.570900 1.812400
-5.553900 3.296300
-5.536800 3.703400
-5.519800 3.607400
-5.502800 3.368100
-5.485800 3.283100
-5.468800 3.275000
-5.451800 3.238100
-5.434800 3.255000
-5.417800 3.378700
-5.400800 3.560900
-5.383800 3.649200
-5.366800 3.887700
-5.349800 3.844300
-5.332700 3.899600
-5.315700 4.041400
-5.298700 4.155700
-5.281700 4.563200
-5.264700 4.177500
-5.247700 4.199500
-5.230700 4.255600
-5.213700 4.415900
-5.196700 4.836000
-5.179700 5.372800
-5.162700 5.103200
-5.145700 5.083100
-5.128600 5.017200
-5.111600 4.792500
-5.094600 4.627100
-5.077600 4.488300
-5.060600 4.426500
-5.043600 4.363900
-5.026600 4.274700
-5.009600 4.241000
-4.992600 4.219500
-4.975600 4.133300
-4.958600 3.937200
-4.941600 3.707800
-4.924500 3.503300
-4.907500 3.340800
-4.890500 3.149400
-4.873500 2.930000
-4.856500 2.716800
-4.839500 2.538600
-4.822500 2.392800
-4.805500 2.279700
-4.788500 2.184700
-4.771500 2.105600
-4.754500 2.047800
-4.737500 2.007600
-4.720400 1.997100
-4.703400 1.990800
-4.686400 1.986200
-4.669400 1.985500
-4.652400 1.993000
-4.635400 2.017700
-4.618400 2.023200
-4.601400 2.025700
-4.584400 1.995500
-4.567400 1.894700
-4.550400 1.824400
-4.533400 1.696700
-4.516300 1.542800
-4.499300 1.396100
-4.482300 1.300400
-4.465300 1.242700
-4.448300 1.188800
-4.431300 1.134800
-4.414300 1.085000
-4.397300 1.046200
-4.380300 0.989800
-4.363300 0.936700
-4.346300 0.890200
-4.329300 0.848100
-4.312200 0.810200
-4.295200 0.786900
-4.278200 0.774000
-4.261200 0.757500
-4.244200 0.739000
-4.227200 0.718300
-4.210200 0.693200
-4.193200 0.664200
-4.176200 0.632000
-4.159200 0.595600
-4.142200 0.528000
-4.125200 0.506200
-4.108100 0.484100
-4.091100 0.461700
-4.074100 0.439000
-4.057100 0.416400
-4.040100 0.796900
-4.023100 1.024400
-4.006100 1.003700
-3.989100 1.000600
-3.972100 1.019500
-3.955100 0.985800
-3.938100 0.942900
-3.921100 0.916600
-3.904000 0.915500
-3.887000 0.933900
-3.870000 0.959000
-3.853000 0.987600
-3.836000 1.019800
-3.819000 1.052900
-3.802000 1.072000
-3.785000 1.080900
-3.768000 1.086400
-3.751000 1.063500
-3.734000 1.007800
-3.717000 1.011600
-3.699900 1.020700
-3.682900 1.032500
-3.665900 1.045800
-3.648900 1.060700
-3.631900 1.077200
-3.614900 1.094900
-3.597900 1.108900
-3.580900 1.098500
-3.563900 1.102300
-3.546900 1.117400
-3.529900 1.131000
-3.512900 1.143900
-3.495800 1.156700
-3.478800 1.169200
-3.461800 1.175600
-3.444800 1.146800
-3.427800 1.141000
-3.410800 1.129400
-3.393800 1.137300
-3.376800 1.147400
-3.359800 1.157600
-3.342800 1.167900
-3.325800 1.176700
-3.308800 1.183300
-3.291700 1.189800
-3.274700 1.196200
-3.257700 1.203000
-3.240700 1.214100
-3.223700 1.228700
-3.206700 1.245400
-3.189700 1.264000
-3.172700 1.288900
-3.155700 1.310900
-3.138700 1.340800
-3.121700 1.402700
-3.104700 1.438100
-3.087600 1.461000
-3.070600 1.484700
-3.053600 1.521400
-3.036600 1.576300
-3.019600 1.644900
-3.002600 1.787800
-2.985600 1.994600
-2.968600 2.155800
-2.951600 2.185900
-2.934600 2.112400
-2.917600 1.959800
-2.900600 1.718700
-2.883500 1.592800
-2.866500 1.499200
-2.849500 1.422200
-2.832500 1.367100
-2.815500 1.331500
-2.798500 1.305500
-2.781500 1.289300
-2.764500 1.244000
-2.747500 1.223500
-2.730500 1.199000
-2.713500 1.170300
-2.696500 1.137200
-2.679400 1.099600
-2.662400 1.053500
-2.645400 0.944600
-2.628400 0.825200
-2.611400 0.754900
-2.594400 0.716000
-2.577400 0.689100
-2.560400 0.662800
-2.543400 0.636400
-2.526400 0.610500
-2.509400 0.585700
-2.492400 0.562200
-2.475300 0.539500
-2.458300 0.517300
-2.441300 0.495300
-2.424300 0.473600
-2.407300 0.452400
-2.390300 0.432500
-2.373300 0.414500
-2.356300 0.398100
-2.339300 0.382300
-2.322300 0.366900
-2.305300 0.351900
-2.288300 0.337900
-2.271200 0.325300
-2.254200 0.314000
-2.237200 0.301600
-2.220200 0.286000
-2.203200 0.271100
-2.186200 0.257200
-2.169200 0.244200
-2.152200 0.232300
-2.135200 0.221300
-2.118200 0.211300
-2.101200 0.202300
-2.084200 0.194900
-2.067100 0.190100
-2.050100 0.302300
-2.033100 0.195100
-2.016100 0.172000
-1.999100 0.150100
-1.982100 0.129200
-1.965100 0.109500
-1.948100 0.090900
-1.931100 0.073400
-1.914100 0.057100
-1.897100 0.041900
-1.880000 0.027800
-1.863000 0.014900
-1.846000 0.245100
-1.829000 1.616500
-1.812000 1.832500
-1.795000 1.851600
-1.778000 1.835800
-1.761000 1.956100
-1.744000 2.147500
-1.727000 2.458900
-1.710000 2.741800
-1.693000 2.959100
-1.675900 3.231800
-1.658900 3.552500
-1.641900 3.994900
-1.624900 4.192200
-1.607900 4.341500
-1.590900 4.518800
-1.573900 4.804600
-1.556900 5.451800
-1.539900 6.564800
-1.522900 7.252300
-1.505900 6.951900
-1.488900 6.913100
-1.471800 6.980000
-1.454800 7.120900
-1.437800 7.255000
-1.420800 7.407000
-1.403800 7.622600
-1.386800 7.495200
-1.369800 7.206800
-1.352800 6.427700
-1.335800 5.235000
-1.318800 5.281300
-1.301800 5.465800
-1.284800 5.617900
-1.267700 5.834700
-1.250700 5.634800
-1.233700 4.978700
-1.216700 5.267200
-1.199700 5.336100
-1.182700 5.882300
-1.165700 6.794200
-1.148700 7.661600
-1.131700 8.765800
-1.114700 7.821100
-1.097700 7.524800
-1.080700 7.453800
-1.063600 6.641800
-1.046600 6.575200
-1.029600 6.745500
-1.012600 7.208900
-0.995600 7.992000
-0.978600 8.937000
-0.961600 8.524900
-0.944600 7.081200
-0.927600 5.873400
-0.910600 5.103100
-0.893600 4.585200
-0.876600 4.800600
-0.859500 5.458300
-0.842500 6.281200
-0.825500 6.081600
-0.808500 6.162700
-0.791500 6.257700
-0.774500 5.952600
-0.757500 5.855500
-0.740500 5.781000
-0.723500 5.593800
-0.706500 5.603500
-0.689500 5.611700
-0.672500 5.909800
-0.655400 6.436400
-0.638400 6.060100
-0.621400 5.702200
-0.604400 6.081600
-0.587400 7.045100
-0.570400 7.274600
-0.553400 7.681300
-0.536400 9.183400
-0.519400 7.881300
-0.502400 7.562200
-0.485400 7.336600
-0.468400 7.088400
-0.451300 6.664700
-0.434300 6.383600
-0.417300 6.522100
-0.400300 6.409400
-0.383300 6.214000
-0.366300 6.093700
-0.349300 6.170800
-0.332300 6.523500
-0.315300 6.465000
-0.298300 6.467200
-0.281300 6.755400
-0.264300 7.086500
-0.247200 7.066700
-0.230200 6.759000
-0.213200 6.751300
-0.196200 6.867500
-0.179200 7.143900
-0.162200 7.661800
-0.145200 8.571200
-0.128200 9.392700
-0.111200 9.410200
-0.094200 9.102700
-0.077200 8.983000
-0.060200 9.900900
-0.043100 9.014200
-0.026100 8.948400
-0.009100 9.171500
0.007900 9.134100
0.024900 9.429900
0.041900 10.252100
0.058900 10.776000
0.075900 10.322100
0.092900 8.854100
0.109900 9.085900
0.126900 8.860500
0.143900 9.893300
0.161000 11.423400
0.178000 11.995800
0.195000 11.539900
0.212000 11.182100
0.229000 11.133000
0.246000 11.643700
0.263000 12.118800
0.280000 12.563700
0.297000 13.365700
0.314000 13.207900
0.331000 12.766300
0.348000 12.337800
0.365100 12.020000
0.382100 11.439000
0.399100 10.230900
0.416100 9.449700
0.433100 9.866800
0.450100 11.230700
0.467100 12.197400
0.484100 11.914700
0.501100 11.069400
0.518100 10.560500
0.535100 11.131600
0.552100 12.123700
0.569200 12.728900
0.586200 11.751300
0.603200 12.155200
0.620200 12.644400
0.637200 12.435100
0.654200 11.843100
0.671200 14.437700
0.688200 14.928200
0.705200 16.108100
0.722200 16.070600
0.739200 16.160400
0.756200 15.598200
0.773300 13.564300
0.790300 14.384900
0.807300 15.569700
0.824300 17.126500
0.841300 18.838600
0.858300 15.063500
0.875300 14.174500
0.892300 15.429500
0.909300 20.151300
0.926300 20.743400
0.943300 20.892500
0.960300 16.675600
0.977400 16.162800
0.994400 16.490100
1.011400 17.047100
1.028400 18.156300
1.045400 18.859200
1.062400 16.508600
1.079400 14.077700
1.096400 15.912600
1.113400 20.630900
1.130400 24.402000
1.147400 24.818100
1.164400 18.642200
1.181500 16.999800
1.198500 16.862300
1.215500 18.412600
1.232500 18.176100
1.249500 17.813200
1.266500 16.385600
1.283500 14.104800
1.300500 15.246100
1.317500 14.602500
1.334500 14.528700
1.351500 15.679700
1.368500 17.510200
1.385600 19.384300
1.402600 21.405300
1.419600 21.964700
1.436600 18.964700
1.453600 19.497900
1.470600 18.115300
1.487600 19.325000
1.504600 17.255500
1.521600 16.025500
1.538600 16.351100
1.555600 18.788600
1.572600 21.097900
1.589700 20.100400
1.606700 17.883200
1.623700 13.599300
1.640700 10.754000
1.657700 9.536900
1.674700 9.803100
1.691700 14.422700
1.708700 16.166600
1.725700 15.816100
1.742700 16.872700
1.759700 13.543100
1.776700 13.635300
1.793800 13.108400
1.810800 13.370300
1.827800 17.323100
1.844800 20.795100
1.861800 23.020700
1.878800 17.541000
1.895800 17.972400
1.912800 19.235700
1.929800 18.298000
1.946800 16.916900
1.963800 17.496300
1.980800 19.880500
1.997900 17.575200
2.014900 15.088700
2.031900 15.961300
2.048900 18.262900
2.065900 16.384000
2.082900 16.923400
2.099900 21.974300
2.116900 21.776700
2.133900 17.476700
2.150900 16.130300
2.167900 14.045400
2.184900 16.501500
2.202000 16.945700
2.219000 16.425600
2.236000 14.718100
2.253000 16.225000
2.270000 18.370200
2.287000 17.995600
2.304000 15.271400
2.321000 13.698000
2.338000 12.157100
2.355000 11.428500
2.372000 11.635300
2.389000 11.418200
2.406100 11.127700
2.423100 10.851200
2.440100 10.593500
2.457100 10.917600
2.474100 11.357600
2.491100 11.216800
2.508100 10.771900
2.525100 10.054000
2.542100 8.786700
2.559100 8.319500
2.576100 7.715100
2.593100 6.962900
2.610200 6.104300
2.627200 5.277400
2.644200 5.485500
2.661200 6.100300
2.678200 7.201500
2.695200 7.246600
2.712200 6.999900
2.729200 6.861000
2.746200 6.495600
2.763200 6.055500
2.780200 5.645300
2.797200 5.465600
2.814300 5.663300
2.831300 6.257800
2.848300 6.959200
2.865300 7.663900
2.882300 6.600600
2.899300 6.063700
2.916300 5.795900
2.933300 5.705700
2.950300 5.938900
2.967300 6.556600
2.984300 6.718000
3.001300 6.579500
3.018400 6.435700
3.035400 6.363200
3.052400 6.600800
3.069400 5.932300
3.086400 5.542200
3.103400 5.185800
3.120400 4.843800
3.137400 4.608100
3.154400 4.442800
3.171400 4.297500
3.188400 4.263300
3.205400 4.336900
3.222500 4.270200
3.239500 4.888200
3.256500 5.479100
3.273500 5.578700
3.290500 5.872000
3.307500 6.306600
3.324500 6.825400
3.341500 7.269100
3.358500 7.322100
3.375500 7.194900
3.392500 7.013100
3.409500 6.732300
3.426600 6.518900
3.443600 6.252900
3.460600 5.948600
3.477600 5.481600
3.494600 5.194300
3.511600 5.117700
3.528600 5.159800
3.545600 5.293800
3.562600 5.408300
3.579600 5.126500
3.596600 4.915500
3.613600 4.788600
3.630700 4.701500
3.647700 4.708900
3.664700 4.929500
3.681700 5.043800
3.698700 5.042400
3.715700 5.425700
3.732700 5.584300
3.749700 5.742400
3.766700 5.545900
3.783700 5.457000
3.800700 6.194800
3.817700 6.427000
3.834800 6.098100
3.851800 5.622800
3.868800 4.986500
3.885800 4.527000
3.902800 4.213200
3.919800 4.083200
3.936800 3.849200
3.953800 3.713000
3.970800 3.598800
3.987800 3.481200
4.004800 3.118900
4.021800 3.125900
4.038900 3.157100
4.055900 3.198900
4.072900 3.288500
4.089900 3.448200
4.106900 3.983100
4.123900 4.072400
4.140900 4.002500
4.157900 3.948100
4.174900 4.228500
4.191900 4.481600
4.208900 4.733700
4.226000 4.737500
4.243000 4.904100
4.260000 4.648600
4.277000 4.597000
4.294000 4.677700
4.311000 4.751500
4.328000 4.914100
4.345000 5.129500
4.362000 5.068400
4.379000 4.781600
4.396000 4.491100
4.413000 4.207800
4.430100 3.902300
4.447100 3.607100
4.464100 3.467200
4.481100 3.464800
4.498100 3.495600
4.515100 3.579300
4.532100 3.717400
4.549100 3.868800
4.566100 4.049300
4.583100 4.289900
4.600100 4.321200
4.617100 4.419000
4.634200 4.308900
4.651200 4.177100
4.668200 4.087400
4.685200 4.130000
4.702200 4.000500
4.719200 3.780300
4.736200 3.687100
4.753200 3.670200
4.770200 3.626500
4.787200 3.484500
4.804200 3.171600
4.821200 2.728800
4.838300 2.414400
4.855300 2.255700
4.872300 2.196800
4.889300 2.147700
4.906300 1.955100
4.923300 1.811800
4.940300 1.714700
4.957300 1.541300
4.974300 1.452900
4.991300 1.470200
5.008300 1.302600
5.025300 1.263400
5.042400 1.231600
5.059400 1.206300
5.076400 1.187600
5.093400 1.186600
5.110400 1.190100
5.127400 1.179300
5.144400 1.173800
5.161400 1.026100
5.178400 0.847700
5.195400 0.710100
5.212400 0.607600
5.229400 0.517000
5.246500 0.438900
5.263500 0.385300
5.280500 0.339600
5.297500 0.298500
5.314500 0.262100
5.331500 0.230300
5.348500 0.201300
5.365500 0.172300
5.382500 0.143800
5.399500 0.119500
5.416500 0.100100
5.433500 0.082500
5.450600 0.064500
5.467600 0.047000
5.484600 0.068100
5.501600 0.059400
5.518600 0.054000
5.535600 0.053200
5.552600 0.056800
5.569600 0.063500
5.586600 0.070800
5.603600 0.078700
5.620600 0.087200
5.637600 0.096400
5.654700 0.106200
5.671700 0.118100
5.688700 0.133400
5.705700 0.149500
5.722700 0.166400
5.739700 0.184100
5.756700 0.202600
5.773700 0.229400
5.790700 0.294300
5.807700 0.429200
5.824700 0.552600
5.841700 0.598300
5.858800 0.675300
5.875800 0.795200
5.892800 0.877400
5.909800 0.939700
5.926800 0.999300
5.943800 1.056500
5.960800 1.112800
5.977800 1.180000
5.994800 1.262300
6.011800 1.368900
6.028800 1.428000
6.045800 1.456400
6.062900 1.491900
6.079900 1.522000
6.096900 1.548700
6.113900 1.574300
6.130900 1.602300
6.147900 1.635300
6.164900 1.686900
6.181900 1.765200
6.198900 1.855700
6.215900 1.958300
6.232900 2.096800
6.249900 2.276800
6.267000 2.507300
6.284000 2.829400
6.301000 3.151100
6.318000 3.542700
6.335000 4.134000
6.352000 4.760800
6.369000 4.971300
6.386000 5.079300
6.403000 4.968500
6.420000 4.952600
6.437000 4.974200
6.454000 5.082800
6.471100 5.112700
6.488100 5.046900
6.505100 4.951300
6.522100 4.723900
6.539100 4.472200
6.556100 4.211000
6.573100 3.758500
6.590100 3.774700
6.607100 3.839400
6.624100 4.009900
6.641100 4.157700
6.658100 4.408700
6.675200 4.727600
6.692200 4.871400
6.709200 4.928400
6.726200 5.020900
6.743200 4.943100
6.760200 4.412900
6.777200 4.401300
6.794200 4.400900
6.811200 4.406800
6.828200 4.586900
6.845200 4.536400
6.862200 4.476500
6.879300 4.466700
6.896300 4.454600
6.913300 4.526800
