set title 'mp-1079083 - Density of States'
set xlabel 'Energy (eV)'
set ylabel 'DOS (states/eV)'
set grid
set xrange [-10:10]
set yrange [0:23.088]
set xzeroaxis lt -1
set terminal png size 800,600
set output 'mp-1079083_dos_gnuplot.png'
plot '-' using 1:2 with lines title 'DOS'
-9.112600 0.000000
-9.094300 0.000000
-9.076000 0.000000
-9.057700 0.000000
-9.039500 0.000000
-9.021200 0.000000
-9.002900 0.000000
-8.984600 0.000000
-8.966300 0.000000
-8.948000 0.000000
-8.929700 0.000000
-8.911400 0.000000
-8.893100 0.000000
-8.874800 0.000000
-8.856600 0.000000
-8.838300 0.000000
-8.820000 0.000000
-8.801700 0.000000
-8.783400 0.000000
-8.765100 0.000000
-8.746800 0.000000
-8.728500 0.000000
-8.710200 0.000000
-8.691900 0.000000
-8.673700 0.000000
-8.655400 0.000000
-8.637100 0.000000
-8.618800 0.000000
-8.600500 0.000000
-8.582200 0.000000
-8.563900 0.000000
-8.545600 0.000000
-8.527300 0.000000
-8.509000 0.000000
-8.490700 0.000000
-8.472500 0.000000
-8.454200 0.000000
-8.435900 0.000000
-8.417600 0.000000
-8.399300 0.000000
-8.381000 0.000000
-8.362700 0.000000
-8.344400 0.000000
-8.326100 0.000000
-8.307800 0.000000
-8.289600 0.000000
-8.271300 0.000000
-8.253000 0.000000
-8.234700 0.000000
-8.216400 0.000000
-8.198100 0.000000
-8.179800 0.000000
-8.161500 0.000000
-8.143200 0.000000
-8.124900 0.000000
-8.106700 0.000000
-8.088400 0.000000
-8.070100 0.000000
-8.051800 0.000000
-8.033500 0.000000
-8.015200 0.000000
-7.996900 0.000000
-7.978600 0.000000
-7.960300 0.000000
-7.942000 0.000000
-7.923800 0.000000
-7.905500 0.000000
-7.887200 0.000000
-7.868900 0.000000
-7.850600 0.000000
-7.832300 0.000000
-7.814000 0.000000
-7.795700 0.000000
-7.777400 0.000000
-7.759100 0.000000
-7.740900 0.000000
-7.722600 0.000000
-7.704300 0.000000
-7.686000 0.000000
-7.667700 0.000000
-7.649400 0.000000
-7.631100 0.000000
-7.612800 0.000000
-7.594500 0.000000
-7.576200 0.000000
-7.558000 0.000000
-7.539700 0.000000
-7.521400 0.000000
-7.503100 0.000000
-7.484800 0.000000
-7.466500 0.000000
-7.448200 0.000400
-7.429900 0.064700
-7.411600 0.222700
-7.393300 0.363500
-7.375100 0.492700
-7.356800 0.645400
-7.338500 0.714000
-7.320200 0.789600
-7.301900 0.852500
-7.283600 0.926800
-7.265300 1.006400
-7.247000 1.091000
-7.228700 1.198300
-7.210400 1.341800
-7.192200 1.474800
-7.173900 1.640000
-7.155600 1.908600
-7.137300 2.056100
-7.119000 2.143300
-7.100700 2.115000
-7.082400 2.023000
-7.064100 1.991000
-7.045800 1.944800
-7.027500 1.915800
-7.009300 1.908800
-6.991000 1.906000
-6.972700 1.902800
-6.954400 1.898900
-6.936100 1.877500
-6.917800 1.887200
-6.899500 1.866100
-6.881200 1.833000
-6.862900 1.785900
-6.844600 1.779700
-6.826400 1.679800
-6.808100 1.564500
-6.789800 1.462800
-6.771500 1.397600
-6.753200 1.363200
-6.734900 1.341600
-6.716600 1.316100
-6.698300 1.290900
-6.680000 1.264500
-6.661700 1.238700
-6.643500 1.213700
-6.625200 1.187600
-6.606900 1.163200
-6.588600 1.140400
-6.570300 1.118800
-6.552000 1.093500
-6.533700 1.081000
-6.515400 1.067900
-6.497100 1.050600
-6.478800 1.027900
-6.460600 1.008600
-6.442300 0.992900
-6.424000 0.979800
-6.405700 0.968700
-6.387400 0.958300
-6.369100 0.948600
-6.350800 0.939400
-6.332500 0.930800
-6.314200 0.922500
-6.295900 0.914900
-6.277700 0.908000
-6.259400 0.901700
-6.241100 0.895000
-6.222800 0.887600
-6.204500 0.883100
-6.186200 0.885100
-6.167900 0.892500
-6.149600 0.904200
-6.131300 0.921400
-6.113000 0.945800
-6.094800 0.985100
-6.076500 1.047500
-6.058200 1.130000
-6.039900 1.237000
-6.021600 1.535400
-6.003300 1.869100
-5.985000 2.486200
-5.966700 2.129100
-5.948400 1.362800
-5.930100 1.006500
-5.911900 0.799300
-5.893600 0.630500
-5.875300 0.505100
-5.857000 0.416600
-5.838700 0.343900
-5.820400 0.278100
-5.802100 0.218500
-5.783800 0.165100
-5.765500 0.117100
-5.747200 0.076300
-5.729000 0.043000
-5.710700 0.000000
-5.692400 0.000000
-5.674100 0.000000
-5.655800 0.000000
-5.637500 0.000000
-5.619200 0.000000
-5.600900 0.000000
-5.582600 0.055400
-5.564300 0.106100
-5.546100 0.167800
-5.527800 0.233700
-5.509500 0.307200
-5.491200 0.391100
-5.472900 0.495500
-5.454600 0.642800
-5.436300 0.832100
-5.418000 1.137700
-5.399700 1.439000
-5.381400 2.070700
-5.363200 2.325900
-5.344900 1.639300
-5.326600 1.191800
-5.308300 1.022200
-5.290000 0.930800
-5.271700 0.857400
-5.253400 0.801700
-5.235100 0.766400
-5.216800 0.740600
-5.198500 0.721200
-5.180300 0.705500
-5.162000 0.693400
-5.143700 0.683600
-5.125400 0.674700
-5.107100 0.669200
-5.088800 0.666900
-5.070500 0.666800
-5.052200 0.666800
-5.033900 0.666800
-5.015600 0.666800
-4.997400 0.666800
-4.979100 0.666700
-4.960800 0.666700
-4.942500 0.667400
-4.924200 0.668800
-4.905900 0.669900
-4.887600 0.671100
-4.869300 0.672500
-4.851000 0.673900
-4.832700 0.675200
-4.814400 0.676600
-4.796200 0.678000
-4.777900 0.679500
-4.759600 0.681100
-4.741300 0.682800
-4.723000 0.684600
-4.704700 0.686800
-4.686400 0.689200
-4.668100 0.691000
-4.649800 0.692400
-4.631500 0.693700
-4.613300 0.694900
-4.595000 0.695800
-4.576700 0.696600
-4.558400 0.697200
-4.540100 0.697800
-4.521800 0.698300
-4.503500 0.698700
-4.485200 0.699000
-4.466900 0.699100
-4.448600 0.699200
-4.430400 0.699200
-4.412100 0.699200
-4.393800 0.699000
-4.375500 0.699000
-4.357200 0.699000
-4.338900 0.948300
-4.320600 2.044400
-4.302300 2.629800
-4.284000 3.000200
-4.265700 3.215400
-4.247500 3.184400
-4.229200 3.126400
-4.210900 3.112100
-4.192600 3.112700
-4.174300 2.828500
-4.156000 2.736100
-4.137700 2.554400
-4.119400 2.466700
-4.101100 2.406700
-4.082800 2.338800
-4.064600 2.220400
-4.046300 2.080700
-4.028000 2.040700
-4.009700 2.034200
-3.991400 2.242600
-3.973100 2.601100
-3.954800 2.613800
-3.936500 2.633600
-3.918200 2.627500
-3.899900 2.700800
-3.881700 2.786700
-3.863400 2.877500
-3.845100 3.032600
-3.826800 3.238400
-3.808500 3.353700
-3.790200 3.435800
-3.771900 3.516200
-3.753600 3.596400
-3.735300 3.682600
-3.717000 3.780200
-3.698800 3.905400
-3.680500 4.011400
-3.662200 4.113100
-3.643900 4.282400
-3.625600 4.454100
-3.607300 4.670700
-3.589000 5.062500
-3.570700 5.474000
-3.552400 5.776600
-3.534100 5.623500
-3.515900 5.685400
-3.497600 5.923500
-3.479300 5.265400
-3.461000 4.972500
-3.442700 5.007600
-3.424400 5.023900
-3.406100 5.146800
-3.387800 5.162200
-3.369500 4.905300
-3.351200 4.916400
-3.333000 5.000600
-3.314700 4.776500
-3.296400 4.612700
-3.278100 4.503700
-3.259800 4.735900
-3.241500 5.362000
-3.223200 5.492000
-3.204900 5.700200
-3.186600 6.087300
-3.168300 6.503500
-3.150100 6.298800
-3.131800 6.209800
-3.113500 6.202100
-3.095200 11.966000
-3.076900 0.088800
-3.058600 0.036400
-3.040300 0.007000
-3.022000 0.000000
-3.003700 0.000000
-2.985400 0.000000
-2.967200 0.000000
-2.948900 0.000000
-2.930600 0.000000
-2.912300 0.000000
-2.894000 0.000000
-2.875700 0.000000
-2.857400 0.000000
-2.839100 0.000000
-2.820800 0.000000
-2.802500 0.000000
-2.784300 0.000000
-2.766000 0.000000
-2.747700 0.000000
-2.729400 0.000000
-2.711100 0.000000
-2.692800 0.000000
-2.674500 0.000000
-2.656200 0.000000
-2.637900 0.000000
-2.619600 0.000000
-2.601400 0.000000
-2.583100 0.000000
-2.564800 0.000000
-2.546500 0.000000
-2.528200 0.000000
-2.509900 0.000000
-2.491600 0.000000
-2.473300 0.000000
-2.455000 0.000000
-2.436700 0.000000
-2.418500 0.000000
-2.400200 0.000000
-2.381900 0.000000
-2.363600 0.000000
-2.345300 0.000000
-2.327000 0.000000
-2.308700 0.000000
-2.290400 0.000000
-2.272100 0.000000
-2.253800 0.000000
-2.235600 0.000000
-2.217300 0.000000
-2.199000 0.000000
-2.180700 0.000000
-2.162400 0.000000
-2.144100 0.000000
-2.125800 0.000000
-2.107500 0.000000
-2.089200 0.000000
-2.070900 0.000000
-2.052700 0.000000
-2.034400 0.056900
-2.016100 0.563700
-1.997800 0.527800
-1.979500 0.614600
-1.961200 0.703200
-1.942900 0.781600
-1.924600 0.897600
-1.906300 1.036100
-1.888000 1.190400
-1.869800 1.356400
-1.851500 1.512100
-1.833200 1.708400
-1.814900 2.007700
-1.796600 2.357700
-1.778300 2.603700
-1.760000 3.663400
-1.741700 5.016400
-1.723400 7.400400
-1.705100 6.852500
-1.686900 3.719500
-1.668600 3.890100
-1.650300 4.211500
-1.632000 4.241800
-1.613700 4.253000
-1.595400 4.131500
-1.577100 3.891300
-1.558800 3.752100
-1.540500 3.632900
-1.522200 3.632600
-1.504000 3.612900
-1.485700 3.651600
-1.467400 3.715300
-1.449100 3.820200
-1.430800 3.937000
-1.412500 4.066300
-1.394200 4.350700
-1.375900 5.046400
-1.357600 5.628000
-1.339300 6.164800
-1.321100 6.302900
-1.302800 5.717400
-1.284500 5.149500
-1.266200 4.651800
-1.247900 5.198000
-1.229600 4.742600
-1.211300 4.585900
-1.193000 4.474800
-1.174700 3.995100
-1.156400 4.064300
-1.138100 4.500100
-1.119900 4.468100
-1.101600 4.296400
-1.083300 4.119200
-1.065000 3.839800
-1.046700 3.484900
-1.028400 3.165700
-1.010100 2.833800
-0.991800 2.612900
-0.973500 2.565300
-0.955200 1.806100
-0.937000 1.291700
-0.918700 0.945100
-0.900400 0.810100
-0.882100 0.802800
-0.863800 1.099400
-0.845500 1.407800
-0.827200 1.760900
-0.808900 2.003300
-0.790600 2.251700
-0.772300 2.488000
-0.754100 2.806100
-0.735800 3.397800
-0.717500 3.470700
-0.699200 3.280100
-0.680900 3.230200
-0.662600 3.207800
-0.644300 3.212600
-0.626000 3.204100
-0.607700 3.305200
-0.589400 4.000800
-0.571200 4.780300
-0.552900 6.668000
-0.534600 7.813800
-0.516300 5.386600
-0.498000 5.690300
-0.479700 5.642500
-0.461400 6.046200
-0.443100 6.792200
-0.424800 8.790300
-0.406500 12.447200
-0.388300 15.282200
-0.370000 10.964800
-0.351700 13.616700
-0.333400 12.269100
-0.315100 13.948100
-0.296800 14.366900
-0.278500 15.413100
-0.260200 17.081800
-0.241900 19.525400
-0.223600 17.314300
-0.205400 16.742600
-0.187100 14.522400
-0.168800 13.879900
-0.150500 16.262800
-0.132200 16.558400
-0.113900 15.843600
-0.095600 16.492800
-0.077300 17.793200
-0.059000 15.608100
-0.040700 14.310300
-0.022500 13.755900
-0.004200 14.069000
0.014100 15.466500
0.032400 15.626000
0.050700 17.710100
0.069000 20.989500
0.087300 16.987400
0.105600 14.053500
0.123900 12.991700
0.142200 10.825900
0.160400 9.938800
0.178700 10.094000
0.197000 11.272100
0.215300 11.227300
0.233600 11.517500
0.251900 13.808300
0.270200 13.826300
0.288500 13.501600
0.306800 13.530500
0.325100 14.265100
0.343300 17.333800
0.361600 17.992300
0.379900 16.564600
0.398200 15.718600
0.416500 12.274100
0.434800 12.740400
0.453100 16.749300
0.471400 17.853400
0.489700 16.037300
0.508000 14.192900
0.526200 11.688300
0.544500 10.779200
0.562800 11.335200
0.581100 10.280600
0.599400 9.066900
0.617700 7.321200
0.636000 6.342000
0.654300 5.445700
0.672600 5.351700
0.690900 6.136200
0.709100 6.690500
0.727400 7.953500
0.745700 8.341500
0.764000 8.843700
0.782300 11.547900
0.800600 7.334400
0.818900 6.579200
0.837200 6.314000
0.855500 6.274600
0.873800 6.840200
0.892000 7.621400
0.910300 8.521800
0.928600 9.193900
0.946900 10.304400
0.965200 10.985100
0.983500 11.522300
1.001800 11.151800
1.020100 8.460800
1.038400 7.280000
1.056700 6.758800
1.074900 6.490000
1.093200 7.792100
1.111500 11.685100
1.129800 14.847600
1.148100 13.966700
1.166400 11.739400
1.184700 11.931900
1.203000 13.918000
1.221300 15.756300
1.239600 13.810900
1.257800 12.405500
1.276100 10.744800
1.294400 10.292900
1.312700 10.893900
1.331000 12.709700
1.349300 14.173300
1.367600 13.842100
1.385900 14.684400
1.404200 15.899900
1.422500 16.561700
1.440700 20.221500
1.459000 18.346500
1.477300 16.890000
1.495600 16.439100
1.513900 16.730600
1.532200 17.544000
1.550500 17.748900
1.568800 19.407300
1.587100 15.180600
1.605400 11.064500
1.623600 13.548600
1.641900 14.812400
1.660200 16.850200
1.678500 16.938300
1.696800 15.249600
1.715100 12.835400
1.733400 11.159500
1.751700 11.534400
1.770000 12.850000
1.788300 14.563600
1.806500 12.551400
1.824800 11.084800
1.843100 10.040800
1.861400 9.536100
1.879700 9.374900
1.898000 11.684000
1.916300 13.951300
1.934600 14.866300
1.952900 16.911900
1.971200 17.787400
1.989400 17.239200
2.007700 18.785800
2.026000 16.133000
2.044300 14.869300
2.062600 10.134100
2.080900 8.889100
2.099200 7.887800
2.117500 6.890800
2.135800 5.661900
2.154100 4.350600
2.172300 3.942600
2.190600 3.514600
2.208900 3.371200
2.227200 3.071500
2.245500 3.000000
2.263800 2.832800
2.282100 2.503100
2.300400 2.585000
2.318700 3.127800
2.337000 3.603500
2.355200 4.199900
2.373500 5.534000
2.391800 6.453200
2.410100 6.980100
2.428400 9.151800
2.446700 7.765500
2.465000 5.875500
2.483300 5.631800
2.501600 7.782800
2.519900 8.142900
2.538200 7.400100
2.556400 6.726700
2.574700 6.266400
2.593000 6.020800
2.611300 5.882600
2.629600 5.630400
2.647900 11.544700
2.666200 5.484100
2.684500 5.760700
2.702800 5.913400
2.721100 5.415400
2.739300 5.702200
2.757600 6.066600
2.775900 6.433100
2.794200 6.669400
2.812500 6.802400
2.830800 6.811000
2.849100 6.737400
2.867400 6.582300
2.885700 6.335500
2.904000 6.172600
2.922200 5.981900
2.940500 5.682400
2.958800 5.547700
2.977100 5.062300
2.995400 4.984600
3.013700 5.006200
3.032000 5.580400
3.050300 5.701900
3.068600 6.124400
3.086900 6.390300
3.105100 6.751100
3.123400 7.090400
3.141700 7.497200
3.160000 7.385600
3.178300 6.855000
3.196600 6.656400
3.214900 5.447800
3.233200 5.111100
3.251500 5.132000
3.269800 7.105500
3.288000 6.790800
3.306300 5.572300
3.324600 5.061600
3.342900 4.439000
3.361200 4.022300
3.379500 3.671800
3.397800 3.446700
3.416100 3.359800
3.434400 3.290200
3.452700 3.234400
3.470900 3.212600
3.489200 3.205200
3.507500 3.239500
3.525800 3.299400
3.544100 3.342700
3.562400 3.373300
3.580700 3.388400
3.599000 3.323800
3.617300 3.261200
3.635600 3.403200
3.653800 3.880800
3.672100 4.327100
3.690400 3.768600
3.708700 3.188000
3.727000 3.046800
3.745300 4.014400
3.763600 2.078600
3.781900 1.918800
3.800200 1.780400
3.818500 1.627400
3.836700 1.452900
3.855000 1.525100
3.873300 1.480000
3.891600 1.432100
3.909900 1.393200
3.928200 1.368300
3.946500 1.347500
3.964800 1.331800
3.983100 1.322200
4.001400 1.316000
4.019600 1.314100
4.037900 1.316600
4.056200 1.324900
4.074500 1.347500
4.092800 1.400200
4.111100 1.457100
4.129400 1.515500
4.147700 1.565800
4.166000 1.676800
4.184300 1.706700
4.202500 1.708200
4.220800 1.656900
4.239100 1.611900
4.257400 1.555000
4.275700 1.581600
4.294000 1.623800
4.312300 1.670200
4.330600 1.743500
4.348900 2.012200
4.367200 2.221100
4.385400 2.324800
4.403700 2.325900
4.422000 2.222900
4.440300 2.126800
4.458600 1.994100
4.476900 1.944600
4.495200 1.900400
4.513500 1.861800
4.531800 1.828000
4.550100 1.799200
4.568300 1.774900
4.586600 1.733600
4.604900 1.673600
4.623200 1.612600
4.641500 1.551900
4.659800 1.463900
4.678100 1.395600
4.696400 1.336500
4.714700 1.288300
4.733000 1.269600
4.751200 1.251600
4.769500 1.232800
4.787800 1.213500
4.806100 1.193800
4.824400 1.175600
4.842700 1.159300
4.861000 1.143000
4.879300 1.126800
4.897600 1.112400
4.915900 1.100000
4.934100 1.090600
4.952400 1.083300
4.970700 1.076600
4.989000 1.069500
5.007300 1.063100
5.025600 1.057200
5.043900 1.052000
5.062200 1.047600
5.080500 1.044300
5.098800 1.044700
5.117000 1.047900
5.135300 1.052300
5.153600 1.057900
5.171900 1.065800
5.190200 1.076700
5.208500 1.091100
5.226800 1.108800
5.245100 1.148400
5.263400 1.173200
5.281700 1.200200
5.299900 1.229300
5.318200 1.260500
5.336500 1.349500
5.354800 1.368400
5.373100 1.361800
5.391400 1.366800
5.409700 1.364900
5.428000 1.355500
5.446300 1.339100
5.464600 1.323600
5.482800 1.288900
5.501100 1.270400
5.519400 1.402900
5.537700 1.486900
5.556000 1.549200
5.574300 1.594100
5.592600 1.625600
5.610900 1.634400
5.629200 1.621300
5.647500 1.734400
5.665700 1.853600
5.684000 2.102600
5.702300 2.396200
5.720600 2.670500
5.738900 2.926600
5.757200 3.114300
5.775500 3.261300
5.793800 3.283400
5.812100 3.196100
5.830400 3.346500
5.848600 3.582300
5.866900 3.856600
5.885200 4.048000
5.903500 4.190800
5.921800 4.121900
5.940100 3.841300
5.958400 3.403900
5.976700 3.239500
5.995000 3.094400
6.013300 2.977400
6.031600 3.040500
6.049800 3.173600
6.068100 3.503200
6.086400 3.549000
6.104700 3.575800
6.123000 3.685400
6.141300 3.848700
6.159600 3.831600
6.177900 3.573300
6.196200 3.322300
6.214500 3.250000
6.232700 3.334900
6.251000 4.026200
6.269300 3.520300
6.287600 3.533400
6.305900 3.466000
6.324200 3.279100
6.342500 3.808100
6.360800 4.126200
6.379100 4.870900
6.397400 4.390700
6.415600 4.010100
6.433900 3.909300
6.452200 3.972100
6.470500 4.163600
6.488800 4.051600
6.507100 4.111900
6.525400 4.185100
6.543700 4.252500
6.562000 4.391000
6.580300 4.475400
6.598500 4.590600
6.616800 4.745400
6.635100 5.290400
6.653400 5.485600
6.671700 5.630500
6.690000 5.661600
6.708300 5.693200
6.726600 5.689700
6.744900 5.568400
6.763200 4.917800
6.781400 4.374300
6.799700 3.873400
6.818000 3.520800
6.836300 3.202700
6.854600 2.982300
6.872900 2.932200
6.891200 3.029000
6.909500 3.372800
6.927800 3.878600
6.946100 4.383900
6.964300 4.502000
6.982600 4.247600
7.000900 3.986400
7.019200 3.995400
7.037500 4.045200
7.055800 3.614800
7.074100 3.031200
7.092400 2.854600
7.110700 2.720200
7.129000 2.839400
7.147200 3.182000
7.165500 2.547500
7.183800 2.230100
7.202100 2.044700
7.220400 2.010600
7.238700 2.033700
7.257000 2.077900
7.275300 2.159000
7.293600 2.262700
7.311900 2.390600
7.330100 2.493100
7.348400 2.590000
7.366700 2.697700
7.385000 2.817000
7.403300 2.980400
7.421600 3.133800
7.439900 3.447400
7.458200 3.545800
7.476500 3.640400
7.494800 3.735900
7.513000 3.830100
7.531300 3.937600
7.549600 4.129800
7.567900 4.200400
7.586200 4.523400
7.604500 4.093000
7.622800 3.784700
7.641100 3.644700
7.659400 3.477900
7.677700 3.438700
7.695900 4.135100
7.714200 3.942900
7.732500 3.741900
7.750800 3.613300
7.769100 3.740900
7.787400 3.927500
7.805700 3.941500
7.824000 3.966000
7.842300 4.066300
7.860600 4.184400
7.878800 4.145900
7.897100 4.026000
7.915400 3.885600
7.933700 3.669400
7.952000 3.559300
7.970300 3.479200
7.988600 3.395100
8.006900 3.450800
8.025200 3.664000
8.043500 4.639600
8.061700 4.807500
8.080000 4.775800
8.098300 4.662500
8.116600 4.641000
8.134900 4.661500
8.153200 4.730600
8.171500 4.905300
8.189800 5.064900
8.208100 5.413600
8.226400 5.126600
8.244600 4.754100
8.262900 4.267100
8.281200 3.862600
8.299500 3.710900
8.317800 3.651200
8.336100 3.607700
8.354400 3.582300
8.372700 3.647400
8.391000 3.786500
8.409300 3.885900
8.427500 4.048500
8.445800 4.151300
8.464100 4.047700
8.482400 3.867700
8.500700 3.728300
8.519000 3.628500
8.537300 3.647300
8.555600 3.729300
8.573900 3.750600
8.592200 3.752100
8.610400 3.871800
8.628700 3.974400
8.647000 4.049800
8.665300 4.168000
8.683600 4.332800
8.701900 4.506700
8.720200 4.729000
8.738500 4.860800
8.756800 4.960300
8.775100 5.043400
8.793300 5.074200
8.811600 5.032100
8.829900 4.824400
8.848200 4.775300
8.866500 4.741400
8.884800 4.708700
8.903100 4.661700
8.921400 4.523000
8.939700 4.391400
8.958000 4.410600
8.976200 4.463400
8.994500 4.547000
9.012800 4.649800
9.031100 4.782100
9.049400 4.821600
9.067700 4.653300
9.086000 4.642500
9.104300 4.617800
9.122600 4.666100
9.140900 4.702800
9.159100 4.668600
9.177400 4.602900
9.195700 4.474800
9.214000 4.253200
9.232300 4.295800
9.250600 4.466100
9.268900 4.312400
9.287200 4.477900
9.305500 4.756700
9.323800 4.458600
9.342000 4.232300
9.360300 4.022200
9.378600 3.820500
9.396900 3.799900
9.415200 3.827200
9.433500 3.864000
9.451800 3.904300
9.470100 3.967100
9.488400 4.065700
9.506700 4.226800
9.524900 4.340800
9.543200 4.486100
9.561500 4.652400
9.579800 4.795000
9.598100 4.956600
9.616400 5.024200
9.634700 5.102100
9.653000 5.074800
9.671300 4.411800
9.689600 4.510900
9.707900 4.665000
9.726100 4.992000
9.744400 5.057000
9.762700 4.896200
9.781000 4.698300
9.799300 4.425300
9.817600 4.169200
9.835900 3.978500
9.854200 3.883000
9.872500 3.828500
9.890800 3.856600
9.909000 4.128300
9.927300 3.705400
9.945600 3.223800
9.963900 2.897800
9.982200 2.855400
10.000500 2.802600
10.018800 2.817000
10.037100 2.779100
10.055400 2.739300
10.073700 2.748800
10.091900 2.832900
10.110200 2.966000
10.128500 3.126300
10.146800 3.243400
10.165100 3.837600
10.183400 4.097700
10.201700 4.332800
10.220000 4.895900
10.238300 5.535700
10.256600 5.600600
