set title 'mp-973354 - Density of States'
set xlabel 'Energy (eV)'
set ylabel 'DOS (states/eV)'
set grid
set xrange [-10:10]
set yrange [0:10.990]
set xzeroaxis lt -1
set terminal png size 800,600
set output 'mp-973354_dos_gnuplot.png'
plot '-' using 1:2 with lines title 'DOS'
-5.747100 0.000000
-5.725500 0.000000
-5.703900 0.000000
-5.682300 0.000000
-5.660700 0.000000
-5.639000 0.000000
-5.617400 0.000000
-5.595800 0.000000
-5.574200 0.000000
-5.552600 0.000000
-5.531000 0.000000
-5.509400 0.000000
-5.487800 0.000000
-5.466200 0.000000
-5.444600 0.000000
-5.422900 0.000000
-5.401300 0.000000
-5.379700 0.000000
-5.358100 0.000000
-5.336500 0.000000
-5.314900 0.000000
-5.293300 0.000000
-5.271700 0.000000
-5.250100 0.000000
-5.228500 0.000000
-5.206800 0.000000
-5.185200 0.000000
-5.163600 0.000000
-5.142000 0.000000
-5.120400 0.000000
-5.098800 0.000000
-5.077200 0.000000
-5.055600 0.000000
-5.034000 0.000000
-5.012400 0.000000
-4.990700 0.000000
-4.969100 0.000000
-4.947500 0.000000
-4.925900 0.000000
-4.904300 0.000000
-4.882700 0.000000
-4.861100 0.000000
-4.839500 0.000000
-4.817900 0.000000
-4.796300 0.000000
-4.774600 0.000000
-4.753000 0.000000
-4.731400 0.000000
-4.709800 0.000000
-4.688200 0.000000
-4.666600 0.000000
-4.645000 0.000000
-4.623400 0.000000
-4.601800 0.000000
-4.580200 0.000000
-4.558500 0.000000
-4.536900 0.000000
-4.515300 0.000000
-4.493700 0.000000
-4.472100 0.000000
-4.450500 0.000000
-4.428900 0.000000
-4.407300 0.000000
-4.385700 0.000000
-4.364100 0.000000
-4.342400 0.000000
-4.320800 0.000000
-4.299200 0.000000
-4.277600 0.000000
-4.256000 0.000000
-4.234400 0.000000
-4.212800 0.000000
-4.191200 0.000000
-4.169600 0.000000
-4.148000 0.000000
-4.126300 0.000000
-4.104700 0.000000
-4.083100 0.000000
-4.061500 0.000000
-4.039900 0.000000
-4.018300 0.000000
-3.996700 0.000000
-3.975100 0.000000
-3.953500 0.000000
-3.931900 0.000000
-3.910200 0.000000
-3.888600 0.000100
-3.867000 0.000800
-3.845400 0.003200
-3.823800 0.009800
-3.802200 0.021700
-3.780600 0.037900
-3.759000 0.057100
-3.737400 0.081600
-3.715800 0.118100
-3.694100 0.169800
-3.672500 0.218600
-3.650900 0.227300
-3.629300 0.182300
-3.607700 0.122200
-3.586100 0.105100
-3.564500 0.157700
-3.542900 0.252900
-3.521300 0.329600
-3.499700 0.350200
-3.478000 0.339600
-3.456400 0.346500
-3.434800 0.374700
-3.413200 0.374400
-3.391600 0.314200
-3.370000 0.234600
-3.348400 0.197300
-3.326800 0.228500
-3.305200 0.324700
-3.283600 0.442100
-3.261900 0.503600
-3.240300 0.487200
-3.218700 0.456800
-3.197100 0.465400
-3.175500 0.483500
-3.153900 0.449700
-3.132300 0.372700
-3.110700 0.346200
-3.089100 0.438200
-3.067400 0.597200
-3.045800 0.711100
-3.024200 0.736100
-3.002600 0.708600
-2.981000 0.652200
-2.959400 0.557100
-2.937800 0.445100
-2.916200 0.375100
-2.894600 0.377100
-2.873000 0.445000
-2.851300 0.570400
-2.829700 0.725300
-2.808100 0.858200
-2.786500 0.941600
-2.764900 0.972200
-2.743300 0.938200
-2.721700 0.859700
-2.700100 0.832500
-2.678500 0.930000
-2.656900 1.079300
-2.635200 1.140100
-2.613600 1.088200
-2.592000 1.010700
-2.570400 0.942200
-2.548800 0.837600
-2.527200 0.715800
-2.505600 0.710300
-2.484000 0.910900
-2.462400 1.205000
-2.440800 1.377300
-2.419100 1.356600
-2.397500 1.249600
-2.375900 1.175100
-2.354300 1.191200
-2.332700 1.317500
-2.311100 1.495500
-2.289500 1.598900
-2.267900 1.582700
-2.246300 1.532500
-2.224700 1.508000
-2.203000 1.485400
-2.181400 1.500500
-2.159800 1.653300
-2.138200 1.931400
-2.116600 2.213900
-2.095000 2.464600
-2.073400 2.754500
-2.051800 3.080400
-2.030200 3.306800
-2.008600 3.329100
-1.986900 3.199700
-1.965300 3.039900
-1.943700 2.922000
-1.922100 2.849000
-1.900500 2.731400
-1.878900 2.418800
-1.857300 1.845900
-1.835700 1.141300
-1.814100 0.544200
-1.792500 0.193200
-1.770800 0.049900
-1.749200 0.009300
-1.727600 0.001200
-1.706000 0.000100
-1.684400 0.000000
-1.662800 0.000000
-1.641200 0.000000
-1.619600 0.000000
-1.598000 0.000000
-1.576400 0.000000
-1.554700 0.000000
-1.533100 0.000000
-1.511500 0.000000
-1.489900 0.000000
-1.468300 0.000000
-1.446700 0.000000
-1.425100 0.000000
-1.403500 0.000000
-1.381900 0.000000
-1.360300 0.000000
-1.338600 0.000000
-1.317000 0.000000
-1.295400 0.000000
-1.273800 0.000000
-1.252200 0.000000
-1.230600 0.000000
-1.209000 0.000000
-1.187400 0.000000
-1.165800 0.000000
-1.144200 0.000000
-1.122500 0.000000
-1.100900 0.000000
-1.079300 0.000000
-1.057700 0.000000
-1.036100 0.000000
-1.014500 0.000000
-0.992900 0.000000
-0.971300 0.000000
-0.949700 0.000000
-0.928100 0.000000
-0.906400 0.000000
-0.884800 0.000000
-0.863200 0.000000
-0.841600 0.000000
-0.820000 0.000000
-0.798400 0.000000
-0.776800 0.000000
-0.755200 0.000000
-0.733600 0.000000
-0.712000 0.000000
-0.690300 0.000000
-0.668700 0.000000
-0.647100 0.000000
-0.625500 0.000000
-0.603900 0.000000
-0.582300 0.000000
-0.560700 0.000000
-0.539100 0.000000
-0.517500 0.000000
-0.495900 0.000000
-0.474200 0.000000
-0.452600 0.000000
-0.431000 0.000000
-0.409400 0.000000
-0.387800 0.000000
-0.366200 0.000000
-0.344600 0.000000
-0.323000 0.000000
-0.301400 0.000000
-0.279800 0.000000
-0.258100 0.000000
-0.236500 0.000000
-0.214900 0.000000
-0.193300 0.000000
-0.171700 0.000000
-0.150100 0.000000
-0.128500 0.000000
-0.106900 0.000000
-0.085300 0.000000
-0.063700 0.000000
-0.042000 0.000000
-0.020400 0.000000
0.001200 0.000000
0.022800 0.000000
0.044400 0.000000
0.066000 0.000000
0.087600 0.000000
0.109200 0.000000
0.130800 0.000000
0.152500 0.000000
0.174100 0.000000
0.195700 0.000000
0.217300 0.000000
0.238900 0.000000
0.260500 0.000000
0.282100 0.000000
0.303700 0.000000
0.325300 0.000000
0.346900 0.000000
0.368600 0.000000
0.390200 0.000000
0.411800 0.000000
0.433400 0.000000
0.455000 0.000000
0.476600 0.000100
0.498200 0.000500
0.519800 0.002400
0.541400 0.008500
0.563000 0.022400
0.584700 0.043800
0.606300 0.064400
0.627900 0.072600
0.649500 0.068100
0.671100 0.070600
0.692700 0.101800
0.714300 0.154700
0.735900 0.191100
0.757500 0.183200
0.779100 0.152300
0.800800 0.154200
0.822400 0.218900
0.844000 0.312600
0.865600 0.375800
0.887200 0.402300
0.908800 0.446000
0.930400 0.535400
0.952000 0.619400
0.973600 0.641800
0.995200 0.647500
1.016900 0.743800
1.038500 0.947100
1.060100 1.149300
1.081700 1.273800
1.103300 1.348100
1.124900 1.379700
1.146500 1.333900
1.168100 1.262600
1.189700 1.291100
1.211300 1.493300
1.233000 1.842600
1.254600 2.185200
1.276200 2.287900
1.297800 2.076800
1.319400 1.778100
1.341000 1.696600
1.362600 1.914900
1.384200 2.250700
1.405800 2.430000
1.427400 2.304100
1.449100 1.961500
1.470700 1.648500
1.492300 1.588700
1.513900 1.841900
1.535500 2.274900
1.557100 2.646300
1.578700 2.760500
1.600300 2.600600
1.621900 2.306000
1.643500 2.021100
1.665200 1.794000
1.686800 1.611200
1.708400 1.514100
1.730000 1.609900
1.751600 1.859400
1.773200 1.972800
1.794800 1.762300
1.816400 1.445600
1.838000 1.327700
1.859600 1.376300
1.881300 1.362400
1.902900 1.271900
1.924500 1.303600
1.946100 1.506800
1.967700 1.682200
1.989300 1.643800
2.010900 1.400400
2.032500 1.101100
2.054100 0.902600
2.075700 0.869600
2.097400 0.973200
2.119000 1.145800
2.140600 1.288100
2.162200 1.302100
2.183800 1.199600
2.205400 1.122900
2.227000 1.200900
2.248600 1.382000
2.270200 1.469500
2.291800 1.370600
2.313500 1.217400
2.335100 1.202400
2.356700 1.365400
2.378300 1.551200
2.399900 1.611900
2.421500 1.622900
2.443100 1.742600
2.464700 1.959900
2.486300 2.170900
2.507900 2.361400
2.529600 2.569200
2.551200 2.770800
2.572800 2.890300
2.594400 2.861400
2.616000 2.644600
2.637600 2.267800
2.659200 1.894600
2.680800 1.776400
2.702400 2.052600
2.724000 2.570100
2.745700 2.974400
2.767300 3.074400
2.788900 3.046900
2.810500 3.182000
2.832100 3.502700
2.853700 3.753100
2.875300 3.730700
2.896900 3.525700
2.918500 3.382600
2.940100 3.406300
2.961800 3.515300
2.983400 3.598200
3.005000 3.580600
3.026600 3.394700
3.048200 3.054600
3.069800 2.778600
3.091400 2.832900
3.113000 3.226900
3.134600 3.756500
3.156300 4.268700
3.177900 4.685700
3.199500 4.907000
3.221100 4.890200
3.242700 4.762200
3.264300 4.712900
3.285900 4.770500
3.307500 4.772000
3.329100 4.607300
3.350700 4.350600
3.372400 4.065700
3.394000 3.702900
3.415600 3.296900
3.437200 3.014200
3.458800 2.942800
3.480400 3.010100
3.502000 3.089200
3.523600 3.126300
3.545200 3.191000
3.566800 3.381600
3.588500 3.730800
3.610100 4.202600
3.631700 4.685000
3.653300 5.038900
3.674900 5.198400
3.696500 5.190600
3.718100 5.129800
3.739700 5.172400
3.761300 5.351300
3.782900 5.568800
3.804600 5.848000
3.826200 6.372800
3.847800 7.142000
3.869400 7.757100
3.891000 7.751100
3.912600 7.130400
3.934200 6.369800
3.955800 5.803300
3.977400 5.349600
3.999000 4.948700
4.020700 4.849500
4.042300 5.217200
4.063900 5.777400
4.085500 6.124300
4.107100 6.206500
4.128700 6.276500
4.150300 6.422500
4.171900 6.452200
4.193500 6.319100
4.215100 6.300300
4.236800 6.589300
4.258400 6.970700
4.280000 7.097000
4.301600 6.943400
4.323200 6.708600
4.344800 6.433500
4.366400 6.070700
4.388000 5.701500
4.409600 5.374100
4.431200 5.006600
4.452900 4.606200
4.474500 4.269300
4.496100 3.976000
4.517700 3.637200
4.539300 3.274300
4.560900 3.023300
4.582500 2.981900
4.604100 3.058800
4.625700 3.045200
4.647300 2.891300
4.669000 2.759500
4.690600 2.757600
4.712200 2.791100
4.733800 2.722400
4.755400 2.574100
4.777000 2.527200
4.798600 2.747000
4.820200 3.206800
4.841800 3.724900
4.863400 4.220200
4.885100 4.787400
4.906700 5.424200
4.928300 5.931900
4.949900 6.229900
4.971500 6.470000
4.993100 6.776300
5.014700 7.157800
5.036300 7.561700
5.057900 7.829700
5.079500 7.814300
5.101200 7.636300
5.122800 7.627100
5.144400 7.989400
5.166000 8.633100
5.187600 9.236600
5.209200 9.417200
5.230800 9.032700
5.252400 8.326300
5.274000 7.693300
5.295600 7.364000
5.317300 7.279100
5.338900 7.248100
5.360500 7.222400
5.382100 7.249400
5.403700 7.219700
5.425300 6.949800
5.446900 6.469800
5.468500 5.977100
5.490100 5.564400
5.511700 5.231300
5.533400 5.046300
5.555000 5.039500
5.576600 5.121900
5.598200 5.275500
5.619800 5.529100
5.641400 5.709400
5.663000 5.571100
5.684600 5.156200
5.706200 4.753700
5.727800 4.519600
5.749500 4.332100
5.771100 4.068200
5.792700 3.825200
5.814300 3.706000
5.835900 3.621600
5.857500 3.530600
5.879100 3.570300
5.900700 3.768600
5.922300 3.947900
5.943900 4.007200
5.965600 4.045400
5.987200 4.189300
6.008800 4.455800
6.030400 4.766100
6.052000 5.074500
6.073600 5.450500
6.095200 5.907800
6.116800 6.274300
6.138400 6.423000
6.160000 6.427400
6.181700 6.344900
6.203300 6.112300
6.224900 5.742400
6.246500 5.369200
6.268100 5.076500
6.289700 4.902100
6.311300 4.927800
6.332900 5.138200
6.354500 5.361200
6.376200 5.535700
6.397800 5.809400
6.419400 6.310900
6.441000 7.072000
6.462600 8.086500
6.484200 9.177400
6.505800 9.918000
6.527400 9.991000
6.549000 9.599100
6.570600 9.214900
6.592300 9.003900
6.613900 8.821400
6.635500 8.598200
6.657100 8.443300
6.678700 8.433500
6.700300 8.391900
6.721900 8.019100
6.743500 7.342000
6.765100 6.814400
6.786700 6.787300
6.808400 7.008800
6.830000 6.896600
6.851600 6.267700
6.873200 5.529200
6.894800 5.186300
6.916400 5.340000
6.938000 5.643900
6.959600 5.733800
6.981200 5.609000
7.002800 5.457200
7.024500 5.271300
7.046100 4.885100
7.067700 4.301800
7.089300 3.757500
7.110900 3.453500
7.132500 3.348100
7.154100 3.267900
7.175700 3.186800
7.197300 3.276800
7.218900 3.630900
7.240600 4.049400
7.262200 4.190600
7.283800 3.912900
7.305400 3.422300
7.327000 3.038800
7.348600 2.876200
7.370200 2.834400
7.391800 2.821100
7.413400 2.838400
7.435000 2.881800
7.456700 2.892400
7.478300 2.822600
7.499900 2.671000
7.521500 2.475400
7.543100 2.331500
7.564700 2.347600
7.586300 2.531500
7.607900 2.839200
7.629500 3.307200
7.651100 3.959000
7.672800 4.683600
7.694400 5.340700
7.716000 5.817500
7.737600 5.993800
7.759200 5.889700
7.780800 5.741000
7.802400 5.778700
7.824000 6.027100
7.845600 6.300400
7.867200 6.359900
7.888900 6.134300
7.910500 5.806700
7.932100 5.640900
7.953700 5.724700
7.975300 5.979700
7.996900 6.333100
8.018500 6.715600
8.040100 7.075400
8.061700 7.514400
8.083300 8.135800
8.105000 8.779000
8.126600 9.178400
8.148200 9.257200
8.169800 9.061800
8.191400 8.515400
8.213000 7.446600
8.234600 5.941900
8.256200 4.495200
8.277800 3.584900
8.299400 3.235200
8.321100 3.163500
8.342700 3.132300
8.364300 3.017500
8.385900 2.785900
8.407500 2.529100
8.429100 2.373100
8.450700 2.339800
8.472300 2.361100
8.493900 2.371900
8.515500 2.361200
8.537200 2.340800
8.558800 2.265700
8.580400 2.060200
8.602000 1.737100
8.623600 1.411200
8.645200 1.193000
8.666800 1.110600
8.688400 1.136200
8.710000 1.260700
8.731600 1.481300
8.753300 1.722300
8.774900 1.858300
8.796500 1.843300
8.818100 1.754700
8.839700 1.695200
8.861300 1.709800
8.882900 1.768600
8.904500 1.783200
8.926100 1.700900
8.947700 1.566000
8.969400 1.453200
8.991000 1.425100
9.012600 1.534800
9.034200 1.760300
9.055800 2.001900
9.077400 2.214700
9.099000 2.421900
9.120600 2.575000
9.142200 2.555400
9.163800 2.343900
9.185500 2.069100
9.207100 1.873500
9.228700 1.856300
9.250300 2.072600
9.271900 2.403400
9.293500 2.585200
9.315100 2.532300
9.336700 2.415500
9.358300 2.328200
9.380000 2.127900
9.401600 1.718700
9.423200 1.255200
9.444800 0.927800
9.466400 0.733400
9.488000 0.592900
9.509600 0.528300
9.531200 0.592700
9.552800 0.745600
9.574400 0.900700
9.596100 1.010600
9.617700 1.050100
9.639300 1.025000
9.660900 1.016800
9.682500 1.132300
9.704100 1.401000
9.725700 1.718600
9.747300 1.890200
9.768900 1.796100
9.790500 1.525400
9.812200 1.298400
9.833800 1.275100
9.855400 1.437500
9.877000 1.607700
9.898600 1.612500
9.920200 1.485300
9.941800 1.462600
9.963400 1.712800
9.985000 2.098400
10.006600 2.322800
10.028300 2.314700
10.049900 2.278400
10.071500 2.358200
10.093100 2.485500
10.114700 2.528200
10.136300 2.400000
10.157900 2.102900
10.179500 1.768400
10.201100 1.580600
10.222700 1.614800
10.244400 1.800000
10.266000 2.023000
10.287600 2.203700
10.309200 2.314000
10.330800 2.357300
10.352400 2.297500
10.374000 2.068700
10.395600 1.684200
10.417200 1.262400
10.438800 0.958800
10.460500 0.890400
10.482100 1.043800
10.503700 1.280400
10.525300 1.486500
10.546900 1.627700
10.568500 1.652000
10.590100 1.528900
10.611700 1.394200
10.633300 1.448500
10.654900 1.709000
10.676600 1.968200
10.698200 1.984900
10.719800 1.714600
10.741400 1.360300
10.763000 1.160100
10.784600 1.144500
10.806200 1.150900
10.827800 1.060200
10.849400 0.945700
10.871000 0.922100
10.892700 0.946400
10.914300 0.906100
10.935900 0.808700
10.957500 0.747800
10.979100 0.767900
11.000700 0.859100
11.022300 0.993800
11.043900 1.115900
11.065500 1.187100
11.087100 1.240700
11.108800 1.310300
11.130400 1.353400
11.152000 1.320500
11.173600 1.261900
11.195200 1.281000
11.216800 1.379400
11.238400 1.449700
11.260000 1.416700
11.281600 1.282200
11.303200 1.090000
11.324900 0.909100
11.346500 0.770800
11.368100 0.655000
11.389700 0.576000
11.411300 0.588000
11.432900 0.702400
11.454500 0.871400
11.476100 1.047400
11.497700 1.202900
11.519300 1.297100
11.541000 1.303300
11.562600 1.261000
11.584200 1.232700
11.605800 1.240500
11.627400 1.254700
11.649000 1.206000
11.670600 1.036100
11.692200 0.768500
11.713800 0.526500
11.735400 0.459200
11.757100 0.618800
11.778700 0.903100
11.800300 1.128100
11.821900 1.179400
11.843500 1.110500
11.865100 1.070900
11.886700 1.140300
11.908300 1.282200
11.929900 1.417900
11.951500 1.487900
11.973200 1.493000
11.994800 1.482400
12.016400 1.471900
12.038000 1.435100
12.059600 1.358500
12.081200 1.239800
12.102800 1.094000
12.124400 0.971800
12.146000 0.904800
12.167600 0.895800
12.189300 1.009900
12.210900 1.363800
12.232500 1.924500
12.254100 2.406400
12.275700 2.541700
12.297300 2.378100
12.318900 2.156800
12.340500 2.005600
12.362100 1.890400
12.383700 1.773200
12.405400 1.645600
12.427000 1.456000
12.448600 1.177700
12.470200 0.894900
12.491800 0.707800
12.513400 0.630700
12.535000 0.637600
12.556600 0.745600
12.578200 1.016500
12.599900 1.455000
12.621500 1.889400
12.643100 2.055200
12.664700 1.856100
12.686300 1.445800
12.707900 1.037200
12.729500 0.737000
12.751100 0.572100
12.772700 0.570400
12.794300 0.752600
12.816000 1.071900
12.837600 1.379700
12.859200 1.497100
12.880800 1.396600
12.902400 1.275300
12.924000 1.362600
12.945600 1.684600
12.967200 2.055900
12.988800 2.281200
13.010400 2.303400
13.032100 2.144600
13.053700 1.854300
13.075300 1.559800
13.096900 1.423200
13.118500 1.515100
13.140100 1.760200
13.161700 1.975100
13.183300 1.978500
13.204900 1.745200
13.226500 1.472400
13.248200 1.417600
13.269800 1.638100
13.291400 1.921100
13.313000 2.009700
13.334600 1.900700
13.356200 1.814400
13.377800 1.885800
13.399400 2.090300
13.421000 2.388700
13.442600 2.678300
13.464300 2.759300
13.485900 2.572800
13.507500 2.308000
13.529100 2.205600
13.550700 2.339100
13.572300 2.533300
13.593900 2.523100
13.615500 2.261500
13.637100 1.929600
13.658700 1.659400
13.680400 1.479300
13.702000 1.469200
13.723600 1.717900
13.745200 2.131700
13.766800 2.420100
13.788400 2.345900
13.810000 1.973100
13.831600 1.580000
13.853200 1.370700
13.874800 1.368600
13.896500 1.486000
13.918100 1.609100
13.939700 1.677600
13.961300 1.713600
13.982900 1.765300
14.004500 1.829400
14.026100 1.835300
14.047700 1.723200
14.069300 1.538000
14.090900 1.393000
14.112600 1.332700
14.134200 1.309100
14.155800 1.295900
14.177400 1.321500
14.199000 1.379100
14.220600 1.402700
14.242200 1.346600
14.263800 1.225800
14.285400 1.106100
14.307000 1.091800
14.328700 1.277100
14.350300 1.629700
14.371900 1.941600
14.393500 2.012800
14.415100 1.864500
14.436700 1.642700
14.458300 1.399600
14.479900 1.118000
14.501500 0.853300
14.523100 0.701600
14.544800 0.675300
14.566400 0.720800
14.588000 0.829700
14.609600 1.051800
14.631200 1.393800
14.652800 1.738400
14.674400 1.907700
14.696000 1.815100
14.717600 1.539700
14.739200 1.256600
14.760900 1.099500
14.782500 1.102500
14.804100 1.229800
14.825700 1.392000
14.847300 1.491300
14.868900 1.505200
14.890500 1.499000
14.912100 1.577700
14.933700 1.803000
14.955300 2.097000
14.977000 2.292200
14.998600 2.308500
15.020200 2.207200
15.041800 2.085600
15.063400 1.984200
15.085000 1.916200
15.106600 1.957600
15.128200 2.191700
15.149800 2.527200
15.171400 2.714900
15.193100 2.587300
15.214700 2.223000
15.236300 1.893500
15.257900 1.834600
15.279500 2.036000
15.301100 2.277700
15.322700 2.338000
15.344300 2.136900
15.365900 1.758100
15.387500 1.385400
15.409200 1.191500
15.430800 1.245500
15.452400 1.481100
15.474000 1.742900
15.495600 1.873400
15.517200 1.807300
15.538800 1.645200
15.560400 1.577000
15.582000 1.670000
15.603700 1.786700
15.625300 1.745800
15.646900 1.529600
15.668500 1.275800
15.690100 1.098400
15.711700 1.029900
15.733300 1.104300
15.754900 1.324400
15.776500 1.533400
15.798100 1.518500
15.819800 1.291500
15.841400 1.080400
15.863000 1.031100
15.884600 1.083000
15.906200 1.108600
15.927800 1.051000
15.949400 0.949200
15.971000 0.905100
15.992600 1.018300
16.014200 1.309000
16.035900 1.685200
16.057500 1.997000
16.079100 2.122700
16.100700 2.034900
16.122300 1.858100
16.143900 1.790900
16.165500 1.856100
16.187100 1.853100
16.208700 1.666000
16.230300 1.444200
16.252000 1.377600
16.273600 1.473900
16.295200 1.633900
16.316800 1.827700
16.338400 2.115600
16.360000 2.465400
16.381600 2.681600
16.403200 2.662300
16.424800 2.525200
16.446400 2.382200
16.468100 2.252000
16.489700 2.213500
16.511300 2.393200
16.532900 2.754500
16.554500 3.014900
16.576100 2.892600
16.597700 2.420100
16.619300 1.891200
16.640900 1.537500
16.662500 1.369500
16.684200 1.298200
16.705800 1.301500
16.727400 1.410200
16.749000 1.594600
16.770600 1.763900
16.792200 1.866400
16.813800 1.917300
16.835400 1.921400
16.857000 1.834000
16.878600 1.638600
16.900300 1.442300
16.921900 1.429700
16.943500 1.658400
16.965100 1.931400
16.986700 1.957100
17.008300 1.665100
17.029900 1.292000
17.051500 1.113300
17.073100 1.187200
17.094700 1.416600
17.116400 1.727400
17.138000 2.063500
17.159600 2.288000
17.181200 2.288800
