set title 'mp-1186446 - Density of States'
set xlabel 'Energy (eV)'
set ylabel 'DOS (states/eV)'
set grid
set xrange [-10:10]
set yrange [0:80.086]
set xzeroaxis lt -1
set terminal png size 800,600
set output 'mp-1186446_dos_gnuplot.png'
plot '-' using 1:2 with lines title 'DOS'
-12.629700 0.000000
-12.605800 0.000000
-12.582000 0.000000
-12.558100 0.000000
-12.534300 0.000000
-12.510500 0.000000
-12.486600 0.000000
-12.462800 0.000000
-12.438900 0.000000
-12.415100 0.000000
-12.391200 0.000000
-12.367400 0.000000
-12.343500 0.000000
-12.319700 0.000000
-12.295800 0.000000
-12.272000 0.000000
-12.248100 0.000000
-12.224300 0.000000
-12.200400 0.000000
-12.176600 0.000000
-12.152700 0.000000
-12.128900 0.000000
-12.105000 0.000000
-12.081200 0.000000
-12.057300 0.000000
-12.033500 0.000000
-12.009600 0.000000
-11.985800 0.000000
-11.961900 0.000000
-11.938100 0.000000
-11.914200 0.000000
-11.890400 0.000000
-11.866500 0.000000
-11.842700 0.000000
-11.818800 0.000000
-11.795000 0.000000
-11.771100 0.000000
-11.747300 0.000000
-11.723400 0.000000
-11.699600 0.000000
-11.675700 0.000000
-11.651900 0.000000
-11.628000 0.000000
-11.604200 0.000000
-11.580300 0.000000
-11.556500 0.000000
-11.532600 0.000000
-11.508800 0.000000
-11.484900 0.000000
-11.461100 0.000000
-11.437200 0.000000
-11.413400 0.000000
-11.389500 0.000000
-11.365700 0.000000
-11.341800 0.000000
-11.318000 0.000000
-11.294100 0.000000
-11.270300 0.000000
-11.246400 0.000000
-11.222600 0.000000
-11.198700 0.000000
-11.174900 0.000000
-11.151000 0.000000
-11.127200 0.000000
-11.103300 0.000000
-11.079500 0.000000
-11.055600 0.000000
-11.031800 0.000000
-11.008000 0.000000
-10.984100 0.000000
-10.960300 0.000000
-10.936400 0.000000
-10.912600 0.000000
-10.888700 0.000000
-10.864900 0.000000
-10.841000 0.000000
-10.817200 0.000000
-10.793300 0.000000
-10.769500 0.000000
-10.745600 0.000000
-10.721800 0.000000
-10.697900 0.000000
-10.674100 0.000000
-10.650200 0.000000
-10.626400 0.000000
-10.602500 0.000000
-10.578700 0.000000
-10.554800 0.000000
-10.531000 0.000000
-10.507100 0.000000
-10.483300 0.000000
-10.459400 1.741400
-10.435600 13.462700
-10.411700 36.271600
-10.387900 41.098800
-10.364000 35.521200
-10.340200 15.777700
-10.316300 9.735300
-10.292500 6.346500
-10.268600 3.880200
-10.244800 1.814700
-10.220900 12.218400
-10.197100 39.129400
-10.173200 85.630000
-10.149400 52.516500
-10.125500 66.529000
-10.101700 45.724400
-10.077800 65.414400
-10.054000 76.059900
-10.030100 53.156300
-10.006300 64.367900
-9.982400 72.805000
-9.958600 11.157400
-9.934700 0.000000
-9.910900 0.000000
-9.887000 0.000000
-9.863200 0.000000
-9.839300 0.000000
-9.815500 0.000000
-9.791600 0.000000
-9.767800 0.000000
-9.743900 0.000000
-9.720100 0.000000
-9.696200 0.000000
-9.672400 0.000000
-9.648500 0.000000
-9.624700 0.000000
-9.600800 0.000000
-9.577000 0.000000
-9.553200 0.000000
-9.529300 0.000000
-9.505500 0.000000
-9.481600 0.000000
-9.457800 0.000000
-9.433900 0.000000
-9.410100 0.000000
-9.386200 0.000000
-9.362400 0.000000
-9.338500 0.000000
-9.314700 0.000000
-9.290800 0.000000
-9.267000 0.000000
-9.243100 0.000000
-9.219300 0.000000
-9.195400 0.000000
-9.171600 0.000000
-9.147700 0.000000
-9.123900 0.000000
-9.100000 0.000000
-9.076200 0.000000
-9.052300 0.000000
-9.028500 0.000000
-9.004600 0.000000
-8.980800 0.000000
-8.956900 0.000000
-8.933100 0.000000
-8.909200 0.000000
-8.885400 0.000000
-8.861500 0.000000
-8.837700 0.000000
-8.813800 0.000000
-8.790000 0.000000
-8.766100 0.000000
-8.742300 0.000000
-8.718400 0.000000
-8.694600 0.000000
-8.670700 0.000000
-8.646900 0.000000
-8.623000 0.000000
-8.599200 0.000000
-8.575300 0.000000
-8.551500 0.000000
-8.527600 0.000000
-8.503800 0.000000
-8.479900 0.000000
-8.456100 0.000000
-8.432200 0.000000
-8.408400 0.000000
-8.384500 0.000000
-8.360700 0.000000
-8.336800 0.000000
-8.313000 0.000000
-8.289100 0.000000
-8.265300 0.000000
-8.241400 0.000000
-8.217600 0.000000
-8.193700 0.000000
-8.169900 0.000000
-8.146000 0.000000
-8.122200 0.000000
-8.098300 0.000000
-8.074500 0.000000
-8.050700 0.000000
-8.026800 0.000000
-8.003000 0.000000
-7.979100 0.000000
-7.955300 0.000000
-7.931400 0.000000
-7.907600 0.000000
-7.883700 0.000000
-7.859900 0.000000
-7.836000 0.000000
-7.812200 0.000000
-7.788300 0.000000
-7.764500 0.000000
-7.740600 0.000000
-7.716800 0.000000
-7.692900 0.000000
-7.669100 0.000000
-7.645200 0.000000
-7.621400 0.000000
-7.597500 0.000000
-7.573700 0.000000
-7.549800 0.000000
-7.526000 0.000000
-7.502100 0.000000
-7.478300 0.000000
-7.454400 0.000000
-7.430600 0.000000
-7.406700 0.000000
-7.382900 0.000000
-7.359000 0.000000
-7.335200 0.000000
-7.311300 0.000000
-7.287500 0.000000
-7.263600 0.000000
-7.239800 0.000000
-7.215900 0.000000
-7.192100 0.000000
-7.168200 0.000000
-7.144400 0.000000
-7.120500 0.000000
-7.096700 0.000000
-7.072800 0.000000
-7.049000 0.000000
-7.025100 0.001700
-7.001300 0.023700
-6.977400 0.071100
-6.953600 0.138000
-6.929700 0.162000
-6.905900 0.169000
-6.882000 0.175500
-6.858200 0.196500
-6.834300 0.218200
-6.810500 0.240600
-6.786600 0.263500
-6.762800 0.281400
-6.738900 0.291800
-6.715100 0.295600
-6.691200 0.303100
-6.667400 0.313000
-6.643500 0.324900
-6.619700 0.337400
-6.595800 0.349700
-6.572000 0.362100
-6.548200 0.374500
-6.524300 0.387400
-6.500500 0.401000
-6.476600 0.414600
-6.452800 0.423600
-6.428900 0.429700
-6.405100 0.436300
-6.381200 0.445000
-6.357400 0.453500
-6.333500 0.461700
-6.309700 0.469700
-6.285800 0.477800
-6.262000 0.486200
-6.238100 0.495200
-6.214300 0.505000
-6.190400 0.515000
-6.166600 0.525300
-6.142700 0.535700
-6.118900 0.546200
-6.095000 0.556900
-6.071200 0.567200
-6.047300 0.575500
-6.023500 0.582000
-5.999600 0.588100
-5.975800 0.594900
-5.951900 0.602400
-5.928100 0.610400
-5.904200 0.618400
-5.880400 0.626500
-5.856500 0.634500
-5.832700 0.642600
-5.808800 0.651100
-5.785000 0.659700
-5.761100 0.668500
-5.737300 0.677500
-5.713400 0.686600
-5.689600 0.695700
-5.665700 0.704900
-5.641900 0.714200
-5.618000 0.723500
-5.594200 0.732900
-5.570300 0.742200
-5.546500 0.750900
-5.522600 0.758900
-5.498800 0.767400
-5.474900 0.776200
-5.451100 0.784900
-5.427200 0.793700
-5.403400 0.802500
-5.379500 0.811600
-5.355700 0.821000
-5.331800 0.830500
-5.308000 0.840300
-5.284100 0.850100
-5.260300 0.860100
-5.236400 0.870100
-5.212600 0.880300
-5.188700 0.890600
-5.164900 0.901100
-5.141000 0.912000
-5.117200 0.923300
-5.093300 0.934900
-5.069500 0.946700
-5.045700 0.958600
-5.021800 0.971000
-4.998000 0.984000
-4.974100 0.997400
-4.950300 1.010900
-4.926400 1.024900
-4.902600 1.039700
-4.878700 1.055100
-4.854900 1.070900
-4.831000 1.087000
-4.807200 1.103600
-4.783300 1.121700
-4.759500 1.142700
-4.735600 1.165800
-4.711800 1.190500
-4.687900 1.216500
-4.664100 1.243800
-4.640200 1.272200
-4.616400 1.301900
-4.592500 1.376000
-4.568700 1.439000
-4.544800 1.455800
-4.521000 1.468200
-4.497100 1.480000
-4.473300 1.485800
-4.449400 1.486200
-4.425600 1.527200
-4.401700 1.617400
-4.377900 1.608700
-4.354000 1.552400
-4.330200 1.555600
-4.306300 1.556600
-4.282500 1.548500
-4.258600 1.533800
-4.234800 1.519300
-4.210900 1.501400
-4.187100 1.489400
-4.163200 1.475200
-4.139400 1.460700
-4.115500 1.446200
-4.091700 1.433000
-4.067800 1.421100
-4.044000 1.410000
-4.020100 1.396200
-3.996300 1.382200
-3.972400 1.376400
-3.948600 1.371900
-3.924700 1.367900
-3.900900 1.364400
-3.877000 1.360200
-3.853200 1.357600
-3.829300 1.419700
-3.805500 1.359000
-3.781600 1.275300
-3.757800 1.257200
-3.733900 1.241000
-3.710100 1.230000
-3.686200 1.213400
-3.662400 1.204100
-3.638500 1.192700
-3.614700 1.181000
-3.590800 1.169000
-3.567000 1.156800
-3.543200 1.144600
-3.519300 1.133600
-3.495500 1.124900
-3.471600 1.115300
-3.447800 1.108100
-3.423900 1.111200
-3.400100 1.120100
-3.376200 1.144500
-3.352400 1.165600
-3.328500 1.173400
-3.304700 1.177400
-3.280800 1.179700
-3.257000 1.201700
-3.233100 1.301600
-3.209300 1.944800
-3.185400 1.577300
-3.161600 1.490500
-3.137700 1.520100
-3.113900 1.402700
-3.090000 1.316800
-3.066200 1.310400
-3.042300 1.302600
-3.018500 1.301600
-2.994600 1.477500
-2.970800 1.697700
-2.946900 1.698500
-2.923100 1.457500
-2.899200 1.159300
-2.875400 0.931100
-2.851500 0.679800
-2.827700 0.474900
-2.803800 0.287300
-2.780000 0.133700
-2.756100 0.016800
-2.732300 0.000000
-2.708400 0.000000
-2.684600 0.000000
-2.660700 0.000000
-2.636900 0.000000
-2.613000 0.000000
-2.589200 0.000000
-2.565300 0.000000
-2.541500 0.000000
-2.517600 0.000000
-2.493800 0.000000
-2.469900 0.000000
-2.446100 0.000000
-2.422200 0.000000
-2.398400 0.000000
-2.374500 0.000000
-2.350700 0.000000
-2.326800 0.000000
-2.303000 0.000000
-2.279100 0.000000
-2.255300 0.000000
-2.231400 0.000000
-2.207600 0.000000
-2.183700 0.000000
-2.159900 0.000000
-2.136000 0.000000
-2.112200 0.000000
-2.088400 0.000000
-2.064500 0.000000
-2.040700 0.000000
-2.016800 0.000000
-1.993000 0.000000
-1.969100 0.000000
-1.945300 0.000000
-1.921400 0.000000
-1.897600 0.000000
-1.873700 0.000000
-1.849900 0.000000
-1.826000 0.000000
-1.802200 0.000000
-1.778300 0.000000
-1.754500 0.000000
-1.730600 0.040900
-1.706800 0.398900
-1.682900 0.943300
-1.659100 1.098600
-1.635200 1.251900
-1.611400 1.470000
-1.587500 1.627400
-1.563700 1.801100
-1.539800 2.060400
-1.516000 1.821700
-1.492100 1.764100
-1.468300 1.747100
-1.444400 1.780900
-1.420600 1.974700
-1.396700 2.123700
-1.372900 2.025600
-1.349000 1.941000
-1.325200 1.807400
-1.301300 1.615600
-1.277500 1.470800
-1.253600 1.432800
-1.229800 1.401800
-1.205900 1.375000
-1.182100 1.352400
-1.158200 1.329000
-1.134400 1.317700
-1.110500 1.281000
-1.086700 1.244600
-1.062800 1.184300
-1.039000 1.197000
-1.015100 1.240400
-0.991300 1.297600
-0.967400 1.390500
-0.943600 1.520100
-0.919700 1.499200
-0.895900 1.478800
-0.872000 1.459100
-0.848200 1.440100
-0.824300 1.420400
-0.800500 1.397400
-0.776600 1.374900
-0.752800 1.351800
-0.728900 1.329100
-0.705100 1.291400
-0.681200 1.228400
-0.657400 1.127800
-0.633500 1.125100
-0.609700 1.123500
-0.585900 1.122200
-0.562000 1.121200
-0.538200 1.120300
-0.514300 1.136900
-0.490500 1.150600
-0.466600 1.163600
-0.442800 1.175900
-0.418900 1.188000
-0.395100 1.167100
-0.371200 1.157300
-0.347400 1.147300
-0.323500 1.140500
-0.299700 1.136300
-0.275800 1.133100
-0.252000 1.132100
-0.228100 1.131400
-0.204300 1.132500
-0.180400 1.132700
-0.156600 1.132200
-0.132700 1.130800
-0.108900 1.132200
-0.085000 1.153200
-0.061200 1.186400
-0.037300 1.194200
-0.013500 1.202500
0.010400 1.210200
0.034200 1.181600
0.058100 1.098200
0.081900 1.062800
0.105800 1.029900
0.129600 0.992100
0.153500 0.954100
0.177300 0.934200
0.201200 0.916500
0.225000 0.899600
0.248900 0.882900
0.272700 0.866300
0.296600 0.850200
0.320400 0.834900
0.344300 0.820400
0.368100 0.807000
0.392000 0.794400
0.415800 0.782600
0.439700 0.771500
0.463500 0.760900
0.487400 0.750600
0.511200 0.740400
0.535100 0.730400
0.558900 0.720600
0.582800 0.710800
0.606600 0.701300
0.630500 0.691800
0.654300 0.682500
0.678200 0.673200
0.702000 0.663900
0.725900 0.654600
0.749700 0.645400
0.773600 0.635900
0.797400 0.626700
0.821300 0.617900
0.845100 0.609500
0.869000 0.601500
0.892800 0.594100
0.916600 0.587200
0.940500 0.580500
0.964300 0.573700
0.988200 0.567100
1.012000 0.560000
1.035900 0.553800
1.059700 0.547700
1.083600 0.541700
1.107400 0.535600
1.131300 0.529700
1.155100 0.523700
1.179000 0.517800
1.202800 0.511900
1.226700 0.506100
1.250500 0.500300
1.274400 0.494500
1.298200 0.488700
1.322100 0.483000
1.345900 0.477300
1.369800 0.471600
1.393600 0.465900
1.417500 0.460300
1.441300 0.454700
1.465200 0.449200
1.489000 0.443700
1.512900 0.438300
1.536700 0.432100
1.560600 0.427100
1.584400 0.422200
1.608300 0.417300
1.632100 0.412500
1.656000 0.407800
1.679800 0.403500
1.703700 0.399500
1.727500 0.395600
1.751400 0.391600
1.775200 0.387600
1.799100 0.383600
1.822900 0.379700
1.846800 0.375800
1.870600 0.433800
1.894500 0.472700
1.918300 0.512800
1.942200 0.500900
1.966000 0.514700
1.989900 0.529100
2.013700 0.544200
2.037600 0.560200
2.061400 0.578700
2.085300 0.599800
2.109100 0.614000
2.133000 0.633400
2.156800 0.653200
2.180700 0.673100
2.204500 0.696700
2.228400 0.771000
2.252200 0.906400
2.276100 1.069900
2.299900 1.344400
2.323800 1.647000
2.347600 1.749100
2.371500 1.797100
2.395300 1.818400
2.419100 1.775200
2.443000 1.735700
2.466800 1.664000
2.490700 1.585100
2.514500 1.512200
2.538400 1.507800
2.562200 1.507800
2.586100 1.497700
2.609900 1.465000
2.633800 1.429600
2.657600 1.392500
2.681500 1.359500
2.705300 1.337900
2.729200 1.329500
2.753000 1.330600
2.776900 1.340200
2.800700 1.354900
2.824600 1.372200
2.848400 1.390100
2.872300 1.397700
2.896100 1.399100
2.920000 1.399300
2.943800 1.402100
2.967700 1.409100
2.991500 1.420000
3.015400 1.431900
3.039200 1.447600
3.063100 1.473500
3.086900 1.505600
3.110800 1.546300
3.134600 1.596800
3.158500 1.634400
3.182300 1.688400
3.206200 1.750800
3.230000 1.766000
3.253900 1.785700
3.277700 1.810200
3.301600 1.831100
3.325400 1.854700
3.349300 1.856900
3.373100 1.872100
3.397000 1.899900
3.420800 1.935000
3.444700 1.974900
3.468500 2.018000
3.492400 2.076300
3.516200 2.225100
3.540100 2.141900
3.563900 2.102400
3.587800 2.004700
3.611600 1.990100
3.635500 1.980700
3.659300 1.988800
3.683200 1.970800
3.707000 1.965700
3.730900 1.973700
3.754700 1.989100
3.778600 2.006900
3.802400 2.026100
3.826300 2.030100
3.850100 2.336700
3.873900 2.302000
3.897800 2.345400
3.921600 2.367800
3.945500 2.407700
3.969300 2.414300
3.993200 2.362600
4.017000 2.382200
4.040900 2.371900
4.064700 2.390300
4.088600 2.417900
4.112400 2.458300
4.136300 2.512800
4.160100 2.594000
4.184000 2.676000
4.207800 2.700900
4.231700 2.748000
4.255500 2.863700
4.279400 2.802900
4.303200 2.734900
4.327100 2.684500
4.350900 2.643800
4.374800 2.632800
4.398600 2.570000
4.422500 2.548000
4.446300 2.560900
4.470200 2.572200
4.494000 2.658700
4.517900 2.724900
4.541700 2.786000
4.565600 2.878200
4.589400 2.990100
4.613300 3.116300
4.637100 3.278700
4.661000 3.359400
4.684800 3.369500
4.708700 3.365100
4.732500 3.383500
4.756400 3.417800
4.780200 3.471600
4.804100 3.607600
4.827900 3.808600
4.851800 4.012400
4.875600 4.032800
4.899500 3.823200
4.923300 3.826400
4.947200 3.787000
4.971000 3.592300
4.994900 3.369400
5.018700 3.292800
5.042600 3.199800
5.066400 3.126300
5.090300 3.093300
5.114100 2.826600
5.138000 2.776600
5.161800 2.721700
5.185700 2.668900
5.209500 2.612000
5.233400 2.548700
5.257200 2.477400
5.281100 2.407900
5.304900 2.345300
5.328800 2.313100
5.352600 2.294100
5.376400 2.247100
5.400300 2.163000
5.424100 2.064400
5.448000 1.953000
5.471800 1.859200
5.495700 1.778000
5.519500 1.701000
5.543400 1.633800
5.567200 1.590100
5.591100 1.545400
5.614900 1.500600
5.638800 1.456200
5.662600 1.412300
5.686500 1.359400
5.710300 1.321400
5.734200 1.286100
5.758000 1.248100
5.781900 1.213300
5.805700 1.178800
5.829600 1.145100
5.853400 1.122300
5.877300 1.100900
5.901100 1.072800
5.925000 1.035100
5.948800 0.996800
5.972700 0.959700
5.996500 0.931400
6.020400 0.903200
6.044200 0.876600
6.068100 0.850500
6.091900 0.821900
6.115800 0.786100
6.139600 0.753100
6.163500 0.726400
6.187300 0.699800
6.211200 0.671000
6.235000 0.640300
6.258900 0.609600
6.282700 0.577800
6.306600 0.545600
6.330400 0.522700
6.354300 0.504400
6.378100 0.483000
6.402000 0.445800
6.425800 0.402600
6.449700 0.355700
6.473500 0.308400
6.497400 0.256200
6.521200 0.222200
6.545100 0.190300
6.568900 0.140900
6.592800 0.061000
6.616600 0.013100
6.640500 0.000000
6.664300 0.000300
6.688200 0.001200
6.712000 0.002600
6.735900 0.004500
6.759700 0.006900
6.783600 0.009900
6.807400 0.013500
6.831300 0.018200
6.855100 0.023600
6.878900 0.029800
6.902800 0.036400
6.926600 0.043500
6.950500 0.051000
6.974300 0.058500
6.998200 0.066000
7.022000 0.073600
7.045900 0.081200
7.069700 0.088800
7.093600 0.096400
7.117400 0.104100
7.141300 0.111800
7.165100 0.119600
7.189000 0.128800
7.212800 0.139100
7.236700 0.149800
7.260500 0.161000
7.284400 0.172700
7.308200 0.185500
7.332100 0.199900
7.355900 0.216100
7.379800 0.233200
7.403600 0.251200
7.427500 0.268800
7.451300 0.287400
7.475200 0.306900
7.499000 0.325300
7.522900 0.345000
7.546700 0.364600
7.570600 0.397500
7.594400 0.448700
7.618300 0.511000
7.642100 0.584200
7.666000 0.667700
7.689800 0.789500
7.713700 0.896100
7.737500 0.984100
7.761400 1.078500
7.785200 1.186700
7.809100 1.305500
7.832900 1.466800
7.856800 1.615900
7.880600 1.729700
7.904500 1.813700
7.928300 1.870500
7.952200 1.910200
7.976000 1.933100
7.999900 1.942700
8.023700 1.962200
8.047600 1.993700
8.071400 2.028600
8.095300 2.062800
8.119100 2.097300
8.143000 2.128600
8.166800 2.150400
8.190700 2.168800
8.214500 2.209600
8.238400 2.266000
8.262200 2.325900
8.286100 2.380500
8.309900 2.415000
8.333800 2.614900
8.357600 2.702600
8.381400 2.782200
8.405300 2.870400
8.429100 2.961800
8.453000 3.022600
8.476800 3.062900
8.500700 3.099900
8.524500 3.130600
8.548400 3.156700
8.572200 3.182500
8.596100 3.223700
8.619900 3.308300
8.643800 3.269000
8.667600 3.222700
8.691500 3.146000
8.715300 3.063800
8.739200 2.939300
8.763000 2.774500
8.786900 2.627200
8.810700 2.410500
8.834600 2.219900
8.858400 2.060300
8.882300 1.905500
8.906100 1.836600
8.930000 1.777500
8.953800 1.722000
8.977700 1.669300
9.001500 1.619000
9.025400 1.570400
9.049200 1.523500
9.073100 1.478400
9.096900 1.435500
9.120800 1.388700
9.144600 1.358400
9.168500 1.328200
9.192300 1.290100
9.216200 1.256600
9.240000 1.225500
9.263900 1.192400
9.287700 1.157700
9.311600 1.119500
9.335400 1.083900
9.359300 1.080200
9.383100 1.071100
9.407000 1.017800
9.430800 0.966500
9.454700 0.915900
9.478500 0.865800
9.502400 0.816300
9.526200 0.767600
9.550100 0.721200
9.573900 0.677700
9.597800 0.722900
9.621600 0.711500
9.645500 0.665800
9.669300 0.526900
9.693200 0.493800
9.717000 0.462800
9.740900 0.434100
9.764700 0.426300
9.788600 1.200200
9.812400 0.988400
9.836300 0.453200
9.860100 0.000000
9.883900 0.000000
9.907800 0.017400
9.931600 0.080600
9.955500 0.190000
9.979300 0.465900
10.003200 0.517500
10.027000 0.377500
10.050900 0.350100
10.074700 0.347600
10.098600 0.347700
10.122400 0.350400
10.146300 0.356600
10.170100 0.379300
10.194000 0.405800
10.217800 0.434300
10.241700 0.464900
10.265500 0.497600
10.289400 0.532500
10.313200 0.566500
10.337100 0.608600
10.360900 0.672700
10.384800 0.783100
10.408600 1.327700
10.432500 1.701600
10.456300 2.102200
10.480200 2.426000
10.504000 3.032900
10.527900 6.122200
10.551700 6.761100
10.575600 7.734700
10.599400 8.275000
10.623300 7.477200
10.647100 6.616500
10.671000 6.008500
10.694800 5.118500
10.718700 3.795400
10.742500 3.338800
10.766400 3.081400
10.790200 3.163700
10.814100 3.027300
10.837900 2.869600
10.861800 2.743700
10.885600 2.654700
10.909500 2.599300
10.933300 2.584900
10.957200 2.594100
10.981000 2.554900
11.004900 2.513300
11.028700 2.421100
11.052600 2.565700
11.076400 2.508400
11.100300 2.446500
11.124100 2.380400
11.148000 2.307000
11.171800 2.252700
11.195700 2.257900
11.219500 2.298700
11.243400 2.261000
11.267200 2.209800
11.291100 2.164900
11.314900 2.118100
11.338700 2.069100
11.362600 1.936500
11.386400 1.590500
11.410300 1.341400
11.434100 1.217100
11.458000 1.112100
11.481800 1.021700
11.505700 0.946000
11.529500 0.883300
11.553400 0.840200
11.577200 0.800800
11.601100 0.762100
11.624900 0.724100
11.648800 0.692400
11.672600 0.660000
11.696500 0.628100
11.720300 0.598400
11.744200 0.569000
11.768000 0.540500
11.791900 0.510400
11.815700 0.485600
11.839600 0.463300
11.863400 0.900800
11.887300 0.861600
11.911100 0.898600
11.935000 0.953600
11.958800 1.127700
11.982700 1.325500
12.006500 1.495900
12.030400 1.463600
12.054200 1.281500
12.078100 1.202100
12.101900 1.588600
12.125800 1.627800
12.149600 2.014000
12.173500 2.279400
12.197300 3.171800
12.221200 3.239400
12.245000 3.415200
12.268900 3.272600
12.292700 3.428600
12.316600 3.628800
12.340400 4.298800
12.364300 4.765300
12.388100 4.967900
12.412000 4.891000
12.435800 4.768000
12.459700 4.565700
