set title 'mp-1183202 - Density of States'
set xlabel 'Energy (eV)'
set ylabel 'DOS (states/eV)'
set grid
set xrange [-10:10]
set yrange [0:24.986]
set xzeroaxis lt -1
set terminal png size 800,600
set output 'mp-1183202_dos_gnuplot.png'
plot '-' using 1:2 with lines title 'DOS'
-9.694000 0.000000
-9.671800 0.000000
-9.649700 0.000000
-9.627500 0.000000
-9.605300 0.000000
-9.583100 0.000000
-9.560900 0.000000
-9.538700 0.000000
-9.516500 0.000000
-9.494300 0.000000
-9.472100 0.000000
-9.450000 0.000000
-9.427800 0.000000
-9.405600 0.000000
-9.383400 0.000000
-9.361200 0.000000
-9.339000 0.000000
-9.316800 0.000000
-9.294600 0.000000
-9.272400 0.000000
-9.250200 0.000000
-9.228100 0.000000
-9.205900 0.000000
-9.183700 0.000000
-9.161500 0.000000
-9.139300 0.000000
-9.117100 0.000000
-9.094900 0.000000
-9.072700 0.000000
-9.050500 0.000000
-9.028300 0.000000
-9.006200 0.000000
-8.984000 0.000000
-8.961800 0.000000
-8.939600 0.000000
-8.917400 0.000000
-8.895200 0.000000
-8.873000 0.000000
-8.850800 0.000000
-8.828600 0.000000
-8.806500 0.000000
-8.784300 0.000000
-8.762100 0.000000
-8.739900 0.000000
-8.717700 0.000000
-8.695500 0.000000
-8.673300 0.000000
-8.651100 0.000000
-8.628900 0.000000
-8.606700 0.000000
-8.584600 0.000000
-8.562400 0.000000
-8.540200 0.000000
-8.518000 0.000000
-8.495800 0.000000
-8.473600 0.000000
-8.451400 0.000000
-8.429200 0.000000
-8.407000 0.000000
-8.384800 0.000000
-8.362700 0.000000
-8.340500 0.000000
-8.318300 0.000000
-8.296100 0.000000
-8.273900 0.000000
-8.251700 0.000000
-8.229500 0.000000
-8.207300 0.000000
-8.185100 0.000000
-8.163000 0.000000
-8.140800 0.000000
-8.118600 0.000000
-8.096400 0.000000
-8.074200 0.000000
-8.052000 0.000000
-8.029800 0.000000
-8.007600 0.000000
-7.985400 0.000000
-7.963200 0.000000
-7.941100 0.000000
-7.918900 0.000000
-7.896700 0.000000
-7.874500 0.000000
-7.852300 0.000000
-7.830100 0.000000
-7.807900 0.000000
-7.785700 0.000000
-7.763500 0.000000
-7.741300 0.000000
-7.719200 0.000000
-7.697000 0.000000
-7.674800 0.000400
-7.652600 0.060600
-7.630400 0.199100
-7.608200 0.284200
-7.586000 0.328300
-7.563800 0.385600
-7.541600 0.436300
-7.519500 0.502600
-7.497300 0.567300
-7.475100 0.607200
-7.452900 0.659900
-7.430700 0.715100
-7.408500 0.773700
-7.386300 0.832500
-7.364100 0.894800
-7.341900 0.964500
-7.319700 1.044300
-7.297600 1.132900
-7.275400 1.228300
-7.253200 1.324500
-7.231000 1.428100
-7.208800 1.539000
-7.186600 1.710200
-7.164400 2.020900
-7.142200 2.132400
-7.120000 2.213500
-7.097800 2.368700
-7.075700 2.523200
-7.053500 2.684400
-7.031300 2.900800
-7.009100 3.138700
-6.986900 3.434100
-6.964700 3.794500
-6.942500 4.545600
-6.920300 6.293700
-6.898100 7.247400
-6.876000 6.116000
-6.853800 5.216600
-6.831600 4.871300
-6.809400 4.670100
-6.787200 4.915000
-6.765000 0.000000
-6.742800 0.000000
-6.720600 0.000000
-6.698400 0.000000
-6.676200 0.000000
-6.654100 0.000000
-6.631900 0.000000
-6.609700 0.000000
-6.587500 0.000000
-6.565300 0.000000
-6.543100 0.000000
-6.520900 0.000000
-6.498700 0.000000
-6.476500 0.000000
-6.454300 0.000000
-6.432200 0.000000
-6.410000 0.000000
-6.387800 0.000000
-6.365600 0.000000
-6.343400 0.000000
-6.321200 0.000000
-6.299000 0.000000
-6.276800 0.000000
-6.254600 0.000000
-6.232500 0.000000
-6.210300 0.000000
-6.188100 0.000000
-6.165900 0.000000
-6.143700 0.000000
-6.121500 0.000000
-6.099300 0.000000
-6.077100 0.000000
-6.054900 0.000000
-6.032700 0.000000
-6.010600 0.000000
-5.988400 0.000000
-5.966200 0.000000
-5.944000 0.000000
-5.921800 0.000000
-5.899600 0.000000
-5.877400 0.000000
-5.855200 0.000000
-5.833000 0.000000
-5.810800 0.000000
-5.788700 0.000000
-5.766500 0.000000
-5.744300 0.000000
-5.722100 0.000000
-5.699900 0.000000
-5.677700 0.000000
-5.655500 0.000000
-5.633300 0.000000
-5.611100 0.000000
-5.589000 0.000000
-5.566800 0.000000
-5.544600 0.000000
-5.522400 0.000000
-5.500200 0.000000
-5.478000 0.000000
-5.455800 0.000000
-5.433600 0.000000
-5.411400 0.000000
-5.389200 0.000000
-5.367100 0.000000
-5.344900 0.000000
-5.322700 0.000000
-5.300500 0.000000
-5.278300 0.000000
-5.256100 0.000000
-5.233900 0.000000
-5.211700 0.000000
-5.189500 0.000000
-5.167300 0.000000
-5.145200 0.000000
-5.123000 0.000000
-5.100800 0.000000
-5.078600 0.000000
-5.056400 0.000000
-5.034200 0.000000
-5.012000 0.000000
-4.989800 0.000000
-4.967600 0.000000
-4.945500 0.000000
-4.923300 0.000000
-4.901100 0.000000
-4.878900 0.000000
-4.856700 0.000000
-4.834500 0.000000
-4.812300 0.000000
-4.790100 0.000000
-4.767900 0.000000
-4.745700 0.000000
-4.723600 0.000000
-4.701400 0.000000
-4.679200 0.000000
-4.657000 0.000000
-4.634800 0.000000
-4.612600 0.000000
-4.590400 0.000000
-4.568200 0.000000
-4.546000 0.000000
-4.523900 0.000000
-4.501700 0.000000
-4.479500 0.000000
-4.457300 0.000000
-4.435100 0.000000
-4.412900 0.000000
-4.390700 0.000000
-4.368500 0.000000
-4.346300 0.000000
-4.324100 0.000000
-4.302000 0.000000
-4.279800 0.000000
-4.257600 0.000000
-4.235400 0.000000
-4.213200 0.000000
-4.191000 0.000000
-4.168800 0.000000
-4.146600 0.000000
-4.124400 0.000000
-4.102200 0.000000
-4.080100 0.000000
-4.057900 0.000000
-4.035700 0.000000
-4.013500 0.000000
-3.991300 0.000000
-3.969100 0.000000
-3.946900 0.000000
-3.924700 0.000000
-3.902500 0.000000
-3.880400 0.000000
-3.858200 0.000000
-3.836000 0.000000
-3.813800 0.000000
-3.791600 0.000000
-3.769400 0.000000
-3.747200 0.000000
-3.725000 0.000000
-3.702800 0.000000
-3.680600 0.000000
-3.658500 0.000000
-3.636300 0.000000
-3.614100 0.000000
-3.591900 0.000000
-3.569700 0.000000
-3.547500 0.000000
-3.525300 0.000000
-3.503100 0.000000
-3.480900 0.000000
-3.458700 0.000000
-3.436600 0.000000
-3.414400 0.000000
-3.392200 0.000000
-3.370000 0.000000
-3.347800 0.000000
-3.325600 0.000000
-3.303400 0.000000
-3.281200 0.000000
-3.259000 0.000000
-3.236900 0.000000
-3.214700 0.000000
-3.192500 0.000000
-3.170300 0.000000
-3.148100 0.000000
-3.125900 0.000000
-3.103700 0.000000
-3.081500 0.000000
-3.059300 0.000000
-3.037100 0.000000
-3.015000 0.000000
-2.992800 0.000000
-2.970600 0.000000
-2.948400 0.000000
-2.926200 0.000000
-2.904000 0.000000
-2.881800 0.000000
-2.859600 0.000000
-2.837400 0.000000
-2.815200 0.000000
-2.793100 0.000000
-2.770900 0.000000
-2.748700 0.000000
-2.726500 0.000000
-2.704300 0.000000
-2.682100 0.000000
-2.659900 0.000000
-2.637700 0.000000
-2.615500 0.000000
-2.593400 0.000000
-2.571200 0.006200
-2.549000 0.113700
-2.526800 0.344200
-2.504600 0.579200
-2.482400 0.622700
-2.460200 0.649100
-2.438000 0.705400
-2.415800 0.789200
-2.393600 0.930600
-2.371500 1.398700
-2.349300 1.753500
-2.327100 2.070600
-2.304900 2.941100
-2.282700 4.488100
-2.260500 5.481000
-2.238300 5.318700
-2.216100 5.317800
-2.193900 5.818200
-2.171700 6.317200
-2.149600 6.718600
-2.127400 5.785600
-2.105200 4.888000
-2.083000 4.672700
-2.060800 3.657300
-2.038600 2.882300
-2.016400 2.666500
-1.994200 2.353400
-1.972000 1.974400
-1.949900 1.876800
-1.927700 1.740300
-1.905500 1.771900
-1.883300 2.385200
-1.861100 3.173100
-1.838900 3.848100
-1.816700 5.631100
-1.794500 8.294900
-1.772300 10.108600
-1.750100 11.486200
-1.728000 11.673500
-1.705800 11.522100
-1.683600 10.475700
-1.661400 10.061300
-1.639200 10.125400
-1.617000 11.473700
-1.594800 12.740800
-1.572600 13.135300
-1.550400 15.018900
-1.528200 18.032300
-1.506100 13.676400
-1.483900 13.206300
-1.461700 11.959100
-1.439500 12.377300
-1.417300 15.589900
-1.395100 14.785000
-1.372900 10.832500
-1.350700 10.989000
-1.328500 11.049100
-1.306400 11.475400
-1.284200 11.606700
-1.262000 10.555300
-1.239800 9.684000
-1.217600 8.414800
-1.195400 7.503200
-1.173200 7.168100
-1.151000 9.446600
-1.128800 8.214300
-1.106600 8.058000
-1.084500 7.274200
-1.062300 8.520100
-1.040100 7.340700
-1.017900 7.219100
-0.995700 7.908800
-0.973500 8.515100
-0.951300 9.613000
-0.929100 9.969400
-0.906900 9.833500
-0.884700 9.762800
-0.862600 10.443700
-0.840400 11.417900
-0.818200 11.960100
-0.796000 13.671400
-0.773800 16.078500
-0.751600 16.484600
-0.729400 12.702500
-0.707200 10.109000
-0.685000 9.758300
-0.662900 14.226300
-0.640700 15.174000
-0.618500 13.895500
-0.596300 11.354400
-0.574100 8.682200
-0.551900 9.678800
-0.529700 9.815700
-0.507500 8.823300
-0.485300 9.359100
-0.463100 11.839600
-0.441000 11.459800
-0.418800 11.898400
-0.396600 11.432800
-0.374400 10.681600
-0.352200 10.001000
-0.330000 9.386200
-0.307800 8.970900
-0.285600 7.444200
-0.263400 8.423700
-0.241200 14.469600
-0.219100 16.260100
-0.196900 15.971400
-0.174700 13.921200
-0.152500 12.405300
-0.130300 10.721800
-0.108100 11.105900
-0.085900 12.980300
-0.063700 12.805900
-0.041500 15.496300
-0.019400 21.182700
0.002800 22.714100
0.025000 15.348400
0.047200 14.030900
0.069400 15.403000
0.091600 15.056700
0.113800 17.380700
0.136000 14.513400
0.158200 13.589100
0.180400 12.194500
0.202500 10.952300
0.224700 10.211300
0.246900 8.387300
0.269100 7.878900
0.291300 6.906300
0.313500 6.222100
0.335700 5.935800
0.357900 5.664400
0.380100 5.730500
0.402300 5.533100
0.424400 5.610600
0.446600 5.021500
0.468800 4.275500
0.491000 3.509100
0.513200 5.477600
0.535400 7.528800
0.557600 12.309400
0.579800 18.217400
0.602000 13.238800
0.624100 10.540400
0.646300 8.650300
0.668500 6.953100
0.690700 7.096700
0.712900 6.265600
0.735100 5.678000
0.757300 4.873800
0.779500 5.480000
0.801700 5.619000
0.823900 6.001700
0.846000 6.125000
0.868200 5.421400
0.890400 4.416600
0.912600 3.588100
0.934800 3.139100
0.957000 2.979700
0.979200 2.858700
1.001400 2.761200
1.023600 2.695800
1.045800 2.663000
1.067900 2.666500
1.090100 2.582800
1.112300 2.554400
1.134500 2.529200
1.156700 2.470100
1.178900 2.433200
1.201100 2.410900
1.223300 2.376400
1.245500 2.316300
1.267600 2.273600
1.289800 2.276500
1.312000 2.361700
1.334200 2.116000
1.356400 1.772900
1.378600 1.558100
1.400800 1.387000
1.423000 1.331700
1.445200 1.188700
1.467400 1.116500
1.489500 1.115200
1.511700 1.125200
1.533900 1.142400
1.556100 1.145500
1.578300 1.151000
1.600500 1.158900
1.622700 1.146500
1.644900 1.160800
1.667100 1.171200
1.689300 1.166000
1.711400 1.235300
1.733600 1.399200
1.755800 1.383000
1.778000 1.225700
1.800200 1.229000
1.822400 1.361900
1.844600 1.460400
1.866800 1.640300
1.889000 1.716000
1.911100 1.880200
1.933300 1.673600
1.955500 1.596400
1.977700 1.593600
1.999900 1.596200
2.022100 1.604900
2.044300 1.624000
2.066500 1.655900
2.088700 1.687800
2.110900 1.720100
2.133000 1.711900
2.155200 1.699700
2.177400 1.717600
2.199600 1.752700
2.221800 1.799600
2.244000 1.822800
2.266200 1.826800
2.288400 1.868600
2.310600 1.810900
2.332800 1.782200
2.354900 1.758100
2.377100 1.735600
2.399300 1.730100
2.421500 1.734100
2.443700 1.743400
2.465900 1.755300
2.488100 1.766700
2.510300 1.781400
2.532500 1.804600
2.554600 1.839300
2.576800 1.879700
2.599000 1.904700
2.621200 1.926300
2.643400 1.940300
2.665600 1.946300
2.687800 1.941800
2.710000 1.997700
2.732200 2.039700
2.754400 1.816400
2.776500 1.685500
2.798700 1.606400
2.820900 1.574700
2.843100 1.556200
2.865300 1.541500
2.887500 1.551300
2.909700 1.600600
2.931900 1.598200
2.954100 1.592800
2.976300 1.595900
2.998400 1.593100
3.020600 1.576800
3.042800 1.563800
3.065000 1.598300
3.087200 1.591400
3.109400 1.575500
3.131600 1.513000
3.153800 1.481700
3.176000 1.447100
3.198100 1.415000
3.220300 1.386700
3.242500 1.354100
3.264700 1.334600
3.286900 1.320500
3.309100 1.254600
3.331300 1.239400
3.353500 1.220600
3.375700 1.176400
3.397900 1.139800
3.420000 1.116800
3.442200 1.175600
3.464400 1.207300
3.486600 1.221300
3.508800 1.214600
3.531000 1.187400
3.553200 1.125700
3.575400 1.100900
3.597600 1.074800
3.619800 1.045700
3.641900 1.019800
3.664100 1.008100
3.686300 0.997100
3.708500 0.986400
3.730700 0.975700
3.752900 0.964800
3.775100 0.966600
3.797300 0.950500
3.819500 0.933900
3.841600 0.930500
3.863800 0.929400
3.886000 0.936100
3.908200 0.967400
3.930400 0.941000
3.952600 0.956300
3.974800 0.973100
3.997000 0.993700
4.019200 1.028900
4.041400 1.065000
4.063500 1.113500
4.085700 1.168600
4.107900 1.229000
4.130100 1.289600
4.152300 1.366500
4.174500 1.421700
4.196700 1.406300
4.218900 1.443000
4.241100 1.447900
4.263300 1.495700
4.285400 1.556300
4.307600 1.623000
4.329800 1.685700
4.352000 1.741500
4.374200 1.767500
4.396400 1.793800
4.418600 1.829300
4.440800 1.858600
4.463000 1.877600
4.485100 1.855000
4.507300 1.834400
4.529500 1.833700
4.551700 1.757000
4.573900 1.725200
4.596100 1.700800
4.618300 1.681100
4.640500 1.659000
4.662700 1.642200
4.684900 1.626600
4.707000 1.623600
4.729200 1.597100
4.751400 1.608100
4.773600 1.571000
4.795800 1.518400
4.818000 1.519300
4.840200 1.471400
4.862400 1.294400
4.884600 1.098400
4.906800 1.057700
4.928900 1.021800
4.951100 0.990700
4.973300 0.964400
4.995500 0.942100
5.017700 0.923700
5.039900 0.888400
5.062100 0.860300
5.084300 0.834000
5.106500 0.826400
5.128600 0.826700
5.150800 0.797600
5.173000 0.770500
5.195200 0.744800
5.217400 0.720600
5.239600 0.698000
5.261800 0.674000
5.284000 0.652100
5.306200 0.628400
5.328400 0.611100
5.350500 0.597200
5.372700 0.584700
5.394900 0.572800
5.417100 0.561500
5.439300 0.552900
5.461500 0.548600
5.483700 0.549400
5.505900 0.553700
5.528100 0.552400
5.550200 0.507500
5.572400 0.500400
5.594600 0.517700
5.616800 0.539100
5.639000 0.562300
5.661200 0.586600
5.683400 0.611900
5.705600 0.638300
5.727800 0.669600
5.750000 0.716500
5.772100 0.753100
5.794300 0.817500
5.816500 0.867700
5.838700 1.141100
5.860900 1.221700
5.883100 1.340500
5.905300 1.464700
5.927500 1.591200
5.949700 1.680100
5.971900 1.750500
5.994000 1.800100
6.016200 1.811200
6.038400 1.718200
6.060600 1.447400
6.082800 1.381300
6.105000 1.306000
6.127200 1.273900
6.149400 1.248000
6.171600 1.226200
6.193700 1.206900
6.215900 1.176900
6.238100 1.148300
6.260300 1.136900
6.282500 1.131100
6.304700 1.127200
6.326900 1.124800
6.349100 1.123800
6.371300 1.127800
6.393500 1.139600
6.415600 1.155100
6.437800 1.175100
6.460000 1.194600
6.482200 1.215500
6.504400 1.239200
6.526600 1.259600
6.548800 1.279500
6.571000 1.298800
6.593200 1.317800
6.615400 1.320700
6.637500 1.310300
6.659700 1.317100
6.681900 1.332200
6.704100 1.350200
6.726300 1.366500
6.748500 1.382600
6.770700 1.402700
6.792900 1.423600
6.815100 1.445600
6.837200 1.469100
6.859400 1.517900
6.881600 1.590200
6.903800 1.665700
6.926000 1.699400
6.948200 1.709900
6.970400 1.733600
6.992600 1.751300
7.014800 1.764400
7.037000 1.773100
7.059100 1.816200
7.081300 1.841200
7.103500 1.876100
7.125700 1.908200
7.147900 1.913400
7.170100 1.936200
7.192300 1.952400
7.214500 1.882200
7.236700 1.843000
7.258900 1.788600
7.281000 1.705600
7.303200 1.633400
7.325400 1.573700
7.347600 1.543500
7.369800 1.486900
7.392000 1.427300
7.414200 1.367200
7.436400 1.312400
7.458600 1.264100
7.480700 1.205100
7.502900 1.165000
7.525100 1.133800
7.547300 1.130300
7.569500 1.144900
7.591700 1.219300
7.613900 1.233300
7.636100 1.293100
7.658300 1.232700
7.680500 1.241200
7.702600 1.272900
7.724800 1.380700
7.747000 1.482300
7.769200 1.536800
7.791400 1.538600
7.813600 1.536300
7.835800 1.569700
7.858000 1.591100
7.880200 1.608100
7.902400 1.629900
7.924500 1.653700
7.946700 1.675100
7.968900 1.696500
7.991100 1.720000
8.013300 1.790000
8.035500 1.769700
8.057700 1.810100
8.079900 1.842300
8.102100 1.908200
8.124200 1.919200
8.146400 2.004600
8.168600 2.100700
8.190800 2.157800
8.213000 2.110900
8.235200 2.009000
8.257400 1.850200
8.279600 1.805700
8.301800 1.803800
8.324000 1.825000
8.346100 2.068700
8.368300 3.073000
8.390500 3.823200
8.412700 2.553300
8.434900 1.631500
8.457100 1.471400
8.479300 1.318600
8.501500 1.222100
8.523700 1.149000
8.545900 1.082300
8.568000 1.032500
8.590200 1.066800
8.612400 1.200200
8.634600 1.286700
8.656800 1.425900
8.679000 1.574200
8.701200 1.736800
8.723400 1.924200
8.745600 2.174600
8.767700 2.354400
8.789900 2.512500
8.812100 2.667300
8.834300 2.776500
8.856500 2.847100
8.878700 2.855200
8.900900 2.801400
8.923100 2.801000
8.945300 2.687700
8.967500 2.556000
8.989600 2.452700
9.011800 2.356000
9.034000 2.233600
9.056200 2.122700
9.078400 2.056600
9.100600 2.009100
9.122800 1.946500
9.145000 1.916800
9.167200 1.886100
9.189400 1.846500
9.211500 1.831900
9.233700 1.844300
9.255900 1.891300
9.278100 1.899800
9.300300 1.891600
9.322500 1.747100
9.344700 1.518800
9.366900 1.383500
9.389100 1.317500
9.411200 1.260500
9.433400 1.204400
9.455600 1.145800
9.477800 1.101200
9.500000 1.079700
9.522200 1.087500
9.544400 0.948300
9.566600 0.788200
9.588800 0.783000
9.611000 0.762000
9.633100 0.746600
9.655300 0.736100
9.677500 0.730500
9.699700 0.729700
9.721900 0.733800
9.744100 0.741100
9.766300 0.767600
9.788500 0.785100
9.810700 0.733900
9.832900 0.741800
9.855000 0.751000
9.877200 0.760800
9.899400 0.772700
9.921600 0.788600
9.943800 0.808900
9.966000 0.835000
9.988200 0.867700
10.010400 0.906800
10.032600 0.952600
10.054700 0.993800
10.076900 1.036600
10.099100 1.101400
10.121300 1.175800
10.143500 1.299600
10.165700 1.409600
10.187900 1.524200
10.210100 1.705600
10.232300 2.015400
10.254500 2.204500
10.276600 2.233100
10.298800 2.170800
10.321000 2.196800
10.343200 2.210700
10.365400 2.295100
10.387600 2.542800
10.409800 2.545600
10.432000 2.460200
10.454200 2.462300
10.476400 2.472000
10.498500 2.471800
10.520700 2.441500
10.542900 2.406500
10.565100 2.359600
10.587300 2.311100
10.609500 2.282200
10.631700 2.213600
10.653900 2.119100
10.676100 2.020700
10.698200 1.953000
10.720400 1.912700
10.742600 1.887400
10.764800 1.906100
10.787000 1.913900
10.809200 1.892200
10.831400 1.864500
10.853600 1.762400
10.875800 1.672400
10.898000 1.598600
10.920100 1.553000
10.942300 1.514300
10.964500 1.605000
10.986700 1.622000
11.008900 1.619900
11.031100 1.634500
11.053300 1.662400
11.075500 1.695200
11.097700 1.755900
11.119900 1.799600
11.142000 1.858500
11.164200 1.886000
11.186400 1.910000
11.208600 1.994300
11.230800 2.118400
11.253000 2.152100
11.275200 2.154700
11.297400 2.147100
11.319600 2.159600
11.341700 2.183100
11.363900 2.207600
11.386100 2.135200
11.408300 2.112400
11.430500 2.110500
11.452700 2.108000
11.474900 2.105600
11.497100 2.113600
11.519300 2.115200
11.541500 2.122900
11.563600 2.115400
11.585800 2.037700
11.608000 1.956300
11.630200 1.869000
11.652400 1.781500
11.674600 1.724400
11.696800 1.677000
11.719000 1.640500
11.741200 1.609400
11.763400 1.569500
11.785500 1.547300
11.807700 1.532200
11.829900 1.525700
11.852100 1.529700
11.874300 1.546500
11.896500 1.579200
11.918700 1.622500
11.940900 1.688800
11.963100 1.780600
11.985200 1.859400
12.007400 1.919400
12.029600 1.984800
12.051800 2.044700
12.074000 2.098600
12.096200 2.180200
12.118400 2.289700
12.140600 2.414900
12.162800 2.561600
12.185000 2.716600
12.207100 2.964000
12.229300 3.013500
12.251500 2.968000
12.273700 2.908100
12.295900 2.853100
12.318100 2.804900
12.340300 2.776400
12.362500 2.792500
12.384700 2.732000
12.406900 2.661600
12.429000 2.611300
12.451200 2.559400
12.473400 2.508300
12.495600 2.419600
12.517800 2.283000
12.540000 2.175200
12.562200 2.051100
12.584400 1.930600
12.606600 1.863200
12.628700 1.823300
12.650900 1.793900
12.673100 1.735500
12.695300 1.786700
12.717500 1.741100
12.739700 1.680700
12.761900 1.622800
12.784100 1.558800
12.806300 1.487000
12.828500 1.431500
12.850600 1.390300
12.872800 1.357500
12.895000 1.317200
12.917200 1.271600
12.939400 1.273100
12.961600 1.261000
12.983800 1.232400
13.006000 1.197800
13.028200 1.182900
13.050400 1.188800
13.072500 1.200600
13.094700 1.216900
13.116900 1.238000
13.139100 1.256100
13.161300 1.272400
13.183500 1.288100
13.205700 1.331100
13.227900 1.318100
13.250100 1.282000
13.272200 1.281500
13.294400 1.286400
13.316600 1.292000
13.338800 1.297300
13.361000 1.313700
13.383200 1.327400
13.405400 1.336200
13.427600 1.342900
13.449800 1.349600
13.472000 1.359400
13.494100 1.376100
13.516300 1.405600
13.538500 1.441100
13.560700 1.476300
13.582900 1.510000
13.605100 1.543800
13.627300 1.573900
13.649500 1.601000
13.671700 1.628700
13.693900 1.663800
13.716000 1.697900
13.738200 1.725300
13.760400 1.768400
