set title 'mp-1007652 - Density of States'
set xlabel 'Energy (eV)'
set ylabel 'DOS (states/eV)'
set grid
set xrange [-10:10]
set yrange [0:11.048]
set xzeroaxis lt -1
set terminal png size 800,600
set output 'mp-1007652_dos_gnuplot.png'
plot '-' using 1:2 with lines title 'DOS'
-12.415300 0.000000
-12.395300 0.000000
-12.375300 0.000000
-12.355200 0.000000
-12.335200 0.000000
-12.315200 0.000000
-12.295100 0.000000
-12.275100 0.000000
-12.255100 0.000000
-12.235000 0.000000
-12.215000 0.000000
-12.195000 0.000000
-12.175000 0.000000
-12.154900 0.000000
-12.134900 0.000000
-12.114900 0.000000
-12.094800 0.000000
-12.074800 0.000000
-12.054800 0.000000
-12.034700 0.000000
-12.014700 0.000000
-11.994700 0.000000
-11.974700 0.000000
-11.954600 0.000000
-11.934600 0.000000
-11.914600 0.000000
-11.894500 0.000000
-11.874500 0.000000
-11.854500 0.000000
-11.834400 0.000000
-11.814400 0.000000
-11.794400 0.000000
-11.774400 0.000000
-11.754300 0.000000
-11.734300 0.000000
-11.714300 0.000000
-11.694200 0.000000
-11.674200 0.000000
-11.654200 0.000000
-11.634100 0.000000
-11.614100 0.000000
-11.594100 0.000000
-11.574100 0.000000
-11.554000 0.000000
-11.534000 0.000000
-11.514000 0.000000
-11.493900 0.000000
-11.473900 0.000000
-11.453900 0.000000
-11.433800 0.000000
-11.413800 0.000000
-11.393800 0.000000
-11.373800 0.000000
-11.353700 0.000000
-11.333700 0.000000
-11.313700 0.000000
-11.293600 0.000000
-11.273600 0.000000
-11.253600 0.000000
-11.233500 0.000000
-11.213500 0.000000
-11.193500 0.000000
-11.173500 0.000000
-11.153400 0.000000
-11.133400 0.000000
-11.113400 0.000000
-11.093300 0.000000
-11.073300 0.000000
-11.053300 0.000000
-11.033200 0.000000
-11.013200 0.000000
-10.993200 0.000000
-10.973200 0.000000
-10.953100 0.000000
-10.933100 0.000000
-10.913100 0.000000
-10.893000 0.000000
-10.873000 0.000000
-10.853000 0.000000
-10.832900 0.000000
-10.812900 0.000000
-10.792900 0.000000
-10.772900 0.000000
-10.752800 0.000000
-10.732800 0.000000
-10.712800 0.000000
-10.692700 0.000000
-10.672700 0.000000
-10.652700 0.000000
-10.632600 0.000000
-10.612600 0.000000
-10.592600 16.028700
-10.572600 48.475900
-10.552500 58.868000
-10.532500 23.598900
-10.512500 12.832100
-10.492400 7.809900
-10.472400 3.501300
-10.452400 41.163400
-10.432300 246.541800
-10.412300 180.923600
-10.392300 0.000000
-10.372300 200.203300
-10.352200 179.598000
-10.332200 0.000000
-10.312200 0.000000
-10.292100 0.000000
-10.272100 0.000000
-10.252100 0.000000
-10.232000 0.000000
-10.212000 0.000000
-10.192000 0.000000
-10.172000 0.000000
-10.151900 0.000000
-10.131900 0.000000
-10.111900 0.000000
-10.091800 0.000000
-10.071800 0.000000
-10.051800 0.000000
-10.031700 0.000000
-10.011700 0.000000
-9.991700 0.000000
-9.971700 0.000000
-9.951600 0.000000
-9.931600 0.000000
-9.911600 0.000000
-9.891500 0.000000
-9.871500 0.000000
-9.851500 0.000000
-9.831400 0.000000
-9.811400 0.000000
-9.791400 0.000000
-9.771400 0.000000
-9.751300 0.000000
-9.731300 0.000000
-9.711300 0.000000
-9.691200 0.000000
-9.671200 0.000000
-9.651200 0.000000
-9.631100 0.000000
-9.611100 0.000000
-9.591100 0.000000
-9.571100 0.000000
-9.551000 0.000000
-9.531000 0.000000
-9.511000 0.000000
-9.490900 0.000000
-9.470900 0.000000
-9.450900 0.000000
-9.430800 0.000000
-9.410800 0.000000
-9.390800 0.000000
-9.370700 0.000000
-9.350700 0.000000
-9.330700 0.000000
-9.310700 0.000000
-9.290600 0.000000
-9.270600 0.000000
-9.250600 0.000000
-9.230500 0.000000
-9.210500 0.000000
-9.190500 0.000000
-9.170400 0.000000
-9.150400 0.000000
-9.130400 0.000000
-9.110400 0.000000
-9.090300 0.000000
-9.070300 0.000000
-9.050300 0.000000
-9.030200 0.000000
-9.010200 0.000000
-8.990200 0.000000
-8.970100 0.000000
-8.950100 0.000000
-8.930100 0.000000
-8.910100 0.000000
-8.890000 0.000000
-8.870000 0.000000
-8.850000 0.000000
-8.829900 0.000000
-8.809900 0.000000
-8.789900 0.000000
-8.769800 0.000000
-8.749800 0.000000
-8.729800 0.000000
-8.709800 0.000000
-8.689700 0.000000
-8.669700 0.000000
-8.649700 0.000000
-8.629600 0.000000
-8.609600 0.000000
-8.589600 0.000000
-8.569500 0.000000
-8.549500 0.000000
-8.529500 0.000000
-8.509500 0.000000
-8.489400 0.000000
-8.469400 0.000000
-8.449400 0.000000
-8.429300 0.000000
-8.409300 0.000000
-8.389300 0.000000
-8.369200 0.000000
-8.349200 0.000000
-8.329200 0.000000
-8.309200 0.000000
-8.289100 0.000000
-8.269100 0.000000
-8.249100 0.000000
-8.229000 0.000000
-8.209000 0.000000
-8.189000 0.000000
-8.168900 0.000000
-8.148900 0.000000
-8.128900 0.000000
-8.108900 0.000000
-8.088800 0.000000
-8.068800 0.000000
-8.048800 0.000000
-8.028700 0.000000
-8.008700 0.000000
-7.988700 0.000000
-7.968600 0.000000
-7.948600 0.000000
-7.928600 0.000000
-7.908600 0.000000
-7.888500 0.000000
-7.868500 0.000000
-7.848500 0.000000
-7.828400 0.000000
-7.808400 0.000000
-7.788400 0.000000
-7.768300 0.000000
-7.748300 0.000000
-7.728300 0.000000
-7.708300 0.000000
-7.688200 0.000000
-7.668200 0.000000
-7.648200 0.000000
-7.628100 0.000000
-7.608100 0.000000
-7.588100 0.000000
-7.568000 0.000000
-7.548000 0.027800
-7.528000 0.108900
-7.508000 0.235600
-7.487900 0.316700
-7.467900 0.337300
-7.447900 0.349100
-7.427800 0.394900
-7.407800 0.442500
-7.387800 0.491800
-7.367700 0.540100
-7.347700 0.577500
-7.327700 0.599800
-7.307700 0.619800
-7.287600 0.643000
-7.267600 0.670700
-7.247600 0.702000
-7.227500 0.733600
-7.207500 0.765300
-7.187500 0.797200
-7.167400 0.842600
-7.147400 0.943700
-7.127400 1.033000
-7.107400 0.990300
-7.087300 1.004800
-7.067300 1.019700
-7.047300 1.034700
-7.027200 1.048400
-7.007200 1.060700
-6.987200 1.070900
-6.967100 1.072900
-6.947100 1.078200
-6.927100 1.086500
-6.907100 1.101800
-6.887000 1.178400
-6.867000 1.293900
-6.847000 1.421600
-6.826900 1.363700
-6.806900 1.407400
-6.786900 1.452300
-6.766800 1.493700
-6.746800 1.544100
-6.726800 1.592600
-6.706800 1.632400
-6.686700 1.672700
-6.666700 1.720100
-6.646700 1.772900
-6.626600 1.827800
-6.606600 1.885300
-6.586600 1.947500
-6.566500 2.014700
-6.546500 2.081700
-6.526500 2.146400
-6.506400 2.224000
-6.486400 2.317500
-6.466400 2.417900
-6.446400 2.526700
-6.426300 2.658100
-6.406300 2.806500
-6.386300 2.968300
-6.366200 3.213200
-6.346200 3.613900
-6.326200 3.763200
-6.306100 3.856700
-6.286100 3.911200
-6.266100 3.960300
-6.246100 4.107100
-6.226000 4.174600
-6.206000 4.131400
-6.186000 4.181200
-6.165900 4.167200
-6.145900 4.122700
-6.125900 3.889300
-6.105800 3.707700
-6.085800 3.920100
-6.065800 3.876600
-6.045800 4.167600
-6.025700 4.505600
-6.005700 4.171800
-5.985700 4.066300
-5.965600 4.129900
-5.945600 4.291400
-5.925600 4.531500
-5.905500 4.585700
-5.885500 5.011800
-5.865500 5.885300
-5.845500 5.591600
-5.825400 7.679700
-5.805400 5.038500
-5.785400 0.000000
-5.765300 0.000000
-5.745300 0.000000
-5.725300 0.000000
-5.705200 0.000000
-5.685200 0.000000
-5.665200 0.000000
-5.645200 0.000000
-5.625100 0.000000
-5.605100 0.000000
-5.585100 0.000000
-5.565000 0.000000
-5.545000 0.000000
-5.525000 0.000000
-5.504900 0.000000
-5.484900 0.000000
-5.464900 0.000000
-5.444900 0.000000
-5.424800 0.000000
-5.404800 0.000000
-5.384800 0.000000
-5.364700 0.000000
-5.344700 0.000000
-5.324700 0.000000
-5.304600 0.000000
-5.284600 0.000000
-5.264600 0.000000
-5.244600 0.000000
-5.224500 0.000000
-5.204500 0.000000
-5.184500 0.000000
-5.164400 0.000000
-5.144400 0.000000
-5.124400 0.000000
-5.104300 0.000000
-5.084300 0.000000
-5.064300 0.000000
-5.044300 0.000000
-5.024200 0.000000
-5.004200 0.000000
-4.984200 0.000000
-4.964100 0.000000
-4.944100 0.000000
-4.924100 0.000000
-4.904000 0.000000
-4.884000 0.000000
-4.864000 0.000000
-4.844000 0.000000
-4.823900 0.000000
-4.803900 0.000000
-4.783900 0.000000
-4.763800 0.000000
-4.743800 0.000000
-4.723800 0.000000
-4.703700 0.000000
-4.683700 0.000000
-4.663700 0.000000
-4.643700 0.000000
-4.623600 0.000000
-4.603600 0.000000
-4.583600 0.000000
-4.563500 0.000000
-4.543500 0.000000
-4.523500 0.000000
-4.503400 0.000000
-4.483400 0.000000
-4.463400 0.000000
-4.443400 0.000000
-4.423300 0.000000
-4.403300 0.000000
-4.383300 0.000000
-4.363200 0.000000
-4.343200 0.000000
-4.323200 0.000000
-4.303100 0.000000
-4.283100 0.000000
-4.263100 0.000000
-4.243100 0.000000
-4.223000 0.000000
-4.203000 0.000000
-4.183000 0.000000
-4.162900 0.000000
-4.142900 0.000000
-4.122900 0.000000
-4.102800 0.000000
-4.082800 0.000000
-4.062800 0.000000
-4.042800 0.000000
-4.022700 0.000000
-4.002700 0.000000
-3.982700 0.000000
-3.962600 0.000000
-3.942600 0.000000
-3.922600 0.000000
-3.902500 0.000000
-3.882500 0.000000
-3.862500 0.000000
-3.842500 0.000000
-3.822400 0.000000
-3.802400 0.000000
-3.782400 0.000000
-3.762300 0.000000
-3.742300 0.000000
-3.722300 0.000000
-3.702200 0.000000
-3.682200 0.000000
-3.662200 0.000000
-3.642100 0.000000
-3.622100 0.000000
-3.602100 0.000000
-3.582100 0.000000
-3.562000 0.000000
-3.542000 0.000000
-3.522000 0.000000
-3.501900 0.000000
-3.481900 0.000000
-3.461900 0.000000
-3.441800 0.000000
-3.421800 0.000000
-3.401800 0.000000
-3.381800 0.000000
-3.361700 0.000000
-3.341700 0.000000
-3.321700 0.000000
-3.301600 0.000000
-3.281600 0.000000
-3.261600 0.000000
-3.241500 0.000000
-3.221500 0.000000
-3.201500 0.000000
-3.181500 0.000000
-3.161400 0.000000
-3.141400 0.000000
-3.121400 0.000000
-3.101300 0.000000
-3.081300 0.000000
-3.061300 0.000000
-3.041200 0.000000
-3.021200 0.000000
-3.001200 0.000000
-2.981200 0.000000
-2.961100 0.000000
-2.941100 0.000000
-2.921100 0.000000
-2.901000 0.000000
-2.881000 0.000000
-2.861000 0.000000
-2.840900 0.000000
-2.820900 0.000000
-2.800900 0.000000
-2.780900 0.000000
-2.760800 0.000000
-2.740800 0.000000
-2.720800 0.000000
-2.700700 0.000000
-2.680700 0.000000
-2.660700 0.000000
-2.640600 0.000000
-2.620600 0.000000
-2.600600 0.000000
-2.580600 0.000000
-2.560500 0.000000
-2.540500 0.000000
-2.520500 0.000000
-2.500400 0.000000
-2.480400 0.000000
-2.460400 0.000000
-2.440300 0.000000
-2.420300 0.000000
-2.400300 0.000000
-2.380300 0.000000
-2.360200 0.000000
-2.340200 0.000000
-2.320200 0.000000
-2.300100 0.000000
-2.280100 0.000000
-2.260100 0.000000
-2.240000 0.000000
-2.220000 0.000000
-2.200000 0.000000
-2.180000 0.000000
-2.159900 0.000000
-2.139900 0.000000
-2.119900 0.000000
-2.099800 0.000000
-2.079800 0.000000
-2.059800 0.000000
-2.039700 0.000000
-2.019700 0.000000
-1.999700 0.000000
-1.979700 0.000000
-1.959600 0.000000
-1.939600 0.000000
-1.919600 0.000000
-1.899500 0.000000
-1.879500 0.000000
-1.859500 0.000000
-1.839400 0.000000
-1.819400 0.000000
-1.799400 0.000000
-1.779400 0.000000
-1.759300 0.000000
-1.739300 0.000000
-1.719300 0.000000
-1.699200 1.161300
-1.679200 2.376200
-1.659200 2.884000
-1.639100 3.789800
-1.619100 4.314700
-1.599100 6.062100
-1.579100 6.565700
-1.559000 6.186300
-1.539000 5.424900
-1.519000 4.366600
-1.498900 4.192600
-1.478900 4.569500
-1.458900 4.880500
-1.438800 4.384400
-1.418800 3.906800
-1.398800 3.604000
-1.378800 3.428200
-1.358700 3.235400
-1.338700 2.937900
-1.318700 2.494400
-1.298600 2.435500
-1.278600 2.390000
-1.258600 2.356500
-1.238500 2.356000
-1.218500 2.353400
-1.198500 2.362000
-1.178500 2.374500
-1.158400 2.312500
-1.138400 2.293800
-1.118400 2.254400
-1.098300 2.233600
-1.078300 2.209000
-1.058300 2.217500
-1.038200 2.257500
-1.018200 2.244400
-0.998200 2.234200
-0.978200 2.225900
-0.958100 2.013500
-0.938100 1.947500
-0.918100 1.874100
-0.898000 1.775900
-0.878000 1.662900
-0.858000 1.592000
-0.837900 1.539500
-0.817900 1.489000
-0.797900 1.440400
-0.777800 1.393900
-0.757800 1.350600
-0.737800 1.308800
-0.717800 1.269800
-0.697700 1.233200
-0.677700 1.198900
-0.657700 1.165700
-0.637600 1.133300
-0.617600 1.103400
-0.597600 1.073200
-0.577500 1.053000
-0.557500 1.025400
-0.537500 0.999300
-0.517500 0.974700
-0.497400 0.954200
-0.477400 0.935700
-0.457400 0.917400
-0.437300 0.899600
-0.417300 0.882100
-0.397300 0.864900
-0.377200 0.847800
-0.357200 0.831100
-0.337200 0.830000
-0.317200 0.828900
-0.297100 0.827100
-0.277100 0.816300
-0.257100 0.793700
-0.237000 0.771600
-0.217000 0.750200
-0.197000 0.729200
-0.176900 0.941300
-0.156900 0.703600
-0.136900 0.542700
-0.116900 0.535900
-0.096800 0.529300
-0.076800 0.522500
-0.056800 0.515600
-0.036700 0.508600
-0.016700 0.501400
0.003300 0.494400
0.023400 0.487600
0.043400 0.481300
0.063400 0.475500
0.083400 0.470200
0.103500 0.465400
0.123500 0.461200
0.143500 0.457400
0.163600 0.453800
0.183600 0.450200
0.203600 0.446600
0.223700 0.442900
0.243700 0.439300
0.263700 0.436600
0.283700 0.435300
0.303800 0.433800
0.323800 0.432200
0.343800 0.429700
0.363900 0.427300
0.383900 0.426300
0.403900 0.424000
0.424000 0.420600
0.444000 0.417200
0.464000 0.557500
0.484000 0.623300
0.504100 0.628200
0.524100 0.662400
0.544100 0.697600
0.564200 0.733800
0.584200 0.771000
0.604200 0.809200
0.624300 0.855800
0.644300 1.027600
0.664300 1.173600
0.684300 1.416400
0.704400 1.989500
0.724400 2.319200
0.744400 2.456000
0.764500 2.564800
0.784500 2.636600
0.804500 2.720800
0.824600 2.628600
0.844600 2.449500
0.864600 2.243900
0.884600 2.067300
0.904700 2.042200
0.924700 1.956200
0.944700 1.832700
0.964800 1.809400
0.984800 1.791400
1.004800 1.781000
1.024900 1.770700
1.044900 1.760300
1.064900 1.737300
1.084900 1.706200
1.105000 1.676600
1.125000 1.648500
1.145000 1.704700
1.165100 1.892300
1.185100 2.098400
1.205100 2.197000
1.225200 2.262500
1.245200 2.286000
1.265200 2.300800
1.285200 2.334500
1.305300 2.364200
1.325300 2.396300
1.345300 2.432400
1.365400 2.470200
1.385400 2.496800
1.405400 2.548200
1.425500 2.577000
1.445500 2.613000
1.465500 2.651900
1.485500 2.693200
1.505600 2.807800
1.525600 2.848700
1.545600 2.876700
1.565700 2.783000
1.585700 2.798300
1.605700 2.807800
1.625800 2.811800
1.645800 2.809400
1.665800 2.807800
1.685800 2.822700
1.705900 2.861000
1.725900 2.920100
1.745900 3.369700
1.766000 3.690000
1.786000 3.644700
1.806000 3.291300
1.826100 3.264300
1.846100 3.307300
1.866100 3.327500
1.886100 3.084400
1.906200 3.021000
1.926200 3.037600
1.946200 2.984500
1.966300 2.963200
1.986300 2.948300
2.006300 2.954800
2.026400 2.978200
2.046400 3.054200
2.066400 3.373500
2.086500 3.814100
2.106500 3.800000
2.126500 3.876400
2.146500 3.957900
2.166600 4.151200
2.186600 4.335000
2.206600 4.364500
2.226700 4.333700
2.246700 4.308000
2.266700 4.147600
2.286800 4.134000
2.306800 4.137500
2.326800 4.078300
2.346800 4.017000
2.366900 3.953800
2.386900 3.939500
2.406900 3.825700
2.427000 3.697000
2.447000 3.719600
2.467000 3.766600
2.487100 3.829400
2.507100 4.061900
2.527100 5.013600
2.547100 10.043500
2.567200 7.805900
2.587200 6.712300
2.607200 4.595100
2.627300 4.398500
2.647300 4.208900
2.667300 4.027200
2.687400 3.848200
2.707400 3.748900
2.727400 3.654400
2.747400 3.563200
2.767500 3.440600
2.787500 3.328900
2.807500 3.224600
2.827600 3.126400
2.847600 3.039300
2.867600 2.960400
2.887700 2.912900
2.907700 2.874600
2.927700 2.816200
2.947700 2.729100
2.967800 2.609800
2.987800 2.488400
3.007800 2.369300
3.027900 2.246600
3.047900 2.157700
3.067900 2.037900
3.088000 1.939200
3.108000 1.871400
3.128000 1.806200
3.148000 1.717000
3.168100 1.642200
3.188100 1.577900
3.208100 1.522300
3.228200 1.469200
3.248200 1.422000
3.268200 1.384600
3.288300 1.347500
3.308300 1.306400
3.328300 1.262100
3.348300 1.218400
3.368400 1.247400
3.388400 1.197900
3.408400 1.145100
3.428500 1.088700
3.448500 1.028700
3.468500 0.964800
3.488600 0.919100
3.508600 0.876200
3.528600 0.837000
3.548600 0.806900
3.568700 0.775600
3.588700 0.744900
3.608700 0.697000
3.628800 0.650200
3.648800 0.601900
3.668800 0.551000
3.688900 0.498000
3.708900 0.446300
3.728900 0.396300
3.748900 0.352400
3.769000 0.330400
3.789000 0.295600
3.809000 0.247500
3.829100 0.137100
3.849100 0.064100
3.869100 0.019100
3.889200 0.000500
3.909200 0.000000
3.929200 0.000100
3.949200 0.000200
3.969300 0.000300
3.989300 0.000500
4.009300 0.000800
4.029400 0.001000
4.049400 0.001400
4.069400 0.001700
4.089500 0.002100
4.109500 0.002600
4.129500 0.003100
4.149500 0.003700
4.169600 0.004200
4.189600 0.004900
4.209600 0.005600
4.229700 0.006300
4.249700 0.007100
4.269700 0.007900
4.289800 0.008700
4.309800 0.009600
4.329800 0.010600
4.349800 0.011600
4.369900 0.012600
4.389900 0.013700
4.409900 0.014800
4.430000 0.016000
4.450000 0.017200
4.470000 0.018500
4.490100 0.019800
4.510100 0.021500
4.530100 0.024400
4.550100 0.028400
4.570200 0.033300
4.590200 0.038900
4.610200 0.045100
4.630300 0.051500
4.650300 0.057800
4.670300 0.064300
4.690400 0.071100
4.710400 0.078100
4.730400 0.085300
4.750400 0.092600
4.770500 0.100100
4.790500 0.107700
4.810500 0.115400
4.830600 0.123300
4.850600 0.131300
4.870600 0.139500
4.890700 0.147800
4.910700 0.156200
4.930700 0.165700
4.950800 0.175900
4.970800 0.186800
4.990800 0.197900
5.010800 0.209200
5.030900 0.220900
5.050900 0.233400
5.070900 0.247400
5.091000 0.262800
5.111000 0.279600
5.131000 0.484300
5.151100 0.575900
5.171100 0.659400
5.191100 0.739100
5.211100 0.819000
5.231200 0.899400
5.251200 0.980200
5.271200 1.061300
5.291300 1.142900
5.311300 1.228300
5.331300 1.311100
5.351400 1.394300
5.371400 1.488200
5.391400 1.591900
5.411400 1.693900
5.431500 1.786800
5.451500 1.864300
5.471500 1.944200
5.491600 2.093000
5.511600 2.224400
5.531600 2.376800
5.551700 2.486100
5.571700 2.573600
5.591700 2.648100
5.611700 2.709000
5.631800 2.757400
5.651800 2.904000
5.671800 2.969900
5.691900 3.029100
5.711900 3.077500
5.731900 3.054300
5.752000 3.114400
5.772000 3.190200
5.792000 3.276200
5.812000 3.387700
5.832100 3.530700
5.852100 3.731300
5.872100 4.055500
5.892200 4.351900
5.912200 3.824500
5.932200 3.754200
5.952300 3.794500
5.972300 3.391700
5.992300 3.325700
6.012300 3.291100
6.032400 3.273000
6.052400 3.253500
6.072400 3.239100
6.092500 3.275800
6.112500 2.745100
6.132500 2.969100
6.152600 2.849800
6.172600 2.713400
6.192600 2.576500
6.212600 2.441700
6.232700 2.318400
6.252700 2.205300
6.272700 2.115100
6.292800 2.036400
6.312800 1.958200
6.332800 1.883900
6.352900 1.820600
6.372900 1.771400
6.392900 1.697000
6.412900 1.652100
6.433000 1.606200
6.453000 1.561000
6.473000 1.516600
6.493100 1.476400
6.513100 1.439700
6.533100 1.403300
6.553200 1.367200
6.573200 1.331400
6.593200 1.296000
6.613200 1.299100
6.633300 1.287900
6.653300 1.287700
6.673300 1.283500
6.693400 1.273900
6.713400 1.256300
6.733400 1.238100
6.753500 1.224800
6.773500 1.171400
6.793500 1.060400
6.813500 0.965500
6.833600 0.877100
6.853600 0.831900
6.873600 0.922300
6.893700 0.989900
6.913700 1.211400
6.933700 1.675600
6.953800 1.407500
6.973800 0.979900
6.993800 0.613000
7.013800 0.489400
7.033900 0.452900
7.053900 0.551400
7.073900 0.573300
7.094000 0.605800
7.114000 0.648700
7.134000 0.702000
7.154100 0.765900
7.174100 0.833300
7.194100 0.874700
7.214100 1.006200
7.234200 1.071000
7.254200 1.178700
7.274200 1.312800
7.294300 1.501500
7.314300 1.896900
7.334300 2.443100
7.354400 3.201200
7.374400 4.212800
7.394400 6.517700
7.414400 6.270900
7.434500 5.449300
7.454500 5.093900
7.474500 4.873800
7.494600 4.772700
7.514600 4.909300
7.534600 4.994000
7.554700 5.015200
7.574700 4.996500
7.594700 4.944700
7.614700 4.668800
7.634800 4.250600
7.654800 3.817900
7.674800 3.381300
7.694900 3.960100
7.714900 3.919900
7.734900 3.607300
7.755000 2.845300
7.775000 2.436300
7.795000 2.276200
7.815100 2.311200
7.835100 2.213400
7.855100 2.308000
7.875100 2.438200
7.895200 2.565600
7.915200 2.699500
7.935200 2.844700
7.955300 2.983300
7.975300 3.114100
7.995300 3.242400
8.015400 3.708900
8.035400 4.845800
8.055400 6.147900
8.075400 4.263400
8.095500 3.467400
8.115500 3.346300
8.135500 2.983900
8.155600 2.785100
8.175600 2.573100
8.195600 2.369300
8.215700 2.251000
8.235700 2.190900
8.255700 2.169600
8.275700 2.146400
8.295800 2.516900
8.315800 2.223400
8.335800 2.087200
8.355900 2.077000
8.375900 2.149200
8.395900 2.228900
8.416000 2.261800
8.436000 2.313000
8.456000 2.584400
8.476000 2.710400
8.496100 2.540500
8.516100 2.500200
8.536100 2.505000
8.556200 2.647700
8.576200 2.945200
8.596200 3.343500
8.616300 3.848000
8.636300 4.474000
8.656300 4.962400
