set title 'mp-971779 - Density of States'
set xlabel 'Energy (eV)'
set ylabel 'DOS (states/eV)'
set grid
set xrange [-10:10]
set yrange [0:37.260]
set xzeroaxis lt -1
set terminal png size 800,600
set output 'mp-971779_dos_gnuplot.png'
plot '-' using 1:2 with lines title 'DOS'
-45.383700 0.000000
-45.332300 0.000000
-45.280800 0.000000
-45.229300 0.000000
-45.177900 0.000000
-45.126400 0.000000
-45.074900 0.000000
-45.023500 0.000000
-44.972000 0.000000
-44.920500 0.000000
-44.869100 0.000000
-44.817600 0.000000
-44.766100 0.000000
-44.714700 0.000000
-44.663200 0.000000
-44.611700 0.000000
-44.560300 0.000000
-44.508800 0.000000
-44.457300 0.000000
-44.405900 0.000000
-44.354400 0.000000
-44.302900 0.000000
-44.251500 0.000000
-44.200000 0.000000
-44.148500 0.000000
-44.097100 0.000000
-44.045600 0.000000
-43.994100 0.000000
-43.942700 0.000000
-43.891200 0.000000
-43.839700 0.000000
-43.788300 0.000000
-43.736800 0.000000
-43.685300 0.000000
-43.633900 0.000000
-43.582400 0.000000
-43.531000 0.000000
-43.479500 0.000000
-43.428000 0.000000
-43.376600 0.000000
-43.325100 0.000000
-43.273600 0.000000
-43.222200 0.000000
-43.170700 0.000000
-43.119200 0.000000
-43.067800 0.000000
-43.016300 0.000000
-42.964800 0.000000
-42.913400 0.000000
-42.861900 0.000000
-42.810400 0.000000
-42.759000 0.000000
-42.707500 0.000000
-42.656000 0.000000
-42.604600 0.000000
-42.553100 0.000000
-42.501600 0.000000
-42.450200 0.000000
-42.398700 0.000000
-42.347200 0.000000
-42.295800 0.000000
-42.244300 0.000000
-42.192800 0.000000
-42.141400 0.000000
-42.089900 0.000000
-42.038400 0.000000
-41.987000 0.000000
-41.935500 0.000000
-41.884000 0.000000
-41.832600 0.000000
-41.781100 0.000000
-41.729600 0.000000
-41.678200 0.000000
-41.626700 0.000000
-41.575200 0.000000
-41.523800 0.000000
-41.472300 0.000000
-41.420800 0.000000
-41.369400 0.000000
-41.317900 0.000000
-41.266500 0.000000
-41.215000 0.000000
-41.163500 0.000000
-41.112100 0.000000
-41.060600 0.000000
-41.009100 0.000000
-40.957700 0.000000
-40.906200 0.000000
-40.854700 0.000000
-40.803300 0.000000
-40.751800 0.000000
-40.700300 7.761300
-40.648900 21.241700
-40.597400 31.527100
-40.545900 48.447200
-40.494500 5.553300
-40.443000 13.262400
-40.391500 29.811100
-40.340100 33.953600
-40.288600 39.006400
-40.237100 36.620100
-40.185700 41.172400
-40.134200 38.881300
-40.082700 0.000000
-40.031300 0.000000
-39.979800 0.000000
-39.928300 0.000000
-39.876900 0.000000
-39.825400 0.000000
-39.773900 0.000000
-39.722500 0.000000
-39.671000 0.000000
-39.619500 0.000000
-39.568100 0.000000
-39.516600 0.000000
-39.465100 0.000000
-39.413700 0.000000
-39.362200 0.000000
-39.310700 0.000000
-39.259300 0.000000
-39.207800 0.000000
-39.156300 0.000000
-39.104900 0.000000
-39.053400 0.000000
-39.002000 0.000000
-38.950500 0.000000
-38.899000 0.000000
-38.847600 0.000000
-38.796100 0.000000
-38.744600 0.000000
-38.693200 0.000000
-38.641700 0.000000
-38.590200 0.000000
-38.538800 0.000000
-38.487300 0.000000
-38.435800 0.000000
-38.384400 0.000000
-38.332900 0.000000
-38.281400 0.000000
-38.230000 0.000000
-38.178500 0.000000
-38.127000 0.000000
-38.075600 0.000000
-38.024100 0.000000
-37.972600 0.000000
-37.921200 0.000000
-37.869700 0.000000
-37.818200 0.000000
-37.766800 0.000000
-37.715300 0.000000
-37.663800 0.000000
-37.612400 0.000000
-37.560900 0.000000
-37.509400 0.000000
-37.458000 0.000000
-37.406500 0.000000
-37.355000 0.000000
-37.303600 0.000000
-37.252100 0.000000
-37.200600 0.000000
-37.149200 0.000000
-37.097700 0.000000
-37.046200 0.000000
-36.994800 0.000000
-36.943300 0.000000
-36.891900 0.000000
-36.840400 0.000000
-36.788900 0.000000
-36.737500 0.000000
-36.686000 0.000000
-36.634500 0.000000
-36.583100 0.000000
-36.531600 0.000000
-36.480100 0.000000
-36.428700 0.000000
-36.377200 0.000000
-36.325700 0.000000
-36.274300 0.000000
-36.222800 0.000000
-36.171300 0.000000
-36.119900 0.000000
-36.068400 0.000000
-36.016900 0.000000
-35.965500 0.000000
-35.914000 0.000000
-35.862500 0.000000
-35.811100 0.000000
-35.759600 0.000000
-35.708100 0.000000
-35.656700 0.000000
-35.605200 0.000000
-35.553700 0.000000
-35.502300 0.000000
-35.450800 0.000000
-35.399300 0.000000
-35.347900 0.000000
-35.296400 0.000000
-35.244900 0.000000
-35.193500 0.000000
-35.142000 0.000000
-35.090500 0.000000
-35.039100 0.000000
-34.987600 0.000000
-34.936100 0.000000
-34.884700 0.000000
-34.833200 0.000000
-34.781700 0.000000
-34.730300 0.000000
-34.678800 0.000000
-34.627400 0.000000
-34.575900 0.000000
-34.524400 0.000000
-34.473000 0.000000
-34.421500 0.000000
-34.370000 0.000000
-34.318600 0.000000
-34.267100 0.000000
-34.215600 0.000000
-34.164200 0.000000
-34.112700 0.000000
-34.061200 0.000000
-34.009800 0.000000
-33.958300 0.000000
-33.906800 0.000000
-33.855400 0.000000
-33.803900 0.000000
-33.752400 0.000000
-33.701000 0.000000
-33.649500 0.000000
-33.598000 0.000000
-33.546600 0.000000
-33.495100 0.000000
-33.443600 0.000000
-33.392200 0.000000
-33.340700 0.000000
-33.289200 0.000000
-33.237800 0.000000
-33.186300 0.000000
-33.134800 0.000000
-33.083400 0.000000
-33.031900 0.000000
-32.980400 0.000000
-32.929000 0.000000
-32.877500 0.000000
-32.826000 0.000000
-32.774600 0.000000
-32.723100 0.000000
-32.671600 0.000000
-32.620200 0.000000
-32.568700 0.000000
-32.517200 0.000000
-32.465800 0.000000
-32.414300 0.000000
-32.362900 0.000000
-32.311400 0.000000
-32.259900 0.000000
-32.208500 0.000000
-32.157000 0.000000
-32.105500 0.000000
-32.054100 0.000000
-32.002600 0.000000
-31.951100 0.000000
-31.899700 0.000000
-31.848200 0.000000
-31.796700 0.000000
-31.745300 0.000000
-31.693800 0.000000
-31.642300 0.000000
-31.590900 0.000000
-31.539400 0.000000
-31.487900 0.000000
-31.436500 0.000000
-31.385000 0.000000
-31.333500 0.000000
-31.282100 0.000000
-31.230600 0.000000
-31.179100 0.000000
-31.127700 0.000000
-31.076200 0.000000
-31.024700 0.000000
-30.973300 0.000000
-30.921800 0.000000
-30.870300 0.000000
-30.818900 0.000000
-30.767400 0.000000
-30.715900 0.000000
-30.664500 0.000000
-30.613000 0.000000
-30.561500 0.000000
-30.510100 0.000000
-30.458600 0.000000
-30.407100 0.000000
-30.355700 0.000000
-30.304200 0.000000
-30.252700 0.000000
-30.201300 0.000000
-30.149800 0.000000
-30.098400 0.000000
-30.046900 0.000000
-29.995400 0.000000
-29.944000 0.000000
-29.892500 0.000000
-29.841000 0.000000
-29.789600 0.000000
-29.738100 0.000000
-29.686600 0.000000
-29.635200 0.000000
-29.583700 0.000000
-29.532200 0.000000
-29.480800 0.000000
-29.429300 0.000000
-29.377800 0.000000
-29.326400 0.000000
-29.274900 0.000000
-29.223400 0.000000
-29.172000 0.000000
-29.120500 0.000000
-29.069000 0.000000
-29.017600 0.000000
-28.966100 0.000000
-28.914600 0.000000
-28.863200 0.000000
-28.811700 0.000000
-28.760200 0.000000
-28.708800 0.000000
-28.657300 0.000000
-28.605800 0.000000
-28.554400 0.000000
-28.502900 0.000000
-28.451400 0.000000
-28.400000 0.000000
-28.348500 0.000000
-28.297000 0.000000
-28.245600 0.000000
-28.194100 0.000000
-28.142600 0.000000
-28.091200 0.000000
-28.039700 0.000000
-27.988200 0.000000
-27.936800 0.000000
-27.885300 0.000000
-27.833900 0.000000
-27.782400 0.000000
-27.730900 0.000000
-27.679500 0.000000
-27.628000 0.000000
-27.576500 0.000000
-27.525100 0.000000
-27.473600 0.000000
-27.422100 0.000000
-27.370700 0.000000
-27.319200 0.000000
-27.267700 0.000000
-27.216300 0.000000
-27.164800 0.000000
-27.113300 0.000000
-27.061900 0.000000
-27.010400 0.000000
-26.958900 0.000000
-26.907500 0.000000
-26.856000 0.000000
-26.804500 0.000000
-26.753100 0.000000
-26.701600 0.000000
-26.650100 0.000000
-26.598700 0.000000
-26.547200 0.000000
-26.495700 0.000000
-26.444300 0.000000
-26.392800 0.000000
-26.341300 0.000000
-26.289900 0.000000
-26.238400 0.000000
-26.186900 0.000000
-26.135500 0.000000
-26.084000 0.000000
-26.032500 0.000000
-25.981100 0.000000
-25.929600 0.000000
-25.878100 0.000000
-25.826700 0.000000
-25.775200 0.000000
-25.723700 0.000000
-25.672300 0.000000
-25.620800 0.000000
-25.569400 0.000000
-25.517900 0.000000
-25.466400 0.000000
-25.415000 0.000000
-25.363500 0.000000
-25.312000 0.000000
-25.260600 0.000000
-25.209100 0.000000
-25.157600 0.000000
-25.106200 0.000000
-25.054700 0.000000
-25.003200 0.000000
-24.951800 0.000000
-24.900300 0.000000
-24.848800 0.000000
-24.797400 0.000000
-24.745900 0.000000
-24.694400 0.000000
-24.643000 0.000000
-24.591500 0.000000
-24.540000 0.000000
-24.488600 0.000000
-24.437100 0.000000
-24.385600 0.000000
-24.334200 0.000000
-24.282700 0.000000
-24.231200 0.000000
-24.179800 0.000000
-24.128300 0.000000
-24.076800 0.000000
-24.025400 0.000000
-23.973900 0.000000
-23.922400 0.000000
-23.871000 0.000000
-23.819500 0.000000
-23.768000 0.000000
-23.716600 0.000000
-23.665100 0.000000
-23.613600 0.000000
-23.562200 0.000000
-23.510700 0.000000
-23.459200 0.000000
-23.407800 0.000000
-23.356300 0.000000
-23.304900 0.000000
-23.253400 0.000000
-23.201900 0.000000
-23.150500 0.000000
-23.099000 0.000000
-23.047500 0.000000
-22.996100 0.000000
-22.944600 0.000000
-22.893100 0.000000
-22.841700 0.000000
-22.790200 0.000000
-22.738700 0.000000
-22.687300 0.000000
-22.635800 0.000000
-22.584300 0.000000
-22.532900 0.000000
-22.481400 0.000000
-22.429900 0.000000
-22.378500 0.000000
-22.327000 0.000000
-22.275500 0.000000
-22.224100 0.000000
-22.172600 0.000000
-22.121100 0.000000
-22.069700 0.000000
-22.018200 0.000000
-21.966700 0.000000
-21.915300 0.000000
-21.863800 0.000000
-21.812300 0.000000
-21.760900 0.000000
-21.709400 0.000000
-21.657900 0.000000
-21.606500 0.000000
-21.555000 0.000000
-21.503500 0.000000
-21.452100 0.000000
-21.400600 0.000000
-21.349100 0.000000
-21.297700 0.000000
-21.246200 0.000000
-21.194700 0.000000
-21.143300 0.000000
-21.091800 0.000000
-21.040400 0.000000
-20.988900 0.000000
-20.937400 0.000000
-20.886000 0.000000
-20.834500 0.000000
-20.783000 0.000000
-20.731600 0.000000
-20.680100 0.000000
-20.628600 0.000000
-20.577200 0.000000
-20.525700 0.000000
-20.474200 0.000000
-20.422800 0.000000
-20.371300 0.000000
-20.319800 0.000000
-20.268400 0.000000
-20.216900 0.000000
-20.165400 0.000000
-20.114000 0.000000
-20.062500 0.000000
-20.011000 0.000000
-19.959600 0.000000
-19.908100 0.000000
-19.856600 0.000000
-19.805200 0.000000
-19.753700 0.000000
-19.702200 0.000000
-19.650800 0.000000
-19.599300 0.000000
-19.547800 0.000000
-19.496400 0.000000
-19.444900 0.000000
-19.393400 0.000000
-19.342000 0.000000
-19.290500 0.000000
-19.239000 0.000000
-19.187600 0.000000
-19.136100 0.000000
-19.084600 0.000000
-19.033200 0.000000
-18.981700 0.000000
-18.930300 0.000000
-18.878800 0.000000
-18.827300 0.000000
-18.775900 0.000000
-18.724400 0.000000
-18.672900 0.000000
-18.621500 0.000000
-18.570000 0.000000
-18.518500 0.000000
-18.467100 0.000000
-18.415600 0.000000
-18.364100 0.000000
-18.312700 0.000000
-18.261200 0.000000
-18.209700 0.000000
-18.158300 0.000000
-18.106800 0.000000
-18.055300 0.000000
-18.003900 0.000000
-17.952400 0.000000
-17.900900 0.000000
-17.849500 0.000000
-17.798000 0.000000
-17.746500 0.000000
-17.695100 0.000000
-17.643600 0.000000
-17.592100 0.000000
-17.540700 0.000000
-17.489200 0.000000
-17.437700 0.000000
-17.386300 0.000000
-17.334800 0.000000
-17.283300 0.000000
-17.231900 0.000000
-17.180400 0.000000
-17.128900 0.000000
-17.077500 0.000000
-17.026000 0.000000
-16.974500 0.000000
-16.923100 0.000000
-16.871600 0.000000
-16.820100 0.000000
-16.768700 0.000000
-16.717200 0.000000
-16.665800 0.000000
-16.614300 0.000000
-16.562800 0.000000
-16.511400 0.000000
-16.459900 0.000000
-16.408400 0.000000
-16.357000 0.000000
-16.305500 0.000000
-16.254000 0.000000
-16.202600 0.000000
-16.151100 0.000000
-16.099600 0.000000
-16.048200 0.000000
-15.996700 0.000000
-15.945200 0.000000
-15.893800 0.000000
-15.842300 0.000000
-15.790800 0.000000
-15.739400 0.000000
-15.687900 0.000000
-15.636400 0.000000
-15.585000 0.000000
-15.533500 0.000000
-15.482000 0.000000
-15.430600 0.000000
-15.379100 0.000000
-15.327600 0.000000
-15.276200 0.000000
-15.224700 0.000000
-15.173200 0.000000
-15.121800 0.000000
-15.070300 0.000000
-15.018800 0.000000
-14.967400 0.000000
-14.915900 0.000000
-14.864400 0.000000
-14.813000 0.000000
-14.761500 0.000000
-14.710000 0.000000
-14.658600 0.000000
-14.607100 0.000000
-14.555600 0.000000
-14.504200 0.000000
-14.452700 0.000000
-14.401300 0.000000
-14.349800 0.000000
-14.298300 0.000000
-14.246900 0.000000
-14.195400 0.000000
-14.143900 0.000000
-14.092500 0.000000
-14.041000 0.000000
-13.989500 0.000000
-13.938100 0.000000
-13.886600 0.000000
-13.835100 0.000000
-13.783700 0.000000
-13.732200 0.000000
-13.680700 0.000000
-13.629300 0.000000
-13.577800 0.000000
-13.526300 0.000000
-13.474900 0.000000
-13.423400 0.000000
-13.371900 0.000000
-13.320500 0.000000
-13.269000 0.000000
-13.217500 0.000000
-13.166100 0.000000
-13.114600 0.000000
-13.063100 0.000000
-13.011700 0.000000
-12.960200 0.000000
-12.908700 0.000000
-12.857300 0.000000
-12.805800 0.000000
-12.754300 0.000000
-12.702900 0.000000
-12.651400 0.000000
-12.599900 0.000000
-12.548500 0.000000
-12.497000 0.000000
-12.445500 0.000000
-12.394100 0.000000
-12.342600 0.000000
-12.291100 0.000000
-12.239700 0.000000
-12.188200 0.000000
-12.136800 0.000000
-12.085300 0.000000
-12.033800 0.000000
-11.982400 0.000000
-11.930900 0.000000
-11.879400 0.000000
-11.828000 0.000000
-11.776500 0.000000
-11.725000 0.000000
-11.673600 0.000000
-11.622100 0.000000
-11.570600 0.000000
-11.519200 0.000000
-11.467700 0.000000
-11.416200 0.000000
-11.364800 0.000000
-11.313300 0.000000
-11.261800 0.000000
-11.210400 0.000000
-11.158900 0.000000
-11.107400 0.000000
-11.056000 0.000000
-11.004500 0.000000
-10.953000 0.000000
-10.901600 0.000000
-10.850100 0.000000
-10.798600 0.000000
-10.747200 0.000000
-10.695700 0.000000
-10.644200 0.000000
-10.592800 0.000000
-10.541300 0.000000
-10.489800 0.000000
-10.438400 0.000000
-10.386900 0.000000
-10.335400 0.000000
-10.284000 0.000000
-10.232500 0.000000
-10.181000 0.000000
-10.129600 0.000000
-10.078100 0.000000
-10.026600 0.000000
-9.975200 0.000000
-9.923700 0.000000
-9.872300 0.000000
-9.820800 0.000000
-9.769300 0.000000
-9.717900 0.000000
-9.666400 0.000000
-9.614900 0.000000
-9.563500 0.000000
-9.512000 0.000000
-9.460500 0.000000
-9.409100 0.000000
-9.357600 0.000000
-9.306100 0.000000
-9.254700 0.000000
-9.203200 0.000000
-9.151700 0.000000
-9.100300 0.000000
-9.048800 0.000000
-8.997300 0.000000
-8.945900 0.000000
-8.894400 0.000000
-8.842900 0.000000
-8.791500 0.000000
-8.740000 0.000000
-8.688500 0.000000
-8.637100 0.000000
-8.585600 0.000000
-8.534100 0.000000
-8.482700 0.000000
-8.431200 0.000000
-8.379700 0.000000
-8.328300 0.000000
-8.276800 0.000000
-8.225300 0.000000
-8.173900 0.000000
-8.122400 0.000000
-8.070900 0.000000
-8.019500 0.000000
-7.968000 0.000000
-7.916500 0.000000
-7.865100 0.000000
-7.813600 0.000000
-7.762100 0.000000
-7.710700 0.000000
-7.659200 0.000000
-7.607800 0.000000
-7.556300 0.000000
-7.504800 0.000000
-7.453400 0.000000
-7.401900 0.000000
-7.350400 0.000000
-7.299000 0.000000
-7.247500 0.000000
-7.196000 0.000000
-7.144600 0.000000
-7.093100 0.000000
-7.041600 0.000000
-6.990200 0.000000
-6.938700 0.000000
-6.887200 0.000000
-6.835800 0.000000
-6.784300 0.000000
-6.732800 0.000000
-6.681400 0.000000
-6.629900 0.000000
-6.578400 0.000000
-6.527000 0.000000
-6.475500 0.000000
-6.424000 0.000000
-6.372600 0.000000
-6.321100 0.000000
-6.269600 0.000000
-6.218200 0.000000
-6.166700 0.000000
-6.115200 0.000000
-6.063800 0.000000
-6.012300 0.000000
-5.960800 0.000000
-5.909400 0.000000
-5.857900 0.000000
-5.806400 0.000000
-5.755000 0.000000
-5.703500 0.000000
-5.652000 0.000000
-5.600600 0.000000
-5.549100 0.000000
-5.497600 0.000000
-5.446200 0.000000
-5.394700 0.000000
-5.343300 0.000000
-5.291800 0.000000
-5.240300 0.000000
-5.188900 0.000000
-5.137400 0.000000
-5.085900 0.000000
-5.034500 0.000000
-4.983000 0.000000
-4.931500 0.000000
-4.880100 0.000000
-4.828600 0.000000
-4.777100 0.000000
-4.725700 0.000000
-4.674200 0.000000
-4.622700 0.000000
-4.571300 0.000000
-4.519800 0.000000
-4.468300 0.000000
-4.416900 0.000000
-4.365400 0.000000
-4.313900 0.000000
-4.262500 0.000000
-4.211000 0.000000
-4.159500 0.000000
-4.108100 0.000000
-4.056600 0.000000
-4.005100 0.000000
-3.953700 0.000000
-3.902200 0.000000
-3.850700 0.000000
-3.799300 0.000000
-3.747800 0.000000
-3.696300 0.000000
-3.644900 0.000000
-3.593400 0.000000
-3.541900 0.000000
-3.490500 0.000000
-3.439000 0.000000
-3.387500 0.000000
-3.336100 0.000000
-3.284600 0.000000
-3.233100 0.000000
-3.181700 0.000000
-3.130200 0.000000
-3.078800 0.000000
-3.027300 0.000000
-2.975800 0.000000
-2.924400 0.000000
-2.872900 0.000000
-2.821400 0.000000
-2.770000 0.000000
-2.718500 0.000000
-2.667000 0.000000
-2.615600 0.000000
-2.564100 0.019800
-2.512600 0.088300
-2.461200 0.099100
-2.409700 0.121000
-2.358200 0.142300
-2.306800 0.166600
-2.255300 0.179900
-2.203800 0.194500
-2.152400 0.211200
-2.100900 0.225700
-2.049400 0.241200
-1.998000 0.259300
-1.946500 0.278400
-1.895000 0.294400
-1.843600 0.310800
-1.792100 0.329200
-1.740600 0.348800
-1.689200 0.372700
-1.637700 0.399200
-1.586200 0.428800
-1.534800 0.463300
-1.483300 0.524100
-1.431800 0.606600
-1.380400 0.727100
-1.328900 1.363500
-1.277400 1.983300
-1.226000 6.054300
-1.174500 17.994900
-1.123000 25.060200
-1.071600 32.083200
-1.020100 33.872600
-0.968600 30.855700
-0.917200 27.221400
-0.865700 7.496200
-0.814300 5.648400
-0.762800 1.089200
-0.711300 1.071200
-0.659900 1.040700
-0.608400 1.020100
-0.556900 1.035000
-0.505500 1.083400
-0.454000 1.154500
-0.402500 1.284700
-0.351100 1.622900
-0.299600 3.750800
-0.248100 2.692000
-0.196700 2.354800
-0.145200 2.122100
-0.093700 1.903300
-0.042300 1.808800
0.009200 1.535500
0.060700 1.167900
0.112100 0.968800
0.163600 0.691500
0.215100 0.340400
0.266500 0.423000
0.318000 0.455500
0.369500 0.512000
0.420900 0.538700
0.472400 0.587300
0.523900 0.666300
0.575300 0.736100
0.626800 0.821200
0.678300 1.125800
0.729700 1.307800
0.781200 1.669600
0.832700 2.169700
0.884100 2.849400
0.935600 3.776600
0.987100 4.169200
1.038500 4.054700
1.090000 2.787400
1.141500 2.463400
1.192900 1.742100
1.244400 1.575500
1.295800 1.485700
1.347300 1.930900
1.398800 2.660600
1.450200 3.759900
1.501700 5.009600
1.553200 9.944700
1.604600 8.265900
1.656100 7.721600
1.707600 5.901500
1.759000 8.545700
1.810500 9.037700
1.862000 9.902500
1.913400 8.727500
1.964900 8.276400
2.016400 7.553700
2.067800 7.753100
2.119300 7.644400
2.170800 8.376000
2.222200 6.205100
2.273700 5.650000
2.325200 4.804500
2.376600 5.170600
2.428100 5.018300
2.479600 4.595800
2.531000 4.785900
2.582500 4.155100
2.634000 3.939200
2.685400 3.909200
2.736900 4.328700
2.788400 4.905500
2.839800 6.078600
2.891300 5.792900
2.942800 4.664000
2.994200 3.099400
3.045700 3.672500
3.097200 5.723400
3.148600 10.126400
3.200100 7.361100
3.251600 5.388300
3.303000 5.222800
3.354500 4.459200
3.406000 5.111200
3.457400 6.413900
3.508900 7.171200
3.560300 4.945900
3.611800 4.488600
3.663300 4.082100
3.714700 4.348200
3.766200 4.735300
3.817700 5.543400
3.869100 5.300800
3.920600 5.027700
3.972100 4.794000
4.023500 6.109500
4.075000 4.550000
4.126500 4.590000
4.177900 4.428200
4.229400 3.612100
4.280900 3.155300
4.332300 2.991400
4.383800 3.011900
4.435300 4.866500
4.486700 10.037000
4.538200 7.599500
4.589700 6.482600
4.641100 6.152000
4.692600 5.456400
4.744100 6.205000
4.795500 5.705700
4.847000 6.823800
4.898500 7.712600
4.949900 8.031200
5.001400 8.576100
5.052900 6.528700
5.104300 5.708600
5.155800 5.397500
5.207300 6.100600
5.258700 6.151600
5.310200 6.423300
5.361700 6.189300
5.413100 5.520200
5.464600 4.758000
5.516100 3.721500
5.567500 3.475900
5.619000 3.323200
5.670500 3.096100
5.721900 2.958600
5.773400 2.858400
5.824800 2.822100
5.876300 3.094500
5.927800 3.268000
5.979200 3.033500
6.030700 2.052600
6.082200 2.947300
6.133600 5.114200
6.185100 9.847600
6.236600 5.138000
6.288000 4.665300
6.339500 3.896700
6.391000 4.251400
