set title 'mp-995196 - Density of States'
set xlabel 'Energy (eV)'
set ylabel 'DOS (states/eV)'
set grid
set xrange [-10:10]
set yrange [0:8.070]
set xzeroaxis lt -1
set terminal png size 800,600
set output 'mp-995196_dos_gnuplot.png'
plot '-' using 1:2 with lines title 'DOS'
-22.862600 0.000000
-22.819000 0.000000
-22.775400 0.000000
-22.731900 0.000000
-22.688300 0.000000
-22.644700 0.000000
-22.601100 0.000000
-22.557500 0.000000
-22.513900 0.000000
-22.470300 0.000000
-22.426700 0.000000
-22.383100 0.000000
-22.339500 0.000000
-22.295900 0.000000
-22.252300 0.000000
-22.208700 0.000000
-22.165200 0.000000
-22.121600 0.000000
-22.078000 0.000000
-22.034400 0.000000
-21.990800 0.000000
-21.947200 0.000000
-21.903600 0.000000
-21.860000 0.000000
-21.816400 0.000000
-21.772800 0.000000
-21.729200 0.000000
-21.685600 0.000000
-21.642000 0.000000
-21.598400 0.000000
-21.554900 0.000000
-21.511300 0.000000
-21.467700 0.000000
-21.424100 0.000000
-21.380500 0.000000
-21.336900 0.000000
-21.293300 0.000000
-21.249700 0.000000
-21.206100 0.000000
-21.162500 0.000000
-21.118900 0.000000
-21.075300 0.000000
-21.031700 0.000000
-20.988200 0.000000
-20.944600 0.000000
-20.901000 0.000000
-20.857400 0.000000
-20.813800 0.000000
-20.770200 0.000000
-20.726600 0.000000
-20.683000 0.000000
-20.639400 0.000000
-20.595800 0.000000
-20.552200 0.000000
-20.508600 0.000000
-20.465000 0.000000
-20.421500 0.000000
-20.377900 0.000000
-20.334300 0.000000
-20.290700 0.000000
-20.247100 0.000000
-20.203500 0.000000
-20.159900 0.000000
-20.116300 0.000000
-20.072700 0.000000
-20.029100 0.000000
-19.985500 0.000000
-19.941900 0.000000
-19.898300 0.000000
-19.854700 0.000000
-19.811200 0.000000
-19.767600 0.000000
-19.724000 0.000000
-19.680400 0.000000
-19.636800 0.000000
-19.593200 0.000000
-19.549600 0.000000
-19.506000 0.000000
-19.462400 0.000000
-19.418800 0.000000
-19.375200 0.000000
-19.331600 0.000000
-19.288000 0.000000
-19.244500 0.000000
-19.200900 0.000000
-19.157300 0.000000
-19.113700 0.000000
-19.070100 0.000000
-19.026500 0.000000
-18.982900 0.000000
-18.939300 0.000000
-18.895700 0.062000
-18.852100 0.144400
-18.808500 0.203000
-18.764900 0.240700
-18.721300 0.281500
-18.677700 0.322600
-18.634200 0.353500
-18.590600 0.383000
-18.547000 0.415500
-18.503400 0.452100
-18.459800 0.485900
-18.416200 0.516000
-18.372600 0.548000
-18.329000 0.583600
-18.285400 0.621400
-18.241800 0.661000
-18.198200 0.705000
-18.154600 0.754500
-18.111000 0.807200
-18.067500 0.889000
-18.023900 0.982900
-17.980300 1.017300
-17.936700 1.025300
-17.893100 1.062600
-17.849500 1.098500
-17.805900 1.125600
-17.762300 1.161900
-17.718700 1.254800
-17.675100 1.251100
-17.631500 1.217800
-17.587900 1.205400
-17.544300 1.192100
-17.500800 1.173100
-17.457200 1.151200
-17.413600 1.134600
-17.370000 1.117800
-17.326400 1.100700
-17.282800 1.085800
-17.239200 1.064300
-17.195600 1.051900
-17.152000 1.035700
-17.108400 1.002000
-17.064800 0.982100
-17.021200 0.865600
-16.977600 0.771200
-16.934000 0.702000
-16.890500 0.652700
-16.846900 0.605900
-16.803300 0.558400
-16.759700 0.526500
-16.716100 0.496300
-16.672500 0.468100
-16.628900 0.441100
-16.585300 0.413900
-16.541700 0.387800
-16.498100 0.365400
-16.454500 0.343800
-16.410900 0.324300
-16.367300 0.304900
-16.323800 0.285800
-16.280200 0.266400
-16.236600 0.247600
-16.193000 0.231000
-16.149400 0.234500
-16.105800 0.196600
-16.062200 0.172900
-16.018600 0.156100
-15.975000 0.138300
-15.931400 0.123100
-15.887800 0.108100
-15.844200 0.094800
-15.800600 0.082400
-15.757100 0.071500
-15.713500 0.237500
-15.669900 0.322400
-15.626300 0.384000
-15.582700 0.464900
-15.539100 0.511400
-15.495500 0.611200
-15.451900 0.740900
-15.408300 1.036400
-15.364700 1.012800
-15.321100 1.019200
-15.277500 1.026700
-15.233900 1.052800
-15.190300 1.105100
-15.146800 1.113200
-15.103200 1.144700
-15.059600 1.180100
-15.016000 1.226600
-14.972400 1.288600
-14.928800 1.346400
-14.885200 1.430700
-14.841600 1.569400
-14.798000 1.680500
-14.754400 1.692600
-14.710800 1.711900
-14.667200 1.749200
-14.623600 1.476900
-14.580100 1.378000
-14.536500 1.318900
-14.492900 1.227400
-14.449300 1.188500
-14.405700 1.153100
-14.362100 1.126700
-14.318500 1.112800
-14.274900 1.089500
-14.231300 1.081200
-14.187700 1.063900
-14.144100 1.043700
-14.100500 1.022800
-14.056900 1.018500
-14.013400 1.032500
-13.969800 1.016500
-13.926200 0.992200
-13.882600 0.904800
-13.839000 0.847100
-13.795400 0.798900
-13.751800 0.764100
-13.708200 0.735000
-13.664600 0.709900
-13.621000 0.683600
-13.577400 0.642200
-13.533800 0.609200
-13.490200 0.584300
-13.446600 0.558400
-13.403100 0.497800
-13.359500 0.381100
-13.315900 0.388000
-13.272300 0.398900
-13.228700 0.408200
-13.185100 0.417200
-13.141500 0.426000
-13.097900 0.435000
-13.054300 0.444400
-13.010700 0.454000
-12.967100 0.464400
-12.923500 0.475200
-12.879900 0.486400
-12.836400 0.503300
-12.792800 0.520000
-12.749200 0.535600
-12.705600 0.550100
-12.662000 0.564500
-12.618400 0.579700
-12.574800 0.597600
-12.531200 0.613100
-12.487600 0.628600
-12.444000 0.644200
-12.400400 0.660200
-12.356800 0.680600
-12.313200 0.736600
-12.269700 0.789200
-12.226100 0.836400
-12.182500 0.882600
-12.138900 0.925700
-12.095300 0.967600
-12.051700 1.282200
-12.008100 1.194000
-11.964500 1.135600
-11.920900 1.097500
-11.877300 1.057100
-11.833700 1.037500
-11.790100 1.029600
-11.746500 1.008600
-11.702900 0.982700
-11.659400 0.957100
-11.615800 0.932900
-11.572200 0.902500
-11.528600 0.923300
-11.485000 0.780100
-11.441400 0.665400
-11.397800 0.591800
-11.354200 0.529700
-11.310600 0.481500
-11.267000 0.416700
-11.223400 0.363400
-11.179800 0.333000
-11.136200 0.302500
-11.092700 0.273300
-11.049100 0.248100
-11.005500 0.224000
-10.961900 0.201800
-10.918300 0.183100
-10.874700 0.164700
-10.831100 0.147500
-10.787500 0.130500
-10.743900 0.115600
-10.700300 0.103400
-10.656700 0.081600
-10.613100 0.062000
-10.569500 0.048100
-10.525900 0.000000
-10.482400 0.000000
-10.438800 0.000000
-10.395200 0.000000
-10.351600 0.000000
-10.308000 0.000000
-10.264400 0.000000
-10.220800 0.000000
-10.177200 0.000000
-10.133600 0.000000
-10.090000 0.000000
-10.046400 0.000000
-10.002800 0.000000
-9.959200 0.000000
-9.915700 0.000000
-9.872100 0.000000
-9.828500 0.000000
-9.784900 0.000000
-9.741300 0.000000
-9.697700 0.000000
-9.654100 0.000000
-9.610500 0.000000
-9.566900 0.000000
-9.523300 0.000000
-9.479700 0.000000
-9.436100 0.000000
-9.392500 0.000000
-9.349000 0.000000
-9.305400 0.000000
-9.261800 0.000000
-9.218200 0.000000
-9.174600 0.000000
-9.131000 0.000000
-9.087400 0.000000
-9.043800 0.000000
-9.000200 0.000000
-8.956600 0.000000
-8.913000 0.000000
-8.869400 0.000000
-8.825800 0.000000
-8.782200 0.000000
-8.738700 0.000000
-8.695100 0.000000
-8.651500 0.000000
-8.607900 0.000000
-8.564300 0.000000
-8.520700 0.000000
-8.477100 0.000000
-8.433500 0.000000
-8.389900 0.000000
-8.346300 0.000000
-8.302700 0.000000
-8.259100 0.000000
-8.215500 0.000000
-8.172000 0.000000
-8.128400 0.035000
-8.084800 0.055400
-8.041200 0.072300
-7.997600 0.092700
-7.954000 0.097100
-7.910400 0.106100
-7.866800 0.116400
-7.823200 0.124800
-7.779600 0.134900
-7.736000 0.145400
-7.692400 0.153800
-7.648800 0.162300
-7.605300 0.170500
-7.561700 0.179300
-7.518100 0.186600
-7.474500 0.194500
-7.430900 0.202300
-7.387300 0.211900
-7.343700 0.221600
-7.300100 0.231800
-7.256500 0.240200
-7.212900 0.249100
-7.169300 0.258200
-7.125700 0.267200
-7.082100 0.277100
-7.038500 0.287300
-6.995000 0.297800
-6.951400 0.308400
-6.907800 0.356500
-6.864200 0.402400
-6.820600 0.437700
-6.777000 0.475000
-6.733400 0.516400
-6.689800 0.553000
-6.646200 0.579400
-6.602600 0.610300
-6.559000 0.643400
-6.515400 0.678500
-6.471800 0.722100
-6.428300 0.764100
-6.384700 0.820400
-6.341100 0.872300
-6.297500 0.931100
-6.253900 0.997600
-6.210300 1.075100
-6.166700 1.160900
-6.123100 1.329400
-6.079500 1.415900
-6.035900 1.541100
-5.992300 1.721500
-5.948700 1.978700
-5.905100 2.231700
-5.861600 2.225100
-5.818000 2.350500
-5.774400 1.906700
-5.730800 1.418000
-5.687200 1.087600
-5.643600 0.917400
-5.600000 0.817100
-5.556400 0.734300
-5.512800 0.648300
-5.469200 0.589000
-5.425600 0.532000
-5.382000 0.481700
-5.338400 0.438500
-5.294800 0.406600
-5.251300 0.400700
-5.207700 0.606300
-5.164100 0.661700
-5.120500 0.775700
-5.076900 0.589700
-5.033300 0.208200
-4.989700 0.260800
-4.946100 0.614000
-4.902500 0.668100
-4.858900 0.558700
-4.815300 0.539000
-4.771700 0.568600
-4.728100 0.618700
-4.684600 0.680100
-4.641000 0.755300
-4.597400 0.921700
-4.553800 1.027400
-4.510200 1.124000
-4.466600 1.321700
-4.423000 1.281300
-4.379400 1.260700
-4.335800 1.233300
-4.292200 1.202800
-4.248600 1.208900
-4.205000 1.222500
-4.161400 1.230500
-4.117900 1.258000
-4.074300 1.020900
-4.030700 0.994300
-3.987100 0.945000
-3.943500 0.896500
-3.899900 0.872500
-3.856300 0.834300
-3.812700 0.820200
-3.769100 0.801200
-3.725500 0.781600
-3.681900 0.751100
-3.638300 0.769000
-3.594700 0.779100
-3.551100 0.772300
-3.507600 0.770600
-3.464000 0.769500
-3.420400 0.772700
-3.376800 0.777000
-3.333200 0.781100
-3.289600 0.785700
-3.246000 0.846600
-3.202400 0.882100
-3.158800 0.903900
-3.115200 0.959200
-3.071600 1.033800
-3.028000 1.123800
-2.984400 1.383900
-2.940900 1.336900
-2.897300 1.269900
-2.853700 1.210500
-2.810100 1.167100
-2.766500 1.134000
-2.722900 1.182300
-2.679300 1.227500
-2.635700 1.275900
-2.592100 1.374700
-2.548500 1.435300
-2.504900 1.464200
-2.461300 1.332200
-2.417700 1.297900
-2.374200 1.136200
-2.330600 1.022200
-2.287000 1.017500
-2.243400 1.030000
-2.199800 1.041800
-2.156200 1.058100
-2.112600 1.078200
-2.069000 1.080800
-2.025400 1.106800
-1.981800 1.055300
-1.938200 1.050900
-1.894600 1.066900
-1.851000 1.080700
-1.807400 1.136200
-1.763900 1.437600
-1.720300 1.697800
-1.676700 1.820200
-1.633100 1.906100
-1.589500 1.742500
-1.545900 1.660100
-1.502300 1.671700
-1.458700 1.705000
-1.415100 1.700200
-1.371500 1.682100
-1.327900 1.658900
-1.284300 1.637500
-1.240700 1.652900
-1.197200 1.678700
-1.153600 1.719300
-1.110000 1.774100
-1.066400 1.783400
-1.022800 1.796500
-0.979200 1.944300
-0.935600 2.044700
-0.892000 2.173800
-0.848400 2.064200
-0.804800 1.976200
-0.761200 1.884500
-0.717600 1.802800
-0.674000 1.791800
-0.630400 1.736400
-0.586900 1.789000
-0.543300 1.788500
-0.499700 1.835900
-0.456100 1.900700
-0.412500 2.125800
-0.368900 2.253800
-0.325300 2.204300
-0.281700 2.385800
-0.238100 2.311200
-0.194500 2.358400
-0.150900 2.382000
-0.107300 2.443000
-0.063700 2.424300
-0.020200 2.435800
0.023400 2.449200
0.067000 2.415600
0.110600 2.419400
0.154200 2.430200
0.197800 2.443600
0.241400 2.470700
0.285000 2.531900
0.328600 2.476500
0.372200 2.313000
0.415800 2.289400
0.459400 2.264500
0.503000 2.299800
0.546500 2.280700
0.590100 2.274600
0.633700 2.257300
0.677300 2.282700
0.720900 2.155200
0.764500 2.108600
0.808100 2.126200
0.851700 2.101800
0.895300 2.301300
0.938900 2.408300
0.982500 2.387500
1.026100 2.476200
1.069700 2.634300
1.113300 2.579400
1.156800 2.633500
1.200400 2.727100
1.244000 2.981000
1.287600 3.356100
1.331200 2.791600
1.374800 2.754500
1.418400 2.672600
1.462000 2.624700
1.505600 2.425900
1.549200 2.359900
1.592800 2.350700
1.636400 2.373500
1.680000 2.505100
1.723500 2.313200
1.767100 2.318600
1.810700 2.271200
1.854300 2.391500
1.897900 2.228900
1.941500 2.127100
1.985100 2.098400
2.028700 2.138100
2.072300 2.428300
2.115900 2.374000
2.159500 2.348400
2.203100 2.488400
2.246700 2.643600
2.290200 2.804200
2.333800 3.050700
2.377400 2.309700
2.421000 1.881200
2.464600 1.747100
2.508200 1.388200
2.551800 1.034400
2.595400 0.998700
2.639000 1.000000
2.682600 0.987000
2.726200 1.049700
2.769800 1.223100
2.813400 3.030400
2.857000 1.923200
2.900500 1.887900
2.944100 2.276000
2.987700 1.738000
3.031300 1.925700
3.074900 2.169500
3.118500 2.438500
3.162100 2.369100
3.205700 2.199000
3.249300 2.081400
3.292900 1.984700
3.336500 1.978000
3.380100 1.875800
3.423700 1.878500
3.467200 1.781800
3.510800 1.627400
3.554400 1.466400
3.598000 1.230600
3.641600 1.311400
3.685200 0.946700
3.728800 0.884800
3.772400 0.926800
3.816000 0.960400
3.859600 0.975800
3.903200 1.113800
3.946800 1.148100
3.990400 1.247400
4.033900 1.276200
4.077500 1.311100
4.121100 1.332300
4.164700 1.370300
4.208300 1.409400
4.251900 1.436300
4.295500 1.436500
4.339100 1.485000
4.382700 1.552200
4.426300 1.542900
4.469900 1.538300
4.513500 1.531600
4.557100 1.497100
4.600700 1.521200
4.644200 1.603200
4.687800 1.663100
4.731400 1.709600
4.775000 1.765300
4.818600 1.806000
4.862200 1.891200
4.905800 1.956800
4.949400 2.135000
4.993000 2.305000
5.036600 2.606300
5.080200 2.648300
5.123800 2.596500
5.167400 2.550300
5.210900 2.590400
5.254500 2.655200
5.298100 2.333900
5.341700 2.163000
5.385300 2.083600
5.428900 2.059500
5.472500 2.017600
5.516100 2.030200
5.559700 2.062300
5.603300 2.228000
5.646900 2.241600
5.690500 2.236500
5.734100 2.274500
5.777600 2.382500
5.821200 2.445300
5.864800 2.566100
5.908400 2.838300
5.952000 3.167200
5.995600 3.459900
6.039200 2.886300
6.082800 2.716700
6.126400 2.673500
6.170000 2.834400
6.213600 3.316900
6.257200 3.008300
6.300800 2.899600
6.344400 2.910100
6.387900 2.861100
6.431500 3.041800
6.475100 3.087300
6.518700 3.163800
6.562300 3.327300
6.605900 4.033400
6.649500 3.738400
6.693100 3.655500
6.736700 4.036500
6.780300 4.182600
6.823900 4.918200
6.867500 3.355700
6.911100 2.828200
6.954600 2.393900
6.998200 2.037800
7.041800 1.801800
7.085400 1.593600
7.129000 1.442400
7.172600 1.348900
7.216200 1.254800
7.259800 1.176500
7.303400 1.147000
7.347000 1.092600
7.390600 1.084700
7.434200 1.089900
7.477800 1.095200
7.521300 1.107600
7.564900 1.209000
7.608500 1.703600
7.652100 1.797600
7.695700 1.836800
7.739300 1.921000
7.782900 1.937300
7.826500 1.913900
7.870100 2.975700
7.913700 7.336200
7.957300 0.977000
8.000900 0.590100
8.044500 0.379300
8.088100 0.000000
8.131600 0.000000
8.175200 0.000000
8.218800 0.000000
8.262400 0.000000
8.306000 0.000000
8.349600 0.000000
8.393200 0.000000
8.436800 0.000000
8.480400 0.000000
8.524000 0.000000
8.567600 0.000000
8.611200 0.000000
8.654800 0.000000
8.698300 0.000000
8.741900 0.000000
8.785500 0.000000
8.829100 0.000000
8.872700 0.000000
8.916300 0.000000
8.959900 0.000000
9.003500 0.000000
9.047100 0.000000
9.090700 0.000000
9.134300 0.000000
9.177900 0.000000
9.221500 0.000000
9.265100 0.000000
9.308600 0.000000
9.352200 0.000000
9.395800 0.000000
9.439400 0.000000
9.483000 0.000000
9.526600 0.000000
9.570200 0.000000
9.613800 0.000000
9.657400 0.000000
9.701000 0.000000
9.744600 0.000000
9.788200 0.000000
9.831800 0.000000
9.875300 0.000000
9.918900 0.000000
9.962500 0.000000
10.006100 0.000000
10.049700 0.000000
10.093300 0.000000
10.136900 0.000000
10.180500 0.000000
10.224100 0.000000
10.267700 0.000000
10.311300 0.000000
10.354900 0.000000
10.398500 0.000000
10.442000 0.000000
10.485600 0.000000
10.529200 0.000000
10.572800 0.000000
10.616400 0.000000
10.660000 0.000000
10.703600 0.000000
10.747200 0.000000
10.790800 0.000000
10.834400 0.000000
10.878000 0.000000
10.921600 0.000000
10.965200 0.000000
11.008800 0.000000
11.052300 0.000000
11.095900 0.000000
11.139500 0.000000
11.183100 0.000000
11.226700 0.000000
11.270300 0.000000
11.313900 0.000000
11.357500 0.000000
11.401100 0.000000
11.444700 0.000000
11.488300 0.000000
11.531900 0.000000
11.575500 0.000000
11.619000 0.000000
11.662600 0.000000
11.706200 0.000000
11.749800 0.000000
11.793400 0.000000
11.837000 0.000000
11.880600 0.000000
11.924200 0.000000
11.967800 0.000000
12.011400 0.000000
12.055000 0.000000
12.098600 0.000000
12.142200 0.000000
12.185700 0.000000
12.229300 0.000000
12.272900 0.000000
12.316500 0.000000
12.360100 0.000000
12.403700 0.000000
12.447300 0.000000
12.490900 0.000000
12.534500 0.000000
12.578100 0.000000
12.621700 0.000000
12.665300 0.000000
12.708900 0.000000
12.752500 0.000000
12.796000 0.000000
12.839600 0.000000
12.883200 0.000000
12.926800 0.000000
12.970400 0.000000
13.014000 0.000000
13.057600 0.000000
13.101200 0.000000
13.144800 0.000000
13.188400 0.000000
13.232000 0.000000
13.275600 0.000000
13.319200 0.000000
13.362700 0.000000
13.406300 0.000000
13.449900 0.000000
13.493500 0.000000
13.537100 0.000000
13.580700 0.000000
13.624300 0.000000
13.667900 0.000000
13.711500 0.000000
13.755100 0.000000
13.798700 0.000000
13.842300 0.000000
13.885900 0.000000
13.929400 0.000000
13.973000 0.000000
14.016600 0.000000
14.060200 0.000000
14.103800 0.000000
14.147400 0.000000
14.191000 0.000000
14.234600 0.000000
14.278200 0.000000
14.321800 0.000000
14.365400 0.000000
14.409000 0.000000
14.452600 0.000000
14.496200 0.000000
14.539700 0.000000
14.583300 0.000000
14.626900 0.000000
14.670500 0.000000
14.714100 0.000000
14.757700 0.000000
14.801300 0.000000
14.844900 0.000000
14.888500 0.000000
14.932100 0.000000
14.975700 0.000000
15.019300 0.000000
15.062900 0.000000
15.106400 0.000000
15.150000 0.000000
15.193600 0.000000
15.237200 0.017200
15.280800 0.024400
15.324400 0.032400
15.368000 0.041200
15.411600 0.042800
15.455200 0.047500
15.498800 0.052300
15.542400 0.057100
15.586000 0.062900
15.629600 0.069200
15.673100 0.073300
15.716700 0.076000
15.760300 0.078800
15.803900 0.081300
15.847500 0.084000
15.891100 0.087900
15.934700 0.091500
15.978300 0.095200
16.021900 0.098900
16.065500 0.102600
16.109100 0.106300
16.152700 0.110800
16.196300 0.114000
16.239900 0.117800
16.283400 0.121500
16.327000 0.125400
16.370600 0.129300
16.414200 0.132500
16.457800 0.135800
16.501400 0.139000
16.545000 0.143200
16.588600 0.147300
16.632200 0.151500
16.675800 0.156000
16.719400 0.160600
16.763000 0.164500
16.806600 0.168500
16.850100 0.173000
16.893700 0.178000
16.937300 0.183300
16.980900 0.188600
17.024500 0.194000
17.068100 0.199400
17.111700 0.205200
17.155300 0.211400
17.198900 0.221100
17.242500 0.230000
17.286100 0.239500
17.329700 0.249700
17.373300 0.260500
17.416800 0.278400
17.460400 0.377400
17.504000 0.538700
17.547600 0.556300
17.591200 0.558800
17.634800 0.535100
17.678400 0.523600
17.722000 0.512000
17.765600 0.506100
17.809200 0.504700
17.852800 0.503900
17.896400 0.503400
17.940000 0.501900
17.983600 0.503500
18.027100 0.505500
18.070700 0.575500
18.114300 0.662400
18.157900 0.647000
18.201500 0.696300
18.245100 0.742200
18.288700 0.807900
18.332300 0.882100
18.375900 0.967400
18.419500 1.190000
18.463100 1.556300
18.506700 4.078500
18.550300 1.572300
18.593800 1.353600
18.637400 1.187300
18.681000 1.078000
18.724600 1.005600
18.768200 0.941700
18.811800 0.891100
18.855400 0.851500
18.899000 0.813600
18.942600 0.808300
18.986200 0.787500
19.029800 0.749100
19.073400 0.754900
19.117000 0.745100
19.160600 0.730200
19.204100 0.698000
19.247700 0.679100
19.291300 0.657800
19.334900 0.636700
19.378500 0.618800
19.422100 0.597300
19.465700 0.571900
19.509300 0.586200
19.552900 0.525900
19.596500 0.489500
19.640100 0.505100
19.683700 0.546500
19.727300 0.538000
19.770800 0.548300
19.814400 0.561100
19.858000 0.593900
19.901600 0.670400
19.945200 0.779500
19.988800 1.033000
20.032400 1.414000
20.076000 1.621700
20.119600 1.504900
20.163200 1.907100
20.206800 2.118400
20.250400 1.583800
20.294000 1.120000
20.337500 0.910500
20.381100 0.754800
20.424700 0.663300
20.468300 0.598100
20.511900 0.583900
20.555500 0.575400
20.599100 0.559000
20.642700 0.543400
20.686300 0.533100
20.729900 0.527400
20.773500 0.612700
20.817100 0.687900
20.860700 0.735000
20.904300 0.768000
20.947800 0.799500
20.991400 0.817500
21.035000 0.820100
21.078600 0.842100
21.122200 0.871200
21.165800 0.908300
21.209400 1.002500
21.253000 1.082200
21.296600 1.125000
21.340200 1.174600
21.383800 1.221600
21.427400 1.262900
21.471000 1.317000
21.514500 1.365600
21.558100 1.491100
21.601700 1.668500
21.645300 1.674400
21.688900 1.721800
21.732500 1.779500
21.776100 1.858700
21.819700 1.926600
21.863300 2.004700
21.906900 1.907200
21.950500 1.910800
21.994100 1.886900
22.037700 1.879200
22.081200 1.888100
22.124800 1.893600
22.168400 1.870300
