set title 'mp-971950 - Density of States'
set xlabel 'Energy (eV)'
set ylabel 'DOS (states/eV)'
set grid
set xrange [-10:10]
set yrange [0:61.721]
set xzeroaxis lt -1
set terminal png size 800,600
set output 'mp-971950_dos_gnuplot.png'
plot '-' using 1:2 with lines title 'DOS'
-19.127400 0.000000
-19.101600 0.000000
-19.075700 0.000000
-19.049900 0.000000
-19.024000 0.000000
-18.998100 0.000000
-18.972300 0.000000
-18.946400 0.000000
-18.920600 0.000000
-18.894700 0.000000
-18.868900 0.000000
-18.843000 0.000000
-18.817100 0.000000
-18.791300 0.000000
-18.765400 0.000000
-18.739600 0.000000
-18.713700 0.000000
-18.687800 0.000000
-18.662000 0.000000
-18.636100 0.000000
-18.610300 0.000000
-18.584400 0.000000
-18.558600 0.000000
-18.532700 0.000000
-18.506800 0.000000
-18.481000 0.000000
-18.455100 0.000000
-18.429300 0.000000
-18.403400 0.000000
-18.377600 0.000000
-18.351700 0.000000
-18.325800 0.000000
-18.300000 0.000000
-18.274100 0.000000
-18.248300 0.000000
-18.222400 0.000000
-18.196500 0.000000
-18.170700 0.000000
-18.144800 0.000000
-18.119000 0.000000
-18.093100 0.000000
-18.067300 0.000000
-18.041400 0.000000
-18.015500 0.000000
-17.989700 0.000000
-17.963800 0.000000
-17.938000 0.000000
-17.912100 0.000000
-17.886300 0.000000
-17.860400 0.000000
-17.834500 0.000000
-17.808700 0.000000
-17.782800 0.000000
-17.757000 0.000000
-17.731100 0.000000
-17.705300 0.000000
-17.679400 0.000000
-17.653500 0.000000
-17.627700 0.000000
-17.601800 0.000000
-17.576000 0.000000
-17.550100 0.000000
-17.524200 0.000000
-17.498400 0.000000
-17.472500 0.000000
-17.446700 0.000000
-17.420800 0.000000
-17.395000 0.000000
-17.369100 0.000000
-17.343200 0.000000
-17.317400 0.000000
-17.291500 0.000000
-17.265700 0.000000
-17.239800 0.000000
-17.214000 0.000000
-17.188100 0.000000
-17.162200 0.000000
-17.136400 0.000000
-17.110500 0.000000
-17.084700 0.000000
-17.058800 0.000000
-17.032900 0.000000
-17.007100 0.000000
-16.981200 0.000000
-16.955400 0.000000
-16.929500 0.000000
-16.903700 0.000000
-16.877800 0.000000
-16.851900 0.000000
-16.826100 0.000000
-16.800200 0.000000
-16.774400 222.408800
-16.748500 69.311900
-16.722700 0.000000
-16.696800 0.000000
-16.670900 0.000000
-16.645100 0.000000
-16.619200 0.000000
-16.593400 0.000000
-16.567500 0.000000
-16.541600 0.000000
-16.515800 0.000000
-16.489900 0.000000
-16.464100 0.000000
-16.438200 0.000000
-16.412400 0.000000
-16.386500 0.000000
-16.360600 0.000000
-16.334800 0.000000
-16.308900 0.000000
-16.283100 0.000000
-16.257200 0.000000
-16.231400 0.000000
-16.205500 0.000000
-16.179600 0.000000
-16.153800 0.000000
-16.127900 0.000000
-16.102100 0.000000
-16.076200 0.000000
-16.050300 0.000000
-16.024500 0.000000
-15.998600 0.000000
-15.972800 0.000000
-15.946900 0.000000
-15.921100 0.000000
-15.895200 0.000000
-15.869300 0.000000
-15.843500 0.000000
-15.817600 0.000000
-15.791800 0.000000
-15.765900 0.000000
-15.740100 0.000000
-15.714200 0.000000
-15.688300 0.000000
-15.662500 0.000000
-15.636600 0.000000
-15.610800 0.000000
-15.584900 0.000000
-15.559000 0.000000
-15.533200 0.000000
-15.507300 0.000000
-15.481500 0.000000
-15.455600 0.000000
-15.429800 0.000000
-15.403900 0.000000
-15.378000 0.000000
-15.352200 0.000000
-15.326300 0.000000
-15.300500 0.000000
-15.274600 0.000000
-15.248800 0.000000
-15.222900 0.000000
-15.197000 0.000000
-15.171200 0.000000
-15.145300 0.000000
-15.119500 0.000000
-15.093600 0.000000
-15.067800 0.000000
-15.041900 0.000000
-15.016000 0.000000
-14.990200 0.000000
-14.964300 0.000000
-14.938500 0.000000
-14.912600 0.000000
-14.886700 0.000000
-14.860900 0.000000
-14.835000 0.000000
-14.809200 0.000000
-14.783300 0.000000
-14.757500 0.000000
-14.731600 0.000000
-14.705700 0.000000
-14.679900 0.000000
-14.654000 0.000000
-14.628200 0.000000
-14.602300 0.000000
-14.576500 0.000000
-14.550600 0.000000
-14.524700 0.000000
-14.498900 0.000000
-14.473000 0.000000
-14.447200 0.000000
-14.421300 0.000000
-14.395400 0.000000
-14.369600 0.000000
-14.343700 0.000000
-14.317900 0.000000
-14.292000 0.000000
-14.266200 0.000000
-14.240300 0.000000
-14.214400 0.000000
-14.188600 0.000000
-14.162700 0.000000
-14.136900 0.000000
-14.111000 0.000000
-14.085200 0.000000
-14.059300 0.000000
-14.033400 0.000000
-14.007600 0.000000
-13.981700 0.000000
-13.955900 0.000000
-13.930000 0.000000
-13.904100 0.000000
-13.878300 0.000000
-13.852400 0.000000
-13.826600 0.000000
-13.800700 0.000000
-13.774900 0.000000
-13.749000 0.000000
-13.723100 0.000000
-13.697300 0.000000
-13.671400 0.000000
-13.645600 0.000000
-13.619700 0.000000
-13.593900 0.000000
-13.568000 0.000000
-13.542100 0.000000
-13.516300 0.000000
-13.490400 0.000000
-13.464600 0.000000
-13.438700 0.000000
-13.412800 0.000000
-13.387000 0.000000
-13.361100 0.000000
-13.335300 0.000000
-13.309400 0.000000
-13.283600 0.000000
-13.257700 0.000000
-13.231800 0.000000
-13.206000 0.000000
-13.180100 0.000000
-13.154300 0.000000
-13.128400 0.000000
-13.102600 0.000000
-13.076700 0.000000
-13.050800 0.000000
-13.025000 0.000000
-12.999100 0.000000
-12.973300 0.000000
-12.947400 0.000000
-12.921500 0.000000
-12.895700 0.000000
-12.869800 0.000000
-12.844000 0.000000
-12.818100 0.000000
-12.792300 0.000000
-12.766400 0.000000
-12.740500 0.000000
-12.714700 0.000000
-12.688800 0.000000
-12.663000 0.000000
-12.637100 0.000000
-12.611300 0.000000
-12.585400 0.000000
-12.559500 0.000000
-12.533700 0.000000
-12.507800 0.000000
-12.482000 0.000000
-12.456100 0.000000
-12.430200 0.000000
-12.404400 0.000000
-12.378500 0.000000
-12.352700 0.000000
-12.326800 0.000000
-12.301000 0.000000
-12.275100 0.000000
-12.249200 0.000000
-12.223400 0.000000
-12.197500 0.000000
-12.171700 0.000000
-12.145800 0.000000
-12.120000 0.000000
-12.094100 0.000000
-12.068200 0.000000
-12.042400 0.000000
-12.016500 0.000000
-11.990700 0.000000
-11.964800 0.000000
-11.939000 0.000000
-11.913100 0.000000
-11.887200 0.000000
-11.861400 0.000000
-11.835500 0.000000
-11.809700 0.000000
-11.783800 0.000000
-11.757900 0.000000
-11.732100 0.000000
-11.706200 0.000000
-11.680400 0.000000
-11.654500 0.000000
-11.628700 0.000000
-11.602800 0.000000
-11.576900 0.000000
-11.551100 0.000000
-11.525200 0.000000
-11.499400 0.000000
-11.473500 0.000000
-11.447700 0.000000
-11.421800 0.000000
-11.395900 0.000000
-11.370100 0.000000
-11.344200 0.000000
-11.318400 0.000000
-11.292500 0.000000
-11.266600 0.000000
-11.240800 0.000000
-11.214900 0.000000
-11.189100 0.000000
-11.163200 0.000000
-11.137400 0.000000
-11.111500 0.000000
-11.085600 0.000000
-11.059800 0.000000
-11.033900 0.000000
-11.008100 0.000000
-10.982200 0.000000
-10.956400 0.000000
-10.930500 0.000000
-10.904600 0.000000
-10.878800 0.000000
-10.852900 0.000000
-10.827100 0.000000
-10.801200 0.000000
-10.775300 0.000000
-10.749500 0.000000
-10.723600 0.000000
-10.697800 0.000000
-10.671900 0.000000
-10.646100 0.000000
-10.620200 0.000000
-10.594300 0.000000
-10.568500 0.000000
-10.542600 0.000000
-10.516800 0.000000
-10.490900 0.000000
-10.465100 0.000000
-10.439200 0.000000
-10.413300 0.000000
-10.387500 0.000000
-10.361600 0.000000
-10.335800 0.000000
-10.309900 0.000000
-10.284000 0.000000
-10.258200 0.000000
-10.232300 0.000000
-10.206500 0.000000
-10.180600 0.000000
-10.154800 0.000000
-10.128900 0.000000
-10.103000 0.000000
-10.077200 0.000000
-10.051300 0.000000
-10.025500 0.000000
-9.999600 0.000000
-9.973800 0.000000
-9.947900 0.000000
-9.922000 0.000000
-9.896200 0.000000
-9.870300 0.000000
-9.844500 0.000000
-9.818600 0.000000
-9.792700 0.000000
-9.766900 0.000000
-9.741000 0.000000
-9.715200 0.000000
-9.689300 0.000000
-9.663500 0.000000
-9.637600 0.000000
-9.611700 0.000000
-9.585900 0.000000
-9.560000 0.000000
-9.534200 0.000000
-9.508300 0.000000
-9.482500 0.000000
-9.456600 0.000000
-9.430700 0.000000
-9.404900 0.000000
-9.379000 0.000000
-9.353200 0.000000
-9.327300 0.000000
-9.301500 0.000000
-9.275600 0.000000
-9.249700 0.000000
-9.223900 0.000000
-9.198000 0.000000
-9.172200 0.000000
-9.146300 0.000000
-9.120400 0.000000
-9.094600 0.000000
-9.068700 0.000000
-9.042900 0.000000
-9.017000 0.000000
-8.991200 0.000000
-8.965300 0.000000
-8.939400 0.000000
-8.913600 0.000000
-8.887700 0.000000
-8.861900 0.000000
-8.836000 0.000000
-8.810200 0.000000
-8.784300 0.000000
-8.758400 0.000000
-8.732600 0.000000
-8.706700 0.000000
-8.680900 0.000000
-8.655000 0.000000
-8.629100 0.000000
-8.603300 0.000000
-8.577400 0.000000
-8.551600 0.000000
-8.525700 0.000000
-8.499900 0.000000
-8.474000 0.000000
-8.448100 0.000000
-8.422300 0.000000
-8.396400 0.000000
-8.370600 0.000000
-8.344700 0.000000
-8.318900 0.000000
-8.293000 0.000000
-8.267100 0.000000
-8.241300 0.000000
-8.215400 0.000000
-8.189600 0.000000
-8.163700 0.000000
-8.137800 0.000000
-8.112000 0.000000
-8.086100 0.000000
-8.060300 0.000000
-8.034400 0.000000
-8.008600 0.000000
-7.982700 0.000000
-7.956800 0.000000
-7.931000 0.000000
-7.905100 0.000000
-7.879300 0.000000
-7.853400 0.000000
-7.827600 0.000000
-7.801700 0.000000
-7.775800 0.000000
-7.750000 0.000000
-7.724100 0.000000
-7.698300 0.000000
-7.672400 0.000000
-7.646500 0.000000
-7.620700 0.000000
-7.594800 0.000000
-7.569000 0.000000
-7.543100 0.000000
-7.517300 0.000000
-7.491400 0.000000
-7.465500 0.000000
-7.439700 0.000000
-7.413800 0.000000
-7.388000 0.000000
-7.362100 0.000000
-7.336300 0.000000
-7.310400 0.000000
-7.284500 0.000000
-7.258700 0.000000
-7.232800 0.000000
-7.207000 0.000000
-7.181100 0.000000
-7.155200 0.000000
-7.129400 0.000000
-7.103500 0.000000
-7.077700 0.000000
-7.051800 0.000000
-7.026000 0.000000
-7.000100 0.000000
-6.974200 0.000000
-6.948400 0.000000
-6.922500 0.000000
-6.896700 0.000000
-6.870800 0.000000
-6.845000 0.000000
-6.819100 0.000000
-6.793200 0.000000
-6.767400 0.000000
-6.741500 0.000000
-6.715700 0.000000
-6.689800 0.000000
-6.664000 0.000000
-6.638100 0.000000
-6.612200 0.000000
-6.586400 0.000000
-6.560500 0.000000
-6.534700 0.000000
-6.508800 0.000000
-6.482900 0.000000
-6.457100 0.000000
-6.431200 0.000000
-6.405400 0.000000
-6.379500 0.000000
-6.353700 0.000000
-6.327800 0.000000
-6.301900 0.000000
-6.276100 0.000000
-6.250200 0.000000
-6.224400 0.000000
-6.198500 0.000000
-6.172700 0.000000
-6.146800 0.000000
-6.120900 0.000000
-6.095100 0.000000
-6.069200 0.000000
-6.043400 0.000000
-6.017500 0.000000
-5.991600 0.000000
-5.965800 0.000000
-5.939900 0.000000
-5.914100 0.000000
-5.888200 0.000000
-5.862400 0.001600
-5.836500 0.025400
-5.810600 0.077900
-5.784800 0.128800
-5.758900 0.159300
-5.733100 0.173000
-5.707200 0.190100
-5.681400 0.210500
-5.655500 0.224200
-5.629600 0.243600
-5.603800 0.265000
-5.577900 0.286800
-5.552100 0.303300
-5.526200 0.312400
-5.500300 0.319300
-5.474500 0.335600
-5.448600 0.348300
-5.422800 0.359600
-5.396900 0.371200
-5.371100 0.382700
-5.345200 0.395200
-5.319300 0.408600
-5.293500 0.422400
-5.267600 0.437300
-5.241800 0.453300
-5.215900 0.468900
-5.190100 0.481000
-5.164200 0.492200
-5.138300 0.502700
-5.112500 0.513200
-5.086600 0.525500
-5.060800 0.538400
-5.034900 0.551400
-5.009000 0.564500
-4.983200 0.577500
-4.957300 0.592400
-4.931500 0.607400
-4.905600 0.623300
-4.879800 0.640000
-4.853900 0.657600
-4.828000 0.678200
-4.802200 0.699000
-4.776300 0.721000
-4.750500 0.743900
-4.724600 0.771500
-4.698800 0.799100
-4.672900 0.833700
-4.647000 0.873100
-4.621200 0.901200
-4.595300 0.917900
-4.569500 0.929400
-4.543600 0.946900
-4.517700 0.976200
-4.491900 0.997500
-4.466000 1.014100
-4.440200 1.026000
-4.414300 1.040400
-4.388500 1.058200
-4.362600 1.080600
-4.336700 1.107800
-4.310900 1.135400
-4.285000 1.163500
-4.259200 1.200300
-4.233300 1.248700
-4.207500 1.307400
-4.181600 1.375200
-4.155700 1.460100
-4.129900 1.558500
-4.104000 1.670100
-4.078200 1.875700
-4.052300 2.069800
-4.026400 2.230700
-4.000600 2.372800
-3.974700 2.516300
-3.948900 2.748900
-3.923000 2.808200
-3.897200 2.544600
-3.871300 2.498900
-3.845400 2.414300
-3.819600 2.827200
-3.793700 3.077700
-3.767900 1.068500
-3.742000 0.000000
-3.716200 0.000000
-3.690300 0.000000
-3.664400 0.000000
-3.638600 0.000000
-3.612700 0.000000
-3.586900 0.000000
-3.561000 0.000000
-3.535200 0.000000
-3.509300 0.000000
-3.483400 0.000000
-3.457600 0.000000
-3.431700 0.000000
-3.405900 0.000000
-3.380000 0.000000
-3.354100 0.000000
-3.328300 0.000000
-3.302400 0.000000
-3.276600 0.000000
-3.250700 0.000000
-3.224900 0.000000
-3.199000 0.000000
-3.173100 0.156900
-3.147300 0.745900
-3.121400 1.040400
-3.095600 1.548000
-3.069700 2.544600
-3.043900 5.360400
-3.018000 8.264200
-2.992100 16.903000
-2.966300 22.083600
-2.940400 16.524400
-2.914600 19.531100
-2.888700 39.114700
-2.862800 54.731600
-2.837000 48.670500
-2.811100 51.201900
-2.785300 48.487100
-2.759400 31.596000
-2.733600 23.606900
-2.707700 28.134600
-2.681800 32.444700
-2.656000 42.248300
-2.630100 48.977500
-2.604300 31.671900
-2.578400 29.632000
-2.552600 56.110200
-2.526700 41.938900
-2.500800 33.051000
-2.475000 55.117800
-2.449100 54.696300
-2.423300 43.820100
-2.397400 42.120200
-2.371500 41.476300
-2.345700 43.808100
-2.319800 26.172200
-2.294000 30.781800
-2.268100 14.642400
-2.242300 16.251600
-2.216400 10.491800
-2.190500 7.446500
-2.164700 5.405700
-2.138800 3.413100
-2.113000 2.055500
-2.087100 1.740100
-2.061300 1.554500
-2.035400 1.385500
-2.009500 1.163900
-1.983700 1.051800
-1.957800 0.996900
-1.932000 0.942800
-1.906100 0.888000
-1.880200 0.823600
-1.854400 0.770300
-1.828500 0.737600
-1.802700 0.718100
-1.776800 0.706000
-1.751000 0.696300
-1.725100 0.683100
-1.699200 0.667300
-1.673400 0.675600
-1.647500 0.734100
-1.621700 0.840900
-1.595800 0.914000
-1.570000 0.936200
-1.544100 1.019800
-1.518200 0.988200
-1.492400 1.041600
-1.466500 1.082300
-1.440700 1.126000
-1.414800 1.180000
-1.388900 1.249600
-1.363100 1.325500
-1.337200 1.377900
-1.311400 1.337700
-1.285500 1.240400
-1.259700 1.058900
-1.233800 1.019800
-1.207900 1.025300
-1.182100 1.026000
-1.156200 1.018600
-1.130400 1.011200
-1.104500 1.002400
-1.078700 0.976100
-1.052800 0.953800
-1.026900 0.955900
-1.001100 0.959300
-0.975200 0.963800
-0.949400 0.968900
-0.923500 0.974600
-0.897700 0.980800
-0.871800 0.987300
-0.845900 0.990900
-0.820100 0.993800
-0.794200 0.997800
-0.768400 1.004700
-0.742500 1.016400
-0.716600 1.033500
-0.690800 1.057200
-0.664900 1.078900
-0.639100 1.098500
-0.613200 1.116500
-0.587400 1.122200
-0.561500 1.122900
-0.535600 1.127800
-0.509800 1.133800
-0.483900 1.139500
-0.458100 1.143900
-0.432200 1.145000
-0.406400 1.145400
-0.380500 1.145700
-0.354600 1.146000
-0.328800 1.143100
-0.302900 1.140400
-0.277100 1.133000
-0.251200 1.124900
-0.225300 1.117900
-0.199500 1.127800
-0.173600 1.136900
-0.147800 1.144100
-0.121900 1.225200
-0.096100 1.197900
-0.070200 1.160700
-0.044300 1.133300
-0.018500 1.120100
0.007400 1.112900
0.033200 1.108500
0.059100 1.095900
0.084900 1.133000
0.110800 1.078700
0.136700 1.081800
0.162500 1.084000
0.188400 1.086700
0.214200 1.092000
0.240100 1.098400
0.266000 1.104100
0.291800 1.109400
0.317700 1.115200
0.343500 1.120300
0.369400 1.133300
0.395200 1.147100
0.421100 1.163500
0.447000 1.182100
0.472800 1.185700
0.498700 1.139700
0.524500 1.140000
0.550400 1.152900
0.576200 1.152500
0.602100 1.151700
0.628000 1.149700
0.653800 1.149200
0.679700 1.149100
0.705500 1.148700
0.731400 1.150700
0.757300 1.153600
0.783100 1.157800
0.809000 1.162900
0.834800 1.168200
0.860700 1.193500
0.886500 1.225400
0.912400 1.248300
0.938300 1.244700
0.964100 1.257700
0.990000 1.283900
1.015800 1.268500
1.041700 1.283800
1.067500 1.307000
1.093400 1.362900
1.119300 1.385500
1.145100 1.372400
1.171000 1.362300
1.196800 1.368200
1.222700 1.360300
1.248600 1.361300
1.274400 1.346600
1.300300 1.335800
1.326100 1.325600
1.352000 1.326600
1.377800 1.329100
1.403700 1.331400
1.429600 1.333100
1.455400 1.348400
1.481300 1.338400
1.507100 1.330400
1.533000 1.323800
1.558800 1.315300
1.584700 1.297200
1.610600 1.277800
1.636400 1.261300
1.662300 1.251200
1.688100 1.246700
1.714000 1.251100
1.739800 1.267500
1.765700 1.282200
1.791600 1.348300
1.817400 1.335400
1.843300 1.240100
1.869100 1.168200
1.895000 1.123400
1.920900 1.075000
1.946700 1.078300
1.972600 1.053000
1.998400 1.043900
2.024300 1.041400
2.050100 1.078000
2.076000 1.079600
2.101900 1.113800
2.127700 1.132500
2.153600 1.204000
2.179400 1.101000
2.205300 1.074000
2.231100 1.084400
2.257000 1.120000
2.282900 1.209000
2.308700 1.263800
2.334600 1.303500
2.360400 1.342700
2.386300 1.374500
2.412200 1.395100
2.438000 1.401700
2.463900 1.404100
2.489700 1.397300
2.515600 1.381200
2.541400 1.365300
2.567300 1.359900
2.593200 1.368800
2.619000 1.373400
2.644900 1.394800
2.670700 1.390100
2.696600 1.433200
2.722400 1.443000
2.748300 1.443000
2.774200 1.442700
2.800000 1.442300
2.825900 1.439100
2.851700 1.419000
2.877600 1.393800
2.903500 1.408200
2.929300 1.446700
2.955200 1.484700
2.981000 1.508600
3.006900 1.486600
3.032700 1.463800
3.058600 1.492000
3.084500 1.489600
3.110300 1.477400
3.136200 1.474300
3.162000 1.499500
3.187900 1.484500
3.213700 1.457300
3.239600 1.408600
3.265500 1.400500
3.291300 1.409600
3.317200 1.434900
3.343000 1.458700
3.368900 1.478000
3.394800 1.498700
3.420600 1.489700
3.446500 1.463500
3.472300 1.417800
3.498200 1.365100
3.524000 1.348600
3.549900 1.341300
3.575800 1.339300
3.601600 1.337400
3.627500 1.339400
3.653300 1.345800
3.679200 1.353100
3.705000 1.341900
3.730900 1.322300
3.756800 1.295600
3.782600 1.278900
3.808500 1.267600
3.834300 1.255700
3.860200 1.243500
3.886100 1.232900
3.911900 1.221300
3.937800 1.212400
3.963600 1.212100
3.989500 1.226400
4.015300 1.240900
4.041200 1.256600
4.067100 1.269500
4.092900 1.278500
4.118800 1.280100
4.144600 1.271800
4.170500 1.339400
4.196300 1.260500
4.222200 1.272100
4.248100 1.288600
4.273900 1.320300
4.299800 1.359300
4.325600 1.338300
4.351500 1.342900
4.377400 1.361000
4.403200 1.359700
4.429100 1.409200
4.454900 1.412100
4.480800 1.433400
4.506600 1.462600
4.532500 1.493600
4.558400 1.523600
4.584200 1.549500
4.610100 1.575500
4.635900 1.581800
4.661800 1.596200
4.687600 1.606700
4.713500 1.611400
4.739400 1.607500
4.765200 1.605900
4.791100 1.607900
4.816900 1.602100
4.842800 1.556500
4.868600 1.518000
4.894500 1.525000
4.920400 1.537600
4.946200 1.558700
4.972100 1.573700
4.997900 1.580100
5.023800 1.586500
5.049700 1.588700
5.075500 1.582400
5.101400 1.584000
5.127200 1.582400
5.153100 1.588700
5.178900 1.594900
5.204800 1.598900
5.230700 1.566600
5.256500 1.532600
5.282400 1.471700
5.308200 1.447500
5.334100 1.428200
5.359900 1.411700
5.385800 1.398400
5.411700 1.391400
5.437500 1.390000
5.463400 1.396500
5.489200 1.408400
5.515100 1.404500
5.541000 1.416900
5.566800 1.391100
5.592700 1.394500
5.618500 1.398200
5.644400 1.399600
5.670200 1.401900
5.696100 1.407900
5.722000 1.418500
5.747800 1.434300
5.773700 1.453500
5.799500 1.468700
5.825400 1.481500
5.851200 1.499700
5.877100 1.524800
5.903000 1.557500
5.928800 1.520900
5.954700 1.522700
5.980500 1.533300
6.006400 1.548800
6.032300 1.572300
6.058100 1.593100
6.084000 1.618900
6.109800 1.640100
6.135700 1.662600
6.161500 1.686600
6.187400 1.702100
6.213300 1.743800
6.239100 1.770700
6.265000 1.788600
6.290800 1.798600
6.316700 1.799800
6.342500 1.784000
6.368400 1.767500
6.394300 1.758800
6.420100 1.752900
6.446000 1.741500
6.471800 1.727600
6.497700 1.736200
6.523600 1.706700
6.549400 1.684500
6.575300 1.670600
6.601100 1.661200
6.627000 1.647900
6.652800 1.632600
6.678700 1.615600
6.704600 1.602900
6.730400 1.594800
6.756300 1.590900
6.782100 1.589300
6.808000 1.590100
6.833800 1.592500
6.859700 1.569000
6.885600 1.560700
6.911400 1.574200
6.937300 1.555800
6.963100 1.567200
6.989000 1.617400
7.014900 1.699100
7.040700 1.759300
7.066600 1.817300
7.092400 1.900100
7.118300 1.851200
7.144100 1.856400
7.170000 1.868700
7.195900 1.902000
7.221700 1.942100
7.247600 1.988700
7.273400 2.022900
7.299300 1.971700
7.325100 1.875000
7.351000 1.857100
7.376900 1.896000
7.402700 1.927500
7.428600 1.946800
7.454400 1.952700
7.480300 1.937500
7.506100 1.912300
7.532000 1.877000
7.557900 1.828600
