set title 'mp-972848 - Density of States'
set xlabel 'Energy (eV)'
set ylabel 'DOS (states/eV)'
set grid
set xrange [-10:10]
set yrange [0:5.700]
set xzeroaxis lt -1
set terminal png size 800,600
set output 'mp-972848_dos_gnuplot.png'
plot '-' using 1:2 with lines title 'DOS'
-14.927600 0.000000
-14.893500 0.000000
-14.859300 0.000000
-14.825200 0.000000
-14.791000 0.000000
-14.756900 0.000000
-14.722800 0.000000
-14.688600 0.000000
-14.654500 0.000000
-14.620300 0.000000
-14.586200 0.000000
-14.552000 0.000000
-14.517900 0.000000
-14.483700 0.000000
-14.449600 0.000000
-14.415500 0.000000
-14.381300 0.000000
-14.347200 0.000000
-14.313000 0.000000
-14.278900 0.000000
-14.244700 0.000000
-14.210600 0.000000
-14.176400 0.000000
-14.142300 0.000000
-14.108200 0.000000
-14.074000 0.000000
-14.039900 0.000000
-14.005700 0.000000
-13.971600 0.000000
-13.937400 0.000000
-13.903300 0.000000
-13.869200 0.000000
-13.835000 0.000000
-13.800900 0.000000
-13.766700 0.000000
-13.732600 0.000000
-13.698400 0.000000
-13.664300 0.000000
-13.630100 0.000000
-13.596000 0.000000
-13.561900 0.000000
-13.527700 0.000000
-13.493600 0.000000
-13.459400 0.000000
-13.425300 0.000000
-13.391100 0.000000
-13.357000 0.000000
-13.322800 0.000000
-13.288700 0.000000
-13.254600 0.000000
-13.220400 0.000000
-13.186300 0.000000
-13.152100 0.000000
-13.118000 0.000000
-13.083800 0.000000
-13.049700 0.000000
-13.015500 0.000000
-12.981400 0.000000
-12.947300 0.000000
-12.913100 0.000000
-12.879000 0.000000
-12.844800 0.000000
-12.810700 0.000000
-12.776500 0.000000
-12.742400 0.000000
-12.708300 0.000000
-12.674100 0.000000
-12.640000 0.000000
-12.605800 0.000000
-12.571700 0.000000
-12.537500 0.000000
-12.503400 0.000000
-12.469200 0.000000
-12.435100 0.000000
-12.401000 0.000000
-12.366800 0.000000
-12.332700 0.000000
-12.298500 0.000000
-12.264400 0.000000
-12.230200 0.000000
-12.196100 0.000000
-12.161900 0.000000
-12.127800 0.000000
-12.093700 0.000000
-12.059500 0.000000
-12.025400 0.000000
-11.991200 0.000000
-11.957100 0.000000
-11.922900 0.000000
-11.888800 0.000000
-11.854600 0.000000
-11.820500 0.000700
-11.786400 0.043900
-11.752200 0.119400
-11.718100 0.219900
-11.683900 0.309900
-11.649800 0.352400
-11.615600 0.361500
-11.581500 0.361000
-11.547300 0.392100
-11.513200 0.458500
-11.479100 0.559200
-11.444900 0.648500
-11.410800 0.707000
-11.376600 0.720300
-11.342500 0.695500
-11.308300 0.671900
-11.274200 0.653000
-11.240100 0.653300
-11.205900 0.660500
-11.171800 0.672800
-11.137600 0.685500
-11.103500 0.691000
-11.069300 0.689700
-11.035200 0.679200
-11.001000 0.669400
-10.966900 0.663900
-10.932800 0.665200
-10.898600 0.672400
-10.864500 0.680300
-10.830300 0.688400
-10.796200 0.691100
-10.762000 0.689800
-10.727900 0.684200
-10.693700 0.680800
-10.659600 0.680900
-10.625500 0.684400
-10.591300 0.689400
-10.557200 0.691000
-10.523000 0.689400
-10.488900 0.683300
-10.454700 0.676600
-10.420600 0.672100
-10.386400 0.670700
-10.352300 0.672600
-10.318200 0.675000
-10.284000 0.677900
-10.249900 0.680800
-10.215700 0.683700
-10.181600 0.686600
-10.147400 0.689700
-10.113300 0.693300
-10.079200 0.697300
-10.045000 0.699000
-10.010900 0.698300
-9.976700 0.694900
-9.942600 0.692900
-9.908400 0.692700
-9.874300 0.694400
-9.840100 0.696500
-9.806000 0.698000
-9.771900 0.697500
-9.737700 0.694800
-9.703600 0.690200
-9.669400 0.687000
-9.635300 0.685200
-9.601100 0.685600
-9.567000 0.686600
-9.532800 0.688000
-9.498700 0.689600
-9.464600 0.691200
-9.430400 0.692900
-9.396300 0.694500
-9.362100 0.696300
-9.328000 0.698300
-9.293800 0.700700
-9.259700 0.703200
-9.225500 0.705700
-9.191400 0.708200
-9.157300 0.710800
-9.123100 0.713300
-9.089000 0.714400
-9.054800 0.714000
-9.020700 0.712400
-8.986500 0.711600
-8.952400 0.712000
-8.918200 0.713400
-8.884100 0.714900
-8.850000 0.716300
-8.815800 0.717500
-8.781700 0.718000
-8.747500 0.718400
-8.713400 0.719000
-8.679200 0.720100
-8.645100 0.721800
-8.611000 0.723700
-8.576800 0.725700
-8.542700 0.727700
-8.508500 0.729800
-8.474400 0.731800
-8.440200 0.733800
-8.406100 0.735800
-8.371900 0.737900
-8.337800 0.740100
-8.303700 0.742400
-8.269500 0.744800
-8.235400 0.747100
-8.201200 0.749500
-8.167100 0.751900
-8.132900 0.754300
-8.098800 0.756800
-8.064600 0.759600
-8.030500 0.762500
-7.996400 0.822700
-7.962200 1.098000
-7.928100 1.168800
-7.893900 1.129300
-7.859800 0.958200
-7.825600 1.017500
-7.791500 1.236300
-7.757300 1.193000
-7.723200 1.072900
-7.689100 0.870600
-7.654900 0.839400
-7.620800 0.822600
-7.586600 0.803300
-7.552500 0.750300
-7.518300 0.719800
-7.484200 0.703100
-7.450100 0.686500
-7.415900 0.658000
-7.381800 0.610100
-7.347600 0.597300
-7.313500 0.588400
-7.279300 0.579500
-7.245200 0.570600
-7.211000 0.561700
-7.176900 0.553000
-7.142800 0.544300
-7.108600 0.535500
-7.074500 0.526600
-7.040300 0.503700
-7.006200 0.486800
-6.972000 0.477600
-6.937900 0.469500
-6.903700 0.456000
-6.869600 0.432700
-6.835500 0.424700
-6.801300 0.419000
-6.767200 0.413400
-6.733000 0.407700
-6.698900 0.402000
-6.664700 0.396300
-6.630600 0.390600
-6.596400 0.384900
-6.562300 0.832900
-6.528200 0.847400
-6.494000 0.861900
-6.459900 0.575900
-6.425700 0.577300
-6.391600 0.578900
-6.357400 0.580600
-6.323300 0.574000
-6.289200 0.571000
-6.255000 0.572400
-6.220900 0.573800
-6.186700 0.572500
-6.152600 0.552000
-6.118400 0.504200
-6.084300 0.504400
-6.050100 0.504500
-6.016000 0.504700
-5.981900 0.504900
-5.947700 0.505100
-5.913600 0.505300
-5.879400 0.505500
-5.845300 0.505700
-5.811100 0.505800
-5.777000 0.506000
-5.742800 0.506200
-5.708700 0.506400
-5.674600 0.506600
-5.640400 0.506800
-5.606300 0.481200
-5.572100 0.480300
-5.538000 0.518300
-5.503800 0.946600
-5.469700 0.968100
-5.435500 0.988400
-5.401400 0.700300
-5.367300 0.707400
-5.333100 0.714400
-5.299000 0.721400
-5.264800 0.726600
-5.230700 0.725800
-5.196500 0.732800
-5.162400 0.740400
-5.128200 0.748100
-5.094100 0.697200
-5.060000 0.701700
-5.025800 0.704700
-4.991700 0.707800
-4.957500 0.711000
-4.923400 0.715300
-4.889200 0.707400
-4.855100 0.709800
-4.821000 0.713500
-4.786800 0.717300
-4.752700 0.721100
-4.718500 0.724800
-4.684400 0.728600
-4.650200 0.732400
-4.616100 0.715700
-4.581900 0.718900
-4.547800 0.722000
-4.513700 0.725100
-4.479500 0.728300
-4.445400 0.808100
-4.411200 0.688300
-4.377100 0.693100
-4.342900 0.697900
-4.308800 0.702700
-4.274600 0.707600
-4.240500 0.712400
-4.206400 0.717200
-4.172200 0.721900
-4.138100 1.167900
-4.103900 0.681300
-4.069800 0.682900
-4.035600 0.687200
-4.001500 0.691700
-3.967300 0.710800
-3.933200 0.743900
-3.899100 0.746900
-3.864900 0.749800
-3.830800 0.752800
-3.796600 0.755800
-3.762500 0.759200
-3.728300 0.762700
-3.694200 0.766300
-3.660100 0.769900
-3.625900 0.773500
-3.591800 0.777100
-3.557600 0.780700
-3.523500 0.784300
-3.489300 0.787900
-3.455200 0.791400
-3.421000 0.795000
-3.386900 0.824000
-3.352800 0.866800
-3.318600 1.000400
-3.284500 0.994300
-3.250300 0.988500
-3.216200 0.982700
-3.182000 0.976900
-3.147900 0.971100
-3.113700 0.965400
-3.079600 0.959600
-3.045500 0.898300
-3.011300 0.889200
-2.977200 0.741000
-2.943000 0.728200
-2.908900 0.715300
-2.874700 0.702500
-2.840600 0.689700
-2.806400 0.676900
-2.772300 0.778700
-2.738200 0.740300
-2.704000 0.701900
-2.669900 0.663400
-2.635700 0.627400
-2.601600 0.594300
-2.567400 0.736200
-2.533300 0.596700
-2.499100 0.852200
-2.465000 0.636600
-2.430900 0.686600
-2.396700 0.682900
-2.362600 0.679200
-2.328400 0.676300
-2.294300 0.673600
-2.260100 0.670900
-2.226000 0.668100
-2.191900 0.665500
-2.157700 0.663300
-2.123600 0.661400
-2.089400 0.659900
-2.055300 0.659200
-2.021100 0.658600
-1.987000 0.657900
-1.952800 0.657200
-1.918700 0.656600
-1.884600 0.655900
-1.850400 0.655200
-1.816300 0.657400
-1.782100 0.661400
-1.748000 0.676800
-1.713800 0.809800
-1.679700 0.733900
-1.645500 0.779600
-1.611400 0.834600
-1.577300 0.880800
-1.543100 0.919700
-1.509000 0.941400
-1.474800 0.965300
-1.440700 0.991600
-1.406500 1.052000
-1.372400 1.039700
-1.338200 1.093900
-1.304100 1.193500
-1.270000 1.284200
-1.235800 1.157200
-1.201700 1.154100
-1.167500 1.121400
-1.133400 1.097500
-1.099200 1.078000
-1.065100 1.058300
-1.031000 1.040000
-0.996800 1.026600
-0.962700 1.017600
-0.928500 0.999900
-0.894400 0.976600
-0.860200 0.949000
-0.826100 0.921700
-0.791900 0.891900
-0.757800 0.839800
-0.723700 0.784200
-0.689500 0.747500
-0.655400 0.732300
-0.621200 0.723000
-0.587100 0.718800
-0.552900 0.743000
-0.518800 0.799300
-0.484600 0.849900
-0.450500 0.879400
-0.416400 0.913700
-0.382200 0.951700
-0.348100 1.017600
-0.313900 1.083500
-0.279800 1.110800
-0.245600 1.232300
-0.211500 1.371400
-0.177300 1.485100
-0.143200 1.295000
-0.109100 1.330500
-0.074900 1.364300
-0.040800 1.390200
-0.006600 1.425000
0.027500 1.477500
0.061700 1.460600
0.095800 1.562500
0.130000 1.595400
0.164100 1.578900
0.198200 1.539800
0.232400 1.492100
0.266500 1.442800
0.300700 1.393800
0.334800 1.344100
0.369000 1.293300
0.403100 1.247600
0.437200 1.197400
0.471400 1.151600
0.505500 1.093700
0.539700 1.052200
0.573800 1.037000
0.608000 1.070100
0.642100 1.062800
0.676300 1.053500
0.710400 1.045700
0.744500 1.046500
0.778700 1.070000
0.812800 1.107800
0.847000 1.148100
0.881100 1.217600
0.915300 1.300300
0.949400 1.376400
0.983600 1.334200
1.017700 1.339500
1.051800 1.376700
1.086000 1.571800
1.120100 1.564200
1.154300 1.590800
1.188400 1.612200
1.222600 1.617100
1.256700 1.655800
1.290900 1.660100
1.325000 1.737200
1.359100 1.854900
1.393300 2.009300
1.427400 1.914200
1.461600 1.798400
1.495700 1.723300
1.529900 1.664300
1.564000 1.608100
1.598100 1.787900
1.632300 1.519900
1.666400 1.495800
1.700600 1.474200
1.734700 1.453600
1.768900 1.444000
1.803000 1.442800
1.837200 1.454300
1.871300 1.455100
1.905400 1.456600
1.939600 1.459800
1.973700 1.460200
2.007900 1.470000
2.042000 1.477500
2.076200 1.496500
2.110300 1.518000
2.144500 1.541800
2.178600 1.593700
2.212700 1.958400
2.246900 1.773500
2.281000 1.784800
2.315200 1.807600
2.349300 1.845000
2.383500 1.632100
2.417600 1.661400
2.451800 1.700800
2.485900 1.756700
2.520000 1.826900
2.554200 1.855400
2.588300 1.870300
2.622500 1.852000
2.656600 1.823100
2.690800 1.808900
2.724900 1.792600
2.759000 1.770700
2.793200 1.745500
2.827300 1.725400
2.861500 1.705000
2.895600 1.684400
2.929800 1.651000
2.963900 1.614900
2.998100 1.592500
3.032200 1.582000
3.066300 1.402800
3.100500 1.383100
3.134600 1.368300
3.168800 1.359300
3.202900 1.390200
3.237100 1.411900
3.271200 1.430100
3.305400 1.452200
3.339500 1.534300
3.373600 1.778900
3.407800 1.740300
3.441900 1.762600
3.476100 1.780100
3.510200 1.842000
3.544400 1.888700
3.578500 1.902800
3.612700 1.913400
3.646800 1.931000
3.680900 1.957400
3.715100 1.981000
3.749200 5.182000
3.783400 1.932600
3.817500 1.849700
3.851700 1.814400
3.885800 1.909900
3.920000 1.510500
3.954100 1.418800
3.988200 1.334200
4.022400 1.278900
4.056500 1.250900
4.090700 1.227300
4.124800 1.219100
4.159000 1.216700
4.193100 1.214700
4.227200 1.214800
4.261400 1.219500
4.295500 1.230700
4.329700 1.246200
4.363800 1.265100
4.398000 1.343700
4.432100 1.452300
4.466300 1.522700
4.500400 1.589300
4.534500 1.648600
4.568700 1.718400
4.602800 1.561000
4.637000 1.667100
4.671100 1.690100
4.705300 1.436700
4.739400 1.401100
4.773600 1.418700
4.807700 1.440600
4.841800 1.445100
4.876000 1.422900
4.910100 1.470900
4.944300 1.522900
4.978400 1.334300
5.012600 1.095800
5.046700 0.980600
5.080900 0.902300
5.115000 0.835900
5.149100 0.771500
5.183300 0.666900
5.217400 0.554600
5.251600 0.746100
5.285700 1.195300
5.319900 0.837800
5.354000 0.705500
5.388100 0.756900
5.422300 0.820600
5.456400 0.924100
5.490600 1.154600
5.524700 1.359500
5.558900 1.607300
5.593000 1.633000
5.627200 1.252800
5.661300 1.068900
5.695400 1.029300
5.729600 1.029700
5.763700 1.045500
5.797900 1.070400
5.832000 1.077500
5.866200 1.085200
5.900300 1.383600
5.934500 3.516100
5.968600 1.447800
6.002700 1.398700
6.036900 1.422000
6.071000 1.453800
6.105200 1.285500
6.139300 1.138100
6.173500 1.047000
6.207600 0.981900
6.241800 0.968100
6.275900 0.986500
6.310000 1.050400
6.344200 1.128900
6.378300 1.214800
6.412500 1.003800
6.446600 0.891100
6.480800 0.854000
6.514900 0.863800
6.549100 0.881000
6.583200 0.912000
6.617300 0.971200
6.651500 1.021800
6.685600 1.052300
6.719800 1.075000
6.753900 1.091600
6.788100 1.103000
6.822200 1.095900
6.856300 1.092700
6.890500 1.102800
6.924600 1.112900
6.958800 1.123100
6.992900 1.040800
7.027100 1.043000
7.061200 1.035700
7.095400 1.007200
7.129500 0.951600
7.163600 0.923700
7.197800 0.909600
7.231900 0.907500
7.266100 0.913900
7.300200 0.919400
7.334400 0.924800
7.368500 0.932700
7.402700 0.917700
7.436800 0.911600
7.470900 0.909000
7.505100 0.917300
7.539200 0.926300
7.573400 0.937900
7.607500 0.947200
7.641700 0.958800
7.675800 0.974800
7.710000 0.985400
7.744100 0.997400
7.778200 2.389900
7.812400 1.381200
7.846500 1.191900
7.880700 1.202800
7.914800 1.214400
7.949000 1.226900
7.983100 1.239700
8.017200 1.252500
8.051400 1.265300
8.085500 1.278100
8.119700 1.291300
8.153800 1.304800
8.188000 1.321800
8.222100 1.339400
8.256300 1.357200
8.290400 1.376700
8.324500 1.395600
8.358700 1.414300
8.392800 1.437500
8.427000 1.465500
8.461100 1.494800
8.495300 1.535800
8.529400 1.598400
8.563600 1.676400
8.597700 1.940000
8.631800 2.108100
8.666000 2.185800
8.700100 2.122900
8.734300 2.035100
8.768400 1.891000
8.802600 1.711400
8.836700 1.627200
8.870900 1.563600
8.905000 1.877500
8.939100 1.826100
8.973300 1.734700
9.007400 1.684300
9.041600 1.602100
9.075700 1.496000
9.109900 1.480800
9.144000 1.482000
9.178100 1.445500
9.212300 1.388000
9.246400 1.358300
9.280600 1.422800
9.314700 1.275200
9.348900 1.117000
9.383000 1.141900
9.417200 1.210300
9.451300 1.240600
9.485400 1.206500
9.519600 1.111300
9.553700 1.126600
9.587900 1.140000
9.622000 1.153000
9.656200 1.148500
9.690300 1.156100
9.724500 1.183900
9.758600 1.342100
9.792700 1.546500
9.826900 1.722000
9.861000 1.882600
9.895200 1.699000
9.929300 1.608200
9.963500 1.598600
9.997600 1.591600
10.031800 1.524000
10.065900 1.564800
10.100000 1.457800
10.134200 1.316700
10.168300 1.272700
10.202500 1.139400
10.236600 1.081700
10.270800 1.014200
10.304900 0.926600
10.339100 0.897400
10.373200 0.918100
10.407300 0.943100
10.441500 0.974400
10.475600 1.019500
10.509800 1.083100
10.543900 1.231800
10.578100 1.389300
10.612200 1.195300
10.646300 0.925700
10.680500 0.822900
10.714600 0.739700
10.748800 0.699600
10.782900 0.707400
10.817100 0.767900
10.851200 0.794100
10.885400 0.820200
10.919500 0.850400
10.953600 0.862300
10.987800 0.856100
11.021900 0.853600
11.056100 0.854700
11.090200 0.854300
11.124400 0.836500
11.158500 0.868600
11.192700 0.848300
11.226800 0.827900
11.260900 0.804700
11.295100 0.768200
11.329200 0.743800
11.363400 0.765800
11.397500 0.793100
11.431700 0.808300
11.465800 0.821500
11.500000 0.834100
11.534100 0.842300
11.568200 0.825800
11.602400 0.841300
11.636500 0.852800
11.670700 0.866000
11.704800 0.876300
11.739000 0.883700
11.773100 0.887000
11.807200 0.886100
11.841400 0.869500
11.875500 0.852000
11.909700 0.837900
11.943800 0.820400
11.978000 0.799700
12.012100 0.780300
12.046300 0.762700
12.080400 0.767300
12.114500 0.773000
12.148700 0.795600
12.182800 0.848400
12.217000 0.802000
12.251100 0.769400
12.285300 0.742400
12.319400 0.678800
12.353600 0.692200
12.387700 0.723000
12.421800 0.731300
12.456000 0.734500
12.490100 0.738800
12.524300 0.736500
12.558400 0.754900
12.592600 0.776900
12.626700 0.802600
12.660900 0.859300
12.695000 0.925200
12.729100 1.057500
12.763300 1.020000
12.797400 1.028600
12.831600 1.011300
12.865700 1.034000
12.899900 1.086000
12.934000 1.109000
12.968200 1.091100
13.002300 1.066200
13.036400 1.064600
13.070600 1.044800
13.104700 1.040700
13.138900 1.024100
13.173000 1.007600
13.207200 0.998000
13.241300 0.999600
13.275400 1.010400
13.309600 1.030700
13.343700 1.012900
13.377900 1.059400
13.412000 1.103600
13.446200 1.155000
13.480300 1.206800
13.514500 1.250600
13.548600 1.356300
13.582700 1.366700
13.616900 1.369300
13.651000 1.411600
13.685200 1.528100
13.719300 1.653500
13.753500 1.708000
13.787600 1.730400
13.821800 1.759300
13.855900 1.783900
13.890000 1.799400
13.924200 1.817400
13.958300 1.839300
13.992500 1.859700
14.026600 1.897200
14.060800 1.920400
14.094900 1.961000
14.129100 1.999200
14.163200 2.088300
14.197300 1.846300
14.231500 1.684900
14.265600 1.636000
14.299800 1.477200
14.333900 1.455300
14.368100 1.347100
14.402200 1.233400
14.436300 1.189900
14.470500 1.187600
14.504600 1.195300
14.538800 1.195300
14.572900 1.224700
14.607100 1.241400
14.641200 1.299900
14.675400 1.368200
14.709500 1.439800
14.743600 1.506300
14.777800 1.573700
14.811900 1.715900
14.846100 1.879200
14.880200 2.129800
14.914400 2.787800
14.948500 2.621900
14.982700 2.599000
15.016800 2.537200
15.050900 2.473300
15.085100 2.243900
15.119200 2.210800
15.153400 2.146800
15.187500 2.051800
15.221700 1.960500
15.255800 1.929000
15.290000 1.918800
15.324100 2.004000
15.358200 1.899600
15.392400 1.824200
15.426500 1.763300
15.460700 1.681200
15.494800 1.602200
15.529000 1.554600
15.563100 1.709800
15.597300 1.672700
15.631400 1.682500
15.665500 1.691500
15.699700 1.722400
15.733800 1.771400
15.768000 1.829700
15.802100 1.964600
15.836300 2.151600
15.870400 2.232800
15.904500 2.335800
15.938700 2.438800
15.972800 2.529700
16.007000 3.015500
16.041100 3.206100
16.075300 3.172700
16.109400 2.516800
16.143600 2.381800
16.177700 2.226500
16.211800 2.323800
16.246000 1.914900
16.280100 2.040500
16.314300 2.032800
16.348400 2.049400
16.382600 2.067700
16.416700 2.131600
16.450900 2.208900
16.485000 2.674400
16.519100 2.451400
16.553300 2.652300
16.587400 2.802500
16.621600 2.826300
16.655700 2.827200
16.689900 2.804900
16.724000 2.758900
16.758200 2.701900
16.792300 2.696100
16.826400 2.715400
16.860600 2.746500
16.894700 2.879300
16.928900 3.133900
16.963000 2.979700
16.997200 2.747300
17.031300 2.624200
17.065400 2.629700
17.099600 2.561700
17.133700 2.243600
17.167900 2.163600
17.202000 2.035100
17.236200 1.991400
17.270300 1.997800
17.304500 1.946100
17.338600 1.901500
17.372700 1.798100
17.406900 1.722600
17.441000 1.697000
17.475200 1.754000
17.509300 1.841800
17.543500 1.793700
17.577600 1.756600
17.611800 1.742300
17.645900 1.786800
17.680000 1.810900
17.714200 1.733700
17.748300 1.714500
17.782500 1.642800
17.816600 1.556800
17.850800 1.588200
17.884900 1.642900
17.919100 1.689400
17.953200 1.698800
17.987300 1.689700
18.021500 1.668900
18.055600 1.669400
18.089800 1.641500
18.123900 1.650200
18.158100 1.660900
18.192200 1.699900
18.226300 1.787900
18.260500 1.930000
18.294600 1.752200
18.328800 2.190500
18.362900 2.278300
18.397100 2.481800
18.431200 2.390400
18.465400 2.261900
18.499500 2.108700
18.533600 1.993200
18.567800 1.973500
18.601900 2.051700
18.636100 1.921400
18.670200 1.760900
18.704400 1.611500
18.738500 1.502900
18.772700 1.458400
18.806800 1.380100
18.840900 1.393200
18.875100 1.322600
18.909200 1.261100
18.943400 1.234500
18.977500 1.211700
19.011700 1.185500
19.045800 1.222900
19.080000 1.301500
19.114100 1.340600
19.148200 1.352900
19.182400 1.358600
19.216500 1.374300
19.250700 1.387800
19.284800 1.399600
19.319000 1.417700
19.353100 1.434800
19.387300 1.487400
19.421400 1.606100
19.455500 1.633400
19.489700 1.554700
19.523800 1.481600
19.558000 1.477200
19.592100 1.514700
19.626300 1.574500
19.660400 1.609700
19.694500 1.613500
19.728700 1.618400
19.762800 1.631500
19.797000 1.649700
19.831100 1.658000
19.865300 1.711200
19.899400 1.792500
19.933600 1.879200
19.967700 2.020500
20.001800 2.061100
20.036000 2.151500
20.070100 2.221100
20.104300 2.302200
20.138400 2.293600
20.172600 2.304100
20.206700 2.339300
20.240900 2.415700
20.275000 2.399000
20.309100 1.883400
20.343300 1.764900
20.377400 1.786200
20.411600 1.664600
20.445700 1.773600
20.479900 1.814600
20.514000 1.787100
20.548200 1.781400
20.582300 1.809100
20.616400 1.830600
20.650600 1.815900
20.684700 1.875700
20.718900 1.868400
