set title 'mp-1008802 - Density of States'
set xlabel 'Energy (eV)'
set ylabel 'DOS (states/eV)'
set grid
set xrange [-10:10]
set yrange [0:3.285]
set xzeroaxis lt -1
set terminal png size 800,600
set output 'mp-1008802_dos_gnuplot.png'
plot '-' using 1:2 with lines title 'DOS'
-40.341700 0.000000
-40.283600 0.000000
-40.225600 0.000000
-40.167500 0.000000
-40.109500 0.000000
-40.051400 0.000000
-39.993400 0.000000
-39.935300 0.000000
-39.877300 0.000000
-39.819200 0.000000
-39.761200 0.000000
-39.703100 0.000000
-39.645100 0.000000
-39.587000 0.000000
-39.529000 0.000000
-39.470900 0.000000
-39.412900 0.000000
-39.354800 0.000000
-39.296700 0.000000
-39.238700 0.000000
-39.180600 0.000000
-39.122600 0.000000
-39.064500 0.000000
-39.006500 0.000000
-38.948400 0.000000
-38.890400 0.000000
-38.832300 0.000000
-38.774300 0.000000
-38.716200 0.000000
-38.658200 0.000000
-38.600100 0.000000
-38.542100 0.000000
-38.484000 0.000000
-38.426000 0.000000
-38.367900 0.000000
-38.309900 0.000000
-38.251800 0.000000
-38.193700 0.000000
-38.135700 0.000000
-38.077600 0.000000
-38.019600 0.000000
-37.961500 0.000000
-37.903500 0.000000
-37.845400 0.000000
-37.787400 0.000000
-37.729300 0.000000
-37.671300 0.000000
-37.613200 0.000000
-37.555200 0.000000
-37.497100 0.000000
-37.439100 0.000000
-37.381000 0.000000
-37.323000 0.000000
-37.264900 0.000000
-37.206900 0.000000
-37.148800 0.000000
-37.090800 0.000000
-37.032700 0.000000
-36.974600 0.000000
-36.916600 0.000000
-36.858500 0.000000
-36.800500 0.000000
-36.742400 0.000000
-36.684400 0.000000
-36.626300 0.000000
-36.568300 0.000000
-36.510200 0.000000
-36.452200 0.000000
-36.394100 0.000000
-36.336100 0.000000
-36.278000 0.000000
-36.220000 0.000000
-36.161900 0.000000
-36.103900 0.000000
-36.045800 0.000000
-35.987800 0.000000
-35.929700 0.000000
-35.871700 0.000000
-35.813600 0.000000
-35.755500 0.000000
-35.697500 0.000000
-35.639400 0.000000
-35.581400 0.000000
-35.523300 0.000000
-35.465300 0.000000
-35.407200 0.000000
-35.349200 0.000000
-35.291100 0.000000
-35.233100 0.000000
-35.175000 0.000000
-35.117000 0.000000
-35.058900 4.281300
-35.000900 4.747200
-34.942800 9.322400
-34.884800 4.322700
-34.826700 3.735500
-34.768700 3.353600
-34.710600 3.143700
-34.652600 3.039800
-34.594500 2.939600
-34.536400 2.989200
-34.478400 3.047300
-34.420300 3.240700
-34.362300 6.829200
-34.304200 11.067200
-34.246200 20.476400
-34.188100 16.498000
-34.130100 0.000000
-34.072000 0.000000
-34.014000 0.000000
-33.955900 0.000000
-33.897900 0.000000
-33.839800 0.000000
-33.781800 0.000000
-33.723700 0.000000
-33.665700 0.000000
-33.607600 0.000000
-33.549600 0.000000
-33.491500 0.000000
-33.433500 0.000000
-33.375400 0.000000
-33.317300 0.000000
-33.259300 0.000000
-33.201200 0.000000
-33.143200 0.000000
-33.085100 0.000000
-33.027100 0.000000
-32.969000 0.000000
-32.911000 0.000000
-32.852900 0.000000
-32.794900 0.000000
-32.736800 0.000000
-32.678800 0.000000
-32.620700 0.000000
-32.562700 0.000000
-32.504600 0.000000
-32.446600 0.000000
-32.388500 0.000000
-32.330500 0.000000
-32.272400 0.000000
-32.214300 0.000000
-32.156300 0.000000
-32.098200 0.000000
-32.040200 0.000000
-31.982100 0.000000
-31.924100 0.000000
-31.866000 0.000000
-31.808000 0.000000
-31.749900 0.000000
-31.691900 0.000000
-31.633800 0.000000
-31.575800 0.000000
-31.517700 0.000000
-31.459700 0.000000
-31.401600 0.000000
-31.343600 0.000000
-31.285500 0.000000
-31.227500 0.000000
-31.169400 0.000000
-31.111400 0.000000
-31.053300 0.000000
-30.995200 0.000000
-30.937200 0.000000
-30.879100 0.000000
-30.821100 0.000000
-30.763000 0.000000
-30.705000 0.000000
-30.646900 0.000000
-30.588900 0.000000
-30.530800 0.000000
-30.472800 0.000000
-30.414700 0.000000
-30.356700 0.000000
-30.298600 0.000000
-30.240600 0.000000
-30.182500 0.000000
-30.124500 0.000000
-30.066400 0.000000
-30.008400 0.000000
-29.950300 0.000000
-29.892300 0.000000
-29.834200 0.000000
-29.776100 0.000000
-29.718100 0.000000
-29.660000 0.000000
-29.602000 0.000000
-29.543900 0.000000
-29.485900 0.000000
-29.427800 0.000000
-29.369800 0.000000
-29.311700 0.000000
-29.253700 0.000000
-29.195600 0.000000
-29.137600 0.000000
-29.079500 0.000000
-29.021500 0.000000
-28.963400 0.000000
-28.905400 0.000000
-28.847300 0.000000
-28.789300 0.000000
-28.731200 0.000000
-28.673200 0.000000
-28.615100 0.000000
-28.557000 0.000000
-28.499000 0.000000
-28.440900 0.000000
-28.382900 0.000000
-28.324800 0.000000
-28.266800 0.000000
-28.208700 0.000000
-28.150700 0.000000
-28.092600 0.000000
-28.034600 0.000000
-27.976500 0.000000
-27.918500 0.000000
-27.860400 0.000000
-27.802400 0.000000
-27.744300 0.000000
-27.686300 0.000000
-27.628200 0.000000
-27.570200 0.000000
-27.512100 0.000000
-27.454100 0.000000
-27.396000 0.000000
-27.337900 0.000000
-27.279900 0.000000
-27.221800 0.000000
-27.163800 0.000000
-27.105700 0.000000
-27.047700 0.000000
-26.989600 0.000000
-26.931600 0.000000
-26.873500 0.000000
-26.815500 0.000000
-26.757400 0.000000
-26.699400 0.000000
-26.641300 0.000000
-26.583300 0.000000
-26.525200 0.000000
-26.467200 0.000000
-26.409100 0.000000
-26.351100 0.000000
-26.293000 0.000000
-26.234900 0.000000
-26.176900 0.000000
-26.118800 0.000000
-26.060800 0.000000
-26.002700 0.000000
-25.944700 0.000000
-25.886600 0.000000
-25.828600 0.000000
-25.770500 0.000000
-25.712500 0.000000
-25.654400 0.000000
-25.596400 0.000000
-25.538300 0.000000
-25.480300 0.000000
-25.422200 0.000000
-25.364200 0.000000
-25.306100 0.000000
-25.248100 0.000000
-25.190000 0.000000
-25.132000 0.000000
-25.073900 0.000000
-25.015800 0.000000
-24.957800 0.000000
-24.899700 0.000000
-24.841700 0.000000
-24.783600 0.000000
-24.725600 0.000000
-24.667500 0.000000
-24.609500 0.000000
-24.551400 0.000000
-24.493400 0.000000
-24.435300 0.000000
-24.377300 0.000000
-24.319200 0.000000
-24.261200 0.000000
-24.203100 0.000000
-24.145100 0.000000
-24.087000 0.000000
-24.029000 0.000000
-23.970900 0.000000
-23.912900 0.000000
-23.854800 0.000000
-23.796700 0.000000
-23.738700 0.000000
-23.680600 0.000000
-23.622600 0.000000
-23.564500 0.000000
-23.506500 0.000000
-23.448400 0.000000
-23.390400 0.000000
-23.332300 0.000000
-23.274300 0.000000
-23.216200 0.000000
-23.158200 0.000000
-23.100100 0.000000
-23.042100 0.000000
-22.984000 0.000000
-22.926000 0.000000
-22.867900 0.000000
-22.809900 0.000000
-22.751800 0.000000
-22.693800 0.000000
-22.635700 0.000000
-22.577600 0.000000
-22.519600 0.000000
-22.461500 0.000000
-22.403500 0.000000
-22.345400 0.000000
-22.287400 0.000000
-22.229300 0.000000
-22.171300 0.000000
-22.113200 0.000000
-22.055200 0.000000
-21.997100 0.000000
-21.939100 0.000000
-21.881000 0.000000
-21.823000 0.000000
-21.764900 0.000000
-21.706900 0.000000
-21.648800 0.000000
-21.590800 0.000000
-21.532700 0.000000
-21.474700 0.000000
-21.416600 0.000000
-21.358500 0.000000
-21.300500 0.000000
-21.242400 0.000000
-21.184400 0.000000
-21.126300 0.000000
-21.068300 0.000000
-21.010200 0.000000
-20.952200 0.000000
-20.894100 0.000000
-20.836100 0.000000
-20.778000 0.000000
-20.720000 0.000000
-20.661900 0.000000
-20.603900 0.000000
-20.545800 0.000000
-20.487800 0.000000
-20.429700 0.000000
-20.371700 0.000000
-20.313600 0.000000
-20.255500 0.000000
-20.197500 0.000000
-20.139400 0.000000
-20.081400 0.000000
-20.023300 0.000000
-19.965300 0.000000
-19.907200 0.000000
-19.849200 0.000000
-19.791100 0.000000
-19.733100 0.000000
-19.675000 0.000000
-19.617000 0.000000
-19.558900 0.000000
-19.500900 0.000000
-19.442800 0.000000
-19.384800 0.000000
-19.326700 0.000000
-19.268700 0.000000
-19.210600 0.000000
-19.152600 0.000000
-19.094500 0.000000
-19.036400 0.000000
-18.978400 0.000000
-18.920300 0.000000
-18.862300 0.000000
-18.804200 0.000000
-18.746200 0.000000
-18.688100 0.000000
-18.630100 0.000000
-18.572000 0.000000
-18.514000 0.000000
-18.455900 0.000000
-18.397900 0.000000
-18.339800 0.000000
-18.281800 0.000000
-18.223700 0.000000
-18.165700 0.000000
-18.107600 0.000000
-18.049600 0.000000
-17.991500 0.000000
-17.933500 0.000000
-17.875400 0.000000
-17.817300 0.000000
-17.759300 0.000000
-17.701200 0.000000
-17.643200 0.000000
-17.585100 0.000000
-17.527100 0.000000
-17.469000 0.000000
-17.411000 0.000000
-17.352900 0.000000
-17.294900 0.000000
-17.236800 0.000000
-17.178800 0.000000
-17.120700 0.000000
-17.062700 0.000000
-17.004600 0.000000
-16.946600 0.000000
-16.888500 0.000000
-16.830500 0.000000
-16.772400 0.000000
-16.714400 0.000000
-16.656300 0.000000
-16.598200 0.000000
-16.540200 0.000000
-16.482100 0.000000
-16.424100 0.000000
-16.366000 0.000000
-16.308000 0.000000
-16.249900 0.000000
-16.191900 0.000000
-16.133800 0.000000
-16.075800 0.000000
-16.017700 0.000000
-15.959700 0.000000
-15.901600 0.000000
-15.843600 0.000000
-15.785500 0.000000
-15.727500 0.000000
-15.669400 0.000000
-15.611400 0.000000
-15.553300 0.000000
-15.495300 0.000000
-15.437200 0.000000
-15.379100 0.000000
-15.321100 0.000000
-15.263000 0.000000
-15.205000 0.000000
-15.146900 0.000000
-15.088900 0.000000
-15.030800 0.000000
-14.972800 0.000000
-14.914700 0.000000
-14.856700 0.000000
-14.798600 0.000000
-14.740600 0.000000
-14.682500 0.000000
-14.624500 0.000000
-14.566400 0.000000
-14.508400 0.000000
-14.450300 0.000000
-14.392300 0.000000
-14.334200 0.000000
-14.276100 0.000000
-14.218100 0.000000
-14.160000 0.000000
-14.102000 0.000000
-14.043900 0.000000
-13.985900 0.000000
-13.927800 0.000000
-13.869800 0.000000
-13.811700 0.000000
-13.753700 0.000000
-13.695600 0.000000
-13.637600 0.000000
-13.579500 0.000000
-13.521500 0.000000
-13.463400 0.000000
-13.405400 0.000000
-13.347300 0.000000
-13.289300 0.000000
-13.231200 0.000000
-13.173200 0.000000
-13.115100 0.000000
-13.057000 0.000000
-12.999000 0.000000
-12.940900 0.000000
-12.882900 0.000000
-12.824800 0.000000
-12.766800 0.000000
-12.708700 0.000000
-12.650700 0.000000
-12.592600 0.000000
-12.534600 0.000000
-12.476500 0.000000
-12.418500 0.000000
-12.360400 0.000000
-12.302400 0.000000
-12.244300 0.000000
-12.186300 0.000000
-12.128200 0.000000
-12.070200 0.000000
-12.012100 0.000000
-11.954100 0.000000
-11.896000 0.000000
-11.837900 0.000000
-11.779900 0.000000
-11.721800 0.000000
-11.663800 0.000000
-11.605700 0.000000
-11.547700 0.000000
-11.489600 0.000000
-11.431600 0.000000
-11.373500 0.000000
-11.315500 0.000000
-11.257400 0.000000
-11.199400 0.000000
-11.141300 0.000000
-11.083300 0.000000
-11.025200 0.000000
-10.967200 0.000000
-10.909100 0.000000
-10.851100 0.000000
-10.793000 0.000000
-10.735000 0.000000
-10.676900 0.000000
-10.618800 0.000000
-10.560800 0.000000
-10.502700 0.000000
-10.444700 0.000000
-10.386600 0.000000
-10.328600 0.000000
-10.270500 0.000000
-10.212500 0.000000
-10.154400 0.000000
-10.096400 0.000000
-10.038300 0.000000
-9.980300 0.000000
-9.922200 0.000000
-9.864200 0.000000
-9.806100 0.000000
-9.748100 0.000000
-9.690000 0.000000
-9.632000 0.000000
-9.573900 0.000000
-9.515900 0.000000
-9.457800 0.000000
-9.399700 0.000000
-9.341700 0.000000
-9.283600 0.000000
-9.225600 0.000000
-9.167500 0.000000
-9.109500 0.000000
-9.051400 0.000000
-8.993400 0.000000
-8.935300 0.000000
-8.877300 0.000000
-8.819200 0.000000
-8.761200 0.000000
-8.703100 0.049100
-8.645100 0.086500
-8.587000 0.098400
-8.529000 0.112100
-8.470900 0.129300
-8.412900 0.150900
-8.354800 0.161400
-8.296700 0.171700
-8.238700 0.185800
-8.180600 0.201500
-8.122600 0.217500
-8.064500 0.231300
-8.006500 0.245400
-7.948400 0.260200
-7.890400 0.275400
-7.832300 0.290700
-7.774300 0.309200
-7.716200 0.329800
-7.658200 0.348600
-7.600100 0.370000
-7.542100 0.393000
-7.484000 0.421200
-7.426000 0.452700
-7.367900 0.485100
-7.309900 0.519100
-7.251800 0.599400
-7.193800 0.625300
-7.135700 0.642200
-7.077600 0.659800
-7.019600 0.683000
-6.961500 0.707200
-6.903500 0.729500
-6.845400 0.759700
-6.787400 0.797800
-6.729300 0.840700
-6.671300 0.890500
-6.613200 0.959600
-6.555200 1.017700
-6.497100 1.188800
-6.439100 1.349900
-6.381000 1.301100
-6.323000 1.273100
-6.264900 1.253100
-6.206900 1.184900
-6.148800 1.037700
-6.090800 0.966500
-6.032700 0.910100
-5.974700 0.890700
-5.916600 0.885700
-5.858500 0.978700
-5.800500 0.764200
-5.742400 0.579000
-5.684400 0.485400
-5.626300 0.413400
-5.568300 0.355600
-5.510200 0.307900
-5.452200 0.266300
-5.394100 0.251800
-5.336100 0.229300
-5.278000 0.207700
-5.220000 0.189400
-5.161900 0.177100
-5.103900 0.165300
-5.045800 0.152300
-4.987800 0.144800
-4.929700 0.138200
-4.871700 0.128900
-4.813600 0.121800
-4.755600 0.118900
-4.697500 0.111100
-4.639400 0.105100
-4.581400 0.090200
-4.523300 0.095000
-4.465300 0.100000
-4.407200 0.105200
-4.349200 0.110500
-4.291100 0.115600
-4.233100 0.120900
-4.175000 0.126100
-4.117000 0.131100
-4.058900 0.137000
-4.000900 0.143300
-3.942800 0.150000
-3.884800 0.156200
-3.826700 0.162200
-3.768700 0.168100
-3.710600 0.174500
-3.652600 0.181200
-3.594500 0.188200
-3.536500 0.225600
-3.478400 0.256600
-3.420300 0.268200
-3.362300 0.288100
-3.304200 0.314000
-3.246200 0.336800
-3.188100 0.361500
-3.130100 0.390200
-3.072000 0.425400
-3.014000 0.462200
-2.955900 0.503700
-2.897900 0.721900
-2.839800 0.603000
-2.781800 0.614200
-2.723700 0.619100
-2.665700 0.629400
-2.607600 0.625100
-2.549600 0.633300
-2.491500 0.640700
-2.433500 0.645400
-2.375400 0.651300
-2.317300 0.653500
-2.259300 0.652700
-2.201200 0.651000
-2.143200 0.656000
-2.085100 0.664100
-2.027100 0.671100
-1.969000 0.679000
-1.911000 0.686600
-1.852900 0.692300
-1.794900 0.715800
-1.736800 0.731500
-1.678800 0.729600
-1.620700 0.714100
-1.562700 0.708000
-1.504600 0.732400
-1.446600 0.740900
-1.388500 0.797500
-1.330500 0.718700
-1.272400 0.814800
-1.214400 0.700300
-1.156300 0.657600
-1.098200 0.632000
-1.040200 0.579500
-0.982100 0.663700
-0.924100 0.677500
-0.866000 0.689300
-0.808000 0.640200
-0.749900 0.598900
-0.691900 0.559100
-0.633800 0.621700
-0.575800 0.544800
-0.517700 0.524400
-0.459700 0.533200
-0.401600 0.544900
-0.343600 0.433800
-0.285500 0.227600
-0.227500 0.241100
-0.169400 0.256100
-0.111400 0.271800
-0.053300 0.299400
0.004700 0.326800
0.062800 0.409400
0.120900 0.495200
0.178900 0.567600
0.237000 0.637400
0.295000 0.749800
0.353100 0.845700
0.411100 0.921900
0.469200 1.128400
0.527200 1.058700
0.585300 1.154500
0.643300 1.236700
0.701400 1.254700
0.759400 1.246800
0.817500 1.237600
0.875500 1.233800
0.933600 1.230900
0.991600 1.247900
1.049700 1.277600
1.107700 1.304100
1.165800 1.305500
1.223800 1.346300
1.281900 1.417600
1.340000 1.534400
1.398000 1.485900
1.456100 1.476500
1.514100 1.437900
1.572200 1.381500
1.630200 1.358400
1.688300 1.337100
1.746300 1.285100
1.804400 1.314200
1.862400 1.295100
1.920500 1.317000
1.978500 1.264300
2.036600 1.240000
2.094600 1.227800
2.152700 1.256500
2.210700 1.253000
2.268800 1.279500
2.326800 1.433300
2.384900 1.812900
2.442900 1.745600
2.501000 1.487000
2.559100 1.875900
2.617100 1.722200
2.675200 1.574000
2.733200 1.493400
2.791300 1.430700
2.849300 1.480900
2.907400 1.410500
2.965400 1.335500
3.023500 1.323600
3.081500 1.217900
3.139600 1.193600
3.197600 1.205200
3.255700 1.219700
3.313700 1.232400
3.371800 1.349300
3.429800 1.308500
3.487900 1.326200
3.545900 1.319300
3.604000 1.289200
3.662100 1.253900
3.720100 1.234000
3.778200 1.217400
3.836200 1.185600
3.894300 1.234400
3.952300 1.286200
4.010400 1.483000
4.068400 1.563900
4.126500 1.893200
4.184500 1.735500
4.242600 1.582900
4.300600 1.815400
4.358700 2.127000
4.416700 2.500500
4.474800 2.986000
4.532800 2.425000
4.590900 2.241300
4.648900 2.063500
4.707000 2.018600
4.765000 1.828800
4.823100 1.601100
4.881200 1.472700
4.939200 1.417300
4.997300 1.369300
5.055300 1.404500
5.113400 1.455000
5.171400 1.553800
5.229500 1.420000
5.287500 1.391300
5.345600 1.149300
5.403600 0.932100
5.461700 0.736200
5.519700 0.783200
5.577800 0.804600
5.635800 0.773600
5.693900 0.747800
5.751900 0.746500
5.810000 0.756200
5.868000 0.792400
5.926100 0.854300
5.984100 1.451100
6.042200 1.184700
6.100300 1.298100
6.158300 1.408100
6.216400 1.629300
6.274400 1.884300
6.332500 1.992600
6.390500 2.071600
6.448600 2.104500
6.506600 2.469800
6.564700 2.254500
6.622700 2.710700
6.680800 2.366800
6.738800 2.636800
6.796900 2.113400
6.854900 1.876000
6.913000 1.649800
6.971000 1.605700
7.029100 1.380500
7.087100 1.105400
7.145200 1.052300
7.203200 1.083700
7.261300 1.137800
7.319400 1.113600
7.377400 1.161500
7.435500 1.186900
7.493500 1.231300
7.551600 1.343400
7.609600 1.301300
7.667700 1.267600
7.725700 1.271400
7.783800 1.223100
7.841800 1.197600
7.899900 1.117500
7.957900 1.036500
8.016000 0.960500
8.074000 0.920500
8.132100 0.892500
8.190100 0.872400
8.248200 0.859500
8.306200 0.842300
8.364300 0.827400
8.422300 0.822100
8.480400 0.839000
8.538500 0.805300
8.596500 0.880100
8.654600 0.667100
8.712600 0.621300
8.770700 0.697000
8.828700 0.682400
8.886800 0.686800
8.944800 0.705700
9.002900 0.705300
9.060900 0.702400
9.119000 0.724400
9.177000 0.750100
9.235100 0.766600
9.293100 0.791000
9.351200 0.839300
9.409200 0.862800
9.467300 0.862300
9.525300 0.880100
9.583400 0.903000
9.641500 0.925000
9.699500 0.954500
9.757600 1.034700
9.815600 1.176400
9.873700 1.251500
9.931700 1.314400
9.989800 1.414000
10.047800 1.484100
10.105900 1.209700
10.163900 1.126800
10.222000 1.044600
10.280000 0.996000
10.338100 0.966100
10.396100 0.940300
10.454200 0.917300
10.512200 0.899600
10.570300 0.894500
10.628300 1.014200
10.686400 1.022000
10.744400 1.074100
10.802500 1.161500
10.860600 1.035800
10.918600 1.243000
10.976700 1.030800
11.034700 1.483200
11.092800 1.839400
11.150800 1.964500
11.208900 2.020000
11.266900 2.158800
11.325000 2.049300
11.383000 2.030300
11.441100 1.879900
11.499100 1.867600
11.557200 1.421700
11.615200 1.246200
11.673300 1.126900
11.731300 1.085500
11.789400 0.944300
11.847400 1.066000
11.905500 1.069900
11.963500 1.033000
12.021600 1.142600
12.079700 1.075800
12.137700 1.002400
12.195800 0.912800
12.253800 0.578700
12.311900 0.913400
12.369900 0.751500
12.428000 0.842900
12.486000 0.984200
12.544100 1.519400
12.602100 1.498400
12.660200 1.527000
12.718200 1.703200
12.776300 2.206100
12.834300 2.253000
12.892400 2.121700
12.950400 1.956200
13.008500 1.786700
13.066500 1.766000
13.124600 1.426600
13.182600 1.309500
13.240700 1.183200
13.298800 1.103000
13.356800 1.059500
13.414900 0.986800
13.472900 0.745700
13.531000 0.772200
13.589000 0.774800
13.647100 0.757400
13.705100 0.737400
13.763200 0.732300
13.821200 0.727700
13.879300 0.722000
13.937300 0.713300
13.995400 0.703500
14.053400 0.699600
14.111500 0.701700
14.169500 0.713100
14.227600 0.720900
14.285600 0.729600
14.343700 0.739600
14.401700 0.753200
14.459800 0.777400
14.517900 0.811800
14.575900 0.844100
14.634000 0.914100
14.692000 0.938900
14.750100 0.965600
14.808100 0.977200
14.866200 0.972000
14.924200 0.998800
14.982300 1.006300
15.040300 1.026000
15.098400 1.036500
15.156400 1.040700
15.214500 1.067500
15.272500 1.084800
15.330600 1.105000
15.388600 1.111200
15.446700 1.127400
15.504700 1.103900
15.562800 1.010800
15.620900 0.952100
15.678900 0.907100
15.737000 0.904000
15.795000 1.072200
15.853100 1.120500
15.911100 1.215200
15.969200 1.237700
16.027200 1.038200
16.085300 0.882400
16.143300 0.806400
16.201400 0.756200
16.259400 0.757500
16.317500 0.747200
16.375500 0.636300
16.433600 0.561900
16.491600 0.528600
16.549700 0.465900
16.607700 0.557500
16.665800 0.578800
16.723800 0.312200
16.781900 0.319200
16.840000 0.330900
16.898000 0.337900
16.956100 0.348400
17.014100 0.359300
17.072200 0.373000
17.130200 0.463600
17.188300 0.549100
17.246300 0.658900
17.304400 0.635100
17.362400 0.676700
17.420500 0.772500
17.478500 0.861500
17.536600 1.072600
17.594600 1.045600
17.652700 0.961600
17.710700 0.934200
17.768800 0.934400
17.826800 0.851100
17.884900 0.826500
17.942900 0.809300
18.001000 0.786300
18.059100 0.788200
18.117100 0.792200
18.175200 0.797400
18.233200 0.805200
18.291300 0.812800
18.349300 0.830800
18.407400 0.848800
18.465400 0.881700
18.523500 0.996300
18.581500 1.052200
18.639600 1.043500
18.697600 0.914400
18.755700 0.728400
