set title 'mp-39 - Density of States'
set xlabel 'Energy (eV)'
set ylabel 'DOS (states/eV)'
set grid
set xrange [-10:10]
set yrange [0:66.355]
set xzeroaxis lt -1
set terminal png size 800,600
set output 'mp-39_dos_gnuplot.png'
plot '-' using 1:2 with lines title 'DOS'
-7.890000 0.000000
-7.869400 0.000000
-7.848800 0.000000
-7.828200 0.000000
-7.807600 0.000000
-7.787000 0.000000
-7.766400 0.000000
-7.745800 0.000000
-7.725300 0.000000
-7.704700 0.000000
-7.684100 0.000000
-7.663500 0.000000
-7.642900 0.000000
-7.622300 0.000000
-7.601700 0.000000
-7.581100 0.000000
-7.560500 0.000000
-7.539900 0.000000
-7.519300 0.000000
-7.498700 0.000000
-7.478200 0.000000
-7.457600 0.000000
-7.437000 0.000000
-7.416400 0.000000
-7.395800 0.000000
-7.375200 0.000000
-7.354600 0.000000
-7.334000 0.000000
-7.313400 0.000000
-7.292800 0.000000
-7.272200 0.000000
-7.251600 0.000000
-7.231100 0.000000
-7.210500 0.000000
-7.189900 0.000000
-7.169300 0.000000
-7.148700 0.000000
-7.128100 0.000000
-7.107500 0.000000
-7.086900 0.000000
-7.066300 0.000000
-7.045700 0.000000
-7.025100 0.000000
-7.004500 0.000000
-6.984000 0.000000
-6.963400 0.000000
-6.942800 0.000000
-6.922200 0.000000
-6.901600 0.000000
-6.881000 0.000000
-6.860400 0.000000
-6.839800 0.000000
-6.819200 0.000000
-6.798600 0.000000
-6.778000 0.000000
-6.757400 0.000000
-6.736900 0.000000
-6.716300 0.000000
-6.695700 0.000000
-6.675100 0.000000
-6.654500 0.000000
-6.633900 0.000000
-6.613300 0.000000
-6.592700 0.000000
-6.572100 0.000000
-6.551500 0.000000
-6.530900 0.000000
-6.510300 0.000000
-6.489800 0.000000
-6.469200 0.000000
-6.448600 0.000000
-6.428000 0.000000
-6.407400 0.000000
-6.386800 0.000000
-6.366200 0.000000
-6.345600 0.000000
-6.325000 0.000000
-6.304400 0.000000
-6.283800 0.000000
-6.263300 0.000000
-6.242700 0.000000
-6.222100 0.000000
-6.201500 0.000000
-6.180900 0.000000
-6.160300 0.000000
-6.139700 0.000000
-6.119100 0.000000
-6.098500 0.000000
-6.077900 0.000000
-6.057300 0.000000
-6.036700 0.000000
-6.016200 0.128600
-5.995600 5.130000
-5.975000 11.971500
-5.954400 19.730100
-5.933800 17.758200
-5.913200 16.970200
-5.892600 18.229500
-5.872000 25.414700
-5.851400 22.947700
-5.830800 16.202700
-5.810200 17.505200
-5.789600 10.900200
-5.769100 6.870400
-5.748500 4.646700
-5.727900 4.678900
-5.707300 5.272800
-5.686700 6.456900
-5.666100 8.175400
-5.645500 8.944500
-5.624900 10.573100
-5.604300 14.106100
-5.583700 20.452400
-5.563100 35.882900
-5.542500 41.988400
-5.522000 60.322600
-5.501400 11.263500
-5.480800 9.294800
-5.460200 8.902300
-5.439600 8.869600
-5.419000 8.968300
-5.398400 9.213000
-5.377800 9.802100
-5.357200 10.309200
-5.336600 7.438200
-5.316000 4.547300
-5.295400 1.405000
-5.274900 0.000000
-5.254300 0.000000
-5.233700 0.000000
-5.213100 0.000000
-5.192500 0.000000
-5.171900 0.000000
-5.151300 0.000000
-5.130700 0.000000
-5.110100 0.000000
-5.089500 0.000000
-5.068900 0.000000
-5.048300 0.000000
-5.027800 0.000000
-5.007200 0.000000
-4.986600 0.000000
-4.966000 0.000000
-4.945400 0.000000
-4.924800 0.000000
-4.904200 0.000000
-4.883600 0.000000
-4.863000 0.000000
-4.842400 0.000000
-4.821800 0.000000
-4.801300 0.000000
-4.780700 0.000000
-4.760100 0.000000
-4.739500 0.000000
-4.718900 0.000000
-4.698300 0.000000
-4.677700 0.000000
-4.657100 0.000000
-4.636500 0.000000
-4.615900 0.000000
-4.595300 0.000000
-4.574700 0.000000
-4.554200 0.000000
-4.533600 0.000000
-4.513000 0.000000
-4.492400 0.000000
-4.471800 0.000000
-4.451200 0.000000
-4.430600 0.000000
-4.410000 0.000000
-4.389400 0.000000
-4.368800 0.000000
-4.348200 0.000000
-4.327600 0.000000
-4.307100 0.000000
-4.286500 0.000000
-4.265900 0.000000
-4.245300 0.000000
-4.224700 0.000000
-4.204100 0.000000
-4.183500 0.000000
-4.162900 0.000000
-4.142300 0.000000
-4.121700 0.000000
-4.101100 0.000000
-4.080500 0.000000
-4.060000 0.000000
-4.039400 0.000000
-4.018800 0.000000
-3.998200 0.000000
-3.977600 0.000000
-3.957000 0.000000
-3.936400 0.000000
-3.915800 0.000000
-3.895200 0.000000
-3.874600 0.000000
-3.854000 0.000000
-3.833400 0.000000
-3.812900 0.000000
-3.792300 0.000000
-3.771700 0.000000
-3.751100 0.000000
-3.730500 0.000000
-3.709900 0.000100
-3.689300 0.005900
-3.668700 0.020600
-3.648100 0.036600
-3.627500 0.042300
-3.606900 0.049600
-3.586300 0.058200
-3.565800 0.065600
-3.545200 0.071600
-3.524600 0.076300
-3.504000 0.078000
-3.483400 0.080900
-3.462800 0.084800
-3.442200 0.089400
-3.421600 0.094700
-3.401000 0.096700
-3.380400 0.101200
-3.359800 0.105800
-3.339300 0.109200
-3.318700 0.110500
-3.298100 0.112200
-3.277500 0.115100
-3.256900 0.118100
-3.236300 0.121200
-3.215700 0.123900
-3.195100 0.126000
-3.174500 0.127700
-3.153900 0.129700
-3.133300 0.132400
-3.112700 0.135700
-3.092200 0.139200
-3.071600 0.142700
-3.051000 0.144600
-3.030400 0.146600
-3.009800 0.148200
-2.989200 0.149800
-2.968600 0.151400
-2.948000 0.152400
-2.927400 0.155200
-2.906800 0.157200
-2.886200 0.159200
-2.865600 0.161100
-2.845100 0.163000
-2.824500 0.164900
-2.803900 0.167000
-2.783300 0.169100
-2.762700 0.171300
-2.742100 0.173700
-2.721500 0.176200
-2.700900 0.178600
-2.680300 0.180400
-2.659700 0.182200
-2.639100 0.184000
-2.618500 0.185500
-2.598000 0.186700
-2.577400 0.187800
-2.556800 0.189100
-2.536200 0.190600
-2.515600 0.192100
-2.495000 0.193600
-2.474400 0.195100
-2.453800 0.197200
-2.433200 0.199100
-2.412600 0.200900
-2.392000 0.202700
-2.371400 0.204700
-2.350900 0.206800
-2.330300 0.208800
-2.309700 0.210900
-2.289100 0.213000
-2.268500 0.215100
-2.247900 0.216800
-2.227300 0.217500
-2.206700 0.218700
-2.186100 0.220000
-2.165500 0.221400
-2.144900 0.222800
-2.124300 0.224100
-2.103800 0.225500
-2.083200 0.227000
-2.062600 0.228500
-2.042000 0.230100
-2.021400 0.231700
-2.000800 0.233300
-1.980200 0.234900
-1.959600 0.236500
-1.939000 0.238100
-1.918400 0.239700
-1.897800 0.241300
-1.877300 0.242900
-1.856700 0.245000
-1.836100 0.246900
-1.815500 0.248800
-1.794900 0.250700
-1.774300 0.252400
-1.753700 0.254100
-1.733100 0.255400
-1.712500 0.256800
-1.691900 0.258100
-1.671300 0.259400
-1.650700 0.260700
-1.630200 0.262100
-1.609600 0.263500
-1.589000 0.264800
-1.568400 0.266100
-1.547800 0.267600
-1.527200 0.269100
-1.506600 0.270700
-1.486000 0.272400
-1.465400 0.274100
-1.444800 0.275900
-1.424200 0.277600
-1.403600 0.279400
-1.383100 0.281100
-1.362500 0.282900
-1.341900 0.284600
-1.321300 0.286400
-1.300700 0.287900
-1.280100 0.289500
-1.259500 0.291100
-1.238900 0.292700
-1.218300 0.294300
-1.197700 0.295900
-1.177100 0.297600
-1.156500 0.299300
-1.136000 0.300900
-1.115400 0.302600
-1.094800 0.304200
-1.074200 0.305900
-1.053600 0.307600
-1.033000 0.309300
-1.012400 0.311000
-0.991800 0.312700
-0.971200 0.314400
-0.950600 0.316100
-0.930000 0.317900
-0.909400 0.319700
-0.888900 0.321400
-0.868300 0.323200
-0.847700 0.325100
-0.827100 0.326900
-0.806500 0.328800
-0.785900 0.330700
-0.765300 0.332700
-0.744700 0.334600
-0.724100 0.336600
-0.703500 0.338600
-0.682900 0.340700
-0.662300 0.342700
-0.641800 0.344700
-0.621200 0.346800
-0.600600 0.348800
-0.580000 0.350900
-0.559400 0.353000
-0.538800 0.355100
-0.518200 0.357100
-0.497600 0.359300
-0.477000 0.361500
-0.456400 0.363700
-0.435800 0.365900
-0.415300 0.368100
-0.394700 0.370400
-0.374100 0.373100
-0.353500 0.375700
-0.332900 0.378200
-0.312300 0.380900
-0.291700 0.383600
-0.271100 0.386200
-0.250500 0.389000
-0.229900 0.391800
-0.209300 0.394600
-0.188700 0.397400
-0.168200 0.400200
-0.147600 0.403100
-0.127000 0.406000
-0.106400 0.408900
-0.085800 0.411800
-0.065200 0.414800
-0.044600 0.417900
-0.024000 0.421100
-0.003400 0.424400
0.017200 0.428000
0.037800 0.431700
0.058400 0.435600
0.078900 0.439500
0.099500 0.443800
0.120100 0.448200
0.140700 0.452800
0.161300 0.457500
0.181900 0.462500
0.202500 0.467400
0.223100 0.472600
0.243700 0.477800
0.264300 0.483300
0.284900 0.488900
0.305500 0.494600
0.326000 0.500600
0.346600 0.506800
0.367200 0.514000
0.387800 0.521700
0.408400 0.530000
0.429000 0.538800
0.449600 0.548200
0.470200 0.558200
0.490800 0.569000
0.511400 0.580400
0.532000 0.593000
0.552600 0.606600
0.573100 0.621300
0.593700 0.637100
0.614300 0.654000
0.634900 0.681400
0.655500 0.711400
0.676100 0.739500
0.696700 0.777100
0.717300 0.807400
0.737900 0.796400
0.758500 0.770800
0.779100 0.770200
0.799700 0.771800
0.820200 0.775200
0.840800 0.776200
0.861400 0.770700
0.882000 0.798500
0.902600 0.769800
0.923200 0.756900
0.943800 0.749200
0.964400 0.744200
0.985000 0.738700
1.005600 0.732700
1.026200 0.725800
1.046700 0.714600
1.067300 0.710900
1.087900 0.694300
1.108500 0.692100
1.129100 0.721000
1.149700 0.732600
1.170300 0.726000
1.190900 0.716700
1.211500 0.702400
1.232100 0.696300
1.252700 0.693100
1.273300 0.681400
1.293800 0.671700
1.314400 0.647600
1.335000 0.626700
1.355600 0.603700
1.376200 0.635000
1.396800 0.445200
1.417400 0.397300
1.438000 0.356600
1.458600 0.345300
1.479200 0.289100
1.499800 0.277800
1.520400 0.267000
1.540900 0.256700
1.561500 0.247000
1.582100 0.237700
1.602700 0.229000
1.623300 0.221800
1.643900 0.216600
1.664500 0.213800
1.685100 0.211900
1.705700 0.211000
1.726300 0.208200
1.746900 0.195100
1.767500 0.191100
1.788000 0.185700
1.808600 0.180200
1.829200 0.174700
1.849800 0.169400
1.870400 0.164200
1.891000 0.159100
1.911600 0.154100
1.932200 0.149300
1.952800 0.144700
1.973400 0.140100
1.994000 0.135700
2.014600 0.132700
2.035100 0.129600
2.055700 0.127000
2.076300 0.124600
2.096900 0.122300
2.117500 0.120200
2.138100 0.118200
2.158700 0.116300
2.179300 0.114500
2.199900 0.107700
2.220500 0.105300
2.241100 0.103400
2.261700 0.101800
2.282200 0.100500
2.302800 0.098200
2.323400 0.095200
2.344000 0.092400
2.364600 0.089700
2.385200 0.087100
2.405800 0.084600
2.426400 0.082200
2.447000 0.079800
2.467600 0.077600
2.488200 0.075400
2.508700 0.073400
2.529300 0.071400
2.549900 0.069700
2.570500 0.068200
2.591100 0.066700
2.611700 0.065300
2.632300 0.064000
2.652900 0.062600
2.673500 0.060800
2.694100 0.059000
2.714700 0.057300
2.735300 0.055600
2.755800 0.054100
2.776400 0.052800
2.797000 0.051800
2.817600 0.051100
2.838200 0.050100
2.858800 0.048800
2.879400 0.047200
2.900000 0.045500
2.920600 0.043900
2.941200 0.042300
2.961800 0.040800
2.982400 0.039300
3.002900 0.037800
3.023500 0.036300
3.044100 0.034800
3.064700 0.034700
3.085300 0.033600
3.105900 0.032500
3.126500 0.031400
3.147100 0.030400
3.167700 0.029400
3.188300 0.028300
3.208900 0.027400
3.229500 0.026400
3.250000 0.025400
3.270600 0.024500
3.291200 0.024400
3.311800 0.023500
3.332400 0.022500
3.353000 0.021400
3.373600 0.020300
3.394200 0.019100
3.414800 0.033100
3.435400 0.044100
3.456000 0.057300
3.476600 0.072800
3.497100 0.081900
3.517700 0.089200
3.538300 0.097500
3.558900 0.107400
3.579500 0.114300
3.600100 0.121400
3.620700 0.128500
3.641300 0.140900
3.661900 0.157000
3.682500 0.166800
3.703100 0.171500
3.723700 0.166500
3.744200 0.172800
3.764800 0.181600
3.785400 0.192400
3.806000 0.198900
3.826600 0.203400
3.847200 0.208800
3.867800 0.213800
3.888400 0.217900
3.909000 0.221500
3.929600 0.226200
3.950200 0.231400
3.970700 0.237100
3.991300 0.243200
4.011900 0.249800
4.032500 0.256900
4.053100 0.264300
4.073700 0.273300
4.094300 0.285500
4.114900 0.298000
4.135500 0.307200
4.156100 0.304600
4.176700 0.310300
4.197300 0.315900
4.217800 0.321000
4.238400 0.330500
4.259000 0.331400
4.279600 0.335300
4.300200 0.341200
4.320800 0.344600
4.341400 0.348800
4.362000 0.354800
4.382600 0.361000
4.403200 0.367400
4.423800 0.374100
4.444400 0.380900
4.464900 0.387900
4.485500 0.395100
4.506100 0.402400
4.526700 0.410400
4.547300 0.420600
4.567900 0.430600
4.588500 0.439500
4.609100 0.447500
4.629700 0.454300
4.650300 0.461300
4.670900 0.475700
4.691500 0.478400
4.712000 0.484300
4.732600 0.495000
4.753200 0.507000
4.773800 0.518500
4.794400 0.530500
4.815000 0.543400
4.835600 0.557400
4.856200 0.571900
4.876800 0.586800
4.897400 0.602500
4.918000 0.619200
4.938600 0.648500
4.959100 0.676400
4.979700 0.703700
5.000300 0.716500
5.020900 0.728700
5.041500 0.740400
5.062100 0.798500
5.082700 0.796000
5.103300 0.770700
5.123900 0.746200
5.144500 0.719300
5.165100 0.695200
5.185700 0.695400
5.206200 0.733700
5.226800 0.726600
5.247400 0.704400
5.268000 0.695700
5.288600 0.688800
5.309200 0.676600
5.329800 0.664000
5.350400 0.652100
5.371000 0.641200
5.391600 0.630500
5.412200 0.619700
5.432800 0.608900
5.453300 0.597600
5.473900 0.581700
5.494500 0.563500
5.515100 0.552700
5.535700 0.542200
5.556300 0.532200
5.576900 0.537600
5.597500 0.522000
5.618100 0.492900
5.638700 0.489200
5.659300 0.485900
5.679800 0.483500
5.700400 0.480400
5.721000 0.477100
5.741600 0.473600
5.762200 0.469800
5.782800 0.459600
5.803400 0.455200
5.824000 0.452200
5.844600 0.449400
5.865200 0.446600
5.885800 0.444600
5.906400 0.443200
5.926900 0.456100
5.947500 0.459400
5.968100 0.460400
5.988700 0.452500
6.009300 0.452200
6.029900 0.452000
6.050500 0.452000
6.071100 0.452100
6.091700 0.452300
6.112300 0.452700
6.132900 0.453100
6.153500 0.458300
6.174000 0.460200
6.194600 0.470100
6.215200 0.475200
6.235800 0.480000
6.256400 0.484900
6.277000 0.486600
6.297600 0.488200
6.318200 0.492100
6.338800 0.495900
6.359400 0.499600
6.380000 0.499200
6.400600 0.501300
6.421100 0.497800
6.441700 0.494900
6.462300 0.495600
6.482900 0.496200
6.503500 0.496600
6.524100 0.497400
6.544700 0.498100
6.565300 0.499200
6.585900 0.500700
6.606500 0.502300
6.627100 0.503800
6.647700 0.505100
6.668200 0.506300
6.688800 0.507300
6.709400 0.509000
6.730000 0.510900
6.750600 0.512600
6.771200 0.514200
6.791800 0.515700
6.812400 0.517800
6.833000 0.520100
6.853600 0.531600
6.874200 0.543000
6.894800 0.529500
6.915300 0.531200
6.935900 0.531000
6.956500 0.530800
6.977100 0.530300
6.997700 0.524400
7.018300 0.523700
7.038900 0.524100
7.059500 0.528200
7.080100 0.533200
7.100700 0.538900
7.121300 0.545300
7.141800 0.552500
7.162400 0.555600
7.183000 0.557800
7.203600 0.560100
7.224200 0.565200
7.244800 0.572800
7.265400 0.575600
7.286000 0.578000
7.306600 0.579900
7.327200 0.588300
7.347800 0.593300
7.368400 0.599000
7.388900 0.597700
7.409500 0.577000
7.430100 0.577600
7.450700 0.579400
7.471300 0.581500
7.491900 0.583400
7.512500 0.582100
7.533100 0.582900
7.553700 0.583100
7.574300 0.583200
7.594900 0.583400
7.615500 0.583600
7.636000 0.583700
7.656600 0.584600
7.677200 0.585700
7.697800 0.587300
7.718400 0.582100
7.739000 0.582000
7.759600 0.582000
7.780200 0.581800
7.800800 0.581500
7.821400 0.581000
7.842000 0.586300
7.862600 0.584900
7.883100 0.583500
7.903700 0.583700
7.924300 0.583400
7.944900 0.584400
7.965500 0.585700
7.986100 0.585800
8.006700 0.585900
8.027300 0.597100
8.047900 0.590900
8.068500 0.586600
8.089100 0.584400
8.109700 0.583400
8.130200 0.582600
8.150800 0.582000
8.171400 0.582100
8.192000 0.582800
8.212600 0.584100
8.233200 0.586400
8.253800 0.587100
8.274400 0.587300
8.295000 0.587400
8.315600 0.587200
8.336200 0.586600
8.356800 0.588000
8.377300 0.589200
8.397900 0.589500
8.418500 0.589400
8.439100 0.589100
8.459700 0.586700
8.480300 0.588300
8.500900 0.589600
8.521500 0.589700
8.542100 0.589100
8.562700 0.588400
8.583300 0.590300
8.603800 0.590700
8.624400 0.590900
8.645000 0.590800
8.665600 0.590900
8.686200 0.589400
8.706800 0.589300
8.727400 0.589300
8.748000 0.589100
8.768600 0.589100
8.789200 0.589200
8.809800 0.589300
8.830400 0.589200
8.850900 0.589200
8.871500 0.589200
8.892100 0.589200
8.912700 0.589100
8.933300 0.608300
8.953900 0.603500
8.974500 0.599300
8.995100 0.596500
9.015700 0.597400
9.036300 0.594400
9.056900 0.594600
9.077500 0.596400
9.098000 0.598900
9.118600 0.601300
9.139200 0.603800
9.159800 0.605500
9.180400 0.609000
9.201000 0.608200
9.221600 0.605400
9.242200 0.600200
9.262800 0.598800
9.283400 0.599000
9.304000 0.599300
9.324600 0.599600
9.345100 0.599900
9.365700 0.600200
9.386300 0.599800
9.406900 0.599600
9.427500 0.599800
9.448100 0.599800
9.468700 0.600000
9.489300 0.600400
9.509900 0.600600
9.530500 0.602100
9.551100 0.602200
9.571700 0.602300
9.592200 0.602400
9.612800 0.602700
9.633400 0.603200
9.654000 0.604100
9.674600 0.604800
9.695200 0.605500
9.715800 0.606300
9.736400 0.607000
9.757000 0.609800
9.777600 0.612900
9.798200 0.615400
9.818800 0.641300
9.839300 0.625200
9.859900 0.625900
9.880500 0.630900
9.901100 0.632300
9.921700 0.631100
9.942300 0.631000
9.962900 0.630400
9.983500 0.629200
10.004100 0.624200
10.024700 0.619900
10.045300 0.619700
10.065800 0.619300
10.086400 0.619300
10.107000 0.619400
10.127600 0.619600
10.148200 0.619700
10.168800 0.619900
10.189400 0.620100
10.210000 0.620400
10.230600 0.620700
10.251200 0.621600
10.271800 0.622300
10.292400 0.623000
10.312900 0.622700
10.333500 0.624400
10.354100 0.625400
10.374700 0.626500
10.395300 0.627600
10.415900 0.630000
10.436500 0.633600
10.457100 0.636700
10.477700 0.639400
10.498300 0.640100
10.518900 0.640300
10.539500 0.641300
10.560000 0.642700
10.580600 0.644900
10.601200 0.647400
10.621800 0.650200
10.642400 0.653300
10.663000 0.656700
10.683600 0.660700
10.704200 0.666400
10.724800 0.664900
10.745400 0.664500
10.766000 0.663200
10.786600 0.667400
10.807100 0.657000
10.827700 0.657500
10.848300 0.658000
10.868900 0.658600
10.889500 0.659400
10.910100 0.665400
10.930700 0.671300
10.951300 0.673400
10.971900 0.677600
10.992500 0.680900
11.013100 0.679000
11.033700 0.677600
11.054200 0.676600
11.074800 0.674900
11.095400 0.672500
11.116000 0.670000
11.136600 0.667200
11.157200 0.664300
11.177800 0.661700
11.198400 0.659300
11.219000 0.656900
11.239600 0.657000
11.260200 0.653500
11.280800 0.651800
11.301300 0.650900
11.321900 0.650600
11.342500 0.650900
11.363100 0.648000
11.383700 0.645000
11.404300 0.644600
11.424900 0.644700
11.445500 0.645000
11.466100 0.645200
11.486700 0.645900
11.507300 0.647100
11.527800 0.648300
11.548400 0.649700
11.569000 0.651200
11.589600 0.652500
11.610200 0.659100
11.630800 0.658400
11.651400 0.658700
11.672000 0.659000
11.692600 0.659700
11.713200 0.660900
11.733800 0.662700
11.754400 0.665300
11.774900 0.668300
11.795500 0.671700
11.816100 0.677100
11.836700 0.683400
11.857300 0.691300
11.877900 0.699900
11.898500 0.709400
11.919100 0.715400
11.939700 0.720800
11.960300 0.726900
11.980900 0.734400
12.001500 0.749900
12.022000 0.762900
12.042600 0.776500
12.063200 0.791200
12.083800 0.807000
12.104400 0.823900
12.125000 0.842300
12.145600 0.868100
12.166200 0.901200
12.186800 0.921300
12.207400 0.942300
12.228000 0.960800
12.248600 0.978900
12.269100 0.998200
12.289700 1.023700
12.310300 1.056700
12.330900 1.084500
12.351500 1.106700
12.372100 1.126200
12.392700 1.173400
12.413300 1.134400
12.433900 1.126200
12.454500 1.117000
12.475100 1.113300
12.495700 1.103100
12.516200 1.092900
12.536800 1.079400
12.557400 1.064900
12.578000 1.049700
12.598600 1.033900
12.619200 1.019400
12.639800 1.010600
12.660400 0.998000
12.681000 0.990300
12.701600 0.990700
12.722200 0.993300
12.742800 1.000200
12.763300 1.034700
12.783900 1.030600
12.804500 1.028600
12.825100 1.027200
12.845700 1.007400
12.866300 0.933800
12.886900 0.876300
12.907500 0.829900
12.928100 0.796000
12.948700 0.753600
12.969300 0.713700
12.989800 0.678900
13.010400 0.648900
13.031000 0.626400
13.051600 0.606400
13.072200 0.586900
13.092800 0.568000
13.113400 0.547600
13.134000 0.533200
13.154600 0.521800
13.175200 0.512900
13.195800 0.505900
13.216400 0.500200
13.236900 0.495100
13.257500 0.489500
13.278100 0.485100
13.298700 0.479500
13.319300 0.479700
13.339900 0.465800
13.360500 0.458100
13.381100 0.451500
13.401700 0.447000
13.422300 0.442500
13.442900 0.438300
13.463500 0.434000
13.484000 0.440600
13.504600 0.425900
13.525200 0.421200
13.545800 0.418400
13.566400 0.415600
13.587000 0.412100
13.607600 0.409700
13.628200 0.407500
13.648800 0.405300
13.669400 0.403200
13.690000 0.401200
13.710600 0.398900
13.731100 0.397200
13.751700 0.395800
13.772300 0.403700
13.792900 0.392400
13.813500 0.388200
13.834100 0.383800
13.854700 0.379700
13.875300 0.375500
13.895900 0.372500
13.916500 0.370100
13.937100 0.367500
13.957700 0.365100
13.978200 0.362800
