set title 'mp-1063678 - Density of States'
set xlabel 'Energy (eV)'
set ylabel 'DOS (states/eV)'
set grid
set xrange [-10:10]
set yrange [0:3.846]
set xzeroaxis lt -1
set terminal png size 800,600
set output 'mp-1063678_dos_gnuplot.png'
plot '-' using 1:2 with lines title 'DOS'
-17.085900 0.000000
-17.039500 0.000000
-16.993000 0.000000
-16.946600 0.000000
-16.900200 0.000000
-16.853800 0.000000
-16.807400 0.000000
-16.760900 0.000000
-16.714500 0.000000
-16.668100 0.000000
-16.621700 0.000000
-16.575300 0.000000
-16.528800 0.000000
-16.482400 0.000000
-16.436000 0.000000
-16.389600 0.000000
-16.343200 0.000000
-16.296700 0.000000
-16.250300 0.000000
-16.203900 0.000000
-16.157500 0.000000
-16.111100 0.000000
-16.064600 0.000000
-16.018200 0.000000
-15.971800 0.000000
-15.925400 0.000000
-15.879000 0.000000
-15.832600 0.000000
-15.786100 0.000000
-15.739700 0.000000
-15.693300 0.000000
-15.646900 0.000000
-15.600500 0.000000
-15.554000 0.000000
-15.507600 0.000000
-15.461200 0.000000
-15.414800 0.000000
-15.368400 0.000000
-15.321900 0.000000
-15.275500 0.000000
-15.229100 0.000000
-15.182700 0.000000
-15.136300 0.000000
-15.089800 0.000000
-15.043400 0.000000
-14.997000 0.000000
-14.950600 0.000000
-14.904200 0.000000
-14.857700 0.000000
-14.811300 0.000000
-14.764900 0.000000
-14.718500 0.000000
-14.672100 0.000000
-14.625600 0.000000
-14.579200 0.000000
-14.532800 0.000000
-14.486400 0.000000
-14.440000 0.000000
-14.393600 0.000000
-14.347100 0.000000
-14.300700 0.000000
-14.254300 0.000000
-14.207900 0.000000
-14.161500 0.000000
-14.115000 0.000000
-14.068600 0.000000
-14.022200 0.000000
-13.975800 0.000000
-13.929400 0.000000
-13.882900 0.000000
-13.836500 0.000000
-13.790100 0.000000
-13.743700 0.000000
-13.697300 0.000000
-13.650800 0.000000
-13.604400 0.000000
-13.558000 0.000000
-13.511600 0.000000
-13.465200 0.000000
-13.418700 0.000000
-13.372300 0.000000
-13.325900 0.000000
-13.279500 0.000000
-13.233100 0.000000
-13.186600 0.000000
-13.140200 0.000000
-13.093800 0.000000
-13.047400 0.000000
-13.001000 0.000000
-12.954600 0.000000
-12.908100 0.000000
-12.861700 0.000700
-12.815300 0.090900
-12.768900 0.140300
-12.722500 0.194700
-12.676000 0.217200
-12.629600 0.250100
-12.583200 0.288800
-12.536800 0.313500
-12.490400 0.344500
-12.443900 0.370400
-12.397500 0.402200
-12.351100 0.435600
-12.304700 0.462600
-12.258300 0.494700
-12.211800 0.527100
-12.165400 0.561500
-12.119000 0.599900
-12.072600 0.641100
-12.026200 0.679900
-11.979700 0.725000
-11.933300 0.774600
-11.886900 0.828100
-11.840500 0.888900
-11.794100 0.962000
-11.747600 1.041200
-11.701200 1.128200
-11.654800 1.234200
-11.608400 1.373400
-11.562000 1.558800
-11.515600 1.826500
-11.469100 2.242100
-11.422700 2.578200
-11.376300 2.952600
-11.329900 3.033500
-11.283500 3.094200
-11.237000 2.766900
-11.190600 1.967000
-11.144200 1.098300
-11.097800 0.916400
-11.051400 0.762600
-11.004900 0.650000
-10.958500 0.540900
-10.912100 0.447800
-10.865700 0.365200
-10.819300 0.271900
-10.772800 0.184700
-10.726400 0.000000
-10.680000 0.000000
-10.633600 0.000000
-10.587200 0.000000
-10.540700 0.000000
-10.494300 0.000000
-10.447900 0.000000
-10.401500 0.000000
-10.355100 0.000000
-10.308600 0.000000
-10.262200 0.000000
-10.215800 0.000000
-10.169400 0.000000
-10.123000 0.000000
-10.076600 0.000000
-10.030100 0.000000
-9.983700 0.000000
-9.937300 0.000000
-9.890900 0.000000
-9.844500 0.000000
-9.798000 0.000000
-9.751600 0.000000
-9.705200 0.000000
-9.658800 0.000000
-9.612400 0.000000
-9.565900 0.000000
-9.519500 0.000000
-9.473100 0.000000
-9.426700 0.000000
-9.380300 0.000000
-9.333800 0.000000
-9.287400 0.000000
-9.241000 0.000000
-9.194600 0.000000
-9.148200 0.000000
-9.101700 0.000000
-9.055300 0.000000
-9.008900 0.000000
-8.962500 0.000000
-8.916100 0.000000
-8.869700 0.000000
-8.823200 0.000000
-8.776800 0.000000
-8.730400 0.000000
-8.684000 0.000000
-8.637600 0.000000
-8.591100 0.000000
-8.544700 0.000000
-8.498300 0.000000
-8.451900 0.000000
-8.405500 0.000000
-8.359000 0.000000
-8.312600 0.000000
-8.266200 0.000000
-8.219800 0.000000
-8.173400 0.000000
-8.126900 0.000000
-8.080500 0.000000
-8.034100 0.000000
-7.987700 0.000000
-7.941300 0.000000
-7.894800 0.000000
-7.848400 0.000000
-7.802000 0.000000
-7.755600 0.000000
-7.709200 0.000000
-7.662700 0.000000
-7.616300 0.000000
-7.569900 0.000000
-7.523500 0.000000
-7.477100 0.000000
-7.430700 0.000000
-7.384200 0.000000
-7.337800 0.000000
-7.291400 0.000000
-7.245000 0.000000
-7.198600 0.000000
-7.152100 0.000000
-7.105700 0.000000
-7.059300 0.000000
-7.012900 0.000000
-6.966500 0.000000
-6.920000 0.000000
-6.873600 0.000000
-6.827200 0.000000
-6.780800 0.000000
-6.734400 0.000000
-6.687900 0.000000
-6.641500 0.000000
-6.595100 0.000000
-6.548700 0.000000
-6.502300 0.000000
-6.455800 0.000000
-6.409400 0.000000
-6.363000 0.000000
-6.316600 0.000000
-6.270200 0.000000
-6.223700 0.000000
-6.177300 0.000000
-6.130900 0.000000
-6.084500 0.000000
-6.038100 0.000000
-5.991700 0.000000
-5.945200 0.000000
-5.898800 0.000000
-5.852400 0.000000
-5.806000 0.000000
-5.759600 0.000000
-5.713100 0.000000
-5.666700 0.000000
-5.620300 0.000000
-5.573900 0.000000
-5.527500 0.000000
-5.481000 0.000000
-5.434600 0.000000
-5.388200 0.000000
-5.341800 0.000000
-5.295400 0.000000
-5.248900 0.000000
-5.202500 0.000000
-5.156100 0.000000
-5.109700 0.000000
-5.063300 0.142000
-5.016800 0.210500
-4.970400 0.287800
-4.924000 0.315700
-4.877600 0.357000
-4.831200 0.404000
-4.784700 0.451900
-4.738300 0.502100
-4.691900 0.552900
-4.645500 0.713700
-4.599100 0.856400
-4.552700 1.006200
-4.506200 1.176000
-4.459800 1.412200
-4.413400 1.552200
-4.367000 1.812800
-4.320600 2.004900
-4.274100 1.682200
-4.227700 1.582700
-4.181300 1.454400
-4.134900 1.374100
-4.088500 1.327100
-4.042000 1.289900
-3.995600 1.263900
-3.949200 1.224100
-3.902800 1.204400
-3.856400 1.184100
-3.809900 1.170600
-3.763500 1.199900
-3.717100 1.179100
-3.670700 1.100500
-3.624300 1.035400
-3.577800 0.875800
-3.531400 0.809700
-3.485000 0.781500
-3.438600 0.789800
-3.392200 0.826000
-3.345700 0.813200
-3.299300 0.831800
-3.252900 0.875600
-3.206500 0.967500
-3.160100 1.253100
-3.113700 1.173800
-3.067200 1.230200
-3.020800 1.249500
-2.974400 1.208000
-2.928000 1.212300
-2.881600 1.217300
-2.835100 1.205100
-2.788700 1.214900
-2.742300 1.223900
-2.695900 1.229600
-2.649500 1.220100
-2.603000 1.219400
-2.556600 1.232100
-2.510200 1.256800
-2.463800 1.288800
-2.417400 1.295600
-2.370900 1.302600
-2.324500 1.306000
-2.278100 1.312900
-2.231700 1.326100
-2.185300 1.338500
-2.138800 1.353300
-2.092400 1.386500
-2.046000 1.393100
-1.999600 1.425800
-1.953200 1.457900
-1.906700 1.421500
-1.860300 1.715700
-1.813900 1.719400
-1.767500 1.718900
-1.721100 1.814100
-1.674700 1.772500
-1.628200 1.789500
-1.581800 1.788000
-1.535400 1.821900
-1.489000 1.925000
-1.442600 2.117500
-1.396100 2.411400
-1.349700 2.883900
-1.303300 3.496500
-1.256900 2.205200
-1.210500 1.843300
-1.164000 1.618700
-1.117600 1.418700
-1.071200 1.273100
-1.024800 1.105000
-0.978400 0.963600
-0.931900 0.931800
-0.885500 0.914100
-0.839100 0.909000
-0.792700 0.916300
-0.746300 0.938200
-0.699800 0.983200
-0.653400 1.072700
-0.607000 1.257600
-0.560600 1.347100
-0.514200 1.233100
-0.467700 0.882800
-0.421300 0.656500
-0.374900 0.544800
-0.328500 0.475900
-0.282100 0.407400
-0.235700 0.366100
-0.189200 0.315800
-0.142800 0.283600
-0.096400 0.234700
-0.050000 0.209500
-0.003600 0.181900
0.042900 0.139100
0.089300 0.124900
0.135700 0.070100
0.182100 0.032200
0.228500 0.004200
0.275000 0.000000
0.321400 0.000000
0.367800 0.000000
0.414200 0.000000
0.460600 0.000000
0.507100 0.000000
0.553500 0.000000
0.599900 0.000000
0.646300 0.000000
0.692700 0.000000
0.739200 0.000000
0.785600 0.000000
0.832000 0.000000
0.878400 0.000000
0.924800 0.000000
0.971300 0.000000
1.017700 0.000000
1.064100 0.000000
1.110500 0.000000
1.156900 0.000000
1.203300 0.000000
1.249800 0.000000
1.296200 0.000000
1.342600 0.000000
1.389000 0.000000
1.435400 0.000000
1.481900 0.000000
1.528300 0.000000
1.574700 0.000000
1.621100 0.000000
1.667500 0.000000
1.714000 0.000000
1.760400 0.000000
1.806800 0.000000
1.853200 0.000000
1.899600 0.000000
1.946100 0.000000
1.992500 0.000000
2.038900 0.000000
2.085300 0.000000
2.131700 0.000000
2.178200 0.000000
2.224600 0.000000
2.271000 0.000000
2.317400 0.000000
2.363800 0.000000
2.410300 0.000000
2.456700 0.000000
2.503100 0.011900
2.549500 0.020000
2.595900 0.030000
2.642300 0.056200
2.688800 0.072800
2.735200 0.120400
2.781600 0.087600
2.828000 0.097400
2.874400 0.107400
2.920900 0.117400
2.967300 0.127600
3.013700 0.138400
3.060100 0.159200
3.106500 0.167800
3.153000 0.160000
3.199400 0.160400
3.245800 0.168700
3.292200 0.177900
3.338600 0.187300
3.385100 0.196800
3.431500 0.206300
3.477900 0.215400
3.524300 0.225100
3.570700 0.240400
3.617200 0.247500
3.663600 0.252000
3.710000 0.254100
3.756400 0.258300
3.802800 0.267700
3.849300 0.278200
3.895700 0.288800
3.942100 0.299800
3.988500 0.311100
4.034900 0.323000
4.081300 0.335400
4.127800 0.348400
4.174200 0.369500
4.220600 0.390900
4.267000 0.394000
4.313400 0.404800
4.359900 0.428800
4.406300 0.451500
4.452700 0.475100
4.499100 0.535200
4.545500 0.665000
4.592000 0.847300
4.638400 0.968900
4.684800 1.006100
4.731200 0.967500
4.777600 0.933700
4.824100 0.907500
4.870500 0.907000
4.916900 0.906300
4.963300 0.901500
5.009700 0.910000
5.056200 0.883300
5.102600 0.884800
5.149000 0.904500
5.195400 0.873000
5.241800 0.868900
5.288300 0.867700
5.334700 0.870800
5.381100 0.879400
5.427500 0.861700
5.473900 0.865900
5.520300 0.869800
5.566800 0.877900
5.613200 0.885100
5.659600 0.899700
5.706000 0.922200
5.752400 0.959200
5.798900 1.038900
5.845300 1.002700
5.891700 0.965500
5.938100 0.917300
5.984500 0.847900
6.031000 0.787800
6.077400 0.739300
6.123800 0.725500
6.170200 0.728600
6.216600 0.730500
6.263100 0.743000
6.309500 0.762200
6.355900 0.781200
6.402300 0.832700
6.448700 0.952400
6.495200 1.104400
6.541600 1.324700
6.588000 1.229000
6.634400 1.056800
6.680800 1.022300
6.727200 1.018000
6.773700 1.024100
6.820100 1.007000
6.866500 1.004700
6.912900 1.013500
6.959300 1.042400
7.005800 0.979700
7.052200 0.942100
7.098600 0.903100
7.145000 0.866300
7.191400 0.836100
7.237900 0.753600
7.284300 0.726500
7.330700 0.804700
7.377100 0.766700
7.423500 0.792100
7.470000 0.823500
7.516400 0.800200
7.562800 0.783400
7.609200 0.772900
7.655600 0.774300
7.702100 0.770200
7.748500 0.799000
7.794900 0.759900
7.841300 0.742300
7.887700 0.720100
7.934200 0.714300
7.980600 0.717900
8.027000 0.724400
8.073400 0.737800
8.119800 0.718900
8.166200 0.715500
8.212700 0.731700
8.259100 0.759600
8.305500 0.757900
8.351900 0.765100
8.398300 0.778100
8.444800 0.799000
8.491200 0.812800
8.537600 0.825200
8.584000 0.854000
8.630400 0.896900
8.676900 0.927100
8.723300 0.933300
8.769700 0.935000
8.816100 0.961300
8.862500 0.999400
8.909000 1.013400
8.955400 1.039300
9.001800 1.061500
9.048200 1.078300
9.094600 1.132900
9.141100 0.962300
9.187500 0.963000
9.233900 1.077800
9.280300 1.326400
9.326700 1.670700
9.373200 1.693700
9.419600 1.800500
9.466000 1.728200
9.512400 1.746300
9.558800 1.736600
9.605200 1.674300
9.651700 1.618900
9.698100 1.512300
9.744500 1.381600
9.790900 1.230700
9.837300 1.147400
9.883800 1.067500
9.930200 1.007000
9.976600 0.987000
10.023000 0.995600
10.069400 1.018700
10.115900 1.093300
10.162300 1.165300
10.208700 1.204300
10.255100 1.255600
10.301500 1.185400
10.348000 1.191200
10.394400 1.187300
10.440800 1.183800
10.487200 1.180100
10.533600 1.191600
10.580100 1.226800
10.626500 1.274000
10.672900 1.347900
10.719300 1.310700
10.765700 1.275700
10.812200 1.371900
10.858600 1.291600
10.905000 1.179700
10.951400 1.124100
10.997800 1.069200
11.044200 1.031700
11.090700 0.963900
11.137100 0.897900
11.183500 0.848600
11.229900 0.806200
11.276300 0.791800
11.322800 0.900200
11.369200 1.097200
11.415600 1.292500
11.462000 1.390700
11.508400 1.503300
11.554900 1.409200
11.601300 1.338600
11.647700 1.251400
11.694100 1.235400
11.740500 1.133100
11.787000 1.084900
11.833400 1.090900
11.879800 1.109900
11.926200 1.125700
11.972600 1.144200
12.019100 1.110200
12.065500 1.087300
12.111900 1.070500
12.158300 1.058400
12.204700 1.049900
12.251200 1.034600
12.297600 1.022200
12.344000 0.996100
12.390400 0.979400
12.436800 0.964500
12.483200 0.956100
12.529700 0.971200
12.576100 0.946300
12.622500 0.941800
12.668900 0.941900
12.715300 0.952200
12.761800 0.969200
12.808200 0.984000
12.854600 0.988100
12.901000 1.003700
12.947400 0.984700
12.993900 0.995200
13.040300 1.082000
13.086700 1.031500
13.133100 0.953400
13.179500 0.911000
13.226000 0.862700
13.272400 0.843800
13.318800 0.774900
13.365200 0.751500
13.411600 0.728200
13.458100 0.712100
13.504500 0.687200
13.550900 0.647700
13.597300 0.616200
13.643700 0.595100
13.690200 0.579400
13.736600 0.566700
13.783000 0.577800
13.829400 0.569200
13.875800 0.570500
13.922200 0.574400
13.968700 0.585500
14.015100 0.591800
14.061500 0.596200
14.107900 0.602800
14.154300 0.611800
14.200800 0.638800
14.247200 0.698400
14.293600 0.751200
14.340000 0.790700
14.386400 0.790900
14.432900 0.795300
14.479300 0.838400
14.525700 0.882200
14.572100 0.851100
14.618500 0.800600
14.665000 0.777100
14.711400 0.778000
14.757800 0.758600
14.804200 0.756600
14.850600 0.761900
14.897100 0.756400
14.943500 0.758900
14.989900 0.769400
15.036300 0.789900
15.082700 0.815600
15.129200 0.841700
15.175600 0.895400
15.222000 0.910100
15.268400 0.964900
15.314800 1.009000
15.361200 1.061500
15.407700 1.079300
15.454100 1.091400
15.500500 1.094100
15.546900 1.072400
15.593300 1.026700
15.639800 1.005500
15.686200 1.000200
15.732600 1.006100
15.779000 1.018400
15.825400 1.054100
15.871900 1.079700
15.918300 1.057600
15.964700 1.049900
16.011100 1.076500
16.057500 0.986400
16.104000 0.963000
16.150400 0.908300
16.196800 0.898100
16.243200 0.937800
16.289600 0.877000
16.336100 0.864600
16.382500 0.862800
16.428900 0.880700
16.475300 0.914500
16.521700 0.963900
16.568200 1.004400
16.614600 1.040100
16.661000 1.078700
16.707400 1.106200
16.753800 1.144400
16.800200 1.177200
16.846700 1.193100
16.893100 1.195800
16.939500 1.198600
16.985900 1.169800
17.032300 1.135200
17.078800 1.136900
17.125200 1.165100
17.171600 1.202100
17.218000 1.220800
17.264400 1.230400
17.310900 1.232100
17.357300 1.231900
17.403700 1.262800
17.450100 1.256900
17.496500 1.293000
17.543000 1.313100
17.589400 1.317900
17.635800 1.373000
17.682200 1.579700
17.728600 1.576100
17.775100 1.296100
17.821500 1.240800
17.867900 1.179000
17.914300 1.154300
17.960700 1.031700
18.007200 0.962500
18.053600 0.918000
18.100000 0.887200
18.146400 0.888200
18.192800 0.905400
18.239200 0.954700
18.285700 0.999300
18.332100 0.984600
18.378500 1.014100
18.424900 1.099800
18.471300 1.365900
18.517800 1.347400
18.564200 1.329900
18.610600 1.363700
18.657000 1.368500
18.703400 1.380600
18.749900 1.382800
18.796300 1.365400
18.842700 1.359000
18.889100 1.349300
18.935500 1.306700
18.982000 1.293300
19.028400 1.240300
19.074800 1.222200
19.121200 1.187600
19.167600 1.180800
19.214100 1.159300
19.260500 1.114900
19.306900 1.095700
19.353300 0.994200
19.399700 0.887900
19.446200 0.833300
19.492600 0.799300
19.539000 0.800000
19.585400 0.808200
19.631800 0.817500
19.678200 0.827400
19.724700 0.832100
19.771100 0.854400
19.817500 0.880800
19.863900 0.889900
19.910300 0.869800
19.956800 0.870700
20.003200 0.887800
20.049600 0.896800
20.096000 0.906900
20.142400 0.924700
20.188900 0.949100
20.235300 0.975100
20.281700 1.004500
20.328100 1.032300
20.374500 1.062000
20.421000 1.093700
20.467400 1.146800
20.513800 1.091500
20.560200 1.051200
20.606600 1.061300
20.653100 1.079500
20.699500 1.115500
20.745900 1.148100
20.792300 1.185600
20.838700 1.248600
20.885200 1.309600
20.931600 1.380500
20.978000 1.451100
21.024400 1.532700
21.070800 1.588300
21.117200 1.619300
21.163700 1.622500
21.210100 1.597300
21.256500 1.561800
21.302900 1.521400
21.349300 1.488900
21.395800 1.473800
21.442200 1.427000
21.488600 1.407400
21.535000 1.423400
21.581400 1.377200
21.627900 1.362500
21.674300 1.360900
21.720700 1.393000
21.767100 1.452500
21.813500 1.469400
21.860000 1.461100
21.906400 1.478800
21.952800 1.488400
21.999200 1.489700
22.045600 1.526000
22.092100 1.549100
22.138500 1.570600
22.184900 1.598300
22.231300 1.654500
22.277700 1.686600
22.324100 1.698000
22.370600 1.702700
22.417000 1.653400
22.463400 1.607000
22.509800 1.549100
22.556200 1.494700
22.602700 1.439700
22.649100 1.411300
22.695500 1.410400
22.741900 1.407000
22.788300 1.527400
22.834800 1.673200
22.881200 1.760800
22.927600 1.813400
22.974000 1.785900
23.020400 1.719400
23.066900 1.733200
23.113300 1.793000
23.159700 1.805500
23.206100 1.766100
23.252500 1.679200
23.299000 1.615000
23.345400 1.537500
23.391800 1.461500
23.438200 1.410300
23.484600 1.353700
23.531100 1.330800
23.577500 1.327200
23.623900 1.342400
23.670300 1.381900
23.716700 1.387900
23.763100 1.364300
23.809600 1.330100
23.856000 1.296800
23.902400 1.271700
23.948800 1.236400
23.995200 1.181800
24.041700 1.104800
24.088100 1.043300
24.134500 0.982900
24.180900 0.934600
24.227300 0.889600
24.273800 0.877600
24.320200 0.850500
24.366600 0.841000
24.413000 0.866700
24.459400 0.961900
24.505900 0.984900
24.552300 0.988800
24.598700 0.967700
24.645100 0.942200
24.691500 0.939000
24.738000 0.946400
24.784400 0.937700
24.830800 0.939600
24.877200 0.939700
24.923600 0.952500
24.970100 1.031000
25.016500 1.135600
25.062900 1.233900
25.109300 1.330200
25.155700 1.200100
25.202100 1.158100
25.248600 1.099600
25.295000 1.039900
25.341400 1.004600
25.387800 1.002700
25.434200 1.036600
25.480700 1.059600
25.527100 1.068800
25.573500 1.099700
25.619900 1.189400
25.666300 1.210400
25.712800 1.181300
25.759200 1.154400
25.805600 1.112600
25.852000 1.089800
25.898400 1.055300
25.944900 1.068900
25.991300 1.139300
26.037700 1.206600
26.084100 1.355800
26.130500 1.493700
26.177000 1.613700
26.223400 1.724700
26.269800 1.770400
26.316200 1.787600
26.362600 1.768800
26.409100 1.726700
26.455500 1.651200
26.501900 1.609700
26.548300 1.565300
26.594700 1.523800
26.641100 1.460300
26.687600 1.395700
26.734000 1.337800
26.780400 1.273700
26.826800 1.221900
26.873200 1.191800
26.919700 1.144000
26.966100 1.095600
27.012500 1.029900
27.058900 0.955300
27.105300 0.909100
27.151800 0.888800
27.198200 0.863800
27.244600 0.842700
27.291000 0.788900
27.337400 0.786600
27.383900 0.811900
27.430300 0.850600
27.476700 0.909000
27.523100 0.968300
27.569500 1.026500
27.616000 1.086300
27.662400 1.123200
27.708800 1.162900
27.755200 1.240700
27.801600 1.335500
27.848100 1.524200
27.894500 1.709800
27.940900 1.834000
27.987300 1.912900
28.033700 1.932800
28.080100 1.933400
28.126600 1.901200
28.173000 1.847500
28.219400 1.826500
28.265800 1.713300
28.312200 1.582900
28.358700 1.463900
28.405100 1.358600
28.451500 1.284400
28.497900 1.238300
28.544300 1.212200
28.590800 1.209700
28.637200 1.166800
28.683600 1.169000
28.730000 1.197800
28.776400 1.228800
28.822900 1.259500
28.869300 1.320800
28.915700 1.363900
28.962100 1.424100
29.008500 1.488700
29.055000 1.512200
29.101400 1.484900
29.147800 1.437300
29.194200 1.394100
29.240600 1.380400
29.287100 1.400400
29.333500 1.399000
29.379900 1.416400
29.426300 1.436900
29.472700 1.460200
29.519100 1.493200
29.565600 1.529700
29.612000 1.505200
29.658400 1.463200
29.704800 1.420700
29.751200 1.327700
29.797700 1.283900
29.844100 1.253800
29.890500 1.244600
29.936900 1.228000
29.983300 1.224400
30.029800 1.239500
30.076200 1.283400
30.122600 1.236000
30.169000 1.198100
30.215400 1.133500
30.261900 1.069700
30.308300 1.013600
30.354700 0.956700
30.401100 0.890200
30.447500 0.856700
30.494000 0.838300
30.540400 0.833000
30.586800 0.832100
30.633200 0.851100
30.679600 0.865200
30.726100 0.902000
30.772500 0.956200
30.818900 1.030300
30.865300 1.087300
30.911700 1.150400
30.958100 1.224800
31.004600 1.298300
31.051000 1.370000
31.097400 1.454100
31.143800 1.515300
31.190200 1.560600
