set title 'mp-104 - Density of States'
set xlabel 'Energy (eV)'
set ylabel 'DOS (states/eV)'
set grid
set xrange [-10:10]
set yrange [0:2.517]
set xzeroaxis lt -1
set terminal png size 800,600
set output 'mp-104_dos_gnuplot.png'
plot '-' using 1:2 with lines title 'DOS'
-7.176800 0.000000
-7.160800 0.000000
-7.144800 0.000000
-7.128800 0.000000
-7.112900 0.000000
-7.096900 0.000000
-7.080900 0.000000
-7.064900 0.000000
-7.048900 0.000000
-7.032900 0.000000
-7.016900 0.000000
-7.001000 0.000000
-6.985000 0.000000
-6.969000 0.000000
-6.953000 0.000000
-6.937000 0.000000
-6.921000 0.000000
-6.905100 0.000000
-6.889100 0.000000
-6.873100 0.000000
-6.857100 0.000000
-6.841100 0.000000
-6.825100 0.000000
-6.809100 0.000000
-6.793200 0.000000
-6.777200 0.000000
-6.761200 0.000000
-6.745200 0.000000
-6.729200 0.000000
-6.713200 0.000000
-6.697300 0.000000
-6.681300 0.000000
-6.665300 0.000000
-6.649300 0.000000
-6.633300 0.000000
-6.617300 0.000000
-6.601300 0.000000
-6.585400 0.000000
-6.569400 0.000000
-6.553400 0.000000
-6.537400 0.000000
-6.521400 0.000000
-6.505400 0.000000
-6.489500 0.000000
-6.473500 0.000000
-6.457500 0.000000
-6.441500 0.000000
-6.425500 0.000000
-6.409500 0.000000
-6.393500 0.000000
-6.377600 0.000000
-6.361600 0.000000
-6.345600 0.000000
-6.329600 0.000000
-6.313600 0.000000
-6.297600 0.000000
-6.281700 0.000000
-6.265700 0.000000
-6.249700 0.000000
-6.233700 0.000000
-6.217700 0.000000
-6.201700 0.000000
-6.185800 0.000000
-6.169800 0.000000
-6.153800 0.000000
-6.137800 0.000000
-6.121800 0.000000
-6.105800 0.000000
-6.089800 0.000000
-6.073900 0.000000
-6.057900 0.000000
-6.041900 0.000000
-6.025900 0.000000
-6.009900 0.000000
-5.993900 0.000000
-5.978000 0.000000
-5.962000 0.000000
-5.946000 0.000000
-5.930000 0.000000
-5.914000 0.000000
-5.898000 0.000000
-5.882000 0.000000
-5.866100 0.000000
-5.850100 0.000000
-5.834100 0.000000
-5.818100 0.000000
-5.802100 0.000000
-5.786100 0.000000
-5.770200 0.000000
-5.754200 0.000000
-5.738200 0.000000
-5.722200 0.000100
-5.706200 0.019800
-5.690200 0.072600
-5.674200 0.111600
-5.658300 0.114900
-5.642300 0.133100
-5.626300 0.152400
-5.610300 0.172500
-5.594300 0.189400
-5.578300 0.199700
-5.562400 0.207800
-5.546400 0.215300
-5.530400 0.226200
-5.514400 0.237800
-5.498400 0.249600
-5.482400 0.261500
-5.466400 0.271900
-5.450500 0.280700
-5.434500 0.290900
-5.418500 0.297900
-5.402500 0.305400
-5.386500 0.313200
-5.370500 0.320900
-5.354600 0.328500
-5.338600 0.336400
-5.322600 0.344900
-5.306600 0.353900
-5.290600 0.362000
-5.274600 0.369500
-5.258700 0.377300
-5.242700 0.385200
-5.226700 0.393000
-5.210700 0.400700
-5.194700 0.407300
-5.178700 0.413200
-5.162700 0.419900
-5.146800 0.426900
-5.130800 0.434100
-5.114800 0.441200
-5.098800 0.448400
-5.082800 0.455600
-5.066800 0.462500
-5.050900 0.469000
-5.034900 0.475700
-5.018900 0.482900
-5.002900 0.490100
-4.986900 0.497500
-4.970900 0.505000
-4.954900 0.512500
-4.939000 0.520000
-4.923000 0.526400
-4.907000 0.533200
-4.891000 0.540000
-4.875000 0.546700
-4.859000 0.553400
-4.843100 0.560300
-4.827100 0.567400
-4.811100 0.574600
-4.795100 0.581900
-4.779100 0.589300
-4.763100 0.596800
-4.747100 0.604400
-4.731200 0.612200
-4.715200 0.620100
-4.699200 0.628200
-4.683200 0.636500
-4.667200 0.644900
-4.651200 0.653500
-4.635300 0.662300
-4.619300 0.671200
-4.603300 0.680200
-4.587300 0.688700
-4.571300 0.697100
-4.555300 0.705900
-4.539300 0.716000
-4.523400 0.727100
-4.507400 0.738700
-4.491400 0.751500
-4.475400 0.765600
-4.459400 0.780700
-4.443400 0.797000
-4.427500 0.823100
-4.411500 0.851900
-4.395500 0.865800
-4.379500 0.864600
-4.363500 0.864000
-4.347500 0.876700
-4.331500 0.886700
-4.315600 0.886500
-4.299600 0.884700
-4.283600 0.886400
-4.267600 0.890300
-4.251600 0.896500
-4.235600 0.901800
-4.219700 0.905900
-4.203700 0.909000
-4.187700 0.911400
-4.171700 0.913200
-4.155700 0.914600
-4.139700 0.918800
-4.123800 0.922400
-4.107800 0.926100
-4.091800 0.932300
-4.075800 0.938200
-4.059800 0.944100
-4.043800 0.950000
-4.027800 0.955800
-4.011900 0.961700
-3.995900 0.964600
-3.979900 0.968600
-3.963900 0.974300
-3.947900 0.981700
-3.931900 0.989300
-3.916000 0.997500
-3.900000 1.006100
-3.884000 1.015400
-3.868000 1.025300
-3.852000 1.035400
-3.836000 1.045700
-3.820000 1.056300
-3.804100 1.067500
-3.788100 1.079100
-3.772100 1.091500
-3.756100 1.105500
-3.740100 1.121600
-3.724100 1.140400
-3.708200 1.162000
-3.692200 1.186600
-3.676200 1.214800
-3.660200 1.246800
-3.644200 1.291200
-3.628200 1.335500
-3.612200 1.384400
-3.596300 1.458600
-3.580300 1.540100
-3.564300 1.639200
-3.548300 1.708300
-3.532300 1.701200
-3.516300 1.644800
-3.500400 1.596600
-3.484400 1.563600
-3.468400 1.540100
-3.452400 1.499400
-3.436400 1.424700
-3.420400 1.318900
-3.404400 1.194400
-3.388500 1.115300
-3.372500 1.132900
-3.356500 1.092100
-3.340500 1.009700
-3.324500 0.929000
-3.308500 0.867300
-3.292600 0.826500
-3.276600 0.786600
-3.260600 0.745400
-3.244600 0.702700
-3.228600 0.657700
-3.212600 0.616100
-3.196600 0.578600
-3.180700 0.545400
-3.164700 0.517500
-3.148700 0.496600
-3.132700 0.478500
-3.116700 0.459600
-3.100700 0.440000
-3.084800 0.418200
-3.068800 0.397300
-3.052800 0.377800
-3.036800 0.358700
-3.020800 0.339000
-3.004800 0.317500
-2.988900 0.276300
-2.972900 0.228400
-2.956900 0.192700
-2.940900 0.156600
-2.924900 0.119900
-2.908900 0.082800
-2.892900 0.045200
-2.877000 0.013500
-2.861000 0.000000
-2.845000 0.000000
-2.829000 0.000000
-2.813000 0.000000
-2.797000 0.000000
-2.781100 0.000000
-2.765100 0.006900
-2.749100 0.026300
-2.733100 0.079800
-2.717100 0.151800
-2.701100 0.255100
-2.685100 0.370800
-2.669200 0.481900
-2.653200 0.580800
-2.637200 0.698700
-2.621200 0.729600
-2.605200 0.747400
-2.589200 0.745700
-2.573300 0.744400
-2.557300 0.746000
-2.541300 0.742600
-2.525300 0.755100
-2.509300 0.770200
-2.493300 0.840400
-2.477300 0.829100
-2.461400 0.825300
-2.445400 0.829800
-2.429400 0.826300
-2.413400 0.825800
-2.397400 0.831000
-2.381400 0.836400
-2.365500 0.841400
-2.349500 0.843900
-2.333500 0.845400
-2.317500 0.851000
-2.301500 0.856700
-2.285500 0.863500
-2.269500 0.873000
-2.253600 0.882000
-2.237600 0.890400
-2.221600 0.898400
-2.205600 0.904600
-2.189600 0.908300
-2.173600 0.911800
-2.157700 0.914600
-2.141700 0.919200
-2.125700 0.927600
-2.109700 0.936400
-2.093700 0.948000
-2.077700 0.960200
-2.061800 0.973400
-2.045800 0.985200
-2.029800 0.995100
-2.013800 1.041800
-1.997800 1.080300
-1.981800 1.121600
-1.965800 1.175300
-1.949900 1.255000
-1.933900 1.327200
-1.917900 1.376300
-1.901900 1.442200
-1.885900 1.568000
-1.869900 1.867100
-1.854000 1.769400
-1.838000 1.488400
-1.822000 1.374600
-1.806000 1.310600
-1.790000 1.255600
-1.774000 1.211200
-1.758000 1.183700
-1.742100 1.161100
-1.726100 1.138000
-1.710100 1.120800
-1.694100 1.106000
-1.678100 1.094200
-1.662100 1.094000
-1.646200 1.085000
-1.630200 1.068100
-1.614200 1.049200
-1.598200 1.030500
-1.582200 1.011100
-1.566200 0.994000
-1.550200 0.978400
-1.534300 0.963300
-1.518300 0.949100
-1.502300 0.941400
-1.486300 0.940300
-1.470300 0.946700
-1.454300 0.927200
-1.438400 0.918600
-1.422400 0.904200
-1.406400 0.883600
-1.390400 0.856800
-1.374400 0.824600
-1.358400 0.792600
-1.342400 0.770400
-1.326500 0.755200
-1.310500 0.740300
-1.294500 0.724900
-1.278500 0.708500
-1.262500 0.692600
-1.246500 0.676700
-1.230600 0.661900
-1.214600 0.647800
-1.198600 0.634200
-1.182600 0.621300
-1.166600 0.611400
-1.150600 0.603000
-1.134600 0.594500
-1.118700 0.585900
-1.102700 0.577000
-1.086700 0.567900
-1.070700 0.558400
-1.054700 0.547700
-1.038700 0.536600
-1.022800 0.526200
-1.006800 0.516100
-0.990800 0.508100
-0.974800 0.500900
-0.958800 0.493600
-0.942800 0.485700
-0.926900 0.477500
-0.910900 0.469300
-0.894900 0.460200
-0.878900 0.449300
-0.862900 0.438500
-0.846900 0.429300
-0.830900 0.423500
-0.815000 0.418800
-0.799000 0.414100
-0.783000 0.409400
-0.767000 0.404700
-0.751000 0.399900
-0.735000 0.395100
-0.719100 0.390100
-0.703100 0.385100
-0.687100 0.379900
-0.671100 0.374800
-0.655100 0.369400
-0.639100 0.363900
-0.623100 0.358200
-0.607200 0.352500
-0.591200 0.346700
-0.575200 0.340700
-0.559200 0.334400
-0.543200 0.327400
-0.527200 0.320500
-0.511300 0.314400
-0.495300 0.309100
-0.479300 0.304200
-0.463300 0.298900
-0.447300 0.291600
-0.431300 0.285700
-0.415300 0.280900
-0.399400 0.277300
-0.383400 0.274100
-0.367400 0.271000
-0.351400 0.267900
-0.335400 0.264700
-0.319400 0.261600
-0.303500 0.258500
-0.287500 0.255300
-0.271500 0.252100
-0.255500 0.248900
-0.239500 0.245600
-0.223500 0.242300
-0.207500 0.238900
-0.191600 0.235500
-0.175600 0.232000
-0.159600 0.228300
-0.143600 0.224600
-0.127600 0.220800
-0.111600 0.217100
-0.095700 0.213400
-0.079700 0.209700
-0.063700 0.206000
-0.047700 0.202400
-0.031700 0.198700
-0.015700 0.194300
0.000200 0.190200
0.016200 0.186400
0.032200 0.181300
0.048200 0.178000
0.064200 0.175200
0.080200 0.172600
0.096200 0.170300
0.112100 0.168100
0.128100 0.165800
0.144100 0.163600
0.160100 0.161400
0.176100 0.159200
0.192100 0.156900
0.208000 0.154700
0.224000 0.152500
0.240000 0.150300
0.256000 0.148000
0.272000 0.145800
0.288000 0.143500
0.304000 0.141200
0.319900 0.138900
0.335900 0.136600
0.351900 0.134200
0.367900 0.131600
0.383900 0.129000
0.399900 0.126400
0.415800 0.123800
0.431800 0.121300
0.447800 0.118900
0.463800 0.116400
0.479800 0.114100
0.495800 0.111700
0.511800 0.109400
0.527700 0.106700
0.543700 0.103400
0.559700 0.101600
0.575700 0.099900
0.591700 0.098100
0.607700 0.096300
0.623600 0.094600
0.639600 0.092800
0.655600 0.091100
0.671600 0.089400
0.687600 0.087700
0.703600 0.086000
0.719600 0.084300
0.735500 0.082600
0.751500 0.080900
0.767500 0.079200
0.783500 0.077600
0.799500 0.075900
0.815500 0.074200
0.831400 0.072500
0.847400 0.070800
0.863400 0.069100
0.879400 0.067400
0.895400 0.065700
0.911400 0.064000
0.927400 0.062200
0.943300 0.060500
0.959300 0.058800
0.975300 0.057100
0.991300 0.055400
1.007300 0.053800
1.023300 0.052100
1.039200 0.050400
1.055200 0.048700
1.071200 0.047100
1.087200 0.045400
1.103200 0.043800
1.119200 0.042200
1.135100 0.040600
1.151100 0.039000
1.167100 0.037400
1.183100 0.035900
1.199100 0.034300
1.215100 0.032800
1.231100 0.031300
1.247000 0.029900
1.263000 0.028400
1.279000 0.027300
1.295000 0.027700
1.311000 0.028600
1.327000 0.026200
1.342900 0.021800
1.358900 0.017700
1.374900 0.014100
1.390900 0.010900
1.406900 0.008100
1.422900 0.005700
1.438900 0.003800
1.454800 0.002200
1.470800 0.001100
1.486800 0.000300
1.502800 0.292400
1.518800 0.647200
1.534800 0.690600
1.550700 0.602800
1.566700 0.607100
1.582700 0.640000
1.598700 0.682500
1.614700 0.739000
1.630700 0.708400
1.646700 0.670600
1.662600 0.658800
1.678600 0.667900
1.694600 0.683900
1.710600 0.702400
1.726600 0.720100
1.742600 0.740300
1.758500 0.763600
1.774500 0.790800
1.790500 0.822200
1.806500 0.861700
1.822500 0.913900
1.838500 0.974400
1.854500 1.045000
1.870400 1.061300
1.886400 0.963200
1.902400 0.930200
1.918400 0.925700
1.934400 0.911800
1.950400 0.906400
1.966300 0.906200
1.982300 0.904300
1.998300 0.900600
2.014300 0.895100
2.030300 0.882000
2.046300 0.868800
2.062300 0.855600
2.078200 0.842500
2.094200 0.828000
2.110200 0.819600
2.126200 0.817700
2.142200 0.818200
2.158200 0.820800
2.174100 0.863900
2.190100 0.915500
2.206100 0.940000
2.222100 0.953400
2.238100 0.955800
2.254100 0.947900
2.270000 0.935500
2.286000 0.926400
2.302000 0.922400
2.318000 0.922000
2.334000 0.923100
2.350000 0.925500
2.366000 0.929400
2.381900 0.934700
2.397900 0.941600
2.413900 0.950200
2.429900 0.961200
2.445900 0.972900
2.461900 0.985000
2.477800 0.997500
2.493800 1.009700
2.509800 1.021500
2.525800 1.032400
2.541800 1.037800
2.557800 1.046700
2.573800 1.056700
2.589700 1.065400
2.605700 1.071500
2.621700 1.077100
2.637700 1.084400
2.653700 1.093200
2.669700 1.101000
2.685600 1.108700
2.701600 1.116600
2.717600 1.125300
2.733600 1.135600
2.749600 1.147400
2.765600 1.159700
2.781600 1.171000
2.797500 1.182200
2.813500 1.193900
2.829500 1.206900
2.845500 1.221700
2.861500 1.237000
2.877500 1.252100
2.893400 1.267400
2.909400 1.281800
2.925400 1.297600
2.941400 1.318800
2.957400 1.339900
2.973400 1.359300
2.989400 1.376800
3.005300 1.400300
3.021300 1.427800
3.037300 1.453800
3.053300 1.481600
3.069300 1.513000
3.085300 1.547800
3.101200 1.586800
3.117200 1.655600
3.133200 1.664700
3.149200 1.629300
3.165200 1.661200
3.181200 1.691200
3.197100 1.708800
3.213100 1.715400
3.229100 1.705100
3.245100 1.693600
3.261100 1.689400
3.277100 1.684000
3.293100 1.675600
3.309000 1.665700
3.325000 1.658000
3.341000 1.654400
3.357000 1.651600
3.373000 1.652000
3.389000 1.655100
3.404900 1.653200
3.420900 1.645900
3.436900 1.641300
3.452900 1.640400
3.468900 1.641800
3.484900 1.642800
3.500900 1.642500
3.516800 1.641900
3.532800 1.640300
3.548800 1.639400
3.564800 1.639400
3.580800 1.639800
3.596800 1.639800
3.612700 1.640300
3.628700 1.641500
3.644700 1.642200
3.660700 1.642700
3.676700 1.642800
3.692700 1.643100
3.708700 1.644000
3.724600 1.645200
3.740600 1.645200
3.756600 1.644500
3.772600 1.641800
3.788600 1.635700
3.804600 1.627200
3.820500 1.621700
3.836500 1.619300
3.852500 1.617300
3.868500 1.616300
3.884500 1.615500
3.900500 1.614400
3.916500 1.612100
3.932400 1.608200
3.948400 1.607600
3.964400 1.609800
3.980400 1.614400
3.996400 1.620100
4.012400 1.623800
4.028300 1.626000
4.044300 1.628300
4.060300 1.631600
4.076300 1.635000
4.092300 1.637300
4.108300 1.639900
4.124300 1.642900
4.140200 1.646100
4.156200 1.649900
4.172200 1.653500
4.188200 1.657800
4.204200 1.663800
4.220200 1.669200
4.236100 1.671700
4.252100 1.670400
4.268100 1.666500
4.284100 1.658500
4.300100 1.649100
4.316100 1.645700
4.332000 1.644100
4.348000 1.643400
4.364000 1.643300
4.380000 1.642000
4.396000 1.640700
4.412000 1.640500
4.428000 1.640600
4.443900 1.641000
4.459900 1.643800
4.475900 1.651900
4.491900 1.665200
4.507900 1.681400
4.523900 1.689200
4.539800 1.690500
4.555800 1.698400
4.571800 1.706900
4.587800 1.715300
4.603800 1.725100
4.619800 1.733500
4.635800 1.746600
4.651700 1.747800
4.667700 1.736200
4.683700 1.757100
4.699700 1.766000
4.715700 1.761900
4.731700 1.751900
4.747600 1.751100
4.763600 1.768400
4.779600 1.783400
4.795600 1.795400
4.811600 1.796700
4.827600 1.772500
4.843600 1.656900
4.859500 1.611800
4.875500 1.594000
4.891500 1.571100
4.907500 1.544200
4.923500 1.521900
4.939500 1.509900
4.955400 1.499200
4.971400 1.481900
4.987400 1.413500
5.003400 1.408700
5.019400 1.406600
5.035400 1.391100
5.051400 1.372700
5.067300 1.352100
5.083300 1.329600
5.099300 1.310100
5.115300 1.295900
5.131300 1.286500
5.147300 1.277200
5.163200 1.267100
5.179200 1.256000
5.195200 1.242700
5.211200 1.221000
5.227200 1.209100
5.243200 1.206300
5.259100 1.199300
5.275100 1.203700
5.291100 1.218800
5.307100 1.238100
5.323100 1.249600
5.339100 1.262300
5.355100 1.274600
5.371000 1.273100
5.387000 1.271100
5.403000 1.279900
5.419000 1.284400
5.435000 1.283600
5.451000 1.279300
5.466900 1.261800
5.482900 1.215600
5.498900 1.172800
5.514900 1.157500
5.530900 1.158700
5.546900 1.156100
5.562900 1.126500
5.578800 1.077400
5.594800 1.034200
5.610800 0.997400
5.626800 0.969300
5.642800 0.948900
5.658800 0.937300
5.674700 0.930200
5.690700 0.923500
5.706700 0.915300
5.722700 0.931300
5.738700 0.929100
5.754700 0.910100
5.770700 0.890500
5.786600 0.875200
5.802600 0.883400
5.818600 0.937800
5.834600 0.842700
5.850600 0.824800
5.866600 0.805600
5.882500 0.787000
5.898500 0.772500
5.914500 0.764800
5.930500 0.753200
5.946500 0.741400
5.962500 0.742300
5.978500 0.728700
5.994400 0.686900
6.010400 0.673200
6.026400 0.647800
6.042400 0.617500
6.058400 0.590600
6.074400 0.567500
6.090300 0.546500
6.106300 0.524200
6.122300 0.500500
6.138300 0.476700
6.154300 0.457800
6.170300 0.445200
6.186300 0.442400
6.202200 0.466700
6.218200 0.552000
6.234200 0.564500
6.250200 0.556100
6.266200 0.513200
6.282200 0.446900
6.298100 0.363000
6.314100 0.255400
6.330100 0.190800
6.346100 0.167100
6.362100 0.148100
6.378100 0.130300
6.394000 0.113900
6.410000 0.098700
6.426000 0.084900
6.442000 0.072300
6.458000 0.058300
6.474000 0.019700
6.490000 0.010000
6.505900 0.006800
6.521900 0.009200
6.537900 0.012500
6.553900 0.016300
6.569900 0.020500
6.585900 0.025100
6.601800 0.034500
6.617800 0.044300
6.633800 0.054400
6.649800 0.065300
6.665800 0.080000
6.681800 0.096100
6.697800 0.113600
6.713700 0.132400
6.729700 0.152700
6.745700 0.176900
6.761700 0.223000
6.777700 0.295900
6.793700 0.384300
6.809600 0.438100
6.825600 0.472200
6.841600 0.446500
6.857600 0.398500
6.873600 0.425700
6.889600 0.473400
6.905600 0.529000
6.921500 0.592400
6.937500 0.658700
6.953500 0.730800
6.969500 0.809800
6.985500 0.901700
7.001500 1.038300
7.017400 1.177900
7.033400 1.272400
7.049400 1.386100
7.065400 1.463500
7.081400 1.454500
7.097400 1.419200
7.113400 1.554200
7.129300 1.599700
7.145300 1.547500
7.161300 1.574000
7.177300 1.611900
7.193300 1.656300
7.209300 1.693500
7.225200 1.775800
7.241200 1.738000
7.257200 1.756400
7.273200 1.785400
7.289200 1.808200
7.305200 1.962600
7.321200 1.835100
7.337100 1.825000
7.353100 1.839500
7.369100 1.851600
7.385100 1.829900
7.401100 1.806500
7.417100 1.783300
7.433000 1.756100
7.449000 1.725600
7.465000 1.694100
7.481000 1.660200
7.497000 1.626600
7.513000 1.597900
7.528900 1.571400
7.544900 1.544700
7.560900 1.522400
7.576900 1.504700
7.592900 1.490400
7.608900 1.477700
7.624900 1.465900
7.640800 1.454800
7.656800 1.444000
7.672800 1.433700
7.688800 1.423600
7.704800 1.414200
7.720800 1.405100
7.736700 1.396400
7.752700 1.388700
7.768700 1.381900
7.784700 1.375500
7.800700 1.369300
7.816700 1.363500
7.832700 1.357800
7.848600 1.352100
7.864600 1.347100
7.880600 1.342800
7.896600 1.339300
7.912600 1.336500
7.928600 1.333800
7.944500 1.331700
7.960500 1.330000
7.976500 1.328800
7.992500 1.327700
8.008500 1.327300
8.024500 1.327500
8.040500 1.328300
8.056400 1.329800
8.072400 1.331600
8.088400 1.333800
8.104400 1.336200
8.120400 1.338900
8.136400 1.342100
8.152300 1.345700
8.168300 1.349800
8.184300 1.358400
8.200300 1.378200
8.216300 1.402500
8.232300 1.431100
8.248300 1.463500
8.264200 1.497300
8.280200 1.530100
8.296200 1.563600
8.312200 1.598200
8.328200 1.632900
8.344200 1.664600
8.360100 1.695700
8.376100 1.730900
8.392100 1.772100
8.408100 1.815600
8.424100 1.836700
8.440100 1.840600
8.456000 1.921200
8.472000 1.993800
8.488000 2.076200
8.504000 2.153900
8.520000 2.155300
8.536000 2.080200
8.552000 2.015500
8.567900 2.034200
8.583900 2.064500
8.599900 2.097200
8.615900 2.121300
8.631900 2.172800
8.647900 2.288100
8.663800 2.227700
8.679800 2.191500
8.695800 2.148700
8.711800 2.064200
8.727800 1.969800
8.743800 1.884700
8.759800 1.995300
8.775700 1.944400
8.791700 1.618000
8.807700 1.469300
8.823700 1.380400
8.839700 1.316900
8.855700 1.252000
8.871600 1.197900
8.887600 1.158800
8.903600 1.136000
8.919600 1.121800
8.935600 1.114600
8.951600 1.112700
8.967600 1.114700
8.983500 1.115000
8.999500 1.119900
9.015500 1.136700
9.031500 1.155600
9.047500 1.171800
9.063500 1.200300
9.079400 1.224800
9.095400 1.240200
9.111400 1.251700
9.127400 1.259100
9.143400 1.251300
9.159400 1.227000
9.175400 1.195700
9.191300 1.156600
9.207300 1.137100
9.223300 1.123800
9.239300 1.147800
9.255300 1.180800
9.271300 1.188200
9.287200 1.195500
9.303200 1.202500
9.319200 1.209100
9.335200 1.215300
9.351200 1.220700
9.367200 1.225800
9.383200 1.232500
9.399100 1.242700
9.415100 1.255400
9.431100 1.263600
9.447100 1.270600
9.463100 1.279500
9.479100 1.289500
9.495000 1.303000
9.511000 1.329900
9.527000 1.359300
9.543000 1.369500
9.559000 1.370800
9.575000 1.391600
9.590900 1.415900
9.606900 1.442700
9.622900 1.459600
9.638900 1.474300
9.654900 1.486500
9.670900 1.491200
9.686900 1.489700
9.702800 1.487200
9.718800 1.491500
9.734800 1.502500
9.750800 1.563900
9.766800 1.573000
9.782800 1.577200
9.798700 1.574900
9.814700 1.626800
9.830700 1.609000
9.846700 1.589400
9.862700 1.587200
9.878700 1.608800
9.894700 1.591800
9.910600 1.539400
9.926600 1.516500
