set title 'mp-1216519 - Density of States'
set xlabel 'Energy (eV)'
set ylabel 'DOS (states/eV)'
set grid
set xrange [-10:10]
set yrange [0:75.036]
set xzeroaxis lt -1
set terminal png size 800,600
set output 'mp-1216519_dos_gnuplot.png'
plot '-' using 1:2 with lines title 'DOS'
-10.550600 0.000000
-10.522500 0.000000
-10.494500 0.000000
-10.466400 0.000000
-10.438400 0.000000
-10.410300 0.000000
-10.382300 0.000000
-10.354300 0.000000
-10.326200 0.000000
-10.298200 0.000000
-10.270100 0.000000
-10.242100 0.000000
-10.214000 0.000000
-10.186000 0.000000
-10.157900 0.000000
-10.129900 0.000000
-10.101800 0.000000
-10.073800 0.000000
-10.045700 0.000000
-10.017700 0.000000
-9.989700 0.000000
-9.961600 0.000000
-9.933600 0.000000
-9.905500 0.000000
-9.877500 0.000000
-9.849400 0.000000
-9.821400 0.000000
-9.793300 0.000000
-9.765300 0.000000
-9.737200 0.000000
-9.709200 0.000000
-9.681200 0.000000
-9.653100 0.000000
-9.625100 0.000000
-9.597000 0.000000
-9.569000 0.000000
-9.540900 0.000000
-9.512900 0.000000
-9.484800 0.000000
-9.456800 0.000000
-9.428700 0.000000
-9.400700 0.000000
-9.372700 0.000000
-9.344600 0.000000
-9.316600 0.000000
-9.288500 0.000000
-9.260500 0.000000
-9.232400 0.000000
-9.204400 0.000000
-9.176300 0.000000
-9.148300 0.000000
-9.120200 0.000000
-9.092200 0.000000
-9.064100 0.000000
-9.036100 0.000000
-9.008100 0.000000
-8.980000 0.000000
-8.952000 0.000000
-8.923900 0.000000
-8.895900 0.000000
-8.867800 0.000000
-8.839800 0.000000
-8.811700 0.000000
-8.783700 0.000000
-8.755600 0.000000
-8.727600 0.000000
-8.699600 0.000000
-8.671500 0.000000
-8.643500 0.000000
-8.615400 0.000000
-8.587400 0.000000
-8.559300 0.000000
-8.531300 0.000000
-8.503200 0.000000
-8.475200 0.000000
-8.447100 0.000000
-8.419100 0.000000
-8.391000 0.000000
-8.363000 0.000000
-8.335000 0.000000
-8.306900 0.000000
-8.278900 0.000000
-8.250800 0.000000
-8.222800 0.000000
-8.194700 0.000000
-8.166700 0.000000
-8.138600 0.000000
-8.110600 0.000000
-8.082500 0.000000
-8.054500 0.000000
-8.026500 0.000000
-7.998400 0.318700
-7.970400 6.715000
-7.942300 6.706600
-7.914300 7.306400
-7.886200 11.906200
-7.858200 16.715300
-7.830100 11.877900
-7.802100 9.789600
-7.774000 26.893100
-7.746000 33.499100
-7.717900 13.741400
-7.689900 4.968700
-7.661900 24.387600
-7.633800 16.200200
-7.605800 15.040800
-7.577700 68.214800
-7.549700 21.566600
-7.521600 27.645300
-7.493600 6.267000
-7.465500 8.124700
-7.437500 9.374000
-7.409400 10.242500
-7.381400 6.450400
-7.353400 5.156500
-7.325300 2.521200
-7.297300 0.000000
-7.269200 0.000000
-7.241200 0.000000
-7.213100 0.000000
-7.185100 0.000000
-7.157000 0.000000
-7.129000 0.000000
-7.100900 0.000000
-7.072900 0.000000
-7.044900 0.000000
-7.016800 0.000000
-6.988800 0.000000
-6.960700 0.000000
-6.932700 0.000000
-6.904600 0.000000
-6.876600 0.000000
-6.848500 0.000000
-6.820500 0.000000
-6.792400 0.000000
-6.764400 0.000000
-6.736300 0.000000
-6.708300 0.000000
-6.680300 0.000000
-6.652200 0.000000
-6.624200 0.000000
-6.596100 0.000000
-6.568100 0.000000
-6.540000 0.000000
-6.512000 0.000000
-6.483900 0.000000
-6.455900 0.000000
-6.427800 0.000000
-6.399800 0.000000
-6.371800 0.000000
-6.343700 0.000000
-6.315700 0.000000
-6.287600 0.000000
-6.259600 0.000000
-6.231500 0.000000
-6.203500 0.000000
-6.175400 0.000000
-6.147400 0.000000
-6.119300 0.000000
-6.091300 0.000000
-6.063200 0.000000
-6.035200 0.000000
-6.007200 0.000000
-5.979100 0.000000
-5.951100 0.000000
-5.923000 0.000000
-5.895000 0.000000
-5.866900 0.000000
-5.838900 0.000000
-5.810800 0.000000
-5.782800 0.000000
-5.754700 0.000000
-5.726700 0.000000
-5.698700 0.000000
-5.670600 0.000000
-5.642600 0.000000
-5.614500 0.000000
-5.586500 0.000000
-5.558400 0.000000
-5.530400 0.000000
-5.502300 0.000000
-5.474300 0.000000
-5.446200 0.000000
-5.418200 0.000000
-5.390100 0.000000
-5.362100 0.000000
-5.334100 0.000000
-5.306000 0.000000
-5.278000 0.000000
-5.249900 0.000000
-5.221900 0.000000
-5.193800 0.000000
-5.165800 0.000000
-5.137700 0.000000
-5.109700 0.011200
-5.081600 0.039500
-5.053600 0.079200
-5.025600 0.124000
-4.997500 0.137000
-4.969500 0.142400
-4.941400 0.157800
-4.913400 0.171200
-4.885300 0.183700
-4.857300 0.198600
-4.829200 0.214000
-4.801200 0.230000
-4.773100 0.246000
-4.745100 0.259700
-4.717100 0.271200
-4.689000 0.281300
-4.661000 0.290600
-4.632900 0.300000
-4.604900 0.311300
-4.576800 0.326400
-4.548800 0.342300
-4.520700 0.358900
-4.492700 0.376100
-4.464600 0.394800
-4.436600 0.435900
-4.408500 0.467900
-4.380500 0.477300
-4.352500 0.456200
-4.324400 0.464700
-4.296400 0.472900
-4.268300 0.476400
-4.240300 0.480700
-4.212200 0.484200
-4.184200 0.487200
-4.156100 0.487500
-4.128100 0.487300
-4.100000 0.488300
-4.072000 0.492700
-4.044000 0.499200
-4.015900 0.506300
-3.987900 0.513800
-3.959800 0.521700
-3.931800 0.530200
-3.903700 0.539200
-3.875700 0.548700
-3.847600 0.558800
-3.819600 0.570500
-3.791500 0.582500
-3.763500 0.594700
-3.735400 0.607200
-3.707400 0.621000
-3.679400 0.638300
-3.651300 0.659700
-3.623300 0.686700
-3.595200 0.724400
-3.567200 0.771500
-3.539100 0.832100
-3.511100 0.910600
-3.483000 1.026200
-3.455000 1.157800
-3.426900 1.362900
-3.398900 1.653800
-3.370900 3.352400
-3.342800 6.163200
-3.314800 5.510200
-3.286700 4.581900
-3.258700 4.048200
-3.230600 4.633800
-3.202600 7.723200
-3.174500 13.579200
-3.146500 12.464700
-3.118400 11.305100
-3.090400 10.371100
-3.062300 9.271800
-3.034300 7.095000
-3.006300 4.163500
-2.978200 2.487000
-2.950200 3.917900
-2.922100 21.765600
-2.894100 5.593000
-2.866000 6.188900
-2.838000 6.535400
-2.809900 9.479300
-2.781900 11.203300
-2.753800 13.606100
-2.725800 12.912300
-2.697800 14.689200
-2.669700 17.093300
-2.641700 20.742300
-2.613600 17.809400
-2.585600 14.223800
-2.557500 15.170700
-2.529500 13.781000
-2.501400 6.027100
-2.473400 6.013300
-2.445300 5.008700
-2.417300 4.492800
-2.389300 4.417100
-2.361200 4.170200
-2.333200 3.687200
-2.305100 3.346600
-2.277100 3.675100
-2.249000 3.354300
-2.221000 1.501800
-2.192900 0.854900
-2.164900 0.843900
-2.136800 0.841900
-2.108800 0.842600
-2.080700 0.844200
-2.052700 0.846500
-2.024700 0.849500
-1.996600 0.853200
-1.968600 0.832900
-1.940500 0.803000
-1.912500 0.778000
-1.884400 0.766100
-1.856400 0.759100
-1.828300 0.754300
-1.800300 0.752200
-1.772200 0.751800
-1.744200 0.752000
-1.716200 0.751500
-1.688100 0.750600
-1.660100 0.750000
-1.632000 0.748800
-1.604000 0.751500
-1.575900 0.755000
-1.547900 0.759100
-1.519800 0.763900
-1.491800 0.769200
-1.463700 0.774600
-1.435700 0.781200
-1.407600 0.788400
-1.379600 0.795700
-1.351600 0.803300
-1.323500 0.810600
-1.295500 0.816100
-1.267400 0.821600
-1.239400 0.830300
-1.211300 0.841200
-1.183300 0.853800
-1.155200 0.867700
-1.127200 0.883000
-1.099100 0.963700
-1.071100 1.040600
-1.043100 1.045800
-1.015000 1.029200
-0.987000 1.010500
-0.958900 1.002700
-0.930900 0.994300
-0.902800 0.993300
-0.874800 0.994500
-0.846700 0.995200
-0.818700 0.995100
-0.790600 0.994900
-0.762600 0.995300
-0.734600 0.994200
-0.706500 0.991200
-0.678500 0.987600
-0.650400 0.995400
-0.622400 1.018000
-0.594300 1.044500
-0.566300 1.016500
-0.538200 0.978000
-0.510200 0.947800
-0.482100 0.890000
-0.454100 0.844500
-0.426000 0.823800
-0.398000 0.809500
-0.370000 0.799200
-0.341900 0.797000
-0.313900 0.809100
-0.285800 0.862000
-0.257800 0.854300
-0.229700 0.731700
-0.201700 0.709500
-0.173600 0.643500
-0.145600 0.577000
-0.117500 0.510900
-0.089500 0.446000
-0.061500 0.425200
-0.033400 0.438200
-0.005400 0.445800
0.022700 0.448200
0.050700 0.445300
0.078800 0.445300
0.106800 0.460200
0.134900 0.469100
0.162900 0.462700
0.191000 0.457000
0.219000 0.453600
0.247100 0.452600
0.275100 0.453800
0.303100 0.456700
0.331200 0.459400
0.359200 0.461400
0.387300 0.462800
0.415300 0.464000
0.443400 0.465100
0.471400 0.466200
0.499500 0.467100
0.527500 0.468000
0.555600 0.469400
0.583600 0.472500
0.611600 0.475600
0.639700 0.478300
0.667700 0.481200
0.695800 0.485700
0.723800 0.491000
0.751900 0.497200
0.779900 0.504400
0.808000 0.512600
0.836000 0.521800
0.864100 0.532100
0.892100 0.544800
0.920200 0.563400
0.948200 0.605500
0.976200 0.666800
1.004300 0.736400
1.032300 0.794700
1.060400 0.824900
1.088400 0.822900
1.116500 0.869000
1.144500 0.920700
1.172600 0.953900
1.200600 0.958500
1.228700 0.967500
1.256700 0.951600
1.284700 0.929800
1.312800 0.918800
1.340800 0.913000
1.368900 0.912700
1.396900 0.916000
1.425000 0.921100
1.453000 0.929200
1.481100 0.940400
1.509100 0.954800
1.537200 0.972300
1.565200 1.004200
1.593200 1.039800
1.621300 1.078400
1.649300 1.111200
1.677400 1.097800
1.705400 1.052500
1.733500 1.015400
1.761500 0.998200
1.789600 1.022300
1.817600 1.076200
1.845700 1.074600
1.873700 1.055900
1.901800 0.913500
1.929800 0.628200
1.957800 0.495500
1.985900 0.371400
2.013900 0.257600
2.042000 0.180300
2.070000 0.118500
2.098100 0.070400
2.126100 0.046100
2.154200 0.091600
2.182200 0.138300
2.210300 0.174000
2.238300 0.198400
2.266300 0.216600
2.294400 0.230800
2.322400 0.238400
2.350500 0.243000
2.378500 0.246300
2.406600 0.250900
2.434600 0.258300
2.462700 0.267500
2.490700 0.277200
2.518800 0.287200
2.546800 0.296700
2.574900 0.302000
2.602900 0.296300
2.630900 0.307500
2.659000 0.318600
2.687000 0.329600
2.715100 0.340800
2.743100 0.352100
2.771200 0.363500
2.799200 0.375800
2.827300 0.389300
2.855300 0.404100
2.883400 0.420200
2.911400 0.436900
2.939400 0.454600
2.967500 0.473100
2.995500 0.501700
3.023600 0.512200
3.051600 0.516800
3.079700 0.531900
3.107700 0.553000
3.135800 0.569900
3.163800 0.586700
3.191900 0.603300
3.219900 0.619100
3.248000 0.634800
3.276000 0.649600
3.304000 0.663400
3.332100 0.676200
3.360100 0.688200
3.388200 0.699900
3.416200 0.713800
3.444300 0.728700
3.472300 0.744800
3.500400 0.762400
3.528400 0.780500
3.556500 0.798900
3.584500 0.817900
3.612500 0.846900
3.640600 0.875500
3.668600 0.898900
3.696700 0.921100
3.724700 0.945800
3.752800 0.973400
3.780800 1.038500
3.808900 1.026000
3.836900 1.038900
3.865000 1.018600
3.893000 1.035400
3.921000 1.067000
3.949100 1.123300
3.977100 1.137200
4.005200 1.136300
4.033200 1.121200
4.061300 1.106700
4.089300 1.100000
4.117400 1.098300
4.145400 1.094600
4.173500 1.088900
4.201500 1.082100
4.229600 1.070800
4.257600 1.086300
4.285600 1.137400
4.313700 1.160500
4.341700 1.184900
4.369800 1.212400
4.397800 1.231700
4.425900 1.239600
4.453900 1.244000
4.482000 1.249500
4.510000 1.248100
4.538100 1.236700
4.566100 1.214400
4.594100 1.193400
4.622200 1.168000
4.650200 1.145700
4.678300 1.121800
4.706300 1.091500
4.734400 1.057600
4.762400 1.027500
4.790500 1.005000
4.818500 0.982100
4.846600 0.966600
4.874600 0.952900
4.902700 0.938000
4.930700 0.921700
4.958700 0.912200
4.986800 0.915200
5.014800 0.913300
5.042900 0.908700
5.070900 0.900300
5.099000 0.888200
5.127000 0.906900
5.155100 0.900200
5.183100 0.908300
5.211200 0.917500
5.239200 0.931100
5.267200 0.953400
5.295300 1.010700
5.323300 0.981900
5.351400 0.853900
5.379400 0.808800
5.407500 0.818000
5.435500 0.829000
5.463600 0.840000
5.491600 0.850700
5.519700 0.861400
5.547700 0.872500
5.575700 0.884400
5.603800 0.896500
5.631800 0.913400
5.659900 0.933300
5.687900 0.940100
5.716000 0.943400
5.744000 0.951800
5.772100 0.949100
5.800100 0.929100
5.828200 0.905500
5.856200 0.891700
5.884300 0.878800
5.912300 0.866600
5.940300 0.861300
5.968400 0.862400
5.996400 0.866700
6.024500 0.874200
6.052500 0.879200
6.080600 0.883000
6.108600 0.889900
6.136700 0.899500
6.164700 0.910700
6.192800 0.921300
6.220800 0.930500
6.248800 0.938500
6.276900 0.945000
6.304900 0.948200
6.333000 0.948600
6.361000 0.948000
6.389100 0.947400
6.417100 0.949200
6.445200 0.958100
6.473200 0.968800
6.501300 0.979600
6.529300 0.997600
6.557400 1.012900
6.585400 1.025800
6.613400 1.034300
6.641500 1.042100
6.669500 1.051200
6.697600 1.058500
6.725600 1.065200
6.753700 1.098400
6.781700 1.094500
6.809800 1.068200
6.837800 1.067800
6.865900 1.067500
6.893900 1.068500
6.921900 1.071300
6.950000 1.074200
6.978000 1.077100
7.006100 1.080000
7.034100 1.082300
7.062200 1.084400
7.090200 1.088200
7.118300 1.095100
7.146300 1.102300
7.174400 1.114400
7.202400 1.112000
7.230500 1.123500
7.258500 1.125300
7.286500 1.116100
7.314600 1.093100
7.342600 1.074400
7.370700 1.055800
7.398700 1.049700
7.426800 1.044800
7.454800 1.041300
7.482900 1.039100
7.510900 1.038200
7.539000 1.038500
7.567000 1.040500
7.595000 1.039700
7.623100 1.037400
7.651100 1.033700
7.679200 1.028800
7.707200 1.022900
7.735300 1.028800
7.763300 1.047900
7.791400 1.055100
7.819400 1.054800
7.847500 1.060300
7.875500 1.067300
7.903500 1.079600
7.931600 1.097300
7.959600 1.117800
7.987700 1.138900
8.015700 1.150700
8.043800 1.155300
8.071800 1.158500
8.099900 1.166300
8.127900 1.183400
8.156000 1.199800
8.184000 1.215600
8.212100 1.233600
8.240100 1.250600
8.268100 1.265500
8.296200 1.279500
8.324200 1.291700
8.352300 1.300800
8.380300 1.444300
8.408400 1.378300
8.436400 1.383100
8.464500 1.358100
8.492500 1.357900
8.520600 1.361000
8.548600 1.368200
8.576600 1.391300
8.604700 1.422000
8.632700 1.454900
8.660800 1.484100
8.688800 1.510900
8.716900 1.557300
8.744900 1.595500
8.773000 1.623700
8.801000 1.624400
8.829100 1.607300
8.857100 1.592700
8.885200 1.576800
8.913200 1.562300
8.941200 1.547800
8.969300 1.533500
8.997300 1.523300
9.025400 1.512700
9.053400 1.508600
9.081500 1.501500
9.109500 1.484300
9.137600 1.458800
9.165600 1.426300
9.193700 1.389400
9.221700 1.362900
9.249700 1.345700
9.277800 1.332900
9.305800 1.317600
9.333900 1.300300
9.361900 1.320300
9.390000 1.287200
9.418000 1.281600
9.446100 1.283800
9.474100 1.295400
9.502200 1.315800
9.530200 1.330800
9.558300 1.337700
9.586300 1.327300
9.614300 1.302200
9.642400 1.301700
9.670400 1.314200
9.698500 1.327900
9.726500 1.298000
9.754600 1.266700
9.782600 1.245700
9.810700 1.218800
9.838700 1.205000
9.866800 1.206600
9.894800 1.210700
9.922800 1.217300
9.950900 1.212500
9.978900 1.201000
10.007000 1.198100
10.035000 1.205100
10.063100 1.212300
10.091100 1.204700
10.119200 1.184600
10.147200 1.185600
10.175300 1.187800
10.203300 1.192100
10.231300 1.199100
10.259400 1.209700
10.287400 1.224900
10.315500 1.241200
10.343500 1.256800
10.371600 1.269700
10.399600 1.280600
10.427700 1.289100
10.455700 1.298200
10.483800 1.266000
10.511800 1.254900
10.539900 1.250400
10.567900 1.245100
10.595900 1.239000
10.624000 1.227000
10.652000 1.211300
10.680100 1.195400
10.708100 1.179200
10.736200 1.162600
10.764200 1.146900
10.792300 1.142300
10.820300 1.139500
10.848400 1.137300
10.876400 1.135400
10.904400 1.133900
10.932500 1.132800
10.960500 1.133500
10.988600 1.134900
11.016600 1.137000
11.044700 1.139900
11.072700 1.143000
11.100800 1.145700
11.128800 1.147900
11.156900 1.149900
11.184900 1.150800
11.213000 1.149300
11.241000 1.146200
11.269000 1.142300
11.297100 1.139500
11.325100 1.137400
11.353200 1.135500
11.381200 1.134500
11.409300 1.130200
11.437300 1.125200
11.465400 1.119400
11.493400 1.114400
11.521500 1.110800
11.549500 1.107700
11.577500 1.105400
11.605600 1.099800
11.633600 1.093800
11.661700 1.088400
11.689700 1.083700
11.717800 1.079700
11.745800 1.075800
11.773900 1.069400
11.801900 1.062900
11.830000 1.057200
11.858000 1.052700
11.886100 1.049900
11.914100 1.047700
11.942100 1.045400
11.970200 1.043000
11.998200 1.040800
12.026300 1.038900
12.054300 1.038200
12.082400 1.039600
12.110400 1.043200
12.138500 1.059600
12.166500 1.089900
12.194600 1.039300
12.222600 1.032600
12.250600 1.024900
12.278700 1.149800
12.306700 1.097100
12.334800 1.087400
12.362800 1.070200
12.390900 1.057400
12.418900 1.052300
12.447000 1.047500
12.475000 1.044600
12.503100 1.042600
12.531100 1.038600
12.559100 1.030600
12.587200 1.025500
12.615200 1.003000
12.643300 0.999700
12.671300 1.000000
12.699400 1.002000
12.727400 1.002500
12.755500 1.009100
12.783500 1.018500
12.811600 1.034700
12.839600 1.069100
12.867700 1.123800
12.895700 1.152400
12.923700 1.148900
12.951800 1.130000
12.979800 1.126300
13.007900 1.136600
13.035900 1.157100
13.064000 1.177500
13.092000 1.189600
13.120100 1.191400
13.148100 1.192200
13.176200 1.202400
13.204200 1.215900
13.232200 1.232500
13.260300 1.251600
13.288300 1.415700
13.316400 1.297000
13.344400 1.299700
13.372500 1.292800
13.400500 1.292200
13.428600 1.267200
13.456600 1.254600
13.484700 1.248600
13.512700 1.248600
13.540800 1.249100
13.568800 1.262100
13.596800 1.283200
13.624900 1.310200
13.652900 1.337500
13.681000 1.365900
13.709000 1.395800
13.737100 1.424800
13.765100 1.458500
13.793200 1.488800
13.821200 1.510200
13.849300 1.528100
13.877300 1.546400
13.905300 1.573600
13.933400 1.602000
13.961400 1.647800
13.989500 1.690400
14.017500 1.720900
14.045600 1.746600
14.073600 1.766500
14.101700 1.788800
14.129700 1.823100
14.157800 1.872200
14.185800 1.909900
14.213800 1.947000
14.241900 2.014000
14.269900 2.071800
14.298000 2.099700
14.326000 2.102300
14.354100 2.082400
14.382100 2.084300
14.410200 2.078700
14.438200 2.085300
14.466300 2.095200
14.494300 2.166800
14.522400 2.218800
14.550400 2.258300
14.578400 2.284600
14.606500 2.244000
14.634500 2.258000
14.662600 2.225100
14.690600 2.349500
14.718700 2.370800
14.746700 2.343300
14.774800 2.338500
14.802800 2.305500
14.830900 2.239000
14.858900 2.135400
14.886900 2.048300
14.915000 1.981600
14.943000 1.944700
14.971100 1.921200
14.999100 1.898500
15.027200 1.859100
15.055200 1.818300
15.083300 1.788400
15.111300 1.766500
15.139400 1.734300
15.167400 1.701400
15.195500 1.714500
15.223500 1.724500
15.251500 1.731000
15.279600 1.734000
15.307600 1.734100
15.335700 1.731400
15.363700 1.725700
15.391800 1.714900
15.419800 1.696300
15.447900 1.655500
15.475900 1.601300
15.504000 1.573900
15.532000 1.555300
15.560000 1.539100
15.588100 1.532300
15.616100 1.540900
15.644200 1.528400
15.672200 1.506100
15.700300 1.496800
15.728300 1.501000
15.756400 1.512600
15.784400 1.478400
15.812500 1.461500
15.840500 1.474600
15.868600 1.491700
15.896600 1.510800
15.924600 1.512300
15.952700 1.475000
15.980700 1.425400
16.008800 1.388600
16.036800 1.371900
16.064900 1.371300
16.092900 1.387800
16.121000 1.411600
16.149000 1.392300
16.177100 1.357900
16.205100 1.283800
16.233100 1.137500
16.261200 1.046000
16.289200 0.991600
16.317300 0.949500
16.345300 0.915700
16.373400 0.903400
16.401400 0.944200
16.429500 0.949300
16.457500 0.838700
16.485600 0.783700
16.513600 0.733800
16.541600 0.696500
16.569700 0.671700
16.597700 0.656500
16.625800 0.650500
16.653800 0.648300
16.681900 0.646900
16.709900 0.646200
16.738000 0.645900
16.766000 0.645900
16.794100 0.646500
16.822100 0.648100
16.850200 0.650700
16.878200 0.653700
16.906200 0.657200
16.934300 0.661300
16.962300 0.665800
16.990400 0.670900
17.018400 0.676400
17.046500 0.683100
17.074500 0.700000
17.102600 0.729400
17.130600 0.771300
17.158700 0.817300
17.186700 0.887700
17.214700 0.955400
17.242800 1.013500
17.270800 1.059900
17.298900 1.098300
17.326900 1.163300
17.355000 1.217300
17.383000 1.256200
17.411100 1.286800
17.439100 1.317800
17.467200 1.348600
17.495200 1.374100
17.523300 1.420500
17.551300 1.438900
17.579300 1.447700
17.607400 1.421900
17.635400 1.382200
17.663500 1.364000
17.691500 1.341000
17.719600 1.327700
17.747600 1.318400
17.775700 1.383600
17.803700 1.434300
17.831800 1.291700
17.859800 1.245500
17.887800 1.238300
17.915900 1.242900
17.943900 1.253500
17.972000 1.261400
18.000000 1.269800
18.028100 1.297400
18.056100 1.351300
18.084200 1.427900
18.112200 1.509100
18.140300 1.545300
18.168300 1.562300
18.196400 1.572700
18.224400 1.582300
18.252400 1.609700
18.280500 1.650200
18.308500 1.718400
18.336600 1.812000
18.364600 1.968700
18.392700 2.256200
18.420700 2.390700
18.448800 2.390600
18.476800 2.350600
18.504900 2.286100
18.532900 2.140400
18.560900 2.069500
18.589000 2.047600
18.617000 2.042900
18.645100 2.033700
18.673100 2.007800
18.701200 1.993600
18.729200 1.959600
18.757300 1.911200
18.785300 1.862100
18.813400 1.777300
18.841400 1.700800
18.869400 1.633700
18.897500 1.603600
18.925500 1.599700
18.953600 1.622200
18.981600 1.683300
