set title 'mp-1219474 - Density of States'
set xlabel 'Energy (eV)'
set ylabel 'DOS (states/eV)'
set grid
set xrange [-10:10]
set yrange [0:9.656]
set xzeroaxis lt -1
set terminal png size 800,600
set output 'mp-1219474_dos_gnuplot.png'
plot '-' using 1:2 with lines title 'DOS'
-7.561700 0.000000
-7.542900 0.000000
-7.524100 0.000000
-7.505200 0.000000
-7.486400 0.000000
-7.467500 0.000000
-7.448700 0.000000
-7.429800 0.000000
-7.411000 0.000000
-7.392200 0.000000
-7.373300 0.000000
-7.354500 0.000000
-7.335600 0.000000
-7.316800 0.000000
-7.298000 0.000000
-7.279100 0.000000
-7.260300 0.000000
-7.241400 0.000000
-7.222600 0.000000
-7.203700 0.000000
-7.184900 0.000000
-7.166100 0.000000
-7.147200 0.000000
-7.128400 0.000000
-7.109500 0.000000
-7.090700 0.000000
-7.071900 0.000000
-7.053000 0.000000
-7.034200 0.000000
-7.015300 0.000000
-6.996500 0.000000
-6.977600 0.000000
-6.958800 0.000000
-6.940000 0.000000
-6.921100 0.000000
-6.902300 0.000000
-6.883400 0.000000
-6.864600 0.000000
-6.845800 0.000000
-6.826900 0.000000
-6.808100 0.000000
-6.789200 0.000000
-6.770400 0.000000
-6.751500 0.000000
-6.732700 0.000000
-6.713900 0.000000
-6.695000 0.000000
-6.676200 0.000000
-6.657300 0.000000
-6.638500 0.000000
-6.619700 0.000000
-6.600800 0.000000
-6.582000 0.000000
-6.563100 0.000000
-6.544300 0.000000
-6.525400 0.000000
-6.506600 0.000000
-6.487800 0.000000
-6.468900 0.000000
-6.450100 0.000000
-6.431200 0.000000
-6.412400 0.000000
-6.393600 0.000000
-6.374700 0.000000
-6.355900 0.000000
-6.337000 0.000000
-6.318200 0.000000
-6.299300 0.000000
-6.280500 0.000000
-6.261700 0.000000
-6.242800 0.000000
-6.224000 0.000000
-6.205100 0.000000
-6.186300 0.000000
-6.167400 0.000000
-6.148600 0.000000
-6.129800 0.000000
-6.110900 0.000000
-6.092100 0.000000
-6.073200 0.000000
-6.054400 0.000000
-6.035600 0.000000
-6.016700 0.000000
-5.997900 0.000000
-5.979000 0.000000
-5.960200 0.000000
-5.941300 0.000000
-5.922500 0.000000
-5.903700 0.000000
-5.884800 0.000000
-5.866000 0.000000
-5.847100 0.150500
-5.828300 0.216200
-5.809500 0.290000
-5.790600 0.341400
-5.771800 0.384000
-5.752900 0.426600
-5.734100 0.469100
-5.715200 0.445500
-5.696400 0.442000
-5.677600 0.400700
-5.658700 0.401200
-5.639900 0.401600
-5.621000 0.402000
-5.602200 0.404400
-5.583400 0.409700
-5.564500 0.416900
-5.545700 0.427600
-5.526800 0.438400
-5.508000 0.449300
-5.489100 0.443100
-5.470300 0.439900
-5.451500 0.434300
-5.432600 0.419900
-5.413800 0.417000
-5.394900 0.414100
-5.376100 0.411800
-5.357300 0.411600
-5.338400 0.412600
-5.319600 0.415700
-5.300700 0.530000
-5.281900 0.565100
-5.263000 0.603100
-5.244200 0.643900
-5.225400 0.687500
-5.206500 0.733900
-5.187700 0.742200
-5.168800 0.772100
-5.150000 0.828100
-5.131200 0.842100
-5.112300 0.852300
-5.093500 0.855300
-5.074600 0.862200
-5.055800 0.868800
-5.036900 0.839800
-5.018100 0.844400
-4.999300 0.850300
-4.980400 0.857700
-4.961600 0.854500
-4.942700 0.857100
-4.923900 0.860500
-4.905100 0.864600
-4.886200 0.867900
-4.867400 0.870300
-4.848500 0.871900
-4.829700 0.874500
-4.810800 0.865700
-4.792000 0.867700
-4.773200 0.870300
-4.754300 0.873500
-4.735500 0.877400
-4.716600 0.879100
-4.697800 0.881400
-4.679000 0.884900
-4.660100 0.885700
-4.641300 0.889400
-4.622400 0.887400
-4.603600 0.888200
-4.584700 0.889200
-4.565900 0.890200
-4.547100 0.891100
-4.528200 0.892100
-4.509400 0.892900
-4.490500 0.995800
-4.471700 1.023800
-4.452900 1.060000
-4.434000 1.099600
-4.415200 1.142400
-4.396300 1.188600
-4.377500 1.238100
-4.358600 1.271600
-4.339800 1.293300
-4.321000 1.312000
-4.302100 1.327900
-4.283300 1.340800
-4.264400 1.351000
-4.245600 1.360400
-4.226800 1.335700
-4.207900 1.344700
-4.189100 1.351700
-4.170200 1.360900
-4.151400 1.370600
-4.132500 1.365800
-4.113700 1.371100
-4.094900 1.376000
-4.076000 1.379900
-4.057200 1.383100
-4.038300 1.385200
-4.019500 1.384400
-4.000600 1.375700
-3.981800 1.378100
-3.963000 1.381000
-3.944100 1.384600
-3.925300 1.388800
-3.906400 1.393800
-3.887600 1.399900
-3.868800 1.407400
-3.849900 1.414900
-3.831100 1.422500
-3.812200 1.430100
-3.793400 1.431200
-3.774500 1.435900
-3.755700 1.440200
-3.736900 1.444300
-3.718000 1.447900
-3.699200 1.463300
-3.680300 1.474000
-3.661500 1.481100
-3.642700 1.500900
-3.623800 1.513600
-3.605000 1.526500
-3.586100 1.539000
-3.567300 1.550600
-3.548400 1.561900
-3.529600 1.573600
-3.510800 1.583900
-3.491900 1.594100
-3.473100 1.604400
-3.454200 1.614600
-3.435400 1.625200
-3.416600 1.635800
-3.397700 1.646500
-3.378900 1.657300
-3.360000 1.811100
-3.341200 1.831500
-3.322300 1.848200
-3.303500 1.861500
-3.284700 1.815500
-3.265800 1.794900
-3.247000 1.774200
-3.228100 1.710400
-3.209300 1.685200
-3.190500 1.660900
-3.171600 1.638800
-3.152800 1.599300
-3.133900 1.598200
-3.115100 1.597700
-3.096200 1.597900
-3.077400 1.597700
-3.058600 1.597600
-3.039700 1.597800
-3.020900 1.598100
-3.002000 1.592100
-2.983200 1.589600
-2.964400 1.587400
-2.945500 1.585500
-2.926700 1.573900
-2.907800 1.578000
-2.889000 1.581700
-2.870100 1.584600
-2.851300 1.666700
-2.832500 1.667800
-2.813600 1.667700
-2.794800 1.666400
-2.775900 1.663800
-2.757100 1.660100
-2.738300 1.620000
-2.719400 1.612500
-2.700600 1.604300
-2.681700 1.595100
-2.662900 1.580100
-2.644000 1.577300
-2.625200 1.551500
-2.606400 1.526500
-2.587500 1.502400
-2.568700 1.475400
-2.549800 1.455100
-2.531000 1.435400
-2.512200 1.378200
-2.493300 1.367100
-2.474500 1.356400
-2.455600 1.345900
-2.436800 1.335400
-2.417900 1.325200
-2.399100 1.315000
-2.380300 1.305000
-2.361400 1.295100
-2.342600 1.293400
-2.323700 1.287700
-2.304900 1.282300
-2.286100 1.267900
-2.267200 1.266300
-2.248400 1.265200
-2.229500 1.264200
-2.210700 1.259900
-2.191800 1.258100
-2.173000 1.251500
-2.154200 1.256000
-2.135300 1.255100
-2.116500 1.252200
-2.097600 1.252200
-2.078800 1.252000
-2.060000 1.251500
-2.041100 1.250600
-2.022300 1.249100
-2.003400 1.247600
-1.984600 1.328400
-1.965700 1.326700
-1.946900 1.318900
-1.928100 1.316300
-1.909200 1.312300
-1.890400 1.307200
-1.871500 1.266700
-1.852700 1.257000
-1.833800 1.246800
-1.815000 1.235800
-1.796200 1.224000
-1.777300 1.219400
-1.758500 1.190500
-1.739600 1.164700
-1.720800 1.139400
-1.702000 1.114600
-1.683100 1.090500
-1.664300 1.067000
-1.645400 1.006200
-1.626600 0.991300
-1.607700 0.976500
-1.588900 0.961700
-1.570100 0.947400
-1.551200 0.933100
-1.532400 0.919200
-1.513500 0.905600
-1.494700 0.889600
-1.475900 0.876800
-1.457000 0.864200
-1.438200 0.851700
-1.419300 0.829400
-1.400500 0.820100
-1.381600 0.810900
-1.362800 0.801600
-1.344000 0.792300
-1.325100 0.783100
-1.306300 0.768800
-1.287400 0.759600
-1.268600 0.750400
-1.249800 0.741200
-1.230900 0.732200
-1.212100 0.723200
-1.193200 0.714200
-1.174400 0.712400
-1.155500 0.704500
-1.136700 0.696500
-1.117900 0.688300
-1.099000 0.680200
-1.080200 0.671900
-1.061300 0.659000
-1.042500 0.655500
-1.023700 0.645700
-1.004800 0.635700
-0.986000 0.626000
-0.967100 0.615700
-0.948300 0.605900
-0.929400 0.596100
-0.910600 0.586400
-0.891800 0.576800
-0.872900 0.567100
-0.854100 0.555000
-0.835200 0.545400
-0.816400 0.540800
-0.797600 0.527300
-0.778700 0.514100
-0.759900 0.506200
-0.741000 0.493600
-0.722200 0.481200
-0.703300 0.469100
-0.684500 0.457200
-0.665700 0.402400
-0.646800 0.397300
-0.628000 0.392000
-0.609100 0.384200
-0.590300 0.379300
-0.571500 0.374500
-0.552600 0.369500
-0.533800 0.364600
-0.514900 0.359500
-0.496100 0.354400
-0.477200 0.349300
-0.458400 0.344000
-0.439600 0.338800
-0.420700 0.337600
-0.401900 0.329300
-0.383000 0.311100
-0.364200 0.304400
-0.345400 0.297400
-0.326500 0.290900
-0.307700 0.284500
-0.288800 0.278100
-0.270000 0.271900
-0.251100 0.265700
-0.232300 0.259600
-0.213500 0.253600
-0.194600 0.247700
-0.175800 0.242000
-0.156900 0.236400
-0.138100 0.230900
-0.119300 0.225400
-0.100400 0.220100
-0.081600 0.214900
-0.062700 0.208800
-0.043900 0.203700
-0.025000 0.198700
-0.006200 0.165400
0.012600 0.163300
0.031500 0.161300
0.050300 0.159300
0.069200 0.157300
0.088000 0.155300
0.106800 0.153500
0.125700 0.151700
0.144500 0.149800
0.163400 0.152300
0.182200 0.228300
0.201100 0.243600
0.219900 0.259800
0.238700 0.276900
0.257600 0.294900
0.276400 0.313700
0.295300 0.333500
0.314100 0.313100
0.333000 0.320900
0.351800 0.328800
0.370600 0.336600
0.389500 0.344400
0.408300 0.352300
0.427200 0.361800
0.446000 0.372300
0.464800 0.383100
0.483700 0.394100
0.502500 0.405300
0.521400 0.409300
0.540200 0.414900
0.559100 0.410000
0.577900 0.417000
0.596700 0.474800
0.615600 0.484800
0.634400 0.495600
0.653300 0.505900
0.672100 0.515600
0.690900 0.524800
0.709800 0.533500
0.728600 0.514400
0.747500 0.517300
0.766300 0.520500
0.785200 0.718700
0.804000 0.764800
0.822800 0.814600
0.841700 0.867600
0.860500 0.923900
0.879400 0.934200
0.898200 0.991400
0.917000 1.005900
0.935900 1.019200
0.954700 1.031600
0.973600 1.036200
0.992400 0.993200
1.011300 1.017200
1.030100 1.041400
1.048900 1.051500
1.067800 1.070200
1.086600 1.092300
1.105500 1.245900
1.124300 1.288700
1.143100 1.324900
1.162000 1.374800
1.180800 1.426200
1.199700 1.437000
1.218500 1.482100
1.237400 1.529400
1.256200 1.576200
1.275000 1.725900
1.293900 1.843000
1.312700 2.205200
1.331600 2.489300
1.350400 2.717500
1.369200 2.715000
1.388100 2.786900
1.406900 2.924500
1.425800 2.920800
1.444600 2.988000
1.463500 3.064600
1.482300 3.138400
1.501100 3.160900
1.520000 3.240800
1.538800 3.342600
1.557700 3.422300
1.576500 3.509700
1.595300 3.598800
1.614200 3.721900
1.633000 3.871500
1.651900 3.972500
1.670700 4.069800
1.689600 4.205400
1.708400 4.347000
1.727200 4.835800
1.746100 5.589400
1.764900 5.084700
1.783800 5.279600
1.802600 6.324700
1.821400 6.117000
1.840300 6.069700
1.859100 6.501400
1.878000 6.513700
1.896800 6.615800
1.915700 6.535200
1.934500 6.533400
1.953300 6.651600
1.972200 6.733400
1.991000 6.627300
2.009900 6.964100
2.028700 6.970000
2.047500 7.106900
2.066400 7.402900
2.085200 7.228000
2.104100 6.741700
2.122900 6.115100
2.141800 6.413300
2.160600 6.350300
2.179400 6.601200
2.198300 6.148600
2.217100 5.423000
2.236000 5.478800
2.254800 5.653800
2.273700 5.713200
2.292500 5.948700
2.311300 5.922600
2.330200 5.885700
2.349000 6.130500
2.367900 6.006700
2.386700 5.113700
2.405500 4.944800
2.424400 5.056400
2.443200 5.161900
2.462100 6.394900
2.480900 7.112900
2.499800 6.921800
2.518600 6.010000
2.537400 4.971800
2.556300 4.342100
2.575100 4.138400
2.594000 4.166200
2.612800 4.484100
2.631600 4.446300
2.650500 4.463800
2.669300 4.348900
2.688200 4.317000
2.707000 4.248800
2.725900 4.246700
2.744700 4.460200
2.763500 4.863100
2.782400 4.804800
2.801200 6.353000
2.820100 6.264700
2.838900 5.674500
2.857700 5.102700
2.876600 5.571800
2.895400 5.610200
2.914300 5.384600
2.933100 6.483500
2.952000 5.175500
2.970800 5.008100
2.989600 5.310200
3.008500 5.265300
3.027300 5.305300
3.046200 5.447900
3.065000 5.764600
3.083800 5.861600
3.102700 6.329600
3.121500 6.545300
3.140400 6.671600
3.159200 6.996000
3.178100 8.321800
3.196900 7.580600
3.215700 7.350800
3.234600 7.106100
3.253400 7.419900
3.272300 7.883000
3.291100 8.778300
3.309900 5.636000
3.328800 5.151000
3.347600 5.071000
3.366500 5.047000
3.385300 5.160800
3.404200 5.109600
3.423000 5.072400
3.441800 4.534700
3.460700 4.171100
3.479500 3.932800
3.498400 3.675100
3.517200 3.818200
3.536000 3.994500
3.554900 3.934700
3.573700 3.949400
3.592600 3.810400
3.611400 3.406200
3.630300 3.149800
3.649100 3.105400
3.667900 3.100300
3.686800 3.080000
3.705600 3.305900
3.724500 3.594700
3.743300 3.805000
3.762100 4.225400
3.781000 4.261100
3.799800 4.679100
3.818700 4.120500
3.837500 3.817300
3.856400 4.013500
3.875200 4.370200
3.894000 4.217600
3.912900 4.289600
3.931700 4.510600
3.950600 4.006800
3.969400 3.505500
3.988200 3.212300
4.007100 2.646700
4.025900 2.543000
4.044800 2.493600
4.063600 2.475400
4.082500 2.467900
4.101300 2.475000
4.120100 2.465900
4.139000 2.723400
4.157800 2.656200
4.176700 2.691100
4.195500 2.398600
4.214300 2.332500
4.233200 2.271600
4.252000 2.284600
4.270900 2.244800
4.289700 2.189000
4.308600 2.152000
4.327400 2.112300
4.346200 2.067800
4.365100 2.218200
4.383900 2.434500
4.402800 2.674800
4.421600 2.647900
4.440500 2.549400
4.459300 2.559100
4.478100 2.600700
4.497000 2.629300
4.515800 2.658100
4.534700 2.693000
4.553500 2.726300
4.572300 2.699600
4.591200 2.895500
4.610000 2.933900
4.628900 2.969700
4.647700 3.609100
4.666600 2.963700
4.685400 3.092200
4.704200 3.193300
4.723100 3.223300
4.741900 3.220600
4.760800 3.093900
4.779600 2.981300
4.798400 2.939200
4.817300 2.890900
4.836100 2.835000
4.855000 2.849300
4.873800 2.776100
4.892700 2.749800
4.911500 2.723900
4.930300 2.694500
4.949200 2.552100
4.968000 2.511700
4.986900 2.478000
5.005700 2.428400
5.024500 2.416100
5.043400 2.355200
5.062200 2.322500
5.081100 2.290500
5.099900 2.264200
5.118800 2.257000
5.137600 2.260700
5.156400 2.305700
5.175300 2.237100
5.194100 2.222600
5.213000 2.209700
5.231800 2.191100
5.250600 2.166000
5.269500 2.084500
5.288300 2.068600
5.307200 2.053500
5.326000 1.984600
5.344900 2.030100
5.363700 2.030800
5.382500 2.030100
5.401400 2.029700
5.420200 2.036700
5.439100 2.039400
5.457900 2.045300
5.476700 2.050000
5.495600 2.053300
5.514400 2.006000
5.533300 2.023300
5.552100 2.015100
5.571000 2.025500
5.589800 2.038700
5.608600 2.053600
5.627500 2.067200
5.646300 2.079400
5.665200 2.105600
5.684000 2.282100
5.702800 2.298500
5.721700 2.287500
5.740500 2.270400
5.759400 2.302400
5.778200 2.287900
5.797100 2.220300
5.815900 2.122300
5.834700 2.191400
5.853600 2.192700
5.872400 2.195000
5.891300 2.233300
5.910100 2.221600
5.928900 2.189900
5.947800 2.181900
5.966600 2.141100
5.985500 2.124600
6.004300 2.112300
6.023200 2.120000
6.042000 2.117800
6.060800 2.125000
6.079700 2.135000
6.098500 2.181800
6.117400 2.180200
6.136200 2.176400
6.155000 2.033000
6.173900 1.999900
6.192700 2.035800
6.211600 1.969800
6.230400 2.053000
6.249300 2.110500
6.268100 2.090200
6.286900 1.994100
6.305800 1.942000
6.324600 1.790200
6.343500 1.767100
6.362300 1.744100
6.381100 1.666600
6.400000 1.614600
6.418800 1.602100
6.437700 1.602400
6.456500 1.568200
6.475400 1.576500
6.494200 1.518700
6.513000 1.533700
6.531900 1.552100
6.550700 1.497600
6.569600 1.498600
6.588400 1.496300
6.607300 1.503000
6.626100 1.518800
6.644900 1.525600
6.663800 1.532500
6.682600 1.539500
6.701500 1.544400
6.720300 1.551200
6.739100 1.558800
6.758000 1.566100
6.776800 1.573700
6.795700 1.581700
6.814500 1.590700
6.833400 1.624000
6.852200 1.634900
6.871000 1.647200
6.889900 1.660500
6.908700 1.810500
6.927600 1.866600
6.946400 1.927200
6.965200 1.992100
6.984100 2.061500
7.002900 2.135200
7.021800 2.022200
7.040600 2.029800
7.059500 2.002500
7.078300 2.008800
7.097100 2.001900
7.116000 1.982100
7.134800 1.930400
7.153700 1.937700
7.172500 2.040200
7.191300 2.078100
7.210200 2.067200
7.229000 2.004300
7.247900 1.998200
7.266700 1.903100
7.285600 1.851200
7.304400 1.823500
7.323200 1.800900
7.342100 1.801600
7.360900 1.803900
7.379800 1.806800
7.398600 1.808900
7.417400 1.811900
7.436300 1.813200
7.455100 1.775600
7.474000 1.768300
7.492800 1.815700
7.511700 1.810100
7.530500 1.803900
7.549300 1.757400
7.568200 1.752800
7.587000 1.823200
7.605900 1.822600
7.624700 1.822400
7.643500 1.822500
7.662400 1.822900
7.681200 1.807100
7.700100 1.812000
7.718900 1.817700
7.737800 1.794100
7.756600 1.797400
7.775400 1.826900
7.794300 1.776700
7.813100 1.764300
7.832000 1.753500
7.850800 1.766200
7.869600 1.751000
7.888500 1.754300
7.907300 1.866800
7.926200 1.887900
7.945000 1.894400
7.963900 1.922000
7.982700 1.736900
8.001500 1.630200
8.020400 1.540500
8.039200 1.518100
8.058100 1.508100
8.076900 1.523300
8.095700 1.544500
8.114600 1.575800
8.133400 1.603600
8.152300 1.616600
8.171100 1.614000
8.190000 1.596600
8.208800 1.528000
8.227600 1.533200
8.246500 1.543900
8.265300 1.674900
8.284200 1.679200
8.303000 1.712100
8.321800 1.719000
8.340700 1.724800
8.359500 1.730700
8.378400 1.702700
8.397200 1.708600
8.416100 1.715500
8.434900 1.723400
8.453700 1.732200
8.472600 1.743400
8.491400 1.997200
8.510300 2.209600
8.529100 2.190000
8.547900 2.255300
8.566800 2.179300
8.585600 2.017900
8.604500 1.910300
8.623300 1.875200
8.642200 1.883500
8.661000 1.898600
8.679800 1.953700
8.698700 1.946000
8.717500 1.968800
8.736400 1.976800
8.755200 1.981700
8.774100 1.983200
8.792900 1.980700
8.811700 1.969000
8.830600 1.957200
8.849400 1.945600
8.868300 1.914500
8.887100 1.905500
8.905900 1.930800
8.924800 1.924600
8.943600 2.221100
8.962500 2.037000
8.981300 2.085700
9.000200 2.175800
9.019000 2.267900
9.037800 2.241200
9.056700 2.203800
9.075500 2.183900
9.094400 2.151400
9.113200 2.029300
9.132000 1.996800
9.150900 1.966400
9.169700 1.913300
9.188600 1.850500
9.207400 1.938600
9.226300 1.962400
9.245100 1.980200
9.263900 1.997700
9.282800 1.884400
9.301600 1.843400
9.320500 1.930200
9.339300 1.980900
9.358100 1.988000
9.377000 1.993900
9.395800 2.001000
9.414700 2.165500
9.433500 2.202400
9.452400 2.217500
9.471200 2.238900
9.490000 2.258100
9.508900 2.172600
9.527700 2.053700
9.546600 2.059600
9.565400 2.066100
9.584200 2.072800
9.603100 2.080400
9.621900 2.487800
9.640800 2.159200
9.659600 2.236300
9.678500 2.243400
9.697300 2.320500
9.716100 2.354100
9.735000 2.388500
9.753800 2.423300
9.772700 2.357000
9.791500 2.354800
9.810300 2.420300
9.829200 2.411400
9.848000 2.408300
9.866900 2.407400
9.885700 2.384000
9.904600 2.505000
9.923400 2.628500
9.942200 2.606900
9.961100 2.582700
9.979900 2.553100
9.998800 2.380500
10.017600 2.386100
10.036400 2.313100
10.055300 2.341400
10.074100 2.530800
10.093000 2.587600
10.111800 2.635200
10.130700 2.700200
10.149500 3.796600
10.168300 2.942200
10.187200 2.944500
10.206000 2.944700
10.224900 2.942800
10.243700 2.874000
10.262500 2.758400
10.281400 2.709100
10.300200 2.817100
10.319100 2.758900
10.337900 2.796500
10.356800 2.813400
10.375600 2.851800
10.394400 2.817800
10.413300 2.816500
10.432100 2.822800
10.451000 2.827800
10.469800 2.991400
10.488600 2.879400
10.507500 2.628900
10.526300 2.699800
10.545200 2.730300
10.564000 2.744400
10.582900 2.756600
10.601700 2.725000
10.620500 2.720300
10.639400 2.717600
10.658200 2.738900
10.677100 2.785900
10.695900 2.748100
10.714700 2.631100
10.733600 2.561400
10.752400 2.562700
10.771300 2.565900
10.790100 2.539500
10.809000 2.621000
10.827800 2.926600
10.846600 2.916700
10.865500 2.643400
10.884300 2.635900
10.903200 2.645900
10.922000 2.667900
10.940900 2.668400
10.959700 2.716000
10.978500 2.740600
10.997400 2.754700
11.016200 2.774200
11.035100 2.810200
11.053900 2.679000
11.072700 2.609400
11.091600 2.638100
11.110400 2.665500
11.129300 2.685600
11.148100 2.852100
11.167000 2.887000
11.185800 2.909800
11.204600 2.755200
11.223500 2.759700
11.242300 2.922700
11.261200 2.916200
11.280000 2.975200
11.298800 2.999200
11.317700 2.841500
11.336500 2.777600
11.355400 2.780100
11.374200 2.768800
11.393100 2.758700
11.411900 2.714700
11.430700 2.567500
11.449600 2.581500
11.468400 2.620100
11.487300 3.015900
11.506100 2.451500
11.524900 2.443700
11.543800 2.413300
11.562600 2.400100
11.581500 2.385100
11.600300 2.368100
11.619200 2.394700
11.638000 2.377400
11.656800 2.362300
11.675700 2.345100
11.694500 2.317600
11.713400 2.245600
11.732200 2.226800
11.751000 2.222700
11.769900 2.204800
11.788700 2.355100
11.807600 2.371900
11.826400 2.392300
11.845300 2.332200
11.864100 2.415400
11.882900 2.384900
11.901800 2.660100
11.920600 2.579200
11.939500 2.298100
11.958300 2.281000
11.977100 2.263800
11.996000 2.170400
12.014800 2.146300
12.033700 2.151900
12.052500 2.345100
12.071400 2.369400
12.090200 2.369000
12.109000 2.139800
12.127900 2.163000
12.146700 2.187100
12.165600 2.228600
12.184400 2.236500
12.203200 2.513300
12.222100 2.201000
12.240900 2.175300
12.259800 2.127500
12.278600 2.201400
12.297500 2.206500
12.316300 2.283700
12.335100 2.547000
12.354000 2.615000
12.372800 2.427700
12.391700 2.472400
12.410500 2.475200
12.429300 2.447500
12.448200 2.457300
12.467000 2.403400
12.485900 2.477100
