set title 'mp-568363 - Density of States'
set xlabel 'Energy (eV)'
set ylabel 'DOS (states/eV)'
set grid
set xrange [-10:10]
set yrange [0:2.588]
set xzeroaxis lt -1
set terminal png size 800,600
set output 'mp-568363_dos_gnuplot.png'
plot '-' using 1:2 with lines title 'DOS'
-19.096100 0.000000
-19.066600 0.000000
-19.037100 0.000000
-19.007500 0.000000
-18.978000 0.000000
-18.948500 0.000000
-18.919000 0.000000
-18.889500 0.000000
-18.859900 0.000000
-18.830400 0.000000
-18.800900 0.000000
-18.771400 0.000000
-18.741900 0.000000
-18.712300 0.000000
-18.682800 0.000000
-18.653300 0.000000
-18.623800 0.000000
-18.594300 0.000000
-18.564700 0.000000
-18.535200 0.000000
-18.505700 0.000000
-18.476200 0.000000
-18.446700 0.000000
-18.417100 0.000000
-18.387600 0.000000
-18.358100 0.000000
-18.328600 0.000000
-18.299100 0.000000
-18.269500 0.000000
-18.240000 0.000000
-18.210500 0.000000
-18.181000 0.000000
-18.151500 0.000000
-18.121900 0.000000
-18.092400 0.000000
-18.062900 0.000000
-18.033400 0.000000
-18.003900 0.000000
-17.974300 0.000000
-17.944800 0.000000
-17.915300 0.000000
-17.885800 0.000000
-17.856300 0.000000
-17.826700 0.000000
-17.797200 0.000000
-17.767700 0.000000
-17.738200 0.000000
-17.708700 0.000000
-17.679100 0.000000
-17.649600 0.000000
-17.620100 0.000000
-17.590600 0.000000
-17.561100 0.000000
-17.531500 0.000000
-17.502000 0.000000
-17.472500 0.000000
-17.443000 0.000000
-17.413500 0.000000
-17.383900 0.000000
-17.354400 0.000000
-17.324900 0.000000
-17.295400 0.000000
-17.265900 0.000000
-17.236300 0.000000
-17.206800 0.000000
-17.177300 0.000000
-17.147800 0.000000
-17.118300 0.000000
-17.088700 0.000000
-17.059200 0.000000
-17.029700 0.000000
-17.000200 0.000000
-16.970700 0.000000
-16.941100 0.000000
-16.911600 0.000000
-16.882100 0.000000
-16.852600 0.000000
-16.823100 0.000000
-16.793500 0.000000
-16.764000 0.000000
-16.734500 0.000000
-16.705000 0.000000
-16.675500 0.000000
-16.645900 0.000000
-16.616400 0.000000
-16.586900 0.000000
-16.557400 0.000000
-16.527900 0.000000
-16.498300 0.000000
-16.468800 0.000000
-16.439300 0.000000
-16.409800 0.003800
-16.380300 0.239500
-16.350700 0.383600
-16.321200 0.582000
-16.291700 0.562900
-16.262200 0.609800
-16.232700 0.635100
-16.203100 0.629700
-16.173600 0.612100
-16.144100 0.591700
-16.114600 0.601900
-16.085100 0.618400
-16.055500 0.634900
-16.026000 0.629900
-15.996500 0.631200
-15.967000 0.608100
-15.937500 0.604600
-15.907900 0.604300
-15.878400 0.606800
-15.848900 0.614200
-15.819400 0.622600
-15.789900 0.631000
-15.760300 0.637200
-15.730800 0.631000
-15.701300 0.621800
-15.671800 0.611800
-15.642300 0.609300
-15.612700 0.610900
-15.583200 0.612500
-15.553700 0.614200
-15.524200 0.617400
-15.494700 0.621300
-15.465100 0.626400
-15.435600 0.631600
-15.406100 0.636700
-15.376600 0.630700
-15.347100 0.628600
-15.317500 0.619400
-15.288000 0.615700
-15.258500 0.614600
-15.229000 0.614700
-15.199500 0.616800
-15.169900 0.618900
-15.140400 0.621100
-15.110900 0.623200
-15.081400 0.625300
-15.051900 0.628000
-15.022300 0.630900
-14.992800 0.634400
-14.963300 0.636500
-14.933800 0.633400
-14.904300 0.628300
-14.874700 0.623300
-14.845200 0.622100
-14.815700 0.621800
-14.786200 0.621500
-14.756700 0.621300
-14.727100 0.622100
-14.697600 0.623500
-14.668100 0.625400
-14.638600 0.627300
-14.609100 0.629300
-14.579500 0.631200
-14.550000 0.633100
-14.520500 0.635100
-14.491000 0.637100
-14.461500 0.639300
-14.431900 0.636500
-14.402400 0.635400
-14.372900 0.630800
-14.343400 0.628800
-14.313900 0.628000
-14.284300 0.627800
-14.254800 0.628400
-14.225300 0.629000
-14.195800 0.629700
-14.166300 0.630300
-14.136700 0.631000
-14.107200 0.632000
-14.077700 0.633400
-14.048200 0.635100
-14.018700 0.636800
-13.989100 0.638500
-13.959600 0.640100
-13.930100 0.641800
-13.900600 0.643500
-13.871100 0.644800
-13.841500 0.643200
-13.812000 0.640100
-13.782500 0.637400
-13.753000 0.636900
-13.723500 0.636700
-13.693900 0.636600
-13.664400 0.636600
-13.634900 0.637000
-13.605400 0.637700
-13.575900 0.638700
-13.546300 0.639700
-13.516800 0.640700
-13.487300 0.641600
-13.457800 0.642600
-13.428300 0.643600
-13.398700 0.644700
-13.369200 0.645900
-13.339700 0.647400
-13.310200 0.649000
-13.280700 0.650500
-13.251100 0.652100
-13.221600 0.653600
-13.192100 0.652300
-13.162600 0.650900
-13.133100 0.649400
-13.103500 0.648600
-13.074000 0.648300
-13.044500 0.648600
-13.015000 0.649100
-12.985500 0.649800
-12.955900 0.650500
-12.926400 0.651200
-12.896900 0.651900
-12.867400 0.652900
-12.837900 0.654100
-12.808300 0.655400
-12.778800 0.656700
-12.749300 0.657900
-12.719800 0.659200
-12.690300 0.660500
-12.660700 0.661700
-12.631200 0.663000
-12.601700 0.664300
-12.572200 0.665700
-12.542700 0.667400
-12.513100 0.669100
-12.483600 0.669900
-12.454100 0.669500
-12.424600 0.669000
-12.395100 0.669300
-12.365500 0.670200
-12.336000 0.671000
-12.306500 0.671800
-12.277000 0.673000
-12.247500 0.674400
-12.217900 0.675900
-12.188400 0.677600
-12.158900 0.679500
-12.129400 0.681600
-12.099900 0.683600
-12.070300 0.685600
-12.040800 0.688000
-12.011300 0.690800
-11.981800 0.693900
-11.952300 0.696900
-11.922700 0.700000
-11.893200 0.703100
-11.863700 0.706200
-11.834200 0.709200
-11.804700 0.712300
-11.775100 0.715400
-11.745600 0.718600
-11.716100 0.723400
-11.686600 0.730800
-11.657100 0.739400
-11.627500 0.748500
-11.598000 0.758100
-11.568500 0.768500
-11.539000 0.779100
-11.509500 0.789600
-11.479900 0.800200
-11.450400 0.811200
-11.420900 0.825300
-11.391400 0.843300
-11.361900 0.946300
-11.332300 1.063100
-11.302800 1.027800
-11.273300 0.992500
-11.243800 1.023900
-11.214300 1.176400
-11.184700 1.315700
-11.155200 1.030300
-11.125700 0.777900
-11.096200 0.633600
-11.066700 0.612600
-11.037100 0.591600
-11.007600 0.570600
-10.978100 0.549600
-10.948600 0.528600
-10.919100 0.508200
-10.889500 0.491300
-10.860000 0.527700
-10.830500 0.752500
-10.801000 0.816200
-10.771500 0.435600
-10.741900 0.423000
-10.712400 0.410500
-10.682900 0.397900
-10.653400 0.385400
-10.623900 0.372800
-10.594300 0.360200
-10.564800 0.347700
-10.535300 0.335100
-10.505800 0.322600
-10.476300 0.310000
-10.446700 0.297400
-10.417200 0.284900
-10.387700 0.272300
-10.358200 0.259800
-10.328700 0.247200
-10.299100 0.239200
-10.269600 0.251300
-10.240100 0.281100
-10.210600 0.310900
-10.181100 0.340700
-10.151500 0.370500
-10.122000 0.270100
-10.092500 0.161500
-10.063000 0.172900
-10.033500 0.252100
-10.003900 0.342100
-9.974400 0.432000
-9.944900 0.522000
-9.915400 0.612000
-9.885900 0.640400
-9.856300 0.501600
-9.826800 0.487100
-9.797300 0.667600
-9.767800 1.181300
-9.738300 0.988300
-9.708700 0.582900
-9.679200 0.585800
-9.649700 0.588800
-9.620200 0.591800
-9.590700 0.594700
-9.561100 0.597700
-9.531600 0.600700
-9.502100 0.603700
-9.472600 0.609900
-9.443100 0.629100
-9.413500 0.658500
-9.384000 1.637400
-9.354500 1.208400
-9.325000 0.800900
-9.295500 0.838600
-9.265900 0.876200
-9.236400 0.913900
-9.206900 0.951600
-9.177400 0.989200
-9.147900 1.027300
-9.118300 1.069300
-9.088800 1.113900
-9.059300 1.115900
-9.029800 0.882700
-9.000300 0.822600
-8.970700 0.812400
-8.941200 0.802200
-8.911700 0.792100
-8.882200 0.782000
-8.852700 0.772100
-8.823100 0.762200
-8.793600 0.752400
-8.764100 0.742800
-8.734600 0.734200
-8.705100 0.725900
-8.675500 0.717700
-8.646000 0.709400
-8.616500 0.701100
-8.587000 0.692900
-8.557500 0.684600
-8.527900 0.676300
-8.498400 0.668100
-8.468900 0.659800
-8.439400 0.651400
-8.409900 0.642700
-8.380300 0.635100
-8.350800 0.632400
-8.321300 0.629900
-8.291800 0.627500
-8.262300 0.625100
-8.232700 0.622700
-8.203200 0.620400
-8.173700 0.618100
-8.144200 0.615700
-8.114700 0.613400
-8.085100 0.611000
-8.055600 0.608600
-8.026100 0.606000
-7.996600 0.603500
-7.967100 0.601000
-7.937500 0.598500
-7.908000 0.596000
-7.878500 0.589300
-7.849000 0.566800
-7.819500 0.554300
-7.789900 0.553100
-7.760400 0.552000
-7.730900 0.550900
-7.701400 0.549700
-7.671900 0.548600
-7.642300 0.547500
-7.612800 0.546300
-7.583300 0.545100
-7.553800 0.543900
-7.524300 0.542700
-7.494700 0.541500
-7.465200 0.540300
-7.435700 0.539100
-7.406200 0.547700
-7.376700 0.572600
-7.347100 0.597300
-7.317600 0.621900
-7.288100 0.646600
-7.258600 0.671300
-7.229100 0.695900
-7.199500 0.720600
-7.170000 0.745300
-7.140500 0.770000
-7.111000 0.794600
-7.081500 0.761900
-7.051900 0.721100
-7.022400 0.721100
-6.992900 0.721800
-6.963400 0.722500
-6.933900 0.722700
-6.904300 0.722600
-6.874800 0.722400
-6.845300 0.722300
-6.815800 0.722200
-6.786300 0.722100
-6.756700 0.722000
-6.727200 0.723200
-6.697700 0.728200
-6.668200 0.733400
-6.638700 0.738600
-6.609100 0.743900
-6.579600 0.749100
-6.550100 0.754300
-6.520600 0.759500
-6.491100 0.764700
-6.461500 0.769900
-6.432000 0.775000
-6.402500 0.775500
-6.373000 0.756400
-6.343500 0.755700
-6.313900 0.755200
-6.284400 0.755400
-6.254900 0.755700
-6.225400 0.756100
-6.195900 0.756400
-6.166300 0.756800
-6.136800 0.757100
-6.107300 0.757500
-6.077800 0.757800
-6.048300 0.758200
-6.018700 0.778200
-5.989200 0.784000
-5.959700 0.786100
-5.930200 0.788100
-5.900700 0.790200
-5.871100 0.792200
-5.841600 0.794200
-5.812100 0.795700
-5.782600 0.795500
-5.753100 0.795200
-5.723500 0.794800
-5.694000 0.794400
-5.664500 0.794100
-5.635000 0.793700
-5.605400 0.793400
-5.575900 0.793000
-5.546400 0.792600
-5.516900 0.794300
-5.487400 0.797500
-5.457800 0.803300
-5.428300 0.809600
-5.398800 0.815800
-5.369300 0.821000
-5.339800 0.825600
-5.310200 0.830200
-5.280700 0.834700
-5.251200 0.839300
-5.221700 0.843700
-5.192200 0.847600
-5.162600 0.851500
-5.133100 0.855400
-5.103600 0.858000
-5.074100 0.859400
-5.044600 0.860900
-5.015000 0.862300
-4.985500 0.863700
-4.956000 0.865200
-4.926500 0.866600
-4.897000 0.868000
-4.867400 0.869500
-4.837900 0.870900
-4.808400 0.874700
-4.778900 0.918300
-4.749400 0.989300
-4.719800 0.985100
-4.690300 1.014000
-4.660800 1.078600
-4.631300 1.134900
-4.601800 1.178500
-4.572200 1.189600
-4.542700 1.184200
-4.513200 1.194900
-4.483700 1.205200
-4.454200 1.213000
-4.424600 1.216800
-4.395100 1.221500
-4.365600 1.229700
-4.336100 1.236200
-4.306600 1.265000
-4.277000 1.308900
-4.247500 1.339500
-4.218000 1.364700
-4.188500 1.390700
-4.159000 1.420700
-4.129400 1.465500
-4.099900 1.528000
-4.070400 1.539600
-4.040900 1.534500
-4.011400 1.553900
-3.981800 1.576200
-3.952300 1.619800
-3.922800 1.679100
-3.893300 1.717100
-3.863800 1.758000
-3.834200 1.797100
-3.804700 1.830500
-3.775200 1.863000
-3.745700 1.885600
-3.716200 1.902100
-3.686600 1.912100
-3.657100 1.921200
-3.627600 1.926700
-3.598100 1.914700
-3.568600 1.839300
-3.539000 1.789800
-3.509500 1.736500
-3.480000 1.687600
-3.450500 1.800400
-3.421000 2.027500
-3.391400 2.187100
-3.361900 2.273100
-3.332400 2.323200
-3.302900 2.352400
-3.273400 2.122500
-3.243800 1.964000
-3.214300 1.955100
-3.184800 1.844000
-3.155300 1.787900
-3.125800 1.771200
-3.096200 1.764000
-3.066700 1.777400
-3.037200 1.827900
-3.007700 1.870700
-2.978200 1.885600
-2.948600 1.915700
-2.919100 1.738300
-2.889600 1.703500
-2.860100 1.669700
-2.830600 1.674500
-2.801000 1.715200
-2.771500 1.719100
-2.742000 1.613000
-2.712500 1.536200
-2.683000 1.473000
-2.653400 1.494300
-2.623900 1.442400
-2.594400 1.288400
-2.564900 1.136400
-2.535400 1.084500
-2.505800 1.162800
-2.476300 1.236100
-2.446800 1.247000
-2.417300 1.313000
-2.387800 1.376400
-2.358200 1.368400
-2.328700 1.345300
-2.299200 1.310400
-2.269700 1.267700
-2.240200 1.381100
-2.210600 1.605500
-2.181100 1.550000
-2.151600 1.504600
-2.122100 1.463700
-2.092600 1.446900
-2.063000 1.439600
-2.033500 1.429400
-2.004000 1.420200
-1.974500 1.411300
-1.945000 1.399900
-1.915400 1.377000
-1.885900 1.351300
-1.856400 1.325500
-1.826900 1.304600
-1.797400 1.295500
-1.767800 1.286600
-1.738300 1.278700
-1.708800 1.270900
-1.679300 1.261500
-1.649800 1.253100
-1.620200 1.245400
-1.590700 1.238600
-1.561200 1.232200
-1.531700 1.226200
-1.502200 1.220500
-1.472600 1.214800
-1.443100 1.209200
-1.413600 1.203700
-1.384100 1.198000
-1.354600 1.191900
-1.325000 1.185800
-1.295500 1.180600
-1.266000 1.177900
-1.236500 1.174200
-1.207000 1.183100
-1.177400 1.198200
-1.147900 1.192200
-1.118400 1.186200
-1.088900 1.180200
-1.059400 1.174300
-1.029800 1.168000
-1.000300 1.161800
-0.970800 1.155600
-0.941300 1.149300
-0.911800 1.143000
-0.882200 1.136900
-0.852700 1.131100
-0.823200 1.125400
-0.793700 1.121800
-0.764200 1.123600
-0.734600 1.127400
-0.705100 1.131600
-0.675600 1.162800
-0.646100 1.158300
-0.616600 1.153800
-0.587000 1.149300
-0.557500 1.144800
-0.528000 1.137800
-0.498500 1.129200
-0.469000 1.121000
-0.439400 1.112900
-0.409900 1.105200
-0.380400 1.097700
-0.350900 1.093700
-0.321400 1.113200
-0.291800 1.132800
-0.262300 1.143800
-0.232800 1.130700
-0.203300 1.117400
-0.173800 1.104300
-0.144200 1.137600
-0.114700 1.167800
-0.085200 1.122900
-0.055700 1.078400
-0.026200 1.206700
0.003400 1.069600
0.032900 0.933100
0.062400 0.796800
0.091900 0.714500
0.121400 0.721400
0.151000 0.728600
0.180500 0.736300
0.210000 0.744300
0.239500 0.752900
0.269000 0.762500
0.298600 0.773900
0.328100 0.786600
0.357600 0.801000
0.387100 0.817700
0.416600 0.836100
0.446200 0.861200
0.475700 0.895700
0.505200 0.914900
0.534700 0.931800
0.564200 0.945000
0.593800 0.956500
0.623300 1.025800
0.652800 1.070700
0.682300 1.076100
0.711800 1.097000
0.741400 1.179400
0.770900 1.219100
0.800400 1.247900
0.829900 1.029600
0.859400 0.892300
0.889000 0.888900
0.918500 0.856300
0.948000 0.815900
0.977500 0.791500
1.007000 0.771400
1.036600 0.754600
1.066100 0.728100
1.095600 0.673100
1.125100 0.641600
1.154600 0.610000
1.184200 0.578500
1.213700 0.558100
1.243200 0.549100
1.272700 0.544300
1.302200 0.539300
1.331800 0.534600
1.361300 0.506400
1.390800 0.477600
1.420300 0.457200
1.449800 0.454400
1.479400 0.449300
1.508900 0.432500
1.538400 0.415900
1.567900 0.406900
1.597400 0.399100
1.627000 0.391700
1.656500 0.380700
1.686000 0.374700
1.715500 0.367600
1.745000 0.357800
1.774600 0.346000
1.804100 0.333700
1.833600 0.320800
1.863100 0.308000
1.892600 0.295500
1.922200 0.283000
1.951700 0.270500
1.981200 0.260300
2.010700 0.257100
2.040200 0.253800
2.069800 0.250700
2.099300 0.247800
2.128800 0.245300
2.158300 0.239400
2.187800 0.235300
2.217400 0.231400
2.246900 0.213800
2.276400 0.198400
2.305900 0.183100
2.335400 0.177600
2.365000 0.172500
2.394500 0.167300
2.424000 0.156700
2.453500 0.145200
2.483000 0.136600
2.512600 0.129200
2.542100 0.120200
2.571600 0.112300
2.601100 0.105000
2.630600 0.097700
2.660200 0.090400
2.689700 0.083100
2.719200 0.075800
2.748700 0.068400
2.778200 0.061100
2.807800 0.053800
2.837300 0.046500
2.866800 0.039200
2.896300 0.031900
2.925800 0.024800
2.955400 0.018900
2.984900 0.013500
3.014400 0.008800
3.043900 0.004600
3.073400 0.001000
3.103000 0.000000
3.132500 0.000000
3.162000 0.000000
3.191500 0.001500
3.221000 0.005600
3.250600 0.010600
3.280100 0.016400
3.309600 0.022800
3.339100 0.030500
3.368600 0.038200
3.398200 0.046000
3.427700 0.053800
3.457200 0.061500
3.486700 0.069300
3.516200 0.077100
3.545800 0.084900
3.575300 0.092600
3.604800 0.100400
3.634300 0.108200
3.663800 0.116000
3.693400 0.123700
3.722900 0.130100
3.752400 0.138900
3.781900 0.149500
3.811400 0.162400
3.841000 0.175500
3.870500 0.200300
3.900000 0.224600
3.929500 0.236800
3.959000 0.247600
3.988600 0.254300
4.018100 0.258400
4.047600 0.259400
4.077100 0.258600
4.106600 0.258900
4.136200 0.265700
4.165700 0.276500
4.195200 0.287400
4.224700 0.301300
4.254200 0.320000
4.283800 0.341000
4.313300 0.362000
4.342800 0.383000
4.372300 0.404000
4.401800 0.424900
4.431400 0.444400
4.460900 0.494300
4.490400 0.507100
4.519900 0.558500
4.549400 0.628000
4.579000 0.678400
4.608500 0.742900
4.638000 0.788800
4.667500 0.807200
4.697000 0.783000
4.726600 0.824500
4.756100 0.846500
4.785600 1.001000
4.815100 1.175500
4.844600 1.354400
4.874200 1.249800
4.903700 1.201300
4.933200 1.115400
4.962700 1.073600
4.992200 1.013200
5.021800 0.990400
5.051300 0.964900
5.080800 0.954000
5.110300 0.933800
5.139800 0.879300
5.169400 0.859000
5.198900 0.827300
5.228400 0.794700
5.257900 0.773700
5.287400 0.754800
5.317000 0.737600
5.346500 0.721600
5.376000 0.706600
5.405500 0.692400
5.435000 0.675700
5.464600 0.663600
5.494100 0.652700
5.523600 0.644800
5.553100 0.637100
5.582600 0.629800
5.612200 0.622700
5.641700 0.615800
5.671200 0.609400
5.700700 0.603300
5.730200 0.597500
5.759800 0.592000
5.789300 0.586700
5.818800 0.581500
5.848300 0.576500
5.877800 0.571600
5.907400 0.566800
5.936900 0.562100
5.966400 0.557500
5.995900 0.552900
6.025400 0.548300
6.055000 0.544000
6.084500 0.539700
6.114000 0.535500
6.143500 0.531200
6.173000 0.526900
6.202600 0.522400
6.232100 0.517900
6.261600 0.513400
6.291100 0.509100
6.320600 0.505000
6.350200 0.500600
6.379700 0.501000
6.409200 0.511100
6.438700 0.522200
6.468200 0.531700
6.497800 0.542000
6.527300 0.553000
6.556800 0.560300
6.586300 0.561400
6.615800 0.564800
6.645400 0.567400
6.674900 0.569800
6.704400 0.571900
6.733900 0.573800
6.763400 0.576300
6.793000 0.579900
6.822500 0.584000
6.852000 0.587300
6.881500 0.590100
6.911000 0.592600
6.940600 0.594900
6.970100 0.596900
6.999600 0.598700
7.029100 0.601100
7.058600 0.603500
7.088200 0.606000
7.117700 0.608700
7.147200 0.611700
7.176700 0.614600
7.206200 0.616900
7.235800 0.618800
7.265300 0.620200
7.294800 0.621800
7.324300 0.622400
7.353800 0.622300
7.383400 0.623900
7.412900 0.626300
7.442400 0.629300
7.471900 0.632200
7.501400 0.635300
7.531000 0.638500
7.560500 0.639700
7.590000 0.637600
7.619500 0.637300
7.649000 0.636900
7.678600 0.636100
7.708100 0.634700
7.737600 0.632800
7.767100 0.631100
7.796600 0.629600
7.826200 0.628000
7.855700 0.626700
7.885200 0.625400
7.914700 0.624200
7.944200 0.623200
7.973800 0.622100
8.003300 0.621000
8.032800 0.620300
8.062300 0.619700
8.091800 0.619100
8.121400 0.618600
8.150900 0.618400
8.180400 0.619700
8.209900 0.623900
8.239400 0.628400
8.269000 0.632600
8.298500 0.636400
8.328000 0.640300
8.357500 0.644200
8.387000 0.647900
8.416600 0.651700
8.446100 0.655700
8.475600 0.660100
8.505100 0.676300
8.534600 0.705700
8.564200 0.734000
8.593700 0.754100
8.623200 0.764600
8.652700 0.765500
8.682200 0.761900
8.711800 0.757400
8.741300 0.751800
8.770800 0.745100
8.800300 0.737100
8.829800 0.728300
8.859400 0.719300
8.888900 0.710800
8.918400 0.702300
8.947900 0.691200
8.977400 0.680000
9.007000 0.667300
9.036500 0.649800
9.066000 0.610500
9.095500 0.565300
9.125000 0.552100
9.154600 0.541200
9.184100 0.524000
9.213600 0.504600
9.243100 0.488500
9.272600 0.478600
9.302200 0.480400
9.331700 0.480600
9.361200 0.500100
9.390700 0.508000
9.420200 0.474900
9.449800 0.491200
9.479300 0.563700
9.508800 0.603300
9.538300 0.634100
9.567800 0.684100
9.597400 0.702400
9.626900 0.718200
9.656400 0.734400
9.685900 0.750800
9.715400 0.763700
9.745000 0.773200
9.774500 0.780500
9.804000 0.788200
9.833500 0.796700
9.863000 0.808200
9.892600 0.822900
9.922100 0.837600
9.951600 0.852000
9.981100 0.858800
10.010700 0.862500
10.040200 0.863200
10.069700 0.863500
10.099200 0.865100
10.128700 0.862700
10.158300 0.855800
10.187800 0.845000
10.217300 0.833400
10.246800 0.819100
10.276300 0.800400
10.305900 0.784900
10.335400 0.772000
10.364900 0.763900
10.394400 0.759900
10.423900 0.760600
10.453500 0.783200
10.483000 1.153200
10.512500 1.394500
10.542000 1.645700
10.571500 1.804300
10.601100 1.928500
10.630600 2.022900
10.660100 2.074400
10.689600 2.091000
10.719100 1.933400
10.748700 1.850300
10.778200 1.757300
10.807700 1.666000
10.837200 1.650100
10.866700 1.680100
10.896300 1.713200
10.925800 1.754700
10.955300 1.794000
10.984800 1.830700
11.014300 1.863000
11.043900 1.869300
11.073400 1.858100
11.102900 1.854900
11.132400 1.849300
11.161900 1.852500
11.191500 1.876500
11.221000 1.904400
11.250500 1.944900
11.280000 1.993200
11.309500 2.055300
11.339100 2.120600
11.368600 2.158600
11.398100 2.440600
11.427600 3.093800
11.457100 3.522500
11.486700 4.533500
11.516200 4.233300
11.545700 3.983100
