set title 'mp-1226736 - Density of States'
set xlabel 'Energy (eV)'
set ylabel 'DOS (states/eV)'
set grid
set xrange [-10:10]
set yrange [0:28.335]
set xzeroaxis lt -1
set terminal png size 800,600
set output 'mp-1226736_dos_gnuplot.png'
plot '-' using 1:2 with lines title 'DOS'
-8.689200 0.000000
-8.668600 0.000000
-8.647900 0.000000
-8.627300 0.000000
-8.606600 0.000000
-8.586000 0.000000
-8.565300 0.000000
-8.544700 0.000000
-8.524000 0.000000
-8.503400 0.000000
-8.482700 0.000000
-8.462100 0.000000
-8.441400 0.000000
-8.420800 0.000000
-8.400100 0.000000
-8.379500 0.000000
-8.358800 0.000000
-8.338200 0.000000
-8.317500 0.000000
-8.296900 0.000000
-8.276200 0.000000
-8.255600 0.000000
-8.234900 0.000000
-8.214300 0.000000
-8.193600 0.000000
-8.172900 0.000000
-8.152300 0.000000
-8.131600 0.000000
-8.111000 0.000000
-8.090300 0.000000
-8.069700 0.000000
-8.049000 0.000000
-8.028400 0.000000
-8.007700 0.000000
-7.987100 0.000000
-7.966400 0.000000
-7.945800 0.000000
-7.925100 0.000000
-7.904500 0.000000
-7.883800 0.000000
-7.863200 0.000000
-7.842500 0.000000
-7.821900 0.000000
-7.801200 0.000000
-7.780600 0.000000
-7.759900 0.000000
-7.739300 0.000000
-7.718600 0.000000
-7.698000 0.000000
-7.677300 0.000000
-7.656700 0.000000
-7.636000 0.000000
-7.615400 0.000000
-7.594700 0.000000
-7.574100 0.000000
-7.553400 0.000000
-7.532800 0.000000
-7.512100 0.000000
-7.491500 0.000000
-7.470800 0.000000
-7.450200 0.000000
-7.429500 0.000000
-7.408900 0.000000
-7.388200 0.000000
-7.367600 0.000000
-7.346900 0.000000
-7.326300 0.000000
-7.305600 0.000000
-7.285000 0.000000
-7.264300 0.000000
-7.243700 0.000000
-7.223000 0.000000
-7.202400 0.000000
-7.181700 0.000000
-7.161100 0.000000
-7.140400 0.000000
-7.119800 0.000000
-7.099100 0.000000
-7.078500 0.000000
-7.057800 0.000000
-7.037200 0.000000
-7.016500 0.000000
-6.995900 0.000000
-6.975200 0.000000
-6.954600 0.000000
-6.933900 0.000000
-6.913300 0.000000
-6.892600 0.000000
-6.872000 0.000000
-6.851300 0.000000
-6.830600 0.000000
-6.810000 1.422600
-6.789300 1.928000
-6.768700 2.433400
-6.748000 2.938800
-6.727400 3.161000
-6.706700 2.781600
-6.686100 2.624700
-6.665400 2.755500
-6.644800 2.886300
-6.624100 3.017100
-6.603500 3.474100
-6.582800 3.935200
-6.562200 4.452200
-6.541500 4.590700
-6.520900 5.131500
-6.500200 5.664200
-6.479600 6.282300
-6.458900 7.098600
-6.438300 9.966700
-6.417600 5.459200
-6.397000 6.921700
-6.376300 5.887300
-6.355700 6.345200
-6.335000 6.587100
-6.314400 6.167900
-6.293700 6.653400
-6.273100 7.620800
-6.252400 9.032400
-6.231800 8.230700
-6.211100 10.379400
-6.190500 13.625100
-6.169800 14.539700
-6.149200 3.884800
-6.128500 2.785200
-6.107900 1.979200
-6.087200 1.939300
-6.066600 2.444900
-6.045900 4.331900
-6.025300 4.884800
-6.004600 8.069700
-5.984000 11.639500
-5.963300 13.057200
-5.942700 8.378000
-5.922000 6.048300
-5.901400 5.379200
-5.880700 6.329600
-5.860100 7.714700
-5.839400 9.530100
-5.818800 11.362800
-5.798100 14.255600
-5.777500 17.877800
-5.756800 19.424400
-5.736200 24.134100
-5.715500 8.964000
-5.694900 5.297900
-5.674200 1.677100
-5.653600 7.650200
-5.632900 11.952700
-5.612300 10.392900
-5.591600 9.540800
-5.571000 7.521800
-5.550300 7.496500
-5.529700 3.515400
-5.509000 3.341500
-5.488400 3.178700
-5.467700 3.015800
-5.447000 2.852900
-5.426400 2.690000
-5.405700 2.527100
-5.385100 2.364300
-5.364400 2.216900
-5.343800 2.152400
-5.323100 2.102300
-5.302500 2.052200
-5.281800 1.923800
-5.261200 1.727500
-5.240500 1.531200
-5.219900 1.334900
-5.199200 0.000000
-5.178600 0.000000
-5.157900 0.000000
-5.137300 0.000000
-5.116600 0.000000
-5.096000 0.000000
-5.075300 0.000500
-5.054700 0.014900
-5.034000 0.039800
-5.013400 0.072200
-4.992700 0.111700
-4.972100 0.158100
-4.951400 0.212500
-4.930800 0.279600
-4.910100 0.353700
-4.889500 0.343700
-4.868800 0.357500
-4.848200 0.369900
-4.827500 0.377100
-4.806900 0.373300
-4.786200 0.347800
-4.765600 0.310000
-4.744900 0.315900
-4.724300 0.321800
-4.703600 0.327800
-4.683000 0.333700
-4.662300 0.339600
-4.641700 0.345600
-4.621000 0.351500
-4.600400 0.357400
-4.579700 0.363400
-4.559100 0.369300
-4.538400 0.374200
-4.517800 0.375900
-4.497100 0.375400
-4.476500 0.373000
-4.455800 0.368400
-4.435200 0.360400
-4.414500 0.352000
-4.393900 0.343500
-4.373200 0.335100
-4.352600 0.329100
-4.331900 0.325000
-4.311300 0.322600
-4.290600 0.322200
-4.270000 0.324500
-4.249300 0.327000
-4.228700 0.329500
-4.208000 0.332000
-4.187400 0.334500
-4.166700 0.337000
-4.146100 0.339600
-4.125400 0.342100
-4.104700 0.344600
-4.084100 0.347100
-4.063400 0.349600
-4.042800 0.352100
-4.022100 0.354600
-4.001500 0.357100
-3.980800 0.359600
-3.960200 0.362100
-3.939500 0.364600
-3.918900 0.367100
-3.898200 0.369600
-3.877600 0.372100
-3.856900 0.374600
-3.836300 0.377100
-3.815600 0.374000
-3.795000 0.370800
-3.774300 0.367800
-3.753700 0.375600
-3.733000 0.385700
-3.712400 0.397800
-3.691700 0.411600
-3.671100 0.426600
-3.650400 0.442500
-3.629800 0.459500
-3.609100 0.477500
-3.588500 0.496400
-3.567800 0.515300
-3.547200 0.512100
-3.526500 0.517100
-3.505900 0.526000
-3.485200 0.536000
-3.464600 0.546800
-3.443900 0.558000
-3.423300 0.569600
-3.402600 0.581700
-3.382000 0.594100
-3.361300 0.606600
-3.340700 0.619400
-3.320000 0.632300
-3.299400 0.645300
-3.278700 0.658600
-3.258100 0.672200
-3.237400 0.686000
-3.216800 0.700000
-3.196100 0.714100
-3.175500 0.728500
-3.154800 0.743400
-3.134200 0.759000
-3.113500 0.775400
-3.092900 0.792400
-3.072200 0.810000
-3.051600 0.828200
-3.030900 0.846900
-3.010300 0.866300
-2.989600 0.910800
-2.969000 1.008700
-2.948300 1.100400
-2.927700 1.191100
-2.907000 1.278000
-2.886400 1.363100
-2.865700 1.471600
-2.845100 1.613000
-2.824400 1.840900
-2.803800 2.173700
-2.783100 2.856500
-2.762500 3.357600
-2.741800 4.277100
-2.721100 5.711400
-2.700500 6.184100
-2.679800 6.636800
-2.659200 6.622500
-2.638500 6.385100
-2.617900 6.728000
-2.597200 8.182000
-2.576600 9.695500
-2.555900 10.983200
-2.535300 11.658200
-2.514600 11.839200
-2.494000 12.756600
-2.473300 13.553300
-2.452700 13.334600
-2.432000 14.342300
-2.411400 14.470800
-2.390700 13.878700
-2.370100 14.374900
-2.349400 12.010100
-2.328800 9.532800
-2.308100 8.281200
-2.287500 8.950200
-2.266800 9.147100
-2.246200 9.211100
-2.225500 8.159500
-2.204900 9.252000
-2.184200 9.372500
-2.163600 10.328600
-2.142900 9.852200
-2.122300 10.747900
-2.101600 14.083100
-2.081000 18.280400
-2.060300 13.273000
-2.039700 10.369800
-2.019000 8.849500
-1.998400 8.429400
-1.977700 8.856600
-1.957100 4.795700
-1.936400 3.514700
-1.915800 3.553600
-1.895100 3.968300
-1.874500 4.425800
-1.853800 5.684900
-1.833200 7.545600
-1.812500 7.294000
-1.791900 8.406600
-1.771200 10.691000
-1.750600 10.158200
-1.729900 8.955500
-1.709300 9.431100
-1.688600 9.348200
-1.668000 10.582500
-1.647300 10.470400
-1.626700 11.447500
-1.606000 11.276700
-1.585400 18.127900
-1.564700 14.195600
-1.544100 25.759100
-1.523400 16.086700
-1.502800 16.102400
-1.482100 16.466900
-1.461500 14.967500
-1.440800 12.473000
-1.420200 13.762600
-1.399500 15.569000
-1.378800 16.596300
-1.358200 23.708100
-1.337500 16.441500
-1.316900 11.926300
-1.296200 10.576100
-1.275600 10.411400
-1.254900 11.239100
-1.234300 11.987500
-1.213600 10.403000
-1.193000 11.490700
-1.172300 13.480600
-1.151700 12.709000
-1.131000 11.941600
-1.110400 10.920100
-1.089700 11.839500
-1.069100 12.854200
-1.048400 12.690300
-1.027800 12.206600
-1.007100 10.618000
-0.986500 9.618800
-0.965800 9.517200
-0.945200 8.128200
-0.924500 8.868500
-0.903900 9.803700
-0.883200 10.607700
-0.862600 11.231700
-0.841900 13.501700
-0.821300 12.268200
-0.800600 8.684000
-0.780000 8.719400
-0.759300 9.127400
-0.738700 7.403000
-0.718000 7.144200
-0.697400 8.379400
-0.676700 9.142000
-0.656100 11.037900
-0.635400 10.323900
-0.614800 10.462000
-0.594100 11.124900
-0.573500 11.558100
-0.552800 13.855100
-0.532200 10.465400
-0.511500 10.326900
-0.490900 10.237700
-0.470200 10.602600
-0.449600 11.304400
-0.428900 11.377400
-0.408300 12.009900
-0.387600 11.585700
-0.367000 12.618200
-0.346300 12.540500
-0.325700 12.557800
-0.305000 12.794900
-0.284400 12.872900
-0.263700 11.358300
-0.243100 8.980900
-0.222400 7.493300
-0.201800 7.188000
-0.181100 8.226900
-0.160500 10.633200
-0.139800 12.289400
-0.119200 9.881200
-0.098500 8.013000
-0.077900 5.881100
-0.057200 6.592500
-0.036600 7.686100
-0.015900 18.418900
0.004800 13.821600
0.025400 4.859900
0.046100 3.504700
0.066700 3.238300
0.087400 2.970500
0.108000 2.722900
0.128700 2.492700
0.149300 1.449500
0.170000 1.438200
0.190600 1.430500
0.211300 1.425700
0.231900 1.423900
0.252600 1.426100
0.273200 1.428100
0.293900 1.429300
0.314500 1.429800
0.335200 1.411900
0.355800 1.365300
0.376500 1.344600
0.397100 1.329200
0.417800 1.317400
0.438400 1.307400
0.459100 1.298400
0.479700 1.290700
0.500400 1.282800
0.521000 1.275500
0.541700 1.262000
0.562300 1.241100
0.583000 1.219900
0.603600 1.196200
0.624300 1.175300
0.644900 1.157800
0.665600 1.140200
0.686200 1.120600
0.706900 1.092900
0.727500 1.080900
0.748200 1.071300
0.768800 1.063500
0.789500 1.057100
0.810100 1.051900
0.830800 1.048000
0.851400 1.045600
0.872100 1.045400
0.892700 1.045900
0.913400 1.046500
0.934000 1.047200
0.954700 1.047900
0.975300 1.048800
0.996000 1.050800
1.016600 1.053300
1.037300 1.055900
1.057900 1.058600
1.078600 1.061500
1.099200 1.066400
1.119900 1.072800
1.140500 1.080900
1.161200 1.091300
1.181800 1.104300
1.202500 1.115300
1.223100 1.125600
1.243800 1.136300
1.264400 1.147500
1.285100 1.156900
1.305700 1.162200
1.326400 1.166000
1.347100 1.168300
1.367700 1.168900
1.388400 1.166900
1.409000 1.164400
1.429700 1.162100
1.450300 1.159800
1.471000 1.157600
1.491600 1.155300
1.512300 1.153100
1.532900 1.150900
1.553600 1.148800
1.574200 1.146600
1.594900 1.144500
1.615500 1.142000
1.636200 1.136800
1.656800 1.133500
1.677500 1.130300
1.698100 1.127100
1.718800 1.123800
1.739400 1.120600
1.760100 1.117600
1.780700 1.115600
1.801400 1.114100
1.822000 1.113100
1.842700 1.112500
1.863300 1.111100
1.884000 1.106000
1.904600 1.098700
1.925300 1.091800
1.945900 1.144800
1.966600 1.309200
1.987200 1.549300
2.007900 1.714600
2.028500 1.489900
2.049200 1.283400
2.069800 1.190700
2.090500 1.136000
2.111100 1.099900
2.131800 1.075500
2.152400 1.060100
2.173100 1.050400
2.193700 1.046400
2.214400 1.047300
2.235000 1.059800
2.255700 1.094400
2.276300 1.119800
2.297000 1.140300
2.317600 1.161000
2.338300 1.182000
2.358900 1.203700
2.379600 1.226800
2.400200 1.248600
2.420900 1.269300
2.441500 1.290500
2.462200 1.311100
2.482800 1.328600
2.503500 1.344100
2.524100 1.376400
2.544800 1.440600
2.565400 1.185300
2.586100 1.154300
2.606700 1.127300
2.627400 1.104000
2.648000 1.083000
2.668700 1.063100
2.689300 1.045100
2.710000 1.029100
2.730700 1.012600
2.751300 0.995500
2.772000 0.978300
2.792600 0.965600
2.813300 0.965200
2.833900 0.965800
2.854600 0.964400
2.875200 0.961400
2.895900 0.962900
2.916500 0.964600
2.937200 0.966500
2.957800 0.968600
2.978500 0.970700
2.999100 0.973400
3.019800 0.980100
3.040400 0.986900
3.061100 0.992100
3.081700 0.997200
3.102400 1.002100
3.123000 1.007200
3.143700 1.012800
3.164300 1.019200
3.185000 1.026900
3.205600 1.034900
3.226300 1.042900
3.246900 1.051000
3.267600 1.059100
3.288200 1.067300
3.308900 1.109200
3.329500 1.147600
3.350200 1.181100
3.370800 1.217300
3.391500 1.259800
3.412100 1.309900
3.432800 1.362600
3.453400 1.459400
3.474100 1.724000
3.494700 1.719900
3.515400 1.401700
3.536000 1.373200
3.556700 1.360700
3.577300 1.354800
3.598000 1.350100
3.618600 1.347600
3.639300 1.295700
3.659900 1.309500
3.680600 1.331700
3.701200 1.363000
3.721900 1.401700
3.742500 1.447100
3.763200 1.493600
3.783800 1.741100
3.804500 1.934200
3.825100 1.051700
3.845800 0.991700
3.866400 0.971400
3.887100 0.971000
3.907700 0.992500
3.928400 0.989800
3.949000 0.925000
3.969700 0.865300
3.990300 0.812100
4.011000 0.777800
4.031600 0.761600
4.052300 0.758200
4.073000 0.766400
4.093600 0.787500
4.114300 0.817600
4.134900 0.826500
4.155600 0.811500
4.176200 0.809300
4.196900 0.837100
4.217500 0.862200
4.238200 0.877200
4.258800 0.884100
4.279500 0.883300
4.300100 0.876700
4.320800 0.872600
4.341400 0.871600
4.362100 0.873500
4.382700 0.877600
4.403400 0.883600
4.424000 0.892100
4.444700 0.903400
4.465300 0.917700
4.486000 0.935000
4.506600 0.955000
4.527300 0.978300
4.547900 1.006400
4.568600 1.032800
4.589200 1.057000
4.609900 1.080200
4.630500 1.099700
4.651200 1.116500
4.671800 1.121100
4.692500 1.104900
4.713100 1.083400
4.733800 1.057300
4.754400 1.030500
4.775100 1.008800
4.795700 0.992400
4.816400 0.981400
4.837000 0.978200
4.857700 0.987000
4.878300 0.990700
4.899000 0.988700
4.919600 0.980900
4.940300 0.970500
4.960900 0.959800
4.981600 0.948900
5.002200 0.939700
5.022900 0.932300
5.043500 0.927200
5.064200 0.923600
5.084800 0.922900
5.105500 0.904000
5.126100 0.897700
5.146800 0.925000
5.167400 0.979800
5.188100 1.026300
5.208700 1.093600
5.229400 1.139300
5.250000 1.186600
5.270700 1.282500
5.291300 1.429400
5.312000 1.552100
5.332600 1.647800
5.353300 1.642300
5.373900 1.544900
5.394600 1.392600
5.415200 1.299500
5.435900 1.246700
5.456600 1.226700
5.477200 1.207400
5.497900 1.211000
5.518500 1.210800
5.539200 1.191100
5.559800 1.192200
5.580500 1.190300
5.601100 1.197100
5.621800 1.205100
5.642400 1.214200
5.663100 1.225800
5.683700 1.239900
5.704400 1.255500
5.725000 1.272600
5.745700 1.291100
5.766300 1.432400
5.787000 1.913300
5.807600 2.034200
5.828300 1.764600
5.848900 1.658400
5.869600 1.548700
5.890200 1.449400
5.910900 1.371700
5.931500 1.337500
5.952200 1.418900
5.972800 1.701200
5.993500 2.093300
6.014100 2.166300
6.034800 2.088600
6.055400 2.020600
6.076100 1.935500
6.096700 1.851400
6.117400 1.723400
6.138000 1.544600
6.158700 1.300900
6.179300 1.044500
6.200000 0.985700
6.220600 0.941800
6.241300 0.919100
6.261900 0.909600
6.282600 0.897700
6.303200 0.887200
6.323900 0.877500
6.344500 0.867700
6.365200 0.858000
6.385800 0.848700
6.406500 0.841000
6.427100 0.839500
6.447800 0.844300
6.468400 0.855600
6.489100 0.873400
6.509700 0.891500
6.530400 0.902200
6.551000 0.950600
6.571700 1.001300
6.592300 1.014800
6.613000 1.016300
6.633600 1.008800
6.654300 1.009200
6.674900 1.010900
6.695600 1.013200
6.716200 1.020600
6.736900 1.037900
6.757500 1.025100
6.778200 1.026500
6.798900 1.031300
6.819500 1.040000
6.840200 1.040600
6.860800 1.035400
6.881500 1.030900
6.902100 1.029100
6.922800 1.029600
6.943400 1.032300
6.964100 1.036300
6.984700 1.042700
7.005400 1.049200
7.026000 1.057600
7.046700 1.069100
7.067300 1.084100
7.088000 1.103800
7.108600 1.131700
7.129300 1.163100
7.149900 1.187600
7.170600 1.202000
7.191200 1.210400
7.211900 1.216700
7.232500 1.223600
7.253200 1.230700
7.273800 1.231200
7.294500 1.221500
7.315100 1.208100
7.335800 1.192200
7.356400 1.177200
7.377100 1.164000
7.397700 1.152800
7.418400 1.144900
7.439000 1.140000
7.459700 1.139000
7.480300 1.137600
7.501000 1.135600
7.521600 1.149100
7.542300 1.165000
7.562900 1.181400
7.583600 1.197700
7.604200 1.215600
7.624900 1.233700
7.645500 1.251300
7.666200 1.266000
7.686800 1.278000
7.707500 1.287000
7.728100 1.288900
7.748800 1.275900
7.769400 1.280900
7.790100 1.287800
7.810700 1.301600
7.831400 1.347000
7.852000 1.381600
7.872700 1.401900
7.893300 1.406700
7.914000 1.415800
7.934600 1.453300
7.955300 1.500300
7.975900 1.551000
7.996600 1.700100
8.017200 1.769300
8.037900 1.808600
8.058500 1.852200
8.079200 1.912700
8.099800 2.000000
8.120500 1.982800
8.141100 1.775500
8.161800 1.709900
8.182500 1.665600
8.203100 1.630500
8.223800 1.617500
8.244400 1.623300
8.265100 1.631100
8.285700 1.638900
8.306400 1.648600
8.327000 1.655500
8.347700 1.662100
8.368300 1.666200
8.389000 1.659300
8.409600 1.644700
8.430300 1.637700
8.450900 1.636500
8.471600 1.634100
8.492200 1.630300
8.512900 1.624700
8.533500 1.620500
8.554200 1.618500
8.574800 1.618600
8.595500 1.621000
8.616100 1.624000
8.636800 1.627900
8.657400 1.629500
8.678100 1.639300
8.698700 1.674600
8.719400 1.731100
8.740000 1.755400
8.760700 1.734500
8.781300 1.696900
8.802000 1.597800
8.822600 1.507400
8.843300 1.476600
8.863900 1.456200
8.884600 1.437400
8.905200 1.419800
8.925900 1.402300
8.946500 1.384700
8.967200 1.370900
8.987800 1.365200
9.008500 1.365200
9.029100 1.372200
9.049800 1.386500
9.070400 1.405000
9.091100 1.423700
9.111700 1.476200
9.132400 1.509300
9.153000 1.549500
9.173700 1.605600
9.194300 1.678200
9.215000 1.765700
9.235600 1.846600
9.256300 1.869400
9.276900 1.794400
9.297600 1.728700
9.318200 1.674200
9.338900 1.624100
9.359500 1.576000
9.380200 1.532200
9.400800 1.498400
9.421500 1.491200
9.442100 1.490500
9.462800 1.488200
9.483400 1.490400
9.504100 1.507200
9.524800 1.522200
9.545400 1.531500
9.566100 1.541800
9.586700 1.553400
9.607400 1.565600
9.628000 1.577300
9.648700 1.587600
9.669300 1.596800
9.690000 1.608500
9.710600 1.625600
9.731300 1.647600
9.751900 1.675000
9.772600 1.733600
9.793200 1.828600
9.813900 1.746400
9.834500 1.747000
9.855200 1.764500
9.875800 1.776100
9.896500 1.762100
9.917100 1.733500
9.937800 1.696600
9.958400 1.669200
9.979100 1.650100
9.999700 1.635400
10.020400 1.623800
10.041000 1.615000
10.061700 1.607900
10.082300 1.603400
10.103000 1.604000
10.123600 1.608600
10.144300 1.612400
10.164900 1.604600
10.185600 1.593900
10.206200 1.589100
10.226900 1.589500
10.247500 1.587900
10.268200 1.586400
10.288800 1.588200
10.309500 1.593300
10.330100 1.603000
10.350800 1.617000
10.371400 1.635600
10.392100 1.657400
10.412700 1.680200
10.433400 1.703600
10.454000 1.727600
10.474700 1.753000
10.495300 1.781500
10.516000 1.813800
10.536600 1.851400
10.557300 1.913100
10.577900 1.982100
10.598600 2.076500
10.619200 2.149600
10.639900 2.158000
10.660500 2.101500
10.681200 2.036300
10.701800 2.044600
10.722500 2.047500
10.743100 2.132900
10.763800 2.087200
10.784400 2.086100
10.805100 2.095700
10.825700 2.106200
10.846400 2.102600
10.867000 2.080200
10.887700 2.068600
10.908400 2.081000
10.929000 2.031000
10.949700 1.978500
10.970300 1.937100
10.991000 1.899700
11.011600 1.868500
11.032300 1.845600
11.052900 1.825200
11.073600 1.807400
11.094200 1.793700
11.114900 1.781900
11.135500 1.774300
11.156200 1.770200
11.176800 1.765200
11.197500 1.759400
11.218100 1.754400
11.238800 1.751400
11.259400 1.751800
11.280100 1.756000
11.300700 1.761500
11.321400 1.768400
11.342000 1.776900
11.362700 1.786000
11.383300 1.793600
11.404000 1.799300
11.424600 1.803000
11.445300 1.805700
11.465900 1.806200
11.486600 1.806500
11.507200 1.807300
11.527900 1.808700
11.548500 1.812000
11.569200 1.815800
11.589800 1.819900
11.610500 1.824600
11.631100 1.831200
11.651800 1.840000
11.672400 1.850200
11.693100 1.862800
11.713700 1.877400
11.734400 1.893200
11.755000 1.914500
11.775700 1.936200
11.796300 1.951900
11.817000 1.957500
11.837600 1.962500
11.858300 1.968500
11.878900 1.975100
11.899600 1.980800
11.920200 1.986200
11.940900 1.998900
11.961500 2.013100
11.982200 2.029300
12.002800 2.041200
12.023500 2.050200
12.044100 2.060700
12.064800 2.073300
12.085400 2.084900
12.106100 2.094400
12.126700 2.102300
12.147400 2.101900
12.168000 2.103400
12.188700 2.109400
12.209300 2.118600
12.230000 2.132800
12.250700 2.148400
12.271300 2.156200
12.292000 2.153800
12.312600 2.125900
12.333300 2.114300
12.353900 2.113500
12.374600 2.125700
12.395200 2.151600
12.415900 2.183200
12.436500 2.181400
12.457200 2.181500
12.477800 2.183100
12.498500 2.186000
12.519100 2.202900
12.539800 2.217500
12.560400 2.230900
12.581100 2.266100
12.601700 2.278200
12.622400 2.265200
12.643000 2.244300
12.663700 2.283500
12.684300 2.332300
12.705000 2.253600
12.725600 2.233500
12.746300 2.226900
12.766900 2.218000
12.787600 2.208300
12.808200 2.198900
12.828900 2.188800
12.849500 2.178100
12.870200 2.171000
12.890800 2.164900
12.911500 2.163100
12.932100 2.173500
12.952800 2.184000
12.973400 2.192000
12.994100 2.193600
13.014700 2.188300
13.035400 2.193200
13.056000 2.205100
13.076700 2.207100
13.097300 2.202800
13.118000 2.197000
13.138600 2.200600
