set title 'mp-978969 - Density of States'
set xlabel 'Energy (eV)'
set ylabel 'DOS (states/eV)'
set grid
set xrange [-10:10]
set yrange [0:93.406]
set xzeroaxis lt -1
set terminal png size 800,600
set output 'mp-978969_dos_gnuplot.png'
plot '-' using 1:2 with lines title 'DOS'
-7.719300 0.000000
-7.699200 0.000000
-7.679100 0.000000
-7.659000 0.000000
-7.638900 0.000000
-7.618800 0.000000
-7.598700 0.000000
-7.578600 0.000000
-7.558500 0.000000
-7.538300 0.000000
-7.518200 0.000000
-7.498100 0.000000
-7.478000 0.000000
-7.457900 0.000000
-7.437800 0.000000
-7.417700 0.000000
-7.397600 0.000000
-7.377500 0.000000
-7.357400 0.000000
-7.337300 0.000000
-7.317200 0.000000
-7.297100 0.000000
-7.277000 0.000000
-7.256900 0.000000
-7.236800 0.000000
-7.216700 0.000000
-7.196500 0.000000
-7.176400 0.000000
-7.156300 0.000000
-7.136200 0.000000
-7.116100 0.000000
-7.096000 0.000000
-7.075900 0.000000
-7.055800 0.000000
-7.035700 0.000000
-7.015600 0.000000
-6.995500 0.000000
-6.975400 0.000000
-6.955300 0.000000
-6.935200 0.000000
-6.915100 0.000000
-6.895000 0.000000
-6.874800 0.000000
-6.854700 0.000000
-6.834600 0.000000
-6.814500 0.000000
-6.794400 0.000000
-6.774300 0.000000
-6.754200 0.000000
-6.734100 0.000000
-6.714000 0.000000
-6.693900 0.000000
-6.673800 0.000000
-6.653700 0.000000
-6.633600 0.000000
-6.613500 0.000000
-6.593400 0.000000
-6.573300 0.000000
-6.553100 0.000000
-6.533000 0.000000
-6.512900 0.000000
-6.492800 0.000000
-6.472700 0.000000
-6.452600 0.000000
-6.432500 0.000000
-6.412400 0.000000
-6.392300 0.000000
-6.372200 0.000000
-6.352100 0.000000
-6.332000 0.000000
-6.311900 0.000000
-6.291800 0.000000
-6.271700 0.000000
-6.251600 0.000000
-6.231400 0.000000
-6.211300 0.000000
-6.191200 0.000000
-6.171100 0.000000
-6.151000 0.000000
-6.130900 0.000000
-6.110800 0.000000
-6.090700 0.000000
-6.070600 0.000000
-6.050500 0.000000
-6.030400 0.000000
-6.010300 0.000000
-5.990200 0.000000
-5.970100 0.000000
-5.950000 0.000000
-5.929900 0.000000
-5.909800 0.000000
-5.889600 3.019200
-5.869500 5.618500
-5.849400 5.870300
-5.829300 9.877200
-5.809200 16.777400
-5.789100 40.116200
-5.769000 47.133600
-5.748900 73.171400
-5.728800 53.715500
-5.708700 72.425700
-5.688600 84.914500
-5.668500 70.651000
-5.648400 13.592000
-5.628300 27.131800
-5.608200 8.845600
-5.588100 7.546800
-5.567900 0.000000
-5.547800 0.000000
-5.527700 0.000000
-5.507600 0.000000
-5.487500 0.000000
-5.467400 0.000000
-5.447300 0.000000
-5.427200 0.000000
-5.407100 0.000000
-5.387000 0.000000
-5.366900 0.000000
-5.346800 0.000000
-5.326700 0.000000
-5.306600 0.000000
-5.286500 0.000000
-5.266400 0.000000
-5.246200 0.000000
-5.226100 0.000000
-5.206000 0.000000
-5.185900 0.000000
-5.165800 0.000000
-5.145700 0.000000
-5.125600 0.000000
-5.105500 0.000000
-5.085400 0.000000
-5.065300 0.000000
-5.045200 0.000000
-5.025100 0.000000
-5.005000 0.000000
-4.984900 0.000000
-4.964800 0.000000
-4.944700 0.000000
-4.924600 0.000000
-4.904400 0.000000
-4.884300 0.000000
-4.864200 0.000000
-4.844100 0.000000
-4.824000 0.000000
-4.803900 0.000000
-4.783800 0.000000
-4.763700 0.000000
-4.743600 0.000000
-4.723500 0.000000
-4.703400 0.000000
-4.683300 0.000000
-4.663200 0.000000
-4.643100 0.000000
-4.623000 0.000000
-4.602900 0.000000
-4.582700 0.000000
-4.562600 0.000000
-4.542500 0.000000
-4.522400 0.000000
-4.502300 0.000000
-4.482200 0.000000
-4.462100 0.000000
-4.442000 0.000000
-4.421900 0.000000
-4.401800 0.000000
-4.381700 0.000000
-4.361600 0.000000
-4.341500 0.000000
-4.321400 0.000000
-4.301300 0.000000
-4.281200 0.000000
-4.261000 0.000000
-4.240900 0.000000
-4.220800 0.000000
-4.200700 0.000000
-4.180600 0.000000
-4.160500 0.000000
-4.140400 0.000000
-4.120300 0.000000
-4.100200 0.000000
-4.080100 0.000000
-4.060000 0.000500
-4.039900 0.009800
-4.019800 0.031100
-3.999700 0.064400
-3.979600 0.099800
-3.959500 0.133700
-3.939400 0.140800
-3.919200 0.149000
-3.899100 0.158400
-3.879000 0.169000
-3.858900 0.180900
-3.838800 0.194300
-3.818700 0.199100
-3.798600 0.210900
-3.778500 0.223700
-3.758400 0.236800
-3.738300 0.250200
-3.718200 0.262200
-3.698100 0.271100
-3.678000 0.276800
-3.657900 0.280500
-3.637800 0.288200
-3.617700 0.296500
-3.597500 0.304200
-3.577400 0.311200
-3.557300 0.318200
-3.537200 0.325300
-3.517100 0.332500
-3.497000 0.339600
-3.476900 0.347300
-3.456800 0.355400
-3.436700 0.363600
-3.416600 0.372000
-3.396500 0.380700
-3.376400 0.390000
-3.356300 0.399800
-3.336200 0.409900
-3.316100 0.419600
-3.296000 0.427100
-3.275800 0.434100
-3.255700 0.440700
-3.235600 0.447200
-3.215500 0.453800
-3.195400 0.460700
-3.175300 0.468500
-3.155200 0.476400
-3.135100 0.484200
-3.115000 0.492100
-3.094900 0.500000
-3.074800 0.507900
-3.054700 0.515800
-3.034600 0.523800
-3.014500 0.534200
-2.994400 0.543700
-2.974300 0.553500
-2.954200 0.563600
-2.934000 0.574000
-2.913900 0.586500
-2.893800 0.598700
-2.873700 0.611100
-2.853600 0.623900
-2.833500 0.637100
-2.813400 0.650800
-2.793300 0.666700
-2.773200 0.683100
-2.753100 0.699200
-2.733000 0.715100
-2.712900 0.732100
-2.692800 0.759000
-2.672700 0.781100
-2.652600 0.798600
-2.632500 0.811300
-2.612300 0.819000
-2.592200 0.823100
-2.572100 0.838800
-2.552000 0.858600
-2.531900 0.871500
-2.511800 0.882300
-2.491700 0.891100
-2.471600 0.897300
-2.451500 0.903000
-2.431400 0.910200
-2.411300 0.918600
-2.391200 0.928300
-2.371100 0.940200
-2.351000 0.955400
-2.330900 0.970500
-2.310800 0.985400
-2.290600 1.000100
-2.270500 1.023500
-2.250400 1.044600
-2.230300 1.067300
-2.210200 1.091300
-2.190100 1.116300
-2.170000 1.143300
-2.149900 1.177400
-2.129800 1.218900
-2.109700 1.264600
-2.089600 1.315600
-2.069500 1.373300
-2.049400 1.437600
-2.029300 1.510700
-2.009200 1.603100
-1.989100 1.724800
-1.969000 1.897700
-1.948800 2.113000
-1.928700 2.344700
-1.908600 2.597600
-1.888500 3.013400
-1.868400 3.240700
-1.848300 3.686200
-1.828200 4.329900
-1.808100 5.820300
-1.788000 3.779000
-1.767900 2.619000
-1.747800 0.007800
-1.727700 0.000000
-1.707600 0.000000
-1.687500 0.000000
-1.667400 0.000000
-1.647300 0.000000
-1.627100 0.000000
-1.607000 0.000000
-1.586900 0.000000
-1.566800 0.000000
-1.546700 0.000000
-1.526600 0.000000
-1.506500 0.000000
-1.486400 0.000000
-1.466300 0.000000
-1.446200 0.000000
-1.426100 0.000000
-1.406000 0.000000
-1.385900 0.000000
-1.365800 0.000000
-1.345700 0.000000
-1.325600 0.000000
-1.305400 0.000000
-1.285300 0.000000
-1.265200 0.000000
-1.245100 0.018600
-1.225000 0.042500
-1.204900 0.059600
-1.184800 0.075100
-1.164700 0.088900
-1.144600 0.101000
-1.124500 0.111400
-1.104400 0.120200
-1.084300 0.134200
-1.064200 0.146800
-1.044100 0.157300
-1.024000 0.171300
-1.003900 0.185500
-0.983800 0.199900
-0.963600 0.214400
-0.943500 0.215900
-0.923400 0.228900
-0.903300 0.242300
-0.883200 0.256100
-0.863100 0.270300
-0.843000 0.285000
-0.822900 0.300100
-0.802800 0.316400
-0.782700 0.331400
-0.762600 0.345700
-0.742500 0.366200
-0.722400 0.388300
-0.702300 0.410700
-0.682200 0.451700
-0.662100 0.592200
-0.641900 0.814800
-0.621800 0.910400
-0.601700 0.982100
-0.581600 1.061400
-0.561500 1.157800
-0.541400 1.273500
-0.521300 1.412700
-0.501200 1.567900
-0.481100 1.976200
-0.461000 2.453000
-0.440900 3.043300
-0.420800 3.595200
-0.400700 3.825300
-0.380600 3.859400
-0.360500 3.847100
-0.340400 3.865500
-0.320200 3.934300
-0.300100 3.803600
-0.280000 3.583700
-0.259900 3.753900
-0.239800 4.174900
-0.219700 3.989500
-0.199600 3.789600
-0.179500 3.526300
-0.159400 3.282300
-0.139300 2.796700
-0.119200 2.545000
-0.099100 2.312200
-0.079000 2.161200
-0.058900 2.194600
-0.038800 2.266400
-0.018700 2.201100
0.001400 2.128100
0.021600 2.407900
0.041700 2.268000
0.061800 2.101700
0.081900 2.003900
0.102000 2.194600
0.122100 2.654800
0.142200 3.564900
0.162300 3.437300
0.182400 3.428200
0.202500 3.548200
0.222600 3.723600
0.242700 3.967500
0.262800 4.386500
0.282900 5.352600
0.303000 4.699300
0.323100 4.641200
0.343300 5.072700
0.363400 5.674000
0.383500 5.828000
0.403600 6.013400
0.423700 6.378400
0.443800 6.983700
0.463900 8.132800
0.484000 7.567700
0.504100 7.676400
0.524200 7.409600
0.544300 7.738100
0.564400 8.780100
0.584500 12.494700
0.604600 18.851300
0.624700 15.614300
0.644800 11.633200
0.665000 12.028900
0.685100 12.758400
0.705200 14.423500
0.725300 12.853300
0.745400 12.954700
0.765500 11.019900
0.785600 9.712600
0.805700 9.447700
0.825800 9.311700
0.845900 9.321700
0.866000 10.957500
0.886100 11.905000
0.906200 9.484300
0.926300 8.189200
0.946400 7.699600
0.966500 6.664900
0.986600 6.985400
1.006800 8.535900
1.026900 9.507600
1.047000 9.364200
1.067100 9.523400
1.087200 8.508400
1.107300 7.497300
1.127400 6.539200
1.147500 5.992800
1.167600 6.566700
1.187700 7.326400
1.207800 7.312100
1.227900 6.322700
1.248000 6.835400
1.268100 7.390200
1.288200 10.970000
1.308300 7.660200
1.328500 8.501100
1.348600 9.473600
1.368700 7.176800
1.388800 7.640600
1.408900 9.456800
1.429000 11.605300
1.449100 14.590800
1.469200 12.337100
1.489300 10.801400
1.509400 10.897700
1.529500 9.739300
1.549600 9.569700
1.569700 9.549700
1.589800 10.742400
1.609900 10.998000
1.630000 10.984600
1.650200 10.459100
1.670300 10.914600
1.690400 9.977300
1.710500 10.621500
1.730600 10.876800
1.750700 10.417400
1.770800 9.147300
1.790900 8.696800
1.811000 8.465000
1.831100 8.998700
1.851200 8.322400
1.871300 8.563400
1.891400 9.251900
1.911500 8.852800
1.931600 8.297900
1.951700 7.685500
1.971800 7.637600
1.992000 7.520000
2.012100 6.994100
2.032200 6.819800
2.052300 7.339600
2.072400 10.460100
2.092500 11.484600
2.112600 13.079400
2.132700 13.350800
2.152800 12.662300
2.172900 11.468100
2.193000 11.683500
2.213100 11.718500
2.233200 10.174200
2.253300 10.151000
2.273400 9.452400
2.293500 8.198500
2.313700 8.039500
2.333800 8.346700
2.353900 9.040700
2.374000 9.332800
2.394100 10.392900
2.414200 12.095100
2.434300 11.175600
2.454400 10.962700
2.474500 10.195600
2.494600 9.292800
2.514700 9.073200
2.534800 11.229100
2.554900 8.624000
2.575000 8.375100
2.595100 8.307800
2.615200 8.723700
2.635400 9.140900
2.655500 9.168400
2.675600 8.987100
2.695700 8.948300
2.715800 9.489400
2.735900 9.777700
2.756000 9.232800
2.776100 8.322600
2.796200 7.074600
2.816300 6.719800
2.836400 6.892200
2.856500 6.690900
2.876600 6.452900
2.896700 6.443500
2.916800 6.496000
2.936900 6.849800
2.957000 6.628500
2.977200 6.602200
2.997300 6.342700
3.017400 7.453300
3.037500 9.434700
3.057600 8.011000
3.077700 8.237900
3.097800 8.526300
3.117900 8.764000
3.138000 8.983500
3.158100 7.492200
3.178200 5.863700
3.198300 5.033100
3.218400 4.763200
3.238500 4.802000
3.258600 5.133200
3.278700 5.895000
3.298900 6.066100
3.319000 5.289200
3.339100 4.923600
3.359200 4.345900
3.379300 3.967700
3.399400 3.620800
3.419500 3.347900
3.439600 3.118000
3.459700 3.016000
3.479800 2.902800
3.499900 2.843900
3.520000 2.718800
3.540100 2.693900
3.560200 2.684100
3.580300 2.612200
3.600400 2.498900
3.620600 2.458900
3.640700 2.386500
3.660800 2.342200
3.680900 2.305800
3.701000 2.276800
3.721100 2.264500
3.741200 2.261200
3.761300 2.252500
3.781400 2.227200
3.801500 2.161500
3.821600 2.053400
3.841700 1.953400
3.861800 1.858400
3.881900 1.771100
3.902000 1.701800
3.922100 1.640900
3.942200 1.613900
3.962400 1.588000
3.982500 1.567700
4.002600 1.539000
4.022700 1.521500
4.042800 1.510900
4.062900 1.509000
4.083000 1.516800
4.103100 1.455100
4.123200 1.434000
4.143300 1.414200
4.163400 1.394900
4.183500 1.376900
4.203600 1.360200
4.223700 1.344500
4.243800 1.329700
4.263900 1.316000
4.284100 1.308600
4.304200 1.302400
4.324300 1.299900
4.344400 1.308800
4.364500 1.325400
4.384600 1.339300
4.404700 1.339400
4.424800 1.341700
4.444900 1.342900
4.465000 1.342700
4.485100 1.341600
4.505200 1.339600
4.525300 1.335000
4.545400 1.338700
4.565500 1.343200
4.585600 1.347400
4.605800 1.352800
4.625900 1.362400
4.646000 1.373900
4.666100 1.385500
4.686200 1.398800
4.706300 1.412500
4.726400 1.427000
4.746500 1.460300
4.766600 1.479700
4.786700 1.554900
4.806800 1.615200
4.826900 1.514400
4.847000 1.438000
4.867100 1.392000
4.887200 1.361000
4.907300 1.340500
4.927400 1.334800
4.947600 1.349700
4.967700 1.396900
4.987800 1.424900
5.007900 1.459200
5.028000 1.490500
5.048100 1.519100
5.068200 1.555900
5.088300 1.604700
5.108400 1.671700
5.128500 1.611600
5.148600 1.558900
5.168700 1.553800
5.188800 1.547800
5.208900 1.540800
5.229000 1.469500
5.249100 1.433100
5.269300 1.401100
5.289400 1.378100
5.309500 1.365300
5.329600 1.361700
5.349700 1.366300
5.369800 1.357600
5.389900 1.341000
5.410000 1.333900
5.430100 1.316900
5.450200 1.288300
5.470300 1.267600
5.490400 1.258600
5.510500 1.250800
5.530600 1.355800
5.550700 1.284200
5.570800 1.205000
5.591000 1.134200
5.611100 1.088600
5.631200 1.073500
5.651300 1.061900
5.671400 1.053800
5.691500 1.049200
5.711600 1.049500
5.731700 1.050400
5.751800 1.051100
5.771900 1.048500
5.792000 1.043600
5.812100 1.039600
5.832200 1.037900
5.852300 1.041100
5.872400 1.045000
5.892500 1.048300
5.912600 1.045500
5.932800 1.042100
5.952900 1.055700
5.973000 1.072900
5.993100 1.089100
6.013200 1.100700
6.033300 1.107900
6.053400 1.116500
6.073500 1.131700
6.093600 1.153300
6.113700 1.177800
6.133800 1.151100
6.153900 1.171700
6.174000 1.192100
6.194100 1.209000
6.214200 1.230800
6.234300 1.264200
6.254500 1.292900
6.274600 1.302700
6.294700 1.360800
6.314800 1.405800
6.334900 1.504600
6.355000 1.579300
6.375100 1.615700
6.395200 1.658400
6.415300 1.713600
6.435400 1.733500
6.455500 1.742200
6.475600 1.750700
6.495700 1.758200
6.515800 1.763900
6.535900 1.771700
6.556000 1.772300
6.576200 1.762100
6.596300 1.770100
6.616400 1.759100
6.636500 1.703200
6.656600 1.684400
6.676700 1.671300
6.696800 1.667100
6.716900 1.656400
6.737000 1.645000
6.757100 1.629600
6.777200 1.609800
6.797300 1.590000
6.817400 1.571300
6.837500 1.553500
6.857600 1.541400
6.877700 1.526800
6.897800 1.510000
6.918000 1.491000
6.938100 1.474800
6.958200 1.451300
6.978300 1.435300
6.998400 1.446100
7.018500 1.412500
7.038600 1.377700
7.058700 1.325300
7.078800 1.250900
7.098900 1.208400
7.119000 1.187600
7.139100 1.173200
7.159200 1.163000
7.179300 1.153500
7.199400 1.175600
7.219500 1.168900
7.239700 1.285200
7.259800 1.204800
7.279900 1.186400
7.300000 1.177100
7.320100 1.170300
7.340200 1.206600
7.360300 1.231100
7.380400 1.187700
7.400500 1.147000
7.420600 1.109700
7.440700 1.101200
7.460800 1.097200
7.480900 1.094900
7.501000 1.086000
7.521100 1.085600
7.541200 1.087200
7.561400 1.090600
7.581500 1.082800
7.601600 1.088000
7.621700 1.094200
7.641800 1.101300
7.661900 1.109300
7.682000 1.118200
7.702100 1.125600
7.722200 1.131000
7.742300 1.136200
7.762400 1.142100
7.782500 1.137600
7.802600 1.133300
7.822700 1.129600
7.842800 1.126400
7.862900 1.123900
7.883000 1.110300
7.903200 1.114800
7.923300 1.113000
7.943400 1.103800
7.963500 1.095100
7.983600 1.092000
8.003700 1.101600
8.023800 1.115100
8.043900 1.132800
8.064000 1.157100
8.084100 1.183900
8.104200 1.193400
8.124300 1.203900
8.144400 1.220700
8.164500 1.240100
8.184600 1.261600
8.204700 1.284300
8.224900 1.311000
8.245000 1.333200
8.265100 1.364400
8.285200 1.395300
8.305300 1.422300
8.325400 1.451400
8.345500 1.485200
8.365600 1.532600
8.385700 1.574400
8.405800 1.618000
8.425900 1.657400
8.446000 1.701300
8.466100 1.748900
8.486200 1.801000
8.506300 1.873000
8.526400 1.953100
8.546600 2.032500
8.566700 2.021300
8.586800 1.965700
8.606900 1.915900
8.627000 1.852900
8.647100 1.794800
8.667200 1.742600
8.687300 1.717700
8.707400 1.694500
8.727500 1.672800
8.747600 1.652300
8.767700 1.632900
8.787800 1.615100
8.807900 1.598700
8.828000 1.584000
8.848100 1.572100
8.868200 1.562200
8.888400 1.554400
8.908500 1.549500
8.928600 1.548500
8.948700 1.551900
8.968800 1.573700
8.988900 1.571200
9.009000 1.569800
9.029100 1.571600
9.049200 1.567300
9.069300 1.557100
9.089400 1.547100
9.109500 1.537200
9.129600 1.528800
9.149700 1.523600
9.169800 1.518600
9.189900 1.514700
9.210100 1.513300
9.230200 1.512800
9.250300 1.513100
9.270400 1.515000
9.290500 1.489900
9.310600 1.465500
9.330700 1.438300
9.350800 1.462600
9.370900 1.446100
9.391000 1.430700
9.411100 1.343400
9.431200 1.314600
9.451300 1.302400
9.471400 1.330900
9.491500 1.334400
9.511600 1.311400
9.531800 1.302600
9.551900 1.307700
9.572000 1.326600
9.592100 1.357600
9.612200 1.408300
9.632300 1.480000
9.652400 1.416600
9.672500 1.398000
9.692600 1.330600
9.712700 1.299200
9.732800 1.291200
9.752900 1.283500
9.773000 1.269900
9.793100 1.259200
9.813200 1.253000
9.833300 1.247600
9.853500 1.243200
9.873600 1.240400
9.893700 1.239000
9.913800 1.238700
9.933900 1.241500
9.954000 1.247100
9.974100 1.256500
9.994200 1.275300
10.014300 1.301900
10.034400 1.344000
10.054500 1.389000
10.074600 1.396800
10.094700 1.368800
10.114800 1.372100
10.134900 1.379800
10.155000 1.386100
10.175100 1.389800
10.195300 1.392000
10.215400 1.399300
10.235500 1.409500
10.255600 1.416100
10.275700 1.418900
10.295800 1.415000
10.315900 1.421500
10.336000 1.426100
10.356100 1.401400
10.376200 1.386000
10.396300 1.375900
10.416400 1.370100
10.436500 1.368400
10.456600 1.366500
10.476700 1.365800
10.496800 1.365300
10.517000 1.365300
10.537100 1.366500
10.557200 1.368500
10.577300 1.370500
10.597400 1.373500
10.617500 1.378600
10.637600 1.386400
10.657700 1.396700
10.677800 1.402200
10.697900 1.416000
10.718000 1.394800
10.738100 1.395000
10.758200 1.393900
10.778300 1.387700
10.798400 1.378000
10.818500 1.369900
10.838700 1.372400
10.858800 1.375600
10.878900 1.370600
10.899000 1.370000
10.919100 1.371700
10.939200 1.375000
10.959300 1.378800
10.979400 1.392100
10.999500 1.402600
11.019600 1.412500
11.039700 1.423500
11.059800 1.433000
11.079900 1.444600
11.100000 1.456800
11.120100 1.472000
11.140200 1.490500
11.160300 1.512200
11.180500 1.537000
11.200600 1.565900
11.220700 1.580200
11.240800 1.593200
11.260900 1.605300
11.281000 1.617800
11.301100 1.631400
11.321200 1.645000
11.341300 1.658300
11.361400 1.670500
11.381500 1.682200
11.401600 1.695000
11.421700 1.707800
11.441800 1.726600
11.461900 1.744000
11.482000 1.755400
11.502200 1.768700
11.522300 1.782000
11.542400 1.791100
11.562500 1.794600
11.582600 1.797800
11.602700 1.801600
11.622800 1.805700
11.642900 1.809600
11.663000 1.807400
11.683100 1.802000
11.703200 1.792400
11.723300 1.780400
11.743400 1.764400
11.763500 1.747500
11.783600 1.729000
11.803700 1.684800
11.823900 1.629400
11.844000 1.591500
11.864100 1.562600
11.884200 1.512700
11.904300 1.475700
11.924400 1.442300
11.944500 1.412500
11.964600 1.386300
11.984700 1.363800
12.004800 1.345000
12.024900 1.328800
12.045000 1.313700
12.065100 1.299500
12.085200 1.286100
12.105300 1.278600
12.125400 1.271400
12.145500 1.265000
12.165700 1.260700
12.185800 1.257000
12.205900 1.261400
12.226000 1.268100
12.246100 1.272100
12.266200 1.274300
12.286300 1.277200
12.306400 1.283500
12.326500 1.309600
12.346600 1.353100
12.366700 1.374000
12.386800 1.391800
12.406900 1.408500
12.427000 1.426100
12.447100 1.446900
12.467200 1.468500
12.487400 1.485800
12.507500 1.495200
12.527600 1.504300
12.547700 1.514300
12.567800 1.566800
12.587900 1.557300
12.608000 1.754100
12.628100 1.621000
12.648200 1.589400
12.668300 1.587500
12.688400 1.590500
12.708500 1.596000
12.728600 1.606600
12.748700 1.626600
12.768800 1.648700
12.788900 1.669400
12.809100 1.686400
12.829200 1.699100
12.849300 1.703000
12.869400 1.670900
12.889500 1.623100
12.909600 1.684000
12.929700 1.796900
12.949800 1.703500
12.969900 1.681100
12.990000 1.655700
13.010100 1.638600
13.030200 1.630400
13.050300 1.628300
13.070400 1.666200
13.090500 1.709800
13.110600 1.760000
13.130700 1.873200
13.150900 1.920500
13.171000 1.914900
13.191100 1.937400
13.211200 1.938400
13.231300 1.964800
13.251400 2.046500
13.271500 2.124500
13.291600 2.176900
13.311700 2.125600
13.331800 2.052700
13.351900 1.987400
13.372000 1.984300
13.392100 2.003500
13.412200 1.999100
13.432300 2.018200
13.452400 2.068000
13.472600 2.135700
13.492700 2.200700
13.512800 2.291900
13.532900 2.327500
13.553000 2.316000
13.573100 2.303300
13.593200 2.293000
