set title 'mp-768247 - Density of States'
set xlabel 'Energy (eV)'
set ylabel 'DOS (states/eV)'
set grid
set xrange [-10:10]
set yrange [0:7.815]
set xzeroaxis lt -1
set terminal png size 800,600
set output 'mp-768247_dos_gnuplot.png'
plot '-' using 1:2 with lines title 'DOS'
-19.063900 0.000000
-19.036500 0.000000
-19.009100 0.000000
-18.981700 0.000000
-18.954300 0.000000
-18.926800 0.000000
-18.899400 0.000000
-18.872000 0.000000
-18.844600 0.000000
-18.817200 0.000000
-18.789800 0.000000
-18.762400 0.000000
-18.735000 0.000000
-18.707500 0.000000
-18.680100 0.000000
-18.652700 0.000000
-18.625300 0.000000
-18.597900 0.000000
-18.570500 0.000000
-18.543100 0.000000
-18.515600 0.000000
-18.488200 0.000000
-18.460800 0.000000
-18.433400 0.000000
-18.406000 0.000000
-18.378600 0.000000
-18.351200 0.000000
-18.323800 0.000000
-18.296300 0.000000
-18.268900 0.000000
-18.241500 0.000000
-18.214100 0.000000
-18.186700 0.000000
-18.159300 0.000000
-18.131900 0.000000
-18.104500 0.000000
-18.077000 0.000000
-18.049600 0.000000
-18.022200 0.000000
-17.994800 0.000000
-17.967400 0.000000
-17.940000 0.000000
-17.912600 0.000000
-17.885200 0.000000
-17.857700 0.000000
-17.830300 0.000000
-17.802900 0.000000
-17.775500 0.000000
-17.748100 0.000000
-17.720700 0.000000
-17.693300 0.000000
-17.665900 0.000000
-17.638400 0.000000
-17.611000 0.000000
-17.583600 0.000000
-17.556200 0.000000
-17.528800 0.000000
-17.501400 0.000000
-17.474000 0.000000
-17.446600 0.000000
-17.419100 0.000000
-17.391700 0.000000
-17.364300 0.000000
-17.336900 0.000000
-17.309500 0.000000
-17.282100 0.000000
-17.254700 0.000000
-17.227300 0.000000
-17.199800 0.000000
-17.172400 0.000000
-17.145000 0.000000
-17.117600 0.000000
-17.090200 0.000000
-17.062800 0.000000
-17.035400 0.000000
-17.007900 0.000000
-16.980500 0.000000
-16.953100 0.000000
-16.925700 0.000000
-16.898300 0.000000
-16.870900 0.000000
-16.843500 0.000000
-16.816100 0.000000
-16.788600 0.000000
-16.761200 0.000000
-16.733800 0.000000
-16.706400 0.000000
-16.679000 0.000000
-16.651600 0.000000
-16.624200 0.000000
-16.596800 0.000000
-16.569300 0.000700
-16.541900 0.105100
-16.514500 0.165600
-16.487100 0.220400
-16.459700 0.277800
-16.432300 0.307900
-16.404900 0.341600
-16.377500 0.380900
-16.350000 0.421600
-16.322600 0.456300
-16.295200 0.489900
-16.267800 0.523300
-16.240400 0.559100
-16.213000 0.596600
-16.185600 0.635300
-16.158200 0.675900
-16.130700 0.717000
-16.103300 0.759700
-16.075900 0.803700
-16.048500 0.848600
-16.021100 0.894900
-15.993700 0.950200
-15.966300 1.012400
-15.938900 1.081900
-15.911400 1.156900
-15.884000 1.239200
-15.856600 1.332300
-15.829200 1.462600
-15.801800 1.679400
-15.774400 1.948600
-15.747000 1.880600
-15.719500 1.943700
-15.692100 2.010200
-15.664700 2.240200
-15.637300 2.563400
-15.609900 2.058300
-15.582500 1.304100
-15.555100 0.216800
-15.527700 0.183700
-15.500200 1.673300
-15.472800 3.116500
-15.445400 3.650000
-15.418000 2.400900
-15.390600 2.479400
-15.363200 3.507300
-15.335800 2.810600
-15.308400 7.535700
-15.280900 5.643200
-15.253500 3.065900
-15.226100 2.288600
-15.198700 4.164400
-15.171300 6.234600
-15.143900 6.114800
-15.116500 7.021100
-15.089100 5.326800
-15.061600 4.287100
-15.034200 3.219400
-15.006800 3.078400
-14.979400 4.601000
-14.952000 9.776600
-14.924600 7.610400
-14.897200 4.649800
-14.869800 1.566600
-14.842300 1.125200
-14.814900 1.692500
-14.787500 3.796500
-14.760100 5.976800
-14.732700 6.984500
-14.705300 8.858600
-14.677900 7.486000
-14.650500 4.968900
-14.623000 5.445000
-14.595600 5.484100
-14.568200 4.708500
-14.540800 4.490600
-14.513400 4.224500
-14.486000 4.160500
-14.458600 3.259300
-14.431200 2.593300
-14.403700 2.095200
-14.376300 1.466800
-14.348900 0.206400
-14.321500 0.000000
-14.294100 0.000000
-14.266700 0.000000
-14.239300 0.000000
-14.211800 0.000000
-14.184400 0.000000
-14.157000 0.000000
-14.129600 0.000000
-14.102200 0.000000
-14.074800 0.000000
-14.047400 0.000000
-14.020000 0.000000
-13.992500 0.000000
-13.965100 0.000000
-13.937700 0.000000
-13.910300 0.000000
-13.882900 0.000000
-13.855500 0.000000
-13.828100 0.000000
-13.800700 0.000000
-13.773200 0.000000
-13.745800 0.000000
-13.718400 0.000000
-13.691000 0.000000
-13.663600 0.000000
-13.636200 0.000000
-13.608800 0.000000
-13.581400 0.000000
-13.553900 0.000000
-13.526500 0.000000
-13.499100 0.000000
-13.471700 0.000000
-13.444300 0.000000
-13.416900 0.000000
-13.389500 0.000000
-13.362100 0.000000
-13.334600 0.000000
-13.307200 0.000000
-13.279800 0.000000
-13.252400 0.000000
-13.225000 0.000000
-13.197600 0.000000
-13.170200 0.000000
-13.142800 0.000000
-13.115300 0.000000
-13.087900 0.000000
-13.060500 0.000000
-13.033100 0.000000
-13.005700 0.000000
-12.978300 0.000000
-12.950900 0.000000
-12.923400 0.000000
-12.896000 0.000000
-12.868600 0.000000
-12.841200 0.000000
-12.813800 0.000000
-12.786400 0.000000
-12.759000 0.000000
-12.731600 0.000000
-12.704100 0.000000
-12.676700 0.000000
-12.649300 0.000000
-12.621900 0.000000
-12.594500 0.000000
-12.567100 0.000000
-12.539700 0.000000
-12.512300 0.000000
-12.484800 0.000000
-12.457400 0.000000
-12.430000 0.000000
-12.402600 0.000000
-12.375200 0.000000
-12.347800 0.000000
-12.320400 0.000000
-12.293000 0.000000
-12.265500 0.000000
-12.238100 0.000000
-12.210700 0.000000
-12.183300 0.000000
-12.155900 0.000000
-12.128500 0.000000
-12.101100 0.000000
-12.073700 0.000000
-12.046200 0.000000
-12.018800 0.000000
-11.991400 0.000000
-11.964000 0.000000
-11.936600 0.000000
-11.909200 0.000000
-11.881800 0.000000
-11.854400 0.000000
-11.826900 0.000000
-11.799500 0.000000
-11.772100 0.000000
-11.744700 0.000000
-11.717300 0.000000
-11.689900 0.000000
-11.662500 0.000000
-11.635100 0.000000
-11.607600 0.000000
-11.580200 0.000000
-11.552800 0.000000
-11.525400 0.000000
-11.498000 0.000000
-11.470600 0.000000
-11.443200 0.000000
-11.415700 0.000000
-11.388300 0.000000
-11.360900 0.000000
-11.333500 0.000000
-11.306100 0.000000
-11.278700 0.000000
-11.251300 0.000000
-11.223900 0.000000
-11.196400 0.000000
-11.169000 0.000000
-11.141600 0.000000
-11.114200 0.000000
-11.086800 0.000000
-11.059400 0.000000
-11.032000 0.000000
-11.004600 0.000000
-10.977100 0.000000
-10.949700 0.000000
-10.922300 0.000000
-10.894900 0.000000
-10.867500 0.000000
-10.840100 0.000000
-10.812700 0.000000
-10.785300 0.000000
-10.757800 0.000000
-10.730400 0.000000
-10.703000 0.000000
-10.675600 0.000000
-10.648200 0.000000
-10.620800 0.000000
-10.593400 0.000000
-10.566000 0.000000
-10.538500 0.000000
-10.511100 0.000000
-10.483700 0.000000
-10.456300 0.000000
-10.428900 0.000000
-10.401500 0.000000
-10.374100 0.000000
-10.346700 0.000000
-10.319200 0.000000
-10.291800 0.000000
-10.264400 0.000000
-10.237000 0.000000
-10.209600 0.000000
-10.182200 0.000000
-10.154800 0.000000
-10.127300 0.000000
-10.099900 0.000000
-10.072500 0.000000
-10.045100 0.000000
-10.017700 0.000000
-9.990300 0.000000
-9.962900 0.000000
-9.935500 0.000000
-9.908000 0.000000
-9.880600 0.000000
-9.853200 0.000000
-9.825800 0.000000
-9.798400 0.000000
-9.771000 0.000000
-9.743600 0.000000
-9.716200 0.000000
-9.688700 0.000000
-9.661300 0.000000
-9.633900 0.000000
-9.606500 0.000000
-9.579100 0.000000
-9.551700 0.000000
-9.524300 0.000000
-9.496900 0.000000
-9.469400 0.000000
-9.442000 0.000000
-9.414600 0.000000
-9.387200 0.000000
-9.359800 0.000000
-9.332400 0.000000
-9.305000 0.000000
-9.277600 0.000000
-9.250100 0.000000
-9.222700 0.000000
-9.195300 0.000000
-9.167900 0.000000
-9.140500 0.000000
-9.113100 0.000000
-9.085700 0.000000
-9.058300 0.000000
-9.030800 0.000000
-9.003400 0.000000
-8.976000 0.000000
-8.948600 0.000000
-8.921200 0.000000
-8.893800 0.000000
-8.866400 0.000000
-8.839000 0.000000
-8.811500 0.000000
-8.784100 0.000000
-8.756700 0.000000
-8.729300 0.000000
-8.701900 0.000000
-8.674500 0.000000
-8.647100 0.000000
-8.619600 0.000000
-8.592200 0.000000
-8.564800 0.000000
-8.537400 0.000000
-8.510000 0.000000
-8.482600 0.000000
-8.455200 0.000000
-8.427800 0.000000
-8.400300 0.000000
-8.372900 0.000000
-8.345500 0.000000
-8.318100 0.000000
-8.290700 0.000000
-8.263300 0.000000
-8.235900 0.000000
-8.208500 0.000000
-8.181000 0.000000
-8.153600 0.000000
-8.126200 0.000000
-8.098800 0.000000
-8.071400 0.000000
-8.044000 0.000000
-8.016600 0.000000
-7.989200 0.000000
-7.961700 0.000000
-7.934300 0.000000
-7.906900 0.000000
-7.879500 0.000000
-7.852100 0.000000
-7.824700 0.000000
-7.797300 0.000000
-7.769900 0.000000
-7.742400 0.000000
-7.715000 0.000000
-7.687600 0.000000
-7.660200 0.000000
-7.632800 0.000000
-7.605400 0.000000
-7.578000 0.000000
-7.550600 0.000000
-7.523100 0.000000
-7.495700 0.000000
-7.468300 0.000000
-7.440900 0.000000
-7.413500 0.000000
-7.386100 0.000000
-7.358700 0.000000
-7.331200 0.000000
-7.303800 0.000000
-7.276400 0.000000
-7.249000 0.000000
-7.221600 0.000000
-7.194200 0.000000
-7.166800 0.000000
-7.139400 0.000000
-7.111900 0.000000
-7.084500 0.000000
-7.057100 0.000000
-7.029700 0.000000
-7.002300 0.000000
-6.974900 0.000000
-6.947500 0.000000
-6.920100 0.000000
-6.892600 0.000000
-6.865200 0.000000
-6.837800 0.000000
-6.810400 0.000000
-6.783000 0.000000
-6.755600 0.000000
-6.728200 0.000000
-6.700800 0.000000
-6.673300 0.000000
-6.645900 0.000000
-6.618500 0.000000
-6.591100 0.000000
-6.563700 0.000000
-6.536300 0.000000
-6.508900 0.000000
-6.481500 0.000000
-6.454000 0.000000
-6.426600 0.000000
-6.399200 0.000000
-6.371800 0.000000
-6.344400 0.000000
-6.317000 0.000000
-6.289600 0.000000
-6.262200 0.000000
-6.234700 0.000000
-6.207300 0.000000
-6.179900 0.000000
-6.152500 0.000000
-6.125100 0.000000
-6.097700 0.000000
-6.070300 0.000000
-6.042900 0.000000
-6.015400 0.000000
-5.988000 0.000000
-5.960600 0.000000
-5.933200 0.000000
-5.905800 0.000000
-5.878400 0.000000
-5.851000 0.000000
-5.823500 0.000000
-5.796100 0.000000
-5.768700 0.000000
-5.741300 0.000000
-5.713900 0.000000
-5.686500 0.000000
-5.659100 0.000000
-5.631700 0.000000
-5.604200 0.000000
-5.576800 0.000000
-5.549400 0.000000
-5.522000 0.000000
-5.494600 0.000000
-5.467200 0.000000
-5.439800 0.000000
-5.412400 0.000000
-5.384900 0.000000
-5.357500 0.000000
-5.330100 0.000000
-5.302700 0.000000
-5.275300 0.000000
-5.247900 0.000000
-5.220500 0.311600
-5.193100 0.741600
-5.165600 1.344200
-5.138200 3.367900
-5.110800 4.063600
-5.083400 5.103000
-5.056000 4.388300
-5.028600 3.968500
-5.001200 3.637900
-4.973800 2.976500
-4.946300 2.552400
-4.918900 2.205000
-4.891500 2.001100
-4.864100 1.904300
-4.836700 1.953100
-4.809300 2.112100
-4.781900 2.299100
-4.754500 2.298900
-4.727000 2.144400
-4.699600 1.992900
-4.672200 1.903300
-4.644800 1.847400
-4.617400 1.805400
-4.590000 1.759000
-4.562600 1.725200
-4.535200 1.726100
-4.507700 1.710900
-4.480300 1.676200
-4.452900 1.659400
-4.425500 1.654000
-4.398100 1.647500
-4.370700 1.632100
-4.343300 1.605200
-4.315800 1.584400
-4.288400 1.576700
-4.261000 1.574400
-4.233600 1.577300
-4.206200 1.584600
-4.178800 1.596600
-4.151400 1.646100
-4.124000 1.741600
-4.096500 2.014100
-4.069100 2.244600
-4.041700 2.579000
-4.014300 2.455500
-3.986900 2.276100
-3.959500 2.325600
-3.932100 2.457900
-3.904700 2.632300
-3.877200 3.550800
-3.849800 3.759200
-3.822400 3.539200
-3.795000 3.191200
-3.767600 2.804000
-3.740200 2.590200
-3.712800 2.403400
-3.685400 2.247400
-3.657900 2.298500
-3.630500 2.032000
-3.603100 2.260400
-3.575700 2.757200
-3.548300 2.823500
-3.520900 2.625700
-3.493500 2.412000
-3.466100 2.380900
-3.438600 2.447400
-3.411200 2.076800
-3.383800 1.716400
-3.356400 1.502600
-3.329000 1.655500
-3.301600 2.092200
-3.274200 2.474400
-3.246800 3.084000
-3.219300 3.682100
-3.191900 4.459200
-3.164500 3.822900
-3.137100 2.633800
-3.109700 2.356400
-3.082300 2.420900
-3.054900 2.542600
-3.027400 3.048400
-3.000000 3.238900
-2.972600 3.438800
-2.945200 3.454200
-2.917800 3.273800
-2.890400 3.129100
-2.863000 2.935700
-2.835600 2.881000
-2.808100 3.072700
-2.780700 3.144600
-2.753300 2.897600
-2.725900 2.789400
-2.698500 2.904600
-2.671100 3.029000
-2.643700 3.103100
-2.616300 2.977700
-2.588800 2.837600
-2.561400 2.860600
-2.534000 2.773900
-2.506600 2.732900
-2.479200 2.843500
-2.451800 3.063800
-2.424400 3.160700
-2.397000 3.107900
-2.369500 3.136000
-2.342100 2.790800
-2.314700 2.922000
-2.287300 3.146200
-2.259900 3.039500
-2.232500 3.041200
-2.205100 3.118700
-2.177700 3.332900
-2.150200 3.259900
-2.122800 3.035700
-2.095400 3.010300
-2.068000 2.944600
-2.040600 2.913700
-2.013200 2.935500
-1.985800 2.947700
-1.958400 3.007900
-1.930900 3.047200
-1.903500 3.254900
-1.876100 3.440400
-1.848700 3.662200
-1.821300 3.875700
-1.793900 3.900700
-1.766500 3.765400
-1.739100 3.638000
-1.711600 3.553000
-1.684200 3.153700
-1.656800 3.088500
-1.629400 2.944100
-1.602000 2.800100
-1.574600 2.757300
-1.547200 2.712400
-1.519700 2.656600
-1.492300 2.509000
-1.464900 2.477200
-1.437500 2.451800
-1.410100 2.441100
-1.382700 2.370000
-1.355300 2.262600
-1.327900 2.322000
-1.300400 2.364500
-1.273000 2.252300
-1.245600 2.239900
-1.218200 2.157800
-1.190800 2.120200
-1.163400 2.052600
-1.136000 1.954100
-1.108600 1.905600
-1.081100 1.850700
-1.053700 1.753000
-1.026300 1.734400
-0.998900 1.719000
-0.971500 1.691800
-0.944100 1.678300
-0.916700 1.646700
-0.889300 1.613600
-0.861800 1.607500
-0.834400 1.628900
-0.807000 1.681100
-0.779600 1.784100
-0.752200 1.944900
-0.724800 2.393000
-0.697400 3.473600
-0.670000 4.929900
-0.642500 3.320700
-0.615100 1.921800
-0.587700 1.554600
-0.560300 1.251800
-0.532900 0.931100
-0.505500 0.488600
-0.478100 0.200800
-0.450700 0.003900
-0.423200 0.004300
-0.395800 0.009300
-0.368400 0.015800
-0.341000 0.044500
-0.313600 0.082800
-0.286200 0.125500
-0.258800 0.172300
-0.231300 0.226300
-0.203900 0.289100
-0.176500 0.349000
-0.149100 0.472500
-0.121700 0.579500
-0.094300 0.693200
-0.066900 0.859400
-0.039500 1.123200
-0.012000 1.447800
0.015400 1.823600
0.042800 2.076100
0.070200 2.118600
0.097600 2.492600
0.125000 2.581600
0.152400 2.687300
0.179800 2.698900
0.207300 2.579500
0.234700 2.632400
0.262100 3.009000
0.289500 3.244800
0.316900 3.237100
0.344300 3.253700
0.371700 3.147900
0.399100 3.155800
0.426600 3.202600
0.454000 3.368000
0.481400 3.554900
0.508800 3.754800
0.536200 3.740900
0.563600 3.735100
0.591000 3.560300
0.618400 3.440200
0.645900 3.370200
0.673300 3.359300
0.700700 3.360300
0.728100 3.367700
0.755500 3.371500
0.782900 3.493500
0.810300 4.003200
0.837700 4.152100
0.865200 4.163500
0.892600 4.316500
0.920000 4.343100
0.947400 4.245000
0.974800 4.348700
1.002200 4.491000
1.029600 4.541900
1.057000 4.769300
1.084500 4.753700
1.111900 4.726600
1.139300 4.724900
1.166700 4.585800
1.194100 4.442400
1.221500 4.338300
1.248900 4.570600
1.276400 4.379000
1.303800 4.297500
1.331200 4.476700
1.358600 5.230800
1.386000 7.104200
1.413400 7.004900
1.440800 6.217100
1.468200 6.660700
1.495700 6.238200
1.523100 3.503000
1.550500 3.831300
1.577900 3.647400
1.605300 3.138400
1.632700 2.901100
1.660100 2.979200
1.687500 3.416600
1.715000 3.981300
1.742400 4.527000
1.769800 4.556800
1.797200 5.134200
1.824600 5.705100
1.852000 3.592900
1.879400 3.104400
1.906800 3.461400
1.934300 4.331000
1.961700 3.131200
1.989100 2.698200
2.016500 2.785800
2.043900 2.916200
2.071300 3.200000
2.098700 3.523700
2.126100 3.499500
2.153600 3.312200
2.181000 2.820300
2.208400 2.666100
2.235800 2.525500
2.263200 2.306000
2.290600 1.984000
2.318000 1.767800
2.345400 1.529500
2.372900 1.386400
2.400300 0.985000
2.427700 0.921500
2.455100 1.073500
2.482500 1.250400
2.509900 1.520200
2.537300 1.720900
2.564800 1.909800
2.592200 2.241700
2.619600 2.768100
2.647000 2.581300
2.674400 2.594300
2.701800 2.976000
2.729200 3.440300
2.756600 3.741200
2.784100 3.978600
2.811500 4.655200
2.838900 5.309400
2.866300 3.794600
2.893700 2.762100
2.921100 2.693000
2.948500 2.829400
2.975900 3.143300
3.003400 3.628300
3.030800 3.681500
3.058200 4.003700
3.085600 4.765400
3.113000 3.733600
3.140400 3.535100
3.167800 3.214900
3.195200 2.951700
3.222700 2.695700
3.250100 2.476500
3.277500 2.246600
3.304900 2.102400
3.332300 1.787600
3.359700 1.813100
3.387100 1.889000
3.414500 1.773900
3.442000 1.463600
3.469400 1.303800
3.496800 1.063300
3.524200 0.784900
3.551600 0.036200
3.579000 0.000000
3.606400 0.000000
3.633800 0.000000
3.661300 0.000000
3.688700 0.000000
3.716100 0.000000
3.743500 0.000000
3.770900 0.000000
3.798300 0.000000
3.825700 0.000000
3.853100 0.000000
3.880600 0.000000
3.908000 0.000000
3.935400 0.000000
3.962800 0.000000
3.990200 0.000000
4.017600 0.000000
4.045000 0.000000
4.072500 0.000000
4.099900 0.000000
4.127300 0.000000
4.154700 0.000000
4.182100 0.000000
4.209500 0.000000
4.236900 0.000000
4.264300 0.000000
4.291800 0.000000
4.319200 0.000000
4.346600 0.000000
4.374000 0.000000
4.401400 0.000000
4.428800 0.000000
4.456200 0.000000
4.483600 0.000000
4.511100 0.000000
4.538500 0.000000
4.565900 0.000000
4.593300 0.000000
4.620700 0.000000
4.648100 0.000000
4.675500 0.000000
4.702900 0.000000
4.730400 0.000000
4.757800 0.413200
4.785200 0.559100
4.812600 0.813700
4.840000 1.066600
4.867400 1.357100
4.894800 2.093000
4.922200 2.324400
4.949700 2.178500
4.977100 2.090600
5.004500 2.142500
5.031900 2.256100
5.059300 2.396400
5.086700 2.386800
5.114100 2.225400
5.141500 2.039600
5.169000 2.829100
5.196400 2.514500
5.223800 2.252900
5.251200 2.405900
5.278600 2.262900
5.306000 1.834000
5.333400 1.808700
5.360900 1.764600
5.388300 1.725100
5.415700 1.750900
5.443100 1.789400
5.470500 1.947600
5.497900 2.196200
5.525300 2.531200
5.552700 2.232100
5.580200 2.072100
5.607600 2.132800
5.635000 2.312600
5.662400 2.267600
5.689800 1.744500
5.717200 1.499700
5.744600 1.110400
5.772000 0.809000
5.799500 0.665800
5.826900 0.262400
5.854300 0.187300
5.881700 0.312600
5.909100 0.408200
5.936500 0.605400
5.963900 0.961600
5.991300 1.274600
6.018800 1.778000
6.046200 1.813600
6.073600 1.722500
6.101000 1.713300
6.128400 1.735200
6.155800 1.695000
6.183200 1.587100
6.210600 1.580800
6.238100 1.488600
6.265500 1.382100
6.292900 1.310500
6.320300 1.270400
6.347700 1.267200
6.375100 1.321700
6.402500 1.268400
6.429900 1.303500
6.457400 1.257000
6.484800 1.124500
6.512200 1.075800
6.539600 1.080200
6.567000 1.159800
6.594400 1.167200
6.621800 1.056100
6.649200 0.843900
6.676700 0.971500
6.704100 0.974800
6.731500 0.997600
6.758900 1.099000
6.786300 1.103100
6.813700 1.190600
6.841100 1.217600
6.868600 1.200800
6.896000 1.178800
6.923400 1.137900
6.950800 1.103000
6.978200 1.083400
7.005600 1.071000
7.033000 1.066300
7.060400 1.075400
7.087900 1.065100
7.115300 1.047900
7.142700 1.031700
7.170100 1.016900
7.197500 1.004800
7.224900 0.996300
7.252300 0.999900
7.279700 1.015400
7.307200 1.034300
7.334600 1.066000
7.362000 1.108900
7.389400 1.073900
7.416800 1.017300
7.444200 0.962200
7.471600 0.931100
7.499000 0.965800
7.526500 1.156500
7.553900 1.287400
7.581300 0.765900
7.608700 0.235000
7.636100 0.000000
7.663500 0.000000
7.690900 0.000000
7.718300 0.000000
7.745800 0.000000
7.773200 0.000000
7.800600 0.000000
7.828000 0.000000
7.855400 0.000000
7.882800 0.000000
7.910200 0.000000
7.937600 0.000000
7.965100 0.000000
7.992500 0.000000
8.019900 0.000000
8.047300 0.000000
8.074700 0.000000
8.102100 0.000000
8.129500 0.000000
8.157000 0.000000
8.184400 0.000000
8.211800 0.000000
8.239200 0.000000
8.266600 0.000000
8.294000 0.000000
8.321400 0.000000
8.348800 0.000000
8.376300 0.000000
8.403700 0.000000
8.431100 0.000000
8.458500 0.000000
8.485900 0.000000
8.513300 0.000000
8.540700 0.000000
8.568100 0.000000
8.595600 0.000000
8.623000 0.000000
8.650400 0.000000
8.677800 0.000000
8.705200 0.000000
8.732600 0.000000
8.760000 0.000000
8.787400 0.000000
8.814900 0.000000
8.842300 0.000000
8.869700 0.000000
8.897100 0.000000
8.924500 0.000000
8.951900 0.000000
8.979300 0.000000
9.006700 0.000000
9.034200 0.000000
9.061600 0.000000
9.089000 0.000000
9.116400 0.000000
9.143800 0.000000
9.171200 0.000000
9.198600 0.000000
9.226000 0.000000
9.253500 0.000000
9.280900 0.000800
9.308300 0.004100
9.335700 0.010000
9.363100 0.018400
