set title 'mp-1226439 - Density of States'
set xlabel 'Energy (eV)'
set ylabel 'DOS (states/eV)'
set grid
set xrange [-10:10]
set yrange [0:16.926]
set xzeroaxis lt -1
set terminal png size 800,600
set output 'mp-1226439_dos_gnuplot.png'
plot '-' using 1:2 with lines title 'DOS'
-5.581600 0.000000
-5.552100 0.000000
-5.522600 0.000000
-5.493200 0.000000
-5.463700 0.000000
-5.434300 0.000000
-5.404800 0.000000
-5.375300 0.000000
-5.345900 0.000000
-5.316400 0.000000
-5.287000 0.000000
-5.257500 0.000000
-5.228000 0.000000
-5.198600 0.000000
-5.169100 0.000000
-5.139700 0.000000
-5.110200 0.000000
-5.080700 0.000000
-5.051300 0.000000
-5.021800 0.000000
-4.992300 0.000000
-4.962900 0.000000
-4.933400 0.000000
-4.904000 0.000000
-4.874500 0.000000
-4.845000 0.000000
-4.815600 0.000000
-4.786100 0.000000
-4.756700 0.000000
-4.727200 0.000000
-4.697700 0.000000
-4.668300 0.000000
-4.638800 0.000000
-4.609400 0.000000
-4.579900 0.000000
-4.550400 0.000000
-4.521000 0.000000
-4.491500 0.000000
-4.462100 0.000000
-4.432600 0.000000
-4.403100 0.000000
-4.373700 0.000000
-4.344200 0.000000
-4.314800 0.000000
-4.285300 0.000000
-4.255800 0.000000
-4.226400 0.000000
-4.196900 0.000000
-4.167500 0.000000
-4.138000 0.000000
-4.108500 0.000000
-4.079100 0.000000
-4.049600 0.000000
-4.020200 0.000000
-3.990700 0.000000
-3.961200 0.000000
-3.931800 0.000000
-3.902300 0.000000
-3.872900 0.000000
-3.843400 0.000000
-3.813900 0.000000
-3.784500 0.000000
-3.755000 0.000000
-3.725600 0.000000
-3.696100 0.000000
-3.666600 0.000000
-3.637200 0.000000
-3.607700 0.000000
-3.578300 0.000000
-3.548800 0.000000
-3.519300 0.000000
-3.489900 0.000000
-3.460400 0.000000
-3.431000 0.000000
-3.401500 0.000000
-3.372000 0.000000
-3.342600 0.000000
-3.313100 0.000000
-3.283700 0.000000
-3.254200 0.000000
-3.224700 0.000000
-3.195300 0.000000
-3.165800 0.000000
-3.136400 0.000000
-3.106900 0.000000
-3.077400 0.000000
-3.048000 0.000000
-3.018500 0.000000
-2.989100 0.000000
-2.959600 0.000000
-2.930100 0.000000
-2.900700 0.000100
-2.871200 0.008700
-2.841800 0.032000
-2.812300 0.063600
-2.782800 0.073000
-2.753400 0.073900
-2.723900 0.084100
-2.694500 0.095400
-2.665000 0.107100
-2.635500 0.119000
-2.606100 0.127700
-2.576600 0.132500
-2.547100 0.136700
-2.517700 0.142600
-2.488200 0.149800
-2.458800 0.157300
-2.429300 0.164800
-2.399800 0.172300
-2.370400 0.180200
-2.340900 0.189400
-2.311500 0.200600
-2.282000 0.210900
-2.252500 0.219800
-2.223100 0.229700
-2.193600 0.239900
-2.164200 0.250200
-2.134700 0.257400
-2.105200 0.259200
-2.075800 0.259900
-2.046300 0.262800
-2.016900 0.265000
-1.987400 0.266800
-1.957900 0.268200
-1.928500 0.269300
-1.899000 0.271400
-1.869600 0.273900
-1.840100 0.276000
-1.810600 0.277600
-1.781200 0.279500
-1.751700 0.281400
-1.722300 0.283200
-1.692800 0.284800
-1.663300 0.286500
-1.633900 0.288900
-1.604400 0.291600
-1.575000 0.294500
-1.545500 0.298800
-1.516000 0.306800
-1.486600 0.318800
-1.457100 0.332400
-1.427700 0.343300
-1.398200 0.354800
-1.368700 0.366600
-1.339300 0.964900
-1.309800 1.244200
-1.280400 1.504600
-1.250900 1.396400
-1.221400 1.313300
-1.192000 1.379200
-1.162500 1.448000
-1.133100 1.527400
-1.103600 1.573400
-1.074100 1.664300
-1.044700 1.701900
-1.015200 1.718600
-0.985800 1.782800
-0.956300 1.870200
-0.926800 2.050500
-0.897400 2.072600
-0.867900 2.016600
-0.838500 1.923500
-0.809000 1.903600
-0.779500 3.521300
-0.750100 3.352300
-0.720600 3.446200
-0.691200 3.600800
-0.661700 3.602100
-0.632200 3.774500
-0.602800 4.311400
-0.573300 4.301100
-0.543900 4.518500
-0.514400 4.748900
-0.484900 4.779000
-0.455500 4.723500
-0.426000 4.661500
-0.396600 4.611200
-0.367100 4.052800
-0.337600 3.750900
-0.308200 3.311600
-0.278700 2.909300
-0.249300 2.758400
-0.219800 2.589000
-0.190300 2.361600
-0.160900 2.305500
-0.131400 2.338900
-0.101900 2.986600
-0.072500 2.804700
-0.043000 2.171100
-0.013600 2.124600
0.015900 1.975100
0.045400 2.098500
0.074800 2.324700
0.104300 2.350600
0.133700 2.584800
0.163200 2.625600
0.192700 2.272800
0.222100 2.154900
0.251600 1.996700
0.281000 1.864800
0.310500 1.781100
0.340000 1.837700
0.369400 2.150500
0.398900 2.083500
0.428300 2.212200
0.457800 2.029800
0.487300 2.026000
0.516700 1.984000
0.546200 2.467600
0.575600 3.021100
0.605100 3.228200
0.634600 3.858500
0.664000 4.148800
0.693500 4.119700
0.722900 4.216100
0.752400 4.170000
0.781900 4.369200
0.811300 4.522600
0.840800 4.723300
0.870200 4.192200
0.899700 2.911900
0.929200 1.899000
0.958600 3.020500
0.988100 5.023500
1.017500 4.552100
1.047000 2.666100
1.076500 2.532300
1.105900 2.503100
1.135400 2.637200
1.164800 2.809200
1.194300 3.036300
1.223800 3.486500
1.253200 4.055300
1.282700 4.353500
1.312100 4.552700
1.341600 4.807700
1.371100 4.742500
1.400500 4.565100
1.430000 4.698100
1.459400 4.341100
1.488900 3.790600
1.518400 3.496800
1.547800 3.360400
1.577300 3.345900
1.606700 3.054400
1.636200 2.933300
1.665700 3.038300
1.695100 3.153900
1.724600 3.260600
1.754000 3.472100
1.783500 4.581800
1.813000 6.152400
1.842400 6.982200
1.871900 8.080900
1.901300 9.456200
1.930800 7.518100
1.960300 6.551300
1.989700 6.189900
2.019200 8.902800
2.048600 6.564500
2.078100 9.881800
2.107600 6.595500
2.137000 6.313800
2.166500 4.991600
2.195900 5.716000
2.225400 6.718800
2.254900 7.078500
2.284300 7.061300
2.313800 7.302400
2.343300 6.880500
2.372700 7.669300
2.402200 6.656200
2.431600 8.532700
2.461100 9.495000
2.490600 5.351400
2.520000 4.240400
2.549500 3.387700
2.578900 2.745700
2.608400 2.526200
2.637900 2.308500
2.667300 2.171700
2.696800 2.232900
2.726200 2.258900
2.755700 2.294700
2.785200 1.965100
2.814600 2.099900
2.844100 2.147300
2.873500 2.330300
2.903000 2.558700
2.932500 3.133300
2.961900 3.765900
2.991400 3.862000
3.020800 3.960800
3.050300 4.269100
3.079800 4.415200
3.109200 4.757800
3.138700 5.006500
3.168100 5.240700
3.197600 5.209300
3.227100 5.157400
3.256500 4.887800
3.286000 4.776900
3.315400 5.094400
3.344900 5.752200
3.374400 6.415400
3.403800 8.690600
3.433300 6.250400
3.462700 5.478800
3.492200 8.653100
3.521700 13.414000
3.551100 14.309100
3.580600 14.918400
3.610000 15.387700
3.639500 9.654400
3.669000 8.398300
3.698400 10.045900
3.727900 10.659000
3.757300 8.454100
3.786800 6.785200
3.816300 5.406800
3.845700 6.561900
3.875200 5.176600
3.904600 4.889100
3.934100 4.754500
3.963600 4.544700
3.993000 4.774000
4.022500 5.499600
4.051900 6.007100
4.081400 5.171600
4.110900 4.902700
4.140300 4.808600
4.169800 4.611700
4.199200 4.381900
4.228700 4.474000
4.258200 3.903700
4.287600 3.631400
4.317100 6.446100
4.346500 6.448700
4.376000 5.297500
4.405500 5.436500
4.434900 5.450100
4.464400 5.748700
4.493800 6.683700
4.523300 7.771600
4.552800 7.666300
4.582200 6.747800
4.611700 6.514100
4.641100 6.442700
4.670600 6.614900
4.700100 7.108800
4.729500 8.693700
4.759000 9.967800
4.788500 9.063300
4.817900 8.101300
4.847400 8.716300
4.876800 10.095000
4.906300 8.812500
4.935800 7.459700
4.965200 8.385900
4.994700 10.159800
5.024100 12.178600
5.053600 9.208300
5.083100 7.517700
5.112500 6.492400
5.142000 5.221500
5.171400 3.320200
5.200900 1.921400
5.230400 1.387200
5.259800 1.272000
5.289300 1.238200
5.318700 1.211400
5.348200 1.187600
5.377700 1.165500
5.407100 1.142200
5.436600 1.116500
5.466000 1.086700
5.495500 1.045000
5.525000 0.993400
5.554400 0.985900
5.583900 0.982800
5.613300 0.980700
5.642800 0.979600
5.672300 0.978500
5.701700 0.977600
5.731200 0.977300
5.760600 0.975400
5.790100 0.970900
5.819600 0.965200
5.849000 0.958900
5.878500 0.952900
5.907900 0.947000
5.937400 0.940600
5.966900 0.933900
5.996300 0.927800
6.025800 0.923000
6.055200 0.918300
6.084700 0.912600
6.114200 0.902900
6.143600 0.889600
6.173100 0.878700
6.202500 0.870100
6.232000 0.867500
6.261500 0.866300
6.290900 0.866100
6.320400 0.866200
6.349800 0.866500
6.379300 0.863700
6.408800 0.870300
6.438200 0.871400
6.467700 0.866500
6.497100 0.866100
6.526600 0.865200
6.556100 0.863700
6.585500 0.862100
6.615000 0.861200
6.644400 0.860800
6.673900 0.858900
6.703400 0.855900
6.732800 0.852100
6.762300 0.846800
6.791700 0.840100
6.821200 0.832600
6.850700 0.828100
6.880100 0.825500
6.909600 0.822400
6.939000 0.818100
6.968500 0.812600
6.998000 0.808400
7.027400 0.804000
7.056900 0.798300
7.086300 0.793600
7.115800 0.788800
7.145300 0.783100
7.174700 0.776800
7.204200 0.772900
7.233700 0.771100
7.263100 0.770800
7.292600 0.771500
7.322000 0.774600
7.351500 0.779800
7.381000 0.787900
7.410400 0.799300
7.439900 0.812800
7.469300 0.825000
7.498800 0.837500
7.528300 0.852300
7.557700 0.885800
7.587200 0.915300
7.616600 0.903000
7.646100 0.892100
7.675600 0.832600
7.705000 0.817500
7.734500 0.803600
7.763900 0.792400
7.793400 0.783500
7.822900 0.776800
7.852300 0.773700
7.881800 0.774700
7.911200 0.779300
7.940700 0.773300
7.970200 0.751700
7.999600 0.728400
8.029100 0.704000
8.058500 0.680700
8.088000 0.666300
8.117500 0.657200
8.146900 0.663700
8.176400 0.667100
8.205800 0.672300
8.235300 0.678900
8.264800 0.688800
8.294200 0.705400
8.323700 0.742800
8.353100 0.768200
8.382600 0.763300
8.412100 0.769300
8.441500 0.775400
8.471000 0.791400
8.500400 0.825600
8.529900 0.796700
8.559400 0.778000
8.588800 0.763400
8.618300 0.751500
8.647700 0.742900
8.677200 0.737300
8.706700 0.731900
8.736100 0.721900
8.765600 0.716200
8.795000 0.715300
8.824500 0.713800
8.854000 0.712500
8.883400 0.711600
8.912900 0.711500
8.942300 0.711800
8.971800 0.705700
9.001300 0.710200
9.030700 0.723900
9.060200 0.749900
9.089600 0.786400
9.119100 0.838700
9.148600 0.783400
9.178000 0.753700
9.207500 0.728300
9.236900 0.732200
9.266400 0.644600
9.295900 0.637400
9.325300 0.634400
9.354800 0.633300
9.384200 0.630700
9.413700 0.626000
9.443200 0.619500
9.472600 0.613700
9.502100 0.608300
9.531500 0.603300
9.561000 0.598800
9.590500 0.594900
9.619900 0.590900
9.649400 0.586500
9.678900 0.582300
9.708300 0.578900
9.737800 0.576300
9.767200 0.573900
9.796700 0.571400
9.826200 0.568800
9.855600 0.566200
9.885100 0.563000
9.914500 0.556500
9.944000 0.551800
9.973500 0.547300
10.002900 0.543000
10.032400 0.538900
10.061800 0.535000
10.091300 0.531300
10.120800 0.527800
10.150200 0.524500
10.179700 0.523000
10.209100 0.513900
10.238600 0.511600
10.268100 0.494900
10.297500 0.476600
10.327000 0.481900
10.356400 0.423200
10.385900 0.422200
10.415400 0.420800
10.444800 0.419900
10.474300 0.462700
10.503700 0.447300
10.533200 0.455800
10.562700 0.465600
10.592100 0.485300
10.621600 0.524500
10.651000 0.553800
10.680500 0.574000
10.710000 0.494400
10.739400 0.494200
10.768900 0.492900
10.798300 0.490100
10.827800 0.484200
10.857300 0.475400
10.886700 0.464600
10.916200 0.454000
10.945600 0.443500
10.975100 0.433100
11.004600 0.422800
11.034000 0.413600
11.063500 0.405400
11.092900 0.397300
11.122400 0.389400
11.151900 0.382000
11.181300 0.373200
11.210800 0.361600
11.240200 0.347700
11.269700 0.332600
11.299200 0.317300
11.328600 0.302200
11.358100 0.287200
11.387500 0.272300
11.417000 0.260300
11.446500 0.285200
11.475900 0.344600
11.505400 0.430600
11.534800 0.525500
11.564300 0.638500
11.593800 0.721900
11.623200 0.749600
11.652700 0.752400
11.682100 0.763600
11.711600 0.755200
11.741100 0.761800
11.770500 0.778000
11.800000 0.790400
11.829400 0.815500
11.858900 0.821200
11.888400 1.019900
11.917800 0.977700
11.947300 1.020900
11.976700 1.037400
12.006200 1.059400
12.035700 1.086600
12.065100 1.109300
12.094600 1.110900
12.124100 1.110300
12.153500 1.111700
12.183000 1.111400
12.212400 1.095600
12.241900 1.068800
12.271400 1.038500
12.300800 1.002500
12.330300 0.971100
12.359700 0.946800
12.389200 0.929100
12.418700 0.918100
12.448100 0.905500
12.477600 0.907500
12.507000 0.912600
12.536500 0.913400
12.566000 0.899400
12.595400 0.965500
12.624900 0.973400
12.654300 0.989000
12.683800 0.949000
12.713300 0.917600
12.742700 0.910900
12.772200 0.896900
12.801600 0.885500
12.831100 0.878100
12.860600 0.862500
12.890000 0.974800
12.919500 0.798800
12.948900 0.789800
12.978400 0.782400
13.007900 0.775900
13.037300 0.773300
13.066800 0.768600
13.096200 0.764700
13.125700 0.760700
13.155200 0.760900
13.184600 0.765200
13.214100 0.771500
13.243500 0.777000
13.273000 0.781500
13.302500 0.786100
13.331900 0.787600
13.361400 0.786000
13.390800 0.784700
13.420300 0.783500
13.449800 0.779500
13.479200 0.778500
13.508700 0.779700
13.538100 0.780300
13.567600 0.779500
13.597100 0.777400
13.626500 0.775600
13.656000 0.775900
13.685400 0.778100
13.714900 0.782200
13.744400 0.784000
13.773800 0.789800
13.803300 0.796700
13.832700 0.802900
13.862200 0.808100
13.891700 0.812600
13.921100 0.816600
13.950600 0.808700
13.980000 0.806700
14.009500 0.807500
14.039000 0.806400
14.068400 0.804700
14.097900 0.802400
14.127300 0.799200
14.156800 0.794500
14.186300 0.792800
14.215700 0.790300
14.245200 0.782400
14.274600 0.777500
14.304100 0.776400
14.333600 0.775300
14.363000 0.774800
14.392500 0.775000
14.421900 0.776000
14.451400 0.774900
14.480900 0.772800
14.510300 0.771300
14.539800 0.770700
14.569200 0.772000
14.598700 0.775100
14.628200 0.776200
14.657600 0.773200
14.687100 0.773500
14.716600 0.775500
14.746000 0.777600
14.775500 0.780700
14.804900 0.785100
14.834400 0.791400
14.863900 0.799600
14.893300 0.809500
14.922800 0.819300
14.952200 0.827200
14.981700 0.833500
15.011200 0.840100
15.040600 0.848100
15.070100 0.856100
15.099500 0.862200
15.129000 0.864100
15.158500 0.865400
15.187900 0.883300
15.217400 0.919200
15.246800 0.957700
15.276300 0.977700
15.305800 0.955300
15.335200 0.964200
15.364700 0.987900
15.394100 1.023800
15.423600 1.055200
15.453100 1.085900
15.482500 1.124600
15.512000 1.190100
15.541400 1.235200
15.570900 1.212600
15.600400 1.210700
15.629800 1.210500
15.659300 1.212400
15.688700 1.216100
15.718200 1.223100
15.747700 1.240900
15.777100 1.357800
15.806600 1.235500
15.836000 1.245000
15.865500 1.250700
15.895000 1.256400
15.924400 1.257800
15.953900 1.258000
15.983300 1.257600
16.012800 1.245500
16.042300 1.223700
16.071700 1.203000
16.101200 1.188500
16.130600 1.173600
16.160100 1.163400
16.189600 1.154800
16.219000 1.146000
16.248500 1.127600
16.277900 1.123100
16.307400 1.126100
16.336900 1.133700
16.366300 1.143500
16.395800 1.156500
16.425200 1.178800
16.454700 1.200900
16.484200 1.222000
16.513600 1.221100
16.543100 1.224500
16.572500 1.225900
16.602000 1.227100
16.631500 1.229100
16.660900 1.239000
16.690400 1.213800
16.719800 1.193500
16.749300 1.178200
16.778800 1.166000
16.808200 1.158500
16.837700 1.152800
16.867100 1.148200
16.896600 1.148800
16.926100 1.153700
16.955500 1.158500
16.985000 1.163100
17.014400 1.169800
17.043900 1.179800
17.073400 1.192300
17.102800 1.206100
17.132300 1.219600
17.161800 1.238500
17.191200 1.259100
17.220700 1.277000
17.250100 1.297500
17.279600 1.317500
17.309100 1.336300
17.338500 1.353900
17.368000 1.372400
17.397400 1.393900
17.426900 1.402800
17.456400 1.403300
17.485800 1.388900
17.515300 1.373100
17.544700 1.359100
17.574200 1.342700
17.603700 1.321400
17.633100 1.308300
17.662600 1.284200
17.692000 1.261900
17.721500 1.240900
17.751000 1.220300
17.780400 1.198200
17.809900 1.184300
17.839300 1.172300
17.868800 1.166200
17.898300 1.167200
17.927700 1.171000
17.957200 1.180200
17.986600 1.177600
18.016100 1.166800
18.045600 1.170500
18.075000 1.176900
18.104500 1.188600
18.133900 1.206700
18.163400 1.228200
18.192900 1.250400
18.222300 1.270600
18.251800 1.287900
18.281200 1.304800
18.310700 1.307200
18.340200 1.324200
18.369600 1.321000
18.399100 1.326100
18.428500 1.332900
18.458000 1.339000
18.487500 1.357800
18.516900 1.389400
18.546400 1.419200
18.575800 1.441000
18.605300 1.454000
18.634800 1.462800
18.664200 1.465900
18.693700 1.467800
18.723100 1.468300
18.752600 1.471200
18.782100 1.475500
18.811500 1.478100
18.841000 1.478000
18.870400 1.474600
18.899900 1.472100
18.929400 1.472600
18.958800 1.470600
18.988300 1.484200
19.017700 1.499500
19.047200 1.505500
19.076700 1.505300
19.106100 1.497000
19.135600 1.485700
19.165000 1.472400
19.194500 1.466300
19.224000 1.461800
19.253400 1.462600
19.282900 1.456700
19.312300 1.457100
19.341800 1.455000
19.371300 1.441500
19.400700 1.404400
19.430200 1.381000
19.459600 1.359600
19.489100 1.347200
19.518600 1.340200
19.548000 1.348100
19.577500 1.353200
19.607000 1.352500
19.636400 1.350500
19.665900 1.349400
19.695300 1.348000
19.724800 1.350500
19.754300 1.369200
19.783700 1.382300
19.813200 1.383300
19.842600 1.383700
19.872100 1.390700
19.901600 1.404600
19.931000 1.440000
19.960500 1.408600
19.989900 1.404900
20.019400 1.409800
20.048900 1.420700
20.078300 1.457500
20.107800 1.489100
20.137200 1.489900
20.166700 1.480900
20.196200 1.470500
20.225600 1.459400
20.255100 1.444800
20.284500 1.427400
20.314000 1.410600
20.343500 1.401000
20.372900 1.395000
20.402400 1.387100
20.431800 1.381800
20.461300 1.379200
20.490800 1.379000
20.520200 1.380700
20.549700 1.381600
20.579100 1.375700
20.608600 1.371600
20.638100 1.371200
20.667500 1.375000
20.697000 1.371300
20.726400 1.366000
20.755900 1.356800
20.785400 1.341300
20.814800 1.333100
20.844300 1.327800
20.873700 1.322700
20.903200 1.317000
20.932700 1.312600
20.962100 1.311200
20.991600 1.313900
21.021000 1.318400
21.050500 1.335400
21.080000 1.315900
21.109400 1.318500
21.138900 1.323000
21.168300 1.332000
21.197800 1.341300
21.227300 1.341200
21.256700 1.337300
21.286200 1.326300
21.315600 1.311800
21.345100 1.296900
21.374600 1.290000
21.404000 1.286200
21.433500 1.285700
21.462900 1.286900
21.492400 1.288500
21.521900 1.291100
21.551300 1.294600
21.580800 1.299200
21.610200 1.304800
21.639700 1.310100
21.669200 1.313800
21.698600 1.312200
21.728100 1.316600
21.757500 1.306800
21.787000 1.295400
21.816500 1.284300
21.845900 1.274900
21.875400 1.269300
21.904800 1.263300
21.934300 1.258600
21.963800 1.255400
21.993200 1.254600
22.022700 1.254900
22.052200 1.255900
22.081600 1.258000
22.111100 1.260100
22.140500 1.262000
22.170000 1.264500
22.199500 1.268800
22.228900 1.273900
22.258400 1.290600
22.287800 1.296000
22.317300 1.293800
22.346800 1.290300
22.376200 1.288500
22.405700 1.287400
22.435100 1.287200
22.464600 1.288600
22.494100 1.293900
22.523500 1.295700
22.553000 1.296300
22.582400 1.296100
22.611900 1.291300
22.641400 1.278800
22.670800 1.262100
22.700300 1.246700
22.729700 1.232900
22.759200 1.220400
22.788700 1.209300
22.818100 1.199100
22.847600 1.189200
22.877000 1.178500
22.906500 1.167900
22.936000 1.158500
22.965400 1.150500
22.994900 1.144200
23.024300 1.140200
23.053800 1.140200
23.083300 1.138400
23.112700 1.137600
23.142200 1.133600
23.171600 1.125600
23.201100 1.113900
23.230600 1.104700
23.260000 1.099700
23.289500 1.095600
23.318900 1.092200
23.348400 1.089800
23.377900 1.088700
23.407300 1.087000
23.436800 1.075700
23.466200 1.078200
23.495700 1.081300
23.525200 1.075700
23.554600 1.077700
23.584100 1.079700
23.613500 1.087400
23.643000 1.103600
23.672500 1.120300
23.701900 1.137000
23.731400 1.210100
23.760800 1.239200
23.790300 1.196200
23.819800 1.196500
23.849200 1.195800
23.878700 1.225200
23.908100 1.271500
23.937600 1.291100
23.967100 1.294000
23.996500 1.351800
24.026000 1.357000
24.055400 1.341400
24.084900 1.316600
24.114400 1.292900
24.143800 1.274500
24.173300 1.239100
24.202700 1.205600
24.232200 1.184300
24.261700 1.191700
24.291100 1.217700
24.320600 1.235800
24.350000 1.258000
24.379500 1.295300
24.409000 1.328500
24.438400 1.365700
24.467900 1.379100
24.497400 1.392800
24.526800 1.403900
24.556300 1.392700
24.585700 1.389900
24.615200 1.388900
24.644700 1.389600
24.674100 1.392400
24.703600 1.397600
24.733000 1.423000
24.762500 1.447300
24.792000 1.456800
24.821400 1.459100
24.850900 1.477300
24.880300 1.504300
24.909800 1.530200
24.939300 1.568500
24.968700 1.610300
24.998200 1.648100
25.027600 1.690100
25.057100 1.741400
25.086600 1.797000
25.116000 1.860500
25.145500 1.936200
25.174900 2.014900
25.204400 2.089200
25.233900 2.182000
25.263300 2.284700
25.292800 2.410800
25.322200 2.569600
25.351700 2.773000
25.381200 3.046800
25.410600 3.458000
25.440100 3.980300
25.469500 4.362300
