set title 'mp-1018890 - Density of States'
set xlabel 'Energy (eV)'
set ylabel 'DOS (states/eV)'
set grid
set xrange [-10:10]
set yrange [0:15.579]
set xzeroaxis lt -1
set terminal png size 800,600
set output 'mp-1018890_dos_gnuplot.png'
plot '-' using 1:2 with lines title 'DOS'
-37.681500 0.000000
-37.630800 0.000000
-37.580200 0.000000
-37.529600 0.000000
-37.478900 0.000000
-37.428300 0.000000
-37.377700 0.000000
-37.327000 0.000000
-37.276400 0.000000
-37.225800 0.000000
-37.175100 0.000000
-37.124500 0.000000
-37.073900 0.000000
-37.023300 0.000000
-36.972600 0.000000
-36.922000 0.000000
-36.871400 0.000000
-36.820700 0.000000
-36.770100 0.000000
-36.719500 0.000000
-36.668800 0.000000
-36.618200 0.000000
-36.567600 0.000000
-36.516900 0.000000
-36.466300 0.000000
-36.415700 0.000000
-36.365100 0.000000
-36.314400 0.000000
-36.263800 0.000000
-36.213200 0.000000
-36.162500 0.000000
-36.111900 0.000000
-36.061300 0.000000
-36.010600 0.000000
-35.960000 0.000000
-35.909400 0.000000
-35.858700 0.000000
-35.808100 0.000000
-35.757500 0.000000
-35.706800 0.000000
-35.656200 0.000000
-35.605600 0.000000
-35.555000 0.000000
-35.504300 0.000000
-35.453700 0.000000
-35.403100 0.000000
-35.352400 0.000000
-35.301800 0.000000
-35.251200 0.000000
-35.200500 0.000000
-35.149900 0.000000
-35.099300 0.000000
-35.048600 0.000000
-34.998000 0.000000
-34.947400 0.000000
-34.896800 0.000000
-34.846100 0.000000
-34.795500 0.000000
-34.744900 0.000000
-34.694200 0.000000
-34.643600 0.000000
-34.593000 0.000000
-34.542300 0.000000
-34.491700 0.000000
-34.441100 0.000000
-34.390400 0.000000
-34.339800 0.000000
-34.289200 0.000000
-34.238500 0.000000
-34.187900 0.000000
-34.137300 0.000000
-34.086700 0.000000
-34.036000 0.000000
-33.985400 0.000000
-33.934800 0.000000
-33.884100 0.000000
-33.833500 0.000000
-33.782900 0.000000
-33.732200 0.000000
-33.681600 0.000000
-33.631000 0.000000
-33.580300 0.000000
-33.529700 0.000000
-33.479100 0.000000
-33.428500 0.000000
-33.377800 0.000000
-33.327200 0.000000
-33.276600 0.000000
-33.225900 0.000000
-33.175300 0.000000
-33.124700 0.000000
-33.074000 15.236200
-33.023400 29.250500
-32.972800 0.000000
-32.922100 0.000000
-32.871500 0.000000
-32.820900 0.000000
-32.770300 0.000000
-32.719600 0.000000
-32.669000 0.000000
-32.618400 0.000000
-32.567700 0.000000
-32.517100 0.000000
-32.466500 0.000000
-32.415800 0.000000
-32.365200 0.000000
-32.314600 0.000000
-32.263900 0.000000
-32.213300 0.000000
-32.162700 0.000000
-32.112000 0.000000
-32.061400 0.000000
-32.010800 0.000000
-31.960200 0.000000
-31.909500 0.000000
-31.858900 0.000000
-31.808300 0.000000
-31.757600 0.000000
-31.707000 0.000000
-31.656400 0.000000
-31.605700 0.000000
-31.555100 0.000000
-31.504500 0.000000
-31.453800 0.000000
-31.403200 0.000000
-31.352600 0.000000
-31.302000 0.000000
-31.251300 0.000000
-31.200700 0.000000
-31.150100 0.000000
-31.099400 0.000000
-31.048800 0.000000
-30.998200 0.000000
-30.947500 0.000000
-30.896900 0.000000
-30.846300 0.000000
-30.795600 0.000000
-30.745000 0.000000
-30.694400 0.000000
-30.643700 0.000000
-30.593100 0.000000
-30.542500 0.000000
-30.491900 0.000000
-30.441200 0.000000
-30.390600 0.000000
-30.340000 0.000000
-30.289300 0.000000
-30.238700 0.000000
-30.188100 0.000000
-30.137400 0.000000
-30.086800 0.000000
-30.036200 0.000000
-29.985500 0.000000
-29.934900 0.000000
-29.884300 0.000000
-29.833700 0.000000
-29.783000 0.000000
-29.732400 0.000000
-29.681800 0.000000
-29.631100 0.000000
-29.580500 0.000000
-29.529900 0.000000
-29.479200 0.000000
-29.428600 0.000000
-29.378000 0.000000
-29.327300 0.000000
-29.276700 0.000000
-29.226100 0.000000
-29.175500 0.000000
-29.124800 0.000000
-29.074200 0.000000
-29.023600 0.000000
-28.972900 0.000000
-28.922300 0.000000
-28.871700 0.000000
-28.821000 0.000000
-28.770400 0.000000
-28.719800 0.000000
-28.669100 0.000000
-28.618500 0.000000
-28.567900 0.000000
-28.517200 0.000000
-28.466600 0.000000
-28.416000 0.000000
-28.365400 0.000000
-28.314700 0.000000
-28.264100 0.000000
-28.213500 0.000000
-28.162800 0.000000
-28.112200 0.000000
-28.061600 0.000000
-28.010900 0.000000
-27.960300 0.000000
-27.909700 0.000000
-27.859000 0.000000
-27.808400 0.000000
-27.757800 0.000000
-27.707200 0.000000
-27.656500 0.000000
-27.605900 0.000000
-27.555300 0.000000
-27.504600 0.000000
-27.454000 0.000000
-27.403400 0.000000
-27.352700 0.000000
-27.302100 0.000000
-27.251500 0.000000
-27.200800 0.000000
-27.150200 0.000000
-27.099600 0.000000
-27.048900 0.000000
-26.998300 0.000000
-26.947700 0.000000
-26.897100 0.000000
-26.846400 0.000000
-26.795800 0.000000
-26.745200 0.000000
-26.694500 0.000000
-26.643900 0.000000
-26.593300 0.000000
-26.542600 0.000000
-26.492000 0.000000
-26.441400 0.000000
-26.390700 0.000000
-26.340100 0.000000
-26.289500 0.000000
-26.238900 0.000000
-26.188200 0.000000
-26.137600 0.000000
-26.087000 0.000000
-26.036300 0.000000
-25.985700 0.000000
-25.935100 0.000000
-25.884400 0.000000
-25.833800 0.000000
-25.783200 0.000000
-25.732500 0.000000
-25.681900 0.000000
-25.631300 0.000000
-25.580600 0.000000
-25.530000 0.000000
-25.479400 0.000000
-25.428800 0.000000
-25.378100 0.000000
-25.327500 0.000000
-25.276900 0.000000
-25.226200 0.000000
-25.175600 0.000000
-25.125000 0.000000
-25.074300 0.000000
-25.023700 0.000000
-24.973100 0.000000
-24.922400 0.000000
-24.871800 0.000000
-24.821200 0.000000
-24.770600 0.000000
-24.719900 0.000000
-24.669300 0.000000
-24.618700 0.000000
-24.568000 0.000000
-24.517400 0.000000
-24.466800 0.000000
-24.416100 0.000000
-24.365500 0.000000
-24.314900 0.000000
-24.264200 0.000000
-24.213600 0.000000
-24.163000 0.000000
-24.112400 0.000000
-24.061700 0.000000
-24.011100 0.000000
-23.960500 0.000000
-23.909800 0.000000
-23.859200 0.000000
-23.808600 0.000000
-23.757900 0.000000
-23.707300 0.000000
-23.656700 0.000000
-23.606000 0.000000
-23.555400 0.000000
-23.504800 0.000000
-23.454100 0.000000
-23.403500 0.000000
-23.352900 0.000000
-23.302300 0.000000
-23.251600 0.000000
-23.201000 0.000000
-23.150400 0.000000
-23.099700 0.000000
-23.049100 0.000000
-22.998500 0.000000
-22.947800 0.000000
-22.897200 0.000000
-22.846600 0.000000
-22.795900 0.000000
-22.745300 0.000000
-22.694700 0.000000
-22.644100 0.000000
-22.593400 0.000000
-22.542800 0.000000
-22.492200 0.000000
-22.441500 0.000000
-22.390900 0.000000
-22.340300 0.000000
-22.289600 0.000000
-22.239000 0.000000
-22.188400 0.000000
-22.137700 0.000000
-22.087100 0.000000
-22.036500 0.000000
-21.985800 0.000000
-21.935200 0.000000
-21.884600 0.000000
-21.834000 0.000000
-21.783300 0.000000
-21.732700 0.000000
-21.682100 0.000000
-21.631400 0.000000
-21.580800 0.000000
-21.530200 0.000000
-21.479500 0.000000
-21.428900 0.000000
-21.378300 0.000000
-21.327600 0.000000
-21.277000 0.000000
-21.226400 0.000000
-21.175800 0.000000
-21.125100 0.000000
-21.074500 0.000000
-21.023900 0.000000
-20.973200 0.000000
-20.922600 0.000000
-20.872000 0.000000
-20.821300 0.000000
-20.770700 0.000000
-20.720100 0.000000
-20.669400 0.000000
-20.618800 0.000000
-20.568200 0.000000
-20.517600 0.000000
-20.466900 0.000000
-20.416300 0.000000
-20.365700 0.000000
-20.315000 0.000000
-20.264400 0.000000
-20.213800 0.000000
-20.163100 0.000000
-20.112500 0.000000
-20.061900 0.000000
-20.011200 0.000000
-19.960600 0.000000
-19.910000 0.000000
-19.859300 0.000000
-19.808700 0.000000
-19.758100 0.000000
-19.707500 0.000000
-19.656800 0.000000
-19.606200 0.000000
-19.555600 0.000000
-19.504900 0.000000
-19.454300 0.000000
-19.403700 0.000000
-19.353000 0.000000
-19.302400 0.000000
-19.251800 0.000000
-19.201100 0.000000
-19.150500 0.000000
-19.099900 0.000000
-19.049300 0.000000
-18.998600 0.000000
-18.948000 0.000000
-18.897400 0.000000
-18.846700 0.000000
-18.796100 0.000000
-18.745500 0.000000
-18.694800 0.000000
-18.644200 0.000000
-18.593600 0.000000
-18.542900 0.000000
-18.492300 0.000000
-18.441700 0.000000
-18.391000 0.000000
-18.340400 0.000000
-18.289800 0.000000
-18.239200 0.000000
-18.188500 0.000000
-18.137900 0.000000
-18.087300 0.000000
-18.036600 0.000000
-17.986000 0.000000
-17.935400 0.000000
-17.884700 0.000000
-17.834100 0.000000
-17.783500 0.000000
-17.732800 0.000000
-17.682200 0.000000
-17.631600 0.000000
-17.581000 0.000000
-17.530300 0.000000
-17.479700 0.000000
-17.429100 0.000000
-17.378400 0.000000
-17.327800 0.000000
-17.277200 0.000000
-17.226500 0.000000
-17.175900 0.000000
-17.125300 0.000000
-17.074600 0.000000
-17.024000 0.000000
-16.973400 0.000000
-16.922800 0.000000
-16.872100 0.000000
-16.821500 0.000000
-16.770900 0.000000
-16.720200 0.000000
-16.669600 0.000000
-16.619000 0.000000
-16.568300 0.000000
-16.517700 0.000000
-16.467100 0.000000
-16.416400 0.000000
-16.365800 0.000000
-16.315200 0.000000
-16.264500 0.000000
-16.213900 0.000000
-16.163300 0.000000
-16.112700 0.000000
-16.062000 0.000000
-16.011400 0.000000
-15.960800 0.000000
-15.910100 0.000000
-15.859500 0.000000
-15.808900 0.000000
-15.758200 0.000000
-15.707600 0.000000
-15.657000 0.000000
-15.606300 0.000000
-15.555700 0.000000
-15.505100 0.000000
-15.454500 0.000000
-15.403800 0.000000
-15.353200 0.000000
-15.302600 0.000000
-15.251900 0.000000
-15.201300 0.000000
-15.150700 0.000000
-15.100000 0.000000
-15.049400 0.000000
-14.998800 0.000000
-14.948100 0.000000
-14.897500 0.000000
-14.846900 0.000000
-14.796200 0.000000
-14.745600 0.000000
-14.695000 0.000000
-14.644400 0.000000
-14.593700 0.000000
-14.543100 0.000000
-14.492500 0.000000
-14.441800 0.000000
-14.391200 0.000000
-14.340600 0.000000
-14.289900 0.000000
-14.239300 0.000000
-14.188700 0.000000
-14.138000 0.000000
-14.087400 0.000000
-14.036800 0.000000
-13.986200 0.000000
-13.935500 0.000000
-13.884900 0.000000
-13.834300 0.000000
-13.783600 0.000000
-13.733000 0.000000
-13.682400 0.000000
-13.631700 0.000000
-13.581100 0.000000
-13.530500 0.000000
-13.479800 0.000000
-13.429200 0.000000
-13.378600 0.000000
-13.327900 0.000000
-13.277300 0.000000
-13.226700 0.000000
-13.176100 0.000000
-13.125400 0.000000
-13.074800 0.000000
-13.024200 0.000000
-12.973500 0.000000
-12.922900 0.000000
-12.872300 0.000000
-12.821600 0.000000
-12.771000 0.000000
-12.720400 0.000000
-12.669700 0.000000
-12.619100 0.000000
-12.568500 0.000000
-12.517900 0.000000
-12.467200 0.000000
-12.416600 0.000000
-12.366000 0.000000
-12.315300 0.000000
-12.264700 0.000000
-12.214100 0.000000
-12.163400 0.000000
-12.112800 0.000000
-12.062200 0.000000
-12.011500 0.000000
-11.960900 0.000000
-11.910300 0.000000
-11.859700 0.000000
-11.809000 0.000000
-11.758400 0.000000
-11.707800 0.000000
-11.657100 0.000000
-11.606500 0.000000
-11.555900 0.000000
-11.505200 0.000000
-11.454600 0.000000
-11.404000 0.000000
-11.353300 0.000000
-11.302700 0.000000
-11.252100 0.000000
-11.201400 0.000000
-11.150800 0.000000
-11.100200 0.000000
-11.049600 0.000000
-10.998900 0.000000
-10.948300 0.000000
-10.897700 0.000000
-10.847000 0.000000
-10.796400 0.000000
-10.745800 0.000000
-10.695100 0.000000
-10.644500 0.000000
-10.593900 1.313900
-10.543200 2.078000
-10.492600 2.344000
-10.442000 2.363900
-10.391400 2.496400
-10.340700 2.737500
-10.290100 3.192500
-10.239500 4.626600
-10.188800 3.674900
-10.138200 3.117700
-10.087600 3.933800
-10.036900 4.139300
-9.986300 5.654500
-9.935700 6.541000
-9.885000 9.072600
-9.834400 10.402100
-9.783800 6.353000
-9.733100 7.391300
-9.682500 5.707700
-9.631900 2.299600
-9.581300 2.318400
-9.530600 2.557300
-9.480000 2.739400
-9.429400 3.674300
-9.378700 4.519200
-9.328100 4.489500
-9.277500 3.482200
-9.226800 2.981500
-9.176200 0.000000
-9.125600 0.000000
-9.074900 0.000000
-9.024300 0.000000
-8.973700 0.000000
-8.923100 0.000000
-8.872400 0.000000
-8.821800 0.000000
-8.771200 0.000000
-8.720500 0.000000
-8.669900 0.000000
-8.619300 0.000000
-8.568600 0.000000
-8.518000 0.000000
-8.467400 0.000000
-8.416700 0.000000
-8.366100 0.000000
-8.315500 0.000000
-8.264900 0.000000
-8.214200 0.000000
-8.163600 0.000000
-8.113000 0.000000
-8.062300 0.000000
-8.011700 0.000000
-7.961100 0.000000
-7.910400 0.000000
-7.859800 0.000000
-7.809200 0.000000
-7.758500 0.000000
-7.707900 0.000000
-7.657300 0.000000
-7.606600 0.000000
-7.556000 0.000000
-7.505400 0.000000
-7.454800 0.000000
-7.404100 0.000000
-7.353500 0.000000
-7.302900 0.000000
-7.252200 0.000000
-7.201600 0.000000
-7.151000 0.000000
-7.100300 0.000000
-7.049700 0.000000
-6.999100 0.000000
-6.948400 0.000000
-6.897800 0.000000
-6.847200 0.000000
-6.796600 0.000000
-6.745900 0.000000
-6.695300 0.000000
-6.644700 0.000000
-6.594000 0.000000
-6.543400 0.000000
-6.492800 0.000000
-6.442100 0.000000
-6.391500 0.000000
-6.340900 0.000000
-6.290200 0.000000
-6.239600 0.000000
-6.189000 0.000000
-6.138300 0.000000
-6.087700 0.000000
-6.037100 0.000000
-5.986500 0.000000
-5.935800 0.000000
-5.885200 0.000000
-5.834600 0.000000
-5.783900 0.000000
-5.733300 0.000000
-5.682700 0.000000
-5.632000 0.000000
-5.581400 0.000000
-5.530800 0.000000
-5.480100 0.000000
-5.429500 0.000000
-5.378900 0.000000
-5.328300 0.000000
-5.277600 0.000000
-5.227000 0.000000
-5.176400 0.000000
-5.125700 0.000000
-5.075100 0.000000
-5.024500 0.000000
-4.973800 0.000000
-4.923200 0.000000
-4.872600 0.000000
-4.821900 0.000000
-4.771300 0.000000
-4.720700 0.000000
-4.670000 0.000000
-4.619400 0.000000
-4.568800 0.000000
-4.518200 0.000000
-4.467500 0.000000
-4.416900 0.000000
-4.366300 0.000000
-4.315600 0.000000
-4.265000 0.000000
-4.214400 0.000000
-4.163700 0.012700
-4.113100 0.051700
-4.062500 0.093200
-4.011800 0.108800
-3.961200 0.120200
-3.910600 0.142600
-3.860000 0.166800
-3.809300 0.188500
-3.758700 0.204500
-3.708100 0.221300
-3.657400 0.243100
-3.606800 0.264300
-3.556200 0.285800
-3.505500 0.308700
-3.454900 0.443300
-3.404300 0.516700
-3.353600 0.605600
-3.303000 0.675400
-3.252400 0.753500
-3.201800 0.860300
-3.151100 0.976700
-3.100500 1.112600
-3.049900 1.376500
-2.999200 1.613900
-2.948600 1.645000
-2.898000 1.651000
-2.847300 1.679500
-2.796700 1.678000
-2.746100 1.712200
-2.695400 1.783800
-2.644800 1.877200
-2.594200 1.947000
-2.543500 2.027000
-2.492900 2.381300
-2.442300 2.311800
-2.391700 2.329300
-2.341000 1.785600
-2.290400 1.265500
-2.239800 0.838400
-2.189100 0.433600
-2.138500 0.324400
-2.087900 0.247300
-2.037200 0.180000
-1.986600 0.096000
-1.936000 0.082500
-1.885300 0.090900
-1.834700 0.126300
-1.784100 0.169600
-1.733500 0.193900
-1.682800 0.220000
-1.632200 0.247400
-1.581600 0.274200
-1.530900 0.307800
-1.480300 0.344500
-1.429700 0.385300
-1.379000 0.434200
-1.328400 0.492400
-1.277800 0.537700
-1.227100 0.602900
-1.176500 0.647500
-1.125900 0.669300
-1.075200 0.671900
-1.024600 0.657400
-0.974000 0.651300
-0.923400 0.662400
-0.872700 0.673900
-0.822100 0.686300
-0.771500 0.698300
-0.720800 0.707800
-0.670200 0.718200
-0.619600 0.730300
-0.568900 0.741400
-0.518300 0.734500
-0.467700 0.737400
-0.417000 0.735200
-0.366400 0.721100
-0.315800 0.666900
-0.265200 0.631200
-0.214500 0.620800
-0.163900 0.609400
-0.113300 0.598100
-0.062600 0.588000
-0.012000 0.577900
0.038600 0.575600
0.089300 0.574200
0.139900 0.572600
0.190500 0.570200
0.241200 0.566100
0.291800 0.542300
0.342400 0.532000
0.393000 0.525300
0.443700 0.520800
0.494300 0.520900
0.544900 0.520900
0.595600 0.521000
0.646200 0.521100
0.696800 0.521200
0.747500 0.521200
0.798100 0.521300
0.848700 0.521400
0.899400 0.521500
0.950000 0.577000
1.000600 0.652700
1.051300 0.726900
1.101900 0.759000
1.152500 0.764200
1.203100 0.759600
1.253800 0.702500
1.304400 0.645500
1.355000 0.590000
1.405700 0.537000
1.456300 0.481700
1.506900 0.424800
1.557600 0.359500
1.608200 0.274300
1.658800 0.202000
1.709500 0.153500
1.760100 0.116200
1.810700 0.085500
1.861300 0.060200
1.912000 0.038500
1.962600 0.022100
2.013200 0.013500
2.063900 0.006700
2.114500 0.000000
2.165100 0.001300
2.215800 0.008300
2.266400 0.015100
2.317000 0.022400
2.367700 0.030800
2.418300 0.039600
2.468900 0.049100
2.519600 0.059300
2.570200 0.070400
2.620800 0.083000
2.671400 0.098000
2.722100 0.141800
2.772700 0.259500
2.823300 0.348700
2.874000 0.398900
2.924600 0.449000
2.975200 0.524400
3.025900 0.674200
3.076500 0.802100
3.127100 0.767200
3.177800 0.731500
3.228400 0.730400
3.279000 0.728100
3.329600 0.740100
3.380300 0.751300
3.430900 0.756200
3.481500 0.790500
3.532200 0.823700
3.582800 0.866800
3.633400 0.871900
3.684100 0.852000
3.734700 0.819700
3.785300 0.809900
3.836000 0.832500
3.886600 0.859600
3.937200 0.889500
3.987900 0.929900
4.038500 0.963900
4.089100 0.993300
4.139700 1.086200
4.190400 1.254300
4.241000 1.389700
4.291600 1.497500
4.342300 1.626600
4.392900 1.786100
4.443500 1.912800
4.494200 2.076300
4.544800 2.342000
4.595400 2.235300
4.646100 2.122000
4.696700 1.981100
4.747300 1.989100
4.797900 1.886400
4.848600 1.646200
4.899200 1.572700
4.949800 1.548600
5.000500 1.463000
5.051100 1.381900
5.101700 1.294100
5.152400 1.295900
5.203000 1.521400
5.253600 1.679300
5.304300 1.683900
5.354900 1.647000
5.405500 1.668100
5.456100 1.764500
5.506800 1.977200
5.557400 2.332500
5.608000 2.505300
5.658700 2.595000
5.709300 2.776300
5.759900 2.840300
5.810600 3.108200
5.861200 3.463400
5.911800 3.744100
5.962500 3.033700
6.013100 2.395700
6.063700 2.013700
6.114400 1.899300
6.165000 1.807000
6.215600 1.799000
6.266200 1.801200
6.316900 1.835100
6.367500 1.949000
6.418100 2.027800
6.468800 2.291900
6.519400 2.264400
6.570000 2.350100
6.620700 2.421100
6.671300 2.476200
6.721900 2.620700
6.772600 2.666800
6.823200 2.615300
6.873800 2.688100
6.924400 2.447500
6.975100 2.359500
7.025700 2.702100
7.076300 2.570300
7.127000 2.464700
7.177600 2.514300
7.228200 2.508000
7.278900 3.090800
7.329500 4.449900
7.380100 4.139800
7.430800 3.706000
7.481400 3.340900
7.532000 3.116400
7.582700 2.910900
7.633300 2.713700
7.683900 2.586300
7.734500 2.472500
7.785200 1.959600
7.835800 1.753700
7.886400 1.696000
7.937100 1.702300
7.987700 1.734500
8.038300 1.731200
8.089000 1.892500
8.139600 1.482400
8.190200 1.487600
8.240900 1.430900
8.291500 1.176300
8.342100 1.380900
8.392700 1.503900
8.443400 1.653800
8.494000 1.686800
8.544600 1.678800
8.595300 1.665900
8.645900 1.754400
8.696500 1.850000
8.747200 2.009000
8.797800 2.255600
8.848400 2.571300
8.899100 2.923700
8.949700 3.890000
9.000300 4.709100
9.050900 5.190200
9.101600 6.694000
9.152200 7.835200
9.202800 12.797700
9.253500 6.539100
9.304100 5.794300
9.354700 4.781900
9.405400 6.735300
9.456000 9.148500
9.506600 10.734700
9.557300 11.563000
9.607900 9.775500
9.658500 14.162800
9.709200 13.874400
9.759800 9.066900
9.810400 13.790500
9.861000 12.809200
9.911700 10.902800
9.962300 7.325200
10.012900 12.581100
10.063600 7.805100
10.114200 9.219700
10.164800 5.238500
10.215500 4.705200
10.266100 4.168700
10.316700 3.593400
10.367400 2.766200
10.418000 3.256300
10.468600 3.322400
10.519200 3.248600
10.569900 3.397500
10.620500 3.293300
10.671100 2.969400
10.721800 2.793700
10.772400 2.590100
10.823000 2.416100
10.873700 2.221100
10.924300 1.906600
10.974900 1.837200
11.025600 1.879200
11.076200 1.950400
11.126800 2.130800
11.177500 2.229300
11.228100 2.093300
11.278700 2.130800
11.329300 2.021000
11.380000 1.820700
11.430600 1.682100
11.481200 1.363100
11.531900 1.092800
11.582500 1.054200
11.633100 1.016500
11.683800 1.169800
11.734400 1.167700
11.785000 1.267300
11.835700 1.412500
11.886300 1.432300
11.936900 1.499100
11.987500 1.596700
12.038200 1.760800
12.088800 1.932000
12.139400 2.135000
12.190100 2.180600
12.240700 2.159300
12.291300 1.770900
12.342000 1.580900
12.392600 1.498000
12.443200 1.438700
12.493900 1.370000
12.544500 1.356100
12.595100 1.301500
12.645700 1.245400
12.696400 1.270400
12.747000 1.354400
12.797600 1.492700
12.848300 1.660500
12.898900 1.868300
12.949500 2.105800
13.000200 2.298500
13.050800 2.467000
13.101400 2.633700
13.152100 2.928600
13.202700 3.141600
13.253300 2.838000
13.304000 2.570100
13.354600 2.494500
13.405200 2.542900
13.455800 2.707000
13.506500 2.760100
13.557100 2.608900
13.607700 2.664100
13.658400 2.689800
13.709000 2.592600
13.759600 2.336500
13.810300 2.336900
