set title 'mp-8566 - Density of States'
set xlabel 'Energy (eV)'
set ylabel 'DOS (states/eV)'
set grid
set xrange [-10:10]
set yrange [0:22.277]
set xzeroaxis lt -1
set terminal png size 800,600
set output 'mp-8566_dos_gnuplot.png'
plot '-' using 1:2 with lines title 'DOS'
-5.640500 0.000000
-5.626200 0.000000
-5.611800 0.000000
-5.597400 0.000000
-5.583100 0.000000
-5.568700 0.000000
-5.554300 0.000000
-5.539900 0.000000
-5.525600 0.000000
-5.511200 0.000000
-5.496800 0.000000
-5.482500 0.000000
-5.468100 0.000000
-5.453700 0.000000
-5.439300 0.000000
-5.425000 0.000000
-5.410600 0.000000
-5.396200 0.000000
-5.381800 0.000000
-5.367500 0.000000
-5.353100 0.000000
-5.338700 0.000000
-5.324400 0.000000
-5.310000 0.000000
-5.295600 0.000000
-5.281200 0.000000
-5.266900 0.000000
-5.252500 0.000000
-5.238100 0.000000
-5.223800 0.000000
-5.209400 0.000000
-5.195000 0.000000
-5.180600 0.000000
-5.166300 0.000000
-5.151900 0.000000
-5.137500 0.000000
-5.123200 0.000000
-5.108800 0.000000
-5.094400 0.000000
-5.080000 0.000000
-5.065700 0.000000
-5.051300 0.000000
-5.036900 0.000000
-5.022600 0.000000
-5.008200 0.000000
-4.993800 0.000000
-4.979400 0.000000
-4.965100 0.000000
-4.950700 0.000000
-4.936300 0.000000
-4.922000 0.000000
-4.907600 0.000000
-4.893200 0.000000
-4.878800 0.000000
-4.864500 0.000000
-4.850100 0.000000
-4.835700 0.000000
-4.821400 0.000000
-4.807000 0.000000
-4.792600 0.000000
-4.778200 0.000000
-4.763900 0.000000
-4.749500 0.000000
-4.735100 0.000000
-4.720800 0.000000
-4.706400 0.000000
-4.692000 0.000000
-4.677600 0.000000
-4.663300 0.000000
-4.648900 0.000000
-4.634500 0.000000
-4.620200 0.000000
-4.605800 0.000000
-4.591400 0.000000
-4.577000 0.000000
-4.562700 0.000000
-4.548300 0.000000
-4.533900 0.000000
-4.519600 0.000000
-4.505200 0.000000
-4.490800 0.000000
-4.476400 0.000000
-4.462100 0.000000
-4.447700 0.000000
-4.433300 0.000000
-4.419000 0.000000
-4.404600 0.000000
-4.390200 0.000000
-4.375800 0.000000
-4.361500 0.000000
-4.347100 0.000000
-4.332700 0.000000
-4.318300 0.006400
-4.304000 0.023600
-4.289600 0.051700
-4.275200 0.084000
-4.260900 0.099100
-4.246500 0.107900
-4.232100 0.110300
-4.217700 0.116500
-4.203400 0.127600
-4.189000 0.139000
-4.174600 0.150700
-4.160300 0.162300
-4.145900 0.172200
-4.131500 0.180400
-4.117100 0.186600
-4.102800 0.191600
-4.088400 0.196200
-4.074000 0.200700
-4.059700 0.207500
-4.045300 0.214700
-4.030900 0.221800
-4.016500 0.229000
-4.002200 0.236100
-3.987800 0.243300
-3.973400 0.250500
-3.959100 0.257600
-3.944700 0.263100
-3.930300 0.268700
-3.915900 0.274300
-3.901600 0.280500
-3.887200 0.287000
-3.872800 0.293400
-3.858500 0.299300
-3.844100 0.304800
-3.829700 0.310000
-3.815300 0.315700
-3.801000 0.321800
-3.786600 0.327800
-3.772200 0.333800
-3.757900 0.340100
-3.743500 0.346700
-3.729100 0.353400
-3.714700 0.360300
-3.700400 0.367100
-3.686000 0.373700
-3.671600 0.379900
-3.657300 0.385700
-3.642900 0.391800
-3.628500 0.398100
-3.614100 0.404800
-3.599800 0.411500
-3.585400 0.418300
-3.571000 0.425200
-3.556700 0.432000
-3.542300 0.438900
-3.527900 0.446200
-3.513500 0.453900
-3.499200 0.461800
-3.484800 0.469900
-3.470400 0.478200
-3.456100 0.486600
-3.441700 0.495200
-3.427300 0.503900
-3.412900 0.512600
-3.398600 0.521500
-3.384200 0.530500
-3.369800 0.539400
-3.355500 0.548400
-3.341100 0.557700
-3.326700 0.567200
-3.312300 0.576900
-3.298000 0.587100
-3.283600 0.598200
-3.269200 0.610200
-3.254800 0.622700
-3.240500 0.635700
-3.226100 0.650300
-3.211700 0.666600
-3.197400 0.684800
-3.183000 0.702200
-3.168600 0.720300
-3.154200 0.739700
-3.139900 0.760100
-3.125500 0.781200
-3.111100 0.803000
-3.096800 0.825700
-3.082400 0.849600
-3.068000 0.913400
-3.053600 1.298700
-3.039300 1.976700
-3.024900 2.445000
-3.010500 2.985600
-2.996200 3.431400
-2.981800 3.872700
-2.967400 4.750900
-2.953000 5.522900
-2.938700 6.144200
-2.924300 6.933000
-2.909900 7.743800
-2.895600 8.406400
-2.881200 8.852300
-2.866800 9.162800
-2.852400 9.132000
-2.838100 9.190200
-2.823700 9.300700
-2.809300 9.517900
-2.795000 9.742300
-2.780600 9.863700
-2.766200 10.003400
-2.751800 10.217500
-2.737500 10.472300
-2.723100 10.747100
-2.708700 11.190500
-2.694400 11.656800
-2.680000 12.092200
-2.665600 12.679700
-2.651200 13.305300
-2.636900 14.040400
-2.622500 14.567300
-2.608100 15.018200
-2.593800 16.781000
-2.579400 17.992700
-2.565000 18.157700
-2.550600 18.098400
-2.536300 17.015400
-2.521900 15.674300
-2.507500 14.883500
-2.493200 13.281600
-2.478800 12.562400
-2.464400 12.813700
-2.450000 14.600400
-2.435700 14.310900
-2.421300 14.010600
-2.406900 13.800400
-2.392600 13.813600
-2.378200 12.141800
-2.363800 12.676500
-2.349400 13.709500
-2.335100 14.510200
-2.320700 13.726700
-2.306300 12.123900
-2.292000 11.041900
-2.277600 9.656600
-2.263200 8.637800
-2.248800 8.606900
-2.234500 7.757500
-2.220100 7.787800
-2.205700 7.986400
-2.191300 8.661200
-2.177000 8.980800
-2.162600 9.989600
-2.148200 10.462500
-2.133900 11.189400
-2.119500 10.614700
-2.105100 9.107700
-2.090700 8.401200
-2.076400 8.978300
-2.062000 8.154500
-2.047600 6.133000
-2.033300 5.539000
-2.018900 6.058000
-2.004500 7.356400
-1.990100 8.989800
-1.975800 9.372900
-1.961400 9.851600
-1.947000 10.067000
-1.932700 10.634600
-1.918300 12.126200
-1.903900 11.071700
-1.889500 11.645400
-1.875200 12.440600
-1.860800 13.741000
-1.846400 13.211200
-1.832100 13.758700
-1.817700 14.580900
-1.803300 16.472800
-1.788900 18.791800
-1.774600 19.231000
-1.760200 17.036200
-1.745800 15.449500
-1.731500 14.516900
-1.717100 14.302300
-1.702700 13.419300
-1.688300 12.742300
-1.674000 12.177100
-1.659600 11.975000
-1.645200 15.056700
-1.630900 13.186300
-1.616500 13.700200
-1.602100 14.323300
-1.587700 14.337000
-1.573400 14.482000
-1.559000 14.751100
-1.544600 14.583300
-1.530300 15.145600
-1.515900 15.328000
-1.501500 13.774500
-1.487100 15.097100
-1.472800 15.284000
-1.458400 15.117800
-1.444000 15.186500
-1.429700 16.418800
-1.415300 16.532800
-1.400900 15.189900
-1.386500 15.401000
-1.372200 15.735200
-1.357800 14.928400
-1.343400 15.122000
-1.329100 15.342200
-1.314700 17.040700
-1.300300 16.724500
-1.285900 14.693600
-1.271600 14.023700
-1.257200 12.677600
-1.242800 13.383600
-1.228400 14.081100
-1.214100 15.000400
-1.199700 15.327400
-1.185300 13.872500
-1.171000 12.092100
-1.156600 11.093400
-1.142200 10.729600
-1.127800 10.551900
-1.113500 10.526600
-1.099100 11.357200
-1.084700 12.397500
-1.070400 13.416500
-1.056000 14.396700
-1.041600 14.807800
-1.027200 16.024600
-1.012900 16.819200
-0.998500 16.490900
-0.984100 14.703400
-0.969800 15.515200
-0.955400 13.751000
-0.941000 13.324700
-0.926600 13.209400
-0.912300 12.423500
-0.897900 12.096600
-0.883500 12.907700
-0.869200 12.969200
-0.854800 11.312100
-0.840400 10.563200
-0.826000 10.465500
-0.811700 10.565100
-0.797300 10.540500
-0.782900 10.749200
-0.768600 11.606800
-0.754200 12.329300
-0.739800 11.015100
-0.725400 10.427600
-0.711100 9.974900
-0.696700 9.716200
-0.682300 9.522400
-0.668000 9.436300
-0.653600 10.158500
-0.639200 12.440000
-0.624800 13.667900
-0.610500 16.156600
-0.596100 16.487700
-0.581700 14.826600
-0.567400 13.992700
-0.553000 13.325400
-0.538600 13.476000
-0.524200 12.934500
-0.509900 12.117800
-0.495500 11.933700
-0.481100 11.749100
-0.466800 11.750900
-0.452400 11.457600
-0.438000 11.291300
-0.423600 10.818300
-0.409300 10.516500
-0.394900 10.463200
-0.380500 11.769900
-0.366200 12.613000
-0.351800 12.738900
-0.337400 12.581100
-0.323000 11.883800
-0.308700 11.805100
-0.294300 11.867400
-0.279900 11.941800
-0.265600 11.966400
-0.251200 12.156300
-0.236800 12.741700
-0.222400 13.764800
-0.208100 13.895600
-0.193700 13.859500
-0.179300 13.973100
-0.164900 14.079800
-0.150600 14.085600
-0.136200 14.312900
-0.121800 15.036600
-0.107500 15.948300
-0.093100 17.383500
-0.078700 19.127600
-0.064300 18.441900
-0.050000 18.736600
-0.035600 20.251500
-0.021200 18.772300
-0.006900 18.516200
0.007500 16.495800
0.021900 17.170200
0.036300 17.297100
0.050600 20.167800
0.065000 19.120300
0.079400 16.858800
0.093700 15.171000
0.108100 14.715600
0.122500 14.530300
0.136900 14.682900
0.151200 12.420500
0.165600 6.168400
0.180000 2.449500
0.194300 1.223000
0.208700 1.205600
0.223100 1.189200
0.237500 1.172500
0.251800 1.156200
0.266200 1.140900
0.280600 1.126700
0.294900 1.117400
0.309300 1.111000
0.323700 1.105200
0.338100 1.100000
0.352400 1.087000
0.366800 1.048800
0.381200 1.015800
0.395500 0.989100
0.409900 0.978900
0.424300 0.970600
0.438700 0.962900
0.453000 0.955600
0.467400 0.948800
0.481800 0.943600
0.496100 0.939400
0.510500 0.935700
0.524900 0.932100
0.539300 0.928600
0.553600 0.925300
0.568000 0.922200
0.582400 0.919900
0.596700 0.917900
0.611100 0.915900
0.625500 0.914200
0.639900 0.912600
0.654200 0.911100
0.668600 0.909900
0.683000 0.908800
0.697300 0.907800
0.711700 0.907700
0.726100 0.907900
0.740500 0.908700
0.754800 0.909600
0.769200 0.910600
0.783600 0.911300
0.797900 0.912000
0.812300 0.912700
0.826700 0.913400
0.841100 0.914200
0.855400 0.914900
0.869800 0.915700
0.884200 0.916400
0.898600 0.917200
0.912900 0.918000
0.927300 0.918900
0.941700 0.911700
0.956000 0.906500
0.970400 0.903100
0.984800 0.900300
0.999200 0.898500
1.013500 0.897500
1.027900 0.896800
1.042300 0.896200
1.056600 0.895600
1.071000 0.895100
1.085400 0.894500
1.099800 0.894200
1.114100 0.893700
1.128500 0.894000
1.142900 0.894700
1.157200 0.895700
1.171600 0.896600
1.186000 0.897400
1.200400 0.898300
1.214700 0.899100
1.229100 0.900000
1.243500 0.900900
1.257800 0.901800
1.272200 0.902700
1.286600 0.903600
1.301000 0.904600
1.315300 0.905600
1.329700 0.906700
1.344100 0.907700
1.358400 0.908800
1.372800 0.910000
1.387200 0.911300
1.401600 0.912600
1.415900 0.913900
1.430300 0.915200
1.444700 0.916600
1.459000 0.918000
1.473400 0.919400
1.487800 0.920800
1.502200 0.922100
1.516500 0.923500
1.530900 0.925000
1.545300 0.926400
1.559600 0.927800
1.574000 0.929200
1.588400 0.930600
1.602800 0.932000
1.617100 0.932700
1.631500 0.931600
1.645900 0.931100
1.660200 0.930900
1.674600 0.931100
1.689000 0.931400
1.703400 0.931600
1.717700 0.932000
1.732100 0.932500
1.746500 0.933100
1.760800 0.933900
1.775200 0.934800
1.789600 0.935800
1.804000 0.936900
1.818300 0.937900
1.832700 0.939100
1.847100 0.940300
1.861400 0.941500
1.875800 0.942800
1.890200 0.944200
1.904600 0.945600
1.918900 0.947000
1.933300 0.948500
1.947700 0.950000
1.962100 0.951400
1.976400 0.953000
1.990800 0.954600
2.005200 0.956200
2.019500 0.957900
2.033900 0.959600
2.048300 0.961300
2.062700 0.963100
2.077000 0.964800
2.091400 0.966600
2.105800 0.968400
2.120100 0.970200
2.134500 0.972000
2.148900 0.973900
2.163300 0.975800
2.177600 0.977800
2.192000 0.979700
2.206400 0.981700
2.220700 0.983700
2.235100 0.985600
2.249500 0.987600
2.263900 0.989700
2.278200 0.991700
2.292600 0.993700
2.307000 0.995800
2.321300 0.998000
2.335700 1.000200
2.350100 1.002400
2.364500 1.004800
2.378800 1.007200
2.393200 1.009700
2.407600 1.011800
2.421900 1.013400
2.436300 1.015000
2.450700 1.016900
2.465100 1.019100
2.479400 1.021400
2.493800 1.023800
2.508200 1.026400
2.522500 1.029000
2.536900 1.031900
2.551300 1.035000
2.565700 1.038400
2.580000 1.041900
2.594400 1.045100
2.608800 1.048200
2.623100 1.051500
2.637500 1.054800
2.651900 1.058100
2.666300 1.061500
2.680600 1.065200
2.695000 1.069200
2.709400 1.073400
2.723700 1.077800
2.738100 1.082400
2.752500 1.087100
2.766900 1.091900
2.781200 1.096800
2.795600 1.101900
2.810000 1.107100
2.824300 1.112200
2.838700 1.135500
2.853100 1.171000
2.867500 1.198600
2.881800 1.203200
2.896200 1.197200
2.910600 1.189500
2.924900 1.180600
2.939300 1.173300
2.953700 1.168200
2.968100 1.165400
2.982400 1.163400
2.996800 1.161100
3.011200 1.159100
3.025600 1.157400
3.039900 1.155800
3.054300 1.154400
3.068700 1.153200
3.083000 1.152300
3.097400 1.151600
3.111800 1.151000
3.126200 1.150200
3.140500 1.149100
3.154900 1.147400
3.169300 1.145600
3.183600 1.143900
3.198000 1.142200
3.212400 1.140600
3.226800 1.139000
3.241100 1.137400
3.255500 1.135800
3.269900 1.134300
3.284200 1.132600
3.298600 1.130600
3.313000 1.128400
3.327400 1.127200
3.341700 1.128100
3.356100 1.130000
3.370500 1.132800
3.384800 1.136700
3.399200 1.141800
3.413600 1.148000
3.428000 1.155200
3.442300 1.163400
3.456700 1.158200
3.471100 1.142500
3.485400 1.132400
3.499800 1.129600
3.514200 1.126500
3.528600 1.123000
3.542900 1.119200
3.557300 1.114900
3.571700 1.110200
3.586000 1.108900
3.600400 1.107300
3.614800 1.105600
3.629200 1.103600
3.643500 1.101400
3.657900 1.098900
3.672300 1.096200
3.686600 1.093200
3.701000 1.090000
3.715400 1.086600
3.729800 1.083200
3.744100 1.080400
3.758500 1.077600
3.772900 1.074800
3.787200 1.072100
3.801600 1.069400
3.816000 1.066700
3.830400 1.064100
3.844700 1.045000
3.859100 1.043300
3.873500 1.042700
3.887800 1.044600
3.902200 1.050700
3.916600 1.059900
3.931000 1.065800
3.945300 1.068000
3.959700 1.067900
3.974100 1.067400
3.988500 1.066600
4.002800 1.065400
4.017200 1.064000
4.031600 1.062500
4.045900 1.060900
4.060300 1.059200
4.074700 1.057500
4.089100 1.055700
4.103400 1.054000
4.117800 1.052500
4.132200 1.051200
4.146500 1.050100
4.160900 1.048800
4.175300 1.047100
4.189700 1.045100
4.204000 1.046100
4.218400 1.052000
4.232800 1.060200
4.247100 1.069600
4.261500 1.080100
4.275900 1.091900
4.290300 1.105000
4.304600 1.098400
4.319000 1.083900
4.333400 1.069800
4.347700 1.070100
4.362100 1.070700
4.376500 1.071500
4.390900 1.071700
4.405200 1.071500
4.419600 1.070600
4.434000 1.069500
4.448300 1.066600
4.462700 1.069800
4.477100 1.074200
4.491500 1.080300
4.505800 1.087700
4.520200 1.093900
4.534600 1.098900
4.548900 1.103200
4.563300 1.106800
4.577700 1.109900
4.592100 1.112700
4.606400 1.122100
4.620800 1.131200
4.635200 1.129600
4.649500 1.129400
4.663900 1.128400
4.678300 1.131400
4.692700 1.140900
4.707000 1.156800
4.721400 1.181100
4.735800 1.199700
4.750100 1.231100
4.764500 1.251700
4.778900 1.180400
4.793300 1.089900
4.807600 1.089400
4.822000 1.088800
4.836400 1.088200
4.850700 1.087600
4.865100 1.087100
4.879500 1.086600
4.893900 1.086200
4.908200 1.086600
4.922600 1.087200
4.937000 1.087900
4.951300 1.088400
4.965700 1.088900
4.980100 1.092500
4.994500 1.096700
5.008800 1.100600
5.023200 1.104200
5.037600 1.107400
5.052000 1.110200
5.066300 1.112700
5.080700 1.114800
5.095100 1.126000
5.109400 1.131700
5.123800 1.129600
5.138200 1.123300
5.152600 1.139500
5.166900 1.129700
5.181300 1.113000
5.195700 1.100400
5.210000 1.089500
5.224400 1.081800
5.238800 1.082300
5.253200 1.107500
5.267500 1.186100
5.281900 1.176900
5.296300 1.155600
5.310600 1.119800
5.325000 1.089600
5.339400 1.085800
5.353800 1.081600
5.368100 1.065200
5.382500 1.036900
5.396900 1.017000
5.411200 1.007300
5.425600 0.999000
5.440000 0.990300
5.454400 0.977700
5.468700 0.971700
5.483100 0.966400
5.497500 0.961800
5.511800 0.957800
5.526200 0.954400
5.540600 0.951400
5.555000 0.948100
5.569300 0.944300
5.583700 0.940200
5.598100 0.935700
5.612400 0.930800
5.626800 0.925600
5.641200 0.920000
5.655600 0.911600
5.669900 0.902400
5.684300 0.893400
5.698700 0.888900
5.713000 0.885700
5.727400 0.885100
5.741800 0.885100
5.756200 0.885300
5.770500 0.885600
5.784900 0.886100
5.799300 0.886600
5.813600 0.887200
5.828000 0.886500
5.842400 0.878300
5.856800 0.874600
5.871100 0.871900
5.885500 0.867500
5.899900 0.861400
5.914200 0.853700
5.928600 0.845400
5.943000 0.837400
5.957400 0.829700
5.971700 0.822200
5.986100 0.843700
6.000500 0.828600
6.014800 0.815200
6.029200 0.803300
6.043600 0.792800
6.058000 0.785000
6.072300 0.781100
6.086700 0.779400
6.101100 0.778700
6.115500 0.778200
6.129800 0.777600
6.144200 0.776900
6.158600 0.776200
6.172900 0.775700
6.187300 0.775600
6.201700 0.775400
6.216100 0.775300
6.230400 0.775400
6.244800 0.775600
6.259200 0.776000
6.273500 0.776500
6.287900 0.777200
6.302300 0.782000
6.316700 0.795200
6.331000 0.804500
6.345400 0.835700
6.359800 0.893200
6.374100 0.939700
6.388500 0.903900
6.402900 0.815400
6.417300 0.767600
6.431600 0.767000
6.446000 0.774000
6.460400 0.783800
6.474700 0.796600
6.489100 0.811700
6.503500 0.842500
6.517900 0.893100
6.532200 0.940700
6.546600 0.947900
6.561000 0.922100
6.575300 0.899300
6.589700 0.878500
6.604100 0.859100
6.618500 0.841000
6.632800 0.824100
6.647200 0.808400
6.661600 0.794300
6.675900 0.827000
6.690300 0.813800
6.704700 0.744800
6.719100 0.738200
6.733400 0.739000
6.747800 0.740600
6.762200 0.741200
6.776500 0.724200
6.790900 0.700000
6.805300 0.679600
6.819700 0.666500
6.834000 0.654800
6.848400 0.644500
6.862800 0.634500
6.877100 0.622500
6.891500 0.613100
6.905900 0.604400
6.920300 0.596600
6.934600 0.590100
6.949000 0.595500
6.963400 0.770000
6.977700 0.616500
6.992100 0.615000
7.006500 0.613600
7.020900 0.612900
7.035200 0.618200
7.049600 0.630400
7.064000 0.648700
7.078300 0.648300
7.092700 0.674100
7.107100 0.849400
7.121500 0.894500
7.135800 0.899900
7.150200 0.891900
7.164600 0.908500
7.179000 0.934300
7.193300 0.972300
7.207700 1.022500
7.222100 1.087500
7.236400 1.160400
7.250800 1.223200
7.265200 1.278100
7.279600 1.318600
7.293900 1.353600
7.308300 1.384700
7.322700 1.415200
7.337000 1.418000
7.351400 1.447200
7.365800 1.474800
7.380200 1.500600
7.394500 1.519800
7.408900 1.529500
7.423300 1.541900
7.437600 1.576700
7.452000 1.612400
7.466400 1.660000
7.480800 1.714300
7.495100 1.771700
7.509500 1.826700
7.523900 1.879300
7.538200 1.929900
7.552600 1.966400
7.567000 1.976400
7.581400 1.962200
7.595700 1.930700
7.610100 1.906900
7.624500 1.871100
7.638800 1.840100
7.653200 1.814000
7.667600 1.793200
7.682000 1.777900
7.696300 1.764700
7.710700 1.755300
7.725100 1.755100
7.739400 1.758000
7.753800 1.774400
7.768200 1.795000
7.782600 1.805900
7.796900 1.814900
7.811300 1.822500
7.825700 1.828200
7.840000 1.832800
7.854400 1.834500
7.868800 1.832200
7.883200 1.825600
7.897500 1.817500
7.911900 1.802700
7.926300 1.785200
7.940600 1.780200
7.955000 1.768500
7.969400 1.754800
7.983800 1.741200
7.998100 1.728000
8.012500 1.714300
8.026900 1.700200
8.041200 1.685800
8.055600 1.671100
8.070000 1.652300
8.084400 1.635700
8.098700 1.618500
8.113100 1.600600
8.127500 1.581300
8.141800 1.555900
8.156200 1.527000
8.170600 1.508200
8.185000 1.490800
8.199300 1.493900
8.213700 1.481700
8.228100 1.464100
8.242500 1.441400
8.256800 1.413600
8.271200 1.390300
8.285600 1.369800
8.299900 1.350000
8.314300 1.329600
8.328700 1.311200
8.343100 1.294900
8.357400 1.280400
8.371800 1.267800
8.386200 1.257200
8.400500 1.267300
8.414900 1.246200
8.429300 1.225400
8.443700 1.202200
8.458000 1.159300
8.472400 1.143100
8.486800 1.133000
8.501100 1.127800
8.515500 1.123000
8.529900 1.118600
8.544300 1.114900
8.558600 1.112000
8.573000 1.109700
8.587400 1.107500
8.601700 1.238700
8.616100 1.199900
8.630500 1.199300
8.644900 1.198800
8.659200 1.189300
8.673600 1.180000
8.688000 1.173700
8.702300 1.170200
8.716700 1.172800
8.731100 1.172700
8.745500 1.172800
8.759800 1.173300
8.774200 1.173200
8.788600 1.173800
8.802900 1.173600
8.817300 1.169700
8.831700 1.162800
8.846100 1.154700
8.860400 1.153000
8.874800 1.151500
8.889200 1.150300
8.903500 1.149300
8.917900 1.148900
8.932300 1.149500
8.946700 1.150200
8.961000 1.151000
8.975400 1.151700
8.989800 1.161500
9.004100 1.162000
9.018500 1.162000
9.032900 1.163300
9.047300 1.166100
9.061600 1.169300
9.076000 1.172800
9.090400 1.176900
9.104700 1.180800
9.119100 1.193900
9.133500 1.204300
9.147900 1.207100
9.162200 1.211700
9.176600 1.218100
9.191000 1.227000
9.205400 1.255300
9.219700 1.281400
9.234100 1.308900
9.248500 1.329100
9.262800 1.346500
9.277200 1.361000
9.291600 1.372100
9.306000 1.377800
9.320300 1.387400
9.334700 1.419500
9.349100 1.432700
9.363400 1.450200
9.377800 1.472100
9.392200 1.498300
9.406600 1.528200
9.420900 1.566600
9.435300 1.601200
9.449700 1.632600
9.464000 1.659000
9.478400 1.678800
9.492800 1.692200
9.507200 1.698300
9.521500 1.699400
9.535900 1.668100
9.550300 1.655000
9.564600 1.649800
9.579000 1.643300
9.593400 1.636700
9.607800 1.630300
9.622100 1.624000
9.636500 1.620300
