set title 'mp-1178932 - Density of States'
set xlabel 'Energy (eV)'
set ylabel 'DOS (states/eV)'
set grid
set xrange [-10:10]
set yrange [0:1.195]
set xzeroaxis lt -1
set terminal png size 800,600
set output 'mp-1178932_dos_gnuplot.png'
plot '-' using 1:2 with lines title 'DOS'
-10.848700 0.000000
-10.807100 0.000000
-10.765600 0.000000
-10.724000 0.000000
-10.682400 0.000000
-10.640900 0.000000
-10.599300 0.000000
-10.557700 0.000000
-10.516200 0.000000
-10.474600 0.000000
-10.433000 0.000000
-10.391500 0.000000
-10.349900 0.000000
-10.308400 0.000000
-10.266800 0.000000
-10.225200 0.000000
-10.183700 0.000000
-10.142100 0.000000
-10.100500 0.000000
-10.059000 0.000000
-10.017400 0.000000
-9.975800 0.000000
-9.934300 0.000000
-9.892700 0.000000
-9.851200 0.000000
-9.809600 0.000000
-9.768000 0.000000
-9.726500 0.000000
-9.684900 0.000000
-9.643300 0.000000
-9.601800 0.000000
-9.560200 0.000000
-9.518600 0.000000
-9.477100 0.000000
-9.435500 0.000000
-9.394000 0.000000
-9.352400 0.000000
-9.310800 0.000000
-9.269300 0.000000
-9.227700 0.000000
-9.186100 0.000000
-9.144600 0.000000
-9.103000 0.000000
-9.061400 0.000000
-9.019900 0.000000
-8.978300 0.000000
-8.936800 0.000000
-8.895200 0.000000
-8.853600 0.000000
-8.812100 0.000000
-8.770500 0.000000
-8.728900 0.000000
-8.687400 0.000000
-8.645800 0.000000
-8.604200 0.000000
-8.562700 0.000000
-8.521100 0.000000
-8.479600 0.000000
-8.438000 0.000000
-8.396400 0.000000
-8.354900 0.000000
-8.313300 0.000000
-8.271700 0.000000
-8.230200 0.000000
-8.188600 0.000000
-8.147000 0.000000
-8.105500 0.000000
-8.063900 0.000000
-8.022400 0.000000
-7.980800 0.000000
-7.939200 0.000000
-7.897700 0.000000
-7.856100 0.000000
-7.814500 0.000000
-7.773000 0.000000
-7.731400 0.000000
-7.689800 0.000000
-7.648300 0.000000
-7.606700 0.000000
-7.565200 0.000000
-7.523600 0.000000
-7.482000 0.000000
-7.440500 0.000000
-7.398900 0.000000
-7.357300 0.000000
-7.315800 0.000000
-7.274200 0.000000
-7.232600 0.000000
-7.191100 0.000000
-7.149500 0.000000
-7.108000 0.000000
-7.066400 0.000200
-7.024800 0.033300
-6.983300 0.083500
-6.941700 0.093200
-6.900100 0.112900
-6.858600 0.137800
-6.817000 0.153000
-6.775400 0.160500
-6.733900 0.172700
-6.692300 0.186000
-6.650800 0.199400
-6.609200 0.214300
-6.567600 0.225900
-6.526100 0.234200
-6.484500 0.244000
-6.442900 0.254100
-6.401400 0.264600
-6.359800 0.275900
-6.318200 0.287300
-6.276700 0.299300
-6.235100 0.309800
-6.193600 0.319500
-6.152000 0.329800
-6.110400 0.340300
-6.068900 0.351200
-6.027300 0.362300
-5.985700 0.373600
-5.944200 0.385300
-5.902600 0.397200
-5.861100 0.410400
-5.819500 0.424300
-5.777900 0.438400
-5.736400 0.452800
-5.694800 0.467400
-5.653200 0.482300
-5.611700 0.497400
-5.570100 0.512800
-5.528500 0.532800
-5.487000 0.562500
-5.445400 0.591900
-5.403900 0.622000
-5.362300 0.653400
-5.320700 0.718100
-5.279200 0.809800
-5.237600 0.766400
-5.196000 0.767100
-5.154500 0.771100
-5.112900 0.761700
-5.071300 0.741700
-5.029800 0.737800
-4.988200 0.734300
-4.946700 0.729500
-4.905100 0.724900
-4.863500 0.715700
-4.822000 0.703200
-4.780400 0.696500
-4.738800 0.690900
-4.697300 0.685500
-4.655700 0.680400
-4.614100 0.675000
-4.572600 0.669100
-4.531000 0.661100
-4.489500 0.652800
-4.447900 0.646300
-4.406300 0.640200
-4.364800 0.634200
-4.323200 0.628300
-4.281600 0.622500
-4.240100 0.616900
-4.198500 0.611300
-4.156900 0.606800
-4.115400 0.601400
-4.073800 0.594900
-4.032300 0.587900
-3.990700 0.580500
-3.949100 0.573800
-3.907600 0.567400
-3.866000 0.561200
-3.824400 0.562800
-3.782900 0.564200
-3.741300 0.554200
-3.699700 0.540800
-3.658200 0.524400
-3.616600 0.550700
-3.575100 0.486800
-3.533500 0.420900
-3.491900 0.394200
-3.450400 0.369100
-3.408800 0.340300
-3.367200 0.320600
-3.325700 0.304900
-3.284100 0.289200
-3.242500 0.274100
-3.201000 0.259700
-3.159400 0.244300
-3.117900 0.231700
-3.076300 0.221300
-3.034700 0.211200
-2.993200 0.201200
-2.951600 0.191300
-2.910000 0.181700
-2.868500 0.172500
-2.826900 0.163100
-2.785300 0.154700
-2.743800 0.147200
-2.702200 0.139900
-2.660700 0.132800
-2.619100 0.125900
-2.577500 0.119200
-2.536000 0.112800
-2.494400 0.106400
-2.452800 0.100400
-2.411300 0.094200
-2.369700 0.087700
-2.328100 0.081600
-2.286600 0.075900
-2.245000 0.070700
-2.203500 0.065700
-2.161900 0.060500
-2.120300 0.055400
-2.078800 0.052800
-2.037200 0.044900
-1.995600 0.036800
-1.954100 0.029300
-1.912500 0.022600
-1.870900 0.016500
-1.829400 0.000000
-1.787800 0.000000
-1.746300 0.000000
-1.704700 0.000000
-1.663100 0.000000
-1.621600 0.000000
-1.580000 0.000000
-1.538400 0.000000
-1.496900 0.000000
-1.455300 0.000000
-1.413700 0.000000
-1.372200 0.000000
-1.330600 0.000000
-1.289100 0.000000
-1.247500 0.000000
-1.205900 0.000000
-1.164400 0.000000
-1.122800 0.000000
-1.081200 0.000000
-1.039700 0.000000
-0.998100 0.000000
-0.956600 0.000000
-0.915000 0.000000
-0.873400 0.000000
-0.831900 0.000000
-0.790300 0.000000
-0.748700 0.000000
-0.707200 0.000000
-0.665600 0.000000
-0.624000 0.000000
-0.582500 0.000000
-0.540900 0.000000
-0.499400 0.000000
-0.457800 0.000000
-0.416200 0.000000
-0.374700 0.000000
-0.333100 0.000000
-0.291500 0.000000
-0.250000 0.000000
-0.208400 0.000000
-0.166800 0.000000
-0.125300 0.000000
-0.083700 0.000000
-0.042200 0.000000
-0.000600 0.000000
0.041000 0.000000
0.082500 0.000000
0.124100 0.000000
0.165700 0.000000
0.207200 0.000000
0.248800 0.000000
0.290400 0.000000
0.331900 0.000000
0.373500 0.000000
0.415000 0.000000
0.456600 0.000000
0.498200 0.000000
0.539700 0.000000
0.581300 0.000000
0.622900 0.000000
0.664400 0.021300
0.706000 0.134300
0.747600 0.136800
0.789100 0.157500
0.830700 0.185100
0.872200 0.207000
0.913800 0.221200
0.955400 0.241700
0.996900 0.263200
1.038500 0.285900
1.080100 0.309800
1.121600 0.331200
1.163200 0.346900
1.204800 0.361800
1.246300 0.375200
1.287900 0.390100
1.329400 0.406000
1.371000 0.422200
1.412600 0.438800
1.454100 0.455600
1.495700 0.473300
1.537300 0.491800
1.578800 0.510700
1.620400 0.529800
1.662000 0.549300
1.703500 0.576100
1.745100 0.613500
1.786600 0.656500
1.828200 0.856200
1.869800 1.016200
1.911300 1.008500
1.952900 0.987500
1.994500 0.967000
2.036000 0.952900
2.077600 0.952900
2.119200 0.904000
2.160700 0.885500
2.202300 0.874200
2.243800 0.860500
2.285400 0.838900
2.327000 0.824400
2.368500 0.813700
2.410100 0.811400
2.451700 0.786500
2.493200 0.771100
2.534800 0.771000
2.576400 0.765200
2.617900 0.754300
2.659500 0.735500
2.701000 0.778500
2.742600 0.855500
2.784200 0.883600
2.825700 0.947400
2.867300 0.970100
2.908900 0.953400
2.950400 0.970500
2.992000 0.944500
3.033600 0.920100
3.075100 0.921200
3.116700 1.022600
3.158200 0.952900
3.199800 0.917200
3.241400 0.887900
3.282900 0.824100
3.324500 0.822300
3.366100 0.827400
3.407600 0.843800
3.449200 0.867000
3.490700 0.903300
3.532300 1.000200
3.573900 1.086700
3.615400 0.932100
3.657000 0.880600
3.698600 0.848300
3.740100 0.836200
3.781700 0.830000
3.823300 0.828500
3.864800 0.815600
3.906400 0.747200
3.947900 0.722700
3.989500 0.713500
4.031100 0.705000
4.072600 0.710600
4.114200 0.704700
4.155800 0.676000
4.197300 0.650200
4.238900 0.642700
4.280500 0.633800
4.322000 0.623500
4.363600 0.609000
4.405100 0.730900
4.446700 0.898900
4.488300 0.690600
4.529800 0.712000
4.571400 0.711800
4.613000 0.706200
4.654500 0.710000
4.696100 0.722900
4.737700 0.728200
4.779200 0.732700
4.820800 0.727300
4.862300 0.707500
4.903900 0.700100
4.945500 0.700700
4.987000 0.686900
5.028600 0.651700
5.070200 0.634400
5.111700 0.624800
5.153300 0.625300
5.194900 0.625100
5.236400 0.621900
5.278000 0.620400
5.319500 0.618800
5.361100 0.617300
5.402700 0.620700
5.444200 0.628000
5.485800 0.628700
5.527400 0.620900
5.568900 0.613300
5.610500 0.611400
5.652100 0.602200
5.693600 0.597300
5.735200 0.593800
5.776700 0.616700
5.818300 0.618400
5.859900 0.604500
5.901400 0.603600
5.943000 0.599600
5.984600 0.594400
6.026100 0.705200
6.067700 0.622200
6.109300 0.632200
6.150800 0.613300
6.192400 0.593300
6.233900 0.602100
6.275500 0.595400
6.317100 0.595300
6.358600 0.598100
6.400200 0.593500
6.441800 0.592200
6.483300 0.581900
6.524900 0.585900
6.566500 0.633700
6.608000 0.593900
6.649600 0.583900
6.691100 0.581000
6.732700 0.585500
6.774300 0.587300
6.815800 0.593800
6.857400 0.597100
6.899000 0.599000
6.940500 0.598600
6.982100 0.596600
7.023700 0.597100
7.065200 0.604400
7.106800 0.613600
7.148300 0.603300
7.189900 0.612800
7.231500 0.622100
7.273000 0.629300
7.314600 0.644000
7.356200 0.669900
7.397700 0.647400
7.439300 0.648500
7.480900 0.668800
7.522400 0.693300
7.564000 0.668000
7.605500 0.655200
7.647100 0.665400
7.688700 0.679200
7.730200 0.681800
7.771800 0.686400
7.813400 0.690800
7.854900 0.697700
7.896500 0.713600
7.938100 0.730700
7.979600 0.746700
8.021200 0.760900
8.062700 0.817400
8.104300 0.816700
8.145900 0.779900
8.187400 0.768100
8.229000 0.762800
8.270600 0.761000
8.312100 0.759800
8.353700 0.759800
8.395200 0.765300
8.436800 0.770600
8.478400 0.773000
8.519900 0.744900
8.561500 0.737600
8.603100 0.736000
8.644600 0.746200
8.686200 0.725700
8.727800 0.723200
8.769300 0.726100
8.810900 0.734200
8.852400 0.751700
8.894000 0.733900
8.935600 0.757300
8.977100 0.777300
9.018700 0.726900
9.060300 0.700000
9.101800 0.667000
9.143400 0.643100
9.185000 0.572000
9.226500 0.526700
9.268100 0.529100
9.309600 0.529700
9.351200 0.519400
9.392800 0.497100
9.434300 0.467800
9.475900 0.450900
9.517500 0.461100
9.559000 0.465100
9.600600 0.440900
9.642200 0.427600
9.683700 0.413400
9.725300 0.383800
9.766800 0.344000
9.808400 0.332400
9.850000 0.312800
9.891500 0.308200
9.933100 0.320900
9.974700 0.337700
10.016200 0.357300
10.057800 0.385300
10.099400 0.386300
10.140900 0.370100
10.182500 0.343500
10.224000 0.320400
10.265600 0.320900
10.307200 0.323200
10.348700 0.326200
10.390300 0.332500
10.431900 0.341000
10.473400 0.350300
10.515000 0.372100
10.556600 0.407300
10.598100 0.492700
10.639700 0.464300
10.681200 0.447600
10.722800 0.452800
10.764400 0.455200
10.805900 0.452900
10.847500 0.446900
10.889100 0.440500
10.930600 0.427500
10.972200 0.432700
11.013800 0.455300
11.055300 0.446500
11.096900 0.427300
11.138400 0.421100
11.180000 0.411300
11.221600 0.410000
11.263100 0.419200
11.304700 0.417500
11.346300 0.418400
11.387800 0.419200
11.429400 0.415300
11.471000 0.410100
11.512500 0.413100
11.554100 0.417200
11.595600 0.418000
11.637200 0.417500
11.678800 0.415900
11.720300 0.413200
11.761900 0.409700
11.803500 0.409900
11.845000 0.412200
11.886600 0.412900
11.928200 0.429900
11.969700 0.426300
12.011300 0.427100
12.052800 0.429900
12.094400 0.432200
12.136000 0.441700
12.177500 0.459100
12.219100 0.458800
12.260700 0.460500
12.302200 0.463900
12.343800 0.458800
12.385400 0.463100
12.426900 0.480900
12.468500 0.477900
12.510000 0.482500
12.551600 0.485800
12.593200 0.487700
12.634700 0.488200
12.676300 0.489900
12.717900 0.491400
12.759400 0.490700
12.801000 0.495600
12.842600 0.515200
12.884100 0.526200
12.925700 0.538200
12.967200 0.549400
13.008800 0.559000
13.050400 0.570000
13.091900 0.586500
13.133500 0.600900
13.175100 0.604600
13.216600 0.613900
13.258200 0.626200
13.299700 0.639500
13.341300 0.653800
13.382900 0.669200
13.424400 0.688200
13.466000 0.712200
13.507600 0.737100
13.549100 0.757800
13.590700 0.776400
13.632300 0.795100
13.673800 0.807500
13.715400 0.823100
13.756900 0.853400
13.798500 0.868400
13.840100 0.887400
13.881600 0.905300
13.923200 0.921400
13.964800 0.931100
14.006300 0.934700
14.047900 0.936400
14.089500 0.937400
14.131000 0.943500
14.172600 0.952700
14.214100 0.958700
14.255700 0.975300
14.297300 1.001400
14.338800 1.060800
14.380400 1.093300
14.422000 1.083500
14.463500 1.084900
14.505100 1.068900
14.546700 1.068300
14.588200 1.068500
14.629800 1.046400
14.671300 1.026100
14.712900 1.013500
14.754500 1.012100
14.796000 1.024700
14.837600 1.015600
14.879200 1.024400
14.920700 1.035500
14.962300 1.036300
15.003900 1.036100
15.045400 1.045200
15.087000 1.111400
15.128500 1.228400
15.170100 1.330700
15.211700 1.397100
15.253200 1.492900
15.294800 1.386900
15.336400 1.296300
15.377900 1.257100
15.419500 1.219900
15.461100 1.187300
15.502600 1.169000
15.544200 1.160200
15.585700 1.142800
15.627300 1.131000
15.668900 1.113100
15.710400 1.090400
15.752000 1.065400
15.793600 1.028600
15.835100 1.012600
15.876700 1.003000
15.918300 0.996700
15.959800 0.993300
16.001400 0.999300
16.042900 0.999500
16.084500 1.023700
16.126100 1.105400
16.167600 1.144900
16.209200 1.123500
16.250800 1.114200
16.292300 1.099400
16.333900 1.081600
16.375500 1.046500
16.417000 1.034800
16.458600 1.030600
16.500100 1.029100
16.541700 1.018600
16.583300 1.000600
16.624800 1.001500
16.666400 0.993800
16.708000 0.979500
16.749500 0.970600
16.791100 0.962100
16.832700 0.953600
16.874200 0.944700
16.915800 0.950900
16.957300 0.937900
16.998900 0.931300
17.040500 0.927800
17.082000 0.923700
17.123600 0.919400
17.165200 0.908400
17.206700 0.895800
17.248300 0.886900
17.289900 0.885800
17.331400 0.894100
17.373000 0.909200
17.414500 0.935700
17.456100 0.952500
17.497700 0.974200
17.539200 1.001200
17.580800 1.042300
17.622400 1.070900
17.663900 1.118400
17.705500 1.181200
17.747100 1.229700
17.788600 1.254200
17.830200 1.235300
17.871700 1.217100
17.913300 1.160600
17.954900 1.109900
17.996400 1.076600
18.038000 1.060900
18.079600 1.050600
18.121100 1.045500
18.162700 1.046200
18.204200 1.031700
18.245800 1.017600
18.287400 1.018100
18.328900 1.025100
18.370500 1.036200
18.412100 1.053700
18.453600 1.061300
18.495200 1.074900
18.536800 1.091200
18.578300 1.069500
18.619900 1.052100
18.661400 1.035900
18.703000 1.034800
18.744600 1.032100
18.786100 1.039300
18.827700 1.051100
18.869300 1.060500
18.910800 1.071700
18.952400 1.079600
18.994000 1.103000
19.035500 1.126000
19.077100 1.156600
19.118600 1.195500
19.160200 1.189100
19.201800 1.187400
19.243300 1.195600
19.284900 1.152900
19.326500 1.138100
19.368000 1.125200
19.409600 1.117000
19.451200 1.111300
19.492700 1.124800
19.534300 1.142900
19.575800 1.165500
19.617400 1.186600
19.659000 1.227500
19.700500 1.188900
19.742100 1.204200
19.783700 1.193200
19.825200 1.190900
19.866800 1.198900
19.908400 1.210400
19.949900 1.220200
19.991500 1.217700
20.033000 1.215000
20.074600 1.210800
20.116200 1.205300
20.157700 1.205200
20.199300 1.212500
20.240900 1.219600
20.282400 1.214200
20.324000 1.208200
20.365600 1.196700
20.407100 1.183500
20.448700 1.174400
20.490200 1.167700
20.531800 1.161500
20.573400 1.158800
20.614900 1.172900
20.656500 1.181100
20.698100 1.213300
20.739600 1.251000
20.781200 1.262400
20.822800 1.289800
20.864300 1.313800
20.905900 1.305800
20.947400 1.296300
20.989000 1.294100
21.030600 1.295400
21.072100 1.316700
21.113700 1.326900
21.155300 1.306900
21.196800 1.280900
21.238400 1.272700
21.280000 1.277000
21.321500 1.261500
21.363100 1.216200
21.404600 1.182300
21.446200 1.164000
21.487800 1.150800
21.529300 1.144300
21.570900 1.145600
21.612500 1.164600
21.654000 1.139600
21.695600 1.132800
21.737200 1.148700
21.778700 1.181600
21.820300 1.137500
21.861800 1.149700
21.903400 1.157800
21.945000 1.156200
21.986500 1.164400
22.028100 1.151200
22.069700 1.116100
22.111200 1.114600
22.152800 1.113100
22.194400 1.106800
22.235900 1.095500
22.277500 1.086100
22.319000 1.086600
22.360600 1.103500
22.402200 1.131800
22.443700 1.176400
22.485300 1.222500
22.526900 1.253200
22.568400 1.293600
22.610000 1.337000
22.651500 1.379500
22.693100 1.413800
22.734700 1.445400
22.776200 1.486300
22.817800 1.521000
22.859400 1.503500
22.900900 1.499100
22.942500 1.498000
22.984100 1.445100
23.025600 1.413600
23.067200 1.392100
23.108700 1.416100
23.150300 1.406700
23.191900 1.381400
23.233400 1.346700
23.275000 1.332200
23.316600 1.300100
23.358100 1.282600
23.399700 1.268500
23.441300 1.250800
23.482800 1.233900
23.524400 1.224100
23.565900 1.248600
23.607500 1.266400
23.649100 1.261600
23.690600 1.254400
23.732200 1.267400
23.773800 1.244800
23.815300 1.231900
23.856900 1.229900
23.898500 1.244000
23.940000 1.273600
23.981600 1.294200
24.023100 1.311600
24.064700 1.334800
24.106300 1.367800
24.147800 1.353300
24.189400 1.363200
24.231000 1.396000
24.272500 1.395200
24.314100 1.393900
24.355700 1.393800
24.397200 1.399400
24.438800 1.414000
24.480300 1.431800
24.521900 1.435200
24.563500 1.425300
24.605000 1.396400
24.646600 1.375400
24.688200 1.334900
24.729700 1.320000
24.771300 1.299500
24.812900 1.287300
24.854400 1.278100
24.896000 1.274500
24.937500 1.276300
24.979100 1.283200
25.020700 1.313700
25.062200 1.321100
25.103800 1.341000
25.145400 1.374700
25.186900 1.407700
25.228500 1.425800
25.270100 1.467700
25.311600 1.479800
25.353200 1.493500
25.394700 1.485400
25.436300 1.444500
25.477900 1.409500
25.519400 1.378100
25.561000 1.356000
25.602600 1.347800
25.644100 1.345300
25.685700 1.347200
25.727300 1.350700
25.768800 1.361200
25.810400 1.380000
25.851900 1.458400
25.893500 1.497300
25.935100 1.478600
25.976600 1.474500
26.018200 1.465000
26.059800 1.449100
26.101300 1.428300
26.142900 1.397900
26.184500 1.385200
26.226000 1.351600
26.267600 1.350700
26.309100 1.312900
26.350700 1.306200
26.392300 1.307000
26.433800 1.327600
26.475400 1.339700
26.517000 1.354000
26.558500 1.383500
26.600100 1.401100
26.641700 1.420600
26.683200 1.445800
26.724800 1.493600
26.766300 1.548900
26.807900 1.572700
26.849500 1.593100
26.891000 1.622400
26.932600 1.626900
26.974200 1.644100
27.015700 1.634600
27.057300 1.654700
27.098900 1.674800
27.140400 1.705000
27.182000 1.708200
27.223500 1.654500
27.265100 1.616300
27.306700 1.588500
27.348200 1.559500
27.389800 1.535400
27.431400 1.501200
27.472900 1.474500
27.514500 1.459900
27.556000 1.459200
27.597600 1.455500
27.639200 1.475200
27.680700 1.486100
27.722300 1.494200
27.763900 1.506600
27.805400 1.548200
27.847000 1.548500
27.888600 1.579500
27.930100 1.659700
27.971700 1.737700
28.013200 1.795200
28.054800 1.780900
28.096400 1.781500
28.137900 1.785500
28.179500 1.761400
28.221100 1.734200
28.262600 1.705400
28.304200 1.668800
28.345800 1.649100
28.387300 1.605700
28.428900 1.572200
28.470400 1.523900
28.512000 1.475000
28.553600 1.438100
28.595100 1.402300
28.636700 1.360200
28.678300 1.334800
28.719800 1.336300
28.761400 1.294700
28.803000 1.265000
28.844500 1.246700
28.886100 1.245100
28.927600 1.248200
28.969200 1.259100
29.010800 1.279700
29.052300 1.375900
29.093900 1.301500
29.135500 1.326100
29.177000 1.341300
29.218600 1.347800
29.260200 1.368700
29.301700 1.388400
29.343300 1.406400
29.384800 1.432200
29.426400 1.453500
29.468000 1.534600
29.509500 1.576600
29.551100 1.604500
29.592700 1.625300
29.634200 1.642400
29.675800 1.669200
29.717400 1.695300
29.758900 1.717300
29.800500 1.747600
29.842000 1.763500
29.883600 1.761200
29.925200 1.738300
29.966700 1.715000
30.008300 1.709300
30.049900 1.690800
30.091400 1.664100
30.133000 1.644700
30.174600 1.614200
30.216100 1.589800
30.257700 1.585100
30.299200 1.557400
30.340800 1.536900
30.382400 1.531000
30.423900 1.507100
30.465500 1.486400
30.507100 1.467900
30.548600 1.523900
30.590200 1.506700
30.631800 1.500500
30.673300 1.494900
30.714900 1.512900
30.756400 1.519500
30.798000 1.524400
30.839600 1.523900
30.881100 1.518500
30.922700 1.497400
30.964300 1.477300
31.005800 1.449300
31.047400 1.425800
31.089000 1.431800
31.130500 1.447500
31.172100 1.464900
31.213600 1.485100
31.255200 1.506100
31.296800 1.522300
31.338300 1.538100
31.379900 1.541200
31.421500 1.532200
31.463000 1.553900
31.504600 1.581500
31.546200 1.603700
31.587700 1.582700
31.629300 1.574500
31.670800 1.569800
31.712400 1.604700
31.754000 1.631500
31.795500 1.700300
31.837100 1.715700
31.878700 1.718100
31.920200 1.661300
31.961800 1.618600
32.003400 1.557700
32.044900 1.527000
32.086500 1.503300
32.128000 1.498200
32.169600 1.501400
32.211200 1.512100
32.252700 1.559400
32.294300 1.621300
32.335900 1.654200
32.377400 1.689000
32.419000 1.678800
32.460500 1.680000
32.502100 1.660400
32.543700 1.642100
32.585200 1.614500
32.626800 1.591000
32.668400 1.570600
32.709900 1.566400
