set title 'mp-755 - Density of States'
set xlabel 'Energy (eV)'
set ylabel 'DOS (states/eV)'
set grid
set xrange [-10:10]
set yrange [0:43.258]
set xzeroaxis lt -1
set terminal png size 800,600
set output 'mp-755_dos_gnuplot.png'
plot '-' using 1:2 with lines title 'DOS'
-5.356000 0.000000
-5.344600 0.000000
-5.333200 0.000000
-5.321800 0.000000
-5.310400 0.000000
-5.299000 0.000000
-5.287600 0.000000
-5.276200 0.000000
-5.264800 0.000000
-5.253400 0.000000
-5.242000 0.000000
-5.230600 0.000000
-5.219200 0.000000
-5.207800 0.000000
-5.196400 0.000000
-5.185000 0.000000
-5.173600 0.000000
-5.162200 0.000000
-5.150900 0.000000
-5.139500 0.000000
-5.128100 0.000000
-5.116700 0.000000
-5.105300 0.000000
-5.093900 0.000000
-5.082500 0.000000
-5.071100 0.000000
-5.059700 0.000000
-5.048300 0.000000
-5.036900 0.000000
-5.025500 0.000000
-5.014100 0.000000
-5.002700 0.000000
-4.991300 0.000000
-4.979900 0.000000
-4.968500 0.000000
-4.957100 0.000000
-4.945700 0.000000
-4.934300 0.000000
-4.922900 0.000000
-4.911500 0.000000
-4.900100 0.000000
-4.888700 0.000000
-4.877300 0.000000
-4.865900 0.000000
-4.854500 0.000000
-4.843100 0.000000
-4.831700 0.000000
-4.820300 0.000000
-4.808900 0.000000
-4.797500 0.000000
-4.786100 0.000000
-4.774700 0.000000
-4.763300 0.000000
-4.751900 0.000000
-4.740500 0.000000
-4.729100 0.000000
-4.717700 0.000000
-4.706300 0.000000
-4.694900 0.000000
-4.683500 0.000000
-4.672100 0.000000
-4.660700 0.000000
-4.649300 0.000000
-4.637900 0.000000
-4.626500 0.000000
-4.615100 0.000000
-4.603700 0.000000
-4.592300 0.000000
-4.580900 0.000000
-4.569500 0.000000
-4.558100 0.000000
-4.546700 0.000000
-4.535300 0.000000
-4.523900 0.000000
-4.512500 0.000000
-4.501100 0.000000
-4.489700 0.000000
-4.478300 0.000000
-4.466900 0.000000
-4.455500 0.000000
-4.444100 0.000000
-4.432700 0.000000
-4.421300 0.000000
-4.409900 0.000000
-4.398500 0.000000
-4.387100 0.000000
-4.375700 0.000000
-4.364300 0.000000
-4.352900 0.000000
-4.341500 0.000000
-4.330100 0.000000
-4.318700 0.000100
-4.307300 0.021400
-4.295900 0.078600
-4.284500 0.171800
-4.273100 0.289800
-4.261800 0.394700
-4.250400 0.425100
-4.239000 0.434200
-4.227600 0.433100
-4.216200 0.471300
-4.204800 0.511600
-4.193400 0.553000
-4.182000 0.595300
-4.170600 0.637700
-4.159200 0.676100
-4.147800 0.709000
-4.136400 0.732800
-4.125000 0.746000
-4.113600 0.761300
-4.102200 0.775400
-4.090800 0.791000
-4.079400 0.809000
-4.068000 0.829800
-4.056600 0.852000
-4.045200 0.874800
-4.033800 0.897700
-4.022400 0.920500
-4.011000 0.943500
-3.999600 0.966900
-3.988200 0.989900
-3.976800 1.011800
-3.965400 1.032500
-3.954000 1.049900
-3.942600 1.066700
-3.931200 1.085300
-3.919800 1.101800
-3.908400 1.115600
-3.897000 1.128300
-3.885600 1.141800
-3.874200 1.156600
-3.862800 1.171100
-3.851400 1.185300
-3.840000 1.199200
-3.828600 1.213400
-3.817200 1.228500
-3.805800 1.244400
-3.794400 1.260800
-3.783000 1.277800
-3.771600 1.295500
-3.760200 1.313600
-3.748800 1.331400
-3.737400 1.348400
-3.726000 1.364300
-3.714600 1.379300
-3.703200 1.393400
-3.691800 1.408800
-3.680400 1.423700
-3.669000 1.438200
-3.657600 1.452400
-3.646200 1.466500
-3.634800 1.480100
-3.623400 1.492400
-3.612000 1.504000
-3.600600 1.515800
-3.589200 1.528400
-3.577800 1.541700
-3.566400 1.555400
-3.555000 1.569600
-3.543600 1.584300
-3.532200 1.599300
-3.520800 1.614500
-3.509400 1.629800
-3.498000 1.645300
-3.486600 1.669300
-3.475200 1.703700
-3.463800 1.744400
-3.452400 1.776400
-3.441000 1.798500
-3.429600 1.812700
-3.418200 1.825100
-3.406800 1.835800
-3.395400 1.845400
-3.384000 1.866700
-3.372600 1.886300
-3.361300 1.903700
-3.349900 1.917200
-3.338500 1.936700
-3.327100 1.962400
-3.315700 1.991600
-3.304300 2.022900
-3.292900 2.056200
-3.281500 2.086200
-3.270100 2.096300
-3.258700 2.058600
-3.247300 2.010700
-3.235900 1.995500
-3.224500 2.006000
-3.213100 2.010700
-3.201700 1.998300
-3.190300 1.985200
-3.178900 1.971000
-3.167500 1.957100
-3.156100 1.944300
-3.144700 1.934600
-3.133300 1.928000
-3.121900 1.927400
-3.110500 1.929300
-3.099100 1.937900
-3.087700 1.954300
-3.076300 1.975500
-3.064900 1.999200
-3.053500 2.025300
-3.042100 2.042100
-3.030700 2.049300
-3.019300 2.052300
-3.007900 2.046100
-2.996500 2.042800
-2.985100 2.042700
-2.973700 2.054000
-2.962300 2.070000
-2.950900 2.087700
-2.939500 2.106100
-2.928100 2.126800
-2.916700 2.155900
-2.905300 2.200400
-2.893900 2.256300
-2.882500 2.310300
-2.871100 2.370800
-2.859700 2.442000
-2.848300 2.525700
-2.836900 2.621300
-2.825500 2.685200
-2.814100 2.704600
-2.802700 2.687800
-2.791300 2.686600
-2.779900 2.708200
-2.768500 2.748400
-2.757100 2.779700
-2.745700 2.780300
-2.734300 2.775700
-2.722900 2.790300
-2.711500 2.826200
-2.700100 2.880300
-2.688700 2.954600
-2.677300 3.006800
-2.665900 3.061400
-2.654500 3.145500
-2.643100 3.203700
-2.631700 3.264300
-2.620300 3.312000
-2.608900 3.346100
-2.597500 3.367100
-2.586100 3.374700
-2.574700 3.370100
-2.563300 3.339700
-2.551900 3.303300
-2.540500 3.253000
-2.529100 3.258200
-2.517700 3.307900
-2.506300 3.385800
-2.494900 3.285400
-2.483500 3.186300
-2.472200 3.096700
-2.460800 3.000400
-2.449400 2.901700
-2.438000 2.808500
-2.426600 2.721200
-2.415200 2.507800
-2.403800 2.407800
-2.392400 2.306800
-2.381000 2.204100
-2.369600 2.100900
-2.358200 2.023000
-2.346800 1.984300
-2.335400 1.978800
-2.324000 1.981200
-2.312600 1.989900
-2.301200 2.005800
-2.289800 2.033600
-2.278400 2.086500
-2.267000 2.152100
-2.255600 2.226300
-2.244200 2.322600
-2.232800 2.455200
-2.221400 2.577900
-2.210000 2.684800
-2.198600 2.803900
-2.187200 2.911800
-2.175800 3.006900
-2.164400 3.072600
-2.153000 3.161800
-2.141600 3.253700
-2.130200 3.294100
-2.118800 3.199700
-2.107400 3.128600
-2.096000 3.120400
-2.084600 3.126500
-2.073200 3.101500
-2.061800 3.065600
-2.050400 3.043300
-2.039000 3.031300
-2.027600 3.020200
-2.016200 3.012200
-2.004800 3.010100
-1.993400 3.039300
-1.982000 3.117700
-1.970600 3.188600
-1.959200 3.237500
-1.947800 3.264600
-1.936400 3.278600
-1.925000 3.307400
-1.913600 3.336700
-1.902200 3.363600
-1.890800 3.393300
-1.879400 3.438200
-1.868000 3.444600
-1.856600 3.445800
-1.845200 3.485300
-1.833800 3.624900
-1.822400 3.590300
-1.811000 3.496000
-1.799600 3.471500
-1.788200 3.465000
-1.776800 3.482200
-1.765400 3.499700
-1.754000 3.493300
-1.742600 3.482900
-1.731200 3.460900
-1.719800 3.427900
-1.708400 3.375300
-1.697000 3.396800
-1.685600 3.404300
-1.674200 3.417800
-1.662800 3.457200
-1.651400 3.528000
-1.640000 3.622200
-1.628600 3.715200
-1.617200 3.753900
-1.605800 3.793300
-1.594400 3.828600
-1.583000 3.837800
-1.571700 3.836300
-1.560300 3.829600
-1.548900 3.836500
-1.537500 3.860700
-1.526100 3.901200
-1.514700 3.959200
-1.503300 4.083700
-1.491900 4.234300
-1.480500 4.386500
-1.469100 4.489000
-1.457700 4.492600
-1.446300 4.473100
-1.434900 4.471100
-1.423500 4.482400
-1.412100 4.508700
-1.400700 4.546800
-1.389300 4.614500
-1.377900 4.691700
-1.366500 4.762500
-1.355100 4.843700
-1.343700 4.965600
-1.332300 5.105900
-1.320900 5.255600
-1.309500 5.415900
-1.298100 5.576100
-1.286700 5.994600
-1.275300 5.887000
-1.263900 5.924400
-1.252500 5.998100
-1.241100 6.004800
-1.229700 6.090200
-1.218300 6.329200
-1.206900 6.650400
-1.195500 6.520300
-1.184100 6.535400
-1.172700 6.550500
-1.161300 6.556300
-1.149900 6.526000
-1.138500 6.402400
-1.127100 6.198800
-1.115700 6.020800
-1.104300 5.890000
-1.092900 5.798700
-1.081500 5.674400
-1.070100 5.544300
-1.058700 5.313400
-1.047300 4.948700
-1.035900 4.750500
-1.024500 4.555400
-1.013100 4.427900
-1.001700 4.353200
-0.990300 4.239500
-0.978900 4.194500
-0.967500 4.175300
-0.956100 4.172200
-0.944700 4.168000
-0.933300 4.123400
-0.921900 4.129700
-0.910500 4.125200
-0.899100 4.102200
-0.887700 4.100300
-0.876300 4.125700
-0.864900 4.202000
-0.853500 4.337400
-0.842100 4.393800
-0.830700 4.304100
-0.819300 4.203200
-0.807900 4.147700
-0.796500 4.124700
-0.785100 4.116300
-0.773700 4.107300
-0.762300 4.114800
-0.750900 4.139300
-0.739500 4.154600
-0.728100 4.149000
-0.716700 4.156800
-0.705300 4.151100
-0.693900 4.169000
-0.682600 4.224000
-0.671200 4.274200
-0.659800 4.350500
-0.648400 4.440600
-0.637000 4.495800
-0.625600 4.517000
-0.614200 4.532100
-0.602800 4.545300
-0.591400 4.575700
-0.580000 4.632100
-0.568600 4.708200
-0.557200 4.727600
-0.545800 4.733000
-0.534400 4.721800
-0.523000 4.688800
-0.511600 4.697000
-0.500200 4.760300
-0.488800 5.135100
-0.477400 4.920100
-0.466000 4.449700
-0.454600 4.252600
-0.443200 4.109100
-0.431800 3.942500
-0.420400 3.830900
-0.409000 3.737500
-0.397600 3.653800
-0.386200 3.494000
-0.374800 3.282800
-0.363400 3.082600
-0.352000 2.914200
-0.340600 2.791600
-0.329200 2.732200
-0.317800 2.753100
-0.306400 2.317200
-0.295000 1.998900
-0.283600 1.589000
-0.272200 1.346700
-0.260800 1.387700
-0.249400 1.535100
-0.238000 1.672600
-0.226600 1.878600
-0.215200 2.117800
-0.203800 2.204700
-0.192400 2.454600
-0.181000 2.689900
-0.169600 2.841200
-0.158200 3.123800
-0.146800 3.380900
-0.135400 3.629600
-0.124000 3.796600
-0.112600 3.870800
-0.101200 4.000800
-0.089800 4.860700
-0.078400 6.832100
-0.067000 6.108800
-0.055600 5.654300
-0.044200 5.319900
-0.032800 5.350000
-0.021400 5.760900
-0.010000 6.279400
0.001400 6.802800
0.012800 7.283500
0.024200 7.717100
0.035600 7.769500
0.047000 8.120300
0.058400 8.342200
0.069800 8.098800
0.081200 7.712100
0.092600 7.478600
0.104000 7.283600
0.115400 7.368200
0.126800 7.509600
0.138200 7.795500
0.149600 7.586100
0.161000 7.386100
0.172400 7.953600
0.183800 8.477000
0.195200 8.492700
0.206600 8.302100
0.217900 7.862300
0.229300 7.354700
0.240700 6.740500
0.252100 6.238100
0.263500 5.846200
0.274900 5.507800
0.286300 5.218400
0.297700 4.976900
0.309100 4.751000
0.320500 4.552700
0.331900 4.385200
0.343300 4.230300
0.354700 4.057200
0.366100 3.879300
0.377500 3.644400
0.388900 3.426500
0.400300 3.216500
0.411700 3.024000
0.423100 2.818500
0.434500 2.622300
0.445900 2.440500
0.457300 2.287500
0.468700 2.119600
0.480100 1.966600
0.491500 1.829700
0.502900 1.715700
0.514300 1.658500
0.525700 1.528300
0.537100 1.397700
0.548500 1.283000
0.559900 1.229400
0.571300 1.163300
0.582700 1.089000
0.594100 1.007900
0.605500 0.910300
0.616900 0.810000
0.628300 0.689800
0.639700 0.584600
0.651100 0.491800
0.662500 0.403800
0.673900 0.283900
0.685300 0.106000
0.696700 0.011400
0.708100 0.000000
0.719500 0.000000
0.730900 0.000000
0.742300 0.000000
0.753700 0.000000
0.765100 0.000000
0.776500 0.000000
0.787900 0.000000
0.799300 0.000000
0.810700 0.000000
0.822100 0.000000
0.833500 0.000000
0.844900 0.000000
0.856300 0.000000
0.867700 0.000000
0.879100 0.000000
0.890500 0.000000
0.901900 0.000000
0.913300 0.000000
0.924700 0.000000
0.936100 0.000000
0.947500 0.000000
0.958900 0.000000
0.970300 0.000000
0.981700 0.000000
0.993100 0.000000
1.004500 0.000000
1.015900 0.000000
1.027300 0.000000
1.038700 0.000000
1.050100 0.000000
1.061500 0.000000
1.072900 0.000000
1.084300 0.000000
1.095700 0.000000
1.107000 0.000000
1.118400 0.000000
1.129800 0.000000
1.141200 0.000000
1.152600 0.000000
1.164000 0.000000
1.175400 0.000000
1.186800 0.000000
1.198200 0.000000
1.209600 0.000000
1.221000 0.000000
1.232400 0.000000
1.243800 0.000000
1.255200 0.000000
1.266600 0.000000
1.278000 0.000000
1.289400 0.000000
1.300800 0.000000
1.312200 0.000000
1.323600 0.000000
1.335000 0.000000
1.346400 0.000000
1.357800 0.000000
1.369200 0.000000
1.380600 0.000000
1.392000 0.000000
1.403400 0.000000
1.414800 0.000000
1.426200 0.000000
1.437600 0.000000
1.449000 0.000000
1.460400 0.000000
1.471800 0.000000
1.483200 0.000000
1.494600 0.000000
1.506000 0.000000
1.517400 0.000000
1.528800 0.000000
1.540200 0.000000
1.551600 0.000000
1.563000 0.000000
1.574400 0.000000
1.585800 0.000000
1.597200 0.000000
1.608600 0.000000
1.620000 0.000000
1.631400 0.000000
1.642800 0.000000
1.654200 0.000000
1.665600 0.000000
1.677000 0.000000
1.688400 0.000000
1.699800 0.000000
1.711200 0.000000
1.722600 0.000000
1.734000 0.000000
1.745400 0.000000
1.756800 0.000000
1.768200 0.000000
1.779600 0.000000
1.791000 0.000000
1.802400 0.000000
1.813800 0.000000
1.825200 0.000000
1.836600 0.000000
1.848000 0.000000
1.859400 0.000000
1.870800 0.000000
1.882200 0.000000
1.893600 0.000000
1.905000 0.000000
1.916400 0.000000
1.927800 0.000000
1.939200 0.000000
1.950600 0.000000
1.962000 0.000000
1.973400 0.000000
1.984800 0.000000
1.996200 0.000000
2.007500 0.000000
2.018900 0.000000
2.030300 0.000000
2.041700 0.000000
2.053100 0.000000
2.064500 0.000000
2.075900 0.000000
2.087300 0.000000
2.098700 0.000000
2.110100 0.000000
2.121500 0.000000
2.132900 0.000000
2.144300 0.000000
2.155700 0.000000
2.167100 0.000000
2.178500 0.000000
2.189900 0.000000
2.201300 0.000000
2.212700 0.000000
2.224100 0.000000
2.235500 0.000000
2.246900 0.000000
2.258300 0.000000
2.269700 0.000000
2.281100 0.000000
2.292500 0.000000
2.303900 0.000000
2.315300 0.000000
2.326700 0.001200
2.338100 0.005100
2.349500 0.011700
2.360900 0.021100
2.372300 0.032300
2.383700 0.044700
2.395100 0.058300
2.406500 0.073000
2.417900 0.089000
2.429300 0.106000
2.440700 0.124300
2.452100 0.143700
2.463500 0.209600
2.474900 0.262200
2.486300 0.285600
2.497700 0.293400
2.509100 0.268900
2.520500 0.280200
2.531900 0.319900
2.543300 0.365100
2.554700 0.414600
2.566100 0.468400
2.577500 0.527300
2.588900 0.593700
2.600300 0.667800
2.611700 0.761900
2.623100 0.855300
2.634500 0.929000
2.645900 0.983400
2.657300 0.994100
2.668700 1.013100
2.680100 1.089900
2.691500 1.225300
2.702900 1.419400
2.714300 1.667700
2.725700 1.889400
2.737100 2.060200
2.748500 2.214700
2.759900 2.373100
2.771300 2.533000
2.782700 2.693600
2.794100 2.846200
2.805500 2.923700
2.816900 2.901400
2.828300 2.960700
2.839700 3.062000
2.851100 3.237200
2.862500 3.406000
2.873900 3.566700
2.885300 3.718300
2.896600 3.855900
2.908000 4.024500
2.919400 4.268800
2.930800 4.305700
2.942200 4.096200
2.953600 4.041400
2.965000 4.061100
2.976400 4.126600
2.987800 4.266800
2.999200 4.514700
3.010600 4.801800
3.022000 4.954800
3.033400 5.029700
3.044800 5.057500
3.056200 5.018800
3.067600 4.999400
3.079000 4.940800
3.090400 4.915700
3.101800 4.952700
3.113200 4.987800
3.124600 5.030800
3.136000 5.101900
3.147400 5.192900
3.158800 5.259600
3.170200 5.492500
3.181600 5.828600
3.193000 5.554200
3.204400 5.486300
3.215800 5.541100
3.227200 5.696100
3.238600 5.831900
3.250000 5.834500
3.261400 5.819700
3.272800 5.907600
3.284200 6.017500
3.295600 6.110200
3.307000 6.190400
3.318400 6.262100
3.329800 6.330800
3.341200 6.392200
3.352600 6.454200
3.364000 6.561000
3.375400 6.737200
3.386800 6.877500
3.398200 6.959500
3.409600 7.045300
3.421000 7.096900
3.432400 7.147800
3.443800 7.214900
3.455200 7.326800
3.466600 7.491700
3.478000 7.722300
3.489400 7.821000
3.500800 7.795000
3.512200 7.789200
3.523600 7.734100
3.535000 7.578900
3.546400 7.471900
3.557800 7.397100
3.569200 7.335700
3.580600 7.323900
3.592000 7.362200
3.603400 7.445100
3.614800 7.473200
3.626200 7.420300
3.637600 7.344000
3.649000 7.323000
3.660400 7.205300
3.671800 7.118100
3.683200 7.029400
3.694600 7.085900
3.706000 6.779400
3.717400 6.722700
3.728800 6.770500
3.740200 6.725800
3.751600 6.506500
3.763000 6.013300
3.774400 5.839500
3.785800 5.868400
3.797100 5.893600
3.808500 5.922700
3.819900 5.931800
3.831300 5.980800
3.842700 6.084200
3.854100 6.232800
3.865500 6.360200
3.876900 6.748800
3.888300 6.940000
3.899700 7.188600
3.911100 7.043300
3.922500 6.972800
3.933900 6.709200
3.945300 6.640800
3.956700 6.618100
3.968100 6.648800
3.979500 6.612600
3.990900 6.491000
4.002300 6.309300
4.013700 6.210300
4.025100 6.139000
4.036500 6.064600
4.047900 5.863500
4.059300 5.831400
4.070700 5.763700
4.082100 5.646900
4.093500 5.534500
4.104900 5.417300
4.116300 5.393500
4.127700 5.439900
4.139100 5.442900
4.150500 5.428500
4.161900 5.477400
4.173300 5.573100
4.184700 5.679000
4.196100 5.788900
4.207500 5.859600
4.218900 5.885100
4.230300 5.910500
4.241700 5.943200
4.253100 6.019900
4.264500 6.082600
4.275900 6.150900
4.287300 6.164100
4.298700 6.173400
4.310100 6.126700
4.321500 6.100200
4.332900 6.116800
4.344300 6.093600
4.355700 6.043200
4.367100 6.039500
4.378500 6.007300
4.389900 5.985900
4.401300 5.958700
4.412700 5.900100
4.424100 5.893200
4.435500 5.863800
4.446900 5.849100
4.458300 5.937600
4.469700 6.101400
4.481100 6.188900
4.492500 6.225700
4.503900 6.261200
4.515300 6.296400
4.526700 6.285900
4.538100 6.259400
4.549500 6.206100
4.560900 6.164300
4.572300 6.102500
4.583700 6.015900
4.595100 5.958200
4.606500 5.898600
4.617900 5.861200
4.629300 5.900800
4.640700 5.970300
4.652100 6.201000
4.663500 6.334600
4.674900 6.402200
4.686200 6.470100
4.697600 6.575200
4.709000 6.686200
4.720400 6.700900
4.731800 6.642000
4.743200 6.562800
4.754600 6.478700
4.766000 6.426800
4.777400 6.344200
4.788800 6.325400
4.800200 6.301800
4.811600 6.144000
4.823000 6.005900
4.834400 5.764600
4.845800 5.484200
4.857200 5.365500
4.868600 5.304900
4.880000 5.253500
4.891400 5.280300
4.902800 5.347000
4.914200 5.399100
4.925600 5.477800
4.937000 5.612900
4.948400 5.744800
4.959800 5.719300
4.971200 5.915800
4.982600 6.132400
4.994000 6.017700
5.005400 5.946300
5.016800 5.962300
5.028200 6.046100
5.039600 6.210900
5.051000 6.285600
5.062400 6.340600
5.073800 6.482400
5.085200 6.678700
5.096600 6.821200
5.108000 6.934100
5.119400 6.994000
5.130800 7.168000
5.142200 7.445600
5.153600 7.747800
5.165000 7.894300
5.176400 7.883000
5.187800 7.868800
5.199200 7.918100
5.210600 7.967000
5.222000 8.001700
5.233400 8.154800
5.244800 8.029300
5.256200 7.580600
5.267600 7.345000
5.279000 7.047900
5.290400 6.772500
5.301800 6.637700
5.313200 6.596700
5.324600 6.539800
5.336000 6.589900
5.347400 6.950400
5.358800 6.555000
5.370200 6.764300
5.381600 7.099100
5.393000 7.598800
5.404400 8.071100
5.415800 8.456500
5.427200 8.475600
5.438600 8.717000
5.450000 8.493000
5.461400 8.318400
5.472800 7.964200
5.484200 7.827800
5.495600 7.976900
5.507000 8.656500
5.518400 10.455100
5.529800 12.379500
5.541200 13.102800
5.552600 13.889900
5.564000 14.556800
5.575400 14.977100
5.586700 14.566000
5.598100 13.680200
5.609500 13.196000
5.620900 13.071900
5.632300 12.862400
5.643700 12.934400
5.655100 13.672900
5.666500 15.759200
5.677900 16.168900
5.689300 16.139100
5.700700 15.216100
5.712100 14.023100
5.723500 13.100700
5.734900 12.305200
5.746300 12.174900
5.757700 12.686300
5.769100 13.559900
5.780500 13.844600
5.791900 14.660500
5.803300 15.541500
5.814700 17.314300
5.826100 17.392200
5.837500 15.821500
5.848900 16.145700
5.860300 15.873500
5.871700 15.937900
5.883100 17.299000
5.894500 18.186400
5.905900 19.057300
5.917300 18.009400
5.928700 17.602000
5.940100 16.512900
5.951500 15.504700
5.962900 15.711000
5.974300 15.553000
5.985700 15.396300
5.997100 15.863400
6.008500 15.666500
6.019900 13.838700
6.031300 12.572100
6.042700 12.343400
6.054100 12.728200
6.065500 13.778100
6.076900 15.226400
6.088300 13.728100
6.099700 14.336300
6.111100 15.338700
6.122500 15.532900
6.133900 15.647500
6.145300 14.947500
6.156700 15.914400
6.168100 16.697900
6.179500 16.618400
6.190900 14.509800
6.202300 13.833600
6.213700 14.837700
6.225100 17.780500
6.236500 18.647800
6.247900 18.117200
6.259300 17.246800
6.270700 16.260300
6.282100 15.286300
6.293500 14.265600
6.304900 12.904600
6.316300 13.617600
6.327700 12.302000
6.339100 13.299100
6.350500 14.474700
6.361900 14.730700
6.373300 16.201000
6.384700 17.211200
6.396100 18.158700
6.407500 21.172900
6.418900 21.580300
6.430300 22.714300
6.441700 23.530500
6.453100 24.119500
6.464500 26.220300
6.475800 28.698800
6.487200 27.586700
6.498600 25.048000
6.510000 20.845600
6.521400 20.714500
6.532800 19.536900
6.544200 19.673300
6.555600 20.173800
6.567000 21.814700
6.578400 22.389900
6.589800 23.292900
6.601200 19.947100
6.612600 16.940400
6.624000 14.978500
6.635400 13.631000
6.646800 15.222500
6.658200 19.416300
6.669600 28.136100
6.681000 35.114000
6.692400 36.934100
6.703800 29.283400
6.715200 25.912400
6.726600 22.431900
6.738000 19.198700
6.749400 16.194400
