set title 'mp-865357 - Density of States'
set xlabel 'Energy (eV)'
set ylabel 'DOS (states/eV)'
set grid
set xrange [-10:10]
set yrange [0:36.026]
set xzeroaxis lt -1
set terminal png size 800,600
set output 'mp-865357_dos_gnuplot.png'
plot '-' using 1:2 with lines title 'DOS'
-7.979500 0.000000
-7.957800 0.000000
-7.936200 0.000000
-7.914500 0.000000
-7.892800 0.000000
-7.871200 0.000000
-7.849500 0.000000
-7.827900 0.000000
-7.806200 0.000000
-7.784600 0.000000
-7.762900 0.000000
-7.741300 0.000000
-7.719600 0.000000
-7.698000 0.000000
-7.676300 0.000000
-7.654700 0.000000
-7.633000 0.000000
-7.611300 0.000000
-7.589700 0.000000
-7.568000 0.000000
-7.546400 0.000000
-7.524700 0.000000
-7.503100 0.000000
-7.481400 0.000000
-7.459800 0.000000
-7.438100 0.000000
-7.416500 0.000000
-7.394800 0.000000
-7.373100 0.000000
-7.351500 0.000000
-7.329800 0.000000
-7.308200 0.000000
-7.286500 0.000000
-7.264900 0.000000
-7.243200 0.000000
-7.221600 0.000000
-7.199900 0.000000
-7.178300 0.000000
-7.156600 0.000000
-7.135000 0.000000
-7.113300 0.000000
-7.091600 0.000000
-7.070000 0.000000
-7.048300 0.000000
-7.026700 0.000000
-7.005000 0.000000
-6.983400 0.000000
-6.961700 0.000000
-6.940100 0.000000
-6.918400 0.000000
-6.896800 0.000000
-6.875100 0.000000
-6.853400 0.000000
-6.831800 0.000000
-6.810100 0.000000
-6.788500 0.000000
-6.766800 0.000000
-6.745200 0.000000
-6.723500 0.000000
-6.701900 0.000000
-6.680200 0.000000
-6.658600 0.000000
-6.636900 0.000000
-6.615300 0.000000
-6.593600 0.000000
-6.571900 0.000000
-6.550300 0.000000
-6.528600 0.000000
-6.507000 0.000000
-6.485300 0.000000
-6.463700 0.000000
-6.442000 0.000000
-6.420400 0.000000
-6.398700 0.000000
-6.377100 0.000000
-6.355400 0.000000
-6.333700 0.000000
-6.312100 0.000000
-6.290400 0.000000
-6.268800 0.000000
-6.247100 0.000000
-6.225500 0.000000
-6.203800 0.000000
-6.182200 0.000000
-6.160500 0.000000
-6.138900 0.000000
-6.117200 0.000100
-6.095600 0.000800
-6.073900 0.003100
-6.052200 0.009300
-6.030600 0.019800
-6.008900 0.032500
-5.987300 0.045400
-5.965600 0.060500
-5.944000 0.081300
-5.922300 0.114000
-5.900700 0.162300
-5.879000 0.208300
-5.857400 0.215600
-5.835700 0.170800
-5.814000 0.104400
-5.792400 0.062500
-5.770700 0.073400
-5.749100 0.139300
-5.727400 0.231900
-5.705800 0.299900
-5.684100 0.309200
-5.662500 0.280100
-5.640800 0.262800
-5.619200 0.286300
-5.597500 0.333900
-5.575900 0.348800
-5.554200 0.292300
-5.532500 0.202900
-5.510900 0.147000
-5.489200 0.138900
-5.467600 0.165100
-5.445900 0.238900
-5.424300 0.357900
-5.402600 0.449800
-5.381000 0.447900
-5.359300 0.386500
-5.337700 0.349100
-5.316000 0.370100
-5.294300 0.418700
-5.272700 0.429000
-5.251000 0.360300
-5.229400 0.252400
-5.207700 0.202400
-5.186100 0.277900
-5.164400 0.449100
-5.142800 0.602000
-5.121100 0.642700
-5.099500 0.587600
-5.077800 0.527200
-5.056100 0.516100
-5.034500 0.519900
-5.012800 0.471300
-4.991200 0.377700
-4.969500 0.315700
-4.947900 0.320000
-4.926200 0.362100
-4.904600 0.413300
-4.882900 0.457800
-4.861300 0.492400
-4.839600 0.554100
-4.818000 0.680200
-4.796300 0.820800
-4.774600 0.865100
-4.753000 0.790800
-4.731300 0.721800
-4.709700 0.778900
-4.688000 0.917900
-4.666400 0.995000
-4.644700 0.949900
-4.623100 0.847900
-4.601400 0.773900
-4.579800 0.746100
-4.558100 0.752900
-4.536400 0.821800
-4.514800 0.981700
-4.493100 1.193400
-4.471500 1.384100
-4.449800 1.547700
-4.428200 1.781400
-4.406500 2.231800
-4.384900 2.990800
-4.363200 4.014200
-4.341600 5.202400
-4.319900 6.538800
-4.298300 8.010900
-4.276600 9.487200
-4.254900 10.844200
-4.233300 12.090700
-4.211600 13.359000
-4.190000 14.921700
-4.168300 16.956600
-4.146700 19.110800
-4.125000 20.629000
-4.103400 21.173300
-4.081700 21.295000
-4.060100 21.751500
-4.038400 22.586600
-4.016700 23.337900
-3.995100 23.845900
-3.973400 24.249500
-3.951800 24.429000
-3.930100 24.085200
-3.908500 23.230000
-3.886800 22.224900
-3.865200 21.517400
-3.843500 21.404600
-3.821900 21.731100
-3.800200 21.914200
-3.778600 21.596000
-3.756900 21.116100
-3.735200 21.061000
-3.713600 21.511200
-3.691900 22.014800
-3.670300 22.244800
-3.648600 22.432500
-3.627000 23.078100
-3.605300 24.518600
-3.583700 26.855900
-3.562000 29.747200
-3.540400 32.108700
-3.518700 32.750900
-3.497000 31.657400
-3.475400 30.118800
-3.453700 29.321500
-3.432100 29.293800
-3.410400 29.419400
-3.388800 29.399500
-3.367100 29.500400
-3.345500 30.045200
-3.323800 30.591100
-3.302200 30.055300
-3.280500 28.058200
-3.258900 25.372600
-3.237200 22.847000
-3.215500 20.761600
-3.193900 19.194300
-3.172200 18.399100
-3.150600 18.744300
-3.128900 20.067400
-3.107300 21.114600
-3.085600 20.448700
-3.064000 18.010900
-3.042300 14.904600
-3.020700 11.899000
-2.999000 9.110600
-2.977300 6.690800
-2.955700 4.919100
-2.934000 3.792900
-2.912400 2.983600
-2.890700 2.208800
-2.869100 1.505000
-2.847400 1.100900
-2.825800 1.095200
-2.804100 1.334800
-2.782500 1.569400
-2.760800 1.640700
-2.739200 1.553800
-2.717500 1.432500
-2.695800 1.391300
-2.674200 1.426200
-2.652500 1.426100
-2.630900 1.299300
-2.609200 1.087000
-2.587600 0.912900
-2.565900 0.835800
-2.544300 0.839000
-2.522600 0.913800
-2.501000 1.042000
-2.479300 1.148300
-2.457600 1.160300
-2.436000 1.102500
-2.414300 1.074400
-2.392700 1.106900
-2.371000 1.095600
-2.349400 0.938900
-2.327700 0.709200
-2.306100 0.599600
-2.284400 0.698100
-2.262800 0.900100
-2.241100 1.049700
-2.219400 1.077400
-2.197800 1.004900
-2.176100 0.918600
-2.154500 0.932400
-2.132800 1.089200
-2.111200 1.314600
-2.089500 1.512500
-2.067900 1.639700
-2.046200 1.677100
-2.024600 1.644100
-2.002900 1.649100
-1.981300 1.792600
-1.959600 2.011100
-1.937900 2.161300
-1.916300 2.207600
-1.894600 2.155300
-1.873000 1.948500
-1.851300 1.630000
-1.829700 1.394200
-1.808000 1.332500
-1.786400 1.332500
-1.764700 1.299200
-1.743100 1.301800
-1.721400 1.454000
-1.699700 1.722000
-1.678100 1.899900
-1.656400 1.817300
-1.634800 1.533000
-1.613100 1.256200
-1.591500 1.123300
-1.569800 1.136400
-1.548200 1.263900
-1.526500 1.463000
-1.504900 1.608200
-1.483200 1.586100
-1.461600 1.470400
-1.439900 1.430500
-1.418200 1.513200
-1.396600 1.652400
-1.374900 1.786800
-1.353300 1.841900
-1.331600 1.714200
-1.310000 1.406900
-1.288300 1.099200
-1.266700 0.999600
-1.245000 1.163000
-1.223400 1.457100
-1.201700 1.657200
-1.180000 1.615600
-1.158400 1.403300
-1.136700 1.242200
-1.115100 1.281000
-1.093400 1.483500
-1.071800 1.699400
-1.050100 1.811000
-1.028500 1.819600
-1.006800 1.771800
-0.985200 1.659100
-0.963500 1.490400
-0.941900 1.387600
-0.920200 1.487000
-0.898500 1.783900
-0.876900 2.130800
-0.855200 2.352700
-0.833600 2.356700
-0.811900 2.194200
-0.790300 2.030400
-0.768600 1.996600
-0.747000 2.083000
-0.725300 2.176300
-0.703700 2.171200
-0.682000 2.068000
-0.660300 1.975500
-0.638700 1.989300
-0.617000 2.108900
-0.595400 2.289500
-0.573700 2.478700
-0.552100 2.612900
-0.530400 2.707000
-0.508800 2.917200
-0.487100 3.359300
-0.465500 3.919700
-0.443800 4.421600
-0.422200 4.862900
-0.400500 5.295800
-0.378800 5.629100
-0.357200 5.762300
-0.335500 5.836100
-0.313900 6.176900
-0.292200 6.960700
-0.270600 7.980200
-0.248900 8.774200
-0.227300 8.999000
-0.205600 8.682600
-0.184000 8.146400
-0.162300 7.731500
-0.140600 7.532300
-0.119000 7.320700
-0.097300 6.823500
-0.075700 6.139000
-0.054000 5.718200
-0.032400 5.848700
-0.010700 6.427000
0.010900 7.288100
0.032600 8.339600
0.054200 9.310100
0.075900 9.801800
0.097500 9.740500
0.119200 9.489500
0.140900 9.397000
0.162500 9.439800
0.184200 9.432200
0.205800 9.357900
0.227500 9.297700
0.249100 9.242800
0.270800 9.108500
0.292400 8.819300
0.314100 8.346500
0.335700 7.711500
0.357400 7.030200
0.379100 6.427300
0.400700 5.797200
0.422400 4.908500
0.444000 3.808800
0.465700 2.817300
0.487300 2.160400
0.509000 1.856200
0.530600 1.821500
0.552300 1.938100
0.573900 2.107700
0.595600 2.268500
0.617200 2.334800
0.638900 2.205300
0.660600 1.879300
0.682200 1.487500
0.703900 1.166100
0.725500 0.942700
0.747200 0.791000
0.768800 0.740400
0.790500 0.831300
0.812100 1.006900
0.833800 1.140800
0.855400 1.145100
0.877100 1.021100
0.898800 0.828500
0.920400 0.656700
0.942100 0.617200
0.963700 0.774900
0.985400 1.087900
1.007000 1.496800
1.028700 2.003300
1.050300 2.561400
1.072000 2.995600
1.093600 3.140000
1.115300 2.992900
1.137000 2.687700
1.158600 2.379500
1.180300 2.221600
1.201900 2.301100
1.223600 2.462100
1.245200 2.409800
1.266900 2.096900
1.288500 1.765300
1.310200 1.613800
1.331800 1.634900
1.353500 1.700900
1.375100 1.683000
1.396800 1.538100
1.418500 1.327000
1.440100 1.143100
1.461800 1.046100
1.483400 1.058100
1.505100 1.165300
1.526700 1.306000
1.548400 1.399500
1.570000 1.396100
1.591700 1.286000
1.613300 1.116600
1.635000 1.021100
1.656700 1.136300
1.678300 1.453700
1.700000 1.786100
1.721600 1.898500
1.743300 1.714000
1.764900 1.375800
1.786600 1.064900
1.808200 0.837400
1.829900 0.677700
1.851500 0.600500
1.873200 0.658000
1.894800 0.881500
1.916500 1.225400
1.938200 1.572600
1.959800 1.793600
1.981500 1.821100
2.003100 1.713100
2.024800 1.588400
2.046400 1.473700
2.068100 1.326100
2.089700 1.184700
2.111400 1.146700
2.133000 1.204700
2.154700 1.245300
2.176400 1.202200
2.198000 1.098200
2.219700 0.969400
2.241300 0.837000
2.263000 0.742500
2.284600 0.748100
2.306300 0.879100
2.327900 1.095700
2.349600 1.329300
2.371200 1.496700
2.392900 1.507600
2.414500 1.355600
2.436200 1.151700
2.457900 1.008400
2.479500 0.970600
2.501200 1.039000
2.522800 1.185300
2.544500 1.354500
2.566100 1.447100
2.587800 1.353700
2.609400 1.087700
2.631100 0.806000
2.652700 0.655900
2.674400 0.683300
2.696100 0.881800
2.717700 1.220300
2.739400 1.583700
2.761000 1.813200
2.782700 1.888000
2.804300 1.903800
2.826000 1.871600
2.847600 1.788900
2.869300 1.811400
2.890900 2.079100
2.912600 2.448000
2.934200 2.585100
2.955900 2.317000
2.977600 1.790100
2.999200 1.288900
3.020900 0.969800
3.042500 0.806300
3.064200 0.720100
3.085800 0.658400
3.107500 0.598000
3.129100 0.567000
3.150800 0.607200
3.172400 0.699400
3.194100 0.798100
3.215800 0.917400
3.237400 1.100100
3.259100 1.300800
3.280700 1.386600
3.302400 1.301600
3.324000 1.129500
3.345700 0.949500
3.367300 0.756100
3.389000 0.547600
3.410600 0.386100
3.432300 0.351400
3.453900 0.468100
3.475600 0.680400
3.497300 0.900900
3.518900 1.091700
3.540600 1.295900
3.562200 1.554800
3.583900 1.784900
3.605500 1.819000
3.627200 1.600500
3.648800 1.257300
3.670500 0.966100
3.692100 0.798800
3.713800 0.725800
3.735500 0.737300
3.757100 0.864200
3.778800 1.056900
3.800400 1.151500
3.822100 1.040400
3.843700 0.809600
3.865400 0.630200
3.887000 0.583400
3.908700 0.648400
3.930300 0.768700
3.952000 0.884300
3.973700 0.956500
3.995300 0.966300
4.017000 0.908900
4.038600 0.828000
4.060300 0.778600
4.081900 0.757400
4.103600 0.748500
4.125200 0.748700
4.146900 0.708900
4.168500 0.577500
4.190200 0.407100
4.211800 0.319300
4.233500 0.358800
4.255200 0.442000
4.276800 0.480100
4.298500 0.502200
4.320100 0.587300
4.341800 0.726100
4.363400 0.827700
4.385100 0.820900
4.406700 0.707600
4.428400 0.565100
4.450000 0.506200
4.471700 0.575700
4.493400 0.702600
4.515000 0.822000
4.536700 0.971500
4.558300 1.181100
4.580000 1.361800
4.601600 1.430300
4.623300 1.476300
4.644900 1.624300
4.666600 1.798100
4.688200 1.820800
4.709900 1.632200
4.731500 1.286100
4.753200 0.903700
4.774900 0.673400
4.796500 0.738500
4.818200 1.055000
4.839800 1.419700
4.861500 1.642400
4.883100 1.668500
4.904800 1.549700
4.926400 1.369600
4.948100 1.215300
4.969700 1.133000
4.991400 1.088700
5.013100 1.067300
5.034700 1.160400
5.056400 1.411400
5.078000 1.667300
5.099700 1.735900
5.121300 1.608400
5.143000 1.427100
5.164600 1.313900
5.186300 1.285100
5.207900 1.273900
5.229600 1.199700
5.251200 1.051300
5.272900 0.917300
5.294600 0.878900
5.316200 0.896200
5.337900 0.889700
5.359500 0.884600
5.381200 0.959700
5.402800 1.110800
5.424500 1.260800
5.446100 1.336800
5.467800 1.301900
5.489400 1.171000
5.511100 0.997500
5.532800 0.836100
5.554400 0.728300
5.576100 0.709000
5.597700 0.789600
5.619400 0.944400
5.641000 1.143800
5.662700 1.354000
5.684300 1.494600
5.706000 1.498600
5.727600 1.417400
5.749300 1.356800
5.770900 1.340300
5.792600 1.334400
5.814300 1.352500
5.835900 1.417500
5.857600 1.477400
5.879200 1.468700
5.900900 1.402300
5.922500 1.304000
5.944200 1.154500
5.965800 0.949700
5.987500 0.765100
6.009100 0.713500
6.030800 0.842800
6.052500 1.087300
6.074100 1.316000
6.095800 1.439000
6.117400 1.485300
6.139100 1.563000
6.160700 1.721200
6.182400 1.882400
6.204000 1.930900
6.225700 1.832000
6.247300 1.659000
6.269000 1.507000
6.290600 1.395400
6.312300 1.282100
6.334000 1.164300
6.355600 1.104900
6.377300 1.143100
6.398900 1.220600
6.420600 1.230800
6.442200 1.123800
6.463900 0.946300
6.485500 0.785700
6.507200 0.695600
6.528800 0.700100
6.550500 0.816400
6.572200 1.007200
6.593800 1.157400
6.615500 1.168300
6.637100 1.056800
6.658800 0.928900
6.680400 0.867400
6.702100 0.866200
6.723700 0.876600
6.745400 0.897800
6.767000 0.977700
6.788700 1.112800
6.810300 1.238400
6.832000 1.352500
6.853700 1.501500
6.875300 1.646900
6.897000 1.730800
6.918600 1.780400
6.940300 1.798000
6.961900 1.696700
6.983600 1.462300
7.005200 1.231500
7.026900 1.142200
7.048500 1.213900
7.070200 1.387500
7.091900 1.566100
7.113500 1.614600
7.135200 1.441200
7.156800 1.128200
7.178500 0.889500
7.200100 0.857400
7.221800 0.994600
7.243400 1.189900
7.265100 1.338500
7.286700 1.371800
7.308400 1.290900
7.330100 1.163100
7.351700 1.061200
7.373400 1.007400
7.395000 0.974600
7.416700 0.945000
7.438300 0.940700
7.460000 0.981800
7.481600 1.064500
7.503300 1.184400
7.524900 1.321400
7.546600 1.410500
7.568200 1.403900
7.589900 1.337100
7.611600 1.271500
7.633200 1.214700
7.654900 1.144000
7.676500 1.070800
7.698200 1.037700
7.719800 1.070200
7.741500 1.160700
7.763100 1.274600
7.784800 1.336400
7.806400 1.264100
7.828100 1.064900
7.849800 0.861900
7.871400 0.810200
7.893100 0.983200
7.914700 1.311300
7.936400 1.623500
7.958000 1.779100
7.979700 1.769000
8.001300 1.665000
8.023000 1.520600
8.044600 1.394100
8.066300 1.356400
8.087900 1.372200
8.109600 1.301200
8.131300 1.104100
8.152900 0.922100
8.174600 0.886900
8.196200 0.975700
8.217900 1.103200
8.239500 1.227300
8.261200 1.309900
8.282800 1.302100
8.304500 1.244000
8.326100 1.269900
8.347800 1.442700
8.369500 1.662300
8.391100 1.768400
8.412800 1.697700
8.434400 1.530200
8.456100 1.371500
8.477700 1.247600
8.499400 1.162700
8.521000 1.166800
8.542700 1.296400
8.564300 1.508500
8.586000 1.719700
8.607600 1.871200
8.629300 1.934300
8.651000 1.895600
8.672600 1.760700
8.694300 1.593700
8.715900 1.508900
8.737600 1.535800
8.759200 1.560700
8.780900 1.457600
8.802500 1.202500
8.824200 0.878000
8.845800 0.635500
8.867500 0.613000
8.889200 0.839500
8.910800 1.211000
8.932500 1.559600
8.954100 1.739500
8.975800 1.687300
8.997400 1.471900
9.019100 1.250900
9.040700 1.151900
9.062400 1.201100
9.084000 1.340000
9.105700 1.503100
9.127300 1.650900
9.149000 1.739800
9.170700 1.732000
9.192300 1.634000
9.214000 1.516300
9.235600 1.471700
9.257300 1.510600
9.278900 1.535700
9.300600 1.455300
9.322200 1.288500
9.343900 1.166200
9.365500 1.219700
9.387200 1.427200
9.408900 1.632900
9.430500 1.750200
9.452200 1.805500
9.473800 1.794100
9.495500 1.703200
9.517100 1.637100
9.538800 1.715200
9.560400 1.888600
9.582100 1.987200
9.603700 1.884500
9.625400 1.584500
9.647000 1.242800
9.668700 1.082600
9.690400 1.202900
9.712000 1.500000
9.733700 1.804000
9.755300 2.016400
9.777000 2.095000
9.798600 2.004800
9.820300 1.750500
9.841900 1.409100
9.863600 1.102900
9.885200 0.964900
9.906900 1.069200
9.928600 1.351800
9.950200 1.663900
9.971900 1.888700
9.993500 1.957900
10.015200 1.867400
10.036800 1.726000
10.058500 1.671400
10.080100 1.703700
10.101800 1.671900
10.123400 1.462200
10.145100 1.164300
10.166800 1.008100
10.188400 1.150400
10.210100 1.520300
10.231700 1.869900
10.253400 2.005400
10.275000 1.940100
10.296700 1.806400
10.318300 1.694600
10.340000 1.622000
10.361600 1.584800
10.383300 1.563600
10.404900 1.537800
10.426600 1.527100
10.448300 1.535300
10.469900 1.489800
10.491600 1.332100
10.513200 1.108600
10.534900 0.918100
10.556500 0.838600
10.578200 0.894700
10.599800 1.030900
10.621500 1.146100
10.643100 1.164000
10.664800 1.067200
10.686500 0.923100
10.708100 0.849000
10.729800 0.906900
10.751400 1.092500
10.773100 1.351900
10.794700 1.525800
10.816400 1.458400
10.838000 1.232700
10.859700 1.110900
10.881300 1.240900
10.903000 1.534600
10.924600 1.781000
10.946300 1.832500
10.968000 1.711800
10.989600 1.585800
11.011300 1.642400
11.032900 1.906900
11.054600 2.151600
11.076200 2.095200
11.097900 1.720900
11.119500 1.297100
11.141200 1.094500
11.162800 1.200200
11.184500 1.541300
11.206200 1.925800
11.227800 2.121300
11.249500 2.037700
11.271100 1.822500
11.292800 1.696800
11.314400 1.737800
11.336100 1.864200
11.357700 1.945700
11.379400 1.909200
11.401000 1.806900
11.422700 1.745200
11.444300 1.719200
11.466000 1.629300
11.487700 1.472500
11.509300 1.351300
11.531000 1.302600
11.552600 1.295100
11.574300 1.362900
11.595900 1.557000
11.617600 1.794600
11.639200 1.920000
11.660900 1.904000
11.682500 1.861400
11.704200 1.869700
11.725900 1.852900
11.747500 1.706300
11.769200 1.480600
11.790800 1.327900
11.812500 1.297800
11.834100 1.332900
11.855800 1.408100
11.877400 1.522400
11.899100 1.629900
11.920700 1.702800
11.942400 1.766800
11.964000 1.790700
11.985700 1.680600
12.007400 1.443200
12.029000 1.226300
12.050700 1.181600
12.072300 1.363200
12.094000 1.708100
12.115600 2.038600
12.137300 2.185500
12.158900 2.147900
12.180600 2.038600
12.202200 1.950200
12.223900 1.947300
12.245600 2.068100
12.267200 2.270600
12.288900 2.405200
12.310500 2.280500
12.332200 1.857500
12.353800 1.368600
12.375500 1.102000
12.397100 1.097300
12.418800 1.165000
12.440400 1.160300
12.462100 1.150700
12.483700 1.315800
12.505400 1.711900
12.527100 2.167800
12.548700 2.442700
12.570400 2.426000
12.592000 2.164600
12.613700 1.818300
12.635300 1.578700
12.657000 1.520600
12.678600 1.577500
12.700300 1.669600
12.721900 1.775900
12.743600 1.880500
12.765300 1.913400
12.786900 1.828100
12.808600 1.721000
12.830200 1.740800
12.851900 1.866500
12.873500 1.937700
12.895200 1.909800
12.916800 1.892400
12.938500 1.969800
12.960100 2.135900
12.981800 2.292400
13.003400 2.268200
13.025100 2.015100
13.046800 1.705900
13.068400 1.517200
13.090100 1.475000
13.111700 1.539300
13.133400 1.668200
13.155000 1.808600
13.176700 1.914300
13.198300 1.972200
13.220000 1.985200
13.241600 1.928500
13.263300 1.779000
13.285000 1.573300
13.306600 1.377800
13.328300 1.263200
13.349900 1.276600
13.371600 1.357800
13.393200 1.390400
13.414900 1.373200
13.436500 1.418500
13.458200 1.585500
13.479800 1.809700
13.501500 2.001100
13.523200 2.142900
13.544800 2.257900
13.566500 2.323200
13.588100 2.295400
13.609800 2.205100
13.631400 2.120800
13.653100 2.028500
13.674700 1.863100
13.696400 1.631500
13.718000 1.436200
13.739700 1.388300
13.761300 1.516600
13.783000 1.763300
13.804700 2.045000
13.826300 2.286000
13.848000 2.415400
13.869600 2.379300
13.891300 2.177400
13.912900 1.885900
13.934600 1.602800
13.956200 1.372600
13.977900 1.223700
13.999500 1.227700
14.021200 1.415100
14.042900 1.660700
14.064500 1.754300
14.086200 1.613900
14.107800 1.371500
14.129500 1.216500
14.151100 1.215400
14.172800 1.320300
14.194400 1.468900
14.216100 1.588100
14.237700 1.586500
14.259400 1.490200
14.281000 1.494100
14.302700 1.742300
14.324400 2.111300
14.346000 2.297700
14.367700 2.164800
14.389300 1.919900
14.411000 1.865100
14.432600 2.078300
14.454300 2.407200
14.475900 2.667300
14.497600 2.736000
14.519200 2.542300
14.540900 2.141000
14.562600 1.739300
14.584200 1.527400
14.605900 1.522100
14.627500 1.603700
14.649200 1.655600
14.670800 1.627900
14.692500 1.517300
14.714100 1.383200
14.735800 1.315600
14.757400 1.321100
14.779100 1.339800
14.800700 1.375200
14.822400 1.498700
14.844100 1.720700
14.865700 1.939500
14.887400 2.059900
14.909000 2.095200
14.930700 2.073600
