set title 'mp-974920 - Density of States'
set xlabel 'Energy (eV)'
set ylabel 'DOS (states/eV)'
set grid
set xrange [-10:10]
set yrange [0:22.177]
set xzeroaxis lt -1
set terminal png size 800,600
set output 'mp-974920_dos_gnuplot.png'
plot '-' using 1:2 with lines title 'DOS'
-28.916400 0.000000
-28.867500 0.000000
-28.818600 0.000000
-28.769600 0.000000
-28.720700 0.000000
-28.671800 0.000000
-28.622800 0.000000
-28.573900 0.000000
-28.525000 0.000000
-28.476000 0.000000
-28.427100 0.000000
-28.378100 0.000000
-28.329200 0.000000
-28.280300 0.000000
-28.231300 0.000000
-28.182400 0.000000
-28.133500 0.000000
-28.084500 0.000000
-28.035600 0.000000
-27.986700 0.000000
-27.937700 0.000000
-27.888800 0.000000
-27.839900 0.000000
-27.790900 0.000000
-27.742000 0.000000
-27.693000 0.000000
-27.644100 0.000000
-27.595200 0.000000
-27.546200 0.000000
-27.497300 0.000000
-27.448400 0.000000
-27.399400 0.000000
-27.350500 0.000000
-27.301600 0.000000
-27.252600 0.000000
-27.203700 0.000000
-27.154700 0.000000
-27.105800 0.000000
-27.056900 0.000000
-27.007900 0.000000
-26.959000 0.000000
-26.910100 0.000000
-26.861100 0.000000
-26.812200 0.000000
-26.763300 0.000000
-26.714300 0.000000
-26.665400 0.000000
-26.616500 0.000000
-26.567500 0.000000
-26.518600 0.000000
-26.469600 0.000000
-26.420700 0.000000
-26.371800 0.000000
-26.322800 0.000000
-26.273900 0.000000
-26.225000 0.000000
-26.176000 0.000000
-26.127100 0.000000
-26.078200 0.000000
-26.029200 0.000000
-25.980300 0.000000
-25.931400 0.000000
-25.882400 0.000000
-25.833500 0.000000
-25.784500 0.000000
-25.735600 0.000000
-25.686700 0.000000
-25.637700 0.000000
-25.588800 0.000000
-25.539900 0.000000
-25.490900 0.000000
-25.442000 0.000000
-25.393100 0.000000
-25.344100 0.000000
-25.295200 0.000000
-25.246300 0.000000
-25.197300 0.000000
-25.148400 0.000000
-25.099400 0.000000
-25.050500 0.000000
-25.001600 0.000000
-24.952600 0.000000
-24.903700 0.000000
-24.854800 0.000000
-24.805800 0.000000
-24.756900 0.000000
-24.708000 0.000000
-24.659000 0.000000
-24.610100 0.000600
-24.561100 0.118200
-24.512200 4.633400
-24.463300 36.086000
-24.414300 59.404200
-24.365400 20.869700
-24.316500 1.478100
-24.267500 0.019300
-24.218600 0.000000
-24.169700 0.000000
-24.120700 0.000000
-24.071800 0.000000
-24.022900 0.000000
-23.973900 0.000000
-23.925000 0.000000
-23.876000 0.000000
-23.827100 0.000000
-23.778200 0.000000
-23.729200 0.000000
-23.680300 0.000000
-23.631400 0.000000
-23.582400 0.000000
-23.533500 0.000000
-23.484600 0.000000
-23.435600 0.000000
-23.386700 0.000000
-23.337800 0.000000
-23.288800 0.000000
-23.239900 0.000000
-23.190900 0.000000
-23.142000 0.000000
-23.093100 0.000000
-23.044100 0.000000
-22.995200 0.000000
-22.946300 0.000000
-22.897300 0.000000
-22.848400 0.000000
-22.799500 0.000000
-22.750500 0.000000
-22.701600 0.000000
-22.652600 0.000000
-22.603700 0.000000
-22.554800 0.000000
-22.505800 0.000000
-22.456900 0.000000
-22.408000 0.000000
-22.359000 0.000000
-22.310100 0.000000
-22.261200 0.000000
-22.212200 0.000000
-22.163300 0.000000
-22.114400 0.000000
-22.065400 0.000000
-22.016500 0.000000
-21.967500 0.000000
-21.918600 0.000000
-21.869700 0.000000
-21.820700 0.000000
-21.771800 0.000000
-21.722900 0.000000
-21.673900 0.000000
-21.625000 0.000000
-21.576100 0.000000
-21.527100 0.000000
-21.478200 0.000000
-21.429300 0.000000
-21.380300 0.000000
-21.331400 0.000000
-21.282400 0.000000
-21.233500 0.000000
-21.184600 0.000000
-21.135600 0.000000
-21.086700 0.000000
-21.037800 0.000000
-20.988800 0.000000
-20.939900 0.000000
-20.891000 0.000000
-20.842000 0.000000
-20.793100 0.000000
-20.744200 0.000000
-20.695200 0.000000
-20.646300 0.000000
-20.597300 0.000000
-20.548400 0.000000
-20.499500 0.000000
-20.450500 0.000000
-20.401600 0.000000
-20.352700 0.000000
-20.303700 0.000000
-20.254800 0.000000
-20.205900 0.000000
-20.156900 0.000000
-20.108000 0.000000
-20.059000 0.000000
-20.010100 0.000000
-19.961200 0.000000
-19.912200 0.000000
-19.863300 0.000000
-19.814400 0.000000
-19.765400 0.000000
-19.716500 0.000000
-19.667600 0.000000
-19.618600 0.000000
-19.569700 0.000000
-19.520800 0.000000
-19.471800 0.000000
-19.422900 0.000000
-19.373900 0.000000
-19.325000 0.000000
-19.276100 0.000000
-19.227100 0.000000
-19.178200 0.000000
-19.129300 0.000000
-19.080300 0.000000
-19.031400 0.000000
-18.982500 0.000000
-18.933500 0.000000
-18.884600 0.000000
-18.835700 0.000000
-18.786700 0.000000
-18.737800 0.000000
-18.688800 0.000000
-18.639900 0.000000
-18.591000 0.000000
-18.542000 0.000000
-18.493100 0.000000
-18.444200 0.000000
-18.395200 0.000000
-18.346300 0.000000
-18.297400 0.000000
-18.248400 0.000000
-18.199500 0.000000
-18.150600 0.000000
-18.101600 0.000000
-18.052700 0.000000
-18.003700 0.000000
-17.954800 0.000000
-17.905900 0.000000
-17.856900 0.000000
-17.808000 0.000000
-17.759100 0.000000
-17.710100 0.000000
-17.661200 0.000000
-17.612300 0.000000
-17.563300 0.000000
-17.514400 0.000000
-17.465400 0.000000
-17.416500 0.000000
-17.367600 0.000000
-17.318600 0.000000
-17.269700 0.000000
-17.220800 0.000000
-17.171800 0.000000
-17.122900 0.000000
-17.074000 0.000000
-17.025000 0.000000
-16.976100 0.000000
-16.927200 0.000000
-16.878200 0.000000
-16.829300 0.000000
-16.780300 0.000000
-16.731400 0.000000
-16.682500 0.000000
-16.633500 0.000000
-16.584600 0.000000
-16.535700 0.000000
-16.486700 0.000000
-16.437800 0.000000
-16.388900 0.000000
-16.339900 0.000000
-16.291000 0.000000
-16.242100 0.000000
-16.193100 0.000000
-16.144200 0.000000
-16.095200 0.000000
-16.046300 0.000000
-15.997400 0.000000
-15.948400 0.000000
-15.899500 0.000000
-15.850600 0.000000
-15.801600 0.000000
-15.752700 0.000000
-15.703800 0.000000
-15.654800 0.000000
-15.605900 0.000000
-15.557000 0.000000
-15.508000 0.000000
-15.459100 0.000000
-15.410100 0.000000
-15.361200 0.000000
-15.312300 0.000000
-15.263300 0.000000
-15.214400 0.000000
-15.165500 0.000000
-15.116500 0.000000
-15.067600 0.000000
-15.018700 0.000000
-14.969700 0.000000
-14.920800 0.000000
-14.871800 0.000000
-14.822900 0.000000
-14.774000 0.000000
-14.725000 0.000000
-14.676100 0.000000
-14.627200 0.000000
-14.578200 0.000000
-14.529300 0.000000
-14.480400 0.000000
-14.431400 0.000000
-14.382500 0.000000
-14.333600 0.000000
-14.284600 0.000000
-14.235700 0.000000
-14.186700 0.000000
-14.137800 0.000000
-14.088900 0.000000
-14.039900 0.000000
-13.991000 0.000000
-13.942100 0.000000
-13.893100 0.000000
-13.844200 0.000000
-13.795300 0.000000
-13.746300 0.000000
-13.697400 0.000000
-13.648500 0.000000
-13.599500 0.000000
-13.550600 0.000000
-13.501600 0.000000
-13.452700 0.000000
-13.403800 0.000000
-13.354800 0.000000
-13.305900 0.000000
-13.257000 0.000000
-13.208000 0.000000
-13.159100 0.000000
-13.110200 0.000000
-13.061200 0.000000
-13.012300 0.000000
-12.963400 0.000000
-12.914400 0.000000
-12.865500 0.000000
-12.816500 0.000000
-12.767600 0.000000
-12.718700 0.000000
-12.669700 0.000000
-12.620800 0.000000
-12.571900 0.000000
-12.522900 0.000000
-12.474000 0.000000
-12.425100 0.000000
-12.376100 0.000000
-12.327200 0.000000
-12.278200 0.000000
-12.229300 0.000000
-12.180400 0.000000
-12.131400 0.000000
-12.082500 0.000000
-12.033600 0.000000
-11.984600 0.000000
-11.935700 0.000000
-11.886800 0.000000
-11.837800 0.000000
-11.788900 0.000000
-11.740000 0.000000
-11.691000 0.000000
-11.642100 0.000000
-11.593100 0.000000
-11.544200 0.000000
-11.495300 0.000000
-11.446300 0.000000
-11.397400 0.000000
-11.348500 0.000000
-11.299500 0.000000
-11.250600 0.000000
-11.201700 0.000000
-11.152700 0.000000
-11.103800 0.000000
-11.054900 0.000000
-11.005900 0.000000
-10.957000 0.000000
-10.908000 0.000000
-10.859100 0.000000
-10.810200 0.000000
-10.761200 0.000000
-10.712300 0.000000
-10.663400 0.000000
-10.614400 0.000000
-10.565500 0.000000
-10.516600 0.000000
-10.467600 0.000000
-10.418700 0.000000
-10.369700 0.000000
-10.320800 0.000000
-10.271900 0.000000
-10.222900 0.000000
-10.174000 0.000000
-10.125100 0.000000
-10.076100 0.000000
-10.027200 0.000000
-9.978300 0.000000
-9.929300 0.000000
-9.880400 0.000000
-9.831500 0.000000
-9.782500 0.000000
-9.733600 0.000000
-9.684600 0.000000
-9.635700 0.000000
-9.586800 0.000000
-9.537800 0.000000
-9.488900 0.000000
-9.440000 0.000000
-9.391000 0.000000
-9.342100 0.000000
-9.293200 0.000000
-9.244200 0.000000
-9.195300 0.000000
-9.146400 0.000000
-9.097400 0.000000
-9.048500 0.000000
-8.999500 0.000000
-8.950600 0.000000
-8.901700 0.000000
-8.852700 0.000000
-8.803800 0.000000
-8.754900 0.000000
-8.705900 0.000000
-8.657000 0.000000
-8.608100 0.000000
-8.559100 0.000000
-8.510200 0.000000
-8.461300 0.000000
-8.412300 0.000000
-8.363400 0.000000
-8.314400 0.000000
-8.265500 0.000000
-8.216600 0.000000
-8.167600 0.000000
-8.118700 0.000000
-8.069800 0.000000
-8.020800 0.000000
-7.971900 0.000000
-7.923000 0.000000
-7.874000 0.000000
-7.825100 0.000000
-7.776100 0.000000
-7.727200 0.000000
-7.678300 0.000000
-7.629300 0.000000
-7.580400 0.000000
-7.531500 0.000000
-7.482500 0.000000
-7.433600 0.000000
-7.384700 0.000000
-7.335700 0.000000
-7.286800 0.000000
-7.237900 0.000000
-7.188900 0.000000
-7.140000 0.000000
-7.091000 0.000000
-7.042100 0.000000
-6.993200 0.000000
-6.944200 0.000000
-6.895300 0.000000
-6.846400 0.000000
-6.797400 0.000000
-6.748500 0.000000
-6.699600 0.000000
-6.650600 0.000000
-6.601700 0.000000
-6.552800 0.000000
-6.503800 0.000000
-6.454900 0.000000
-6.405900 0.000000
-6.357000 0.000000
-6.308100 0.000000
-6.259100 0.000000
-6.210200 0.000000
-6.161300 0.000000
-6.112300 0.000000
-6.063400 0.000000
-6.014500 0.000000
-5.965500 0.000000
-5.916600 0.000000
-5.867700 0.000000
-5.818700 0.000000
-5.769800 0.000000
-5.720800 0.000000
-5.671900 0.000000
-5.623000 0.000000
-5.574000 0.000000
-5.525100 0.000000
-5.476200 0.000000
-5.427200 0.000000
-5.378300 0.000000
-5.329400 0.000000
-5.280400 0.000000
-5.231500 0.000000
-5.182500 0.000000
-5.133600 0.000000
-5.084700 0.000000
-5.035700 0.000000
-4.986800 0.000000
-4.937900 0.000000
-4.888900 0.000000
-4.840000 0.000000
-4.791100 0.000000
-4.742100 0.000000
-4.693200 0.000000
-4.644300 0.000000
-4.595300 0.000000
-4.546400 0.000000
-4.497400 0.000000
-4.448500 0.000000
-4.399600 0.000000
-4.350600 0.000000
-4.301700 0.000000
-4.252800 0.000000
-4.203800 0.000000
-4.154900 0.000000
-4.106000 0.000000
-4.057000 0.000000
-4.008100 0.000000
-3.959200 0.000000
-3.910200 0.000000
-3.861300 0.000000
-3.812300 0.000000
-3.763400 0.000000
-3.714500 0.000000
-3.665500 0.000000
-3.616600 0.000000
-3.567700 0.000000
-3.518700 0.000000
-3.469800 0.000000
-3.420900 0.000000
-3.371900 0.000000
-3.323000 0.000000
-3.274100 0.000000
-3.225100 0.000000
-3.176200 0.000000
-3.127200 0.000000
-3.078300 0.000000
-3.029400 0.000000
-2.980400 0.000000
-2.931500 0.000000
-2.882600 0.000100
-2.833600 0.004000
-2.784700 0.025600
-2.735800 0.046900
-2.686800 0.071100
-2.637900 0.121800
-2.588900 0.087700
-2.540000 0.113000
-2.491100 0.127800
-2.442100 0.140300
-2.393200 0.173500
-2.344300 0.182700
-2.295300 0.191100
-2.246400 0.106500
-2.197500 0.162300
-2.148500 0.204900
-2.099600 0.226600
-2.050700 0.243800
-2.001700 0.228000
-1.952800 0.255400
-1.903800 0.221700
-1.854900 0.195500
-1.806000 0.208700
-1.757000 0.156600
-1.708100 0.240000
-1.659200 0.308300
-1.610200 0.431300
-1.561300 0.406700
-1.512400 0.197000
-1.463400 0.102900
-1.414500 0.282000
-1.365600 0.357200
-1.316600 0.275400
-1.267700 0.351800
-1.218700 0.319100
-1.169800 0.145800
-1.120900 0.302400
-1.071900 0.430200
-1.023000 0.392800
-0.974100 0.432400
-0.925100 0.464500
-0.876200 0.364100
-0.827300 0.257700
-0.778300 0.166400
-0.729400 0.240400
-0.680500 0.394900
-0.631500 0.455400
-0.582600 0.401900
-0.533600 0.278600
-0.484700 0.393200
-0.435800 0.537000
-0.386800 0.452200
-0.337900 0.311100
-0.289000 0.364000
-0.240000 0.516200
-0.191100 0.593400
-0.142200 0.459500
-0.093200 0.345500
-0.044300 0.322200
0.004700 0.233100
0.053600 0.270400
0.102500 0.386900
0.151500 0.380600
0.200400 0.492700
0.249300 0.675700
0.298300 0.664000
0.347200 0.436400
0.396100 0.544000
0.445100 0.555300
0.494000 0.540400
0.542900 0.342900
0.591900 0.167100
0.640800 0.349100
0.689800 0.721600
0.738700 0.754600
0.787600 0.480700
0.836600 0.390700
0.885500 0.459400
0.934400 0.344200
0.983400 0.299300
1.032300 0.423300
1.081200 0.747800
1.130200 0.896000
1.179100 0.620400
1.228000 0.411400
1.277000 0.573300
1.325900 0.694100
1.374900 0.760100
1.423800 0.518200
1.472700 0.278500
1.521700 0.392600
1.570600 0.483000
1.619500 0.487400
1.668500 0.459800
1.717400 0.449900
1.766300 0.445400
1.815300 0.408700
1.864200 0.611400
1.913100 0.715200
1.962100 0.864400
2.011000 0.850500
2.060000 0.537500
2.108900 0.391800
2.157800 0.509800
2.206800 0.591400
2.255700 0.541200
2.304600 0.619300
2.353600 0.645000
2.402500 0.413200
2.451400 0.561800
2.500400 0.920000
2.549300 1.003100
2.598300 0.689100
2.647200 0.372100
2.696100 0.340800
2.745100 0.404100
2.794000 0.365800
2.842900 0.419000
2.891900 0.725800
2.940800 0.742800
2.989700 0.577500
3.038700 0.944500
3.087600 1.197500
3.136500 0.874700
3.185500 0.459300
3.234400 0.333000
3.283400 0.576200
3.332300 0.892100
3.381200 0.894900
3.430200 0.571000
3.479100 0.605200
3.528000 0.519200
3.577000 0.498000
3.625900 0.637900
3.674800 0.821100
3.723800 0.830200
3.772700 0.777400
3.821600 0.682500
3.870600 0.441100
3.919500 0.320300
3.968500 0.516000
4.017400 0.581900
4.066300 0.336800
4.115300 0.684000
4.164200 0.966700
4.213100 0.820700
4.262100 0.693700
4.311000 0.623500
4.359900 0.876500
4.408900 1.087800
4.457800 0.996300
4.506800 0.858600
4.555700 0.745400
4.604600 0.654400
4.653600 0.724100
4.702500 0.587400
4.751400 0.765100
4.800400 0.853200
4.849300 0.451700
4.898200 0.298100
4.947200 0.336100
4.996100 0.482000
5.045000 0.527200
5.094000 0.675200
5.142900 0.669400
5.191900 0.983800
5.240800 1.285600
5.289700 1.150100
5.338700 0.735300
5.387600 0.689500
5.436500 1.075700
5.485500 2.281300
5.534400 12.266300
5.583300 20.161200
5.632300 7.599100
5.681200 1.333000
5.730100 0.796900
5.779100 0.714600
5.828000 0.623400
5.877000 0.777400
5.925900 0.963600
5.974800 0.942600
6.023800 0.668300
6.072700 0.404500
6.121600 0.497100
6.170600 0.674400
6.219500 0.895100
6.268400 1.042200
6.317400 0.824600
6.366300 0.682300
6.415200 0.677300
6.464200 0.979800
6.513100 1.080800
6.562100 0.987200
6.611000 1.033200
6.659900 0.919100
6.708900 0.860500
6.757800 0.841800
6.806700 0.629800
6.855700 0.474800
6.904600 0.513400
6.953500 0.537700
7.002500 0.612100
7.051400 0.545600
7.100400 0.777400
7.149300 1.136700
7.198200 0.997500
7.247200 0.831800
7.296100 0.842300
7.345000 0.957400
7.394000 1.129500
7.442900 1.262400
7.491800 1.246300
7.540800 1.077100
7.589700 0.845800
7.638600 0.641300
7.687600 0.590800
7.736500 0.718000
7.785500 0.796800
7.834400 0.777500
7.883300 0.862500
7.932300 0.947300
7.981200 0.898100
8.030100 1.163600
8.079100 1.178200
8.128000 0.898300
8.176900 0.915200
8.225900 1.014400
8.274800 0.936800
8.323700 0.862500
8.372700 0.627500
8.421600 0.468100
8.470600 0.615400
8.519500 0.929800
8.568400 0.885200
8.617400 0.940300
8.666300 0.935700
8.715200 0.915600
8.764200 1.128200
8.813100 1.250400
8.862000 1.345200
8.911000 1.141300
8.959900 1.174400
9.008800 1.070800
9.057800 0.841300
9.106700 0.765000
9.155700 0.666400
9.204600 0.666800
9.253500 0.723800
9.302500 0.785000
9.351400 0.902200
9.400300 0.766100
9.449300 0.753300
9.498200 0.751700
9.547100 0.771200
9.596100 0.711000
9.645000 0.851400
9.694000 1.071300
9.742900 1.200800
9.791800 1.182800
9.840800 1.175600
9.889700 1.060400
9.938600 1.011300
9.987600 1.088700
10.036500 0.893400
10.085400 0.709200
10.134400 0.798200
10.183300 0.966200
10.232200 1.001400
10.281200 0.772800
10.330100 0.488100
10.379100 0.650200
10.428000 1.084500
10.476900 0.959900
10.525900 0.945200
10.574800 1.187900
10.623700 1.121500
10.672700 1.147800
10.721600 1.249300
10.770500 1.203400
10.819500 0.926900
10.868400 0.709200
10.917300 0.723000
10.966300 0.960000
11.015200 1.204900
11.064200 1.031300
11.113100 0.995900
11.162000 1.068400
11.211000 1.006600
11.259900 0.859900
11.308800 1.178700
11.357800 1.226700
11.406700 0.915700
11.455600 0.911200
11.504600 0.879800
11.553500 0.650600
11.602400 0.717000
11.651400 0.752400
11.700300 0.848100
11.749300 0.920000
11.798200 1.120000
11.847100 1.231300
11.896100 1.296500
11.945000 1.284400
11.993900 1.072400
12.042900 1.263500
12.091800 1.237000
12.140700 1.000200
12.189700 1.195200
12.238600 1.190700
12.287600 0.862800
12.336500 0.834100
12.385400 0.988400
12.434400 0.970300
12.483300 0.985800
12.532200 1.189600
12.581200 1.172000
12.630100 1.051500
12.679000 1.204600
12.728000 0.942800
12.776900 1.020000
12.825800 0.910500
12.874800 0.673600
12.923700 0.876300
12.972700 0.996700
13.021600 1.120800
13.070500 1.128800
13.119500 1.179000
13.168400 1.241900
13.217300 0.953300
13.266300 1.015600
13.315200 1.058400
13.364100 1.216700
13.413100 1.431600
13.462000 1.348400
13.510900 1.299400
13.559900 1.154900
13.608800 1.000200
13.657800 0.824600
13.706700 1.128900
13.755600 1.344100
13.804600 1.107000
13.853500 1.138200
13.902400 1.236900
13.951400 1.066600
14.000300 1.066200
14.049200 0.951800
14.098200 0.855100
14.147100 1.252200
14.196000 1.309100
14.245000 1.301700
14.293900 1.220600
14.342900 1.179700
14.391800 1.311400
14.440700 1.246800
14.489700 1.079000
14.538600 0.948000
14.587500 0.826500
14.636500 0.865100
14.685400 0.871400
14.734300 1.226200
14.783300 1.624700
14.832200 1.576900
14.881200 1.346100
14.930100 1.305400
14.979000 1.516100
15.028000 1.545100
15.076900 1.102700
15.125800 0.960900
15.174800 1.223400
15.223700 1.375900
15.272600 1.104100
15.321600 0.941100
15.370500 0.895500
15.419400 1.159600
15.468400 1.270000
15.517300 1.235000
15.566300 1.162100
15.615200 1.050100
15.664100 0.839600
15.713100 0.868700
15.762000 1.215800
15.810900 1.478200
15.859900 1.487000
15.908800 1.353400
15.957700 1.394700
16.006700 1.284800
16.055600 1.305000
16.104500 1.185900
16.153500 1.234400
16.202400 1.103800
16.251400 1.216900
16.300300 1.330700
16.349200 1.329900
16.398200 1.323000
16.447100 1.245900
16.496000 1.155800
16.545000 1.020700
16.593900 1.228200
16.642800 1.081200
16.691800 0.981800
16.740700 1.230100
16.789600 1.333700
16.838600 1.133300
16.887500 1.169100
16.936500 1.220000
16.985400 1.170700
17.034300 1.281800
17.083300 0.962900
17.132200 1.063300
17.181100 1.416400
17.230100 1.420600
17.279000 1.400200
17.327900 1.573700
17.376900 1.466100
17.425800 1.285600
17.474800 1.411500
17.523700 1.630400
17.572600 1.541400
17.621600 1.519500
17.670500 1.329000
17.719400 1.230200
17.768400 1.518200
17.817300 1.366400
17.866200 1.137700
17.915200 1.178100
17.964100 1.234500
18.013000 0.981400
18.062000 0.679400
18.110900 0.873800
18.159900 1.402200
18.208800 1.610200
18.257700 1.445300
18.306700 1.469700
18.355600 1.430900
18.404500 1.160800
18.453500 1.219300
18.502400 1.558400
18.551300 1.187300
18.600300 0.999200
18.649200 1.248900
18.698100 1.131200
18.747100 0.929900
18.796000 0.779700
18.845000 1.186400
18.893900 1.350100
18.942800 1.279500
18.991800 1.396500
19.040700 1.767700
19.089600 1.678500
19.138600 1.539200
19.187500 1.260400
19.236400 1.075500
19.285400 1.421200
19.334300 1.559700
19.383300 1.473400
19.432200 1.391500
19.481100 1.572200
19.530100 1.480000
19.579000 1.445300
19.627900 1.573100
19.676900 1.505100
19.725800 1.294800
19.774700 1.157700
19.823700 1.223400
19.872600 1.089500
19.921500 1.064500
19.970500 1.171300
20.019400 0.832800
20.068400 1.116800
20.117300 1.407600
20.166200 1.076100
20.215200 0.838400
20.264100 0.920100
20.313000 0.995400
20.362000 0.759100
20.410900 0.619700
20.459800 0.823000
20.508800 0.904100
20.557700 1.098900
20.606600 1.457300
20.655600 1.304500
20.704500 1.029500
20.753500 0.942700
20.802400 1.480800
20.851300 1.564700
20.900300 1.188800
20.949200 0.877000
20.998100 0.944000
21.047100 1.070400
21.096000 1.059700
21.144900 1.032800
21.193900 0.801300
21.242800 0.810300
21.291700 0.881800
21.340700 0.969300
