set title 'mp-1863 - Density of States'
set xlabel 'Energy (eV)'
set ylabel 'DOS (states/eV)'
set grid
set xrange [-10:10]
set yrange [0:35.748]
set xzeroaxis lt -1
set terminal png size 800,600
set output 'mp-1863_dos_gnuplot.png'
plot '-' using 1:2 with lines title 'DOS'
-11.018900 0.000000
-11.005600 0.000000
-10.992200 0.000000
-10.978800 0.000000
-10.965400 0.000000
-10.952100 0.000000
-10.938700 0.000000
-10.925300 0.000000
-10.912000 0.000000
-10.898600 0.000000
-10.885200 0.000000
-10.871800 0.000000
-10.858500 0.000000
-10.845100 0.000000
-10.831700 0.000000
-10.818400 0.000000
-10.805000 0.000000
-10.791600 0.000000
-10.778200 0.000000
-10.764900 0.000000
-10.751500 0.000000
-10.738100 0.000000
-10.724800 0.000000
-10.711400 0.000000
-10.698000 0.000000
-10.684600 0.000000
-10.671300 0.000000
-10.657900 0.000000
-10.644500 0.000000
-10.631200 0.000000
-10.617800 0.000000
-10.604400 0.000000
-10.591000 0.000000
-10.577700 0.000000
-10.564300 0.000000
-10.550900 0.000000
-10.537600 0.000000
-10.524200 0.000000
-10.510800 0.000000
-10.497400 0.000000
-10.484100 0.000000
-10.470700 0.000000
-10.457300 0.000000
-10.444000 0.000000
-10.430600 0.000000
-10.417200 0.000000
-10.403800 0.000000
-10.390500 0.000000
-10.377100 0.000000
-10.363700 0.000000
-10.350400 0.000000
-10.337000 0.000000
-10.323600 0.000000
-10.310200 0.000000
-10.296900 0.000000
-10.283500 0.000000
-10.270100 0.000000
-10.256800 0.000000
-10.243400 0.000000
-10.230000 0.000000
-10.216600 0.000000
-10.203300 0.000000
-10.189900 0.000000
-10.176500 0.000000
-10.163200 0.000000
-10.149800 0.000000
-10.136400 0.000000
-10.123000 0.000000
-10.109700 0.000000
-10.096300 0.000000
-10.082900 0.000000
-10.069600 0.000000
-10.056200 0.000000
-10.042800 0.000000
-10.029400 0.000000
-10.016100 0.000000
-10.002700 0.000000
-9.989300 0.000000
-9.976000 0.000000
-9.962600 0.000000
-9.949200 0.000000
-9.935800 0.000000
-9.922500 0.000000
-9.909100 0.000000
-9.895700 0.000000
-9.882400 0.000000
-9.869000 0.000000
-9.855600 0.000000
-9.842200 0.000000
-9.828900 0.000000
-9.815500 0.000000
-9.802100 0.000300
-9.788800 0.036900
-9.775400 0.135500
-9.762000 0.317200
-9.748600 0.602800
-9.735300 0.816600
-9.721900 0.961800
-9.708500 1.105700
-9.695200 1.296000
-9.681800 1.462000
-9.668400 1.597600
-9.655000 1.702900
-9.641700 1.771100
-9.628300 1.780000
-9.614900 1.780200
-9.601600 1.780400
-9.588200 1.780600
-9.574800 1.780800
-9.561400 1.781000
-9.548100 1.781100
-9.534700 1.781300
-9.521300 1.781400
-9.508000 1.781600
-9.494600 1.781700
-9.481200 1.781800
-9.467800 1.781900
-9.454500 1.782100
-9.441100 1.782700
-9.427700 1.818200
-9.414400 1.878400
-9.401000 1.956700
-9.387600 2.053000
-9.374200 2.167400
-9.360900 2.298700
-9.347500 2.377800
-9.334100 2.454600
-9.320800 2.529200
-9.307400 2.601600
-9.294000 2.671800
-9.280600 2.739800
-9.267300 2.805600
-9.253900 2.873600
-9.240500 2.947000
-9.227200 3.025800
-9.213800 3.032800
-9.200400 3.028400
-9.187000 3.029900
-9.173700 3.020400
-9.160300 2.989000
-9.146900 2.937900
-9.133600 2.863500
-9.120200 2.680500
-9.106800 2.595200
-9.093400 2.555600
-9.080100 2.556100
-9.066700 2.556600
-9.053300 2.557100
-9.039900 2.557500
-9.026600 2.557800
-9.013200 2.558100
-8.999800 2.558300
-8.986500 2.558500
-8.973100 2.558700
-8.959700 2.558700
-8.946300 2.558700
-8.933000 2.558700
-8.919600 2.558600
-8.906200 2.574600
-8.892900 2.874600
-8.879500 3.361200
-8.866100 3.940200
-8.852700 4.477300
-8.839400 4.457700
-8.826000 4.390700
-8.812600 4.333800
-8.799300 4.288800
-8.785900 4.254000
-8.772500 4.220500
-8.759100 4.186600
-8.745800 4.152300
-8.732400 4.117700
-8.719000 4.082700
-8.705700 4.046400
-8.692300 4.005200
-8.678900 3.958800
-8.665500 3.907100
-8.652200 3.850300
-8.638800 3.788200
-8.625400 3.737900
-8.612100 3.714600
-8.598700 3.711700
-8.585300 3.711900
-8.571900 3.712000
-8.558600 3.712100
-8.545200 3.712200
-8.531800 3.712300
-8.518500 3.712400
-8.505100 3.712500
-8.491700 3.713700
-8.478300 3.747100
-8.465000 3.816800
-8.451600 3.916400
-8.438200 4.045700
-8.424900 4.204900
-8.411500 4.328700
-8.398100 4.421800
-8.384700 4.269600
-8.371400 4.168100
-8.358000 3.950900
-8.344600 4.032000
-8.331300 4.110100
-8.317900 4.186700
-8.304500 4.268000
-8.291100 4.354900
-8.277800 4.447300
-8.264400 4.545200
-8.251000 4.686500
-8.237700 4.847900
-8.224300 4.973400
-8.210900 5.062900
-8.197500 5.117200
-8.184200 5.140300
-8.170800 5.142800
-8.157400 5.144600
-8.144100 5.146200
-8.130700 5.147800
-8.117300 5.149300
-8.103900 5.150800
-8.090600 5.293300
-8.077200 5.727600
-8.063800 6.355000
-8.050500 6.760700
-8.037100 7.266600
-8.023700 7.582200
-8.010300 7.591400
-7.997000 7.599200
-7.983600 7.608400
-7.970200 7.619000
-7.956900 7.632700
-7.943500 7.648000
-7.930100 7.663700
-7.916700 7.679900
-7.903400 7.696600
-7.890000 7.714900
-7.876600 7.734800
-7.863300 7.756500
-7.849900 7.779800
-7.836500 7.805600
-7.823100 7.837400
-7.809800 7.875300
-7.796400 7.916400
-7.783000 7.783100
-7.769700 7.391600
-7.756300 7.279600
-7.742900 7.160700
-7.729500 6.649400
-7.716200 6.300000
-7.702800 6.305900
-7.689400 6.460700
-7.676100 8.017600
-7.662700 9.012500
-7.649300 10.014800
-7.635900 10.877800
-7.622600 11.308300
-7.609200 11.412100
-7.595800 11.036300
-7.582500 10.353700
-7.569100 10.152300
-7.555700 10.159100
-7.542300 10.167300
-7.529000 10.176900
-7.515600 10.167700
-7.502200 9.431900
-7.488900 8.374400
-7.475500 7.771800
-7.462100 7.528600
-7.448700 6.345400
-7.435400 3.603200
-7.422000 2.738800
-7.408600 2.647300
-7.395300 2.647400
-7.381900 2.647500
-7.368500 2.647500
-7.355100 13.196000
-7.341800 20.602900
-7.328400 20.109100
-7.315000 16.839100
-7.301700 12.058400
-7.288300 4.450700
-7.274900 0.000000
-7.261500 0.000000
-7.248200 0.000000
-7.234800 0.000000
-7.221400 0.000000
-7.208100 0.000000
-7.194700 0.000000
-7.181300 0.000000
-7.167900 0.000000
-7.154600 0.000000
-7.141200 0.000000
-7.127800 0.000000
-7.114500 0.000000
-7.101100 0.000000
-7.087700 0.000000
-7.074300 0.000000
-7.061000 0.000000
-7.047600 0.000000
-7.034200 0.000000
-7.020900 0.000000
-7.007500 0.000000
-6.994100 0.000000
-6.980700 0.000000
-6.967400 0.000000
-6.954000 0.000000
-6.940600 0.000000
-6.927300 0.000000
-6.913900 0.000000
-6.900500 0.000000
-6.887100 0.000000
-6.873800 0.000000
-6.860400 0.000000
-6.847000 0.000000
-6.833600 0.000000
-6.820300 0.000000
-6.806900 0.000000
-6.793500 0.000000
-6.780200 0.000000
-6.766800 0.000000
-6.753400 0.000000
-6.740000 0.000000
-6.726700 0.000000
-6.713300 0.000000
-6.699900 0.000000
-6.686600 0.000000
-6.673200 0.000000
-6.659800 0.000000
-6.646400 0.000000
-6.633100 0.000000
-6.619700 0.000000
-6.606300 0.000000
-6.593000 0.000000
-6.579600 0.000000
-6.566200 0.000000
-6.552800 0.000000
-6.539500 0.000000
-6.526100 0.000000
-6.512700 0.000000
-6.499400 0.000000
-6.486000 0.000000
-6.472600 0.000000
-6.459200 0.000000
-6.445900 0.000000
-6.432500 0.000000
-6.419100 0.000000
-6.405800 0.000000
-6.392400 0.000000
-6.379000 0.000000
-6.365600 0.000000
-6.352300 0.000000
-6.338900 0.000000
-6.325500 0.000000
-6.312200 0.000000
-6.298800 0.000000
-6.285400 0.000000
-6.272000 0.000000
-6.258700 0.000000
-6.245300 0.000000
-6.231900 0.000000
-6.218600 0.000000
-6.205200 0.000000
-6.191800 0.000000
-6.178400 0.000000
-6.165100 0.000000
-6.151700 0.000000
-6.138300 0.000000
-6.125000 0.000000
-6.111600 0.000000
-6.098200 0.000000
-6.084800 0.000000
-6.071500 0.000000
-6.058100 0.000000
-6.044700 0.000000
-6.031400 0.000000
-6.018000 0.000000
-6.004600 0.000000
-5.991200 0.000000
-5.977900 0.000000
-5.964500 0.000000
-5.951100 0.000000
-5.937800 0.000000
-5.924400 0.000000
-5.911000 0.000000
-5.897600 0.000000
-5.884300 0.000000
-5.870900 0.000000
-5.857500 0.000000
-5.844200 0.000000
-5.830800 0.000000
-5.817400 0.000000
-5.804000 0.000000
-5.790700 0.000000
-5.777300 0.000000
-5.763900 0.000000
-5.750600 0.000000
-5.737200 0.000000
-5.723800 0.000000
-5.710400 0.000000
-5.697100 0.000000
-5.683700 0.000000
-5.670300 0.000000
-5.657000 0.000000
-5.643600 0.000000
-5.630200 0.000000
-5.616800 0.000000
-5.603500 0.000000
-5.590100 0.000000
-5.576700 0.000000
-5.563400 0.000000
-5.550000 0.000000
-5.536600 0.000000
-5.523200 0.000000
-5.509900 0.000000
-5.496500 0.000000
-5.483100 0.000000
-5.469800 0.000000
-5.456400 0.000000
-5.443000 0.000000
-5.429600 0.000000
-5.416300 0.000000
-5.402900 0.000000
-5.389500 0.000000
-5.376200 0.000000
-5.362800 0.000000
-5.349400 0.000000
-5.336000 0.000000
-5.322700 0.000000
-5.309300 0.000000
-5.295900 0.000000
-5.282600 0.086300
-5.269200 0.358700
-5.255800 0.763500
-5.242400 1.450900
-5.229100 2.368800
-5.215700 3.203400
-5.202300 3.955000
-5.189000 4.623400
-5.175600 5.208700
-5.162200 5.709300
-5.148800 6.101400
-5.135500 6.411700
-5.122100 6.930300
-5.108700 7.452000
-5.095400 7.946100
-5.082000 9.137700
-5.068600 7.789000
-5.055200 5.351300
-5.041900 4.980300
-5.028500 4.627700
-5.015100 4.293400
-5.001800 3.977500
-4.988400 3.680000
-4.975000 3.400800
-4.961600 3.140000
-4.948300 3.164100
-4.934900 3.728800
-4.921500 4.263600
-4.908200 4.141600
-4.894800 4.021300
-4.881400 3.902900
-4.868000 3.786200
-4.854700 3.900300
-4.841300 4.329800
-4.827900 4.218400
-4.814600 4.108800
-4.801200 7.652900
-4.787800 4.046600
-4.774400 3.796400
-4.761100 3.567400
-4.747700 3.359600
-4.734300 3.172900
-4.720900 3.007600
-4.707600 2.863400
-4.694200 2.740400
-4.680800 2.638600
-4.667500 2.558100
-4.654100 2.498700
-4.640700 2.452800
-4.627300 2.413600
-4.614000 2.381100
-4.600600 2.355300
-4.587200 2.342800
-4.573900 2.342400
-4.560500 2.351500
-4.547100 2.365800
-4.533700 2.383300
-4.520400 2.403900
-4.507000 2.427600
-4.493600 2.454500
-4.480300 2.484400
-4.466900 2.517500
-4.453500 2.580100
-4.440100 2.758200
-4.426800 2.911200
-4.413400 3.038900
-4.400000 3.141400
-4.386700 3.218600
-4.373300 3.270700
-4.359900 3.297600
-4.346500 3.299900
-4.333200 3.277600
-4.319800 3.231800
-4.306400 3.188000
-4.293100 3.156900
-4.279700 3.138400
-4.266300 3.132500
-4.252900 3.135200
-4.239600 3.134100
-4.226200 3.128200
-4.212800 3.117600
-4.199500 3.108000
-4.186100 3.105000
-4.172700 3.108600
-4.159300 3.118900
-4.146000 3.135900
-4.132600 3.159400
-4.119200 3.189700
-4.105900 3.226500
-4.092500 3.206500
-4.079100 3.207800
-4.065700 3.199000
-4.052400 3.213000
-4.039000 3.233700
-4.025600 3.235600
-4.012300 3.218600
-3.998900 3.182900
-3.985500 3.078900
-3.972100 2.802200
-3.958800 2.219100
-3.945400 1.747500
-3.932000 1.387300
-3.918700 1.138500
-3.905300 0.989100
-3.891900 0.882500
-3.878500 0.811400
-3.865200 0.775800
-3.851800 0.771200
-3.838400 0.771200
-3.825100 0.771200
-3.811700 0.771200
-3.798300 0.771200
-3.784900 0.771200
-3.771600 0.771200
-3.758200 0.771200
-3.744800 0.771200
-3.731500 0.771200
-3.718100 0.771200
-3.704700 0.771200
-3.691300 1.620200
-3.678000 2.313300
-3.664600 2.313300
-3.651200 2.313200
-3.637900 2.313200
-3.624500 2.358200
-3.611100 3.052200
-3.597700 3.418900
-3.584400 5.587000
-3.571000 5.548300
-3.557600 5.768900
-3.544300 6.122000
-3.530900 6.489700
-3.517500 6.872100
-3.504100 7.484300
-3.490800 7.988100
-3.477400 7.691500
-3.464000 7.462300
-3.450700 7.268700
-3.437300 7.020200
-3.423900 6.717000
-3.410500 6.359000
-3.397200 5.954500
-3.383800 5.559300
-3.370400 5.183800
-3.357100 4.827900
-3.343700 4.516700
-3.330300 4.349200
-3.316900 4.172100
-3.303600 4.005500
-3.290200 3.849500
-3.276800 3.704100
-3.263500 3.569200
-3.250100 3.445000
-3.236700 3.331300
-3.223300 3.228200
-3.210000 3.135600
-3.196600 3.053900
-3.183200 2.991900
-3.169900 2.954300
-3.156500 2.941200
-3.143100 2.941200
-3.129700 2.941200
-3.116400 2.941200
-3.103000 2.941200
-3.089600 2.941200
-3.076300 4.428900
-3.062900 12.691400
-3.049500 13.816400
-3.036100 7.752800
-3.022800 8.249800
-3.009400 7.866700
-2.996000 7.152700
-2.982700 6.491300
-2.969300 5.882500
-2.955900 5.326200
-2.942500 4.822400
-2.929200 4.355600
-2.915800 3.895300
-2.902400 3.335700
-2.889100 2.718000
-2.875700 2.245100
-2.862300 1.917100
-2.848900 1.723100
-2.835600 1.584100
-2.822200 1.483800
-2.808800 1.422400
-2.795500 1.399900
-2.782100 1.399800
-2.768700 1.399800
-2.755300 1.399800
-2.742000 1.399800
-2.728600 1.399800
-2.715200 1.399800
-2.701900 1.399800
-2.688500 1.399800
-2.675100 1.399800
-2.661700 1.399800
-2.648400 1.399800
-2.635000 1.399800
-2.621600 1.399800
-2.608300 1.399800
-2.594900 1.399800
-2.581500 1.399800
-2.568100 1.399700
-2.554800 1.399700
-2.541400 1.399700
-2.528000 1.399700
-2.514600 1.399700
-2.501300 1.399700
-2.487900 1.399700
-2.474500 1.399700
-2.461200 1.399700
-2.447800 1.399700
-2.434400 1.399700
-2.421000 1.399700
-2.407700 1.399700
-2.394300 1.399700
-2.380900 1.496300
-2.367600 1.880900
-2.354200 3.483500
-2.340800 5.941300
-2.327400 7.107200
-2.314100 7.680500
-2.300700 5.761700
-2.287300 5.417400
-2.274000 5.050100
-2.260600 4.707500
-2.247200 4.389400
-2.233800 4.096000
-2.220500 3.827200
-2.207100 3.582600
-2.193700 3.352100
-2.180400 3.131600
-2.167000 2.920900
-2.153600 2.720100
-2.140200 2.529200
-2.126900 2.348200
-2.113500 2.176900
-2.100100 2.008000
-2.086800 1.836300
-2.073400 1.661700
-2.060000 1.484400
-2.046600 1.304200
-2.033300 1.121200
-2.019900 0.740600
-2.006500 0.645900
-1.993200 0.614100
-1.979800 0.613100
-1.966400 0.613100
-1.953000 0.613100
-1.939700 0.613100
-1.926300 0.625300
-1.912900 0.681600
-1.899600 0.794700
-1.886200 0.899700
-1.872800 0.977800
-1.859400 1.056600
-1.846100 1.145500
-1.832700 1.249400
-1.819300 1.368300
-1.806000 1.431600
-1.792600 1.431200
-1.779200 1.430900
-1.765800 1.430600
-1.752500 1.430300
-1.739100 1.429900
-1.725700 1.429600
-1.712400 1.429400
-1.699000 1.429100
-1.685600 1.428800
-1.672200 1.428500
-1.658900 1.428300
-1.645500 1.428000
-1.632100 1.427800
-1.618800 1.427600
-1.605400 1.427400
-1.592000 1.427200
-1.578600 1.427000
-1.565300 1.426800
-1.551900 1.426600
-1.538500 1.426400
-1.525200 1.426300
-1.511800 1.426100
-1.498400 1.426000
-1.485000 1.425800
-1.471700 1.425700
-1.458300 1.425600
-1.444900 1.425500
-1.431600 1.425400
-1.418200 1.425300
-1.404800 1.425300
-1.391400 1.425200
-1.378100 1.425100
-1.364700 1.425100
-1.351300 1.425000
-1.338000 1.425000
-1.324600 1.425000
-1.311200 1.425000
-1.297800 1.425000
-1.284500 1.425000
-1.271100 1.425000
-1.257700 1.425000
-1.244400 1.425100
-1.231000 1.451600
-1.217600 1.307500
-1.204200 1.358200
-1.190900 1.512800
-1.177500 1.782100
-1.164100 2.323900
-1.150800 2.677700
-1.137400 2.886400
-1.124000 3.081300
-1.110600 3.301900
-1.097300 3.560700
-1.083900 3.860800
-1.070500 4.230200
-1.057200 4.686400
-1.043800 5.191200
-1.030400 5.736300
-1.017000 6.321900
-1.003700 6.631100
-0.990300 6.953200
-0.976900 7.311700
-0.963600 7.780000
-0.950200 8.392500
-0.936800 6.491200
-0.923400 3.466100
-0.910100 2.138300
-0.896700 2.412400
-0.883300 2.720600
-0.870000 3.445100
-0.856600 5.648800
-0.843200 6.441900
-0.829800 6.884000
-0.816500 7.251000
-0.803100 7.542900
-0.789700 7.663700
-0.776400 7.607100
-0.763000 7.588100
-0.749600 7.604900
-0.736200 9.227900
-0.722900 10.019600
-0.709500 10.271100
-0.696100 9.985500
-0.682800 9.550600
-0.669400 8.878500
-0.656000 7.979700
-0.642600 7.461300
-0.629300 7.134500
-0.615900 6.938700
-0.602500 6.873800
-0.589200 6.866000
-0.575800 6.858500
-0.562400 6.849800
-0.549000 6.839800
-0.535700 6.828500
-0.522300 6.816000
-0.508900 6.787200
-0.495600 6.635900
-0.482200 6.341600
-0.468800 5.825300
-0.455400 5.034500
-0.442100 4.221700
-0.428700 3.387000
-0.415300 2.931600
-0.402000 4.591500
-0.388600 8.068800
-0.375200 13.651800
-0.361800 14.687400
-0.348500 12.190000
-0.335100 9.120900
-0.321700 7.653600
-0.308300 6.909700
-0.295000 6.323700
-0.281600 5.895300
-0.268200 5.567500
-0.254900 5.250400
-0.241500 4.930700
-0.228100 4.607700
-0.214700 4.281500
-0.201400 3.952100
-0.188000 4.879500
-0.174600 7.201600
-0.161300 8.569100
-0.147900 10.620500
-0.134500 14.011500
-0.121100 13.862600
-0.107800 11.980400
-0.094400 11.638900
-0.081000 12.114400
-0.067700 9.895800
-0.054300 7.946800
-0.040900 6.573800
-0.027500 5.936600
-0.014200 5.853400
-0.000800 5.844900
0.012600 5.816500
0.025900 5.755800
0.039300 5.833000
0.052700 6.222500
0.066100 6.749400
0.079400 6.961900
0.092800 7.018300
0.106200 6.956400
0.119500 6.887800
0.132900 6.820100
0.146300 6.753500
0.159700 6.694700
0.173000 6.645400
0.186400 6.605800
0.199800 6.574600
0.213100 6.545600
0.226500 6.518000
0.239900 6.491700
0.253300 6.460700
0.266600 6.422700
0.280000 6.358400
0.293400 6.266600
0.306700 6.171300
0.320100 6.078600
0.333500 5.988300
0.346900 5.900400
0.360200 5.815100
0.373600 5.732300
0.387000 5.656600
0.400300 5.586000
0.413700 5.510600
0.427100 5.429200
0.440500 5.341700
0.453800 5.447700
0.467200 5.685900
0.480600 6.101200
0.493900 6.567100
0.507300 7.051200
0.520700 7.537000
0.534100 7.893000
0.547400 8.023900
0.560800 7.996200
0.574200 7.955000
0.587500 7.913400
0.600900 7.871400
0.614300 7.829000
0.627700 7.774600
0.641000 7.731800
0.654400 7.706400
0.667800 7.684400
0.681100 7.713600
0.694500 7.717900
0.707900 7.511600
0.721300 7.375300
0.734600 7.245400
0.748000 7.498300
0.761400 7.752000
0.774700 8.007700
0.788100 8.094200
0.801500 8.098600
0.814900 8.044200
0.828200 8.007600
0.841600 8.033000
0.855000 8.160700
0.868300 8.446800
0.881700 8.730500
0.895100 9.004800
0.908500 9.272900
0.921800 9.457700
0.935200 9.547100
0.948600 9.616900
0.961900 9.656000
0.975300 9.677400
0.988700 9.681000
1.002100 9.666800
1.015400 9.617900
1.028800 9.545000
1.042200 9.454400
1.055500 9.335800
1.068900 9.183600
1.082300 9.020600
1.095700 8.873400
1.109000 8.730400
1.122400 8.596800
1.135800 8.434700
1.149100 8.142300
1.162500 7.940400
1.175900 7.744900
1.189300 7.592500
1.202600 7.447300
1.216000 7.302700
1.229400 7.107800
1.242700 7.109300
1.256100 7.166200
1.269500 7.206200
1.282900 7.240300
1.296200 7.571700
1.309600 7.967800
1.323000 8.394500
1.336300 8.877800
1.349700 9.164100
1.363100 9.023200
1.376500 8.856000
1.389800 8.672700
1.403200 8.893800
1.416600 9.979500
1.429900 10.871500
1.443300 11.290200
1.456700 11.133500
1.470100 11.001000
1.483400 11.105300
1.496800 12.654600
1.510200 13.194300
1.523500 13.058200
1.536900 12.733200
1.550300 12.126100
1.563700 11.644800
1.577000 11.406000
1.590400 11.232400
1.603800 11.074400
1.617100 10.932200
1.630500 10.753000
1.643900 10.561200
1.657300 10.370500
1.670600 10.201800
1.684000 10.030100
1.697400 9.872000
1.710700 9.698900
1.724100 9.558100
1.737500 9.426600
1.750900 9.280900
1.764200 9.109200
1.777600 8.937600
1.791000 8.863200
1.804400 8.845900
1.817700 8.813900
1.831100 8.862200
1.844500 8.781700
1.857800 8.739700
1.871200 8.717900
1.884600 8.723200
1.898000 8.749000
1.911300 8.784300
1.924700 8.901400
1.938100 9.082400
1.951400 9.289400
1.964800 9.540100
1.978200 9.802400
1.991600 10.064000
2.004900 10.323600
2.018300 10.599200
2.031700 10.889600
2.045000 11.194800
2.058400 11.514900
2.071800 13.435300
2.085200 16.637800
2.098500 32.498100
2.111900 9.534900
2.125300 9.632700
2.138600 9.935000
2.152000 9.802500
2.165400 9.690500
2.178800 9.592400
2.192100 9.490700
2.205500 9.382900
2.218900 9.260000
2.232200 9.070700
2.245600 8.754000
2.259000 8.511400
2.272400 8.188800
2.285700 7.602900
2.299100 7.037600
2.312500 6.672700
2.325800 6.477900
2.339200 6.391400
2.352600 6.318700
2.366000 6.236900
2.379300 6.146200
2.392700 6.046400
2.406100 5.937600
2.419400 5.795400
2.432800 5.585100
2.446200 5.517000
2.459600 5.311000
2.472900 5.103900
2.486300 4.910500
2.499700 4.727500
2.513000 4.540000
2.526400 4.347800
2.539800 4.149200
2.553200 3.940100
2.566500 3.719600
2.579900 3.470100
2.593300 3.255700
2.606600 3.063000
2.620000 2.891800
2.633400 2.742300
2.646800 2.610400
2.660100 2.484000
2.673500 2.301900
2.686900 2.101400
2.700200 1.905700
2.713600 1.722400
2.727000 1.551500
2.740400 1.393100
2.753700 1.247100
2.767100 1.113500
2.780500 0.994400
2.793800 0.921000
2.807200 0.850800
2.820600 0.783000
2.834000 0.717600
2.847300 0.654600
2.860700 0.594000
2.874100 0.534200
2.887400 0.474400
2.900800 0.414500
