set title 'mp-1299 - Density of States'
set xlabel 'Energy (eV)'
set ylabel 'DOS (states/eV)'
set grid
set xrange [-10:10]
set yrange [0:7.872]
set xzeroaxis lt -1
set terminal png size 800,600
set output 'mp-1299_dos_gnuplot.png'
plot '-' using 1:2 with lines title 'DOS'
-5.336200 0.000000
-5.322400 0.000000
-5.308600 0.000000
-5.294800 0.000000
-5.281100 0.000000
-5.267300 0.000000
-5.253500 0.000000
-5.239700 0.000000
-5.225900 0.000000
-5.212100 0.000000
-5.198300 0.000000
-5.184600 0.000000
-5.170800 0.000000
-5.157000 0.000000
-5.143200 0.000000
-5.129400 0.000000
-5.115600 0.000000
-5.101800 0.000000
-5.088100 0.000000
-5.074300 0.000000
-5.060500 0.000000
-5.046700 0.000000
-5.032900 0.000000
-5.019100 0.000000
-5.005300 0.000000
-4.991600 0.000000
-4.977800 0.000000
-4.964000 0.000000
-4.950200 0.000000
-4.936400 0.000000
-4.922600 0.000000
-4.908800 0.000000
-4.895100 0.000000
-4.881300 0.000000
-4.867500 0.000000
-4.853700 0.000000
-4.839900 0.000000
-4.826100 0.000000
-4.812300 0.000000
-4.798600 0.000000
-4.784800 0.000000
-4.771000 0.000000
-4.757200 0.000000
-4.743400 0.000000
-4.729600 0.000000
-4.715800 0.000000
-4.702100 0.000000
-4.688300 0.000000
-4.674500 0.000000
-4.660700 0.000000
-4.646900 0.000000
-4.633100 0.000000
-4.619400 0.000000
-4.605600 0.000000
-4.591800 0.000000
-4.578000 0.000000
-4.564200 0.000000
-4.550400 0.000000
-4.536600 0.000000
-4.522900 0.000000
-4.509100 0.000000
-4.495300 0.000000
-4.481500 0.000000
-4.467700 0.000000
-4.453900 0.000000
-4.440100 0.000000
-4.426400 0.000000
-4.412600 0.000000
-4.398800 0.000000
-4.385000 0.000000
-4.371200 0.000000
-4.357400 0.000000
-4.343600 0.000000
-4.329900 0.000000
-4.316100 0.000000
-4.302300 0.000000
-4.288500 0.000000
-4.274700 0.000000
-4.260900 0.000000
-4.247100 0.000000
-4.233400 0.000000
-4.219600 0.000000
-4.205800 0.000000
-4.192000 0.000000
-4.178200 0.000000
-4.164400 0.000000
-4.150600 0.000000
-4.136900 0.000000
-4.123100 0.000000
-4.109300 0.000000
-4.095500 0.000000
-4.081700 0.000000
-4.067900 0.005800
-4.054100 0.021400
-4.040400 0.046700
-4.026600 0.075700
-4.012800 0.068600
-3.999000 0.076200
-3.985200 0.084900
-3.971400 0.095000
-3.957600 0.106200
-3.943900 0.118000
-3.930100 0.126000
-3.916300 0.129600
-3.902500 0.130800
-3.888700 0.135100
-3.874900 0.140300
-3.861200 0.146000
-3.847400 0.151900
-3.833600 0.158000
-3.819800 0.164100
-3.806000 0.170700
-3.792200 0.177700
-3.778400 0.185300
-3.764700 0.188300
-3.750900 0.192000
-3.737100 0.196300
-3.723300 0.200300
-3.709500 0.204200
-3.695700 0.207700
-3.681900 0.211300
-3.668200 0.215200
-3.654400 0.219300
-3.640600 0.225400
-3.626800 0.230700
-3.613000 0.236200
-3.599200 0.241700
-3.585400 0.247300
-3.571700 0.253000
-3.557900 0.258100
-3.544100 0.262000
-3.530300 0.264800
-3.516500 0.267900
-3.502700 0.271400
-3.488900 0.275400
-3.475200 0.279700
-3.461400 0.284100
-3.447600 0.288700
-3.433800 0.293200
-3.420000 0.297700
-3.406200 0.302200
-3.392400 0.306800
-3.378700 0.311500
-3.364900 0.316300
-3.351100 0.321100
-3.337300 0.326000
-3.323500 0.331000
-3.309700 0.336000
-3.295900 0.341600
-3.282200 0.345800
-3.268400 0.350100
-3.254600 0.354400
-3.240800 0.358800
-3.227000 0.363200
-3.213200 0.367700
-3.199500 0.372400
-3.185700 0.377200
-3.171900 0.382100
-3.158100 0.386900
-3.144300 0.391800
-3.130500 0.396700
-3.116700 0.401600
-3.103000 0.406600
-3.089200 0.411800
-3.075400 0.417400
-3.061600 0.423100
-3.047800 0.429000
-3.034000 0.434800
-3.020200 0.440700
-3.006500 0.446600
-2.992700 0.452300
-2.978900 0.457600
-2.965100 0.463000
-2.951300 0.468500
-2.937500 0.474000
-2.923700 0.479800
-2.910000 0.485900
-2.896200 0.492000
-2.882400 0.497900
-2.868600 0.504800
-2.854800 0.511400
-2.841000 0.518100
-2.827200 0.525000
-2.813500 0.532000
-2.799700 0.539200
-2.785900 0.546400
-2.772100 0.553700
-2.758300 0.560900
-2.744500 0.568200
-2.730700 0.575600
-2.717000 0.583100
-2.703200 0.590600
-2.689400 0.598300
-2.675600 0.606300
-2.661800 0.614600
-2.648000 0.623300
-2.634200 0.632400
-2.620500 0.641800
-2.606700 0.651600
-2.592900 0.662000
-2.579100 0.672300
-2.565300 0.682800
-2.551500 0.693600
-2.537700 0.704500
-2.524000 0.715600
-2.510200 0.726900
-2.496400 0.738500
-2.482600 0.750400
-2.468800 0.762600
-2.455000 0.774900
-2.441300 0.787500
-2.427500 0.800200
-2.413700 0.814300
-2.399900 0.828200
-2.386100 0.842700
-2.372300 0.858100
-2.358500 0.876200
-2.344800 0.895000
-2.331000 0.914200
-2.317200 0.934000
-2.303400 0.955000
-2.289600 0.977400
-2.275800 1.002000
-2.262000 1.027300
-2.248300 1.053500
-2.234500 1.081400
-2.220700 1.112600
-2.206900 1.146200
-2.193100 1.183200
-2.179300 1.224300
-2.165500 1.269400
-2.151800 1.321500
-2.138000 1.400800
-2.124200 1.481700
-2.110400 1.578600
-2.096600 1.605700
-2.082800 1.616600
-2.069000 1.691200
-2.055300 1.670100
-2.041500 1.661300
-2.027700 1.661400
-2.013900 1.665500
-2.000100 1.678400
-1.986300 1.689500
-1.972500 1.687400
-1.958800 1.686800
-1.945000 1.681200
-1.931200 1.694300
-1.917400 1.695100
-1.903600 1.702800
-1.889800 1.721000
-1.876000 1.742600
-1.862300 1.751300
-1.848500 1.756000
-1.834700 1.768700
-1.820900 1.786700
-1.807100 1.796000
-1.793300 1.816600
-1.779600 1.833600
-1.765800 1.849500
-1.752000 1.874500
-1.738200 1.913400
-1.724400 1.944400
-1.710600 1.974700
-1.696800 2.009100
-1.683100 2.050000
-1.669300 2.159000
-1.655500 2.260700
-1.641700 2.429100
-1.627900 2.391900
-1.614100 2.276800
-1.600300 2.083200
-1.586600 2.263900
-1.572800 2.422800
-1.559000 1.363100
-1.545200 0.612900
-1.531400 0.250300
-1.517600 0.000000
-1.503800 0.000000
-1.490100 0.000000
-1.476300 0.000000
-1.462500 0.000000
-1.448700 0.000000
-1.434900 0.000000
-1.421100 0.000000
-1.407300 0.000000
-1.393600 0.000000
-1.379800 0.000000
-1.366000 0.000000
-1.352200 0.000000
-1.338400 0.000000
-1.324600 0.000000
-1.310800 0.000000
-1.297100 0.000000
-1.283300 0.000000
-1.269500 0.000000
-1.255700 0.000000
-1.241900 0.000000
-1.228100 0.000000
-1.214300 0.000000
-1.200600 0.000000
-1.186800 0.000000
-1.173000 0.000000
-1.159200 0.000000
-1.145400 0.000000
-1.131600 0.000000
-1.117800 0.000000
-1.104100 0.000000
-1.090300 0.000000
-1.076500 0.000000
-1.062700 0.000000
-1.048900 0.000000
-1.035100 0.000000
-1.021400 0.000000
-1.007600 0.000000
-0.993800 0.000000
-0.980000 0.000000
-0.966200 0.000000
-0.952400 0.000000
-0.938600 0.000000
-0.924900 0.000000
-0.911100 0.000000
-0.897300 0.000000
-0.883500 0.000000
-0.869700 0.000000
-0.855900 0.000000
-0.842100 0.000000
-0.828400 0.000000
-0.814600 0.000000
-0.800800 0.000000
-0.787000 0.000000
-0.773200 0.000000
-0.759400 0.000000
-0.745600 0.000000
-0.731900 0.000000
-0.718100 0.000000
-0.704300 0.000000
-0.690500 0.000000
-0.676700 0.000000
-0.662900 0.000000
-0.649100 0.000000
-0.635400 0.000000
-0.621600 0.000000
-0.607800 0.000000
-0.594000 0.000000
-0.580200 0.000000
-0.566400 0.000000
-0.552600 0.000000
-0.538900 0.000000
-0.525100 0.000000
-0.511300 0.000000
-0.497500 0.000000
-0.483700 0.000000
-0.469900 0.000000
-0.456100 0.000000
-0.442400 0.000000
-0.428600 0.000000
-0.414800 0.000000
-0.401000 0.000000
-0.387200 0.000000
-0.373400 0.000000
-0.359700 0.000000
-0.345900 0.000000
-0.332100 0.000000
-0.318300 0.001100
-0.304500 0.005900
-0.290700 0.014400
-0.276900 0.026600
-0.263200 0.042600
-0.249400 0.054200
-0.235600 0.053300
-0.221800 0.058200
-0.208000 0.063700
-0.194200 0.069800
-0.180400 0.076500
-0.166700 0.083800
-0.152900 0.091700
-0.139100 0.098700
-0.125300 0.104000
-0.111500 0.107600
-0.097700 0.109600
-0.083900 0.115200
-0.070200 0.120000
-0.056400 0.124900
-0.042600 0.130000
-0.028800 0.135200
-0.015000 0.140400
-0.001200 0.145800
0.012600 0.151300
0.026300 0.157100
0.040100 0.163200
0.053900 0.169100
0.067700 0.175500
0.081500 0.181300
0.095300 0.188100
0.109100 0.287700
0.122800 0.282100
0.136600 0.309200
0.150400 0.343400
0.164200 0.414100
0.178000 0.403500
0.191800 0.424200
0.205600 0.441300
0.219300 0.463100
0.233100 0.487500
0.246900 0.513500
0.260700 0.538600
0.274500 0.556800
0.288300 0.581000
0.302100 0.598500
0.315800 0.617900
0.329600 0.639500
0.343400 0.663100
0.357200 0.687700
0.371000 0.710100
0.384800 0.733300
0.398500 0.756700
0.412300 0.775700
0.426100 0.793100
0.439900 0.810000
0.453700 0.831900
0.467500 0.853200
0.481300 0.875500
0.495000 0.898600
0.508800 0.922700
0.522600 0.947600
0.536400 0.973500
0.550200 1.001100
0.564000 1.029000
0.577800 1.053900
0.591500 1.079900
0.605300 1.104200
0.619100 1.127700
0.632900 1.151100
0.646700 1.176300
0.660500 1.205600
0.674300 1.235100
0.688000 1.266300
0.701800 1.299500
0.715600 1.333400
0.729400 1.367300
0.743200 1.401600
0.757000 1.436400
0.770800 1.472100
0.784500 1.510000
0.798300 1.550300
0.812100 1.591700
0.825900 1.633800
0.839700 1.676800
0.853500 1.722000
0.867300 1.773400
0.881000 1.832800
0.894800 1.903000
0.908600 1.975600
0.922400 2.057700
0.936200 2.144500
0.950000 2.241600
0.963800 2.349300
0.977500 2.468800
0.991300 2.601100
1.005100 2.752500
1.018900 2.981200
1.032700 3.464300
1.046500 3.512900
1.060200 3.638100
1.074000 3.845000
1.087800 3.951500
1.101600 3.970700
1.115400 4.318500
1.129200 4.557300
1.143000 5.349900
1.156700 6.615900
1.170500 6.051000
1.184300 4.452900
1.198100 2.899700
1.211900 2.004300
1.225700 1.468800
1.239500 1.101100
1.253200 0.831700
1.267000 0.659100
1.280800 0.351200
1.294600 0.279100
1.308400 0.408900
1.322200 0.476900
1.336000 0.542500
1.349700 0.636100
1.363500 0.676700
1.377300 0.718100
1.391100 0.776300
1.404900 1.011400
1.418700 0.859100
1.432500 0.929500
1.446200 0.975500
1.460000 1.030500
1.473800 1.098900
1.487600 1.181200
1.501400 1.249100
1.515200 1.314100
1.529000 1.362900
1.542700 1.411500
1.556500 1.479100
1.570300 1.544100
1.584100 1.595900
1.597900 1.644900
1.611700 1.698600
1.625500 1.753200
1.639200 1.803200
1.653000 1.841000
1.666800 1.883100
1.680600 1.922100
1.694400 1.960800
1.708200 2.003900
1.722000 2.042900
1.735700 2.085300
1.749500 2.126700
1.763300 2.162700
1.777100 2.199100
1.790900 2.238000
1.804700 2.279100
1.818400 2.325600
1.832200 2.368800
1.846000 2.411600
1.859800 2.463200
1.873600 2.521100
1.887400 2.591600
1.901200 2.699900
1.914900 2.824200
1.928700 2.944700
1.942500 3.045800
1.956300 3.148200
1.970100 3.254100
1.983900 3.352500
1.997700 3.468100
2.011400 3.595600
2.025200 3.918700
2.039000 4.361500
2.052800 4.495800
2.066600 4.488300
2.080400 4.573500
2.094200 4.698400
2.107900 4.791400
2.121700 4.752000
2.135500 4.540700
2.149300 4.260700
2.163100 3.988700
2.176900 3.821800
2.190700 3.712900
2.204400 3.629300
2.218200 3.607500
2.232000 3.576800
2.245800 3.445800
2.259600 3.800900
2.273400 4.255300
2.287200 4.496500
2.300900 4.551700
2.314700 4.599000
2.328500 4.492800
2.342300 4.477600
2.356100 4.553700
2.369900 4.552800
2.383700 4.565300
2.397400 4.580300
2.411200 4.660700
2.425000 4.807000
2.438800 5.576600
2.452600 5.308700
2.466400 4.548000
2.480100 4.228300
2.493900 3.968100
2.507700 3.819500
2.521500 3.789800
2.535300 3.792500
2.549100 3.819700
2.562900 3.953700
2.576600 4.133500
2.590400 4.093000
2.604200 3.954800
2.618000 3.935500
2.631800 3.885800
2.645600 3.856100
2.659400 3.833500
2.673100 3.814700
2.686900 3.813500
2.700700 3.813700
2.714500 3.915000
2.728300 4.242500
2.742100 4.224600
2.755900 4.056200
2.769600 3.964300
2.783400 3.922400
2.797200 3.381200
2.811000 3.104000
2.824800 2.967600
2.838600 2.845100
2.852400 2.721500
2.866100 2.709400
2.879900 2.723000
2.893700 2.748900
2.907500 2.826600
2.921300 2.928500
2.935100 2.976800
2.948900 2.979800
2.962600 3.115400
2.976400 3.413800
2.990200 3.620000
3.004000 3.737700
3.017800 3.834700
3.031600 3.920500
3.045400 4.123800
3.059100 4.379300
3.072900 4.546500
3.086700 4.548200
3.100500 4.485700
3.114300 4.419200
3.128100 4.469800
3.141900 4.443100
3.155600 4.418100
3.169400 4.295100
3.183200 4.145400
3.197000 4.113000
3.210800 4.155200
3.224600 4.206700
3.238300 4.548100
3.252100 4.702400
3.265900 4.997300
3.279700 4.915200
3.293500 4.943900
3.307300 4.949900
3.321100 5.062300
3.334800 5.098100
3.348600 4.797900
3.362400 4.464400
3.376200 4.255400
3.390000 4.191200
3.403800 4.052100
3.417600 4.079000
3.431300 4.143100
3.445100 4.222700
3.458900 4.319700
3.472700 4.317400
3.486500 4.176800
3.500300 3.949300
3.514100 3.801700
3.527800 3.732900
3.541600 3.656000
3.555400 3.497600
3.569200 3.385400
3.583000 3.283600
3.596800 3.187400
3.610600 3.109400
3.624300 3.083100
3.638100 2.972800
3.651900 2.957200
3.665700 2.956500
3.679500 2.937300
3.693300 2.903600
3.707100 2.871000
3.720800 2.767400
3.734600 2.747500
3.748400 2.710500
3.762200 2.544400
3.776000 2.375700
3.789800 2.382000
3.803600 2.501400
3.817300 2.648400
3.831100 2.725100
3.844900 2.807000
3.858700 2.947000
3.872500 3.038000
3.886300 3.302900
3.900000 3.226400
3.913800 3.118100
3.927600 3.025300
3.941400 2.948100
3.955200 2.849800
3.969000 2.756000
3.982800 2.689000
3.996500 2.618300
4.010300 2.556700
4.024100 2.523200
4.037900 2.529400
4.051700 2.528600
4.065500 2.529000
4.079300 2.536800
4.093000 2.577900
4.106800 2.634000
4.120600 2.711700
4.134400 2.904200
4.148200 3.008200
4.162000 3.038700
4.175800 3.099200
4.189500 3.161400
4.203300 3.250200
4.217100 3.341100
4.230900 3.388500
4.244700 3.441800
4.258500 3.490800
4.272300 3.542800
4.286000 3.670700
4.299800 3.796900
4.313600 3.908700
4.327400 4.224700
4.341200 4.682400
4.355000 4.854700
4.368800 4.860400
4.382500 5.027900
4.396300 5.160000
4.410100 5.077800
4.423900 4.871300
4.437700 4.715300
4.451500 4.669700
4.465300 4.573000
4.479000 4.434300
4.492800 4.393700
4.506600 4.252900
4.520400 4.045600
4.534200 3.842800
4.548000 3.686100
4.561800 3.660000
4.575500 3.701900
4.589300 3.923100
4.603100 4.264100
4.616900 4.464500
4.630700 4.525800
4.644500 4.442900
4.658200 4.640000
4.672000 4.951900
4.685800 5.270400
4.699600 5.575400
4.713400 5.728900
4.727200 5.923200
4.741000 6.078700
4.754700 6.502200
4.768500 7.156200
4.782300 6.817900
4.796100 6.238800
4.809900 5.862200
4.823700 5.691200
4.837500 5.422300
4.851200 5.288500
4.865000 5.290400
4.878800 5.357700
4.892600 5.432300
4.906400 5.706800
4.920200 5.871000
4.934000 5.967700
4.947700 6.078500
4.961500 5.854600
4.975300 5.610600
4.989100 5.464900
5.002900 4.883700
5.016700 4.393200
5.030500 4.343000
5.044200 4.371100
5.058000 4.474500
5.071800 4.612200
5.085600 4.808100
5.099400 5.117700
5.113200 5.408800
5.127000 5.635700
5.140700 5.520700
5.154500 5.232100
5.168300 5.037700
5.182100 4.913500
5.195900 4.831200
5.209700 4.797900
5.223500 4.842200
5.237200 4.898000
5.251000 4.914900
5.264800 4.774200
5.278600 4.601000
5.292400 4.533200
5.306200 4.332400
5.319900 4.141800
5.333700 4.104600
5.347500 4.066200
5.361300 4.035200
5.375100 4.033400
5.388900 4.031300
5.402700 4.022900
5.416400 4.019400
5.430200 4.018800
5.444000 4.031100
5.457800 4.045400
5.471600 4.058600
5.485400 4.069000
5.499200 4.134700
5.512900 4.045000
5.526700 3.944700
5.540500 3.897900
5.554300 3.860200
5.568100 3.825000
5.581900 3.790700
5.595700 3.756500
5.609400 3.728400
5.623200 3.703200
5.637000 3.686000
5.650800 3.671400
5.664600 3.671400
5.678400 3.688900
5.692200 3.644200
5.705900 3.637300
5.719700 3.622900
5.733500 3.558100
5.747300 3.526200
5.761100 3.492400
5.774900 3.463000
5.788700 3.453300
5.802400 3.449500
5.816200 3.397800
5.830000 3.259400
5.843800 3.206900
5.857600 3.245100
5.871400 3.280700
5.885200 3.311900
5.898900 3.338100
5.912700 3.345600
5.926500 3.351700
5.940300 3.366800
5.954100 3.363200
5.967900 3.378300
5.981700 3.392600
5.995400 3.420200
6.009200 3.442700
6.023000 3.362500
6.036800 3.303200
6.050600 3.238800
6.064400 3.172600
6.078100 3.136500
6.091900 3.105300
6.105700 3.015600
6.119500 3.067500
6.133300 2.835500
6.147100 2.554700
6.160900 2.438100
6.174600 2.373000
6.188400 2.320900
6.202200 2.288700
6.216000 2.250500
6.229800 2.221600
6.243600 2.191000
6.257400 2.158100
6.271100 2.050000
6.284900 1.966100
6.298700 1.913600
6.312500 1.845300
6.326300 1.744200
6.340100 1.631800
6.353900 1.548800
6.367600 1.518800
6.381400 1.499200
6.395200 1.481200
6.409000 1.465000
6.422800 1.450500
6.436600 1.436100
6.450400 1.421000
6.464100 1.406100
6.477900 1.395900
6.491700 1.403100
6.505500 1.373700
6.519300 1.361900
6.533100 1.347100
6.546900 1.333200
6.560600 1.319800
6.574400 1.306900
6.588200 1.294900
6.602000 1.283800
6.615800 1.269600
6.629600 1.263300
6.643400 1.251200
6.657100 1.237400
6.670900 1.224600
6.684700 1.212800
6.698500 1.201700
6.712300 1.191300
6.726100 1.181200
6.739800 1.171700
6.753600 1.162700
6.767400 1.153200
6.781200 1.143800
6.795000 1.134200
6.808800 1.124500
6.822600 1.115600
6.836300 1.109000
6.850100 1.100600
6.863900 1.096500
6.877700 1.106500
6.891500 1.059200
6.905300 1.050200
6.919100 1.042400
6.932800 1.035500
6.946600 1.024900
6.960400 1.014000
6.974200 1.003000
6.988000 0.992200
7.001800 0.981700
7.015600 0.971200
7.029300 0.961000
7.043100 0.951400
7.056900 0.979800
7.070700 0.949300
7.084500 0.932400
7.098300 0.916600
7.112100 0.902000
7.125800 0.889300
7.139600 0.881700
7.153400 0.867200
7.167200 0.879900
7.181000 0.834100
7.194800 0.815500
7.208600 0.786800
7.222300 0.761100
7.236100 0.749000
7.249900 0.719900
7.263700 0.696100
7.277500 0.676100
7.291300 0.658600
7.305100 0.642400
7.318800 0.634500
7.332600 0.627300
7.346400 0.608600
7.360200 0.599700
7.374000 0.598300
7.387800 0.596900
7.401600 0.592800
7.415300 0.585000
7.429100 0.580300
7.442900 0.617700
7.456700 0.739400
7.470500 0.734000
7.484300 0.820600
7.498000 0.810400
7.511800 0.812600
7.525600 0.854200
7.539400 0.906000
7.553200 0.886900
7.567000 0.890800
7.580800 0.916600
7.594500 0.951100
7.608300 0.971900
7.622100 0.955400
7.635900 0.957100
7.649700 0.965300
7.663500 0.971200
7.677300 0.972100
7.691000 0.957500
7.704800 0.945400
7.718600 0.941500
7.732400 0.933800
7.746200 0.911600
7.760000 0.899000
7.773800 0.890200
7.787500 0.882500
7.801300 0.874900
7.815100 0.866400
7.828900 0.858000
7.842700 0.850200
7.856500 0.843500
7.870300 0.837800
7.884000 0.833300
7.897800 0.830000
7.911600 0.828000
7.925400 0.826400
7.939200 0.828100
7.953000 0.830700
7.966800 0.840600
7.980500 0.840300
7.994300 0.836600
8.008100 0.830300
8.021900 0.823500
8.035700 0.817200
8.049500 0.811700
8.063300 0.807100
8.077000 0.803000
8.090800 0.799300
8.104600 0.796000
8.118400 0.791900
8.132200 0.789100
8.146000 0.786000
8.159700 0.784000
8.173500 0.784000
8.187300 0.784200
8.201100 0.784600
8.214900 0.785200
8.228700 0.786100
8.242500 0.787300
8.256200 0.788600
8.270000 0.790400
8.283800 0.792500
8.297600 0.795100
8.311400 0.798000
8.325200 0.801300
8.339000 0.805000
8.352700 0.830300
8.366500 0.826000
8.380300 0.831100
8.394100 0.837700
8.407900 0.846100
8.421700 0.855700
8.435500 0.866700
8.449200 0.878900
8.463000 0.892200
8.476800 0.906000
8.490600 0.936400
8.504400 0.958800
8.518200 0.983500
8.532000 1.013200
8.545700 1.039900
8.559500 1.076400
8.573300 1.133200
8.587100 1.210000
8.600900 1.860000
8.614700 2.395200
8.628500 2.277900
8.642200 2.253100
8.656000 2.246000
8.669800 2.136600
8.683600 2.075800
8.697400 2.044900
8.711200 2.012200
8.725000 1.953200
8.738700 1.883400
8.752500 1.857100
8.766300 1.832700
8.780100 1.807200
8.793900 1.774900
8.807700 1.747400
8.821500 1.723000
8.835200 1.699500
8.849000 1.676800
8.862800 1.657100
8.876600 1.644300
8.890400 1.633000
8.904200 1.621600
8.917900 1.608500
8.931700 1.591200
8.945500 1.570800
8.959300 1.547300
8.973100 1.528200
8.986900 1.517400
9.000700 1.507200
9.014400 1.497100
9.028200 1.487100
9.042000 1.477100
9.055800 1.467400
9.069600 1.457900
9.083400 1.448600
9.097200 1.439100
9.110900 1.429100
9.124700 1.418900
9.138500 1.408300
9.152300 1.398100
9.166100 1.388700
9.179900 1.379400
9.193700 1.369900
9.207400 1.360300
9.221200 1.350900
9.235000 1.341900
9.248800 1.333300
9.262600 1.325800
9.276400 1.319300
9.290200 1.312900
9.303900 1.306600
9.317700 1.300300
9.331500 1.294600
9.345300 1.290200
9.359100 1.287900
9.372900 1.285400
9.386700 1.281300
9.400400 1.277400
9.414200 1.273500
9.428000 1.269500
9.441800 1.264500
9.455600 1.256500
