set title 'mp-102 - Density of States'
set xlabel 'Energy (eV)'
set ylabel 'DOS (states/eV)'
set grid
set xrange [-10:10]
set yrange [0:2.306]
set xzeroaxis lt -1
set terminal png size 800,600
set output 'mp-102_dos_gnuplot.png'
plot '-' using 1:2 with lines title 'DOS'
-14.564400 0.000000
-14.442300 0.000000
-14.320300 0.000000
-14.198200 0.000000
-14.076100 0.000000
-13.954100 0.000000
-13.832000 0.000000
-13.710000 0.000000
-13.587900 0.000000
-13.465800 0.000000
-13.343800 0.000000
-13.221700 0.000000
-13.099700 0.000000
-12.977600 0.000000
-12.855600 0.000000
-12.733500 0.000000
-12.611400 0.000000
-12.489400 0.000000
-12.367300 0.000000
-12.245300 0.000000
-12.123200 0.000000
-12.001100 0.000000
-11.879100 0.000000
-11.757000 0.000000
-11.635000 0.000000
-11.512900 0.000000
-11.390800 0.000000
-11.268800 0.000000
-11.146700 0.000000
-11.024700 0.000000
-10.902600 0.000000
-10.780500 0.000000
-10.658500 0.000000
-10.536400 0.000000
-10.414400 0.000000
-10.292300 0.000000
-10.170300 0.000000
-10.048200 0.000000
-9.926100 0.000000
-9.804100 0.000000
-9.682000 0.000000
-9.560000 0.000000
-9.437900 0.000000
-9.315800 0.000000
-9.193800 0.000000
-9.071700 0.000000
-8.949700 0.000000
-8.827600 0.000000
-8.705500 0.000000
-8.583500 0.000000
-8.461400 0.000000
-8.339400 0.000000
-8.217300 0.000000
-8.095200 0.000000
-7.973200 0.000000
-7.851100 0.000000
-7.729100 0.000000
-7.607000 0.000000
-7.485000 0.000000
-7.362900 0.000000
-7.240800 0.000000
-7.118800 0.000000
-6.996700 0.000000
-6.874700 0.000000
-6.752600 0.000000
-6.630500 0.000000
-6.508500 0.000000
-6.386400 0.000000
-6.264400 0.000000
-6.142300 0.000000
-6.020200 0.000000
-5.898200 0.000000
-5.776100 0.000000
-5.654100 0.000000
-5.532000 0.000000
-5.409900 0.000000
-5.287900 0.000000
-5.165800 0.000000
-5.043800 0.000000
-4.921700 0.000000
-4.799700 0.000000
-4.677600 0.000000
-4.555500 0.000000
-4.433500 0.000000
-4.311400 0.000000
-4.189400 0.000000
-4.067300 0.000000
-3.945200 0.000000
-3.823200 0.000000
-3.701100 0.000000
-3.579100 0.000000
-3.457000 0.003700
-3.334900 0.012300
-3.212900 0.016800
-3.090800 0.020800
-2.968800 0.024300
-2.846700 0.027300
-2.724600 0.030300
-2.602600 0.033000
-2.480500 0.035700
-2.358500 0.038700
-2.236400 0.041200
-2.114300 0.043900
-1.992300 0.046800
-1.870200 0.049500
-1.748200 0.052500
-1.626100 0.055600
-1.504100 0.058800
-1.382000 0.062200
-1.259900 0.065900
-1.137900 0.070000
-1.015800 0.074300
-0.893800 0.079200
-0.771700 0.084700
-0.649600 0.091200
-0.527600 0.098400
-0.405500 0.107500
-0.283500 0.118800
-0.161400 0.132300
-0.039300 0.153200
0.082700 0.181600
0.204800 0.238000
0.326800 0.554600
0.448900 0.563700
0.571000 0.584200
0.693000 0.608200
0.815100 0.634000
0.937100 0.828400
1.059200 0.911400
1.181200 1.021600
1.303300 0.969000
1.425400 0.900800
1.547400 0.743500
1.669500 0.955900
1.791500 0.836900
1.913600 0.742500
2.035700 0.741400
2.157700 0.945300
2.279800 1.067200
2.401800 1.214300
2.523900 1.168700
2.646000 1.404700
2.768000 1.604900
2.890100 1.643800
3.012100 1.230800
3.134200 1.238300
3.256300 0.999600
3.378300 0.969000
3.500400 1.046100
3.622400 1.295800
3.744500 1.380100
3.866500 1.290500
3.988600 1.138600
4.110700 1.083200
4.232700 1.093200
4.354800 1.172400
4.476800 1.361400
4.598900 2.096400
4.721000 1.599300
4.843000 0.829800
4.965100 0.162900
5.087100 0.157500
5.209200 0.154700
5.331300 0.152000
5.453300 0.150600
5.575400 0.147400
5.697400 0.145600
5.819500 0.143400
5.941600 0.142000
6.063600 0.140500
6.185700 0.138600
6.307700 0.137200
6.429800 0.136100
6.551800 0.134600
6.673900 0.133200
6.796000 0.132200
6.918000 0.130700
7.040100 0.129500
7.162100 0.128600
7.284200 0.127600
7.406300 0.126400
7.528300 0.125500
7.650400 0.124700
7.772400 0.124400
7.894500 0.124400
8.016600 0.125500
8.138600 0.124600
8.260700 0.122400
8.382700 0.120600
8.504800 0.118400
8.626900 0.115900
8.748900 0.113800
8.871000 0.111400
8.993000 0.108900
9.115100 0.106600
9.237100 0.104000
9.359200 0.101300
9.481300 0.098500
9.603300 0.095800
9.725400 0.092900
9.847400 0.090500
9.969500 0.087300
10.091600 0.084200
10.213600 0.080900
10.335700 0.077900
10.457700 0.075100
10.579800 0.072000
10.701900 0.068000
10.823900 0.064700
10.946000 0.061500
11.068000 0.058000
11.190100 0.054800
11.312200 0.050700
11.434200 0.047100
11.556300 0.043100
11.678300 0.117100
11.800400 0.128500
11.922400 0.135700
12.044500 0.138400
12.166600 0.142000
12.288600 0.148500
12.410700 0.166900
12.532700 0.163100
12.654800 0.159000
12.776900 0.150000
12.898900 0.146800
13.021000 0.138200
13.143000 0.135100
13.265100 0.133400
13.387200 0.129200
13.509200 0.126700
13.631300 0.124400
13.753300 0.120800
13.875400 0.118800
13.997500 0.117100
14.119500 0.115500
14.241600 0.114100
14.363600 0.112800
14.485700 0.112000
14.607700 0.111400
14.729800 0.111000
14.851900 0.110700
14.973900 0.113900
15.096000 0.170900
15.218000 0.155100
15.340100 0.138600
15.462200 0.132800
15.584200 0.118100
15.706300 0.125700
15.828300 0.182500
15.950400 0.180200
16.072500 0.183200
16.194500 0.184000
16.316600 0.177900
16.438600 0.177400
16.560700 0.176100
16.682800 0.177000
16.804800 0.178100
16.926900 0.174000
17.048900 0.172000
17.171000 0.174300
17.293000 0.177400
17.415100 0.180800
17.537200 0.183300
17.659200 0.183800
17.781300 0.183500
17.903300 0.185600
18.025400 0.186500
18.147500 0.186700
18.269500 0.187100
18.391600 0.188800
18.513600 0.191300
18.635700 0.191500
18.757800 0.191300
18.879800 0.192000
19.001900 0.193700
19.123900 0.195100
19.246000 0.195900
19.368100 0.197900
19.490100 0.199600
19.612200 0.200400
19.734200 0.201900
19.856300 0.203500
19.978300 0.206200
20.100400 0.209100
20.222500 0.213300
20.344500 0.216800
20.466600 0.228400
20.588600 0.225500
20.710700 0.222600
20.832800 0.220900
20.954800 0.219500
21.076900 0.218300
21.198900 0.216800
21.321000 0.214400
21.443100 0.212600
21.565100 0.212100
21.687200 0.209800
21.809200 0.207600
21.931300 0.205800
22.053400 0.203700
22.175400 0.203100
22.297500 0.201200
22.419500 0.199400
22.541600 0.197600
22.663600 0.195200
22.785700 0.193000
22.907800 0.192000
23.029800 0.190700
23.151900 0.188900
23.273900 0.187000
23.396000 0.184700
23.518100 0.182500
23.640100 0.180400
23.762200 0.179600
23.884200 0.178800
24.006300 0.176700
24.128400 0.174700
24.250400 0.172600
24.372500 0.170400
24.494500 0.168400
24.616600 0.166500
24.738700 0.165900
24.860700 0.164200
24.982800 0.161700
25.104800 0.159700
25.226900 0.157900
25.349000 0.156400
25.471000 0.163900
25.593100 0.165900
25.715100 0.169100
25.837200 0.171700
25.959200 0.170900
26.081300 0.172900
26.203400 0.175700
26.325400 0.178400
26.447500 0.181400
26.569500 0.184400
26.691600 0.188800
26.813700 0.199200
26.935700 0.205200
27.057800 0.216300
27.179800 0.223700
27.301900 0.230200
27.424000 0.230600
27.546000 0.231400
27.668100 0.234100
27.790100 0.236500
27.912200 0.236000
28.034300 0.242700
28.156300 0.240500
28.278400 0.239900
28.400400 0.243100
28.522500 0.250500
28.644500 0.242900
28.766600 0.242300
28.888700 0.242400
29.010700 0.255500
29.132800 0.246300
29.254800 0.244500
29.376900 0.254400
29.499000 0.259600
29.621000 0.273100
29.743100 0.285900
29.865100 0.281500
29.987200 0.282700
30.109300 0.267300
30.231300 0.263300
30.353400 0.253900
30.475400 0.248700
30.597500 0.248800
30.719600 0.246300
30.841600 0.238100
30.963700 0.236300
31.085700 0.228500
31.207800 0.230500
31.329800 0.222000
31.451900 0.219300
31.574000 0.215400
31.696000 0.209900
31.818100 0.202700
31.940100 0.191100
32.062200 0.183200
32.184300 0.178600
32.306300 0.173800
32.428400 0.168400
32.550400 0.162800
32.672500 0.160200
32.794600 0.161200
32.916600 0.165100
33.038700 0.175500
33.160700 0.171500
33.282800 0.160800
33.404900 0.158300
33.526900 0.145500
33.649000 0.142000
33.771000 0.134600
33.893100 0.131200
34.015100 0.135200
34.137200 0.152800
34.259300 0.181100
34.381300 0.193200
34.503400 0.225500
34.625400 0.251400
34.747500 0.266700
34.869600 0.289600
34.991600 0.295800
35.113700 0.303000
35.235700 0.299900
35.357800 0.303100
35.479900 0.324300
35.601900 0.331900
35.724000 0.320300
35.846000 0.306800
35.968100 0.299400
36.090200 0.304600
36.212200 0.271000
36.334300 0.260600
36.456300 0.257700
36.578400 0.248600
36.700400 0.238400
36.822500 0.230300
36.944600 0.225800
37.066600 0.213600
37.188700 0.207300
37.310700 0.204100
37.432800 0.201100
37.554900 0.196200
37.676900 0.201600
37.799000 0.203100
37.921000 0.205200
38.043100 0.199300
38.165200 0.201100
38.287200 0.197500
38.409300 0.198500
38.531300 0.198500
38.653400 0.203900
38.775500 0.209800
38.897500 0.220900
39.019600 0.236500
39.141600 0.262600
39.263700 0.297500
39.385700 0.293200
39.507800 0.287200
39.629900 0.289000
39.751900 0.287100
39.874000 0.283500
39.996000 0.284500
40.118100 0.284400
40.240200 0.284700
40.362200 0.281100
40.484300 0.277600
40.606300 0.278800
40.728400 0.275700
40.850500 0.274500
40.972500 0.269200
41.094600 0.261400
41.216600 0.256200
41.338700 0.254300
41.460800 0.249900
41.582800 0.246300
41.704900 0.243300
41.826900 0.238400
41.949000 0.233800
42.071000 0.233700
42.193100 0.234600
42.315200 0.234900
42.437200 0.235700
42.559300 0.232200
42.681300 0.232600
42.803400 0.229400
42.925500 0.227500
43.047500 0.227300
43.169600 0.226100
43.291600 0.225400
43.413700 0.225600
43.535800 0.233400
43.657800 0.238100
43.779900 0.246100
43.901900 0.254700
44.024000 0.262900
44.146100 0.266700
44.268100 0.268200
44.390200 0.270100
44.512200 0.270700
44.634300 0.272200
44.756300 0.270100
44.878400 0.271600
45.000500 0.272100
45.122500 0.263600
45.244600 0.254100
45.366600 0.249400
45.488700 0.248500
45.610800 0.245900
45.732800 0.255500
45.854900 0.268100
45.976900 0.273200
46.099000 0.280000
46.221100 0.286600
46.343100 0.294100
46.465200 0.295900
46.587200 0.297500
46.709300 0.302200
46.831400 0.298500
46.953400 0.294000
47.075500 0.286200
47.197500 0.277500
47.319600 0.270600
47.441600 0.264800
47.563700 0.260400
47.685800 0.257600
47.807800 0.254300
47.929900 0.256900
48.051900 0.264900
48.174000 0.274100
48.296100 0.281000
48.418100 0.290300
48.540200 0.292900
48.662200 0.294000
48.784300 0.297800
48.906400 0.299500
49.028400 0.300100
49.150500 0.299500
49.272500 0.296700
49.394600 0.295500
49.516700 0.295900
49.638700 0.293700
49.760800 0.291800
49.882800 0.289700
50.004900 0.286800
50.127000 0.289600
50.249000 0.293200
50.371100 0.297100
50.493100 0.299100
50.615200 0.299500
50.737200 0.300700
50.859300 0.301100
50.981400 0.305000
51.103400 0.310100
51.225500 0.308900
51.347500 0.308700
51.469600 0.309900
51.591700 0.311900
51.713700 0.315300
51.835800 0.322500
51.957800 0.323200
52.079900 0.325300
52.202000 0.319400
52.324000 0.321200
52.446100 0.324100
52.568100 0.329400
52.690200 0.345700
52.812300 0.338100
52.934300 0.339100
53.056400 0.340600
53.178400 0.348900
53.300500 0.353500
53.422500 0.354700
53.544600 0.360000
53.666700 0.349300
53.788700 0.335900
53.910800 0.330100
54.032800 0.323100
54.154900 0.326500
54.277000 0.324200
54.399000 0.320800
54.521100 0.311200
54.643100 0.305700
54.765200 0.303900
54.887300 0.295200
55.009300 0.286600
55.131400 0.278700
55.253400 0.276100
55.375500 0.275500
55.497600 0.273700
55.619600 0.278900
55.741700 0.277900
55.863700 0.270000
55.985800 0.270300
56.107800 0.268300
56.229900 0.263200
56.352000 0.248800
56.474000 0.250300
56.596100 0.263700
56.718100 0.275400
56.840200 0.283000
56.962300 0.286300
57.084300 0.300300
57.206400 0.298600
57.328400 0.289400
57.450500 0.297300
57.572600 0.313600
57.694600 0.324500
57.816700 0.332500
57.938700 0.346000
58.060800 0.362500
58.182900 0.353000
58.304900 0.340700
58.427000 0.311700
58.549000 0.293800
58.671100 0.286400
58.793100 0.275100
58.915200 0.274400
59.037300 0.274200
59.159300 0.269000
59.281400 0.270100
59.403400 0.281100
59.525500 0.274000
59.647600 0.271100
59.769600 0.268100
59.891700 0.265700
60.013700 0.276500
60.135800 0.274500
60.257900 0.279800
60.379900 0.281600
60.502000 0.286500
60.624000 0.298800
60.746100 0.330800
60.868200 0.342300
60.990200 0.343400
61.112300 0.336700
61.234300 0.325800
61.356400 0.329400
61.478400 0.320500
61.600500 0.312900
61.722600 0.300400
61.844600 0.287600
61.966700 0.284000
62.088700 0.280000
62.210800 0.287400
62.332900 0.301000
62.454900 0.285000
62.577000 0.288200
62.699000 0.287300
62.821100 0.283400
62.943200 0.294800
63.065200 0.324000
63.187300 0.348600
63.309300 0.360900
63.431400 0.349900
63.553500 0.356100
63.675500 0.346000
63.797600 0.343500
63.919600 0.350300
64.041700 0.382000
64.163700 0.364500
64.285800 0.371900
64.407900 0.378800
64.529900 0.375700
64.652000 0.376900
64.774000 0.397000
64.896100 0.402900
65.018200 0.398700
65.140200 0.402300
65.262300 0.399000
65.384300 0.394500
65.506400 0.392200
65.628500 0.391200
65.750500 0.389600
65.872600 0.392700
65.994600 0.392000
66.116700 0.394100
66.238800 0.393800
66.360800 0.389900
66.482900 0.389300
66.604900 0.378500
66.727000 0.372100
66.849000 0.375100
66.971100 0.369900
67.093200 0.356800
67.215200 0.355000
67.337300 0.350900
67.459300 0.343400
67.581400 0.345000
67.703500 0.346600
67.825500 0.355000
67.947600 0.361700
68.069600 0.355900
68.191700 0.351700
68.313800 0.344000
68.435800 0.337100
68.557900 0.350300
68.679900 0.349400
68.802000 0.330900
68.924100 0.333300
69.046100 0.333400
69.168200 0.333100
69.290200 0.334300
69.412300 0.335900
69.534300 0.340200
69.656400 0.350600
69.778500 0.355200
69.900500 0.367000
70.022600 0.379500
70.144600 0.388800
70.266700 0.410500
70.388800 0.424000
70.510800 0.422300
70.632900 0.404100
70.754900 0.381200
70.877000 0.363900
70.999100 0.363500
71.121100 0.339600
71.243200 0.325000
71.365200 0.314000
71.487300 0.318200
71.609400 0.317300
71.731400 0.316900
71.853500 0.311300
71.975500 0.321300
72.097600 0.327100
72.219600 0.334900
72.341700 0.335000
72.463800 0.336400
72.585800 0.345300
72.707900 0.358000
72.829900 0.379000
72.952000 0.400400
73.074100 0.394500
73.196100 0.389400
73.318200 0.398900
73.440200 0.394500
73.562300 0.381400
73.684400 0.380900
73.806400 0.375900
73.928500 0.401400
74.050500 0.429700
74.172600 0.427300
74.294700 0.432300
74.416700 0.458100
74.538800 0.487500
74.660800 0.523600
74.782900 0.537400
74.905000 0.498700
75.027000 0.481400
75.149100 0.474400
75.271100 0.428600
75.393200 0.409600
75.515200 0.401800
75.637300 0.415300
75.759400 0.421900
75.881400 0.432600
76.003500 0.431800
76.125500 0.417000
76.247600 0.378600
76.369700 0.370700
76.491700 0.364500
76.613800 0.362300
76.735800 0.415100
76.857900 0.424300
76.980000 0.431600
77.102000 0.429900
77.224100 0.411100
77.346100 0.402700
77.468200 0.403000
77.590300 0.405700
77.712300 0.384700
77.834400 0.389300
77.956400 0.388600
78.078500 0.381600
78.200500 0.377000
78.322600 0.379200
78.444700 0.375800
78.566700 0.376100
78.688800 0.379100
78.810800 0.380400
78.932900 0.368900
79.055000 0.389100
79.177000 0.395700
79.299100 0.406300
79.421100 0.414100
79.543200 0.456300
79.665300 0.476600
79.787300 0.498000
79.909400 0.486000
80.031400 0.487300
80.153500 0.472400
80.275600 0.473500
80.397600 0.456500
80.519700 0.448400
80.641700 0.440000
80.763800 0.416600
80.885800 0.396500
81.007900 0.385600
81.130000 0.377800
81.252000 0.375700
81.374100 0.372900
81.496100 0.385400
81.618200 0.390100
81.740300 0.393300
81.862300 0.390700
81.984400 0.389800
82.106400 0.392900
82.228500 0.408100
82.350600 0.433600
82.472600 0.455600
82.594700 0.460500
82.716700 0.452200
82.838800 0.445000
82.960900 0.448700
83.082900 0.444800
83.205000 0.437300
83.327000 0.435100
83.449100 0.439800
83.571100 0.439400
83.693200 0.455500
83.815300 0.445900
83.937300 0.509600
84.059400 0.601000
84.181400 0.597200
84.303500 0.572200
84.425600 0.549500
84.547600 0.628400
84.669700 0.676700
84.791700 0.678100
84.913800 0.642200
85.035900 0.598000
85.157900 0.551200
85.280000 0.523200
85.402000 0.511600
85.524100 0.508200
85.646200 0.546800
85.768200 0.555900
85.890300 0.561100
86.012300 0.556500
86.134400 0.526600
86.256400 0.524400
86.378500 0.517200
86.500600 0.510900
86.622600 0.511700
86.744700 0.526900
86.866700 0.567000
86.988800 0.630200
87.110900 0.689900
87.232900 0.675200
87.355000 0.590900
87.477000 0.593500
87.599100 0.601100
87.721200 0.626700
87.843200 0.608800
87.965300 0.618600
88.087300 0.641200
88.209400 0.668900
88.331500 0.652600
88.453500 0.612900
88.575600 0.536000
88.697600 0.502400
88.819700 0.513000
88.941700 0.469600
89.063800 0.395500
89.185900 0.352000
89.307900 0.342700
89.430000 0.338300
89.552000 0.335100
89.674100 0.332400
89.796200 0.329800
89.918200 0.328900
90.040300 0.340100
90.162300 0.348700
90.284400 0.354300
90.406500 0.357500
90.528500 0.362800
90.650600 0.371600
90.772600 0.381900
90.894700 0.382800
91.016800 0.393000
91.138800 0.399500
91.260900 0.401700
91.382900 0.397400
91.505000 0.403700
91.627000 0.405800
91.749100 0.404900
91.871200 0.409100
91.993200 0.413100
92.115300 0.429600
92.237300 0.435200
92.359400 0.448700
92.481500 0.464800
92.603500 0.476500
92.725600 0.489500
92.847600 0.522600
92.969700 0.591700
93.091800 0.607000
93.213800 0.578100
93.335900 0.553700
93.457900 0.549500
93.580000 0.533900
93.702100 0.570700
93.824100 0.514500
93.946200 0.499800
94.068200 0.486400
94.190300 0.478600
94.312300 0.462500
94.434400 0.445700
94.556500 0.432300
94.678500 0.426000
94.800600 0.418100
94.922600 0.415500
95.044700 0.420500
95.166800 0.418600
95.288800 0.425400
95.410900 0.437400
95.532900 0.451500
95.655000 0.484400
95.777100 0.470300
95.899100 0.495100
96.021200 0.478100
96.143200 0.439200
96.265300 0.387700
96.387400 0.346900
96.509400 0.338500
96.631500 0.343200
96.753500 0.343000
96.875600 0.340400
96.997600 0.330400
97.119700 0.324700
97.241800 0.314900
97.363800 0.312800
97.485900 0.307700
97.607900 0.300400
97.730000 0.297400
97.852100 0.296400
97.974100 0.298600
98.096200 0.291600
98.218200 0.286500
98.340300 0.285100
98.462400 0.288000
98.584400 0.292600
98.706500 0.289000
98.828500 0.286700
98.950600 0.282100
99.072700 0.268800
99.194700 0.273600
99.316800 0.277900
99.438800 0.280900
99.560900 0.288500
99.683000 0.293200
99.805000 0.281700
99.927100 0.270500
100.049100 0.263600
100.171200 0.258900
100.293200 0.258600
100.415300 0.265800
100.537400 0.277600
100.659400 0.287700
100.781500 0.305900
100.903500 0.327900
101.025600 0.365200
101.147700 0.367600
101.269700 0.353500
101.391800 0.340300
101.513800 0.335000
101.635900 0.369500
101.758000 0.414300
101.880000 0.555300
102.002100 0.540000
102.124100 0.438600
102.246200 0.369600
102.368300 0.335000
102.490300 0.329400
102.612400 0.375300
102.734400 0.402900
102.856500 0.413700
102.978500 0.396300
103.100600 0.415100
103.222700 0.405500
103.344700 0.426500
103.466800 0.416600
103.588800 0.407000
103.710900 0.392800
103.833000 0.444100
103.955000 0.440800
104.077100 0.390300
104.199100 0.372200
104.321200 0.348000
104.443300 0.334100
104.565300 0.321100
104.687400 0.303500
104.809400 0.292200
104.931500 0.293200
105.053600 0.302100
105.175600 0.297200
105.297700 0.300000
105.419700 0.304500
105.541800 0.316500
105.663800 0.334900
105.785900 0.339300
105.908000 0.356600
106.030000 0.371700
106.152100 0.379600
106.274100 0.382000
106.396200 0.391900
106.518300 0.383700
106.640300 0.383900
106.762400 0.384600
106.884400 0.390900
107.006500 0.401900
107.128600 0.422900
107.250600 0.412300
107.372700 0.415800
107.494700 0.423800
107.616800 0.427400
107.738900 0.425000
107.860900 0.413800
107.983000 0.406700
108.105000 0.398100
108.227100 0.400200
108.349100 0.412100
108.471200 0.415600
108.593300 0.415100
108.715300 0.422300
108.837400 0.436300
108.959400 0.430200
109.081500 0.413000
109.203600 0.391600
109.325600 0.389600
109.447700 0.397400
109.569700 0.418400
109.691800 0.366500
109.813900 0.359000
109.935900 0.366700
110.058000 0.375600
110.180000 0.378700
110.302100 0.386000
110.424200 0.394700
110.546200 0.387800
110.668300 0.362100
110.790300 0.353500
110.912400 0.345500
111.034400 0.331500
111.156500 0.333400
111.278600 0.335000
111.400600 0.341600
111.522700 0.370100
111.644700 0.388700
