set title 'mp-556395 - Density of States'
set xlabel 'Energy (eV)'
set ylabel 'DOS (states/eV)'
set grid
set xrange [-10:10]
set yrange [0:167.176]
set xzeroaxis lt -1
set terminal png size 800,600
set output 'mp-556395_dos_gnuplot.png'
plot '-' using 1:2 with lines title 'DOS'
-12.602400 0.000000
-12.586500 0.000000
-12.570600 0.000000
-12.554700 0.000000
-12.538900 0.000000
-12.523000 0.000000
-12.507100 0.000000
-12.491200 0.000000
-12.475300 0.000000
-12.459400 0.000000
-12.443500 0.000000
-12.427700 0.000000
-12.411800 0.000000
-12.395900 0.000000
-12.380000 0.000000
-12.364100 0.000000
-12.348200 0.000000
-12.332300 0.000000
-12.316500 0.000000
-12.300600 0.000000
-12.284700 0.000000
-12.268800 0.000000
-12.252900 0.000000
-12.237000 0.000000
-12.221100 0.000000
-12.205300 0.000000
-12.189400 0.000000
-12.173500 0.000000
-12.157600 0.000000
-12.141700 0.000000
-12.125800 0.000000
-12.109900 0.000000
-12.094100 0.000000
-12.078200 0.000000
-12.062300 0.000000
-12.046400 0.000000
-12.030500 0.000000
-12.014600 0.000000
-11.998700 0.000000
-11.982900 0.000000
-11.967000 0.000000
-11.951100 0.000000
-11.935200 0.000000
-11.919300 0.000000
-11.903400 0.000000
-11.887500 0.000000
-11.871700 0.000000
-11.855800 0.000000
-11.839900 0.000000
-11.824000 0.000000
-11.808100 0.000000
-11.792200 0.000000
-11.776300 0.000000
-11.760500 0.000000
-11.744600 0.000000
-11.728700 0.000000
-11.712800 0.000000
-11.696900 0.000000
-11.681000 0.000000
-11.665100 0.000000
-11.649300 0.000000
-11.633400 0.000000
-11.617500 0.000000
-11.601600 0.000000
-11.585700 0.000000
-11.569800 0.000000
-11.553900 0.000000
-11.538100 0.000000
-11.522200 0.000000
-11.506300 0.000000
-11.490400 0.000000
-11.474500 0.000000
-11.458600 0.000000
-11.442700 0.000000
-11.426900 0.000000
-11.411000 0.000000
-11.395100 0.000000
-11.379200 0.000000
-11.363300 0.000000
-11.347400 0.000000
-11.331500 0.000000
-11.315700 0.000000
-11.299800 0.000000
-11.283900 0.000000
-11.268000 0.000000
-11.252100 0.000000
-11.236200 0.000000
-11.220300 0.000000
-11.204500 0.000000
-11.188600 0.000000
-11.172700 0.000000
-11.156800 0.021900
-11.140900 0.262800
-11.125000 0.503600
-11.109100 0.744500
-11.093300 0.985300
-11.077400 1.226200
-11.061500 1.467000
-11.045600 1.707900
-11.029700 1.081800
-11.013800 1.112000
-10.997900 1.326400
-10.982100 1.619000
-10.966200 1.911500
-10.950300 2.204100
-10.934400 2.496700
-10.918500 2.891700
-10.902600 3.442200
-10.886700 3.110000
-10.870900 3.432200
-10.855000 3.754400
-10.839100 4.076700
-10.823200 4.398900
-10.807300 4.721100
-10.791400 4.020200
-10.775500 4.109100
-10.759700 4.197900
-10.743800 4.286800
-10.727900 4.375600
-10.712000 4.464500
-10.696100 4.562600
-10.680200 4.893200
-10.664300 5.686100
-10.648500 6.487800
-10.632600 7.289500
-10.616700 8.091200
-10.600800 8.892900
-10.584900 8.700000
-10.569000 8.163200
-10.553100 8.377800
-10.537300 8.592400
-10.521400 8.806900
-10.505500 9.021500
-10.489600 9.237300
-10.473700 9.461300
-10.457800 10.011100
-10.441900 10.456500
-10.426100 10.901900
-10.410200 11.347300
-10.394300 11.926500
-10.378400 13.045800
-10.362500 15.788300
-10.346600 16.943500
-10.330700 18.138200
-10.314900 18.094500
-10.299000 18.791500
-10.283100 19.489400
-10.267200 21.247800
-10.251300 21.585600
-10.235400 22.505500
-10.219500 23.425300
-10.203700 19.197900
-10.187800 22.631300
-10.171900 23.892200
-10.156000 25.602100
-10.140100 20.900600
-10.124200 25.322700
-10.108300 28.472200
-10.092500 34.049300
-10.076600 25.725900
-10.060700 30.725700
-10.044800 26.131400
-10.028900 25.339500
-10.013000 18.827900
-9.997100 17.077500
-9.981300 15.327100
-9.965400 15.793700
-9.949500 20.290200
-9.933600 30.604500
-9.917700 16.037600
-9.901800 14.755300
-9.885900 5.240900
-9.870100 5.668700
-9.854200 6.096500
-9.838300 6.524300
-9.822400 20.146200
-9.806500 30.126100
-9.790600 0.000000
-9.774700 0.000000
-9.758900 0.000000
-9.743000 0.000000
-9.727100 0.000000
-9.711200 0.000000
-9.695300 0.000000
-9.679400 0.000000
-9.663500 0.000000
-9.647700 0.000000
-9.631800 0.000000
-9.615900 0.000000
-9.600000 0.000000
-9.584100 0.000000
-9.568200 0.000000
-9.552300 0.000000
-9.536500 0.000000
-9.520600 0.000000
-9.504700 0.000000
-9.488800 0.000000
-9.472900 0.000000
-9.457000 0.000000
-9.441100 0.000000
-9.425300 0.000000
-9.409400 0.000000
-9.393500 0.000000
-9.377600 0.000000
-9.361700 0.000000
-9.345800 0.000000
-9.329900 0.000000
-9.314100 0.000000
-9.298200 0.000000
-9.282300 0.000000
-9.266400 0.000000
-9.250500 0.000000
-9.234600 0.000000
-9.218700 0.000000
-9.202900 0.000000
-9.187000 0.000000
-9.171100 0.000000
-9.155200 0.000000
-9.139300 0.000000
-9.123400 0.000000
-9.107500 0.000000
-9.091700 0.000000
-9.075800 0.000000
-9.059900 0.000000
-9.044000 0.000000
-9.028100 0.000000
-9.012200 0.000000
-8.996300 0.000000
-8.980500 0.000000
-8.964600 0.000000
-8.948700 0.000000
-8.932800 0.000000
-8.916900 0.000000
-8.901000 0.000000
-8.885100 0.000000
-8.869300 0.000000
-8.853400 0.000000
-8.837500 0.000000
-8.821600 0.000000
-8.805700 0.000000
-8.789800 0.000000
-8.773900 0.000000
-8.758100 0.000000
-8.742200 0.000000
-8.726300 0.000000
-8.710400 0.000000
-8.694500 0.000000
-8.678600 0.000000
-8.662800 0.000000
-8.646900 0.000000
-8.631000 0.000000
-8.615100 0.000000
-8.599200 0.000000
-8.583300 0.000000
-8.567400 0.000000
-8.551600 0.000000
-8.535700 0.000000
-8.519800 0.000000
-8.503900 0.000000
-8.488000 0.000000
-8.472100 0.000000
-8.456200 0.000000
-8.440400 0.000000
-8.424500 0.000000
-8.408600 0.000000
-8.392700 0.000000
-8.376800 0.000000
-8.360900 0.000000
-8.345000 0.000000
-8.329200 0.000000
-8.313300 0.000000
-8.297400 0.000000
-8.281500 0.000000
-8.265600 0.000000
-8.249700 0.000000
-8.233800 0.000000
-8.218000 0.000000
-8.202100 0.000000
-8.186200 0.000000
-8.170300 0.000000
-8.154400 0.000000
-8.138500 0.000000
-8.122600 0.000000
-8.106800 0.000000
-8.090900 0.000000
-8.075000 0.000000
-8.059100 0.000000
-8.043200 0.000000
-8.027300 0.000000
-8.011400 0.000000
-7.995600 0.000000
-7.979700 0.000000
-7.963800 0.000000
-7.947900 0.000000
-7.932000 0.000000
-7.916100 0.000000
-7.900200 0.000000
-7.884400 0.000000
-7.868500 0.000000
-7.852600 0.000000
-7.836700 0.000000
-7.820800 0.000000
-7.804900 0.000000
-7.789000 0.000000
-7.773200 0.000000
-7.757300 0.000000
-7.741400 0.000000
-7.725500 0.000000
-7.709600 0.000000
-7.693700 0.000000
-7.677800 0.000000
-7.662000 0.000000
-7.646100 0.000000
-7.630200 0.000000
-7.614300 0.000000
-7.598400 0.000000
-7.582500 0.000000
-7.566600 0.000000
-7.550800 0.000000
-7.534900 0.000000
-7.519000 0.000000
-7.503100 0.000000
-7.487200 0.000000
-7.471300 0.000000
-7.455400 0.000000
-7.439600 0.000000
-7.423700 0.000000
-7.407800 0.000000
-7.391900 0.000000
-7.376000 0.000000
-7.360100 0.000000
-7.344200 0.000000
-7.328400 0.000000
-7.312500 0.000000
-7.296600 0.000000
-7.280700 0.000000
-7.264800 0.000000
-7.248900 0.000000
-7.233000 0.000000
-7.217200 0.000000
-7.201300 0.000000
-7.185400 0.000000
-7.169500 0.000000
-7.153600 0.000000
-7.137700 0.000000
-7.121800 0.000000
-7.106000 0.000000
-7.090100 0.000000
-7.074200 0.000000
-7.058300 0.000000
-7.042400 0.000000
-7.026500 0.000000
-7.010600 0.000000
-6.994800 0.000000
-6.978900 0.000000
-6.963000 0.000000
-6.947100 0.000000
-6.931200 0.000000
-6.915300 0.000000
-6.899400 0.000000
-6.883600 0.000000
-6.867700 0.000000
-6.851800 0.000000
-6.835900 0.000000
-6.820000 0.000000
-6.804100 0.000000
-6.788200 0.000000
-6.772400 0.000000
-6.756500 0.000000
-6.740600 0.000000
-6.724700 0.000000
-6.708800 0.000000
-6.692900 0.000000
-6.677000 0.000000
-6.661200 0.000000
-6.645300 0.000000
-6.629400 0.000000
-6.613500 0.000000
-6.597600 0.000000
-6.581700 0.000000
-6.565800 0.000000
-6.550000 0.000000
-6.534100 0.000000
-6.518200 0.000000
-6.502300 0.000000
-6.486400 0.000000
-6.470500 0.000000
-6.454600 0.000000
-6.438800 0.000000
-6.422900 0.000000
-6.407000 0.000000
-6.391100 0.000000
-6.375200 0.000000
-6.359300 0.000000
-6.343400 0.000000
-6.327600 0.000000
-6.311700 0.000000
-6.295800 0.000000
-6.279900 0.000000
-6.264000 0.000000
-6.248100 0.000000
-6.232200 0.000000
-6.216400 0.000000
-6.200500 0.000000
-6.184600 0.000000
-6.168700 0.000000
-6.152800 0.000000
-6.136900 0.000000
-6.121000 0.000000
-6.105200 0.000000
-6.089300 0.000000
-6.073400 0.000000
-6.057500 0.000000
-6.041600 0.000000
-6.025700 0.000000
-6.009800 0.000000
-5.994000 0.000000
-5.978100 0.000000
-5.962200 0.000000
-5.946300 0.000000
-5.930400 0.000000
-5.914500 0.000000
-5.898600 0.000000
-5.882800 0.000000
-5.866900 0.000000
-5.851000 0.000000
-5.835100 0.000000
-5.819200 0.000000
-5.803300 0.000000
-5.787400 0.000000
-5.771600 0.000000
-5.755700 0.000000
-5.739800 0.000000
-5.723900 0.000000
-5.708000 0.000000
-5.692100 0.000000
-5.676200 0.000000
-5.660400 0.000000
-5.644500 0.000000
-5.628600 0.000000
-5.612700 0.000000
-5.596800 0.000000
-5.580900 0.000000
-5.565000 0.000000
-5.549200 0.000000
-5.533300 0.000000
-5.517400 0.000000
-5.501500 0.000000
-5.485600 0.000000
-5.469700 0.000000
-5.453800 0.000000
-5.438000 0.000000
-5.422100 0.000000
-5.406200 0.000000
-5.390300 0.000000
-5.374400 0.000000
-5.358500 0.000000
-5.342600 0.000000
-5.326800 0.000000
-5.310900 0.000000
-5.295000 0.000000
-5.279100 0.000000
-5.263200 0.000000
-5.247300 0.000000
-5.231400 0.000000
-5.215600 0.000000
-5.199700 0.000000
-5.183800 0.000000
-5.167900 0.000000
-5.152000 0.000000
-5.136100 0.000000
-5.120200 0.000000
-5.104400 0.000000
-5.088500 0.000000
-5.072600 0.000000
-5.056700 0.000000
-5.040800 0.000000
-5.024900 0.000000
-5.009000 0.000000
-4.993200 0.000000
-4.977300 0.000000
-4.961400 0.000000
-4.945500 0.000000
-4.929600 0.000000
-4.913700 0.000000
-4.897800 0.000000
-4.882000 0.000000
-4.866100 0.000000
-4.850200 0.000000
-4.834300 0.000000
-4.818400 0.000000
-4.802500 0.000000
-4.786600 0.000000
-4.770800 0.000000
-4.754900 0.000000
-4.739000 0.000000
-4.723100 0.000000
-4.707200 0.000000
-4.691300 0.000000
-4.675400 0.000000
-4.659600 0.000000
-4.643700 0.000000
-4.627800 0.000000
-4.611900 0.000000
-4.596000 0.000000
-4.580100 0.000000
-4.564200 0.000000
-4.548400 0.000000
-4.532500 0.000000
-4.516600 29.543800
-4.500700 51.513100
-4.484800 48.333000
-4.468900 54.145800
-4.453000 63.972800
-4.437200 64.285600
-4.421300 113.029400
-4.405400 69.367500
-4.389500 89.404200
-4.373600 79.731400
-4.357700 100.847600
-4.341800 79.488000
-4.326000 91.899800
-4.310100 82.411500
-4.294200 84.688600
-4.278300 73.492000
-4.262400 67.260600
-4.246500 67.363300
-4.230600 92.871400
-4.214800 106.929200
-4.198900 120.874500
-4.183000 144.947800
-4.167100 103.325100
-4.151200 78.815900
-4.135300 70.246200
-4.119400 86.509400
-4.103600 132.800100
-4.087700 116.105800
-4.071800 108.650700
-4.055900 123.466600
-4.040000 133.264700
-4.024100 151.978600
-4.008200 72.056800
-3.992400 86.060800
-3.976500 67.288700
-3.960600 76.187400
-3.944700 70.441600
-3.928800 99.712800
-3.912900 127.527800
-3.897100 117.649400
-3.881200 61.302800
-3.865300 65.420300
-3.849400 44.950600
-3.833500 129.946200
-3.817600 74.752700
-3.801700 57.662700
-3.785900 113.286500
-3.770000 46.400700
-3.754100 45.496000
-3.738200 145.403100
-3.722300 93.017900
-3.706400 56.596100
-3.690500 32.537500
-3.674700 23.210600
-3.658800 21.505600
-3.642900 21.597100
-3.627000 23.271500
-3.611100 19.552300
-3.595200 11.007800
-3.579300 10.228300
-3.563500 11.282900
-3.547600 12.337500
-3.531700 17.601600
-3.515800 20.056300
-3.499900 10.274000
-3.484000 8.053200
-3.468100 5.832500
-3.452300 3.611700
-3.436400 0.000000
-3.420500 0.000000
-3.404600 0.000000
-3.388700 0.000000
-3.372800 0.000000
-3.356900 0.000000
-3.341100 0.000000
-3.325200 0.000000
-3.309300 0.000000
-3.293400 0.000000
-3.277500 0.000000
-3.261600 0.000000
-3.245700 0.068500
-3.229900 0.183100
-3.214000 0.297700
-3.198100 0.412400
-3.182200 0.527000
-3.166300 0.641700
-3.150400 0.756300
-3.134500 0.870900
-3.118700 0.985600
-3.102800 1.100200
-3.086900 1.214900
-3.071000 0.875600
-3.055100 0.903900
-3.039200 1.796600
-3.023300 4.589800
-3.007500 7.383000
-2.991600 2.882100
-2.975700 3.050500
-2.959800 4.989000
-2.943900 13.346600
-2.928000 5.061800
-2.912100 5.361300
-2.896300 5.660800
-2.880400 5.960300
-2.864500 6.259800
-2.848600 6.559400
-2.832700 7.260700
-2.816800 8.284100
-2.800900 9.307400
-2.785100 10.864200
-2.769200 13.240900
-2.753300 14.896800
-2.737400 18.164100
-2.721500 18.317900
-2.705600 14.435100
-2.689700 6.133600
-2.673900 4.549600
-2.658000 8.465100
-2.642100 7.626200
-2.626200 6.787300
-2.610300 8.866400
-2.594400 14.221400
-2.578500 8.195300
-2.562700 8.010100
-2.546800 8.924600
-2.530900 12.638500
-2.515000 16.352500
-2.499100 13.079800
-2.483200 8.511200
-2.467300 25.108000
-2.451500 9.567000
-2.435600 9.731500
-2.419700 9.877100
-2.403800 15.903200
-2.387900 12.871500
-2.372000 11.509900
-2.356100 12.130000
-2.340300 13.556500
-2.324400 13.089000
-2.308500 14.135400
-2.292600 21.945300
-2.276700 22.817500
-2.260800 24.793700
-2.244900 19.532900
-2.229100 13.971900
-2.213200 9.899600
-2.197300 6.227200
-2.181400 6.155800
-2.165500 6.084300
-2.149600 6.012800
-2.133700 5.941400
-2.117900 5.869900
-2.102000 5.798400
-2.086100 5.482100
-2.070200 5.446700
-2.054300 5.411300
-2.038400 5.030400
-2.022500 5.049700
-2.006700 5.069000
-1.990800 5.088300
-1.974900 5.107600
-1.959000 5.126900
-1.943100 4.426100
-1.927200 4.375000
-1.911300 4.323800
-1.895500 4.272700
-1.879600 4.221500
-1.863700 4.170400
-1.847800 4.124200
-1.831900 4.079400
-1.816000 4.034600
-1.800100 3.989800
-1.784300 3.945000
-1.768400 3.900300
-1.752500 3.855500
-1.736600 3.810700
-1.720700 3.765900
-1.704800 3.623800
-1.688900 3.595300
-1.673100 3.566900
-1.657200 3.538500
-1.641300 3.510100
-1.625400 3.481600
-1.609500 3.453200
-1.593600 3.424800
-1.577700 3.313500
-1.561900 3.298700
-1.546000 3.284600
-1.530100 3.279800
-1.514200 3.275100
-1.498300 3.270400
-1.482400 3.265600
-1.466500 3.260900
-1.450700 3.256200
-1.434800 3.251400
-1.418900 3.927200
-1.403000 4.001100
-1.387100 4.077500
-1.371200 4.145600
-1.355300 4.208400
-1.339500 4.271200
-1.323600 4.334000
-1.307700 4.396800
-1.291800 4.459600
-1.275900 4.522400
-1.260000 4.585200
-1.244100 4.648000
-1.228300 4.710800
-1.212400 4.773600
-1.196500 4.836400
-1.180600 4.899200
-1.164700 4.962000
-1.148800 5.024800
-1.132900 5.087600
-1.117100 6.149500
-1.101200 10.891700
-1.085300 12.955300
-1.069400 11.189500
-1.053500 8.766000
-1.037600 6.342600
-1.021700 5.593900
-1.005900 5.603200
-0.990000 7.324000
-0.974100 6.858900
-0.958200 8.820200
-0.942300 7.409600
-0.926400 6.743200
-0.910500 5.392800
-0.894700 5.317000
-0.878800 5.379200
-0.862900 6.309100
-0.847000 6.424600
-0.831100 7.249700
-0.815200 7.389600
-0.799300 7.561300
-0.783500 9.372200
-0.767600 11.852200
-0.751700 11.962200
-0.735800 12.072300
-0.719900 11.994000
-0.704000 11.664600
-0.688100 11.341800
-0.672300 11.019000
-0.656400 11.680100
-0.640500 11.370100
-0.624600 11.060000
-0.608700 8.702000
-0.592800 8.762500
-0.576900 11.847200
-0.561100 13.902100
-0.545200 15.439900
-0.529300 16.101500
-0.513400 16.763100
-0.497500 17.083000
-0.481600 14.202300
-0.465700 11.483400
-0.449900 11.093100
-0.434000 10.702900
-0.418100 10.312600
-0.402200 9.970800
-0.386300 9.664600
-0.370400 9.576600
-0.354500 9.759100
-0.338700 9.941500
-0.322800 10.124000
-0.306900 10.303000
-0.291000 11.453300
-0.275100 11.637600
-0.259200 11.873400
-0.243300 11.342100
-0.227500 11.555800
-0.211600 11.769400
-0.195700 11.983100
-0.179800 12.196800
-0.163900 12.410400
-0.148000 12.710400
-0.132100 12.989300
-0.116300 12.565800
-0.100400 12.809200
-0.084500 13.052500
-0.068600 13.295900
-0.052700 12.840500
-0.036800 13.049300
-0.020900 17.180900
-0.005100 16.834700
0.010800 16.488500
0.026700 16.504700
0.042600 16.469900
0.058500 16.497000
0.074400 16.475600
0.090300 16.454300
0.106100 16.432900
0.122000 15.448100
0.137900 15.555200
0.153800 15.331500
0.169700 15.384300
0.185600 15.307700
0.201500 15.283300
0.217300 14.608700
0.233200 14.611300
0.249100 19.736200
0.265000 17.887700
0.280900 16.801500
0.296800 16.313900
0.312700 16.126600
0.328500 15.378700
0.344400 15.135700
0.360300 14.892600
0.376200 17.586900
0.392100 16.753800
0.408000 18.134500
0.423900 16.064400
0.439700 15.924100
0.455600 15.783900
0.471500 15.643600
0.487400 15.609800
0.503300 15.466700
0.519200 15.364600
0.535100 15.329200
0.550900 15.812900
0.566800 15.889000
0.582700 15.775400
0.598600 15.661800
0.614500 14.829700
0.630400 14.759900
0.646300 14.423300
0.662100 14.405300
0.678000 14.424700
0.693900 14.228000
0.709800 14.206200
0.725700 14.184500
0.741600 15.729700
0.757500 15.693700
0.773300 15.751200
0.789200 15.675500
0.805100 15.593500
0.821000 15.641200
0.836900 15.092000
0.852800 15.125800
0.868600 15.159500
0.884500 14.470500
0.900400 14.730300
0.916300 14.610800
0.932200 14.499900
0.948100 14.374600
0.964000 14.226000
0.979800 14.091100
0.995700 13.957600
1.011600 13.900600
1.027500 12.639700
1.043400 12.751500
1.059300 12.829700
1.075200 12.747300
1.091000 12.591400
1.106900 12.400100
1.122800 12.219000
1.138700 10.940700
1.154600 10.635300
1.170500 10.292900
1.186400 9.949900
1.202200 9.680700
1.218100 9.319400
1.234000 8.961300
1.249900 8.603100
1.265800 8.245000
1.281700 7.950200
1.297600 7.583900
1.313400 7.271300
1.329300 6.973900
1.345200 6.695300
1.361100 6.267000
1.377000 5.970000
1.392900 5.672900
1.408800 5.416900
1.424600 5.173400
1.440500 4.974000
1.456400 4.801800
1.472300 4.629700
1.488200 4.457500
1.504100 4.285300
1.520000 4.113200
1.535800 3.941000
1.551700 3.768800
1.567600 3.596700
1.583500 3.424500
1.599400 3.265400
1.615300 3.630500
1.631200 3.431700
1.647000 3.232900
1.662900 3.034200
1.678800 2.835400
1.694700 2.643500
1.710600 3.078000
1.726500 2.882300
1.742400 2.689600
1.758200 2.553200
1.774100 2.474800
1.790000 2.203200
1.805900 1.931700
1.821800 1.660100
1.837700 1.388500
1.853600 1.116900
1.869400 0.891300
1.885300 0.684100
1.901200 0.476900
1.917100 0.269600
1.933000 0.062400
1.948900 0.000000
1.964800 0.000000
1.980600 0.000000
1.996500 0.000000
2.012400 0.000000
2.028300 0.000000
2.044200 0.000000
2.060100 0.000000
2.076000 0.000000
2.091800 0.000000
2.107700 0.000000
2.123600 0.000000
2.139500 0.000000
2.155400 0.000000
2.171300 0.000000
2.187200 0.000000
2.203000 0.000000
2.218900 0.000000
2.234800 0.000000
2.250700 0.000000
2.266600 0.000000
2.282500 0.000000
2.298400 0.000000
2.314200 0.000000
2.330100 0.000000
2.346000 0.000000
2.361900 0.000000
2.377800 0.000000
2.393700 0.000000
2.409600 0.000000
2.425400 0.000000
2.441300 0.000000
2.457200 0.000000
2.473100 0.000000
2.489000 0.000000
2.504900 0.000000
2.520800 0.000000
2.536600 0.000000
2.552500 0.000000
2.568400 0.000000
2.584300 0.000000
2.600200 0.000000
2.616100 0.000000
2.632000 0.000000
2.647800 0.000000
2.663700 0.000000
2.679600 0.000000
2.695500 0.000000
2.711400 0.000000
2.727300 0.000000
2.743200 0.000000
2.759000 0.000000
2.774900 0.000000
2.790800 0.000000
2.806700 0.000000
2.822600 0.000000
2.838500 0.000000
2.854400 0.000000
2.870200 0.000000
2.886100 0.000000
2.902000 0.000000
2.917900 0.000000
2.933800 0.000000
2.949700 0.000000
2.965600 0.000000
2.981400 0.000000
2.997300 0.000000
3.013200 0.000000
3.029100 0.000000
3.045000 0.000000
3.060900 0.000000
3.076800 0.000000
3.092600 0.000000
3.108500 0.000000
3.124400 0.000000
3.140300 0.000000
3.156200 0.000000
3.172100 0.000000
3.188000 0.000000
3.203800 0.000000
3.219700 0.000000
3.235600 0.000000
3.251500 0.000000
3.267400 0.000000
3.283300 0.000000
3.299200 0.000000
3.315000 0.000000
3.330900 0.000000
3.346800 0.000000
3.362700 0.000000
3.378600 0.000000
3.394500 0.000000
3.410400 0.000000
3.426200 0.000000
3.442100 0.000000
3.458000 0.000000
3.473900 0.000000
3.489800 0.000000
3.505700 0.000000
3.521600 0.000000
3.537400 0.000000
3.553300 0.000000
3.569200 0.000000
3.585100 0.000000
3.601000 0.000000
3.616900 0.000000
3.632800 0.000000
3.648600 0.000000
3.664500 0.000000
3.680400 0.000000
3.696300 0.000000
