set title 'mp-541844 - Density of States'
set xlabel 'Energy (eV)'
set ylabel 'DOS (states/eV)'
set grid
set xrange [-10:10]
set yrange [0:54.190]
set xzeroaxis lt -1
set terminal png size 800,600
set output 'mp-541844_dos_gnuplot.png'
plot '-' using 1:2 with lines title 'DOS'
-18.287000 0.000000
-18.265500 0.000000
-18.244000 0.000000
-18.222500 0.000000
-18.201000 0.000000
-18.179600 0.000000
-18.158100 0.000000
-18.136600 0.000000
-18.115100 0.000000
-18.093600 0.000000
-18.072200 0.000000
-18.050700 0.000000
-18.029200 0.000000
-18.007700 0.000000
-17.986200 0.000000
-17.964800 0.000000
-17.943300 0.000000
-17.921800 0.000000
-17.900300 0.000000
-17.878800 0.000000
-17.857400 0.000000
-17.835900 0.000000
-17.814400 0.000000
-17.792900 0.000000
-17.771400 0.000000
-17.750000 0.000000
-17.728500 0.000000
-17.707000 0.000000
-17.685500 0.000000
-17.664000 0.000000
-17.642500 0.000000
-17.621100 0.000000
-17.599600 0.000000
-17.578100 0.000000
-17.556600 0.000000
-17.535100 0.000000
-17.513700 0.000000
-17.492200 0.000000
-17.470700 0.000000
-17.449200 0.000000
-17.427700 0.000000
-17.406300 0.000000
-17.384800 0.000000
-17.363300 0.000000
-17.341800 0.000000
-17.320300 0.000000
-17.298900 0.000000
-17.277400 0.000000
-17.255900 0.000000
-17.234400 0.000000
-17.212900 0.000000
-17.191400 0.000000
-17.170000 0.000000
-17.148500 0.000000
-17.127000 0.000000
-17.105500 0.000000
-17.084000 0.000000
-17.062600 0.000000
-17.041100 0.000000
-17.019600 0.000000
-16.998100 0.000000
-16.976600 0.000000
-16.955200 0.000000
-16.933700 0.000000
-16.912200 0.000000
-16.890700 0.000000
-16.869200 0.000000
-16.847800 0.000000
-16.826300 0.000000
-16.804800 0.000000
-16.783300 0.000000
-16.761800 0.000000
-16.740400 0.000000
-16.718900 0.000000
-16.697400 0.000000
-16.675900 0.000000
-16.654400 0.000000
-16.632900 0.000000
-16.611500 0.000000
-16.590000 0.000000
-16.568500 0.000000
-16.547000 0.000000
-16.525500 0.000000
-16.504100 0.000500
-16.482600 0.008700
-16.461100 0.111500
-16.439600 0.999200
-16.418100 6.292400
-16.396700 27.923400
-16.375200 87.756700
-16.353700 197.289900
-16.332200 325.102400
-16.310700 418.223900
-16.289300 481.477200
-16.267800 581.201500
-16.246300 738.215600
-16.224800 884.189800
-16.203300 955.346300
-16.181900 962.812700
-16.160400 934.065100
-16.138900 851.850400
-16.117400 700.562600
-16.095900 512.919600
-16.074400 333.659700
-16.053000 186.844300
-16.031500 84.895700
-16.010000 29.606700
-15.988500 7.638500
-15.967000 1.427900
-15.945600 0.191200
-15.924100 0.018200
-15.902600 0.001200
-15.881100 0.000100
-15.859600 0.000000
-15.838200 0.000000
-15.816700 0.000000
-15.795200 0.000000
-15.773700 0.000000
-15.752200 0.000000
-15.730800 0.000000
-15.709300 0.000000
-15.687800 0.000000
-15.666300 0.000000
-15.644800 0.000000
-15.623300 0.000000
-15.601900 0.000000
-15.580400 0.000000
-15.558900 0.000000
-15.537400 0.000000
-15.515900 0.000000
-15.494500 0.000000
-15.473000 0.000000
-15.451500 0.000000
-15.430000 0.000000
-15.408500 0.000000
-15.387100 0.000000
-15.365600 0.000000
-15.344100 0.000000
-15.322600 0.000000
-15.301100 0.000000
-15.279700 0.000000
-15.258200 0.000000
-15.236700 0.000000
-15.215200 0.000000
-15.193700 0.000000
-15.172300 0.000000
-15.150800 0.000000
-15.129300 0.000000
-15.107800 0.000000
-15.086300 0.000000
-15.064800 0.000000
-15.043400 0.000000
-15.021900 0.000000
-15.000400 0.000000
-14.978900 0.000000
-14.957400 0.000000
-14.936000 0.000000
-14.914500 0.000000
-14.893000 0.000000
-14.871500 0.000000
-14.850000 0.000000
-14.828600 0.000000
-14.807100 0.000000
-14.785600 0.000000
-14.764100 0.000000
-14.742600 0.000000
-14.721200 0.000000
-14.699700 0.000000
-14.678200 0.000000
-14.656700 0.000000
-14.635200 0.000000
-14.613800 0.000000
-14.592300 0.000000
-14.570800 0.000000
-14.549300 0.000000
-14.527800 0.000000
-14.506300 0.000000
-14.484900 0.000000
-14.463400 0.000000
-14.441900 0.000000
-14.420400 0.000000
-14.398900 0.000000
-14.377500 0.000000
-14.356000 0.000000
-14.334500 0.000000
-14.313000 0.000000
-14.291500 0.000000
-14.270100 0.000000
-14.248600 0.000000
-14.227100 0.000000
-14.205600 0.000000
-14.184100 0.000000
-14.162700 0.000000
-14.141200 0.000000
-14.119700 0.000000
-14.098200 0.000000
-14.076700 0.000000
-14.055200 0.000000
-14.033800 0.000000
-14.012300 0.000000
-13.990800 0.000000
-13.969300 0.000000
-13.947800 0.000000
-13.926400 0.000000
-13.904900 0.000000
-13.883400 0.000000
-13.861900 0.000000
-13.840400 0.000000
-13.819000 0.000000
-13.797500 0.000000
-13.776000 0.000000
-13.754500 0.000000
-13.733000 0.000000
-13.711600 0.000000
-13.690100 0.000000
-13.668600 0.000000
-13.647100 0.000000
-13.625600 0.000000
-13.604200 0.000000
-13.582700 0.000000
-13.561200 0.000000
-13.539700 0.000000
-13.518200 0.000000
-13.496700 0.000000
-13.475300 0.000000
-13.453800 0.000000
-13.432300 0.000000
-13.410800 0.000000
-13.389300 0.000000
-13.367900 0.000000
-13.346400 0.000000
-13.324900 0.000000
-13.303400 0.000000
-13.281900 0.000000
-13.260500 0.000000
-13.239000 0.000000
-13.217500 0.000000
-13.196000 0.000000
-13.174500 0.000000
-13.153100 0.000000
-13.131600 0.000000
-13.110100 0.000000
-13.088600 0.000000
-13.067100 0.000000
-13.045700 0.000000
-13.024200 0.000000
-13.002700 0.000000
-12.981200 0.000000
-12.959700 0.000000
-12.938200 0.000000
-12.916800 0.000000
-12.895300 0.000000
-12.873800 0.000000
-12.852300 0.000000
-12.830800 0.000000
-12.809400 0.000000
-12.787900 0.000000
-12.766400 0.000000
-12.744900 0.000000
-12.723400 0.000000
-12.702000 0.000000
-12.680500 0.000000
-12.659000 0.000000
-12.637500 0.000000
-12.616000 0.000000
-12.594600 0.000000
-12.573100 0.000000
-12.551600 0.000000
-12.530100 0.000000
-12.508600 0.000000
-12.487200 0.000000
-12.465700 0.000000
-12.444200 0.000000
-12.422700 0.000000
-12.401200 0.000000
-12.379700 0.000000
-12.358300 0.000000
-12.336800 0.000000
-12.315300 0.000000
-12.293800 0.000000
-12.272300 0.000000
-12.250900 0.000000
-12.229400 0.000000
-12.207900 0.000000
-12.186400 0.000000
-12.164900 0.000000
-12.143500 0.000000
-12.122000 0.000000
-12.100500 0.000000
-12.079000 0.000000
-12.057500 0.000000
-12.036100 0.000000
-12.014600 0.000000
-11.993100 0.000000
-11.971600 0.000000
-11.950100 0.000000
-11.928600 0.000000
-11.907200 0.000000
-11.885700 0.000000
-11.864200 0.000000
-11.842700 0.000000
-11.821200 0.000000
-11.799800 0.000000
-11.778300 0.000000
-11.756800 0.000000
-11.735300 0.000000
-11.713800 0.000000
-11.692400 0.000000
-11.670900 0.000000
-11.649400 0.000000
-11.627900 0.000000
-11.606400 0.000000
-11.585000 0.000000
-11.563500 0.000000
-11.542000 0.000000
-11.520500 0.000000
-11.499000 0.000000
-11.477600 0.000000
-11.456100 0.000000
-11.434600 0.000000
-11.413100 0.000000
-11.391600 0.000000
-11.370100 0.000000
-11.348700 0.000000
-11.327200 0.000000
-11.305700 0.000000
-11.284200 0.000000
-11.262700 0.000000
-11.241300 0.000000
-11.219800 0.000000
-11.198300 0.000000
-11.176800 0.000000
-11.155300 0.000000
-11.133900 0.000000
-11.112400 0.000000
-11.090900 0.000000
-11.069400 0.000000
-11.047900 0.000000
-11.026500 0.000000
-11.005000 0.000000
-10.983500 0.000000
-10.962000 0.000000
-10.940500 0.000000
-10.919100 0.000000
-10.897600 0.000000
-10.876100 0.000000
-10.854600 0.000000
-10.833100 0.000000
-10.811600 0.000000
-10.790200 0.000000
-10.768700 0.000000
-10.747200 0.000000
-10.725700 0.000000
-10.704200 0.000000
-10.682800 0.000000
-10.661300 0.000000
-10.639800 0.000000
-10.618300 0.000000
-10.596800 0.000000
-10.575400 0.000000
-10.553900 0.000000
-10.532400 0.000000
-10.510900 0.000000
-10.489400 0.000000
-10.468000 0.000000
-10.446500 0.000000
-10.425000 0.000000
-10.403500 0.000000
-10.382000 0.000000
-10.360500 0.000000
-10.339100 0.000000
-10.317600 0.000000
-10.296100 0.000000
-10.274600 0.000000
-10.253100 0.000000
-10.231700 0.000000
-10.210200 0.000000
-10.188700 0.000000
-10.167200 0.000000
-10.145700 0.000000
-10.124300 0.000000
-10.102800 0.000000
-10.081300 0.000000
-10.059800 0.000000
-10.038300 0.000000
-10.016900 0.000000
-9.995400 0.000000
-9.973900 0.000000
-9.952400 0.000000
-9.930900 0.000000
-9.909500 0.000000
-9.888000 0.000000
-9.866500 0.000000
-9.845000 0.000000
-9.823500 0.000000
-9.802000 0.000000
-9.780600 0.000000
-9.759100 0.000000
-9.737600 0.000000
-9.716100 0.000000
-9.694600 0.000000
-9.673200 0.000000
-9.651700 0.000000
-9.630200 0.000000
-9.608700 0.000000
-9.587200 0.000000
-9.565800 0.000000
-9.544300 0.000000
-9.522800 0.000000
-9.501300 0.000000
-9.479800 0.000000
-9.458400 0.000000
-9.436900 0.000000
-9.415400 0.000000
-9.393900 0.000000
-9.372400 0.000000
-9.351000 0.000000
-9.329500 0.000000
-9.308000 0.000000
-9.286500 0.000000
-9.265000 0.000000
-9.243500 0.000000
-9.222100 0.000000
-9.200600 0.000000
-9.179100 0.000000
-9.157600 0.000000
-9.136100 0.000000
-9.114700 0.000000
-9.093200 0.000000
-9.071700 0.000000
-9.050200 0.000000
-9.028700 0.000000
-9.007300 0.000000
-8.985800 0.000000
-8.964300 0.000000
-8.942800 0.000000
-8.921300 0.000000
-8.899900 0.000000
-8.878400 0.000000
-8.856900 0.000000
-8.835400 0.000000
-8.813900 0.000000
-8.792400 0.000000
-8.771000 0.000000
-8.749500 0.000000
-8.728000 0.000000
-8.706500 0.000000
-8.685000 0.000000
-8.663600 0.000000
-8.642100 0.000000
-8.620600 0.000000
-8.599100 0.000000
-8.577600 0.000000
-8.556200 0.000000
-8.534700 0.000000
-8.513200 0.000000
-8.491700 0.000000
-8.470200 0.000000
-8.448800 0.000000
-8.427300 0.000000
-8.405800 0.000000
-8.384300 0.000000
-8.362800 0.000000
-8.341400 0.000000
-8.319900 0.000000
-8.298400 0.000000
-8.276900 0.000000
-8.255400 0.000000
-8.233900 0.000000
-8.212500 0.000000
-8.191000 0.000000
-8.169500 0.000000
-8.148000 0.000000
-8.126500 0.000000
-8.105100 0.000000
-8.083600 0.000000
-8.062100 0.000000
-8.040600 0.000000
-8.019100 0.000000
-7.997700 0.000000
-7.976200 0.000000
-7.954700 0.000000
-7.933200 0.000000
-7.911700 0.000000
-7.890300 0.000000
-7.868800 0.000000
-7.847300 0.000000
-7.825800 0.000000
-7.804300 0.000000
-7.782900 0.000000
-7.761400 0.000000
-7.739900 0.000000
-7.718400 0.000000
-7.696900 0.000000
-7.675400 0.000000
-7.654000 0.000000
-7.632500 0.000000
-7.611000 0.000000
-7.589500 0.000000
-7.568000 0.000000
-7.546600 0.000000
-7.525100 0.000000
-7.503600 0.000000
-7.482100 0.000000
-7.460600 0.000000
-7.439200 0.000000
-7.417700 0.000000
-7.396200 0.000000
-7.374700 0.000000
-7.353200 0.000000
-7.331800 0.000000
-7.310300 0.000000
-7.288800 0.000000
-7.267300 0.000000
-7.245800 0.000000
-7.224300 0.000000
-7.202900 0.000000
-7.181400 0.000000
-7.159900 0.000000
-7.138400 0.000000
-7.116900 0.000000
-7.095500 0.000000
-7.074000 0.000000
-7.052500 0.000000
-7.031000 0.000000
-7.009500 0.000000
-6.988100 0.000000
-6.966600 0.000000
-6.945100 0.000000
-6.923600 0.000000
-6.902100 0.000000
-6.880700 0.000000
-6.859200 0.000000
-6.837700 0.000000
-6.816200 0.000000
-6.794700 0.000000
-6.773300 0.000000
-6.751800 0.000000
-6.730300 0.000000
-6.708800 0.000000
-6.687300 0.000000
-6.665800 0.000000
-6.644400 0.000000
-6.622900 0.000000
-6.601400 0.000000
-6.579900 0.000000
-6.558400 0.000000
-6.537000 0.000000
-6.515500 0.000000
-6.494000 0.000000
-6.472500 0.000000
-6.451000 0.000000
-6.429600 0.000000
-6.408100 0.000000
-6.386600 0.000000
-6.365100 0.000000
-6.343600 0.000000
-6.322200 0.000000
-6.300700 0.000000
-6.279200 0.000000
-6.257700 0.000000
-6.236200 0.000000
-6.214800 0.000000
-6.193300 0.000000
-6.171800 0.000000
-6.150300 0.000000
-6.128800 0.000000
-6.107300 0.000000
-6.085900 0.000000
-6.064400 0.000000
-6.042900 0.000000
-6.021400 0.000000
-5.999900 0.000000
-5.978500 0.000000
-5.957000 0.000000
-5.935500 0.000000
-5.914000 0.000000
-5.892500 0.000000
-5.871100 0.000000
-5.849600 0.000000
-5.828100 0.000000
-5.806600 0.000000
-5.785100 0.000000
-5.763700 0.000000
-5.742200 0.000000
-5.720700 0.000000
-5.699200 0.000000
-5.677700 0.000000
-5.656300 0.000000
-5.634800 0.000000
-5.613300 0.000000
-5.591800 0.000000
-5.570300 0.000000
-5.548800 0.000000
-5.527400 0.000000
-5.505900 0.000000
-5.484400 0.000000
-5.462900 0.000000
-5.441400 0.000000
-5.420000 0.000000
-5.398500 0.000000
-5.377000 0.000000
-5.355500 0.000000
-5.334000 0.000000
-5.312600 0.000000
-5.291100 0.000000
-5.269600 0.000000
-5.248100 0.000000
-5.226600 0.000000
-5.205200 0.000000
-5.183700 0.000000
-5.162200 0.000000
-5.140700 0.000000
-5.119200 0.000000
-5.097700 0.000000
-5.076300 0.000000
-5.054800 0.000000
-5.033300 0.000000
-5.011800 0.000000
-4.990300 0.000000
-4.968900 0.000000
-4.947400 0.000000
-4.925900 0.000000
-4.904400 0.000000
-4.882900 0.000200
-4.861500 0.002000
-4.840000 0.014600
-4.818500 0.074500
-4.797000 0.264900
-4.775500 0.658300
-4.754100 1.143600
-4.732600 1.388900
-4.711100 1.181600
-4.689600 0.720700
-4.668100 0.404900
-4.646700 0.519400
-4.625200 1.174800
-4.603700 2.174400
-4.582200 2.929200
-4.560700 2.986200
-4.539200 2.560600
-4.517800 2.096500
-4.496300 1.718900
-4.474800 1.482100
-4.453300 1.535800
-4.431800 1.849500
-4.410400 2.282200
-4.388900 2.790300
-4.367400 3.174300
-4.345900 3.140700
-4.324400 2.907700
-4.303000 2.970300
-4.281500 3.213300
-4.260000 3.127600
-4.238500 2.684700
-4.217000 2.233000
-4.195600 1.996900
-4.174100 2.156300
-4.152600 2.774500
-4.131100 3.533000
-4.109600 4.139700
-4.088200 4.619200
-4.066700 4.720300
-4.045200 3.946600
-4.023700 2.527500
-4.002200 1.441600
-3.980700 1.504200
-3.959300 2.858200
-3.937800 4.796400
-3.916300 6.069600
-3.894800 6.155600
-3.873300 5.735400
-3.851900 5.305300
-3.830400 4.554400
-3.808900 3.482800
-3.787400 2.682000
-3.765900 2.498100
-3.744500 2.896400
-3.723000 3.773100
-3.701500 5.010400
-3.680000 6.444500
-3.658500 7.476500
-3.637100 7.089200
-3.615600 5.159900
-3.594100 3.067200
-3.572600 2.350700
-3.551100 3.386100
-3.529600 5.269500
-3.508200 6.605400
-3.486700 6.730300
-3.465200 6.011500
-3.443700 4.906100
-3.422200 3.620400
-3.400800 2.685600
-3.379300 2.841300
-3.357800 4.243500
-3.336300 6.311200
-3.314800 8.233800
-3.293400 9.307600
-3.271900 9.145100
-3.250400 8.049600
-3.228900 6.979300
-3.207400 6.706700
-3.186000 7.023400
-3.164500 7.097400
-3.143000 6.494400
-3.121500 5.421800
-3.100000 4.255900
-3.078600 3.315000
-3.057100 2.912500
-3.035600 3.359200
-3.014100 4.779800
-2.992600 6.881400
-2.971100 8.899500
-2.949700 9.766600
-2.928200 8.839100
-2.906700 6.742600
-2.885200 4.905200
-2.863700 4.031300
-2.842300 3.641800
-2.820800 3.131000
-2.799300 2.437700
-2.777800 1.774300
-2.756300 1.500100
-2.734900 2.148000
-2.713400 4.106400
-2.691900 7.076100
-2.670400 9.756400
-2.648900 10.725900
-2.627500 10.281400
-2.606000 10.280600
-2.584500 11.314500
-2.563000 11.830700
-2.541500 10.995500
-2.520100 10.205700
-2.498600 10.730200
-2.477100 11.914800
-2.455600 12.533000
-2.434100 12.206300
-2.412600 11.149200
-2.391200 9.807100
-2.369700 8.657400
-2.348200 7.719000
-2.326700 6.672700
-2.305200 5.520500
-2.283800 4.757900
-2.262300 5.153100
-2.240800 7.213100
-2.219300 10.300600
-2.197800 12.767000
-2.176400 13.565200
-2.154900 13.007400
-2.133400 11.693200
-2.111900 9.703500
-2.090400 7.148900
-2.069000 4.805400
-2.047500 3.658900
-2.026000 4.146000
-2.004500 6.137800
-1.983000 9.021200
-1.961500 11.651200
-1.940100 12.975000
-1.918600 12.806300
-1.897100 11.588500
-1.875600 9.874200
-1.854100 8.608100
-1.832700 8.901300
-1.811200 10.772800
-1.789700 12.948900
-1.768200 14.121000
-1.746700 13.882500
-1.725300 12.611600
-1.703800 10.870700
-1.682300 9.118600
-1.660800 7.776600
-1.639300 7.210400
-1.617900 7.882300
-1.596400 10.228700
-1.574900 13.738900
-1.553400 17.143800
-1.531900 19.995300
-1.510500 22.344300
-1.489000 23.216200
-1.467500 21.829700
-1.446000 19.538100
-1.424500 18.406500
-1.403000 18.434500
-1.381600 17.746000
-1.360100 15.652300
-1.338600 13.970100
-1.317100 14.359900
-1.295600 15.975500
-1.274200 17.057000
-1.252700 17.550500
-1.231200 18.773100
-1.209700 21.096600
-1.188200 23.498200
-1.166800 25.206400
-1.145300 26.198900
-1.123800 26.409900
-1.102300 25.504000
-1.080800 23.123400
-1.059400 19.602200
-1.037900 16.712600
-1.016400 16.732100
-0.994900 20.213700
-0.973400 24.911900
-0.952000 27.361700
-0.930500 25.848400
-0.909000 21.795400
-0.887500 18.481500
-0.866000 18.420100
-0.844500 21.490800
-0.823100 25.161200
-0.801600 26.461700
-0.780100 24.270300
-0.758600 20.014700
-0.737100 16.452800
-0.715700 15.658700
-0.694200 17.460300
-0.672700 19.725800
-0.651200 20.216600
-0.629700 18.176500
-0.608300 14.537900
-0.586800 10.906900
-0.565300 8.318500
-0.543800 6.697400
-0.522300 5.344900
-0.500900 3.802400
-0.479400 2.211400
-0.457900 0.991300
-0.436400 0.329700
-0.414900 0.079500
-0.393400 0.013700
-0.372000 0.001700
-0.350500 0.000100
-0.329000 0.000000
-0.307500 0.000000
-0.286000 0.000000
-0.264600 0.000000
-0.243100 0.000000
-0.221600 0.000000
-0.200100 0.000000
-0.178600 0.000000
-0.157200 0.000000
-0.135700 0.000000
-0.114200 0.000000
-0.092700 0.000000
-0.071200 0.000000
-0.049800 0.000000
-0.028300 0.000000
-0.006800 0.000000
0.014700 0.000000
0.036200 0.000000
0.057600 0.000000
0.079100 0.000000
0.100600 0.000000
0.122100 0.000000
0.143600 0.000000
0.165100 0.000000
0.186500 0.000000
0.208000 0.000000
0.229500 0.000000
0.251000 0.000000
0.272500 0.000000
0.293900 0.000000
0.315400 0.000000
0.336900 0.000000
0.358400 0.000000
0.379900 0.000000
0.401300 0.000000
0.422800 0.000000
0.444300 0.000000
0.465800 0.000000
0.487300 0.000000
0.508700 0.000000
0.530200 0.000000
0.551700 0.000000
0.573200 0.000000
0.594700 0.000000
0.616100 0.000000
0.637600 0.000000
0.659100 0.000000
0.680600 0.000000
0.702100 0.000000
0.723600 0.000000
0.745000 0.000000
0.766500 0.000000
0.788000 0.000200
0.809500 0.002000
0.831000 0.014700
0.852400 0.074700
0.873900 0.265400
0.895400 0.659200
0.916900 1.144300
0.938400 1.388700
0.959800 1.178100
0.981300 0.698900
1.002800 0.292200
1.024300 0.105300
1.045800 0.142300
1.067200 0.517300
1.088700 1.489400
1.110200 3.064900
1.131700 4.600600
1.153200 5.322800
1.174600 5.267200
1.196100 5.076700
1.217600 5.164800
1.239100 5.751800
1.260600 7.160300
1.282100 9.291000
1.303500 11.243300
1.325000 12.183800
1.346500 12.253300
1.368000 12.301200
1.389500 13.086400
1.410900 14.638100
1.432400 16.214100
1.453900 16.852700
1.475400 16.048800
1.496900 14.326700
1.518300 12.936800
1.539800 12.666700
1.561300 13.229900
1.582800 13.791700
1.604300 13.878500
1.625700 13.482000
1.647200 12.687100
1.668700 12.237500
1.690200 13.611300
1.711700 16.984500
1.733200 20.028800
1.754600 20.408300
1.776100 18.821500
1.797600 17.923900
1.819100 18.789200
1.840600 20.022500
1.862000 19.989300
1.883500 18.497400
1.905000 16.397500
1.926500 14.864100
1.948000 14.838900
1.969400 16.249100
1.990900 18.293200
2.012400 20.095300
2.033900 20.522100
2.055400 19.039400
2.076800 17.119400
2.098300 17.060900
2.119800 19.338800
2.141300 22.296700
2.162800 24.279100
2.184200 25.012000
2.205700 25.201800
2.227200 25.877000
2.248700 27.425300
2.270200 28.670700
2.291700 28.092600
2.313100 25.720700
2.334600 22.871800
2.356100 20.856700
2.377600 20.297000
2.399100 21.043400
2.420500 22.722900
2.442000 25.110900
2.463500 27.674300
2.485000 29.636600
2.506500 30.631200
2.527900 30.536300
2.549400 29.253100
2.570900 26.952700
2.592400 24.046300
2.613900 21.380300
2.635300 20.157800
2.656800 20.730500
2.678300 22.563700
2.699800 25.526700
2.721300 28.992000
2.742700 30.486400
2.764200 28.517600
2.785700 25.602600
2.807200 25.189900
2.828700 27.166100
2.850200 29.107800
2.871600 30.000500
2.893100 30.242800
2.914600 29.471600
2.936100 26.842100
2.957600 23.026300
2.979000 20.257200
3.000500 20.163400
3.022000 22.420500
3.043500 25.593100
3.065000 28.418800
3.086400 30.289800
3.107900 31.132100
3.129400 31.130100
3.150900 30.705700
3.172400 30.404700
3.193800 30.552200
3.215300 31.144500
3.236800 32.141700
3.258300 33.884400
3.279800 36.516800
3.301300 38.762100
3.322700 38.689700
3.344200 36.215700
3.365700 33.634800
3.387200 33.199600
3.408700 34.856300
3.430100 36.905800
3.451600 37.760000
3.473100 36.555500
3.494600 34.445900
