set title 'mp-47 - Density of States'
set xlabel 'Energy (eV)'
set ylabel 'DOS (states/eV)'
set grid
set xrange [-10:10]
set yrange [0:3.171]
set xzeroaxis lt -1
set terminal png size 800,600
set output 'mp-47_dos_gnuplot.png'
plot '-' using 1:2 with lines title 'DOS'
-13.759800 0.000000
-13.737600 0.000000
-13.715500 0.000000
-13.693400 0.000000
-13.671300 0.000000
-13.649100 0.000000
-13.627000 0.000000
-13.604900 0.000000
-13.582800 0.000000
-13.560700 0.000000
-13.538500 0.000000
-13.516400 0.000000
-13.494300 0.000000
-13.472200 0.000000
-13.450000 0.000000
-13.427900 0.000000
-13.405800 0.000000
-13.383700 0.000000
-13.361600 0.000000
-13.339400 0.000000
-13.317300 0.000000
-13.295200 0.000000
-13.273100 0.000000
-13.250900 0.000000
-13.228800 0.000000
-13.206700 0.000000
-13.184600 0.000000
-13.162500 0.000000
-13.140300 0.000000
-13.118200 0.000000
-13.096100 0.000000
-13.074000 0.000000
-13.051800 0.000000
-13.029700 0.000000
-13.007600 0.000000
-12.985500 0.000000
-12.963400 0.000000
-12.941200 0.000000
-12.919100 0.000000
-12.897000 0.000000
-12.874900 0.000000
-12.852700 0.000000
-12.830600 0.000000
-12.808500 0.000000
-12.786400 0.000000
-12.764300 0.000000
-12.742100 0.000000
-12.720000 0.000000
-12.697900 0.000000
-12.675800 0.000000
-12.653700 0.000000
-12.631500 0.000000
-12.609400 0.000000
-12.587300 0.000000
-12.565200 0.000000
-12.543000 0.000000
-12.520900 0.000000
-12.498800 0.000000
-12.476700 0.000000
-12.454600 0.000000
-12.432400 0.000000
-12.410300 0.000000
-12.388200 0.000000
-12.366100 0.000000
-12.343900 0.000000
-12.321800 0.000000
-12.299700 0.000000
-12.277600 0.000000
-12.255500 0.000000
-12.233300 0.000000
-12.211200 0.000000
-12.189100 0.000000
-12.167000 0.000000
-12.144800 0.000000
-12.122700 0.000000
-12.100600 0.000000
-12.078500 0.000000
-12.056400 0.000000
-12.034200 0.000000
-12.012100 0.000000
-11.990000 0.000000
-11.967900 0.000000
-11.945700 0.000000
-11.923600 0.000000
-11.901500 0.000000
-11.879400 0.000000
-11.857300 0.000000
-11.835100 0.000000
-11.813000 0.000000
-11.790900 0.000000
-11.768800 0.000000
-11.746600 0.000100
-11.724500 0.017200
-11.702400 0.045000
-11.680300 0.048700
-11.658200 0.060400
-11.636000 0.072900
-11.613900 0.081900
-11.591800 0.084300
-11.569700 0.090000
-11.547500 0.096700
-11.525400 0.103300
-11.503300 0.110000
-11.481200 0.116100
-11.459100 0.120000
-11.436900 0.123600
-11.414800 0.127500
-11.392700 0.131600
-11.370600 0.135800
-11.348500 0.140500
-11.326300 0.145400
-11.304200 0.150500
-11.282100 0.154500
-11.260000 0.157600
-11.237800 0.160500
-11.215700 0.163600
-11.193600 0.166800
-11.171500 0.169900
-11.149400 0.173300
-11.127200 0.176900
-11.105100 0.180700
-11.083000 0.184500
-11.060900 0.188300
-11.038700 0.191300
-11.016600 0.194100
-10.994500 0.197000
-10.972400 0.199500
-10.950300 0.202000
-10.928100 0.204800
-10.906000 0.207500
-10.883900 0.210300
-10.861800 0.213200
-10.839600 0.216000
-10.817500 0.219000
-10.795400 0.222000
-10.773300 0.225100
-10.751200 0.228100
-10.729000 0.230500
-10.706900 0.232900
-10.684800 0.235500
-10.662700 0.238100
-10.640500 0.240200
-10.618400 0.242400
-10.596300 0.244700
-10.574200 0.247000
-10.552100 0.249400
-10.529900 0.251900
-10.507800 0.254400
-10.485700 0.256900
-10.463600 0.259500
-10.441400 0.262100
-10.419300 0.264700
-10.397200 0.267200
-10.375100 0.269300
-10.353000 0.271500
-10.330800 0.273700
-10.308700 0.275900
-10.286600 0.285900
-10.264500 0.306200
-10.242300 0.295800
-10.220200 0.297800
-10.198100 0.299500
-10.176000 0.299200
-10.153900 0.297300
-10.131700 0.297800
-10.109600 0.298700
-10.087500 0.299500
-10.065400 0.300300
-10.043300 0.301000
-10.021100 0.299600
-9.999000 0.299800
-9.976900 0.299600
-9.954800 0.299700
-9.932600 0.300000
-9.910500 0.300300
-9.888400 0.300600
-9.866300 0.300800
-9.844200 0.312100
-9.822000 0.333900
-9.799900 0.321900
-9.777800 0.325500
-9.755700 0.329200
-9.733500 0.330400
-9.711400 0.330500
-9.689300 0.333100
-9.667200 0.335800
-9.645100 0.338600
-9.622900 0.341500
-9.600800 0.341800
-9.578700 0.343600
-9.556600 0.345400
-9.534400 0.347100
-9.512300 0.349300
-9.490200 0.351500
-9.468100 0.353700
-9.446000 0.355900
-9.423800 0.358100
-9.401700 0.359300
-9.379600 0.360900
-9.357500 0.362900
-9.335300 0.364800
-9.313200 0.366400
-9.291100 0.367800
-9.269000 0.369800
-9.246900 0.371800
-9.224700 0.373800
-9.202600 0.375900
-9.180500 0.378100
-9.158400 0.379400
-9.136200 0.381200
-9.114100 0.383000
-9.092000 0.385000
-9.069900 0.387000
-9.047800 0.389100
-9.025600 0.390900
-9.003500 0.392700
-8.981400 0.394600
-8.959300 0.396100
-8.937200 0.397900
-8.915000 0.399800
-8.892900 0.401700
-8.870800 0.403200
-8.848700 0.404800
-8.826500 0.406700
-8.804400 0.408500
-8.782300 0.410200
-8.760200 0.411900
-8.738100 0.413700
-8.715900 0.415600
-8.693800 0.417500
-8.671700 0.419400
-8.649600 0.421400
-8.627400 0.423300
-8.605300 0.425200
-8.583200 0.427200
-8.561100 0.428900
-8.539000 0.430400
-8.516800 0.432200
-8.494700 0.434000
-8.472600 0.435600
-8.450500 0.437400
-8.428300 0.439100
-8.406200 0.440900
-8.384100 0.442700
-8.362000 0.444500
-8.339900 0.446400
-8.317700 0.448200
-8.295600 0.450100
-8.273500 0.452000
-8.251400 0.453900
-8.229200 0.455900
-8.207100 0.457800
-8.185000 0.459700
-8.162900 0.461600
-8.140800 0.463300
-8.118600 0.464800
-8.096500 0.466500
-8.074400 0.468300
-8.052300 0.470200
-8.030100 0.472000
-8.008000 0.473900
-7.985900 0.475900
-7.963800 0.477900
-7.941700 0.479800
-7.919500 0.481800
-7.897400 0.483800
-7.875300 0.485700
-7.853200 0.487600
-7.831000 0.489500
-7.808900 0.491500
-7.786800 0.493400
-7.764700 0.495400
-7.742600 0.497500
-7.720400 0.499500
-7.698300 0.501400
-7.676200 0.503400
-7.654100 0.505300
-7.632000 0.507200
-7.609800 0.509200
-7.587700 0.511200
-7.565600 0.513300
-7.543500 0.515400
-7.521300 0.517500
-7.499200 0.519600
-7.477100 0.521800
-7.455000 0.524000
-7.432900 0.526300
-7.410700 0.528600
-7.388600 0.530900
-7.366500 0.533200
-7.344400 0.535600
-7.322200 0.538000
-7.300100 0.540400
-7.278000 0.542800
-7.255900 0.545300
-7.233800 0.547700
-7.211600 0.550100
-7.189500 0.552500
-7.167400 0.554900
-7.145300 0.557500
-7.123100 0.560100
-7.101000 0.562800
-7.078900 0.565500
-7.056800 0.568300
-7.034700 0.571200
-7.012500 0.574200
-6.990400 0.577300
-6.968300 0.580600
-6.946200 0.583900
-6.924000 0.587400
-6.901900 0.591100
-6.879800 0.594800
-6.857700 0.598700
-6.835600 0.602900
-6.813400 0.607200
-6.791300 0.611800
-6.769200 0.616500
-6.747100 0.621700
-6.724900 0.627600
-6.702800 0.633800
-6.680700 0.640300
-6.658600 0.647100
-6.636500 0.654200
-6.614300 0.661500
-6.592200 0.690300
-6.570100 0.708800
-6.548000 0.705700
-6.525800 0.698700
-6.503700 0.696400
-6.481600 0.693000
-6.459500 0.689000
-6.437400 0.688400
-6.415200 0.705500
-6.393100 0.725300
-6.371000 0.706100
-6.348900 0.706600
-6.326800 0.706300
-6.304600 0.704000
-6.282500 0.701800
-6.260400 0.702500
-6.238300 0.703100
-6.216100 0.703600
-6.194000 0.702100
-6.171900 0.697100
-6.149800 0.690800
-6.127700 0.685900
-6.105500 0.682200
-6.083400 0.680600
-6.061300 0.680000
-6.039200 0.679800
-6.017000 0.680000
-5.994900 0.676800
-5.972800 0.669500
-5.950700 0.667400
-5.928600 0.664100
-5.906400 0.660000
-5.884300 0.656300
-5.862200 0.653000
-5.840100 0.649600
-5.817900 0.646100
-5.795800 0.642400
-5.773700 0.638800
-5.751600 0.635300
-5.729500 0.631300
-5.707300 0.627500
-5.685200 0.623800
-5.663100 0.620000
-5.641000 0.615900
-5.618800 0.611600
-5.596700 0.607600
-5.574600 0.604300
-5.552500 0.601700
-5.530400 0.599300
-5.508200 0.597200
-5.486100 0.595100
-5.464000 0.593200
-5.441900 0.591100
-5.419700 0.589300
-5.397600 0.583700
-5.375500 0.579300
-5.353400 0.576400
-5.331300 0.573000
-5.309100 0.569400
-5.287000 0.591500
-5.264900 0.573800
-5.242800 0.557300
-5.220700 0.544000
-5.198500 0.538800
-5.176400 0.533900
-5.154300 0.529500
-5.132200 0.526100
-5.110000 0.538200
-5.087900 0.517400
-5.065800 0.514100
-5.043700 0.511100
-5.021600 0.508900
-4.999400 0.506800
-4.977300 0.505100
-4.955200 0.503700
-4.933100 0.502500
-4.910900 0.513200
-4.888800 0.518400
-4.866700 0.503900
-4.844600 0.491300
-4.822500 0.485300
-4.800300 0.482200
-4.778200 0.478900
-4.756100 0.476000
-4.734000 0.491500
-4.711800 0.469600
-4.689700 0.468800
-4.667600 0.472300
-4.645500 0.475900
-4.623400 0.481800
-4.601200 0.504900
-4.579100 0.543800
-4.557000 0.539000
-4.534900 0.535000
-4.512700 0.542000
-4.490600 0.548000
-4.468500 0.552500
-4.446400 0.562700
-4.424300 0.619000
-4.402100 0.618500
-4.380000 0.623600
-4.357900 0.638000
-4.335800 0.650200
-4.313600 0.664400
-4.291500 0.693500
-4.269400 0.718200
-4.247300 0.748600
-4.225200 0.798300
-4.203000 0.808700
-4.180900 0.776000
-4.158800 0.788700
-4.136700 0.806900
-4.114500 0.809600
-4.092400 0.789400
-4.070300 0.795000
-4.048200 0.768000
-4.026100 0.750200
-4.003900 0.739400
-3.981800 0.729100
-3.959700 0.729400
-3.937600 0.728800
-3.915500 0.727400
-3.893300 0.728500
-3.871200 0.725200
-3.849100 0.722300
-3.827000 0.703700
-3.804800 0.692200
-3.782700 0.679800
-3.760600 0.674100
-3.738500 0.674400
-3.716400 0.669100
-3.694200 0.662700
-3.672100 0.656500
-3.650000 0.697000
-3.627900 0.590100
-3.605700 0.541900
-3.583600 0.501800
-3.561500 0.462800
-3.539400 0.451100
-3.517300 0.439400
-3.495100 0.438100
-3.473000 0.415500
-3.450900 0.432800
-3.428800 0.438000
-3.406600 0.436400
-3.384500 0.442400
-3.362400 0.451600
-3.340300 0.446000
-3.318200 0.452400
-3.296000 0.454900
-3.273900 0.462000
-3.251800 0.468500
-3.229700 0.474700
-3.207500 0.482300
-3.185400 0.489800
-3.163300 0.488500
-3.141200 0.485200
-3.119100 0.482100
-3.096900 0.479500
-3.074800 0.487700
-3.052700 0.509500
-3.030600 0.475500
-3.008400 0.478900
-2.986300 0.488000
-2.964200 0.490300
-2.942100 0.489600
-2.920000 0.488700
-2.897800 0.490400
-2.875700 0.505400
-2.853600 0.500000
-2.831500 0.503800
-2.809400 0.503800
-2.787200 0.509900
-2.765100 0.523200
-2.743000 0.546000
-2.720900 0.561400
-2.698700 0.588400
-2.676600 0.631100
-2.654500 0.627600
-2.632400 0.665100
-2.610300 0.664600
-2.588100 0.680700
-2.566000 0.707700
-2.543900 0.737700
-2.521800 0.767100
-2.499600 0.829000
-2.477500 0.869200
-2.455400 0.843600
-2.433300 0.845200
-2.411200 0.843100
-2.389000 0.835700
-2.366900 0.827600
-2.344800 0.832600
-2.322700 0.828400
-2.300500 0.836000
-2.278400 0.846600
-2.256300 0.853400
-2.234200 0.862200
-2.212100 0.872600
-2.189900 0.885200
-2.167800 0.916600
-2.145700 0.925100
-2.123600 0.926900
-2.101400 0.911000
-2.079300 0.897900
-2.057200 0.884500
-2.035100 0.866300
-2.013000 0.852300
-1.990800 0.845400
-1.968700 0.842800
-1.946600 0.841400
-1.924500 0.841700
-1.902300 0.843700
-1.880200 0.848200
-1.858100 0.855100
-1.836000 0.863400
-1.813900 0.870100
-1.791700 0.876200
-1.769600 0.877300
-1.747500 0.877600
-1.725400 0.876800
-1.703200 0.874800
-1.681100 0.869500
-1.659000 0.864100
-1.636900 0.863900
-1.614800 0.855800
-1.592600 0.840800
-1.570500 0.825800
-1.548400 0.808100
-1.526300 0.791900
-1.504200 0.780600
-1.482000 0.768800
-1.459900 0.754400
-1.437800 0.738800
-1.415700 0.725500
-1.393500 0.716300
-1.371400 0.709800
-1.349300 0.703500
-1.327200 0.697400
-1.305100 0.691500
-1.282900 0.680400
-1.260800 0.675000
-1.238700 0.669700
-1.216600 0.664600
-1.194400 0.659800
-1.172300 0.655400
-1.150200 0.651300
-1.128100 0.647800
-1.106000 0.645300
-1.083800 0.643500
-1.061700 0.644600
-1.039600 0.646900
-1.017500 0.673000
-0.995300 0.678900
-0.973200 0.685100
-0.951100 0.680100
-0.929000 0.666900
-0.906900 0.644000
-0.884700 0.633000
-0.862600 0.623400
-0.840500 0.614500
-0.818400 0.606100
-0.796200 0.598700
-0.774100 0.592900
-0.752000 0.597500
-0.729900 0.596300
-0.707800 0.594900
-0.685600 0.587900
-0.663500 0.585000
-0.641400 0.585200
-0.619300 0.586700
-0.597100 0.589500
-0.575000 0.608400
-0.552900 0.653100
-0.530800 0.648000
-0.508700 0.663100
-0.486500 0.679600
-0.464400 0.688700
-0.442300 0.683300
-0.420200 0.661600
-0.398000 0.652700
-0.375900 0.651900
-0.353800 0.653300
-0.331700 0.653900
-0.309600 0.654500
-0.287400 0.657400
-0.265300 0.663200
-0.243200 0.672800
-0.221100 0.686600
-0.199000 0.702500
-0.176800 0.716800
-0.154700 0.731100
-0.132600 0.742700
-0.110500 0.754200
-0.088300 0.768000
-0.066200 0.778400
-0.044100 0.787900
-0.022000 0.811700
0.000100 0.832500
0.022300 0.825400
0.044400 0.839600
0.066500 0.851700
0.088600 0.859800
0.110800 0.864200
0.132900 0.879300
0.155000 0.888500
0.177100 0.898200
0.199200 0.908900
0.221400 0.920800
0.243500 0.935200
0.265600 0.945900
0.287700 0.969200
0.309900 0.994400
0.332000 1.020500
0.354100 1.047100
0.376200 1.071900
0.398300 1.084800
0.420500 1.100900
0.442600 1.134700
0.464700 1.133200
0.486800 1.126400
0.509000 1.115100
0.531100 1.092900
0.553200 1.071100
0.575300 1.045000
0.597400 1.013500
0.619600 0.984900
0.641700 0.958300
0.663800 0.919600
0.685900 0.896600
0.708100 0.898700
0.730200 0.909800
0.752300 0.924100
0.774400 0.929000
0.796500 0.941900
0.818700 0.951500
0.840800 0.943700
0.862900 0.934200
0.885000 0.933900
0.907100 0.934800
0.929300 0.943200
0.951400 0.934600
0.973500 0.925000
0.995600 0.919900
1.017800 0.908700
1.039900 0.902200
1.062000 0.902000
1.084100 0.906500
1.106200 0.910100
1.128400 0.915700
1.150500 0.926000
1.172600 0.930700
1.194700 0.936600
1.216900 0.944100
1.239000 0.953200
1.261100 0.954100
1.283200 0.949200
1.305300 0.934900
1.327500 0.915800
1.349600 0.900100
1.371700 0.888600
1.393800 0.879200
1.416000 0.870700
1.438100 0.863600
1.460200 0.856700
1.482300 0.843900
1.504400 0.834600
1.526600 0.842200
1.548700 0.845400
1.570800 0.858200
1.592900 0.874100
1.615100 0.889700
1.637200 0.906300
1.659300 0.923800
1.681400 0.935600
1.703500 0.944300
1.725700 0.954200
1.747800 0.968700
1.769900 0.982900
1.792000 0.995700
1.814200 1.004200
1.836300 1.009900
1.858400 1.014200
1.880500 1.017900
1.902600 1.022000
1.924800 1.024000
1.946900 1.021300
1.969000 1.018900
1.991100 1.017300
2.013300 1.017700
2.035400 1.020100
2.057500 1.024300
2.079600 1.031500
2.101700 1.038700
2.123900 1.046000
2.146000 1.051800
2.168100 1.048100
2.190200 1.042700
2.212300 1.037000
2.234500 1.032700
2.256600 1.030000
2.278700 1.030100
2.300800 1.031400
2.323000 1.033400
2.345100 1.036300
2.367200 1.040800
2.389300 1.081500
2.411400 1.085100
2.433600 1.098100
2.455700 1.105300
2.477800 1.115400
2.499900 1.126100
2.522100 1.138300
2.544200 1.149800
2.566300 1.157200
2.588400 1.167000
2.610500 1.178300
2.632700 1.190900
2.654800 1.192000
2.676900 1.196600
2.699000 1.200600
2.721200 1.233600
2.743300 1.405200
2.765400 1.171100
2.787500 1.047400
2.809600 1.019500
2.831800 1.016700
2.853900 1.013800
2.876000 1.011600
2.898100 1.010700
2.920300 1.004600
2.942400 1.002900
2.964500 1.015200
2.986600 1.025700
3.008700 1.039700
3.030900 1.046900
3.053000 1.057100
3.075100 1.067500
3.097200 1.079600
3.119400 1.088200
3.141500 1.095500
3.163600 1.102100
3.185700 1.109000
3.207800 1.119700
3.230000 1.129600
3.252100 1.146400
3.274200 1.141500
3.296300 1.153900
3.318500 1.167000
3.340600 1.178000
3.362700 1.188900
3.384800 1.200700
3.406900 1.215500
3.429100 1.227600
3.451200 1.243500
3.473300 1.258800
3.495400 1.275200
3.517500 1.349500
3.539700 1.348400
3.561800 1.357800
3.583900 1.365000
3.606000 1.372200
3.628200 1.377800
3.650300 1.394200
3.672400 1.428400
3.694500 1.508000
3.716600 1.467700
3.738800 1.337100
3.760900 1.341200
3.783000 1.342200
3.805100 1.341400
3.827300 1.340900
3.849400 1.345400
3.871500 1.350800
3.893600 1.362700
3.915700 1.445500
3.937900 1.499900
3.960000 1.672100
3.982100 1.492800
4.004200 1.453400
4.026400 1.446200
4.048500 1.442900
4.070600 1.447900
4.092700 1.448000
4.114800 1.443200
4.137000 1.444600
4.159100 1.449800
4.181200 1.444900
4.203300 1.437700
4.225500 1.443300
4.247600 1.432500
4.269700 1.421700
4.291800 1.417200
4.313900 1.419400
4.336100 1.419600
4.358200 1.418000
4.380300 1.420700
4.402400 1.426700
4.424600 1.433100
4.446700 1.437700
4.468800 1.431300
4.490900 1.426900
4.513000 1.430600
4.535200 1.441800
4.557300 1.454000
4.579400 1.468200
4.601500 1.493200
4.623600 1.517100
4.645800 1.531100
4.667900 1.541700
4.690000 1.619400
4.712100 1.688300
4.734300 1.614100
4.756400 1.591600
4.778500 1.573000
4.800600 1.546600
4.822700 1.569600
4.844900 1.677100
4.867000 1.577100
4.889100 1.551500
4.911200 1.573600
4.933400 1.574000
4.955500 1.550000
4.977600 1.587200
4.999700 1.591200
5.021800 1.611100
5.044000 1.589100
5.066100 1.555600
5.088200 1.546100
5.110300 1.560100
5.132500 1.557600
5.154600 1.545300
5.176700 1.525100
5.198800 1.545400
5.220900 1.528200
5.243100 1.526300
5.265200 1.556700
5.287300 1.599100
5.309400 1.668800
5.331600 1.812300
5.353700 1.800000
5.375800 1.770000
5.397900 1.784400
5.420000 1.798200
5.442200 1.810500
5.464300 1.835100
5.486400 1.855500
5.508500 1.879700
5.530700 1.935000
5.552800 2.036600
5.574900 2.058700
5.597000 2.094000
5.619100 2.183600
5.641300 2.416100
5.663400 2.882800
5.685500 2.506900
5.707600 2.192700
5.729800 2.032500
5.751900 1.937900
5.774000 1.872200
5.796100 1.812400
5.818200 1.768700
5.840400 1.724900
5.862500 1.706300
5.884600 1.648600
5.906700 1.603000
5.928800 1.565100
5.951000 1.535700
5.973100 1.509000
5.995200 1.484500
6.017300 1.462100
6.039500 1.442000
6.061600 1.424900
6.083700 1.413100
6.105800 1.398200
6.127900 1.379600
6.150100 1.363800
6.172200 1.352400
6.194300 1.342700
6.216400 1.335400
6.238600 1.326300
6.260700 1.316300
6.282800 1.306500
6.304900 1.293500
6.327000 1.280400
6.349200 1.270000
6.371300 1.259000
6.393400 1.250200
6.415500 1.237700
6.437700 1.225500
6.459800 1.214600
6.481900 1.205600
6.504000 1.196900
6.526100 1.187700
6.548300 1.179400
6.570400 1.172100
6.592500 1.166500
6.614600 1.161500
6.636800 1.156100
6.658900 1.149300
6.681000 1.147100
6.703100 1.148600
6.725200 1.142400
6.747400 1.132400
6.769500 1.118000
6.791600 1.096700
6.813700 1.075800
6.835900 1.049500
6.858000 1.011100
6.880100 0.976300
6.902200 0.946700
6.924300 0.922500
6.946500 0.902000
6.968600 0.884400
6.990700 0.867700
7.012800 0.853100
7.035000 0.838500
7.057100 0.819500
7.079200 0.802600
7.101300 0.790700
7.123400 0.779000
7.145600 0.768100
7.167700 0.758000
7.189800 0.748400
7.211900 0.738200
7.234000 0.727400
7.256200 0.716100
7.278300 0.705000
7.300400 0.694200
7.322500 0.683700
7.344700 0.673400
7.366800 0.663000
7.388900 0.653300
7.411000 0.644600
7.433100 0.636100
7.455300 0.629200
7.477400 0.620800
7.499500 0.611900
7.521600 0.602400
7.543800 0.592900
7.565900 0.584100
7.588000 0.576100
7.610100 0.568400
7.632200 0.561000
7.654400 0.553600
7.676500 0.546100
7.698600 0.538700
7.720700 0.531200
7.742900 0.523500
7.765000 0.519100
7.787100 0.510100
7.809200 0.501000
7.831300 0.492700
7.853500 0.484600
7.875600 0.484400
7.897700 0.471100
7.919800 0.458800
7.942000 0.447500
7.964100 0.440900
7.986200 0.437000
8.008300 0.433300
8.030400 0.429400
8.052600 0.424600
8.074700 0.422700
8.096800 0.417600
8.118900 0.412400
8.141100 0.407000
8.163200 0.401100
8.185300 0.401100
8.207400 0.391200
8.229500 0.380600
8.251700 0.370900
8.273800 0.365300
8.295900 0.359800
8.318000 0.354300
8.340100 0.348600
8.362300 0.343100
8.384400 0.337700
8.406500 0.332300
8.428600 0.326900
8.450800 0.321500
8.472900 0.316600
8.495000 0.311500
8.517100 0.306300
8.539200 0.301200
8.561400 0.296100
8.583500 0.291000
8.605600 0.286100
8.627700 0.281400
8.649900 0.276500
8.672000 0.271700
8.694100 0.267300
8.716200 0.263100
8.738300 0.258400
8.760500 0.253600
8.782600 0.248500
8.804700 0.243600
8.826800 0.238700
8.849000 0.233700
8.871100 0.228700
8.893200 0.223600
8.915300 0.218200
8.937400 0.212700
8.959600 0.207100
8.981700 0.201400
9.003800 0.195600
9.025900 0.190100
9.048100 0.184900
9.070200 0.180500
9.092300 0.177500
9.114400 0.174800
9.136500 0.171200
9.158700 0.167500
9.180800 0.163700
9.202900 0.160600
9.225000 0.156600
9.247200 0.151300
9.269300 0.145400
9.291400 0.139000
9.313500 0.132300
9.335600 0.126000
9.357800 0.120000
9.379900 0.114300
9.402000 0.108100
9.424100 0.102200
9.446300 0.098000
9.468400 0.094400
9.490500 0.090500
