set title 'mp-714885 - Density of States'
set xlabel 'Energy (eV)'
set ylabel 'DOS (states/eV)'
set grid
set xrange [-10:10]
set yrange [0:4.440]
set xzeroaxis lt -1
set terminal png size 800,600
set output 'mp-714885_dos_gnuplot.png'
plot '-' using 1:2 with lines title 'DOS'
-38.024000 0.000000
-37.960500 0.000000
-37.896900 0.000000
-37.833400 0.000000
-37.769900 0.000000
-37.706400 0.000000
-37.642800 0.000000
-37.579300 0.000000
-37.515800 0.000000
-37.452200 0.000000
-37.388700 0.000000
-37.325200 0.000000
-37.261600 0.000000
-37.198100 0.000000
-37.134600 0.000000
-37.071100 0.000000
-37.007500 0.000000
-36.944000 0.000000
-36.880500 0.000000
-36.816900 0.000000
-36.753400 0.000000
-36.689900 0.000000
-36.626300 0.000000
-36.562800 0.000000
-36.499300 0.000000
-36.435800 0.000000
-36.372200 0.000000
-36.308700 0.000000
-36.245200 0.000000
-36.181600 0.000000
-36.118100 0.000000
-36.054600 0.000000
-35.991000 0.000000
-35.927500 0.000000
-35.864000 0.000000
-35.800500 0.000000
-35.736900 0.000000
-35.673400 0.000000
-35.609900 0.000000
-35.546300 0.000000
-35.482800 0.000000
-35.419300 0.000000
-35.355700 0.000000
-35.292200 0.000000
-35.228700 0.000000
-35.165200 0.000000
-35.101600 0.000000
-35.038100 0.000000
-34.974600 0.000000
-34.911000 0.000000
-34.847500 0.000000
-34.784000 0.000000
-34.720400 0.000000
-34.656900 0.000000
-34.593400 0.000000
-34.529900 0.000000
-34.466300 0.000000
-34.402800 0.000000
-34.339300 0.000000
-34.275700 0.000000
-34.212200 0.000000
-34.148700 0.000000
-34.085200 0.000000
-34.021600 0.000000
-33.958100 0.000000
-33.894600 0.000000
-33.831000 0.000000
-33.767500 0.000000
-33.704000 0.000000
-33.640400 0.000000
-33.576900 0.000000
-33.513400 0.000000
-33.449900 0.000000
-33.386300 0.000000
-33.322800 0.000000
-33.259300 0.000000
-33.195700 0.000000
-33.132200 0.000000
-33.068700 0.000000
-33.005100 0.000000
-32.941600 0.000000
-32.878100 0.000000
-32.814600 0.000000
-32.751000 0.000000
-32.687500 0.000000
-32.624000 0.000000
-32.560400 0.000000
-32.496900 0.000000
-32.433400 0.000000
-32.369800 0.000000
-32.306300 0.000000
-32.242800 1.515800
-32.179300 15.215600
-32.115700 10.275900
-32.052200 17.587000
-31.988700 7.022100
-31.925100 0.000000
-31.861600 0.000000
-31.798100 0.000000
-31.734500 0.000000
-31.671000 0.000000
-31.607500 0.000000
-31.544000 0.000000
-31.480400 0.000000
-31.416900 0.000000
-31.353400 0.000000
-31.289800 0.000000
-31.226300 0.000000
-31.162800 0.000000
-31.099200 0.000000
-31.035700 0.000000
-30.972200 0.000000
-30.908700 0.000000
-30.845100 0.000000
-30.781600 0.000000
-30.718100 0.000000
-30.654500 0.000000
-30.591000 0.000000
-30.527500 0.000000
-30.463900 0.000000
-30.400400 0.000000
-30.336900 0.000000
-30.273400 0.000000
-30.209800 0.000000
-30.146300 0.000000
-30.082800 0.000000
-30.019200 0.000000
-29.955700 0.000000
-29.892200 0.000000
-29.828700 0.000000
-29.765100 0.000000
-29.701600 0.000000
-29.638100 0.000000
-29.574500 0.000000
-29.511000 0.000000
-29.447500 0.000000
-29.383900 0.000000
-29.320400 0.000000
-29.256900 0.000000
-29.193400 0.000000
-29.129800 0.000000
-29.066300 0.000000
-29.002800 0.000000
-28.939200 0.000000
-28.875700 0.000000
-28.812200 0.000000
-28.748600 0.000000
-28.685100 0.000000
-28.621600 0.000000
-28.558100 0.000000
-28.494500 0.000000
-28.431000 0.000000
-28.367500 0.000000
-28.303900 0.000000
-28.240400 0.000000
-28.176900 0.000000
-28.113300 0.000000
-28.049800 0.000000
-27.986300 0.000000
-27.922800 0.000000
-27.859200 0.000000
-27.795700 0.000000
-27.732200 0.000000
-27.668600 0.000000
-27.605100 0.000000
-27.541600 0.000000
-27.478000 0.000000
-27.414500 0.000000
-27.351000 0.000000
-27.287500 0.000000
-27.223900 0.000000
-27.160400 0.000000
-27.096900 0.000000
-27.033300 0.000000
-26.969800 0.000000
-26.906300 0.000000
-26.842700 0.000000
-26.779200 0.000000
-26.715700 0.000000
-26.652200 0.000000
-26.588600 0.000000
-26.525100 0.000000
-26.461600 0.000000
-26.398000 0.000000
-26.334500 0.000000
-26.271000 0.000000
-26.207400 0.000000
-26.143900 0.000000
-26.080400 0.000000
-26.016900 0.000000
-25.953300 0.000000
-25.889800 0.000000
-25.826300 0.000000
-25.762700 0.000000
-25.699200 0.000000
-25.635700 0.000000
-25.572200 0.000000
-25.508600 0.000000
-25.445100 0.000000
-25.381600 0.000000
-25.318000 0.000000
-25.254500 0.000000
-25.191000 0.000000
-25.127400 0.000000
-25.063900 0.000000
-25.000400 0.000000
-24.936900 0.000000
-24.873300 0.000000
-24.809800 0.000000
-24.746300 0.000000
-24.682700 0.000000
-24.619200 0.000000
-24.555700 0.000000
-24.492100 0.000000
-24.428600 0.000000
-24.365100 0.000000
-24.301600 0.000000
-24.238000 0.000000
-24.174500 0.000000
-24.111000 0.000000
-24.047400 0.000000
-23.983900 0.000000
-23.920400 0.000000
-23.856800 0.000000
-23.793300 0.000000
-23.729800 0.000000
-23.666300 0.000000
-23.602700 0.000000
-23.539200 0.000000
-23.475700 0.000000
-23.412100 0.000000
-23.348600 0.000000
-23.285100 0.000000
-23.221500 0.000000
-23.158000 0.000000
-23.094500 0.000000
-23.031000 0.000000
-22.967400 0.000000
-22.903900 0.000000
-22.840400 0.000000
-22.776800 0.000000
-22.713300 0.000000
-22.649800 0.000000
-22.586200 0.000000
-22.522700 0.000000
-22.459200 0.000000
-22.395700 0.000000
-22.332100 0.000000
-22.268600 0.000000
-22.205100 0.000000
-22.141500 0.000000
-22.078000 0.000000
-22.014500 0.000000
-21.950900 0.000000
-21.887400 0.000000
-21.823900 0.000000
-21.760400 0.000000
-21.696800 0.000000
-21.633300 0.000000
-21.569800 0.000000
-21.506200 0.000000
-21.442700 0.000000
-21.379200 0.000000
-21.315700 0.000000
-21.252100 0.000000
-21.188600 0.000000
-21.125100 0.000000
-21.061500 0.000000
-20.998000 0.000000
-20.934500 0.000000
-20.870900 0.000000
-20.807400 0.000000
-20.743900 0.000000
-20.680400 0.000000
-20.616800 0.000000
-20.553300 0.000000
-20.489800 0.000000
-20.426200 0.000000
-20.362700 0.000000
-20.299200 0.000000
-20.235600 0.000000
-20.172100 0.000000
-20.108600 0.000000
-20.045100 0.000000
-19.981500 0.000000
-19.918000 0.000000
-19.854500 0.000000
-19.790900 0.000000
-19.727400 0.000000
-19.663900 0.000000
-19.600300 0.000000
-19.536800 0.000000
-19.473300 0.000000
-19.409800 0.000000
-19.346200 0.000000
-19.282700 0.000000
-19.219200 0.000000
-19.155600 0.000000
-19.092100 0.000000
-19.028600 0.000000
-18.965000 0.000000
-18.901500 0.000000
-18.838000 0.000000
-18.774500 0.000000
-18.710900 0.000000
-18.647400 0.000000
-18.583900 0.000000
-18.520300 0.000000
-18.456800 0.000000
-18.393300 0.000000
-18.329700 0.000000
-18.266200 0.000000
-18.202700 0.000000
-18.139200 0.000000
-18.075600 0.000000
-18.012100 0.000000
-17.948600 0.000000
-17.885000 0.000000
-17.821500 0.000000
-17.758000 0.000000
-17.694400 0.000000
-17.630900 0.000000
-17.567400 0.000000
-17.503900 0.000000
-17.440300 0.000000
-17.376800 0.000000
-17.313300 0.000000
-17.249700 0.000000
-17.186200 0.000000
-17.122700 0.000000
-17.059200 0.000000
-16.995600 0.000000
-16.932100 0.000000
-16.868600 0.000000
-16.805000 0.000000
-16.741500 0.000000
-16.678000 0.000000
-16.614400 0.000000
-16.550900 0.000000
-16.487400 0.000000
-16.423900 0.000000
-16.360300 0.000000
-16.296800 0.000000
-16.233300 0.000000
-16.169700 0.000000
-16.106200 0.000000
-16.042700 0.000000
-15.979100 0.000000
-15.915600 0.000000
-15.852100 0.000000
-15.788600 0.000000
-15.725000 0.000000
-15.661500 0.000000
-15.598000 0.000000
-15.534400 0.000000
-15.470900 0.000000
-15.407400 0.000000
-15.343800 0.000000
-15.280300 0.000000
-15.216800 0.000000
-15.153300 0.000000
-15.089700 0.000000
-15.026200 0.000000
-14.962700 0.000000
-14.899100 0.000000
-14.835600 0.000000
-14.772100 0.000000
-14.708500 0.000000
-14.645000 0.000000
-14.581500 0.000000
-14.518000 0.000000
-14.454400 0.000000
-14.390900 0.000000
-14.327400 0.000000
-14.263800 0.000000
-14.200300 0.000000
-14.136800 0.000000
-14.073200 0.000000
-14.009700 0.000000
-13.946200 0.000000
-13.882700 0.000000
-13.819100 0.058800
-13.755600 0.093200
-13.692100 0.130100
-13.628500 0.161100
-13.565000 0.195600
-13.501500 0.233100
-13.438000 0.276100
-13.374400 0.329400
-13.310900 0.397400
-13.247400 0.469800
-13.183800 0.563400
-13.120300 0.749500
-13.056800 1.029800
-12.993200 1.417200
-12.929700 2.664300
-12.866200 4.919500
-12.802700 1.242400
-12.739100 0.516700
-12.675600 0.182500
-12.612100 0.000000
-12.548500 0.000000
-12.485000 0.000000
-12.421500 0.000000
-12.357900 0.000000
-12.294400 0.000000
-12.230900 0.000000
-12.167400 0.000000
-12.103800 0.000000
-12.040300 0.000000
-11.976800 0.000000
-11.913200 0.000000
-11.849700 0.000000
-11.786200 0.000000
-11.722600 0.000000
-11.659100 0.000000
-11.595600 0.000000
-11.532100 0.000000
-11.468500 0.000000
-11.405000 0.000000
-11.341500 0.000000
-11.277900 0.000000
-11.214400 0.000000
-11.150900 0.000000
-11.087300 0.000000
-11.023800 0.000000
-10.960300 0.000000
-10.896800 0.000000
-10.833200 0.000000
-10.769700 0.000000
-10.706200 0.000000
-10.642600 0.000000
-10.579100 0.000000
-10.515600 0.000000
-10.452000 0.000000
-10.388500 0.000000
-10.325000 0.000000
-10.261500 0.000000
-10.197900 0.000000
-10.134400 0.000000
-10.070900 0.000000
-10.007300 0.000000
-9.943800 0.000000
-9.880300 0.000000
-9.816700 0.000000
-9.753200 0.000000
-9.689700 0.000000
-9.626200 0.000000
-9.562600 0.000000
-9.499100 0.000000
-9.435600 0.000000
-9.372000 0.000000
-9.308500 0.000000
-9.245000 0.000000
-9.181500 0.000000
-9.117900 0.000000
-9.054400 0.000000
-8.990900 0.000000
-8.927300 0.000000
-8.863800 0.000000
-8.800300 0.000000
-8.736700 0.000000
-8.673200 0.000000
-8.609700 0.000000
-8.546200 0.000000
-8.482600 0.000000
-8.419100 0.000000
-8.355600 0.000000
-8.292000 0.000000
-8.228500 0.000000
-8.165000 0.000000
-8.101400 0.000000
-8.037900 0.000000
-7.974400 0.000000
-7.910900 0.000000
-7.847300 0.000000
-7.783800 0.000000
-7.720300 0.000000
-7.656700 0.000000
-7.593200 0.000000
-7.529700 0.000000
-7.466100 0.000000
-7.402600 0.000000
-7.339100 0.000000
-7.275600 0.000000
-7.212000 0.000000
-7.148500 0.000000
-7.085000 0.000000
-7.021400 0.000000
-6.957900 0.000000
-6.894400 0.000000
-6.830800 0.000000
-6.767300 0.000000
-6.703800 0.000000
-6.640300 0.000000
-6.576700 0.000000
-6.513200 0.000000
-6.449700 0.000000
-6.386100 0.000000
-6.322600 0.000000
-6.259100 0.000000
-6.195500 0.000000
-6.132000 0.000000
-6.068500 0.000000
-6.005000 0.000000
-5.941400 0.000000
-5.877900 0.000000
-5.814400 0.000000
-5.750800 0.000000
-5.687300 0.000000
-5.623800 0.000000
-5.560200 0.000000
-5.496700 0.000000
-5.433200 0.000000
-5.369700 0.000000
-5.306100 0.000000
-5.242600 0.000000
-5.179100 0.000000
-5.115500 0.000000
-5.052000 0.000000
-4.988500 0.000000
-4.925000 0.000000
-4.861400 0.000000
-4.797900 0.000000
-4.734400 0.000000
-4.670800 0.000000
-4.607300 0.000000
-4.543800 0.000000
-4.480200 0.000000
-4.416700 0.000000
-4.353200 0.000000
-4.289700 0.000000
-4.226100 0.000000
-4.162600 0.000000
-4.099100 0.000000
-4.035500 0.000000
-3.972000 0.000000
-3.908500 0.000000
-3.844900 0.000000
-3.781400 0.000000
-3.717900 0.000000
-3.654400 0.000000
-3.590800 0.000000
-3.527300 0.000000
-3.463800 0.000000
-3.400200 0.000000
-3.336700 0.000000
-3.273200 0.000000
-3.209600 0.000000
-3.146100 0.000000
-3.082600 0.000000
-3.019100 0.000000
-2.955500 0.000000
-2.892000 0.000000
-2.828500 0.000000
-2.764900 0.000000
-2.701400 0.000000
-2.637900 0.000000
-2.574300 0.000000
-2.510800 0.000000
-2.447300 0.000000
-2.383800 0.000000
-2.320200 0.000000
-2.256700 0.000000
-2.193200 0.000000
-2.129600 0.000000
-2.066100 0.000000
-2.002600 0.000000
-1.939000 0.000000
-1.875500 0.000000
-1.812000 0.000000
-1.748500 0.040400
-1.684900 0.078200
-1.621400 0.105300
-1.557900 0.147500
-1.494300 0.172600
-1.430800 0.201700
-1.367300 0.230500
-1.303700 0.259000
-1.240200 0.290300
-1.176700 0.324100
-1.113200 0.360900
-1.049600 0.401500
-0.986100 0.450700
-0.922600 0.515600
-0.859000 0.595400
-0.795500 0.683300
-0.732000 0.792900
-0.668500 0.806800
-0.604900 0.837400
-0.541400 0.809600
-0.477900 0.848100
-0.414300 0.913400
-0.350800 1.141900
-0.287300 1.039600
-0.223700 1.038800
-0.160200 0.565400
-0.096700 0.287200
-0.033200 0.189700
0.030400 0.134800
0.093900 0.166600
0.157400 0.248500
0.221000 0.570400
0.284500 0.954900
0.348000 0.866900
0.411600 0.923800
0.475100 0.961200
0.538600 0.985100
0.602100 1.016100
0.665700 1.064000
0.729200 1.123800
0.792700 1.436300
0.856300 1.463000
0.919800 1.406600
0.983300 1.351200
1.046900 1.386700
1.110400 1.392100
1.173900 1.349700
1.237400 1.372600
1.301000 1.531700
1.364500 1.815000
1.428000 1.539800
1.491600 1.243700
1.555100 1.040000
1.618600 0.900300
1.682200 0.831300
1.745700 0.748200
1.809200 0.983100
1.872700 0.452500
1.936300 0.331800
1.999800 0.280500
2.063300 0.240400
2.126900 0.197400
2.190400 0.165700
2.253900 0.137900
2.317500 0.113200
2.381000 0.088100
2.444500 0.064900
2.508000 0.049100
2.571600 0.042000
2.635100 0.035700
2.698600 0.029500
2.762200 0.008900
2.825700 0.022000
2.889200 0.036800
2.952800 0.053100
3.016300 0.070800
3.079800 0.086900
3.143300 0.103200
3.206900 0.111200
3.270400 0.122500
3.333900 0.136200
3.397500 0.150500
3.461000 0.166600
3.524500 0.185800
3.588000 0.204800
3.651600 0.224300
3.715100 0.244300
3.778600 0.264800
3.842200 0.286000
3.905700 0.326700
3.969200 0.381400
4.032800 0.458000
4.096300 0.489000
4.159800 0.491200
4.223300 0.497500
4.286900 0.517800
4.350400 0.536400
4.413900 0.558200
4.477500 0.577400
4.541000 0.597200
4.604500 0.647600
4.668100 0.706000
4.731600 0.765700
4.795100 0.835400
4.858600 0.936700
4.922200 0.974900
4.985700 0.957300
5.049200 0.964500
5.112800 1.103100
5.176300 0.963900
5.239800 0.986500
5.303400 1.147500
5.366900 1.270400
5.430400 1.870900
5.493900 2.514300
5.557500 1.948400
5.621000 1.688200
5.684500 1.628700
5.748100 1.741300
5.811600 1.777800
5.875100 1.829400
5.938700 2.058900
6.002200 2.389400
6.065700 4.036800
6.129200 2.388100
6.192800 1.320600
6.256300 0.000000
6.319800 0.000000
6.383400 0.000000
6.446900 0.000000
6.510400 0.000000
6.574000 0.000000
6.637500 0.000000
6.701000 0.000000
6.764500 0.000000
6.828100 0.000000
6.891600 0.000000
6.955100 0.000000
7.018700 0.000000
7.082200 0.000000
7.145700 0.000000
7.209300 0.000000
7.272800 0.000000
7.336300 0.000000
7.399800 0.003500
7.463400 0.008700
7.526900 0.012700
7.590400 0.015600
7.654000 0.019300
7.717500 0.023500
7.781000 0.027800
7.844500 0.032000
7.908100 0.036200
7.971600 0.043800
8.035100 0.054700
8.098700 0.065100
8.162200 0.078300
8.225700 0.095800
8.289300 0.108300
8.352800 0.148200
8.416300 0.191800
8.479800 0.234400
8.543400 0.283400
8.606900 0.329800
8.670400 0.374800
8.734000 0.416400
8.797500 0.474300
8.861000 0.541100
8.924600 0.612700
8.988100 0.708500
9.051600 0.904200
9.115100 1.192400
9.178700 1.744700
9.242200 1.890700
9.305700 1.811300
9.369300 1.544900
9.432800 1.259800
9.496300 1.072600
9.559900 0.952700
9.623400 0.887600
9.686900 0.843500
9.750400 0.809600
9.814000 0.776100
9.877500 0.759600
9.941000 0.752600
10.004600 0.753900
10.068100 0.774500
10.131600 0.829500
10.195200 0.918900
10.258700 0.884200
10.322200 0.872300
10.385700 0.838600
10.449300 0.799000
10.512800 0.764000
10.576300 0.752200
10.639900 0.740900
10.703400 0.981400
10.766900 0.507200
10.830500 0.425200
10.894000 0.320200
10.957500 0.236800
11.021000 0.169900
11.084600 0.133200
11.148100 0.150800
11.211600 0.167300
11.275200 0.175600
11.338700 0.182400
11.402200 0.188200
11.465800 0.192600
11.529300 0.196300
11.592800 0.197400
11.656300 0.201100
11.719900 0.205000
11.783400 0.208700
11.846900 0.212200
11.910500 0.215400
11.974000 0.218400
12.037500 0.221300
12.101000 0.224000
12.164600 0.226500
12.228100 0.229200
12.291600 0.231900
12.355200 0.234500
12.418700 0.236600
12.482200 0.238200
12.545800 0.239200
12.609300 0.240100
12.672800 0.241400
12.736300 0.242800
12.799900 0.243700
12.863400 0.244700
12.926900 0.245700
12.990500 0.246800
13.054000 0.247900
13.117500 0.247300
13.181100 0.247100
13.244600 0.247600
13.308100 0.247900
13.371600 0.247700
13.435200 0.246500
13.498700 0.245300
13.562200 0.244100
13.625800 0.242600
13.689300 0.240900
13.752800 0.238600
13.816400 0.237100
13.879900 0.236700
13.943400 0.237500
14.006900 0.239900
14.070500 0.243700
14.134000 0.246500
14.197500 0.248700
14.261100 0.252400
14.324600 0.257800
14.388100 0.258500
14.451700 0.248700
14.515200 0.234100
14.578700 0.206900
14.642200 0.185800
14.705800 0.166600
14.769300 0.146700
14.832800 0.131000
14.896400 0.120000
14.959900 0.111100
15.023400 0.060900
15.087000 0.058400
15.150500 0.075200
15.214000 0.250400
15.277500 0.537400
15.341100 0.822300
15.404600 0.825600
15.468100 0.815800
15.531700 0.700100
15.595200 0.583800
15.658700 0.520400
15.722200 0.470600
15.785800 0.429400
15.849300 0.396700
15.912800 0.368400
15.976400 0.350000
16.039900 0.338600
16.103400 0.327500
16.167000 0.317200
16.230500 0.302800
16.294000 0.294700
16.357500 0.293300
16.421100 0.295900
16.484600 0.299900
16.548100 0.304900
16.611700 0.310800
16.675200 0.317400
16.738700 0.518500
16.802300 0.683400
16.865800 0.728000
16.929300 0.753600
16.992800 0.650100
17.056400 0.576400
17.119900 0.545000
17.183400 0.521500
17.247000 0.505100
17.310500 0.489800
17.374000 0.482600
17.437600 0.480100
17.501100 0.476500
17.564600 0.470100
17.628100 0.461300
17.691700 0.450600
17.755200 0.438300
17.818700 0.424700
17.882300 0.410400
17.945800 0.398700
18.009300 0.388600
18.072900 0.378600
18.136400 0.368400
18.199900 0.358100
18.263400 0.340400
18.327000 0.317000
18.390500 0.305600
18.454000 0.293900
18.517600 0.281100
18.581100 0.267500
18.644600 0.255400
18.708200 0.244500
18.771700 0.235600
18.835200 0.227800
18.898700 0.220600
18.962300 0.215700
19.025800 0.223800
19.089300 0.224000
19.152900 0.223700
19.216400 0.225500
19.279900 0.229400
19.343500 0.232400
19.407000 0.230800
19.470500 0.226800
19.534000 0.222700
19.597600 0.226700
19.661100 0.227700
19.724600 0.259800
19.788200 0.272700
19.851700 0.295600
19.915200 0.289000
19.978700 0.281700
20.042300 0.281600
20.105800 0.283800
20.169300 0.288000
20.232900 0.297400
20.296400 0.311800
20.359900 0.330900
20.423500 0.351100
20.487000 0.389500
20.550500 0.463900
20.614000 0.531800
20.677600 0.554800
20.741100 0.523100
20.804600 0.509800
20.868200 0.505800
20.931700 0.542100
20.995200 0.546700
21.058800 0.539300
21.122300 0.525700
21.185800 0.510200
21.249300 0.501800
21.312900 0.488900
21.376400 0.483800
21.439900 0.490400
21.503500 0.502400
21.567000 0.521400
21.630500 0.515400
21.694100 0.527500
21.757600 0.425100
21.821100 0.366300
21.884600 0.322800
21.948200 0.291800
22.011700 0.264800
22.075200 0.236400
22.138800 0.221000
22.202300 0.207000
22.265800 0.187000
22.329400 0.168700
22.392900 0.151200
22.456400 0.158600
22.519900 0.220200
22.583500 0.272100
22.647000 0.337800
22.710500 0.375200
22.774100 0.284900
22.837600 0.290800
22.901100 0.308400
22.964700 0.311000
23.028200 0.298400
23.091700 0.282000
23.155200 0.289000
23.218800 0.269900
23.282300 0.270700
23.345800 0.269100
23.409400 0.270900
23.472900 0.278200
23.536400 0.276000
23.600000 0.258900
23.663500 0.245100
23.727000 0.232100
23.790500 0.230600
23.854100 0.232900
23.917600 0.236500
23.981100 0.230900
24.044700 0.228600
24.108200 0.233200
24.171700 0.238600
24.235200 0.243900
24.298800 0.249100
24.362300 0.254400
24.425800 0.259900
24.489400 0.265700
24.552900 0.272100
24.616400 0.279600
24.680000 0.288400
24.743500 0.298600
24.807000 0.311100
24.870500 0.326000
24.934100 0.345700
24.997600 0.373400
25.061100 0.391200
25.124700 0.507100
25.188200 0.536000
25.251700 0.406900
25.315300 0.380200
25.378800 0.369300
25.442300 0.357200
25.505800 0.339700
25.569400 0.313800
25.632900 0.291600
25.696400 0.263300
25.760000 0.231100
25.823500 0.193100
25.887000 0.179300
25.950600 0.170600
26.014100 0.167800
26.077600 0.170200
26.141100 0.174700
26.204700 0.180600
26.268200 0.189400
26.331700 0.202300
26.395300 0.219000
26.458800 0.238500
26.522300 0.257400
26.585900 0.275700
26.649400 0.286100
26.712900 0.296500
26.776400 0.302300
26.840000 0.306900
