set title 'mp-1183657 - Density of States'
set xlabel 'Energy (eV)'
set ylabel 'DOS (states/eV)'
set grid
set xrange [-10:10]
set yrange [0:68.845]
set xzeroaxis lt -1
set terminal png size 800,600
set output 'mp-1183657_dos_gnuplot.png'
plot '-' using 1:2 with lines title 'DOS'
-9.157100 0.000000
-9.139100 0.000000
-9.121000 0.000000
-9.102900 0.000000
-9.084900 0.000000
-9.066800 0.000000
-9.048800 0.000000
-9.030700 0.000000
-9.012600 0.000000
-8.994600 0.000000
-8.976500 0.000000
-8.958500 0.000000
-8.940400 0.000000
-8.922300 0.000000
-8.904300 0.000000
-8.886200 0.000000
-8.868200 0.000000
-8.850100 0.000000
-8.832000 0.000000
-8.814000 0.000000
-8.795900 0.000000
-8.777900 0.000000
-8.759800 0.000000
-8.741700 0.000000
-8.723700 0.000000
-8.705600 0.000000
-8.687600 0.000000
-8.669500 0.000000
-8.651400 0.000000
-8.633400 0.000000
-8.615300 0.000000
-8.597300 0.000000
-8.579200 0.000000
-8.561100 0.000000
-8.543100 0.000000
-8.525000 0.000000
-8.507000 0.000000
-8.488900 0.000000
-8.470800 0.000000
-8.452800 0.000000
-8.434700 0.000000
-8.416700 0.000000
-8.398600 0.000000
-8.380500 0.000000
-8.362500 0.000000
-8.344400 0.000000
-8.326400 0.000000
-8.308300 0.000000
-8.290300 0.000000
-8.272200 0.000000
-8.254100 0.000000
-8.236100 0.000000
-8.218000 0.000000
-8.200000 0.000000
-8.181900 0.000000
-8.163800 0.000000
-8.145800 0.000000
-8.127700 0.000000
-8.109700 0.000000
-8.091600 0.000000
-8.073500 0.000000
-8.055500 0.000000
-8.037400 0.000000
-8.019400 0.000000
-8.001300 0.000000
-7.983200 0.000000
-7.965200 0.000000
-7.947100 0.000000
-7.929100 0.000000
-7.911000 0.000000
-7.892900 0.000000
-7.874900 0.000000
-7.856800 0.000000
-7.838800 0.000000
-7.820700 0.000000
-7.802600 0.000000
-7.784600 0.000000
-7.766500 0.000000
-7.748500 0.000000
-7.730400 0.000000
-7.712300 0.000000
-7.694300 0.000000
-7.676200 0.000000
-7.658200 0.000000
-7.640100 0.000000
-7.622000 0.000200
-7.604000 0.001200
-7.585900 0.004300
-7.567900 0.012500
-7.549800 0.029400
-7.531700 0.057200
-7.513700 0.093900
-7.495600 0.136200
-7.477600 0.186500
-7.459500 0.253900
-7.441400 0.337500
-7.423400 0.406700
-7.405300 0.417300
-7.387300 0.362000
-7.369200 0.293000
-7.351100 0.281700
-7.333100 0.356500
-7.315000 0.483800
-7.297000 0.604900
-7.278900 0.688700
-7.260800 0.742700
-7.242800 0.774400
-7.224700 0.761100
-7.206700 0.676000
-7.188600 0.535900
-7.170500 0.403500
-7.152500 0.341300
-7.134400 0.374700
-7.116400 0.495600
-7.098300 0.682000
-7.080200 0.899500
-7.062200 1.093800
-7.044100 1.202400
-7.026100 1.189900
-7.008000 1.073900
-6.989900 0.915600
-6.971900 0.785100
-6.953800 0.726200
-6.935800 0.738300
-6.917700 0.783800
-6.899600 0.822500
-6.881600 0.840800
-6.863500 0.847000
-6.845500 0.856900
-6.827400 0.886100
-6.809300 0.937400
-6.791300 1.001400
-6.773200 1.080300
-6.755200 1.197000
-6.737100 1.361000
-6.719000 1.532700
-6.701000 1.634100
-6.682900 1.600900
-6.664900 1.435500
-6.646800 1.215600
-6.628700 1.044900
-6.610700 0.982300
-6.592600 1.009900
-6.574600 1.066100
-6.556500 1.116500
-6.538500 1.184500
-6.520400 1.303100
-6.502300 1.453000
-6.484300 1.571400
-6.466200 1.610900
-6.448200 1.586900
-6.430100 1.583200
-6.412000 1.706400
-6.394000 2.000200
-6.375900 2.377200
-6.357900 2.639500
-6.339800 2.605400
-6.321700 2.256000
-6.303700 1.762200
-6.285600 1.363300
-6.267600 1.213000
-6.249500 1.302100
-6.231400 1.499500
-6.213400 1.673400
-6.195300 1.783900
-6.177300 1.859600
-6.159200 1.912800
-6.141100 1.908100
-6.123100 1.815700
-6.105000 1.673300
-6.087000 1.569600
-6.068900 1.556200
-6.050800 1.588200
-6.032800 1.562200
-6.014700 1.412000
-5.996700 1.168600
-5.978600 0.938800
-5.960500 0.816400
-5.942500 0.802800
-5.924400 0.822800
-5.906400 0.817100
-5.888300 0.791100
-5.870200 0.769900
-5.852200 0.760700
-5.834100 0.786500
-5.816100 0.906200
-5.798000 1.144700
-5.779900 1.421500
-5.761900 1.592700
-5.743800 1.578400
-5.725800 1.446600
-5.707700 1.367500
-5.689600 1.473500
-5.671600 1.744300
-5.653500 2.015700
-5.635500 2.114200
-5.617400 2.007400
-5.599300 1.837100
-5.581300 1.793500
-5.563200 1.944300
-5.545200 2.186500
-5.527100 2.371800
-5.509000 2.466400
-5.491000 2.566900
-5.472900 2.762100
-5.454900 3.009400
-5.436800 3.185100
-5.418700 3.237600
-5.400700 3.241000
-5.382600 3.285700
-5.364600 3.341700
-5.346500 3.257400
-5.328400 2.915800
-5.310400 2.388100
-5.292300 1.903300
-5.274300 1.668800
-5.256200 1.735500
-5.238100 2.007400
-5.220100 2.347000
-5.202000 2.676100
-5.184000 2.986200
-5.165900 3.260600
-5.147800 3.418900
-5.129800 3.366700
-5.111700 3.085900
-5.093700 2.652900
-5.075600 2.168700
-5.057500 1.704200
-5.039500 1.331100
-5.021400 1.156600
-5.003400 1.265400
-4.985300 1.622800
-4.967200 2.069100
-4.949200 2.424300
-4.931100 2.608600
-4.913100 2.666800
-4.895000 2.676100
-4.877000 2.642400
-4.858900 2.522900
-4.840800 2.354300
-4.822800 2.284400
-4.804700 2.421500
-4.786700 2.689700
-4.768600 2.891700
-4.750500 2.912900
-4.732500 2.829300
-4.714400 2.812700
-4.696400 2.949900
-4.678300 3.165000
-4.660200 3.303500
-4.642200 3.272900
-4.624100 3.091000
-4.606100 2.840300
-4.588000 2.632900
-4.569900 2.584000
-4.551900 2.743100
-4.533800 3.047600
-4.515800 3.363600
-4.497700 3.552300
-4.479600 3.520000
-4.461600 3.270400
-4.443500 2.932400
-4.425500 2.695900
-4.407400 2.674900
-4.389300 2.813200
-4.371300 2.925700
-4.353200 2.856400
-4.335200 2.612700
-4.317100 2.328800
-4.299000 2.098400
-4.281000 1.895300
-4.262900 1.669900
-4.244900 1.453400
-4.226800 1.332700
-4.208700 1.349700
-4.190700 1.442800
-4.172600 1.482700
-4.154600 1.372400
-4.136500 1.124800
-4.118400 0.849800
-4.100400 0.663700
-4.082300 0.605700
-4.064300 0.628200
-4.046200 0.648900
-4.028100 0.611700
-4.010100 0.514900
-3.992000 0.393200
-3.974000 0.279400
-3.955900 0.185200
-3.937800 0.110800
-3.919800 0.057000
-3.901700 0.024200
-3.883700 0.008300
-3.865600 0.002200
-3.847500 0.000500
-3.829500 0.000100
-3.811400 0.000000
-3.793400 0.000000
-3.775300 0.000000
-3.757200 0.000000
-3.739200 0.000000
-3.721100 0.000000
-3.703100 0.000000
-3.685000 0.000000
-3.666900 0.000000
-3.648900 0.000000
-3.630800 0.000000
-3.612800 0.000000
-3.594700 0.000000
-3.576600 0.000000
-3.558600 0.000000
-3.540500 0.000000
-3.522500 0.000000
-3.504400 0.000000
-3.486300 0.000000
-3.468300 0.000000
-3.450200 0.000000
-3.432200 0.000000
-3.414100 0.000000
-3.396000 0.000000
-3.378000 0.000000
-3.359900 0.000000
-3.341900 0.000400
-3.323800 0.003300
-3.305700 0.024800
-3.287700 0.144100
-3.269600 0.662300
-3.251600 2.412600
-3.233500 6.998900
-3.215400 16.264300
-3.197400 30.500000
-3.179300 46.602500
-3.161300 58.810100
-3.143200 62.586400
-3.125200 58.125800
-3.107100 49.779200
-3.089000 42.267100
-3.071000 37.582300
-3.052900 34.722100
-3.034900 31.445700
-3.016800 26.323300
-2.998700 19.702500
-2.980700 13.091700
-2.962600 7.806900
-2.944600 4.244600
-2.926500 2.114400
-2.908400 0.951300
-2.890400 0.376300
-2.872300 0.127200
-2.854300 0.036000
-2.836200 0.008400
-2.818100 0.001600
-2.800100 0.000200
-2.782000 0.000000
-2.764000 0.000000
-2.745900 0.000000
-2.727800 0.000000
-2.709800 0.000000
-2.691700 0.000000
-2.673700 0.000000
-2.655600 0.000000
-2.637500 0.000000
-2.619500 0.000000
-2.601400 0.000000
-2.583400 0.000000
-2.565300 0.000000
-2.547200 0.000000
-2.529200 0.000000
-2.511100 0.000000
-2.493100 0.000000
-2.475000 0.000000
-2.456900 0.000000
-2.438900 0.000000
-2.420800 0.000000
-2.402800 0.000000
-2.384700 0.000000
-2.366600 0.000000
-2.348600 0.000000
-2.330500 0.000000
-2.312500 0.000000
-2.294400 0.000000
-2.276300 0.000000
-2.258300 0.000000
-2.240200 0.000000
-2.222200 0.000000
-2.204100 0.000000
-2.186000 0.000000
-2.168000 0.000000
-2.149900 0.000000
-2.131900 0.000000
-2.113800 0.000000
-2.095700 0.000000
-2.077700 0.000000
-2.059600 0.000000
-2.041600 0.000000
-2.023500 0.000000
-2.005400 0.000000
-1.987400 0.000000
-1.969300 0.000000
-1.951300 0.000000
-1.933200 0.000000
-1.915100 0.000000
-1.897100 0.000000
-1.879000 0.000000
-1.861000 0.000000
-1.842900 0.000000
-1.824800 0.000000
-1.806800 0.000000
-1.788700 0.000000
-1.770700 0.000000
-1.752600 0.000000
-1.734500 0.000000
-1.716500 0.000000
-1.698400 0.000000
-1.680400 0.000000
-1.662300 0.000000
-1.644200 0.000000
-1.626200 0.000000
-1.608100 0.000000
-1.590100 0.000000
-1.572000 0.000000
-1.553900 0.000000
-1.535900 0.000000
-1.517800 0.000000
-1.499800 0.000000
-1.481700 0.000000
-1.463600 0.000000
-1.445600 0.000000
-1.427500 0.000000
-1.409500 0.000000
-1.391400 0.000000
-1.373400 0.000000
-1.355300 0.000000
-1.337200 0.000000
-1.319200 0.000000
-1.301100 0.000000
-1.283100 0.000000
-1.265000 0.000000
-1.246900 0.000000
-1.228900 0.000000
-1.210800 0.000000
-1.192800 0.000000
-1.174700 0.000000
-1.156600 0.000000
-1.138600 0.000000
-1.120500 0.000000
-1.102500 0.000000
-1.084400 0.000000
-1.066300 0.000000
-1.048300 0.000000
-1.030200 0.000000
-1.012200 0.000000
-0.994100 0.000000
-0.976000 0.000000
-0.958000 0.000000
-0.939900 0.000000
-0.921900 0.000000
-0.903800 0.000000
-0.885700 0.000000
-0.867700 0.000000
-0.849600 0.000000
-0.831600 0.000000
-0.813500 0.000000
-0.795400 0.000000
-0.777400 0.000000
-0.759300 0.000000
-0.741300 0.000000
-0.723200 0.000000
-0.705100 0.000000
-0.687100 0.000000
-0.669000 0.000000
-0.651000 0.000000
-0.632900 0.000000
-0.614800 0.000000
-0.596800 0.000000
-0.578700 0.000000
-0.560700 0.000000
-0.542600 0.000000
-0.524500 0.000000
-0.506500 0.000000
-0.488400 0.000000
-0.470400 0.000000
-0.452300 0.000000
-0.434200 0.000000
-0.416200 0.000000
-0.398100 0.000000
-0.380100 0.000000
-0.362000 0.000000
-0.343900 0.000000
-0.325900 0.000000
-0.307800 0.000000
-0.289800 0.000000
-0.271700 0.000000
-0.253600 0.000000
-0.235600 0.000000
-0.217500 0.000000
-0.199500 0.000000
-0.181400 0.000000
-0.163300 0.000000
-0.145300 0.000000
-0.127200 0.000000
-0.109200 0.000000
-0.091100 0.000000
-0.073000 0.000000
-0.055000 0.000100
-0.036900 0.000700
-0.018900 0.003300
-0.000800 0.012200
0.017300 0.035400
0.035300 0.080700
0.053400 0.147100
0.071400 0.220000
0.089500 0.280500
0.107600 0.319000
0.125600 0.338300
0.143700 0.353600
0.161700 0.393400
0.179800 0.483300
0.197900 0.622600
0.215900 0.785400
0.234000 0.948700
0.252000 1.109400
0.270100 1.269900
0.288100 1.408200
0.306200 1.469200
0.324300 1.403900
0.342300 1.228400
0.360400 1.038000
0.378400 0.952700
0.396500 1.028400
0.414600 1.193100
0.432600 1.287000
0.450700 1.216100
0.468700 1.070000
0.486800 1.051300
0.504900 1.276600
0.522900 1.663200
0.541000 2.019300
0.559000 2.225300
0.577100 2.298200
0.595200 2.299200
0.613200 2.247700
0.631300 2.149900
0.649300 2.041700
0.667400 1.945600
0.685500 1.822500
0.703500 1.620000
0.721600 1.349300
0.739600 1.088400
0.757700 0.935700
0.775800 0.977800
0.793800 1.249700
0.811900 1.674700
0.829900 2.060300
0.848000 2.221400
0.866100 2.135900
0.884100 1.956100
0.902200 1.859500
0.920200 1.897600
0.938300 1.980100
0.956400 1.991500
0.974400 1.918300
0.992500 1.845700
1.010500 1.834600
1.028600 1.846300
1.046700 1.813600
1.064700 1.750300
1.082800 1.744600
1.100800 1.845300
1.118900 1.983900
1.137000 2.028500
1.155000 1.913700
1.173100 1.714600
1.191100 1.585900
1.209200 1.612200
1.227300 1.728000
1.245300 1.796600
1.263400 1.745400
1.281400 1.594200
1.299500 1.383000
1.317600 1.131700
1.335600 0.881500
1.353700 0.735000
1.371700 0.808000
1.389800 1.112200
1.407900 1.495400
1.425900 1.736600
1.444000 1.731600
1.462000 1.567200
1.480100 1.407900
1.498200 1.347500
1.516200 1.384000
1.534300 1.476800
1.552300 1.581200
1.570400 1.661400
1.588500 1.720000
1.606500 1.797400
1.624600 1.909000
1.642600 2.009200
1.660700 2.045700
1.678800 2.025400
1.696800 2.014700
1.714900 2.089900
1.732900 2.267200
1.751000 2.448400
1.769100 2.458300
1.787100 2.190200
1.805200 1.723400
1.823200 1.286500
1.841300 1.108700
1.859400 1.289200
1.877400 1.749300
1.895500 2.272800
1.913500 2.620500
1.931600 2.660000
1.949700 2.429100
1.967700 2.092600
1.985800 1.831500
2.003800 1.741100
2.021900 1.807800
2.039900 1.959000
2.058000 2.113600
2.076100 2.204500
2.094100 2.218800
2.112200 2.239500
2.130200 2.392200
2.148300 2.703500
2.166400 3.032400
2.184400 3.177200
2.202500 3.071100
2.220500 2.872500
2.238600 2.830600
2.256700 3.032700
2.274700 3.302500
2.292800 3.363800
2.310800 3.093800
2.328900 2.636000
2.347000 2.310700
2.365000 2.395600
2.383100 2.908300
2.401100 3.545300
2.419200 3.877500
2.437300 3.685000
2.455300 3.126200
2.473400 2.581200
2.491400 2.354300
2.509500 2.485300
2.527600 2.755100
2.545600 2.863100
2.563700 2.661700
2.581700 2.241300
2.599800 1.810100
2.617900 1.532200
2.635900 1.477200
2.654000 1.657000
2.672000 2.053600
2.690100 2.621800
2.708200 3.295700
2.726200 3.983600
2.744300 4.536500
2.762300 4.758500
2.780400 4.519200
2.798500 3.882400
2.816500 3.088100
2.834600 2.387100
2.852600 1.910700
2.870700 1.677500
2.888800 1.647700
2.906800 1.741300
2.924900 1.858900
2.942900 1.938000
2.961000 1.987800
2.979100 2.056800
2.997100 2.176900
3.015200 2.344100
3.033200 2.527600
3.051300 2.674900
3.069400 2.727500
3.087400 2.653400
3.105500 2.470600
3.123500 2.241900
3.141600 2.044200
3.159700 1.937000
3.177700 1.942200
3.195800 2.025400
3.213800 2.091200
3.231900 2.046200
3.250000 1.889600
3.268000 1.704000
3.286100 1.543500
3.304100 1.384700
3.322200 1.208900
3.340300 1.072100
3.358300 1.044500
3.376400 1.115000
3.394400 1.204000
3.412500 1.258400
3.430600 1.300900
3.448600 1.393800
3.466700 1.562100
3.484700 1.741800
3.502800 1.817700
3.520900 1.733800
3.538900 1.558500
3.557000 1.423600
3.575000 1.410700
3.593100 1.505900
3.611200 1.643000
3.629200 1.749600
3.647300 1.750200
3.665300 1.599000
3.683400 1.356300
3.701400 1.178700
3.719500 1.193600
3.737600 1.412100
3.755600 1.759700
3.773700 2.124800
3.791700 2.376400
3.809800 2.414600
3.827900 2.251600
3.845900 2.014700
3.864000 1.852500
3.882000 1.852300
3.900100 2.026000
3.918200 2.316600
3.936200 2.592300
3.954300 2.692700
3.972300 2.568800
3.990400 2.371200
4.008500 2.337400
4.026500 2.587200
4.044600 3.040400
4.062600 3.500200
4.080700 3.794100
4.098800 3.857000
4.116800 3.717300
4.134900 3.440000
4.152900 3.104100
4.171000 2.805000
4.189100 2.629500
4.207100 2.603900
4.225200 2.668900
4.243200 2.715900
4.261300 2.654000
4.279400 2.464300
4.297400 2.225500
4.315500 2.087400
4.333500 2.172500
4.351600 2.467300
4.369700 2.815900
4.387700 3.018200
4.405800 2.946300
4.423800 2.620200
4.441900 2.202500
4.460000 1.883200
4.478000 1.736500
4.496100 1.686000
4.514100 1.610600
4.532200 1.490100
4.550300 1.451300
4.568300 1.639400
4.586400 2.028600
4.604400 2.407100
4.622500 2.594400
4.640600 2.625700
4.658600 2.654000
4.676700 2.708000
4.694700 2.652100
4.712800 2.393500
4.730900 2.038300
4.748900 1.801200
4.767000 1.802200
4.785000 1.978500
4.803100 2.165400
4.821200 2.247500
4.839200 2.248100
4.857300 2.276800
4.875300 2.379300
4.893400 2.453700
4.911500 2.353300
4.929500 2.076800
4.947600 1.813000
4.965600 1.763500
4.983700 1.941500
5.001800 2.171100
5.019800 2.276200
5.037900 2.252800
5.055900 2.238700
5.074000 2.327400
5.092100 2.464800
5.110100 2.539800
5.128200 2.499800
5.146200 2.346400
5.164300 2.092800
5.182400 1.785500
5.200400 1.515500
5.218500 1.358000
5.236500 1.327600
5.254600 1.404900
5.272700 1.558300
5.290700 1.722500
5.308800 1.802600
5.326800 1.746500
5.344900 1.617400
5.363000 1.561700
5.381000 1.667200
5.399100 1.865000
5.417100 1.995400
5.435200 1.962600
5.453200 1.818500
5.471300 1.703700
5.489400 1.704400
5.507400 1.771300
5.525500 1.789900
5.543500 1.703100
5.561600 1.539500
5.579700 1.354700
5.597700 1.203300
5.615800 1.151400
5.633800 1.262200
5.651900 1.556800
5.670000 1.989300
5.688000 2.434500
5.706100 2.713800
5.724100 2.703200
5.742200 2.447100
5.760300 2.134900
5.778300 1.955800
5.796400 1.990800
5.814400 2.206900
5.832500 2.505900
5.850600 2.785500
5.868600 2.978200
5.886700 3.046400
5.904700 2.980600
5.922800 2.827600
5.940900 2.677500
5.958900 2.597400
5.977000 2.605100
5.995000 2.688900
6.013100 2.801300
6.031200 2.849100
6.049200 2.754300
6.067300 2.540300
6.085300 2.333600
6.103400 2.262700
6.121500 2.348400
6.139500 2.486000
6.157600 2.528200
6.175600 2.389500
6.193700 2.097100
6.211800 1.776000
6.229800 1.604400
6.247900 1.748500
6.265900 2.258000
6.284000 2.977300
6.302100 3.600300
6.320100 3.879900
6.338200 3.794800
6.356200 3.517000
6.374300 3.258900
6.392400 3.155300
6.410400 3.222200
6.428500 3.379600
6.446500 3.528600
6.464600 3.615400
6.482700 3.623900
6.500700 3.561600
6.518800 3.488700
6.536800 3.498500
6.554900 3.614000
6.573000 3.727200
6.591000 3.696800
6.609100 3.524000
6.627100 3.400800
6.645200 3.511800
6.663300 3.790800
6.681300 3.962200
6.699400 3.844300
6.717400 3.527400
6.735500 3.253500
6.753600 3.201700
6.771600 3.388500
6.789700 3.687200
6.807700 3.916700
6.825800 3.952900
6.843900 3.786700
6.861900 3.487300
6.880000 3.140100
6.898000 2.817500
6.916100 2.563500
6.934200 2.375700
6.952200 2.219800
6.970300 2.072200
6.988300 1.937500
7.006400 1.836500
7.024500 1.800000
7.042500 1.870500
7.060600 2.081900
7.078600 2.421700
7.096700 2.816100
7.114700 3.161000
7.132800 3.378200
7.150900 3.444800
7.168900 3.376400
7.187000 3.224300
7.205000 3.096700
7.223100 3.128700
7.241200 3.399200
7.259200 3.880400
7.277300 4.435400
7.295300 4.849500
7.313400 4.944300
7.331500 4.733600
7.349500 4.433600
7.367600 4.268300
7.385600 4.272400
7.403700 4.295000
7.421800 4.171100
7.439800 3.872200
7.457900 3.499700
7.475900 3.164200
7.494000 2.909600
7.512100 2.739400
7.530100 2.663800
7.548200 2.697300
7.566200 2.820000
7.584300 2.973000
7.602400 3.126200
7.620400 3.324600
7.638500 3.601000
7.656500 3.852700
7.674600 3.905600
7.692700 3.722100
7.710700 3.459200
7.728800 3.296500
7.746800 3.272200
7.764900 3.295200
7.783000 3.255600
7.801000 3.108100
7.819100 2.884100
7.837100 2.644200
7.855200 2.419700
7.873300 2.209700
7.891300 2.033900
7.909400 1.961500
7.927400 2.049900
7.945500 2.249800
7.963600 2.413300
7.981600 2.441400
7.999700 2.387700
8.017700 2.366500
8.035800 2.408000
8.053900 2.467600
8.071900 2.522800
8.090000 2.576800
8.108000 2.604700
8.126100 2.579400
8.144200 2.528800
8.162200 2.507500
8.180300 2.526700
8.198300 2.553700
8.216400 2.558500
8.234500 2.535700
8.252500 2.512900
8.270600 2.560800
8.288600 2.740100
8.306700 2.993400
8.324800 3.139700
8.342800 3.025300
8.360900 2.652400
8.378900 2.156600
8.397000 1.692800
8.415100 1.347400
8.433100 1.130100
8.451200 1.018800
8.469200 0.987200
8.487300 0.996200
8.505400 1.003800
8.523400 1.007800
8.541500 1.057200
8.559500 1.194500
8.577600 1.386700
8.595700 1.532200
8.613700 1.555800
8.631800 1.494900
8.649800 1.469800
8.667900 1.562700
8.686000 1.738900
8.704000 1.877000
8.722100 1.861400
8.740100 1.662500
8.758200 1.358000
8.776300 1.084000
8.794300 0.941100
8.812400 0.928400
8.830400 0.957600
8.848500 0.932300
8.866500 0.827400
8.884600 0.701100
8.902700 0.628500
8.920700 0.628200
8.938800 0.662700
8.956800 0.694700
8.974900 0.720300
8.993000 0.748700
9.011000 0.764500
9.029100 0.726600
9.047100 0.612800
9.065200 0.449500
9.083300 0.293900
9.101300 0.203800
9.119400 0.224400
9.137400 0.373500
9.155500 0.610200
9.173600 0.829400
9.191600 0.931800
9.209700 0.912200
9.227700 0.849700
9.245800 0.811000
9.263900 0.809500
9.281900 0.860200
9.300000 1.013700
9.318000 1.296900
9.336100 1.645100
9.354200 1.943400
9.372200 2.137900
9.390300 2.258200
9.408300 2.326600
9.426400 2.307600
9.444500 2.172400
9.462500 1.971600
9.480600 1.811800
9.498600 1.755200
9.516700 1.766200
9.534800 1.776500
9.552800 1.786900
9.570900 1.875800
9.588900 2.098500
9.607000 2.390000
9.625100 2.597400
9.643100 2.631600
9.661200 2.570300
9.679200 2.576600
9.697300 2.724000
9.715400 2.933200
9.733400 3.084300
9.751500 3.137500
9.769500 3.111700
9.787600 3.002800
9.805700 2.794000
9.823700 2.511200
9.841800 2.200500
9.859800 1.886300
9.877900 1.604200
9.896000 1.426800
9.914000 1.391700
9.932100 1.438500
9.950100 1.472100
9.968200 1.467800
9.986300 1.475000
10.004300 1.533700
10.022400 1.610700
10.040400 1.630700
10.058500 1.576800
10.076600 1.540100
