set title 'mp-1040468 - Density of States'
set xlabel 'Energy (eV)'
set ylabel 'DOS (states/eV)'
set grid
set xrange [-10:10]
set yrange [0:9.384]
set xzeroaxis lt -1
set terminal png size 800,600
set output 'mp-1040468_dos_gnuplot.png'
plot '-' using 1:2 with lines title 'DOS'
-8.773600 0.000000
-8.758000 0.000000
-8.742500 0.000000
-8.726900 0.000000
-8.711400 0.000000
-8.695800 0.000000
-8.680300 0.000000
-8.664800 0.000000
-8.649200 0.000000
-8.633700 0.000000
-8.618100 0.000000
-8.602600 0.000000
-8.587100 0.000000
-8.571500 0.000000
-8.556000 0.000000
-8.540400 0.000000
-8.524900 0.000000
-8.509300 0.000000
-8.493800 0.000000
-8.478300 0.000000
-8.462700 0.000000
-8.447200 0.000000
-8.431600 0.000000
-8.416100 0.000000
-8.400500 0.000000
-8.385000 0.000000
-8.369500 0.000000
-8.353900 0.000000
-8.338400 0.000000
-8.322800 0.000000
-8.307300 0.000000
-8.291800 0.000000
-8.276200 0.000000
-8.260700 0.000000
-8.245100 0.000000
-8.229600 0.000000
-8.214000 0.000000
-8.198500 0.000000
-8.183000 0.000000
-8.167400 0.000000
-8.151900 0.000000
-8.136300 0.000000
-8.120800 0.000000
-8.105200 0.000000
-8.089700 0.000000
-8.074200 0.000000
-8.058600 0.000000
-8.043100 0.000000
-8.027500 0.000000
-8.012000 0.000000
-7.996500 0.000000
-7.980900 0.000000
-7.965400 0.000000
-7.949800 0.000000
-7.934300 0.000000
-7.918700 0.000000
-7.903200 0.000000
-7.887700 0.000000
-7.872100 0.000000
-7.856600 0.000000
-7.841000 0.000000
-7.825500 0.000000
-7.809900 0.000000
-7.794400 0.000000
-7.778900 0.000000
-7.763300 0.000000
-7.747800 0.000000
-7.732200 0.000000
-7.716700 0.000000
-7.701200 0.000000
-7.685600 0.000000
-7.670100 0.000000
-7.654500 0.000000
-7.639000 0.000000
-7.623400 0.000000
-7.607900 0.000000
-7.592400 0.000000
-7.576800 0.000000
-7.561300 0.000000
-7.545700 0.000000
-7.530200 0.000000
-7.514600 0.000000
-7.499100 0.000000
-7.483600 0.000000
-7.468000 0.000000
-7.452500 0.000000
-7.436900 0.000000
-7.421400 0.000000
-7.405900 0.000000
-7.390300 0.000000
-7.374800 0.000000
-7.359200 0.000100
-7.343700 0.010200
-7.328100 0.032100
-7.312600 0.066100
-7.297100 0.103700
-7.281500 0.141200
-7.266000 0.178700
-7.250400 0.216300
-7.234900 0.253800
-7.219300 0.291300
-7.203800 0.328800
-7.188300 0.366400
-7.172700 0.403900
-7.157200 0.441400
-7.141600 0.479000
-7.126100 0.516500
-7.110600 0.554000
-7.095000 0.591500
-7.079500 0.629100
-7.063900 0.666600
-7.048400 0.704100
-7.032800 0.741700
-7.017300 0.779200
-7.001800 0.816700
-6.986200 0.854200
-6.970700 0.891800
-6.955100 0.929300
-6.939600 0.966800
-6.924000 1.004400
-6.908500 0.918000
-6.893000 0.799400
-6.877400 0.645000
-6.861900 0.574400
-6.846300 0.578600
-6.830800 0.582900
-6.815200 0.587100
-6.799700 0.591400
-6.784200 0.597000
-6.768600 0.611400
-6.753100 0.629000
-6.737500 0.649700
-6.722000 0.673600
-6.706500 0.700700
-6.690900 0.731900
-6.675400 0.767600
-6.659800 0.807700
-6.644300 0.850100
-6.628700 0.892600
-6.613200 0.935000
-6.597700 0.977400
-6.582100 1.019900
-6.566600 1.062300
-6.551000 1.104700
-6.535500 1.147200
-6.519900 1.189600
-6.504400 1.232000
-6.488900 1.274500
-6.473300 1.316900
-6.457800 1.359300
-6.442200 1.401800
-6.426700 1.444200
-6.411200 1.486600
-6.395600 1.529100
-6.380100 1.571500
-6.364500 1.614000
-6.349000 1.610100
-6.333400 1.571300
-6.317900 1.547100
-6.302400 1.530700
-6.286800 1.516700
-6.271300 1.498900
-6.255700 1.477100
-6.240200 1.445000
-6.224600 1.344500
-6.209100 1.353300
-6.193600 1.362000
-6.178000 1.370800
-6.162500 1.379500
-6.146900 1.388300
-6.131400 1.397000
-6.115900 1.405800
-6.100300 1.414600
-6.084800 1.423300
-6.069200 1.432100
-6.053700 1.441200
-6.038100 1.451600
-6.022600 1.463300
-6.007100 1.475600
-5.991500 1.487900
-5.976000 1.500200
-5.960400 1.512400
-5.944900 1.524700
-5.929300 1.537100
-5.913800 1.552200
-5.898300 1.571600
-5.882700 1.595200
-5.867200 1.623100
-5.851600 1.653800
-5.836100 1.687200
-5.820600 1.723300
-5.805000 1.761900
-5.789500 1.803300
-5.773900 1.852400
-5.758400 1.902700
-5.742800 1.953000
-5.727300 2.003400
-5.711800 2.053700
-5.696200 2.227700
-5.680700 2.700700
-5.665100 2.768000
-5.649600 2.787400
-5.634000 2.806800
-5.618500 2.826200
-5.603000 2.845600
-5.587400 2.865000
-5.571900 2.884400
-5.556300 2.903800
-5.540800 2.923200
-5.525300 2.942600
-5.509700 2.962000
-5.494200 2.982600
-5.478600 2.959100
-5.463100 2.898000
-5.447500 2.875200
-5.432000 2.851500
-5.416500 2.827500
-5.400900 2.803200
-5.385400 2.774200
-5.369800 2.733400
-5.354300 2.675900
-5.338700 2.598300
-5.323200 2.563700
-5.307700 2.556600
-5.292100 2.549400
-5.276600 2.542300
-5.261000 2.535200
-5.245500 2.528000
-5.230000 2.520900
-5.214400 2.513800
-5.198900 2.506600
-5.183300 2.499500
-5.167800 2.492400
-5.152200 2.514100
-5.136700 2.600300
-5.121200 2.741000
-5.105600 2.897600
-5.090100 3.000700
-5.074500 3.013400
-5.059000 2.975900
-5.043400 2.929400
-5.027900 2.882900
-5.012400 2.836400
-4.996800 2.789900
-4.981300 2.743300
-4.965700 2.696800
-4.950200 2.650300
-4.934700 2.603700
-4.919100 2.557200
-4.903600 2.094300
-4.888000 2.070900
-4.872500 2.047500
-4.856900 2.024100
-4.841400 2.000700
-4.825900 1.977300
-4.810300 1.953900
-4.794800 1.930400
-4.779200 1.907000
-4.763700 1.883600
-4.748100 1.860200
-4.732600 1.836700
-4.717100 1.813300
-4.701500 1.789800
-4.686000 1.766400
-4.670400 1.742900
-4.654900 1.720100
-4.639400 1.699400
-4.623800 1.680900
-4.608300 1.664700
-4.592700 1.650500
-4.577200 1.638200
-4.561600 1.627800
-4.546100 1.619300
-4.530600 1.612700
-4.515000 1.611300
-4.499500 1.612800
-4.483900 1.614300
-4.468400 1.615800
-4.452800 1.617300
-4.437300 1.618800
-4.421800 1.620300
-4.406200 1.170200
-4.390700 1.200000
-4.375100 1.229900
-4.359600 1.259700
-4.344100 1.289600
-4.328500 1.322500
-4.313000 1.378000
-4.297400 1.459900
-4.281900 1.601400
-4.266300 1.836400
-4.250800 2.019800
-4.235300 2.151700
-4.219700 2.231900
-4.204200 2.253600
-4.188600 2.192200
-4.173100 2.130600
-4.157500 2.069100
-4.142000 2.007500
-4.126500 1.945900
-4.110900 1.884200
-4.095400 1.822500
-4.079800 1.760800
-4.064300 1.699000
-4.048800 1.637100
-4.033200 1.575300
-4.017700 1.513400
-4.002100 1.451400
-3.986600 1.389400
-3.971000 1.327400
-3.955500 1.265300
-3.940000 1.203200
-3.924400 1.141000
-3.908900 1.078900
-3.893300 1.016600
-3.877800 0.954400
-3.862200 0.892000
-3.846700 0.829700
-3.831200 0.767300
-3.815600 0.704900
-3.800100 0.642400
-3.784500 0.000000
-3.769000 0.000000
-3.753400 0.000000
-3.737900 0.000000
-3.722400 0.000000
-3.706800 0.000000
-3.691300 7.427000
-3.675700 0.498300
-3.660200 0.541400
-3.644700 0.584600
-3.629100 0.627700
-3.613600 0.670900
-3.598000 0.714000
-3.582500 0.757200
-3.566900 0.800300
-3.551400 0.843400
-3.535900 0.886600
-3.520300 0.929700
-3.504800 0.972800
-3.489200 1.015900
-3.473700 1.059100
-3.458100 1.102200
-3.442600 1.145300
-3.427100 1.188400
-3.411500 1.231500
-3.396000 1.274600
-3.380400 1.317700
-3.364900 1.360800
-3.349400 1.403800
-3.333800 1.446900
-3.318300 1.490000
-3.302700 1.533100
-3.287200 1.576100
-3.271600 1.619200
-3.256100 1.662300
-3.240600 1.705300
-3.225000 1.748400
-3.209500 1.791400
-3.193900 1.826600
-3.178400 1.801100
-3.162800 1.705200
-3.147300 1.554800
-3.131800 1.472500
-3.116200 1.382200
-3.100700 1.283900
-3.085100 1.177500
-3.069600 1.148700
-3.054100 1.153200
-3.038500 1.157700
-3.023000 1.162100
-3.007400 1.166500
-2.991900 1.170900
-2.976300 1.175300
-2.960800 1.179600
-2.945300 1.184000
-2.929700 1.188300
-2.914200 1.192500
-2.898600 1.196800
-2.883100 1.201000
-2.867500 1.205300
-2.852000 1.209400
-2.836500 1.213600
-2.820900 1.217800
-2.805400 1.221900
-2.789800 1.226000
-2.774300 1.230100
-2.758800 1.234100
-2.743200 1.238100
-2.727700 1.242200
-2.712100 1.301600
-2.696600 1.409600
-2.681000 1.517000
-2.665500 2.192300
-2.650000 2.386800
-2.634400 2.580600
-2.618900 2.773800
-2.603300 2.966300
-2.587800 3.156400
-2.572200 3.295100
-2.556700 3.205900
-2.541200 3.128600
-2.525600 3.063100
-2.510100 3.009500
-2.494500 2.967300
-2.479000 2.936500
-2.463500 2.917100
-2.447900 2.909200
-2.432400 2.916500
-2.416800 2.950200
-2.401300 3.008000
-2.385700 3.069800
-2.370200 3.127600
-2.354700 3.037900
-2.339100 2.894700
-2.323600 2.758800
-2.308000 2.640200
-2.292500 2.539100
-2.276900 2.450500
-2.261400 2.360600
-2.245900 2.245200
-2.230300 2.034600
-2.214800 1.919700
-2.199200 1.876700
-2.183700 1.837900
-2.168200 1.799100
-2.152600 1.762400
-2.137100 1.745600
-2.121500 1.752900
-2.106000 1.784200
-2.090400 1.839500
-2.074900 2.251400
-2.059400 3.722900
-2.043800 3.655900
-2.028300 2.282300
-2.012700 1.576400
-1.997200 1.596100
-1.981600 1.615800
-1.966100 1.635600
-1.950600 1.655300
-1.935000 1.675000
-1.919500 1.694700
-1.903900 1.714400
-1.888400 1.734000
-1.872900 1.753700
-1.857300 1.773400
-1.841800 1.794300
-1.826200 1.819500
-1.810700 1.849400
-1.795100 1.884000
-1.779600 1.923300
-1.764100 1.966600
-1.748500 2.012500
-1.733000 2.061200
-1.717400 2.112400
-1.701900 2.166300
-1.686300 2.222900
-1.670800 2.282100
-1.655300 2.344900
-1.639700 2.411600
-1.624200 2.480100
-1.608600 2.550700
-1.593100 2.623100
-1.577600 2.663100
-1.562000 2.557900
-1.546500 2.471700
-1.530900 2.404600
-1.515400 2.356600
-1.499800 2.327800
-1.484300 2.312200
-1.468800 2.269000
-1.453200 2.182700
-1.437700 2.079600
-1.422100 2.027000
-1.406600 1.967200
-1.391000 1.896200
-1.375500 1.814000
-1.360000 1.720500
-1.344400 1.615900
-1.328900 1.548000
-1.313300 1.526100
-1.297800 1.504100
-1.282300 1.481800
-1.266700 1.459300
-1.251200 1.436500
-1.235600 1.413500
-1.220100 1.390300
-1.204500 1.366800
-1.189000 1.343100
-1.173500 1.319200
-1.157900 1.295000
-1.142400 1.270600
-1.126800 1.246000
-1.111300 1.221100
-1.095700 1.196000
-1.080200 1.171300
-1.064700 1.148500
-1.049100 1.127600
-1.033600 1.108700
-1.018000 1.091800
-1.002500 1.076800
-0.986900 1.063700
-0.971400 1.052400
-0.955900 1.041600
-0.940300 1.031000
-0.924800 1.020600
-0.909200 1.010300
-0.893700 1.000300
-0.878200 0.990400
-0.862600 0.980700
-0.847100 0.971200
-0.831500 0.961900
-0.816000 0.953700
-0.800400 0.946800
-0.784900 0.940600
-0.769400 0.935000
-0.753800 0.930100
-0.738300 1.206300
-0.722700 1.148100
-0.707200 0.520700
-0.691600 0.516600
-0.676100 0.513200
-0.660600 0.510400
-0.645000 0.508300
-0.629500 0.506700
-0.613900 0.505100
-0.598400 0.503600
-0.582900 0.502000
-0.567300 0.500500
-0.551800 0.498900
-0.536200 0.497400
-0.520700 0.495800
-0.505100 0.494300
-0.489600 0.492800
-0.474100 0.491200
-0.458500 0.489700
-0.443000 0.488100
-0.427400 0.486600
-0.411900 0.485000
-0.396300 0.483500
-0.380800 0.482000
-0.365300 0.480400
-0.349700 0.478900
-0.334200 0.477300
-0.318600 0.486000
-0.303100 0.600600
-0.287600 0.844600
-0.272000 1.215900
-0.256500 1.700200
-0.240900 2.230100
-0.225400 2.262500
-0.209800 2.338000
-0.194300 2.456500
-0.178800 2.646500
-0.163200 3.161800
-0.147700 4.062300
-0.132100 4.721300
-0.116600 4.968300
-0.101000 5.082600
-0.085500 5.064200
-0.070000 4.913100
-0.054400 4.629200
-0.038900 4.328000
-0.023300 4.069200
-0.007800 3.809500
0.007700 3.549200
0.023300 3.288500
0.038800 3.027400
0.054400 2.765700
0.069900 2.503900
0.085500 2.251800
0.101000 2.015000
0.116500 1.815200
0.132100 1.699300
0.147600 1.648800
0.163200 1.644500
0.178700 1.719700
0.194300 1.842700
0.209800 1.996600
0.225300 2.178900
0.240900 2.373400
0.256400 2.577100
0.272000 2.789900
0.287500 5.511600
0.303000 7.624100
0.318600 8.504600
0.334100 6.411900
0.349700 5.957800
0.365200 6.100600
0.380800 6.162000
0.396300 6.129100
0.411800 6.001900
0.427400 5.780200
0.442900 5.378600
0.458500 4.935800
0.474000 4.596000
0.489600 4.340100
0.505100 4.155000
0.520600 4.020600
0.536200 3.906300
0.551700 3.805200
0.567300 3.695200
0.582800 3.563600
0.598300 3.410400
0.613900 3.238900
0.629400 3.085000
0.645000 2.958600
0.660500 2.861300
0.676100 2.816000
0.691600 2.811300
0.707100 2.808800
0.722700 2.800500
0.738200 2.794400
0.753800 2.821500
0.769300 2.881900
0.784900 2.975500
0.800400 3.102400
0.815900 3.262600
0.831500 3.386500
0.847000 3.423700
0.862600 3.455900
0.878100 3.484500
0.893600 3.509500
0.909200 3.529600
0.924700 3.545000
0.940300 3.555500
0.955800 3.561200
0.971400 3.562000
0.986900 3.558100
1.002400 3.549300
1.018000 3.512300
1.033500 3.281600
1.049100 3.236700
1.064600 3.239000
1.080200 3.242200
1.095700 3.246200
1.111200 3.251000
1.126800 3.256800
1.142300 3.263300
1.157900 3.270800
1.173400 3.279000
1.188900 3.288200
1.204500 3.298200
1.220000 3.309000
1.235600 3.320700
1.251100 3.333300
1.266700 3.341600
1.282200 3.342600
1.297700 3.345000
1.313300 3.348600
1.328800 3.352300
1.344400 3.355500
1.359900 3.358300
1.375500 3.365700
1.391000 4.191600
1.406500 6.428300
1.422100 6.585700
1.437600 4.637300
1.453200 4.635000
1.468700 4.626700
1.484200 4.610100
1.499800 4.585400
1.515300 4.552400
1.530900 4.511200
1.546400 4.475900
1.562000 4.455000
1.577500 4.434100
1.593000 4.402100
1.608600 4.361900
1.624100 4.346900
1.639700 4.326700
1.655200 4.302000
1.670800 4.278600
1.686300 4.252600
1.701800 4.228300
1.717400 4.205700
1.732900 3.860500
1.748500 3.658200
1.764000 3.588500
1.779500 3.600200
1.795100 3.869300
1.810600 4.116400
1.826200 4.341600
1.841700 4.544800
1.857300 4.726100
1.872800 4.885400
1.888300 5.022700
1.903900 5.138100
1.919400 5.231700
1.935000 5.320900
1.950500 5.404200
1.966100 5.481500
1.981600 5.552800
1.997100 5.618300
2.012700 6.071900
2.028200 6.805300
2.043800 7.336700
2.059300 7.666300
2.074900 7.770400
2.090400 7.377700
2.105900 7.212800
2.121500 7.267200
2.137000 7.382300
2.152600 7.429400
2.168100 7.394900
2.183600 7.296600
2.199200 7.068900
2.214700 6.893000
2.230300 6.711600
2.245800 6.308300
2.261400 6.130500
2.276900 4.953800
2.292400 4.722600
2.308000 4.692000
2.323500 4.661700
2.339100 4.631800
2.354600 4.602100
2.370200 4.573400
2.385700 4.555700
2.401200 4.552700
2.416800 4.543200
2.432300 4.462200
2.447900 4.430900
2.463400 4.399600
2.478900 4.368300
2.494500 4.337100
2.510000 4.305800
2.525600 4.274500
2.541100 4.243300
2.556700 4.211000
2.572200 4.173900
2.587700 4.132300
2.603300 4.090600
2.618800 4.048900
2.634400 4.007300
2.649900 3.965600
2.665500 3.923900
2.681000 3.882200
2.696500 3.840400
2.712100 3.798700
2.727600 3.757000
2.743200 3.715200
2.758700 3.673500
2.774200 3.631700
2.789800 3.589900
2.805300 3.548200
2.820900 3.507000
2.836400 3.471100
2.852000 3.395500
2.867500 3.095500
2.883000 2.797200
2.898600 2.751200
2.914100 2.726300
2.929700 2.711500
2.945200 2.637500
2.960800 2.537800
2.976300 2.384400
2.991800 2.314900
3.007400 2.261000
3.022900 2.207100
3.038500 2.153300
3.054000 2.099600
3.069500 2.046000
3.085100 1.992600
3.100600 1.939600
3.116200 1.895500
3.131700 1.851600
3.147300 1.808000
3.162800 1.764600
3.178300 1.721500
3.193900 1.678600
3.209400 1.636000
3.225000 1.593600
3.240500 1.551500
3.256100 1.509600
3.271600 1.468000
3.287100 1.427100
3.302700 1.386700
3.318200 1.346300
3.333800 1.305900
3.349300 1.265500
3.364800 1.225100
3.380400 1.184700
3.395900 1.144300
3.411500 1.103900
3.427000 1.063400
3.442600 1.023000
3.458100 0.982600
3.473600 0.942100
3.489200 0.901700
3.504700 0.861200
3.520300 0.820800
3.535800 0.830800
3.551400 0.995700
3.566900 0.962300
3.582400 0.918000
3.598000 0.878200
3.613500 0.854600
3.629100 0.830900
3.644600 0.807200
3.660100 0.783600
3.675700 0.759900
3.691200 0.736200
3.706800 0.712600
3.722300 0.688900
3.737900 0.665200
3.753400 0.641600
3.768900 0.617900
3.784500 0.594200
3.800000 0.570600
3.815600 0.546900
3.831100 0.523200
3.846700 0.499600
3.862200 0.475900
3.877700 0.452200
3.893300 0.428600
3.908800 0.404900
3.924400 0.381200
3.939900 0.357600
3.955400 0.333900
3.971000 0.310200
3.986500 0.286600
4.002100 0.262900
4.017600 0.239200
4.033200 0.215600
4.048700 0.191900
4.064200 0.168200
4.079800 0.144600
4.095300 0.120900
4.110900 0.097200
4.126400 0.073600
4.142000 0.049900
4.157500 0.026200
4.173000 0.002600
4.188600 0.000000
4.204100 0.000000
4.219700 0.000000
4.235200 0.000000
4.250700 0.000000
4.266300 0.000000
4.281800 0.000000
4.297400 0.000000
4.312900 0.000000
4.328500 0.000000
4.344000 0.000000
4.359500 0.000000
4.375100 0.000000
4.390600 0.000000
4.406200 0.000000
4.421700 0.000000
4.437300 0.000000
4.452800 0.000000
4.468300 0.000000
4.483900 0.000000
4.499400 0.000000
4.515000 0.000000
4.530500 0.000000
4.546000 0.000000
4.561600 0.000000
4.577100 0.000000
4.592700 0.000000
4.608200 0.000000
4.623800 0.000000
4.639300 0.000000
4.654800 0.000000
4.670400 0.000000
4.685900 0.000000
4.701500 0.000000
4.717000 0.000000
4.732600 0.000000
4.748100 0.000000
4.763600 0.000000
4.779200 0.000000
4.794700 0.000000
4.810300 0.000000
4.825800 0.000000
4.841400 0.000000
4.856900 0.000000
4.872400 0.000000
4.888000 0.000000
4.903500 0.000000
4.919100 0.000000
4.934600 0.000000
4.950100 0.000000
4.965700 0.000000
4.981200 0.000000
4.996800 0.000000
5.012300 0.000000
5.027900 0.000000
5.043400 0.000000
5.058900 0.000000
5.074500 0.000000
5.090000 0.000000
5.105600 0.000000
5.121100 0.000000
5.136700 0.046700
5.152200 0.269600
5.167700 0.460300
5.183300 0.486000
5.198800 0.504800
5.214400 0.523600
5.229900 0.542500
5.245400 0.561300
5.261000 0.580100
5.276500 0.598900
5.292100 0.617700
5.307600 0.636500
5.323200 0.655300
5.338700 0.674100
5.354200 0.693000
5.369800 0.711800
5.385300 0.730600
5.400900 0.749400
5.416400 0.768200
5.432000 0.787100
5.447500 0.805900
5.463000 0.824700
5.478600 0.843500
5.494100 0.918300
5.509700 1.066900
5.525200 1.215200
5.540700 1.363400
5.556300 1.528500
5.571800 1.715200
5.587400 1.903800
5.602900 2.094300
5.618500 2.286700
5.634000 2.477900
5.649500 2.663700
5.665100 2.849000
5.680600 2.897400
5.696200 2.747300
5.711700 2.649400
5.727300 2.598100
5.742800 2.593300
5.758300 2.583700
5.773900 2.527400
5.789400 2.412100
5.805000 2.263500
5.820500 2.272000
5.836000 2.280400
5.851600 2.288900
5.867100 2.297400
5.882700 2.305900
5.898200 2.314400
5.913800 2.323000
5.929300 2.331600
5.944800 2.340200
5.960400 2.348800
5.975900 2.357400
5.991500 2.366100
6.007000 2.374800
6.022600 2.383500
6.038100 2.393400
6.053600 2.408500
6.069200 2.429300
6.084700 2.472600
6.100300 2.670200
6.115800 2.890600
6.131300 3.114800
6.146900 3.342900
6.162400 3.841200
6.178000 4.327200
6.193500 4.783000
6.209100 5.208600
6.224600 5.604000
6.240100 5.969200
6.255700 6.027600
6.271200 5.873800
6.286800 5.703800
6.302300 5.045200
6.317900 4.746300
6.333400 4.542200
6.348900 4.458100
6.364500 4.382700
6.380000 4.299600
6.395600 4.214500
6.411100 4.129200
6.426600 4.043700
6.442200 3.958000
6.457700 3.872300
6.473300 3.787000
6.488800 3.702000
6.504400 3.617400
6.519900 3.533100
6.535400 3.449200
6.551000 3.368000
6.566500 3.459700
6.582100 3.808100
6.597600 3.853900
6.613200 3.811200
6.628700 3.765500
6.644200 3.716600
6.659800 3.664700
6.675300 3.615000
6.690900 3.583900
6.706400 3.583600
6.721900 3.618100
6.737500 3.652400
6.753000 3.679700
6.768600 3.726800
6.784100 3.825900
6.799700 3.959300
6.815200 4.010200
6.830700 4.102800
6.846300 4.205700
6.861800 4.316100
6.877400 4.433900
6.892900 4.559100
6.908500 4.692900
6.924000 4.820200
6.939500 4.695300
6.955100 4.292400
6.970600 4.572400
6.986200 4.759500
7.001700 4.945900
7.017200 5.131400
7.032800 5.316200
7.048300 5.510900
7.063900 5.748900
7.079400 6.146200
7.095000 6.747400
7.110500 7.260800
7.126000 7.509300
7.141600 7.347800
7.157100 6.797600
7.172700 6.226300
7.188200 5.514200
7.203800 4.511400
7.219300 3.539100
7.234800 3.349100
7.250400 3.155200
7.265900 2.957400
7.281500 2.755700
7.297000 2.804800
7.312500 2.867600
7.328100 2.930400
7.343600 2.993200
7.359200 3.056000
7.374700 3.118900
7.390300 3.181800
7.405800 3.244700
7.421300 3.307700
7.436900 3.370700
7.452400 3.433700
7.468000 3.502400
7.483500 4.814100
7.499100 8.530600
7.514600 5.065100
7.530100 5.067100
7.545700 5.097800
7.561200 5.130600
7.576800 5.159700
7.592300 5.256400
7.607800 5.347900
7.623400 5.410100
7.638900 5.443100
7.654500 5.446800
7.670000 5.421200
7.685600 5.366300
7.701100 5.282100
7.716600 5.161200
7.732200 5.054700
7.747700 4.915400
