set title 'mp-1419175 - Density of States'
set xlabel 'Energy (eV)'
set ylabel 'DOS (states/eV)'
set grid
set xrange [-10:10]
set yrange [0:6.270]
set xzeroaxis lt -1
set terminal png size 800,600
set output 'mp-1419175_dos_gnuplot.png'
plot '-' using 1:2 with lines title 'DOS'
-18.276100 0.000000
-18.240300 0.000000
-18.204500 0.000000
-18.168700 0.000000
-18.132800 0.000000
-18.097000 0.000000
-18.061200 0.000000
-18.025400 0.000000
-17.989500 0.000000
-17.953700 0.000000
-17.917900 0.000000
-17.882000 0.000000
-17.846200 0.000000
-17.810400 0.000000
-17.774600 0.000000
-17.738700 0.000000
-17.702900 0.000000
-17.667100 0.000000
-17.631300 0.000000
-17.595400 0.000000
-17.559600 0.000000
-17.523800 0.000000
-17.488000 0.000000
-17.452100 0.000000
-17.416300 0.000000
-17.380500 0.000000
-17.344600 0.000000
-17.308800 0.000000
-17.273000 0.000000
-17.237200 0.000000
-17.201300 0.000000
-17.165500 0.000000
-17.129700 0.000000
-17.093900 0.000000
-17.058000 0.000000
-17.022200 0.000000
-16.986400 0.000000
-16.950500 0.000000
-16.914700 0.000000
-16.878900 0.000000
-16.843100 0.000000
-16.807200 0.000000
-16.771400 0.000000
-16.735600 0.000000
-16.699800 0.000000
-16.663900 0.000000
-16.628100 0.000000
-16.592300 0.000000
-16.556500 0.000000
-16.520600 0.000000
-16.484800 0.000000
-16.449000 0.000000
-16.413100 0.000000
-16.377300 0.000000
-16.341500 0.000000
-16.305700 0.000000
-16.269800 0.000000
-16.234000 0.000000
-16.198200 0.000000
-16.162400 0.000000
-16.126500 0.000000
-16.090700 0.000000
-16.054900 0.000000
-16.019100 0.000000
-15.983200 0.000000
-15.947400 0.000000
-15.911600 0.000000
-15.875700 0.000000
-15.839900 0.000000
-15.804100 0.000000
-15.768300 0.000000
-15.732400 0.000000
-15.696600 0.000000
-15.660800 0.000000
-15.625000 0.000000
-15.589100 0.000000
-15.553300 0.000000
-15.517500 0.000000
-15.481600 0.000000
-15.445800 0.000000
-15.410000 0.000000
-15.374200 0.000000
-15.338300 0.000000
-15.302500 0.000000
-15.266700 0.000000
-15.230900 0.000000
-15.195000 0.000000
-15.159200 0.000000
-15.123400 0.000000
-15.087600 0.000000
-15.051700 0.000000
-15.015900 0.003800
-14.980100 0.269500
-14.944200 0.457500
-14.908400 0.686500
-14.872600 0.890300
-14.836800 0.845700
-14.800900 0.859800
-14.765100 0.868800
-14.729300 0.857200
-14.693500 0.880500
-14.657600 0.906900
-14.621800 0.917100
-14.586000 0.922900
-14.550200 0.919500
-14.514300 0.933600
-14.478500 0.952000
-14.442700 0.975500
-14.406800 0.995200
-14.371000 1.008500
-14.335200 1.021100
-14.299400 1.035400
-14.263500 1.056100
-14.227700 1.077900
-14.191900 1.101100
-14.156100 1.126000
-14.120200 1.154000
-14.084400 1.186100
-14.048600 1.223400
-14.012700 1.262800
-13.976900 1.305300
-13.941100 1.348500
-13.905300 1.395500
-13.869400 1.448600
-13.833600 1.517500
-13.797800 1.626800
-13.762000 1.787300
-13.726100 2.036900
-13.690300 2.546100
-13.654500 2.994200
-13.618700 1.995900
-13.582800 2.263700
-13.547000 1.482700
-13.511200 1.344000
-13.475300 1.130900
-13.439500 0.917800
-13.403700 0.747700
-13.367900 0.809500
-13.332000 1.338900
-13.296200 0.000000
-13.260400 0.000000
-13.224600 0.000000
-13.188700 0.000000
-13.152900 0.000000
-13.117100 0.031800
-13.081300 1.333600
-13.045400 1.779100
-13.009600 4.421300
-12.973800 6.768400
-12.937900 7.638400
-12.902100 8.878800
-12.866300 9.908900
-12.830500 7.790800
-12.794600 6.799700
-12.758800 0.000000
-12.723000 0.000000
-12.687200 0.000000
-12.651300 0.000000
-12.615500 0.000000
-12.579700 0.000000
-12.543800 0.000000
-12.508000 0.000000
-12.472200 0.000000
-12.436400 0.000000
-12.400500 0.000000
-12.364700 0.000000
-12.328900 0.000000
-12.293100 0.000000
-12.257200 0.000000
-12.221400 0.000000
-12.185600 0.000000
-12.149800 0.000000
-12.113900 0.000000
-12.078100 0.000000
-12.042300 0.000000
-12.006400 0.000000
-11.970600 0.000000
-11.934800 0.000000
-11.899000 0.000000
-11.863100 0.000000
-11.827300 0.000000
-11.791500 0.000000
-11.755700 0.000000
-11.719800 0.000000
-11.684000 0.000000
-11.648200 0.000000
-11.612400 0.000000
-11.576500 0.000000
-11.540700 0.000000
-11.504900 0.000000
-11.469000 0.000000
-11.433200 0.000000
-11.397400 0.000000
-11.361600 0.000000
-11.325700 0.000000
-11.289900 0.000000
-11.254100 0.000000
-11.218300 0.000000
-11.182400 0.000000
-11.146600 0.000000
-11.110800 0.000000
-11.074900 0.000000
-11.039100 0.000000
-11.003300 0.000000
-10.967500 0.000000
-10.931600 0.000000
-10.895800 0.000000
-10.860000 0.000000
-10.824200 0.000000
-10.788300 0.000000
-10.752500 0.000000
-10.716700 0.000000
-10.680900 0.000000
-10.645000 0.000000
-10.609200 0.000000
-10.573400 0.000000
-10.537500 0.000000
-10.501700 0.000000
-10.465900 0.000000
-10.430100 0.000000
-10.394200 0.000000
-10.358400 0.000000
-10.322600 0.000000
-10.286800 0.000000
-10.250900 0.000000
-10.215100 0.000000
-10.179300 0.000000
-10.143500 0.000000
-10.107600 0.000000
-10.071800 0.000000
-10.036000 0.000000
-10.000100 0.000000
-9.964300 0.000000
-9.928500 0.000000
-9.892700 0.000000
-9.856800 0.000000
-9.821000 0.000000
-9.785200 0.000000
-9.749400 0.000000
-9.713500 0.000000
-9.677700 0.000000
-9.641900 0.000000
-9.606000 0.000000
-9.570200 0.000000
-9.534400 0.000000
-9.498600 0.000000
-9.462700 0.000000
-9.426900 0.000000
-9.391100 0.000000
-9.355300 0.000000
-9.319400 0.000000
-9.283600 0.000000
-9.247800 0.000000
-9.212000 0.000000
-9.176100 0.000000
-9.140300 0.000000
-9.104500 0.000000
-9.068600 0.000000
-9.032800 0.000000
-8.997000 0.000000
-8.961200 0.000000
-8.925300 0.000000
-8.889500 0.000000
-8.853700 0.000000
-8.817900 0.000000
-8.782000 0.000000
-8.746200 0.000000
-8.710400 0.000000
-8.674600 0.000000
-8.638700 0.000000
-8.602900 0.000000
-8.567100 0.000000
-8.531200 0.000000
-8.495400 0.000000
-8.459600 0.000000
-8.423800 0.000000
-8.387900 0.000000
-8.352100 0.000000
-8.316300 0.000000
-8.280500 0.000000
-8.244600 0.000000
-8.208800 0.000000
-8.173000 0.000000
-8.137100 0.000000
-8.101300 0.000000
-8.065500 0.000000
-8.029700 0.000000
-7.993800 0.000000
-7.958000 0.000000
-7.922200 0.000000
-7.886400 0.000000
-7.850500 0.000000
-7.814700 0.000000
-7.778900 0.000000
-7.743100 0.000000
-7.707200 0.000000
-7.671400 0.000000
-7.635600 0.000000
-7.599700 0.000000
-7.563900 0.000000
-7.528100 0.000000
-7.492300 0.000000
-7.456400 0.000000
-7.420600 0.000000
-7.384800 0.000000
-7.349000 0.000000
-7.313100 0.000000
-7.277300 0.000000
-7.241500 0.000000
-7.205700 0.000000
-7.169800 0.000000
-7.134000 0.000000
-7.098200 0.000000
-7.062300 0.000000
-7.026500 0.000000
-6.990700 0.000000
-6.954900 0.000000
-6.919000 0.000000
-6.883200 0.000000
-6.847400 0.000000
-6.811600 0.000000
-6.775700 0.000000
-6.739900 0.000000
-6.704100 0.000000
-6.668200 0.000000
-6.632400 0.000000
-6.596600 0.000000
-6.560800 0.000000
-6.524900 0.000000
-6.489100 0.000000
-6.453300 0.000000
-6.417500 0.000000
-6.381600 0.000000
-6.345800 0.000000
-6.310000 0.000000
-6.274200 0.000000
-6.238300 0.000000
-6.202500 0.000000
-6.166700 0.000000
-6.130800 0.000000
-6.095000 0.000000
-6.059200 0.000000
-6.023400 0.000000
-5.987500 0.000000
-5.951700 0.000000
-5.915900 0.000000
-5.880100 0.000000
-5.844200 0.000000
-5.808400 0.000000
-5.772600 0.000000
-5.736800 0.000000
-5.700900 0.000000
-5.665100 0.000000
-5.629300 0.000000
-5.593400 0.000000
-5.557600 0.000000
-5.521800 0.000000
-5.486000 0.000000
-5.450100 0.000000
-5.414300 0.000000
-5.378500 0.000000
-5.342700 0.000000
-5.306800 0.000000
-5.271000 0.000000
-5.235200 0.000000
-5.199300 0.000000
-5.163500 0.000000
-5.127700 0.000000
-5.091900 1.569300
-5.056000 1.024800
-5.020200 1.157700
-4.984400 1.404500
-4.948600 1.613100
-4.912700 1.609200
-4.876900 1.750800
-4.841100 2.046600
-4.805300 1.957700
-4.769400 1.945200
-4.733600 1.946700
-4.697800 1.638500
-4.661900 1.404000
-4.626100 1.210100
-4.590300 1.090600
-4.554500 0.994000
-4.518600 0.939000
-4.482800 0.906500
-4.447000 0.875400
-4.411200 0.845500
-4.375300 0.817400
-4.339500 0.790100
-4.303700 0.762400
-4.267900 0.734200
-4.232000 0.705500
-4.196200 0.676400
-4.160400 0.638100
-4.124500 0.610500
-4.088700 0.586900
-4.052900 0.563100
-4.017100 0.553300
-3.981200 0.544300
-3.945400 0.535100
-3.909600 0.525900
-3.873800 0.516600
-3.837900 0.507200
-3.802100 0.497700
-3.766300 0.488100
-3.730400 0.478600
-3.694600 0.469000
-3.658800 0.457500
-3.623000 0.444500
-3.587100 0.430400
-3.551300 0.417700
-3.515500 0.406100
-3.479700 0.396300
-3.443800 0.388600
-3.408000 0.383600
-3.372200 0.378900
-3.336400 0.374200
-3.300500 0.369500
-3.264700 0.364900
-3.228900 0.360000
-3.193000 0.355000
-3.157200 0.349800
-3.121400 0.344600
-3.085600 0.339300
-3.049700 0.334000
-3.013900 0.328600
-2.978100 0.323100
-2.942300 0.315600
-2.906400 0.310000
-2.870600 0.304900
-2.834800 0.300200
-2.799000 0.296200
-2.763100 0.292200
-2.727300 0.288100
-2.691500 0.284100
-2.655600 0.280100
-2.619800 0.276100
-2.584000 0.272000
-2.548200 0.268000
-2.512300 0.264000
-2.476500 0.260500
-2.440700 0.257900
-2.404900 0.256500
-2.369000 0.257000
-2.333200 0.257700
-2.297400 0.257700
-2.261500 0.255800
-2.225700 0.250800
-2.189900 0.244100
-2.154100 0.237400
-2.118200 0.230800
-2.082400 0.224100
-2.046600 0.217400
-2.010800 0.210700
-1.974900 0.204000
-1.939100 0.197300
-1.903300 0.290600
-1.867500 0.285800
-1.831600 0.222100
-1.795800 0.158400
-1.760000 0.094700
-1.724100 0.032500
-1.688300 0.003700
-1.652500 0.000000
-1.616700 0.000000
-1.580800 0.000000
-1.545000 0.000000
-1.509200 0.000000
-1.473400 0.000000
-1.437500 0.000000
-1.401700 0.511800
-1.365900 0.815500
-1.330100 2.597900
-1.294200 2.726300
-1.258400 2.776000
-1.222600 2.927200
-1.186700 3.213600
-1.150900 3.393600
-1.115100 3.548400
-1.079300 3.547100
-1.043400 3.513900
-1.007600 2.299900
-0.971800 1.917700
-0.936000 1.347100
-0.900100 1.278900
-0.864300 2.341900
-0.828500 2.613900
-0.792600 2.531300
-0.756800 2.414800
-0.721000 2.464300
-0.685200 2.675500
-0.649300 2.982200
-0.613500 3.057300
-0.577700 3.015100
-0.541900 2.831600
-0.506000 2.407100
-0.470200 2.239100
-0.434400 2.102700
-0.398600 1.986000
-0.362700 1.886200
-0.326900 1.796100
-0.291100 1.716600
-0.255200 1.644800
-0.219400 1.570600
-0.183600 1.510200
-0.147800 1.458200
-0.111900 1.414000
-0.076100 1.374400
-0.040300 1.328300
-0.004500 1.285300
0.031400 1.253000
0.067200 1.220000
0.103000 1.181600
0.138800 1.132700
0.174700 1.091800
0.210500 1.104100
0.246300 1.379500
0.282200 1.373200
0.318000 1.278700
0.353800 1.290600
0.389600 1.303500
0.425500 1.304700
0.461300 1.290300
0.497100 1.241300
0.532900 1.249100
0.568800 1.254800
0.604600 1.220600
0.640400 1.179400
0.676300 1.162700
0.712100 1.152900
0.747900 1.135600
0.783700 1.122900
0.819600 1.121400
0.855400 1.140500
0.891200 1.169800
0.927000 1.217800
0.962900 1.201600
0.998700 1.212700
1.034500 1.232300
1.070300 1.230400
1.106200 1.226200
1.142000 1.378800
1.177800 1.749800
1.213700 2.397600
1.249500 2.310700
1.285300 2.458900
1.321100 2.586300
1.357000 2.669400
1.392800 2.861100
1.428600 3.143400
1.464400 3.119300
1.500300 2.738000
1.536100 2.409000
1.571900 2.008100
1.607700 1.680300
1.643600 1.715100
1.679400 2.016100
1.715200 1.771100
1.751100 1.673000
1.786900 1.816000
1.822700 1.896700
1.858500 1.972100
1.894400 2.022900
1.930200 2.129000
1.966000 2.256500
2.001800 2.359100
2.037700 2.539300
2.073500 2.830900
2.109300 3.237100
2.145100 3.146100
2.181000 3.114200
2.216800 3.112700
2.252600 3.164500
2.288500 2.888200
2.324300 2.782900
2.360100 2.705800
2.395900 2.683100
2.431800 2.749100
2.467600 2.850500
2.503400 2.959100
2.539200 3.147500
2.575100 3.498700
2.610900 4.166700
2.646700 4.391000
2.682600 4.222900
2.718400 4.015300
2.754200 5.437500
2.790000 5.308100
2.825900 5.460200
2.861700 5.700100
2.897500 3.931300
2.933300 2.729000
2.969200 1.905800
3.005000 1.402300
3.040800 0.723100
3.076600 0.004600
3.112500 0.007200
3.148300 0.010400
3.184100 0.014200
3.220000 0.018600
3.255800 0.023800
3.291600 0.029900
3.327400 0.033100
3.363300 0.035500
3.399100 0.038700
3.434900 0.042000
3.470700 0.045300
3.506600 0.049000
3.542400 0.053700
3.578200 0.058700
3.614000 0.063600
3.649900 0.068600
3.685700 0.073600
3.721500 0.078700
3.757400 0.084000
3.793200 0.091000
3.829000 0.098500
3.864800 0.105900
3.900700 0.113500
3.936500 0.121500
3.972300 0.129900
4.008100 0.140100
4.044000 0.152500
4.079800 0.164500
4.115600 0.176500
4.151500 0.188900
4.187300 0.206100
4.223100 0.228200
4.258900 0.255100
4.294800 0.277900
4.330600 0.296900
4.366400 0.294100
4.402200 0.291300
4.438100 0.300000
4.473900 0.308400
4.509700 0.316700
4.545500 0.324700
4.581400 0.332500
4.617200 0.340800
4.653000 0.352600
4.688900 0.363000
4.724700 0.374100
4.760500 0.386800
4.796300 0.400000
4.832200 0.413700
4.868000 0.427400
4.903800 0.441100
4.939600 0.455100
4.975500 0.469900
5.011300 0.485700
5.047100 0.503100
5.082900 0.519500
5.118800 0.536000
5.154600 0.552600
5.190400 0.569500
5.226300 0.597100
5.262100 0.639100
5.297900 0.679600
5.333700 0.724300
5.369600 0.775800
5.405400 0.834100
5.441200 0.891500
5.477000 0.948700
5.512900 1.006900
5.548700 1.067700
5.584500 1.193300
5.620400 1.448000
5.656200 1.808400
5.692000 2.016500
5.727800 2.078100
5.763700 2.037200
5.799500 2.041300
5.835300 2.040400
5.871100 2.080600
5.907000 1.836800
5.942800 1.536200
5.978600 1.444200
6.014400 1.381600
6.050300 1.295500
6.086100 1.213700
6.121900 1.133100
6.157800 1.070000
6.193600 1.019800
6.229400 0.993200
6.265200 1.014900
6.301100 0.974700
6.336900 0.897100
6.372700 0.801000
6.408500 0.706500
6.444400 0.000000
6.480200 0.000000
6.516000 0.000000
6.551800 0.000000
6.587700 0.000000
6.623500 0.000000
6.659300 0.010400
6.695200 0.035700
6.731000 0.071500
6.766800 0.117900
6.802600 0.176400
6.838500 0.196500
6.874300 0.249400
6.910100 0.295000
6.945900 0.323500
6.981800 0.289700
7.017600 0.304900
7.053400 0.320100
7.089300 0.335400
7.125100 0.350700
7.160900 0.364000
7.196700 0.374100
7.232600 0.380200
7.268400 0.388900
7.304200 0.401600
7.340000 0.417800
7.375900 0.437200
7.411700 0.456900
7.447500 0.476600
7.483300 0.498900
7.519200 0.548500
7.555000 0.596400
7.590800 0.639300
7.626700 0.671900
7.662500 0.707800
7.698300 0.745300
7.734100 0.782800
7.770000 0.817200
7.805800 0.850800
7.841600 0.885300
7.877400 0.942800
7.913300 0.987100
7.949100 1.012200
7.984900 1.032000
8.020700 1.044700
8.056600 1.036100
8.092400 1.015600
8.128200 1.000500
8.164100 0.996700
8.199900 0.994800
8.235700 0.999100
8.271500 1.005600
8.307400 1.011700
8.343200 1.015500
8.379000 1.017100
8.414800 1.017900
8.450700 1.015900
8.486500 1.017500
8.522300 1.019600
8.558200 1.037900
8.594000 1.039600
8.629800 1.042300
8.665600 0.976200
8.701500 0.917600
8.737300 0.857600
8.773100 0.797900
8.808900 0.733100
8.844800 0.703200
8.880600 0.684900
8.916400 0.665700
8.952200 0.645600
8.988100 0.625700
9.023900 0.608700
9.059700 0.591500
9.095600 0.574100
9.131400 0.555100
9.167200 0.541000
9.203000 0.528000
9.238900 0.515700
9.274700 0.503800
9.310500 0.490300
9.346300 0.476900
9.382200 0.464900
9.418000 0.453100
9.453800 0.441300
9.489600 0.429600
9.525500 0.418100
9.561300 0.406900
9.597100 0.421800
9.633000 0.485600
9.668800 0.579600
9.704600 0.666400
9.740400 0.818400
9.776300 0.943600
9.812100 0.967100
9.847900 1.037800
9.883700 1.004700
9.919600 0.798000
9.955400 0.725500
9.991200 0.739200
10.027100 0.761300
10.062900 0.786100
10.098700 0.818600
10.134500 0.852800
10.170400 0.887600
10.206200 0.930000
10.242000 0.984700
10.277800 1.048900
10.313700 1.114300
10.349500 1.201900
10.385300 1.354900
10.421100 1.651600
10.457000 1.690800
10.492800 1.765600
10.528600 1.569900
10.564500 1.372600
10.600300 1.294100
10.636100 1.238100
10.671900 1.210100
10.707800 1.227900
10.743600 1.231600
10.779400 1.275500
10.815200 1.285100
10.851100 1.374500
10.886900 1.464500
10.922700 1.540600
10.958500 1.583900
10.994400 1.825700
11.030200 1.979500
11.066000 1.944700
11.101900 1.787000
11.137700 1.676900
11.173500 1.600300
11.209300 1.559900
11.245200 1.529400
11.281000 1.499800
11.316800 1.489300
11.352600 1.533600
11.388500 1.262100
11.424300 1.138400
11.460100 1.037800
11.496000 0.968600
11.531800 0.979200
11.567600 0.768700
11.603400 0.689200
11.639300 0.637800
11.675100 0.479200
11.710900 0.486700
11.746700 0.497100
11.782600 0.506900
11.818400 0.516000
11.854200 0.570300
11.890000 0.939100
11.925900 0.905900
11.961700 0.918500
11.997500 0.964000
12.033400 1.040100
12.069200 1.126100
12.105000 1.201500
12.140800 1.262800
12.176700 1.332400
12.212500 1.403400
12.248300 1.471000
12.284100 1.688300
12.320000 1.877200
12.355800 2.460600
12.391600 3.120300
12.427400 3.475600
12.463300 3.098300
12.499100 2.164900
12.534900 1.830600
12.570800 1.701800
12.606600 1.573100
12.642400 1.444400
12.678200 1.301900
12.714100 1.214200
12.749900 1.193100
12.785700 1.114400
12.821500 0.931000
12.857400 0.749200
12.893200 0.000000
12.929000 0.000000
12.964900 0.000000
13.000700 0.000000
13.036500 0.165000
13.072300 0.261900
13.108200 1.119400
13.144000 1.380300
13.179800 1.416400
13.215600 1.343700
13.251500 1.332100
13.287300 1.233300
13.323100 1.203700
13.358900 1.191300
13.394800 1.172700
13.430600 1.158100
13.466400 1.126700
13.502300 1.099600
13.538100 1.094100
13.573900 1.096100
13.609700 1.099300
13.645600 1.103300
13.681400 1.113200
13.717200 1.116700
13.753000 1.120500
13.788900 1.127500
13.824700 1.136300
13.860500 1.142400
13.896300 1.151000
13.932200 1.163000
13.968000 1.182600
14.003800 1.206400
14.039700 1.242300
14.075500 1.292000
14.111300 1.352700
14.147100 1.440900
14.183000 1.554800
14.218800 1.780800
14.254600 1.669600
14.290400 1.806300
14.326300 2.108400
14.362100 2.051800
14.397900 1.720200
14.433800 1.449300
14.469600 1.134500
14.505400 0.521000
14.541200 0.409400
14.577100 0.415400
14.612900 0.413800
14.648700 1.119100
14.684500 1.838400
14.720400 2.467900
14.756200 4.066200
14.792000 3.784900
14.827800 3.517800
14.863700 3.287700
14.899500 2.952300
14.935300 2.785400
14.971200 2.785500
15.007000 2.829800
15.042800 2.932900
15.078600 3.166500
15.114500 2.786900
15.150300 2.100500
15.186100 1.912600
15.221900 1.718900
15.257800 1.678100
15.293600 1.708700
15.329400 1.474100
15.365200 1.369700
15.401100 1.306400
15.436900 1.241700
15.472700 1.140500
15.508600 1.043900
15.544400 0.983400
15.580200 0.859000
15.616000 0.756000
15.651900 0.753400
15.687700 0.785400
15.723500 0.750000
15.759300 0.707700
15.795200 0.681300
15.831000 0.672500
15.866800 0.677700
15.902700 0.684200
15.938500 0.691700
15.974300 0.699400
16.010100 0.706100
16.046000 0.713700
16.081800 0.723100
16.117600 0.732900
16.153400 0.750500
16.189300 0.803900
16.225100 0.843000
16.260900 0.821300
16.296700 0.805600
16.332600 0.802100
16.368400 0.806900
16.404200 0.816500
16.440100 0.821900
16.475900 0.826900
16.511700 0.831900
16.547500 0.835900
16.583400 0.836600
16.619200 0.832200
16.655000 0.824300
16.690800 0.814900
16.726700 0.813500
16.762500 0.810100
16.798300 0.805000
16.834100 0.798900
16.870000 0.800300
16.905800 0.810900
16.941600 0.965800
16.977500 1.175800
17.013300 1.287800
17.049100 1.387200
17.084900 1.622200
17.120800 1.919400
17.156600 1.856800
17.192400 1.845100
17.228200 1.502000
17.264100 1.156400
17.299900 0.958800
17.335700 0.846600
17.371600 0.753100
17.407400 0.707800
17.443200 0.808000
17.479000 0.773000
17.514900 0.729900
17.550700 0.676200
17.586500 0.663600
17.622300 0.655900
17.658200 0.710500
17.694000 0.735300
17.729800 0.749600
17.765600 0.757600
17.801500 0.772000
17.837300 0.790000
17.873100 0.809700
17.909000 0.833100
17.944800 0.887200
17.980600 0.968400
18.016400 1.056800
18.052300 1.179500
18.088100 1.160900
18.123900 1.111900
18.159700 1.139400
18.195600 1.176500
18.231400 1.213600
18.267200 1.261200
18.303000 1.300800
18.338900 1.364500
18.374700 1.548000
18.410500 1.610200
18.446400 1.686900
18.482200 1.645100
18.518000 1.711500
18.553800 1.754300
18.589700 1.737600
18.625500 1.678700
18.661300 1.675400
18.697100 1.688200
18.733000 1.713200
18.768800 1.651000
18.804600 1.507600
18.840500 1.438800
18.876300 1.382700
18.912100 1.310800
18.947900 1.266000
