set title 'mp-1183591 - Density of States'
set xlabel 'Energy (eV)'
set ylabel 'DOS (states/eV)'
set grid
set xrange [-10:10]
set yrange [0:59.270]
set xzeroaxis lt -1
set terminal png size 800,600
set output 'mp-1183591_dos_gnuplot.png'
plot '-' using 1:2 with lines title 'DOS'
-8.730400 0.000000
-8.712300 0.000000
-8.694100 0.000000
-8.675900 0.000000
-8.657800 0.000000
-8.639600 0.000000
-8.621400 0.000000
-8.603300 0.000000
-8.585100 0.000000
-8.566900 0.000000
-8.548800 0.000000
-8.530600 0.000000
-8.512400 0.000000
-8.494200 0.000000
-8.476100 0.000000
-8.457900 0.000000
-8.439700 0.000000
-8.421600 0.000000
-8.403400 0.000000
-8.385200 0.000000
-8.367100 0.000000
-8.348900 0.000000
-8.330700 0.000000
-8.312500 0.000000
-8.294400 0.000000
-8.276200 0.000000
-8.258000 0.000000
-8.239900 0.000000
-8.221700 0.000000
-8.203500 0.000000
-8.185400 0.000000
-8.167200 0.000000
-8.149000 0.000000
-8.130900 0.000000
-8.112700 0.000000
-8.094500 0.000000
-8.076300 0.000000
-8.058200 0.000000
-8.040000 0.000000
-8.021800 0.000000
-8.003700 0.000000
-7.985500 0.000000
-7.967300 0.000000
-7.949200 0.000000
-7.931000 0.000000
-7.912800 0.000000
-7.894600 0.000000
-7.876500 0.000000
-7.858300 0.000000
-7.840100 0.000000
-7.822000 0.000000
-7.803800 0.000000
-7.785600 0.000000
-7.767500 0.000000
-7.749300 0.000000
-7.731100 0.000000
-7.713000 0.000000
-7.694800 0.000000
-7.676600 0.000000
-7.658400 0.000000
-7.640300 0.000000
-7.622100 0.000000
-7.603900 0.000000
-7.585800 0.000000
-7.567600 0.000000
-7.549400 0.000000
-7.531300 0.000000
-7.513100 0.000000
-7.494900 0.000000
-7.476700 0.000000
-7.458600 0.000000
-7.440400 0.000000
-7.422200 0.000000
-7.404100 0.000000
-7.385900 0.000000
-7.367700 0.000000
-7.349600 0.000000
-7.331400 0.000000
-7.313200 0.000000
-7.295100 0.000000
-7.276900 0.000000
-7.258700 0.000000
-7.240500 0.000000
-7.222400 0.000000
-7.204200 0.000000
-7.186000 0.000000
-7.167900 0.000000
-7.149700 0.000000
-7.131500 0.000000
-7.113400 0.000000
-7.095200 0.000000
-7.077000 0.126200
-7.058800 2.137700
-7.040700 4.902200
-7.022500 6.446300
-7.004300 9.682400
-6.986200 11.877200
-6.968000 16.414100
-6.949800 22.044500
-6.931700 31.254500
-6.913500 27.424900
-6.895300 23.985100
-6.877200 23.805300
-6.859000 22.975300
-6.840800 23.438300
-6.822600 26.842500
-6.804500 30.086400
-6.786300 28.928200
-6.768100 37.065400
-6.750000 32.448800
-6.731800 28.854800
-6.713600 28.248900
-6.695500 31.572700
-6.677300 32.953500
-6.659100 31.410600
-6.640900 30.446200
-6.622800 28.358300
-6.604600 34.554900
-6.586400 34.148600
-6.568300 35.776400
-6.550100 38.878100
-6.531900 53.881700
-6.513800 28.187700
-6.495600 31.814200
-6.477400 19.337900
-6.459300 12.110300
-6.441100 6.047600
-6.422900 12.268900
-6.404700 25.744000
-6.386600 33.187400
-6.368400 31.320700
-6.350200 35.332400
-6.332100 42.630700
-6.313900 40.346500
-6.295700 19.458300
-6.277600 19.397200
-6.259400 22.836400
-6.241200 22.920400
-6.223000 29.090900
-6.204900 26.098900
-6.186700 32.555400
-6.168500 32.963700
-6.150400 31.624500
-6.132200 38.797400
-6.114000 44.675600
-6.095900 43.626100
-6.077700 34.470000
-6.059500 29.453800
-6.041400 31.124900
-6.023200 28.016700
-6.005000 31.690600
-5.986800 35.479500
-5.968700 40.323500
-5.950500 35.775400
-5.932300 30.731200
-5.914200 34.021700
-5.896000 33.506600
-5.877800 30.737000
-5.859700 27.982600
-5.841500 29.132500
-5.823300 32.983300
-5.805100 30.833700
-5.787000 33.942100
-5.768800 31.095200
-5.750600 37.524700
-5.732500 35.310900
-5.714300 38.380600
-5.696100 16.664000
-5.678000 8.794000
-5.659800 6.177400
-5.641600 1.289500
-5.623500 0.307500
-5.605300 0.334500
-5.587100 0.356600
-5.568900 0.370800
-5.550800 0.377100
-5.532600 0.325000
-5.514400 0.318600
-5.496300 0.313000
-5.478100 0.309500
-5.459900 0.308100
-5.441800 0.309000
-5.423600 0.311100
-5.405400 0.313100
-5.387200 0.315000
-5.369100 0.316700
-5.350900 0.318300
-5.332700 0.319800
-5.314600 0.319100
-5.296400 0.317600
-5.278200 0.316600
-5.260100 0.324800
-5.241900 0.341300
-5.223700 0.359300
-5.205600 0.380800
-5.187400 0.401200
-5.169200 0.421400
-5.151000 0.389400
-5.132900 0.392900
-5.114700 0.398300
-5.096500 0.403700
-5.078400 0.409100
-5.060200 0.414500
-5.042000 0.419800
-5.023900 0.425200
-5.005700 0.430500
-4.987500 0.435900
-4.969300 0.441500
-4.951200 0.447300
-4.933000 0.451400
-4.914800 0.449100
-4.896700 0.452100
-4.878500 0.455100
-4.860300 0.458000
-4.842200 0.460800
-4.824000 0.465700
-4.805800 0.470800
-4.787700 0.476000
-4.769500 0.481400
-4.751300 0.486800
-4.733100 0.492400
-4.715000 0.498000
-4.696800 0.503900
-4.678600 0.509500
-4.660500 0.514400
-4.642300 0.518600
-4.624100 0.522000
-4.606000 0.525100
-4.587800 0.528400
-4.569600 0.531900
-4.551400 0.535700
-4.533300 0.539700
-4.515100 0.538200
-4.496900 0.541400
-4.478800 0.544600
-4.460600 0.547700
-4.442400 0.550800
-4.424300 0.553700
-4.406100 0.556700
-4.387900 0.558700
-4.369800 0.560700
-4.351600 0.562800
-4.333400 0.565100
-4.315200 0.568000
-4.297100 0.571500
-4.278900 0.575400
-4.260700 0.579500
-4.242600 0.583500
-4.224400 0.587700
-4.206200 0.591900
-4.188100 0.596200
-4.169900 0.600500
-4.151700 0.604800
-4.133500 0.609100
-4.115400 0.613500
-4.097200 0.617900
-4.079000 0.622400
-4.060900 0.626900
-4.042700 0.631400
-4.024500 0.635600
-4.006400 0.638400
-3.988200 0.640800
-3.970000 0.642500
-3.951800 0.643600
-3.933700 0.644400
-3.915500 0.646600
-3.897300 0.650500
-3.879200 0.653200
-3.861000 0.655900
-3.842800 0.658600
-3.824700 0.661100
-3.806500 0.663700
-3.788300 0.666100
-3.770200 0.668600
-3.752000 0.671100
-3.733800 0.673700
-3.715600 0.676300
-3.697500 0.678900
-3.679300 0.679800
-3.661100 0.682500
-3.643000 0.685300
-3.624800 0.688200
-3.606600 0.691300
-3.588500 0.694300
-3.570300 0.697400
-3.552100 0.700400
-3.533900 0.703500
-3.515800 0.706700
-3.497600 0.710000
-3.479400 0.713400
-3.461300 0.716800
-3.443100 0.720200
-3.424900 0.723700
-3.406800 0.727200
-3.388600 0.730700
-3.370400 0.734300
-3.352300 0.737900
-3.334100 0.741500
-3.315900 0.743200
-3.297700 0.746400
-3.279600 0.749700
-3.261400 0.753100
-3.243200 0.756300
-3.225100 0.759500
-3.206900 0.762800
-3.188700 0.766000
-3.170600 0.769200
-3.152400 0.772100
-3.134200 0.774700
-3.116000 0.777100
-3.097900 0.779400
-3.079700 0.781400
-3.061500 0.783400
-3.043400 0.785700
-3.025200 0.788100
-3.007000 0.790600
-2.988900 0.793100
-2.970700 0.795500
-2.952500 0.797900
-2.934400 0.800300
-2.916200 0.802600
-2.898000 0.805000
-2.879800 0.807000
-2.861700 0.808800
-2.843500 0.810800
-2.825300 0.812700
-2.807200 0.814800
-2.789000 0.817000
-2.770800 0.819600
-2.752700 0.822300
-2.734500 0.825000
-2.716300 0.827900
-2.698100 0.830700
-2.680000 0.833600
-2.661800 0.836500
-2.643600 0.839400
-2.625500 0.842300
-2.607300 0.845200
-2.589100 0.848100
-2.571000 0.851100
-2.552800 0.854100
-2.534600 0.857000
-2.516500 0.860000
-2.498300 0.862600
-2.480100 0.865200
-2.461900 0.867700
-2.443800 0.870200
-2.425600 0.872700
-2.407400 0.875500
-2.389300 0.878300
-2.371100 0.881100
-2.352900 0.883900
-2.334800 0.886700
-2.316600 0.889500
-2.298400 0.892300
-2.280200 0.895100
-2.262100 0.897900
-2.243900 0.900700
-2.225700 0.903500
-2.207600 0.906400
-2.189400 0.909000
-2.171200 0.918700
-2.153100 0.935400
-2.134900 0.951600
-2.116700 0.967300
-2.098600 0.982500
-2.080400 0.997300
-2.062200 0.963300
-2.044000 0.965300
-2.025900 0.967300
-2.007700 0.969300
-1.989500 0.971100
-1.971400 0.973000
-1.953200 0.974900
-1.935000 0.976700
-1.916900 0.978500
-1.898700 0.979400
-1.880500 0.981100
-1.862300 0.982800
-1.844200 0.984100
-1.826000 0.983100
-1.807800 0.982000
-1.789700 0.981100
-1.771500 0.980200
-1.753300 0.979400
-1.735200 0.979000
-1.717000 0.980200
-1.698800 0.981500
-1.680700 0.982700
-1.662500 0.984000
-1.644300 0.985200
-1.626100 0.986500
-1.608000 0.987700
-1.589800 0.988900
-1.571600 0.990100
-1.553500 0.991400
-1.535300 0.992600
-1.517100 0.992800
-1.499000 0.993800
-1.480800 0.994700
-1.462600 0.995700
-1.444400 0.996600
-1.426300 0.997500
-1.408100 0.993900
-1.389900 0.994400
-1.371800 0.994900
-1.353600 0.995400
-1.335400 0.996000
-1.317300 0.996700
-1.299100 0.997300
-1.280900 0.998000
-1.262800 0.998800
-1.244600 0.999600
-1.226400 1.000400
-1.208200 1.001400
-1.190100 1.002500
-1.171900 1.003600
-1.153700 1.004600
-1.135600 1.005700
-1.117400 1.006700
-1.099200 1.007600
-1.081100 1.008400
-1.062900 1.009100
-1.044700 1.018100
-1.026500 1.038900
-1.008400 1.062700
-0.990200 1.086600
-0.972000 1.110900
-0.953900 1.130600
-0.935700 1.100900
-0.917500 1.105700
-0.899400 1.109700
-0.881200 1.113800
-0.863000 1.117800
-0.844900 1.121800
-0.826700 1.125700
-0.808500 1.130100
-0.790300 1.134600
-0.772200 1.139100
-0.754000 1.155800
-0.735800 1.171600
-0.717700 1.189300
-0.699500 1.203500
-0.681300 1.216600
-0.663200 1.217700
-0.645000 1.218100
-0.626800 1.218100
-0.608600 1.218000
-0.590500 1.219200
-0.572300 1.220100
-0.554100 1.220800
-0.536000 1.221100
-0.517800 1.221200
-0.499600 1.221100
-0.481500 1.220700
-0.463300 1.254000
-0.445100 1.246100
-0.427000 1.239100
-0.408800 1.256700
-0.390600 1.251800
-0.372400 1.247100
-0.354300 1.242800
-0.336100 1.238600
-0.317900 1.234500
-0.299800 1.230500
-0.281600 1.222000
-0.263400 1.218400
-0.245300 1.216300
-0.227100 1.213700
-0.208900 1.213500
-0.190700 1.213800
-0.172600 1.214400
-0.154400 1.217000
-0.136200 1.222700
-0.118100 1.231500
-0.099900 1.299700
-0.081700 1.284900
-0.063600 1.269400
-0.045400 1.253400
-0.027200 1.239000
-0.009100 1.223400
0.009100 1.206600
0.027300 1.188500
0.045500 1.169600
0.063600 1.140400
0.081800 1.141500
0.100000 1.174200
0.118100 1.199900
0.136300 1.218700
0.154500 1.229900
0.172600 1.211200
0.190800 1.190900
0.209000 1.168900
0.227200 1.146600
0.245300 1.130600
0.263500 1.121500
0.281700 1.121400
0.299800 1.127100
0.318000 1.136100
0.336200 1.147700
0.354300 1.167100
0.372500 1.227000
0.390700 1.308900
0.408900 1.276200
0.427000 1.252100
0.445200 1.233900
0.463400 1.220000
0.481500 1.219500
0.499700 1.238100
0.517900 1.257400
0.536000 1.273200
0.554200 1.285900
0.572400 1.295600
0.590500 1.302200
0.608700 1.293200
0.626900 1.283000
0.645100 1.271800
0.663200 1.246700
0.681400 1.244400
0.699600 1.279200
0.717700 1.331100
0.735900 1.399500
0.754100 1.338700
0.772200 1.365700
0.790400 1.387400
0.808600 1.403800
0.826800 1.415000
0.844900 1.430700
0.863100 1.450800
0.881300 1.463600
0.899400 1.472500
0.917600 1.478000
0.935800 1.483200
0.953900 1.369900
0.972100 1.312100
0.990300 1.321000
1.008400 1.331600
1.026600 1.341500
1.044800 1.350800
1.063000 1.362400
1.081100 1.373600
1.099300 1.383500
1.117500 1.391900
1.135600 1.398900
1.153800 1.406300
1.172000 1.414400
1.190100 1.422700
1.208300 1.431300
1.226500 1.439200
1.244700 1.454100
1.262800 1.456800
1.281000 1.394200
1.299200 1.383100
1.317300 1.373600
1.335500 1.365700
1.353700 1.359500
1.371800 1.354200
1.390000 1.349600
1.408200 1.345700
1.426300 1.320700
1.444500 1.286800
1.462700 1.248100
1.480900 1.226700
1.499000 1.226500
1.517200 1.252900
1.535400 1.309500
1.553500 1.407000
1.571700 1.419400
1.589900 1.394600
1.608000 1.370600
1.626200 1.347300
1.644400 1.326000
1.662600 1.306900
1.680700 1.288500
1.698900 1.270700
1.717100 1.324600
1.735200 1.399700
1.753400 1.453800
1.771600 1.107300
1.789700 1.098200
1.807900 1.089700
1.826100 1.082000
1.844200 1.075300
1.862400 1.069600
1.880600 1.065900
1.898800 1.073300
1.916900 1.088100
1.935100 1.098700
1.953300 1.090200
1.971400 1.076100
1.989600 1.074300
2.007800 1.076300
2.025900 1.077300
2.044100 1.077600
2.062300 1.077200
2.080500 1.075900
2.098600 1.076000
2.116800 1.089100
2.135000 1.039900
2.153100 1.046400
2.171300 1.052700
2.189500 1.058800
2.207600 1.065000
2.225800 1.071400
2.244000 1.107400
2.262100 1.131400
2.280300 1.157000
2.298500 1.188300
2.316700 1.220400
2.334800 1.257400
2.353000 1.295700
2.371200 1.330300
2.389300 1.361000
2.407500 1.387700
2.425700 1.411300
2.443800 1.403800
2.462000 1.393200
2.480200 1.382000
2.498400 1.368900
2.516500 1.357500
2.534700 1.366800
2.552900 1.352900
2.571000 1.338000
2.589200 1.329000
2.607400 1.350100
2.625500 1.361100
2.643700 1.399800
2.661900 1.464300
2.680000 1.524100
2.698200 1.579100
2.716400 1.624400
2.734600 1.695100
2.752700 1.812300
2.770900 1.783000
2.789100 1.752700
2.807200 1.721600
2.825400 1.689700
2.843600 1.654800
2.861700 1.615700
2.879900 1.647800
2.898100 1.629700
2.916300 1.615100
2.934400 1.603600
2.952600 1.583100
2.970800 1.571300
2.988900 1.569400
3.007100 1.570100
3.025300 1.572100
3.043400 1.575200
3.061600 1.579100
3.079800 1.582300
3.097900 1.590200
3.116100 1.682000
3.134300 1.737800
3.152500 1.753100
3.170600 1.770200
3.188800 1.789200
3.207000 1.810100
3.225100 1.821900
3.243300 1.821300
3.261500 1.820500
3.279600 1.821000
3.297800 1.824300
3.316000 1.830500
3.334200 1.764200
3.352300 1.715700
3.370500 1.829000
3.388700 1.609900
3.406800 1.618800
3.425000 1.626400
3.443200 1.631600
3.461300 1.634600
3.479500 1.643700
3.497700 1.656800
3.515800 1.669300
3.534000 1.681000
3.552200 1.632000
3.570400 1.622100
3.588500 1.611700
3.606700 1.601800
3.624900 1.591800
3.643000 1.582900
3.661200 1.583300
3.679400 1.585000
3.697500 1.564700
3.715700 1.536000
3.733900 1.500400
3.752100 1.465200
3.770200 1.434800
3.788400 1.409700
3.806600 1.389700
3.824700 1.576700
3.842900 1.522700
3.861100 1.468600
3.879200 1.423900
3.897400 1.405200
3.915600 1.399900
3.933700 1.395100
3.951900 1.390900
3.970100 1.387300
3.988300 1.384500
4.006400 1.383100
4.024600 1.383200
4.042800 1.384900
4.060900 1.388200
4.079100 1.362900
4.097300 1.335500
4.115400 1.321500
4.133600 1.312800
4.151800 1.305700
4.170000 1.298400
4.188100 1.290100
4.206300 1.281000
4.224500 1.274000
4.242600 1.271500
4.260800 1.272800
4.279000 1.282100
4.297100 1.311300
4.315300 1.330700
4.333500 1.340200
4.351600 1.340800
4.369800 1.339700
4.388000 1.338800
4.406200 1.429700
4.424300 1.425400
4.442500 1.421500
4.460700 1.417800
4.478800 1.414500
4.497000 1.411300
4.515200 1.447400
4.533300 1.517200
4.551500 1.591500
4.569700 1.707900
4.587900 1.734300
4.606000 1.771900
4.624200 1.798000
4.642400 1.813700
4.660500 1.800000
4.678700 1.740000
4.696900 1.811800
4.715000 1.740400
4.733200 1.712300
4.751400 1.711600
4.769600 1.712200
4.787700 1.718600
4.805900 1.734700
4.824100 1.749000
4.842200 1.760700
4.860400 1.770000
4.878600 1.776900
4.896700 1.783300
4.914900 1.787300
4.933100 1.790100
4.951200 1.792100
4.969400 1.793700
4.987600 1.795500
5.005800 1.787700
5.023900 1.774900
5.042100 1.762900
5.060300 1.751900
5.078400 1.740900
5.096600 1.730100
5.114800 1.726800
5.132900 1.748200
5.151100 1.774000
5.169300 1.798300
5.187500 1.831800
5.205600 1.745500
5.223800 1.756800
5.242000 1.785000
5.260100 1.815600
5.278300 1.848400
5.296500 1.883400
5.314600 1.920600
5.332800 1.960100
5.351000 2.000000
5.369100 1.820400
5.387300 1.772200
5.405500 1.759700
5.423700 1.748900
5.441800 1.743300
5.460000 1.738300
5.478200 1.733600
5.496300 1.729500
5.514500 1.726100
5.532700 1.733300
5.550800 1.724600
5.569000 1.719100
5.587200 1.716300
5.605400 1.715700
5.623500 1.717500
5.641700 1.723500
5.659900 1.725500
5.678000 1.729800
5.696200 1.731000
5.714400 1.731800
5.732500 1.731800
5.750700 1.729700
5.768900 1.735300
5.787000 1.742600
5.805200 1.750900
5.823400 1.774600
5.841600 1.802200
5.859700 1.830300
5.877900 1.855200
5.896100 1.854800
5.914200 1.853200
5.932400 1.852900
5.950600 1.852700
5.968700 1.852800
5.986900 1.853800
6.005100 1.858800
6.023300 1.865200
6.041400 1.950000
6.059600 2.597200
6.077800 2.002300
6.095900 1.835800
6.114100 1.882500
6.132300 1.934300
6.150400 1.989900
6.168600 2.002000
6.186800 1.903100
6.204900 1.905200
6.223100 1.907000
6.241300 1.908700
6.259500 1.908400
6.277600 1.907900
6.295800 1.907000
6.314000 1.905200
6.332100 1.902400
6.350300 1.899100
6.368500 1.892800
6.386600 1.883000
6.404800 1.872300
6.423000 1.858600
6.441200 1.844200
6.459300 1.830400
6.477500 1.814400
6.495700 1.799100
6.513800 1.792900
6.532000 1.787700
6.550200 1.778200
6.568300 1.769100
6.586500 1.765500
6.604700 1.769700
6.622800 1.776300
6.641000 1.784800
6.659200 1.795300
6.677400 1.807800
6.695500 1.822200
6.713700 1.749800
6.731900 1.819200
6.750000 1.921200
6.768200 1.941200
6.786400 1.875600
6.804500 1.806900
6.822700 1.752200
6.840900 1.736800
6.859100 1.720100
6.877200 1.704100
6.895400 1.723100
6.913600 1.746900
6.931700 1.774700
6.949900 1.805900
6.968100 1.753000
6.986200 1.769400
7.004400 1.786500
7.022600 1.804200
7.040700 1.822100
7.058900 1.840300
7.077100 1.859600
7.095300 1.897700
7.113400 1.915600
7.131600 1.927900
7.149800 1.922100
7.167900 1.931400
7.186100 1.950200
7.204300 1.973000
7.222400 1.996200
7.240600 2.020100
7.258800 2.044800
7.277000 2.070500
7.295100 2.096300
7.313300 2.119900
7.331500 2.141800
7.349600 2.162100
7.367800 2.180600
7.386000 2.206900
7.404100 2.224800
7.422300 2.219700
7.440500 2.201500
7.458600 2.171100
7.476800 2.128800
7.495000 2.073800
7.513200 1.999200
7.531300 1.981300
7.549500 1.965800
7.567700 1.954400
7.585800 1.955500
7.604000 1.950500
7.622200 1.947800
7.640300 1.963400
7.658500 1.935900
7.676700 1.921900
7.694900 1.919000
7.713000 1.921100
7.731200 1.927600
7.749400 1.935300
7.767500 1.942300
7.785700 1.948700
7.803900 1.947900
7.822000 1.979000
7.840200 1.988600
7.858400 1.988400
7.876500 2.010000
7.894700 2.057000
7.912900 2.076300
7.931100 2.056600
7.949200 2.047600
7.967400 2.049600
7.985600 2.053200
8.003700 2.068000
8.021900 2.088900
8.040100 2.111300
8.058200 2.134700
8.076400 2.159100
8.094600 2.185500
8.112800 2.217800
8.130900 2.231200
8.149100 2.155500
8.167300 2.099200
8.185400 2.105400
8.203600 2.113000
8.221800 2.120000
8.239900 2.121500
8.258100 2.127200
8.276300 2.137700
8.294400 2.162600
8.312600 2.063700
8.330800 2.042200
8.349000 2.066000
8.367100 2.070800
8.385300 2.078200
8.403500 2.088600
8.421600 2.100200
8.439800 2.240600
8.458000 2.230200
8.476100 2.205200
8.494300 2.172700
8.512500 2.138300
8.530700 2.131800
8.548800 2.138900
8.567000 2.148200
8.585200 2.155800
8.603300 2.160400
8.621500 2.152800
8.639700 2.159700
8.657800 2.166700
8.676000 2.174000
8.694200 2.181500
8.712300 2.189100
8.730500 2.197500
8.748700 2.172000
8.766900 2.150400
8.785000 2.124400
8.803200 2.117000
8.821400 2.117600
8.839500 2.130600
8.857700 2.147100
8.875900 2.161000
8.894000 2.160000
8.912200 2.145300
8.930400 2.133200
8.948600 2.123700
8.966700 2.116800
8.984900 2.112500
9.003100 2.110500
9.021200 2.114300
9.039400 2.131300
9.057600 2.151700
9.075700 2.195300
9.093900 2.241300
9.112100 2.237700
9.130300 2.248800
9.148400 2.256400
9.166600 2.275300
9.184800 2.264300
9.202900 2.251500
9.221100 2.237400
9.239300 2.221300
9.257400 2.195000
9.275600 2.176500
9.293800 2.172500
9.311900 2.162100
9.330100 2.148400
9.348300 2.109200
9.366500 2.174900
9.384600 2.253900
9.402800 2.333600
9.421000 2.414100
9.439100 2.340900
9.457300 2.297900
9.475500 2.258800
9.493600 2.232200
9.511800 2.234000
9.530000 2.235200
9.548200 2.237200
9.566300 2.239800
9.584500 2.243400
9.602700 2.232600
9.620800 2.238500
9.639000 2.246800
9.657200 2.260900
9.675300 2.275200
9.693500 2.280400
9.711700 2.286300
9.729800 2.296000
9.748000 2.309500
9.766200 2.391100
9.784400 2.409400
9.802500 2.420400
9.820700 2.427000
9.838900 2.421900
9.857000 2.416300
9.875200 2.409200
9.893400 2.400300
9.911500 2.411600
9.929700 2.422800
9.947900 2.430000
9.966100 2.433200
9.984200 2.432500
10.002400 2.429800
10.020600 2.307600
10.038700 2.246000
10.056900 2.306900
10.075100 2.233500
10.093200 2.163200
10.111400 2.142100
10.129600 2.121200
10.147700 2.117200
10.165900 2.117500
10.184100 2.118700
10.202300 2.117200
10.220400 2.117000
10.238600 2.119500
10.256800 2.133600
10.274900 2.181900
10.293100 2.232000
10.311300 2.287000
10.329400 2.144900
10.347600 2.167800
10.365800 2.182900
10.384000 2.126000
10.402100 2.133500
10.420300 2.140600
10.438500 2.148100
10.456600 2.155600
10.474800 2.163600
10.493000 2.172600
10.511100 2.184100
10.529300 2.232600
10.547500 2.273500
10.565600 2.309900
