set title 'mp-1181027 - Density of States'
set xlabel 'Energy (eV)'
set ylabel 'DOS (states/eV)'
set grid
set xrange [-10:10]
set yrange [0:23.587]
set xzeroaxis lt -1
set terminal png size 800,600
set output 'mp-1181027_dos_gnuplot.png'
plot '-' using 1:2 with lines title 'DOS'
-24.080600 0.000000
-24.043600 0.000000
-24.006600 0.000000
-23.969600 0.000000
-23.932600 0.000000
-23.895600 0.000000
-23.858500 0.000000
-23.821500 0.000000
-23.784500 0.000000
-23.747500 0.000000
-23.710500 0.000000
-23.673500 0.000000
-23.636500 0.000000
-23.599500 0.000000
-23.562400 0.000000
-23.525400 0.000000
-23.488400 0.000000
-23.451400 0.000000
-23.414400 0.000000
-23.377400 0.000000
-23.340400 0.000000
-23.303400 0.000000
-23.266300 0.000000
-23.229300 0.000000
-23.192300 0.000000
-23.155300 0.000000
-23.118300 0.000000
-23.081300 0.000000
-23.044300 0.000000
-23.007300 0.000000
-22.970200 0.000000
-22.933200 0.000000
-22.896200 0.000000
-22.859200 0.000000
-22.822200 0.000000
-22.785200 0.000000
-22.748200 0.000000
-22.711100 0.000000
-22.674100 0.000000
-22.637100 0.000000
-22.600100 0.000000
-22.563100 0.000000
-22.526100 0.000000
-22.489100 0.000000
-22.452100 0.000000
-22.415000 0.000000
-22.378000 0.000000
-22.341000 0.000000
-22.304000 0.000000
-22.267000 0.000000
-22.230000 0.000000
-22.193000 0.000000
-22.156000 0.000000
-22.118900 0.000000
-22.081900 0.000000
-22.044900 0.000000
-22.007900 0.000000
-21.970900 0.000000
-21.933900 0.000000
-21.896900 0.000000
-21.859900 0.000000
-21.822800 0.000000
-21.785800 0.000000
-21.748800 0.000000
-21.711800 0.000000
-21.674800 0.000000
-21.637800 0.000000
-21.600800 0.000000
-21.563800 0.000000
-21.526700 0.000000
-21.489700 0.000000
-21.452700 0.000000
-21.415700 0.000000
-21.378700 0.000000
-21.341700 0.000000
-21.304700 0.000000
-21.267600 0.000000
-21.230600 0.000000
-21.193600 0.000000
-21.156600 0.000000
-21.119600 0.000000
-21.082600 0.000000
-21.045600 0.000000
-21.008600 0.000000
-20.971500 0.000000
-20.934500 0.000000
-20.897500 0.000000
-20.860500 0.000000
-20.823500 0.000000
-20.786500 0.000000
-20.749500 0.000000
-20.712500 0.095100
-20.675400 2.138100
-20.638400 4.169300
-20.601400 9.763000
-20.564400 13.203400
-20.527400 15.260400
-20.490400 0.000000
-20.453400 0.000000
-20.416400 0.000000
-20.379300 0.000000
-20.342300 0.000000
-20.305300 0.000000
-20.268300 0.000000
-20.231300 0.000000
-20.194300 0.000000
-20.157300 0.000000
-20.120300 0.000000
-20.083200 0.000000
-20.046200 0.000000
-20.009200 0.000000
-19.972200 0.000000
-19.935200 0.000000
-19.898200 0.000000
-19.861200 0.000000
-19.824100 0.000000
-19.787100 0.000000
-19.750100 0.000000
-19.713100 0.000000
-19.676100 0.000000
-19.639100 0.000000
-19.602100 0.000000
-19.565100 0.000000
-19.528000 0.000000
-19.491000 0.000000
-19.454000 0.000000
-19.417000 0.000000
-19.380000 0.000000
-19.343000 0.000000
-19.306000 0.000000
-19.269000 0.000000
-19.231900 0.000000
-19.194900 0.000000
-19.157900 0.000000
-19.120900 0.000000
-19.083900 0.000000
-19.046900 0.000000
-19.009900 0.000000
-18.972900 0.000000
-18.935800 0.000000
-18.898800 0.000000
-18.861800 0.000000
-18.824800 0.000000
-18.787800 0.000000
-18.750800 0.000000
-18.713800 0.000000
-18.676700 0.000000
-18.639700 0.000000
-18.602700 0.000000
-18.565700 0.000000
-18.528700 0.000000
-18.491700 0.000000
-18.454700 0.000000
-18.417700 0.000000
-18.380600 0.000000
-18.343600 0.000000
-18.306600 0.000000
-18.269600 0.000000
-18.232600 0.000000
-18.195600 0.000000
-18.158600 0.000000
-18.121600 0.000000
-18.084500 0.000000
-18.047500 0.000000
-18.010500 0.000000
-17.973500 0.000000
-17.936500 0.000000
-17.899500 0.000000
-17.862500 0.000000
-17.825500 0.000000
-17.788400 0.000000
-17.751400 0.000000
-17.714400 0.000000
-17.677400 0.000000
-17.640400 0.000000
-17.603400 0.000000
-17.566400 0.000000
-17.529400 0.000000
-17.492300 0.000000
-17.455300 0.000000
-17.418300 0.000000
-17.381300 0.000000
-17.344300 0.000000
-17.307300 0.000000
-17.270300 0.000000
-17.233200 0.000000
-17.196200 0.000000
-17.159200 0.000000
-17.122200 0.000000
-17.085200 0.000000
-17.048200 0.000000
-17.011200 0.000000
-16.974200 0.000000
-16.937100 0.000000
-16.900100 0.000000
-16.863100 0.000000
-16.826100 0.000000
-16.789100 0.000000
-16.752100 0.000000
-16.715100 0.000000
-16.678100 0.000000
-16.641000 0.000000
-16.604000 0.000000
-16.567000 0.000000
-16.530000 0.000000
-16.493000 0.000000
-16.456000 0.000000
-16.419000 0.000000
-16.382000 0.000000
-16.344900 0.000000
-16.307900 0.000000
-16.270900 0.000000
-16.233900 0.000000
-16.196900 0.000000
-16.159900 0.000000
-16.122900 0.000000
-16.085900 0.000000
-16.048800 0.000000
-16.011800 0.000000
-15.974800 0.000000
-15.937800 0.000000
-15.900800 0.000000
-15.863800 0.000000
-15.826800 0.000000
-15.789700 0.000000
-15.752700 0.000000
-15.715700 0.000000
-15.678700 0.000000
-15.641700 0.000000
-15.604700 0.000000
-15.567700 0.000000
-15.530700 0.000000
-15.493600 0.000000
-15.456600 0.000000
-15.419600 0.000000
-15.382600 0.000000
-15.345600 0.000000
-15.308600 0.000000
-15.271600 0.000000
-15.234600 0.000000
-15.197500 0.000000
-15.160500 0.000000
-15.123500 0.000000
-15.086500 0.000000
-15.049500 0.000000
-15.012500 0.000000
-14.975500 0.000000
-14.938500 0.280500
-14.901400 0.516400
-14.864400 0.765100
-14.827400 0.966200
-14.790400 1.271600
-14.753400 1.617100
-14.716400 2.097600
-14.679400 3.003900
-14.642400 4.161300
-14.605300 4.849200
-14.568300 4.896300
-14.531300 4.278600
-14.494300 4.342500
-14.457300 5.086300
-14.420300 6.787300
-14.383300 3.575700
-14.346200 2.224300
-14.309200 1.473300
-14.272200 0.995400
-14.235200 0.606500
-14.198200 0.106400
-14.161200 0.000000
-14.124200 0.000000
-14.087200 0.000000
-14.050100 0.000000
-14.013100 0.000000
-13.976100 0.000000
-13.939100 0.000000
-13.902100 0.000000
-13.865100 0.000000
-13.828100 0.000000
-13.791100 0.000000
-13.754000 0.000000
-13.717000 0.000000
-13.680000 0.000000
-13.643000 0.000000
-13.606000 0.000000
-13.569000 0.000000
-13.532000 0.000000
-13.495000 0.000000
-13.457900 0.000000
-13.420900 0.000000
-13.383900 0.000000
-13.346900 0.000000
-13.309900 0.000000
-13.272900 0.000000
-13.235900 0.000000
-13.198900 0.000000
-13.161800 0.000000
-13.124800 0.000000
-13.087800 0.000000
-13.050800 0.000000
-13.013800 0.000000
-12.976800 0.000000
-12.939800 0.000000
-12.902700 0.000000
-12.865700 0.000000
-12.828700 0.000000
-12.791700 0.000000
-12.754700 0.000000
-12.717700 0.000000
-12.680700 0.000000
-12.643700 0.000000
-12.606600 0.000000
-12.569600 0.000000
-12.532600 0.000000
-12.495600 0.000000
-12.458600 0.000000
-12.421600 0.000000
-12.384600 0.000000
-12.347600 0.000000
-12.310500 0.000000
-12.273500 0.000000
-12.236500 0.000000
-12.199500 0.000000
-12.162500 0.000000
-12.125500 0.000000
-12.088500 0.000000
-12.051500 0.000000
-12.014400 0.000000
-11.977400 0.000000
-11.940400 0.000000
-11.903400 0.000000
-11.866400 0.000000
-11.829400 0.000000
-11.792400 0.000000
-11.755400 0.000000
-11.718300 0.000000
-11.681300 0.000000
-11.644300 0.000000
-11.607300 0.000000
-11.570300 0.000000
-11.533300 0.000000
-11.496300 0.000000
-11.459200 0.000000
-11.422200 0.000000
-11.385200 0.000000
-11.348200 0.000000
-11.311200 0.000000
-11.274200 0.000000
-11.237200 0.000000
-11.200200 0.000000
-11.163100 0.000000
-11.126100 0.000000
-11.089100 0.000000
-11.052100 0.000000
-11.015100 0.000000
-10.978100 0.000000
-10.941100 0.000000
-10.904100 0.000000
-10.867000 0.000000
-10.830000 0.000000
-10.793000 0.000000
-10.756000 0.000000
-10.719000 0.000000
-10.682000 0.000000
-10.645000 0.000000
-10.608000 0.000000
-10.570900 0.000000
-10.533900 0.000000
-10.496900 0.000000
-10.459900 0.000000
-10.422900 0.000000
-10.385900 0.000000
-10.348900 0.000000
-10.311900 0.000000
-10.274800 0.000000
-10.237800 0.000000
-10.200800 0.000000
-10.163800 0.000000
-10.126800 0.000000
-10.089800 0.000000
-10.052800 0.000000
-10.015700 0.000000
-9.978700 0.000000
-9.941700 0.000000
-9.904700 0.000000
-9.867700 0.000000
-9.830700 0.000000
-9.793700 0.000000
-9.756700 0.000000
-9.719600 0.000000
-9.682600 0.000000
-9.645600 0.000000
-9.608600 0.000000
-9.571600 0.000000
-9.534600 0.000000
-9.497600 0.000000
-9.460600 0.000000
-9.423500 0.000000
-9.386500 0.000000
-9.349500 0.000000
-9.312500 0.000000
-9.275500 0.000000
-9.238500 0.000000
-9.201500 0.000000
-9.164500 0.000000
-9.127400 0.000000
-9.090400 0.000000
-9.053400 0.000000
-9.016400 0.000000
-8.979400 0.000000
-8.942400 0.000000
-8.905400 0.000000
-8.868400 0.000000
-8.831300 0.000000
-8.794300 0.000000
-8.757300 0.000000
-8.720300 0.000000
-8.683300 0.000000
-8.646300 0.000000
-8.609300 0.000000
-8.572200 0.000000
-8.535200 0.000000
-8.498200 0.000000
-8.461200 0.000000
-8.424200 0.000000
-8.387200 0.000000
-8.350200 0.000000
-8.313200 0.000000
-8.276100 0.000000
-8.239100 0.000000
-8.202100 0.000000
-8.165100 0.000000
-8.128100 0.000000
-8.091100 0.000000
-8.054100 0.000000
-8.017100 0.000000
-7.980000 0.000000
-7.943000 0.000000
-7.906000 0.000000
-7.869000 0.000000
-7.832000 0.000000
-7.795000 0.000000
-7.758000 0.000000
-7.721000 0.000000
-7.683900 0.000000
-7.646900 0.000000
-7.609900 0.000000
-7.572900 0.000000
-7.535900 0.000000
-7.498900 0.000000
-7.461900 0.000000
-7.424900 0.000000
-7.387800 0.000000
-7.350800 0.000000
-7.313800 0.004300
-7.276800 0.103600
-7.239800 0.201800
-7.202800 0.282300
-7.165800 0.376000
-7.128700 0.450400
-7.091700 0.550700
-7.054700 0.687300
-7.017700 0.883000
-6.980700 1.218900
-6.943700 1.873800
-6.906700 2.059000
-6.869700 2.358900
-6.832600 4.226200
-6.795600 3.068200
-6.758600 2.568600
-6.721600 2.406500
-6.684600 2.377000
-6.647600 2.607300
-6.610600 3.241800
-6.573600 4.074700
-6.536500 5.146500
-6.499500 7.418500
-6.462500 5.307800
-6.425500 1.094000
-6.388500 0.305200
-6.351500 0.058900
-6.314500 0.002500
-6.277500 0.001500
-6.240400 0.022000
-6.203400 0.111400
-6.166400 0.314300
-6.129400 0.507600
-6.092400 0.861200
-6.055400 2.162300
-6.018400 4.260600
-5.981300 5.279500
-5.944300 4.993900
-5.907300 4.170700
-5.870300 3.300900
-5.833300 2.734800
-5.796300 2.580000
-5.759300 2.606400
-5.722300 3.107600
-5.685200 3.646200
-5.648200 3.944700
-5.611200 4.776200
-5.574200 5.302800
-5.537200 6.372000
-5.500200 6.320300
-5.463200 6.163300
-5.426200 5.409200
-5.389100 4.788100
-5.352100 4.366000
-5.315100 4.207100
-5.278100 3.660600
-5.241100 2.940900
-5.204100 2.624600
-5.167100 2.331200
-5.130100 2.012500
-5.093000 2.004400
-5.056000 1.459900
-5.019000 1.281700
-4.982000 3.406900
-4.945000 6.894400
-4.908000 12.835400
-4.871000 16.928700
-4.834000 15.218300
-4.796900 9.502400
-4.759900 13.324700
-4.722900 21.442300
-4.685900 4.008500
-4.648900 3.937000
-4.611900 4.951100
-4.574900 3.055200
-4.537800 3.248600
-4.500800 3.504900
-4.463800 3.617300
-4.426800 3.625900
-4.389800 3.556900
-4.352800 3.690500
-4.315800 3.633900
-4.278800 3.664500
-4.241700 3.468500
-4.204700 2.975300
-4.167700 2.632900
-4.130700 2.146900
-4.093700 1.885100
-4.056700 1.620300
-4.019700 1.508000
-3.982700 1.431800
-3.945600 1.407100
-3.908600 1.395000
-3.871600 1.523000
-3.834600 1.683800
-3.797600 2.280500
-3.760600 3.008800
-3.723600 4.525600
-3.686600 4.222200
-3.649500 3.663600
-3.612500 3.359500
-3.575500 2.709200
-3.538500 2.316300
-3.501500 2.064100
-3.464500 1.925200
-3.427500 1.773400
-3.390500 1.680700
-3.353400 1.739900
-3.316400 1.981700
-3.279400 2.103000
-3.242400 2.549600
-3.205400 2.587000
-3.168400 2.397900
-3.131400 2.268200
-3.094300 2.263900
-3.057300 2.262600
-3.020300 2.214900
-2.983300 2.142300
-2.946300 2.134900
-2.909300 2.206900
-2.872300 2.149200
-2.835300 2.149100
-2.798200 2.194000
-2.761200 2.288900
-2.724200 2.341800
-2.687200 2.314800
-2.650200 2.355200
-2.613200 2.186500
-2.576200 2.095200
-2.539200 2.081700
-2.502100 2.003200
-2.465100 1.859000
-2.428100 1.579900
-2.391100 1.405400
-2.354100 1.291700
-2.317100 1.138700
-2.280100 1.138100
-2.243100 1.071700
-2.206000 0.770300
-2.169000 0.640600
-2.132000 0.560900
-2.095000 0.494500
-2.058000 0.431800
-2.021000 0.377800
-1.984000 0.336400
-1.947000 0.296100
-1.909900 0.251300
-1.872900 0.211700
-1.835900 0.174200
-1.798900 0.299500
-1.761900 0.715700
-1.724900 0.947900
-1.687900 1.109800
-1.650800 1.109000
-1.613800 1.083600
-1.576800 1.059700
-1.539800 1.059000
-1.502800 1.080300
-1.465800 1.089200
-1.428800 1.089600
-1.391800 1.079200
-1.354700 1.080200
-1.317700 1.087100
-1.280700 1.095600
-1.243700 1.104100
-1.206700 1.111700
-1.169700 1.122100
-1.132700 1.132200
-1.095700 1.142900
-1.058600 1.156100
-1.021600 1.170800
-0.984600 1.187200
-0.947600 1.206300
-0.910600 1.232200
-0.873600 1.265600
-0.836600 1.306900
-0.799600 1.349200
-0.762500 1.398200
-0.725500 1.503000
-0.688500 1.688400
-0.651500 1.957800
-0.614500 1.814200
-0.577500 1.576300
-0.540500 1.469100
-0.503500 1.332800
-0.466400 1.297500
-0.429400 1.281500
-0.392400 1.271800
-0.355400 1.227500
-0.318400 0.998900
-0.281400 0.943000
-0.244400 0.952200
-0.207300 0.952000
-0.170300 0.954900
-0.133300 1.053600
-0.096300 1.311500
-0.059300 1.423100
-0.022300 1.466400
0.014700 1.432100
0.051700 1.423000
0.088800 1.367600
0.125800 1.283000
0.162800 1.357400
0.199800 1.482700
0.236800 1.609000
0.273800 1.732900
0.310800 1.795200
0.347800 1.876900
0.384900 1.990300
0.421900 2.475800
0.458900 2.593600
0.495900 2.590800
0.532900 2.612100
0.569900 2.658900
0.606900 2.721100
0.643900 2.585800
0.681000 2.304300
0.718000 2.108300
0.755000 1.957900
0.792000 1.676200
0.829000 1.289100
0.866000 0.947400
0.903000 0.701600
0.940000 0.622800
0.977100 0.565600
1.014100 0.506400
1.051100 0.429400
1.088100 0.365800
1.125100 0.319400
1.162100 0.248900
1.199100 0.145000
1.236200 0.000000
1.273200 0.000000
1.310200 0.027900
1.347200 0.090700
1.384200 0.146100
1.421200 0.165100
1.458200 0.166900
1.495200 0.178000
1.532300 0.195300
1.569300 0.216300
1.606300 0.237800
1.643300 0.255000
1.680300 0.274300
1.717300 0.284500
1.754300 0.298000
1.791300 0.315200
1.828400 0.333300
1.865400 0.354600
1.902400 0.376300
1.939400 0.400000
1.976400 0.423600
2.013400 0.449700
2.050400 0.475400
2.087400 0.505500
2.124500 0.547800
2.161500 0.605800
2.198500 0.662300
2.235500 0.654200
2.272500 0.654500
2.309500 0.658400
2.346500 0.655500
2.383500 0.667700
2.420600 0.679300
2.457600 0.688100
2.494600 0.690600
2.531600 0.698100
2.568600 0.709300
2.605600 0.721100
2.642600 0.732300
2.679700 0.744500
2.716700 0.755900
2.753700 0.768900
2.790700 0.787800
2.827700 0.808200
2.864700 0.829500
2.901700 0.851400
2.938700 0.873400
2.975800 0.895200
3.012800 0.919300
3.049800 0.969200
3.086800 1.037300
3.123800 1.111700
3.160800 1.134800
3.197800 1.137200
3.234800 1.145500
3.271900 1.152600
3.308900 1.153400
3.345900 1.160600
3.382900 1.164500
3.419900 1.169500
3.456900 1.173400
3.493900 1.150400
3.530900 1.135300
3.568000 1.124500
3.605000 1.112800
3.642000 1.088800
3.679000 1.065200
3.716000 1.034900
3.753000 0.960100
3.790000 0.947100
3.827000 0.910600
3.864100 0.966900
3.901100 0.916200
3.938100 0.887500
3.975100 0.948200
4.012100 0.949700
4.049100 0.740900
4.086100 0.437700
4.123200 0.340300
4.160200 0.415700
4.197200 0.416500
4.234200 0.408800
4.271200 0.505400
4.308200 0.570900
4.345200 0.671300
4.382200 0.800400
4.419300 0.908900
4.456300 0.981500
4.493300 1.034700
4.530300 1.085800
4.567300 1.117700
4.604300 1.128000
4.641300 1.164100
4.678300 1.194900
4.715400 1.219400
4.752400 1.246500
4.789400 1.283100
4.826400 1.325400
4.863400 1.368900
4.900400 1.428000
4.937400 1.476100
4.974400 1.523800
5.011500 1.592700
5.048500 1.675900
5.085500 1.780300
5.122500 1.968500
5.159500 2.109400
5.196500 2.121500
5.233500 1.819000
5.270500 1.769300
5.307600 1.720700
5.344600 1.620700
5.381600 1.548200
5.418600 1.488400
5.455600 1.454900
5.492600 1.437700
5.529600 1.347300
5.566700 1.192800
5.603700 1.052100
5.640700 1.021900
5.677700 0.911100
5.714700 0.601100
5.751700 0.224100
5.788700 0.199000
5.825700 0.263800
5.862800 0.320600
5.899800 0.363300
5.936800 0.405500
5.973800 0.462600
6.010800 0.503500
6.047800 0.542000
6.084800 0.606200
6.121800 0.670500
6.158900 0.721300
6.195900 0.577800
6.232900 0.393700
6.269900 0.386900
6.306900 0.394000
6.343900 0.406700
6.380900 0.421500
6.417900 0.439000
6.455000 0.459100
6.492000 0.483100
6.529000 0.517600
6.566000 0.574300
6.603000 0.634100
6.640000 0.688700
6.677000 0.744200
6.714100 0.790800
6.751100 0.814500
6.788100 0.850800
6.825100 0.843900
6.862100 0.868000
6.899100 0.927700
6.936100 0.926700
6.973100 0.930300
7.010200 0.936300
7.047200 0.944600
7.084200 0.960300
7.121200 0.966000
7.158200 0.989200
7.195200 1.010100
7.232200 1.024400
7.269200 1.034000
7.306300 1.037100
7.343300 1.084600
7.380300 0.968600
7.417300 0.946900
7.454300 0.924500
7.491300 0.903800
7.528300 0.878900
7.565300 0.862100
7.602400 0.870100
7.639400 0.875200
7.676400 0.833700
7.713400 0.825700
7.750400 0.847400
7.787400 0.834700
7.824400 0.919500
7.861400 1.035700
7.898500 1.077000
7.935500 1.106200
7.972500 1.159700
8.009500 1.238000
8.046500 1.285700
8.083500 1.297600
8.120500 1.278100
8.157600 1.216400
8.194600 1.197300
8.231600 1.228600
8.268600 1.260600
8.305600 1.295900
8.342600 1.348200
8.379600 1.502800
8.416600 1.443500
8.453700 1.427300
8.490700 1.429300
8.527700 1.441700
8.564700 1.478000
8.601700 1.543300
8.638700 1.612800
8.675700 1.738500
8.712700 1.755500
8.749800 1.694800
8.786800 1.648800
8.823800 1.655600
8.860800 1.713200
8.897800 1.760500
8.934800 1.678700
8.971800 1.519400
9.008800 1.402300
9.045900 1.327200
9.082900 1.273300
9.119900 1.203600
9.156900 1.155300
9.193900 1.122700
9.230900 1.094900
9.267900 1.083300
9.304900 1.090800
9.342000 1.111100
9.379000 1.019400
9.416000 0.784400
9.453000 0.727500
9.490000 0.809600
9.527000 0.768000
9.564000 0.767600
9.601100 0.787300
9.638100 0.786000
9.675100 0.743100
9.712100 0.714900
9.749100 0.700300
9.786100 0.701100
9.823100 0.707800
9.860100 0.722100
9.897200 0.741500
9.934200 0.733900
9.971200 0.706500
10.008200 0.655200
10.045200 0.623500
10.082200 0.594000
10.119200 0.584900
10.156200 0.575300
10.193300 0.569500
10.230300 0.563400
10.267300 0.549000
10.304300 0.509800
10.341300 0.486600
10.378300 0.479000
10.415300 0.486800
10.452300 0.497300
10.489400 0.526800
10.526400 0.550700
10.563400 0.571700
10.600400 0.592600
10.637400 0.614500
10.674400 0.637200
10.711400 0.665200
10.748400 0.696400
10.785500 0.751700
10.822500 0.830100
10.859500 0.872800
10.896500 0.887300
10.933500 0.896500
10.970500 0.884200
11.007500 0.877400
11.044600 0.876600
11.081600 0.883800
11.118600 0.884500
11.155600 0.882300
11.192600 0.881000
11.229600 0.880600
11.266600 0.887400
11.303600 0.899900
11.340700 0.919000
11.377700 0.943100
11.414700 0.951400
11.451700 0.956000
11.488700 0.964100
11.525700 0.967200
11.562700 0.963800
11.599700 0.963900
11.636800 0.961700
11.673800 0.966300
11.710800 0.973900
11.747800 0.982000
11.784800 0.993800
11.821800 1.010400
11.858800 1.013500
11.895800 0.998800
11.932900 0.991800
11.969900 0.998300
12.006900 1.016300
12.043900 1.017800
12.080900 1.017300
12.117900 1.024700
12.154900 1.023600
12.191900 1.029100
12.229000 1.037500
12.266000 1.030000
12.303000 0.982100
12.340000 0.955500
12.377000 0.940400
12.414000 0.902800
12.451000 0.836600
12.488100 0.813900
12.525100 0.811200
12.562100 0.801000
12.599100 0.804100
12.636100 0.823800
12.673100 0.866100
12.710100 0.906300
12.747100 0.985300
12.784200 1.052500
12.821200 1.192900
12.858200 1.210700
12.895200 1.312600
12.932200 1.473400
12.969200 1.485800
13.006200 1.444900
13.043200 1.434100
13.080300 1.416300
13.117300 1.392300
13.154300 1.340900
13.191300 1.306300
13.228300 1.262000
13.265300 1.218500
13.302300 1.164100
13.339300 1.083500
13.376400 1.011400
13.413400 0.964400
13.450400 0.907300
13.487400 0.830300
13.524400 0.769600
13.561400 0.711600
13.598400 0.668000
13.635400 0.639500
13.672500 0.616100
13.709500 0.589300
13.746500 0.578500
13.783500 0.583100
13.820500 0.589000
13.857500 0.602000
13.894500 0.618100
13.931600 0.639800
13.968600 0.675600
14.005600 0.723700
14.042600 0.763400
