set title 'mp-1184656 - Density of States'
set xlabel 'Energy (eV)'
set ylabel 'DOS (states/eV)'
set grid
set xrange [-10:10]
set yrange [0:8.378]
set xzeroaxis lt -1
set terminal png size 800,600
set output 'mp-1184656_dos_gnuplot.png'
plot '-' using 1:2 with lines title 'DOS'
-5.109600 0.000000
-5.088600 0.000000
-5.067600 0.000000
-5.046600 0.000000
-5.025500 0.000000
-5.004500 0.000000
-4.983500 0.000000
-4.962500 0.000000
-4.941500 0.000000
-4.920400 0.000000
-4.899400 0.000000
-4.878400 0.000000
-4.857400 0.000000
-4.836300 0.000000
-4.815300 0.000000
-4.794300 0.000000
-4.773300 0.000000
-4.752300 0.000000
-4.731200 0.000000
-4.710200 0.000000
-4.689200 0.000000
-4.668200 0.000000
-4.647200 0.000000
-4.626100 0.000000
-4.605100 0.000000
-4.584100 0.000000
-4.563100 0.000000
-4.542000 0.000000
-4.521000 0.000000
-4.500000 0.000000
-4.479000 0.000000
-4.458000 0.000000
-4.436900 0.000000
-4.415900 0.000000
-4.394900 0.000000
-4.373900 0.000000
-4.352800 0.000000
-4.331800 0.000000
-4.310800 0.000000
-4.289800 0.000000
-4.268800 0.000000
-4.247700 0.000000
-4.226700 0.000000
-4.205700 0.000000
-4.184700 0.000000
-4.163700 0.000000
-4.142600 0.000000
-4.121600 0.000000
-4.100600 0.000000
-4.079600 0.000000
-4.058500 0.000000
-4.037500 0.000000
-4.016500 0.000000
-3.995500 0.000000
-3.974500 0.000000
-3.953400 0.000000
-3.932400 0.000000
-3.911400 0.000000
-3.890400 0.000000
-3.869300 0.000000
-3.848300 0.000000
-3.827300 0.000000
-3.806300 0.000000
-3.785300 0.000000
-3.764200 0.000000
-3.743200 0.000000
-3.722200 0.000000
-3.701200 0.000000
-3.680200 0.000000
-3.659100 0.000000
-3.638100 0.000000
-3.617100 0.000000
-3.596100 0.000000
-3.575000 0.000000
-3.554000 0.000000
-3.533000 0.000000
-3.512000 0.000000
-3.491000 0.000000
-3.469900 0.000000
-3.448900 0.000000
-3.427900 0.000000
-3.406900 0.000000
-3.385800 0.000000
-3.364800 0.000000
-3.343800 0.000000
-3.322800 0.000000
-3.301800 0.000000
-3.280700 0.000000
-3.259700 0.000000
-3.238700 0.000000
-3.217700 0.000000
-3.196700 0.000000
-3.175600 0.003000
-3.154600 0.011900
-3.133600 0.026900
-3.112600 0.049500
-3.091500 0.048000
-3.070500 0.050600
-3.049500 0.055400
-3.028500 0.061100
-3.007500 0.067500
-2.986400 0.074500
-2.965400 0.079900
-2.944400 0.086100
-2.923400 0.091300
-2.902300 0.094700
-2.881300 0.096400
-2.860300 0.101000
-2.839300 0.105500
-2.818300 0.110100
-2.797200 0.114900
-2.776200 0.119800
-2.755200 0.124700
-2.734200 0.129500
-2.713200 0.134400
-2.692100 0.139900
-2.671100 0.145900
-2.650100 0.152400
-2.629100 0.158100
-2.608000 0.163700
-2.587000 0.169500
-2.566000 0.175300
-2.545000 0.181200
-2.524000 0.187500
-2.502900 0.194300
-2.481900 0.218100
-2.460900 0.265400
-2.439900 0.323200
-2.418900 0.355000
-2.397800 0.388600
-2.376800 0.432500
-2.355800 0.518500
-2.334800 0.515300
-2.313700 0.519200
-2.292700 0.530900
-2.271700 0.559900
-2.250700 0.582700
-2.229700 0.586500
-2.208600 0.779100
-2.187600 0.901000
-2.166600 1.074300
-2.145600 1.289100
-2.124500 1.768800
-2.103500 1.918900
-2.082500 1.981800
-2.061500 2.791000
-2.040500 2.370000
-2.019400 2.273000
-1.998400 2.018000
-1.977400 1.827000
-1.956400 1.743000
-1.935400 1.628500
-1.914300 1.591700
-1.893300 1.554200
-1.872300 1.425200
-1.851300 1.386500
-1.830200 1.278600
-1.809200 1.229100
-1.788200 1.195600
-1.767200 1.182400
-1.746200 1.172400
-1.725100 1.218300
-1.704100 1.171900
-1.683100 1.144400
-1.662100 1.093400
-1.641000 0.979500
-1.620000 1.393700
-1.599000 1.547000
-1.578000 1.642300
-1.557000 1.785800
-1.535900 1.911700
-1.514900 1.973300
-1.493900 2.059600
-1.472900 2.070900
-1.451900 2.118500
-1.430800 2.186900
-1.409800 2.255400
-1.388800 2.341400
-1.367800 2.490700
-1.346700 2.617300
-1.325700 2.646700
-1.304700 2.730900
-1.283700 2.902000
-1.262700 2.842300
-1.241600 3.032300
-1.220600 3.467500
-1.199600 3.843300
-1.178600 3.964200
-1.157500 3.762900
-1.136500 4.424800
-1.115500 4.884100
-1.094500 4.657200
-1.073500 5.086300
-1.052400 5.269900
-1.031400 5.897100
-1.010400 5.899800
-0.989400 5.475800
-0.968400 5.760400
-0.947300 4.610000
-0.926300 4.064000
-0.905300 4.248400
-0.884300 4.198700
-0.863200 4.102000
-0.842200 4.443400
-0.821200 4.529700
-0.800200 4.802300
-0.779200 5.147200
-0.758100 4.888700
-0.737100 4.680700
-0.716100 4.527100
-0.695100 4.365700
-0.674000 4.621400
-0.653000 4.106100
-0.632000 3.677300
-0.611000 3.426300
-0.590000 3.542800
-0.568900 3.725900
-0.547900 4.223600
-0.526900 3.584400
-0.505900 3.108300
-0.484900 3.031200
-0.463800 3.110600
-0.442800 2.724100
-0.421800 2.663900
-0.400800 2.667000
-0.379700 2.693900
-0.358700 2.617500
-0.337700 2.852800
-0.316700 2.857900
-0.295700 2.964300
-0.274600 3.575700
-0.253600 4.307100
-0.232600 4.612300
-0.211600 3.478500
-0.190500 2.749300
-0.169500 2.395700
-0.148500 2.183300
-0.127500 2.075700
-0.106500 2.209600
-0.085400 2.224300
-0.064400 2.107600
-0.043400 2.014000
-0.022400 1.836200
-0.001400 1.854700
0.019700 1.921300
0.040700 1.977500
0.061700 2.065700
0.082700 2.369400
0.103800 2.237800
0.124800 2.332800
0.145800 2.766600
0.166800 2.874700
0.187800 2.854600
0.208900 2.975600
0.229900 3.235900
0.250900 3.492300
0.271900 3.376800
0.293000 2.776600
0.314000 2.331100
0.335000 2.220600
0.356000 2.234700
0.377000 2.209500
0.398100 2.189100
0.419100 2.359000
0.440100 2.795500
0.461100 3.542500
0.482100 2.661800
0.503200 2.441400
0.524200 2.323600
0.545200 2.303300
0.566200 2.530300
0.587300 2.686500
0.608300 2.908000
0.629300 3.214700
0.650300 3.481300
0.671300 3.312400
0.692400 3.278800
0.713400 3.314000
0.734400 3.417900
0.755400 3.375200
0.776500 3.167900
0.797500 2.951000
0.818500 2.864000
0.839500 3.159800
0.860500 3.172300
0.881600 3.220700
0.902600 3.379600
0.923600 3.274500
0.944600 3.227300
0.965600 3.265300
0.986700 3.368700
1.007700 3.503600
1.028700 3.657400
1.049700 4.396400
1.070800 3.944800
1.091800 4.303900
1.112800 4.423000
1.133800 3.870500
1.154800 3.443300
1.175900 3.370600
1.196900 3.523200
1.217900 3.354200
1.238900 3.080400
1.260000 3.118200
1.281000 3.441900
1.302000 3.696400
1.323000 3.389900
1.344000 3.792600
1.365100 4.982300
1.386100 4.880600
1.407100 4.631500
1.428100 4.469000
1.449100 3.864200
1.470200 3.719500
1.491200 3.850000
1.512200 3.270200
1.533200 3.027700
1.554300 2.872400
1.575300 2.646800
1.596300 2.553800
1.617300 2.124100
1.638300 2.069300
1.659400 2.519800
1.680400 3.105400
1.701400 3.966100
1.722400 4.188700
1.743500 4.768700
1.764500 5.088900
1.785500 5.969700
1.806500 4.852300
1.827500 4.561000
1.848600 4.878500
1.869600 5.207100
1.890600 6.109800
1.911600 6.304000
1.932600 6.343600
1.953700 5.739100
1.974700 5.042400
1.995700 4.231800
2.016700 3.686200
2.037800 3.397000
2.058800 3.307200
2.079800 2.953200
2.100800 2.852400
2.121800 3.014400
2.142900 3.516900
2.163900 2.720700
2.184900 2.511300
2.205900 2.348900
2.227000 2.114900
2.248000 1.962000
2.269000 1.886000
2.290000 1.747700
2.311000 1.669700
2.332100 1.651300
2.353100 1.637600
2.374100 1.631300
2.395100 1.639700
2.416100 1.648100
2.437200 1.654800
2.458200 1.699000
2.479200 1.776100
2.500200 1.959400
2.521300 1.957700
2.542300 1.934500
2.563300 2.236900
2.584300 2.570400
2.605300 3.429000
2.626400 3.608300
2.647400 4.163900
2.668400 4.392800
2.689400 4.399300
2.710500 4.778300
2.731500 6.721500
2.752500 7.616500
2.773500 4.458400
2.794500 3.353800
2.815600 2.541900
2.836600 1.962500
2.857600 1.704200
2.878600 1.167200
2.899600 0.887000
2.920700 0.558800
2.941700 0.203500
2.962700 0.000400
2.983700 0.001800
3.004800 0.003200
3.025800 0.004400
3.046800 0.005600
3.067800 0.006700
3.088800 0.007700
3.109900 0.008700
3.130900 0.010400
3.151900 0.012700
3.172900 0.014800
3.194000 0.016800
3.215000 0.018700
3.236000 0.020600
3.257000 0.022300
3.278000 0.024000
3.299100 0.026300
3.320100 0.028300
3.341100 0.029700
3.362100 0.030700
3.383100 0.032000
3.404200 0.033400
3.425200 0.034900
3.446200 0.036200
3.467200 0.037500
3.488300 0.039100
3.509300 0.039800
3.530300 0.041600
3.551300 0.043600
3.572300 0.045500
3.593400 0.047500
3.614400 0.049500
3.635400 0.051500
3.656400 0.053600
3.677500 0.055700
3.698500 0.057800
3.719500 0.060500
3.740500 0.063200
3.761500 0.065400
3.782600 0.066900
3.803600 0.068800
3.824600 0.071000
3.845600 0.073200
3.866600 0.075500
3.887700 0.077800
3.908700 0.079400
3.929700 0.082900
3.950700 0.090300
3.971800 0.159500
3.992800 0.240100
4.013800 0.371000
4.034800 0.468000
4.055800 0.571000
4.076900 0.623400
4.097900 0.653600
4.118900 0.684600
4.139900 0.688200
4.160900 0.703400
4.182000 0.727200
4.203000 0.748900
4.224000 0.777100
4.245000 0.840500
4.266100 0.763500
4.287100 0.775600
4.308100 0.778200
4.329100 0.778300
4.350100 0.757600
4.371200 0.753500
4.392200 0.717800
4.413200 0.675900
4.434200 0.619900
4.455300 0.589300
4.476300 0.574200
4.497300 0.567100
4.518300 0.560100
4.539300 0.551900
4.560400 0.544100
4.581400 0.537000
4.602400 0.527600
4.623400 0.520200
4.644400 0.514800
4.665500 0.511100
4.686500 0.508900
4.707500 0.507500
4.728500 0.550200
4.749600 0.499900
4.770600 0.506600
4.791600 0.508700
4.812600 0.511900
4.833600 0.517300
4.854700 0.526200
4.875700 0.513200
4.896700 0.505300
4.917700 0.502700
4.938800 0.504600
4.959800 0.506500
4.980800 0.510200
5.001800 0.514200
5.022800 0.517400
5.043900 0.520600
5.064900 0.524500
5.085900 0.529100
5.106900 0.533700
5.127900 0.539000
5.149000 0.543000
5.170000 0.543600
5.191000 0.543800
5.212000 0.543300
5.233100 0.548300
5.254100 0.553300
5.275100 0.555800
5.296100 0.556200
5.317100 0.558900
5.338200 0.564100
5.359200 0.570700
5.380200 0.578300
5.401200 0.586400
5.422300 0.597000
5.443300 0.604800
5.464300 0.615300
5.485300 0.627800
5.506300 0.640100
5.527400 0.651400
5.548400 0.657400
5.569400 0.674700
5.590400 0.688900
5.611400 0.719400
5.632500 0.776100
5.653500 0.793500
5.674500 0.799500
5.695500 0.810500
5.716600 0.767900
5.737600 0.770100
5.758600 0.760400
5.779600 0.670900
5.800600 0.593800
5.821700 0.547100
5.842700 0.467900
5.863700 0.392000
5.884700 0.310800
5.905800 0.239600
5.926800 0.247000
5.947800 0.248900
5.968800 0.252700
5.989800 0.257100
6.010900 0.266400
6.031900 0.277000
6.052900 0.288500
6.073900 0.301000
6.094900 0.317900
6.116000 0.351200
6.137000 0.397900
6.158000 0.458700
6.179000 0.467800
6.200100 0.462000
6.221100 0.464200
6.242100 0.463200
6.263100 0.472700
6.284100 0.484700
6.305200 0.497900
6.326200 0.511200
6.347200 0.522900
6.368200 0.533700
6.389300 0.543100
6.410300 0.567100
6.431300 0.568200
6.452300 0.570000
6.473300 0.573600
6.494400 0.569700
6.515400 0.578700
6.536400 0.590200
6.557400 0.602700
6.578400 0.615800
6.599500 0.626900
6.620500 0.635900
6.641500 0.650900
6.662500 0.674500
6.683600 0.704300
6.704600 0.688800
6.725600 0.693900
6.746600 0.699700
6.767600 0.697300
6.788700 0.688800
6.809700 0.684900
6.830700 0.683700
6.851700 0.685600
6.872800 0.682400
6.893800 0.678700
6.914800 0.675000
6.935800 0.671400
6.956800 0.606500
6.977900 0.570700
6.998900 0.550300
7.019900 0.531100
7.040900 0.512900
7.061900 0.491600
7.083000 0.473300
7.104000 0.457000
7.125000 0.441600
7.146000 0.428900
7.167100 0.418300
7.188100 0.411500
7.209100 0.408100
7.230100 0.408300
7.251100 0.407500
7.272200 0.406800
7.293200 0.405600
7.314200 0.402800
7.335200 0.399700
7.356300 0.396700
7.377300 0.393800
7.398300 0.391100
7.419300 0.388300
7.440300 0.386100
7.461400 0.384500
7.482400 0.383000
7.503400 0.382200
7.524400 0.383900
7.545400 0.386400
7.566500 0.389500
7.587500 0.392900
7.608500 0.396800
7.629500 0.394700
7.650600 0.398200
7.671600 0.401700
7.692600 0.405300
7.713600 0.409000
7.734600 0.412800
7.755700 0.416800
7.776700 0.420100
7.797700 0.422900
7.818700 0.425300
7.839800 0.427400
7.860800 0.429200
7.881800 0.430700
7.902800 0.438500
7.923800 0.443600
7.944900 0.444700
7.965900 0.444000
7.986900 0.442100
8.007900 0.440000
8.028900 0.437600
8.050000 0.454600
8.071000 0.439300
8.092000 0.444100
8.113000 0.450400
8.134100 0.452800
8.155100 0.454000
8.176100 0.456700
8.197100 0.459200
8.218100 0.460200
8.239200 0.461300
8.260200 0.462600
8.281200 0.463900
8.302200 0.465200
8.323300 0.467800
8.344300 0.472000
8.365300 0.476100
8.386300 0.479000
8.407300 0.482800
8.428400 0.490800
8.449400 0.510600
8.470400 0.525300
8.491400 0.533700
8.512400 0.538800
8.533500 0.541500
8.554500 0.540900
8.575500 0.531900
8.596500 0.498300
8.617600 0.492600
8.638600 0.486800
8.659600 0.480900
8.680600 0.474600
8.701600 0.468100
8.722700 0.466300
8.743700 0.466500
8.764700 0.465500
8.785700 0.464700
8.806800 0.464400
8.827800 0.464500
8.848800 0.464500
8.869800 0.464700
8.890800 0.465000
8.911900 0.466400
8.932900 0.468600
8.953900 0.471400
8.974900 0.474800
8.995900 0.478900
9.017000 0.483700
9.038000 0.489000
9.059000 0.494500
9.080000 0.500400
9.101100 0.506300
9.122100 0.511800
9.143100 0.517000
9.164100 0.521800
9.185100 0.527300
9.206200 0.532700
9.227200 0.538100
9.248200 0.543600
9.269200 0.549600
9.290300 0.545600
9.311300 0.538800
9.332300 0.530900
9.353300 0.526500
9.374300 0.520500
9.395400 0.515600
9.416400 0.512400
9.437400 0.510600
9.458400 0.508500
9.479400 0.507300
9.500500 0.505500
9.521500 0.496200
9.542500 0.487300
9.563500 0.482700
9.584600 0.479500
9.605600 0.477400
9.626600 0.475900
9.647600 0.474800
9.668600 0.473400
9.689700 0.471900
9.710700 0.470800
9.731700 0.470100
9.752700 0.469800
9.773800 0.469500
9.794800 0.469200
9.815800 0.469000
9.836800 0.469000
9.857800 0.469200
9.878900 0.469600
9.899900 0.470000
9.920900 0.470600
9.941900 0.471300
9.962900 0.472700
9.984000 0.474600
10.005000 0.477100
10.026000 0.479900
10.047000 0.482900
10.068100 0.486200
10.089100 0.490100
10.110100 0.494400
10.131100 0.499400
10.152100 0.505600
10.173200 0.513500
10.194200 0.526800
10.215200 0.537700
10.236200 0.539200
10.257300 0.539200
10.278300 0.544700
10.299300 0.569200
10.320300 0.557600
10.341300 0.554800
10.362400 0.560800
10.383400 0.572700
10.404400 0.590300
10.425400 0.611900
10.446400 0.633800
10.467500 0.656000
10.488500 0.679100
10.509500 0.655100
10.530500 0.646800
10.551600 0.662000
10.572600 0.665400
10.593600 0.652800
10.614600 0.621400
10.635600 0.591600
10.656700 0.563800
10.677700 0.535000
10.698700 0.506900
10.719700 0.477700
10.740700 0.429900
10.761800 0.417100
10.782800 0.405800
10.803800 0.396600
10.824800 0.389500
10.845900 0.383300
10.866900 0.376800
10.887900 0.370300
10.908900 0.363600
10.929900 0.357000
10.951000 0.350300
10.972000 0.340200
10.993000 0.329600
11.014000 0.324100
11.035100 0.319600
11.056100 0.316000
11.077100 0.314000
11.098100 0.317500
11.119100 0.339600
11.140200 0.338100
11.161200 0.342000
11.182200 0.352900
11.203200 0.363800
11.224200 0.365200
11.245300 0.366600
11.266300 0.368700
11.287300 0.371500
11.308300 0.375400
11.329400 0.381200
11.350400 0.382100
11.371400 0.381600
11.392400 0.378500
11.413400 0.374700
11.434500 0.371100
11.455500 0.370000
11.476500 0.369500
11.497500 0.369100
11.518600 0.361000
11.539600 0.360200
11.560600 0.360300
11.581600 0.361100
11.602600 0.362000
11.623700 0.342000
11.644700 0.334100
11.665700 0.328700
11.686700 0.323300
11.707700 0.317700
11.728800 0.312000
11.749800 0.306100
11.770800 0.299900
11.791800 0.293800
11.812900 0.287600
11.833900 0.281300
11.854900 0.270900
11.875900 0.273400
11.896900 0.268500
11.918000 0.264900
11.939000 0.262400
11.960000 0.261000
11.981000 0.260500
12.002100 0.260600
12.023100 0.261100
12.044100 0.262200
12.065100 0.264300
12.086100 0.267400
12.107200 0.271400
12.128200 0.280800
12.149200 0.285200
12.170200 0.290600
12.191200 0.304000
12.212300 0.321500
12.233300 0.348200
12.254300 0.373500
12.275300 0.389600
12.296400 0.406600
12.317400 0.422500
12.338400 0.431300
12.359400 0.438600
12.380400 0.444900
12.401500 0.449200
12.422500 0.451300
12.443500 0.453600
12.464500 0.460100
12.485600 0.464300
12.506600 0.473500
12.527600 0.489200
12.548600 0.509100
12.569600 0.535400
12.590700 0.551800
12.611700 0.560100
12.632700 0.570000
12.653700 0.574200
12.674700 0.579700
12.695800 0.585100
12.716800 0.588500
12.737800 0.586800
12.758800 0.579900
12.779900 0.576200
12.800900 0.573600
12.821900 0.565800
12.842900 0.552300
12.863900 0.534400
12.885000 0.517600
12.906000 0.507100
12.927000 0.502600
12.948000 0.488600
12.969100 0.474800
12.990100 0.461700
13.011100 0.448900
13.032100 0.437900
13.053100 0.428700
13.074200 0.421300
13.095200 0.413300
13.116200 0.406200
13.137200 0.401800
13.158200 0.398700
13.179300 0.395400
13.200300 0.388800
13.221300 0.390900
13.242300 0.396400
13.263400 0.394400
13.284400 0.411200
13.305400 0.419700
13.326400 0.403300
13.347400 0.401700
13.368500 0.399600
13.389500 0.397200
13.410500 0.394500
13.431500 0.390100
13.452600 0.385400
13.473600 0.382800
13.494600 0.385000
13.515600 0.386200
13.536600 0.386300
13.557700 0.384700
13.578700 0.383500
13.599700 0.382500
13.620700 0.381800
13.641700 0.381100
13.662800 0.381300
13.683800 0.382900
13.704800 0.385200
13.725800 0.390000
13.746900 0.395000
13.767900 0.399800
13.788900 0.404600
13.809900 0.409400
13.830900 0.414000
13.852000 0.418600
13.873000 0.423200
13.894000 0.427900
13.915000 0.432100
13.936100 0.435300
13.957100 0.436000
13.978100 0.436100
13.999100 0.459800
14.020100 0.442200
14.041200 0.439600
14.062200 0.437300
14.083200 0.435400
14.104200 0.433300
14.125200 0.431500
14.146300 0.429600
14.167300 0.428100
14.188300 0.427600
14.209300 0.427700
14.230400 0.428300
14.251400 0.429500
14.272400 0.431100
14.293400 0.450500
14.314400 0.445700
14.335500 0.450600
14.356500 0.456900
14.377500 0.464800
14.398500 0.474500
14.419600 0.484500
14.440600 0.496600
14.461600 0.509700
14.482600 0.524900
14.503600 0.572500
14.524700 0.564000
14.545700 0.575600
14.566700 0.584800
14.587700 0.585100
14.608700 0.602600
14.629800 0.633600
14.650800 0.626100
14.671800 0.619800
14.692800 0.615300
14.713900 0.612300
14.734900 0.609600
14.755900 0.603000
14.776900 0.596900
14.797900 0.591300
14.819000 0.586200
14.840000 0.581400
14.861000 0.573900
14.882000 0.568700
14.903100 0.562600
14.924100 0.558400
14.945100 0.554600
14.966100 0.551200
14.987100 0.548200
15.008200 0.545800
15.029200 0.543600
15.050200 0.541600
15.071200 0.540000
15.092200 0.539500
15.113300 0.526500
15.134300 0.517200
15.155300 0.511900
15.176300 0.510900
15.197400 0.511200
15.218400 0.512500
15.239400 0.515100
15.260400 0.519000
15.281400 0.523600
15.302500 0.529000
15.323500 0.535300
15.344500 0.539800
15.365500 0.544500
15.386600 0.550100
15.407600 0.557300
15.428600 0.567800
15.449600 0.570800
15.470600 0.573700
15.491700 0.576800
15.512700 0.582000
15.533700 0.591300
15.554700 0.610300
15.575700 0.617100
15.596800 0.625500
15.617800 0.634200
15.638800 0.643000
15.659800 0.659800
15.680900 0.676600
15.701900 0.686100
15.722900 0.686500
15.743900 0.687600
15.764900 0.690600
15.786000 0.695300
15.807000 0.697500
15.828000 0.711000
15.849000 0.723600
15.870100 0.736700
15.891100 0.736100
15.912100 0.705600
15.933100 0.696100
15.954100 0.692700
15.975200 0.692600
15.996200 0.686100
16.017200 0.682500
16.038200 0.689700
16.059200 0.693100
16.080300 0.703200
16.101300 0.715900
16.122300 0.726300
16.143300 0.739900
16.164400 0.756800
16.185400 0.787900
16.206400 0.805300
16.227400 0.808700
16.248400 0.828300
16.269500 0.834200
16.290500 0.834200
16.311500 0.830300
16.332500 0.825900
16.353600 0.823100
16.374600 0.828100
16.395600 0.837800
16.416600 0.844000
16.437600 0.848600
16.458700 0.851700
16.479700 0.856400
16.500700 0.861000
16.521700 0.864200
16.542700 0.868400
16.563800 0.875800
16.584800 0.890000
16.605800 0.909600
16.626800 0.916400
16.647900 0.931500
16.668900 0.945700
16.689900 0.969000
16.710900 1.005100
16.731900 1.035000
16.753000 1.080000
16.774000 1.130000
16.795000 1.156900
16.816000 1.163000
16.837000 1.183000
16.858100 1.205700
16.879100 1.232400
16.900100 1.250900
16.921100 1.275000
16.942200 1.294200
16.963200 1.290700
16.984200 1.272600
17.005200 1.258100
17.026200 1.244600
17.047300 1.222300
17.068300 1.177100
17.089300 1.134200
17.110300 1.088000
17.131400 1.043300
17.152400 0.990300
17.173400 0.946900
17.194400 0.914500
