set title 'mp-160 - Density of States'
set xlabel 'Energy (eV)'
set ylabel 'DOS (states/eV)'
set grid
set xrange [-10:10]
set yrange [0:15.960]
set xzeroaxis lt -1
set terminal png size 800,600
set output 'mp-160_dos_gnuplot.png'
plot '-' using 1:2 with lines title 'DOS'
-11.800400 0.000000
-11.781500 0.000000
-11.762600 0.000000
-11.743800 0.000000
-11.724900 0.000000
-11.706000 0.000000
-11.687100 0.000000
-11.668200 0.000000
-11.649400 0.000000
-11.630500 0.000000
-11.611600 0.000000
-11.592700 0.000000
-11.573800 0.000000
-11.555000 0.000000
-11.536100 0.000000
-11.517200 0.000000
-11.498300 0.000000
-11.479500 0.000000
-11.460600 0.000000
-11.441700 0.000000
-11.422800 0.000000
-11.403900 0.000000
-11.385100 0.000000
-11.366200 0.000000
-11.347300 0.000000
-11.328400 0.000000
-11.309500 0.000000
-11.290700 0.000000
-11.271800 0.000000
-11.252900 0.000000
-11.234000 0.000000
-11.215100 0.000000
-11.196300 0.000000
-11.177400 0.000000
-11.158500 0.000000
-11.139600 0.000000
-11.120800 0.000000
-11.101900 0.000000
-11.083000 0.000000
-11.064100 0.000000
-11.045200 0.000000
-11.026400 0.000000
-11.007500 0.000000
-10.988600 0.000000
-10.969700 0.000000
-10.950800 0.000000
-10.932000 0.000000
-10.913100 0.000000
-10.894200 0.000000
-10.875300 0.000000
-10.856500 0.000000
-10.837600 0.000000
-10.818700 0.000000
-10.799800 0.000000
-10.780900 0.000000
-10.762100 0.000000
-10.743200 0.000000
-10.724300 0.000000
-10.705400 0.000000
-10.686500 0.000000
-10.667700 0.000000
-10.648800 0.000000
-10.629900 0.000000
-10.611000 0.000000
-10.592200 0.000000
-10.573300 0.000000
-10.554400 0.000000
-10.535500 0.000000
-10.516600 0.000000
-10.497800 0.000000
-10.478900 0.000000
-10.460000 0.000000
-10.441100 0.000000
-10.422200 0.000000
-10.403400 0.000000
-10.384500 0.000000
-10.365600 0.000000
-10.346700 0.000000
-10.327900 0.000000
-10.309000 0.000000
-10.290100 0.000000
-10.271200 0.000000
-10.252300 0.000000
-10.233500 0.000000
-10.214600 0.000000
-10.195700 0.000000
-10.176800 0.000000
-10.157900 0.000000
-10.139100 0.000000
-10.120200 0.000000
-10.101300 0.000000
-10.082400 0.006900
-10.063600 0.084000
-10.044700 0.162100
-10.025800 0.241300
-10.006900 0.321600
-9.988000 0.403000
-9.969200 0.485500
-9.950300 0.520000
-9.931400 0.553600
-9.912500 0.593000
-9.893600 0.638100
-9.874800 0.675600
-9.855900 0.704000
-9.837000 0.738500
-9.818100 0.778800
-9.799300 0.821700
-9.780400 0.865700
-9.761500 0.910800
-9.742600 0.957000
-9.723700 1.004300
-9.704900 1.052600
-9.686000 1.102000
-9.667100 1.151300
-9.648200 1.200100
-9.629300 1.255200
-9.610500 1.325600
-9.591600 1.430700
-9.572700 1.543500
-9.553800 1.649800
-9.535000 1.744700
-9.516100 1.819600
-9.497200 1.874200
-9.478300 1.909100
-9.459400 1.927000
-9.440600 1.926800
-9.421700 1.972900
-9.402800 2.039300
-9.383900 2.108400
-9.365000 2.180100
-9.346200 2.254400
-9.327300 2.331400
-9.308400 2.411000
-9.289500 2.493300
-9.270700 2.579300
-9.251800 2.834200
-9.232900 3.910200
-9.214000 3.653700
-9.195100 3.725400
-9.176300 3.751300
-9.157400 3.731500
-9.138500 3.671500
-9.119600 3.604400
-9.100700 3.601700
-9.081900 3.607600
-9.063000 3.622100
-9.044100 3.645300
-9.025200 3.677200
-9.006400 3.434300
-8.987500 0.000000
-8.968600 0.000000
-8.949700 0.000000
-8.930800 0.000000
-8.912000 0.000000
-8.893100 0.000000
-8.874200 0.000000
-8.855300 0.000000
-8.836400 0.000000
-8.817600 0.000000
-8.798700 0.000000
-8.779800 0.000000
-8.760900 0.000000
-8.742000 0.000000
-8.723200 0.000000
-8.704300 0.000000
-8.685400 0.000000
-8.666500 0.000000
-8.647700 0.000000
-8.628800 0.000000
-8.609900 0.000000
-8.591000 0.000000
-8.572100 0.000000
-8.553300 0.000000
-8.534400 0.000000
-8.515500 0.000000
-8.496600 0.000000
-8.477700 0.000000
-8.458900 0.000000
-8.440000 0.000000
-8.421100 0.000000
-8.402200 0.000000
-8.383400 0.000000
-8.364500 0.000000
-8.345600 0.000000
-8.326700 0.000000
-8.307800 0.000000
-8.289000 0.000000
-8.270100 0.000000
-8.251200 0.000000
-8.232300 0.000000
-8.213400 0.000000
-8.194600 0.000000
-8.175700 0.000000
-8.156800 0.000000
-8.137900 0.000000
-8.119100 0.000000
-8.100200 0.000000
-8.081300 0.000000
-8.062400 0.000000
-8.043500 0.000000
-8.024700 0.000000
-8.005800 0.000000
-7.986900 0.000000
-7.968000 0.000000
-7.949100 0.000000
-7.930300 0.000000
-7.911400 0.000000
-7.892500 0.000000
-7.873600 0.000000
-7.854800 0.000000
-7.835900 0.000000
-7.817000 0.000000
-7.798100 0.000000
-7.779200 0.000000
-7.760400 0.000000
-7.741500 0.000000
-7.722600 0.000000
-7.703700 0.000000
-7.684800 0.000000
-7.666000 0.000000
-7.647100 0.000000
-7.628200 0.000000
-7.609300 0.000000
-7.590500 0.000000
-7.571600 0.000000
-7.552700 0.000000
-7.533800 0.000000
-7.514900 0.000000
-7.496100 0.000000
-7.477200 0.000000
-7.458300 0.000000
-7.439400 0.000000
-7.420500 0.000000
-7.401700 0.000000
-7.382800 0.000000
-7.363900 0.000000
-7.345000 0.000000
-7.326200 0.000000
-7.307300 0.000000
-7.288400 0.000000
-7.269500 0.000000
-7.250600 0.000000
-7.231800 0.000000
-7.212900 0.000000
-7.194000 0.021100
-7.175100 0.061600
-7.156200 0.109300
-7.137400 0.164400
-7.118500 0.226600
-7.099600 0.296200
-7.080700 0.373000
-7.061900 0.457100
-7.043000 0.548500
-7.024100 0.647400
-7.005200 0.846800
-6.986300 1.079200
-6.967500 1.315300
-6.948600 1.566500
-6.929700 1.814300
-6.910800 2.075800
-6.891900 2.350900
-6.873100 2.639600
-6.854200 2.942000
-6.835300 3.417600
-6.816400 4.173700
-6.797600 4.412200
-6.778700 4.453900
-6.759800 4.298700
-6.740900 4.163800
-6.722000 1.502600
-6.703200 1.465000
-6.684300 1.432100
-6.665400 1.407400
-6.646500 1.388700
-6.627600 1.376100
-6.608800 1.368900
-6.589900 1.363700
-6.571000 1.359700
-6.552100 1.356900
-6.533200 1.355400
-6.514400 1.355200
-6.495500 1.356200
-6.476600 1.822400
-6.457700 1.596600
-6.438900 1.672800
-6.420000 1.728400
-6.401100 1.763500
-6.382200 1.778100
-6.363300 1.772100
-6.344500 1.745600
-6.325600 1.698600
-6.306700 1.631100
-6.287800 1.543700
-6.268900 1.456700
-6.250100 1.424100
-6.231200 1.394900
-6.212300 1.369100
-6.193400 1.345500
-6.174600 1.320800
-6.155700 1.299400
-6.136800 1.281600
-6.117900 1.267400
-6.099000 1.256600
-6.080200 1.249400
-6.061300 1.245800
-6.042400 1.245700
-6.023500 2.559400
-6.004600 3.272100
-5.985800 2.491000
-5.966900 1.980300
-5.948000 1.959100
-5.929100 1.976800
-5.910300 1.995200
-5.891400 2.012500
-5.872500 2.028700
-5.853600 2.043400
-5.834700 2.055700
-5.815900 2.065700
-5.797000 2.073400
-5.778100 2.078700
-5.759200 2.084500
-5.740300 2.091700
-5.721500 2.095000
-5.702600 2.094700
-5.683700 2.091000
-5.664800 2.083600
-5.646000 2.071900
-5.627100 2.055900
-5.608200 2.035600
-5.589300 2.011100
-5.570400 1.982300
-5.551600 1.949300
-5.532700 1.911900
-5.513800 1.871500
-5.494900 1.914500
-5.476000 2.013100
-5.457200 2.097500
-5.438300 2.152200
-5.419400 2.164300
-5.400500 2.214200
-5.381700 2.314600
-5.362800 2.539400
-5.343900 2.763700
-5.325000 2.976900
-5.306100 3.178500
-5.287300 3.361800
-5.268400 3.512300
-5.249500 3.633800
-5.230600 3.702500
-5.211700 3.728600
-5.192900 3.750600
-5.174000 3.769600
-5.155100 3.780600
-5.136200 3.781800
-5.117400 3.846400
-5.098500 3.793800
-5.079600 3.650000
-5.060700 3.545700
-5.041800 3.451300
-5.023000 3.375200
-5.004100 3.312300
-4.985200 3.263500
-4.966300 3.234900
-4.947400 3.205500
-4.928600 3.172400
-4.909700 3.135700
-4.890800 3.089100
-4.871900 3.020300
-4.853100 2.928800
-4.834200 2.814700
-4.815300 2.716200
-4.796400 2.815000
-4.777500 2.947400
-4.758700 2.907300
-4.739800 2.677400
-4.720900 2.389600
-4.702000 2.236300
-4.683100 2.108600
-4.664300 2.012500
-4.645400 1.931800
-4.626500 1.828600
-4.607600 1.702400
-4.588800 1.606300
-4.569900 1.646800
-4.551000 1.586500
-4.532100 1.521200
-4.513200 1.451000
-4.494400 1.375700
-4.475500 1.295500
-4.456600 1.210300
-4.437700 1.130200
-4.418800 1.051500
-4.400000 0.974200
-4.381100 0.896200
-4.362200 0.813100
-4.343300 0.724800
-4.324400 0.631300
-4.305600 0.533300
-4.286700 0.433600
-4.267800 0.340000
-4.248900 0.261600
-4.230100 0.194100
-4.211200 0.137200
-4.192300 0.089000
-4.173400 0.049200
-4.154500 0.017900
-4.135700 0.000000
-4.116800 0.000000
-4.097900 0.000000
-4.079000 0.000000
-4.060100 0.000000
-4.041300 0.000000
-4.022400 0.000000
-4.003500 0.000000
-3.984600 0.000000
-3.965800 0.009400
-3.946900 0.026000
-3.928000 0.043600
-3.909100 0.062400
-3.890200 0.082300
-3.871400 0.103300
-3.852500 0.125400
-3.833600 0.148700
-3.814700 0.172500
-3.795800 0.196100
-3.777000 0.219400
-3.758100 0.242500
-3.739200 0.265400
-3.720300 0.288900
-3.701500 0.313400
-3.682600 0.338800
-3.663700 0.364900
-3.644800 0.392300
-3.625900 0.429200
-3.607100 0.468700
-3.588200 0.510900
-3.569300 0.555800
-3.550400 0.603400
-3.531500 0.653800
-3.512700 0.706900
-3.493800 0.762600
-3.474900 0.821200
-3.456000 0.887100
-3.437200 0.965900
-3.418300 1.045700
-3.399400 1.128700
-3.380500 1.216000
-3.361600 1.307600
-3.342800 1.403500
-3.323900 1.497100
-3.305000 1.531300
-3.286100 1.540200
-3.267200 1.581600
-3.248400 1.616200
-3.229500 1.644100
-3.210600 1.670100
-3.191700 1.695800
-3.172900 1.721200
-3.154000 1.746300
-3.135100 1.771100
-3.116200 1.810500
-3.097300 1.877900
-3.078500 1.934100
-3.059600 1.978800
-3.040700 2.010400
-3.021800 2.029000
-3.002900 2.034400
-2.984100 2.026600
-2.965200 1.971700
-2.946300 1.937300
-2.927400 1.913000
-2.908600 1.898800
-2.889700 1.894800
-2.870800 1.928800
-2.851900 2.002800
-2.833000 2.079900
-2.814200 2.160200
-2.795300 2.243700
-2.776400 2.330400
-2.757500 2.420300
-2.738600 2.500900
-2.719800 2.543800
-2.700900 2.568900
-2.682000 2.576500
-2.663100 2.548700
-2.644300 2.491700
-2.625400 2.427200
-2.606500 2.345200
-2.587600 2.256900
-2.568700 2.219500
-2.549900 2.193100
-2.531000 2.604600
-2.512100 3.128800
-2.493200 3.352000
-2.474300 3.274400
-2.455500 2.455900
-2.436600 2.156900
-2.417700 1.279600
-2.398800 1.404900
-2.380000 1.572500
-2.361100 1.745400
-2.342200 1.918800
-2.323300 2.092800
-2.304400 2.267300
-2.285600 2.507600
-2.266700 2.883100
-2.247800 3.393800
-2.228900 4.056500
-2.210000 4.715300
-2.191200 5.388000
-2.172300 5.917000
-2.153400 6.105800
-2.134500 5.712100
-2.115600 5.454400
-2.096800 5.965200
-2.077900 3.942200
-2.059000 3.172800
-2.040100 2.744800
-2.021300 2.424400
-2.002400 2.300400
-1.983500 2.323600
-1.964600 2.346100
-1.945700 2.355100
-1.926900 2.355400
-1.908000 2.374000
-1.889100 2.415000
-1.870200 2.546300
-1.851300 2.651300
-1.832500 2.633000
-1.813600 2.496000
-1.794700 2.240700
-1.775800 2.090500
-1.757000 2.065700
-1.738100 2.036500
-1.719200 2.018700
-1.700300 2.012200
-1.681400 2.017000
-1.662600 2.026900
-1.643700 2.095700
-1.624800 2.165900
-1.605900 2.221000
-1.587000 2.260900
-1.568200 2.285600
-1.549300 2.295300
-1.530400 2.289800
-1.511500 2.269100
-1.492700 2.233300
-1.473800 2.191400
-1.454900 2.169500
-1.436000 2.179900
-1.417100 2.150000
-1.398300 2.099000
-1.379400 2.112500
-1.360500 2.151300
-1.341600 2.200500
-1.322700 2.256600
-1.303900 2.319100
-1.285000 2.387800
-1.266100 2.490200
-1.247200 2.665900
-1.228400 2.790400
-1.209500 2.864000
-1.190600 2.886400
-1.171700 2.857800
-1.152800 2.741900
-1.134000 2.656600
-1.115100 2.601300
-1.096200 2.585000
-1.077300 2.733400
-1.058400 2.868800
-1.039600 2.991300
-1.020700 3.100900
-1.001800 3.197600
-0.982900 3.281200
-0.964100 3.349300
-0.945200 3.396100
-0.926300 3.430300
-0.907400 3.172000
-0.888500 3.068800
-0.869700 2.999400
-0.850800 2.973100
-0.831900 2.989900
-0.813000 3.049800
-0.794100 3.146600
-0.775300 3.269800
-0.756400 3.390200
-0.737500 3.514700
-0.718600 3.795400
-0.699800 4.297100
-0.680900 4.025200
-0.662000 3.293800
-0.643100 3.192200
-0.624200 3.130700
-0.605400 3.106100
-0.586500 3.092000
-0.567600 3.543200
-0.548700 3.416800
-0.529800 3.763300
-0.511000 3.416600
-0.492100 3.310500
-0.473200 3.202600
-0.454300 3.092100
-0.435500 3.327200
-0.416600 3.453600
-0.397700 3.436700
-0.378800 3.280000
-0.359900 3.066700
-0.341100 2.991100
-0.322200 2.974300
-0.303300 2.923100
-0.284400 2.837700
-0.265500 2.739500
-0.246700 2.716400
-0.227800 2.708800
-0.208900 2.699900
-0.190000 2.688400
-0.171200 2.674200
-0.152300 2.657400
-0.133400 2.637900
-0.114500 2.620000
-0.095600 2.602600
-0.076800 2.585400
-0.057900 2.664800
-0.039000 2.776600
-0.020100 2.867600
-0.001200 2.934900
0.017600 2.978800
0.036500 2.999700
0.055400 2.995400
0.074300 2.976800
0.093200 3.035600
0.112000 3.061800
0.130900 3.055200
0.149800 3.017500
0.168700 2.951300
0.187500 2.854600
0.206400 2.752700
0.225300 2.726000
0.244200 2.708700
0.263100 2.700900
0.281900 2.702500
0.300800 2.713600
0.319700 2.734100
0.338600 2.764000
0.357500 2.803400
0.376300 2.853900
0.395200 2.885000
0.414100 2.906200
0.433000 2.930900
0.451800 2.937000
0.470700 2.981700
0.489600 3.068700
0.508500 3.288800
0.527400 3.338400
0.546200 3.395200
0.565100 3.436400
0.584000 3.464400
0.602900 3.480300
0.621800 3.488000
0.640600 3.466400
0.659500 3.354800
0.678400 3.312300
0.697300 3.535800
0.716100 3.775900
0.735000 3.936300
0.753900 4.633600
0.772800 4.924500
0.791700 3.727100
0.810500 3.415700
0.829400 3.356000
0.848300 3.328700
0.867200 3.333600
0.886100 3.326200
0.904900 3.203400
0.923800 3.003600
0.942700 2.726600
0.961600 2.399800
0.980400 2.251300
0.999300 2.085800
1.018200 1.915400
1.037100 1.757500
1.056000 1.614800
1.074800 1.487400
1.093700 1.375400
1.112600 1.278800
1.131500 1.197600
1.150400 1.197900
1.169200 1.210600
1.188100 1.223300
1.207000 1.236200
1.225900 1.248600
1.244700 1.261900
1.263600 1.276600
1.282500 1.296700
1.301400 1.321700
1.320300 1.349000
1.339100 1.378800
1.358000 1.419100
1.376900 1.475300
1.395800 1.541700
1.414700 1.610500
1.433500 1.684800
1.452400 1.760800
1.471300 1.836300
1.490200 1.911200
1.509000 2.007900
1.527900 2.146800
1.546800 2.326900
1.565700 2.548300
1.584600 2.719000
1.603400 2.732800
1.622300 2.723400
1.641200 2.732800
1.660100 2.761100
1.679000 2.808000
1.697800 2.856800
1.716700 2.915100
1.735600 2.980900
1.754500 3.047300
1.773300 3.114300
1.792200 3.182000
1.811100 3.250400
1.830000 3.405800
1.848900 3.586400
1.867700 3.806400
1.886600 4.096200
1.905500 4.407700
1.924400 4.729600
1.943300 4.901100
1.962100 4.679500
1.981000 4.391700
1.999900 4.148300
2.018800 3.892700
2.037600 3.718800
2.056500 3.588800
2.075400 3.480800
2.094300 3.393000
2.113200 3.352900
2.132000 3.366300
2.150900 3.411700
2.169800 3.465600
2.188700 3.965100
2.207600 4.345500
2.226400 4.333900
2.245300 4.824400
2.264200 5.034600
2.283100 5.356700
2.301900 5.762100
2.320800 6.250900
2.339700 5.784100
2.358600 5.782900
2.377500 5.286500
2.396300 4.247800
2.415200 3.343900
2.434100 3.027600
2.453000 2.885800
2.471900 2.723600
2.490700 2.541100
2.509600 2.338400
2.528500 2.134300
2.547400 2.185000
2.566300 2.396000
2.585100 2.769400
2.604000 3.212700
2.622900 3.770200
2.641800 4.404100
2.660600 4.787800
2.679500 5.175000
2.698400 5.417900
2.717300 5.143300
2.736200 4.981400
2.755000 5.121100
2.773900 4.677800
2.792800 4.538100
2.811700 4.548300
2.830600 5.079900
2.849400 5.227800
2.868300 6.329200
2.887200 7.654800
2.906100 8.883400
2.924900 9.542000
2.943800 8.490900
2.962700 6.717100
2.981600 5.675100
3.000500 5.313600
3.019300 4.910000
3.038200 4.456300
3.057100 4.021400
3.076000 3.698200
3.094900 3.660200
3.113700 3.913200
3.132600 4.413000
3.151500 3.658600
3.170400 1.357400
3.189200 1.297600
3.208100 1.511300
3.227000 1.763200
3.245900 2.055600
3.264800 2.367800
3.283600 2.828500
3.302500 3.338600
3.321400 3.790200
3.340300 4.183100
3.359200 4.517400
3.378000 6.707700
3.396900 6.166000
3.415800 5.354600
3.434700 5.480000
3.453500 5.566100
3.472400 5.784100
3.491300 5.853200
3.510200 5.654600
3.529100 5.032200
3.547900 4.515200
3.566800 4.091000
3.585700 3.760400
3.604600 3.523200
3.623500 3.360500
3.642300 2.915600
3.661200 3.610300
3.680100 4.342000
3.699000 8.786500
3.717800 6.194800
3.736700 4.853100
3.755600 4.682400
3.774500 4.540600
3.793400 4.427700
3.812200 4.346200
3.831100 4.315600
3.850000 4.377700
3.868900 3.990200
3.887800 3.957700
3.906600 3.816300
3.925500 3.688200
3.944400 3.600100
3.963300 3.550200
3.982100 3.504600
4.001000 3.539900
4.019900 3.624600
4.038800 3.689800
4.057700 3.840700
4.076500 4.353300
4.095400 4.878500
4.114300 5.282900
4.133200 5.562300
4.152100 6.061100
4.170900 9.278400
4.189800 11.216400
4.208700 13.520800
4.227600 14.508900
4.246400 10.833700
4.265300 5.514600
4.284200 3.904100
4.303100 3.403700
4.322000 3.387000
4.340800 3.307800
4.359700 3.249200
4.378600 3.200000
4.397500 3.135100
4.416400 3.054200
4.435200 2.957200
4.454100 2.842400
4.473000 2.709400
4.491900 2.558100
4.510700 2.477800
4.529600 2.460600
4.548500 2.492100
4.567400 2.472800
4.586300 2.402600
4.605100 2.281600
4.624000 2.170200
4.642900 2.198500
4.661800 2.233100
4.680700 2.256400
4.699500 2.268000
4.718400 2.323300
4.737300 2.313500
4.756200 2.267700
4.775100 2.206400
4.793900 2.129700
4.812800 2.038400
4.831700 1.999100
4.850600 1.987900
4.869400 1.973600
4.888300 1.956400
4.907200 1.957500
4.926100 1.997400
4.945000 2.043600
4.963800 2.064200
4.982700 2.055800
5.001600 2.018400
5.020500 1.952100
5.039400 1.856800
5.058200 1.744100
5.077100 1.681400
5.096000 1.658200
5.114900 1.633100
5.133700 1.606000
5.152600 1.979400
5.171500 2.217000
5.190400 2.256300
5.209300 2.094700
5.228100 1.941200
5.247000 1.793500
5.265900 1.615100
5.284800 1.378000
5.303700 1.116700
5.322500 0.675100
5.341400 0.329800
5.360300 0.316500
5.379200 0.303300
5.398000 0.290100
5.416900 0.277000
5.435800 0.264000
5.454700 0.251000
5.473600 0.238100
5.492400 0.225300
5.511300 0.212500
5.530200 0.199800
5.549100 0.187200
5.568000 0.174600
5.586800 0.162100
5.605700 0.149600
5.624600 0.137200
5.643500 0.124900
5.662300 0.112600
5.681200 0.100400
5.700100 0.088300
5.719000 0.076200
5.737900 0.065900
5.756700 0.058100
5.775600 0.051000
5.794500 0.044300
5.813400 0.038300
5.832300 0.032800
5.851100 0.027800
5.870000 0.023500
5.888900 0.019600
5.907800 0.016100
5.926600 0.012800
5.945500 0.009900
5.964400 0.007200
5.983300 0.004900
6.002200 0.002900
6.021000 0.001200
6.039900 0.000000
6.058800 0.000000
6.077700 0.000000
6.096600 0.000000
6.115400 0.000000
6.134300 0.000000
6.153200 0.000000
6.172100 0.000000
6.190900 0.000000
6.209800 0.000000
6.228700 0.000000
6.247600 0.000000
6.266500 0.000000
6.285300 0.000000
6.304200 0.000000
6.323100 0.000000
6.342000 0.000000
6.360900 0.000000
6.379700 0.000000
6.398600 0.000000
6.417500 0.000000
6.436400 0.000000
6.455200 0.000000
6.474100 0.000000
6.493000 0.000000
6.511900 0.000000
6.530800 0.000000
6.549600 0.000000
6.568500 0.000000
6.587400 0.000000
6.606300 0.000000
6.625200 0.000000
6.644000 0.000000
6.662900 0.000000
6.681800 0.000000
6.700700 0.000000
6.719500 0.000000
6.738400 0.000000
6.757300 0.000000
6.776200 0.000000
6.795100 0.000000
6.813900 0.000000
6.832800 0.000000
6.851700 0.000000
6.870600 0.000000
6.889500 0.000000
6.908300 0.000000
6.927200 0.000000
6.946100 0.000000
6.965000 0.000000
6.983900 0.000000
7.002700 0.000000
7.021600 0.000000
7.040500 0.000000
7.059400 0.000000
7.078200 0.000000
7.097100 0.000000
7.116000 0.000000
7.134900 0.000000
7.153800 0.000000
7.172600 0.000000
7.191500 0.000000
7.210400 0.000000
7.229300 0.000000
7.248200 0.000000
7.267000 0.000000
7.285900 0.000000
7.304800 0.000000
7.323700 0.000000
7.342500 0.000000
7.361400 0.000000
7.380300 0.000000
7.399200 0.000000
7.418100 0.000000
7.436900 0.000000
7.455800 0.000000
7.474700 0.000000
7.493600 0.000000
7.512500 0.000000
7.531300 0.000000
7.550200 0.000000
7.569100 0.009700
7.588000 0.270800
7.606800 0.737900
7.625700 1.279700
7.644600 1.832400
7.663500 2.448400
7.682400 2.602600
7.701200 2.657500
7.720100 2.587100
7.739000 2.648200
7.757900 2.772900
7.776800 2.929300
7.795600 3.117500
7.814500 3.329000
7.833400 3.564600
7.852300 4.196100
7.871100 4.412100
7.890000 4.169000
7.908900 3.863100
7.927800 3.544200
7.946700 3.240400
7.965500 2.941600
7.984400 2.649700
8.003300 2.364700
8.022200 2.087200
8.041100 1.971500
8.059900 1.952700
8.078800 1.947700
8.097700 1.949300
