set title 'mp-1184493 - Density of States'
set xlabel 'Energy (eV)'
set ylabel 'DOS (states/eV)'
set grid
set xrange [-10:10]
set yrange [0:82.201]
set xzeroaxis lt -1
set terminal png size 800,600
set output 'mp-1184493_dos_gnuplot.png'
plot '-' using 1:2 with lines title 'DOS'
-10.114900 0.000000
-10.094900 0.000000
-10.074800 0.000000
-10.054800 0.000000
-10.034800 0.000000
-10.014700 0.000000
-9.994700 0.000000
-9.974700 0.000000
-9.954600 0.000000
-9.934600 0.000000
-9.914600 0.000000
-9.894500 0.000000
-9.874500 0.000000
-9.854500 0.000000
-9.834400 0.000000
-9.814400 0.000000
-9.794300 0.000000
-9.774300 0.000000
-9.754300 0.000000
-9.734200 0.000000
-9.714200 0.000000
-9.694200 0.000000
-9.674100 0.000000
-9.654100 0.000000
-9.634100 0.000000
-9.614000 0.000000
-9.594000 0.000000
-9.574000 0.000000
-9.553900 0.000000
-9.533900 0.000000
-9.513900 0.000000
-9.493800 0.000000
-9.473800 0.000000
-9.453700 0.000000
-9.433700 0.000000
-9.413700 0.000000
-9.393600 0.000000
-9.373600 0.000000
-9.353600 0.000000
-9.333500 0.000000
-9.313500 0.000000
-9.293500 0.000000
-9.273400 0.000000
-9.253400 0.000000
-9.233400 0.000000
-9.213300 0.000000
-9.193300 0.000000
-9.173300 0.000000
-9.153200 0.000000
-9.133200 0.000000
-9.113100 0.000000
-9.093100 0.000000
-9.073100 0.000000
-9.053000 0.000000
-9.033000 0.000000
-9.013000 0.000000
-8.992900 0.000000
-8.972900 0.000000
-8.952900 0.000000
-8.932800 0.000000
-8.912800 0.000000
-8.892800 0.000000
-8.872700 0.000000
-8.852700 0.000000
-8.832700 0.000000
-8.812600 0.000000
-8.792600 0.000000
-8.772500 0.000000
-8.752500 0.000000
-8.732500 0.000000
-8.712400 0.000000
-8.692400 0.000000
-8.672400 0.000000
-8.652300 0.000000
-8.632300 0.000000
-8.612300 0.000000
-8.592200 0.000000
-8.572200 0.000000
-8.552200 0.000000
-8.532100 0.000000
-8.512100 0.000000
-8.492100 0.000000
-8.472000 0.000000
-8.452000 0.000000
-8.431900 0.000000
-8.411900 0.000400
-8.391900 0.003200
-8.371800 0.018900
-8.351800 0.085500
-8.331800 0.296700
-8.311700 0.800100
-8.291700 1.722200
-8.271700 3.090000
-8.251600 4.920400
-8.231600 7.482800
-8.211600 11.448500
-8.191500 17.598200
-8.171500 26.146700
-8.151500 36.191500
-8.131400 45.722000
-8.111400 52.445200
-8.091300 55.347800
-8.071300 55.690100
-8.051300 55.985800
-8.031200 57.813900
-8.011200 60.737600
-7.991200 63.116600
-7.971100 63.726700
-7.951100 63.029100
-7.931100 63.147400
-7.911000 65.907100
-7.891000 70.591000
-7.871000 74.325000
-7.850900 74.728100
-7.830900 71.674300
-7.810900 66.920200
-7.790800 62.518300
-7.770800 59.012200
-7.750700 54.818200
-7.730700 47.807300
-7.710700 37.666300
-7.690600 26.421400
-7.670600 16.690700
-7.650600 9.832500
-7.630500 5.651500
-7.610500 3.222800
-7.590500 1.741500
-7.570400 0.822000
-7.550400 0.316500
-7.530400 0.095500
-7.510300 0.022100
-7.490300 0.003900
-7.470300 0.000500
-7.450200 0.000100
-7.430200 0.000000
-7.410100 0.000000
-7.390100 0.000000
-7.370100 0.000000
-7.350000 0.000000
-7.330000 0.000000
-7.310000 0.000000
-7.289900 0.000000
-7.269900 0.000000
-7.249900 0.000000
-7.229800 0.000000
-7.209800 0.000000
-7.189800 0.000000
-7.169700 0.000000
-7.149700 0.000000
-7.129700 0.000000
-7.109600 0.000000
-7.089600 0.000000
-7.069500 0.000000
-7.049500 0.000000
-7.029500 0.000000
-7.009400 0.000000
-6.989400 0.000000
-6.969400 0.000000
-6.949300 0.000000
-6.929300 0.000000
-6.909300 0.000000
-6.889200 0.000000
-6.869200 0.000000
-6.849200 0.000000
-6.829100 0.000000
-6.809100 0.000000
-6.789100 0.000000
-6.769000 0.000000
-6.749000 0.000000
-6.728900 0.000000
-6.708900 0.000000
-6.688900 0.000000
-6.668800 0.000000
-6.648800 0.000000
-6.628800 0.000000
-6.608700 0.000000
-6.588700 0.000000
-6.568700 0.000000
-6.548600 0.000000
-6.528600 0.000000
-6.508600 0.000000
-6.488500 0.000000
-6.468500 0.000000
-6.448500 0.000000
-6.428400 0.000000
-6.408400 0.000000
-6.388300 0.000000
-6.368300 0.000000
-6.348300 0.000000
-6.328200 0.000000
-6.308200 0.000000
-6.288200 0.000000
-6.268100 0.000000
-6.248100 0.000000
-6.228100 0.000000
-6.208000 0.000000
-6.188000 0.000000
-6.168000 0.000000
-6.147900 0.000000
-6.127900 0.000000
-6.107900 0.000000
-6.087800 0.000000
-6.067800 0.000000
-6.047700 0.000000
-6.027700 0.000000
-6.007700 0.000000
-5.987600 0.000000
-5.967600 0.000000
-5.947600 0.000000
-5.927500 0.000000
-5.907500 0.000000
-5.887500 0.000000
-5.867400 0.000000
-5.847400 0.000000
-5.827400 0.000000
-5.807300 0.000000
-5.787300 0.000000
-5.767200 0.000000
-5.747200 0.000000
-5.727200 0.000000
-5.707100 0.000000
-5.687100 0.000000
-5.667100 0.000000
-5.647000 0.000000
-5.627000 0.000000
-5.607000 0.000000
-5.586900 0.000000
-5.566900 0.000000
-5.546900 0.000000
-5.526800 0.000000
-5.506800 0.000000
-5.486800 0.000000
-5.466700 0.000000
-5.446700 0.000000
-5.426600 0.000000
-5.406600 0.000000
-5.386600 0.000000
-5.366500 0.000000
-5.346500 0.000000
-5.326500 0.000000
-5.306400 0.000000
-5.286400 0.000000
-5.266400 0.000000
-5.246300 0.000000
-5.226300 0.000000
-5.206300 0.000000
-5.186200 0.000000
-5.166200 0.000000
-5.146200 0.000000
-5.126100 0.000000
-5.106100 0.000000
-5.086000 0.000000
-5.066000 0.000000
-5.046000 0.000000
-5.025900 0.000000
-5.005900 0.000000
-4.985900 0.000000
-4.965800 0.000000
-4.945800 0.000000
-4.925800 0.000000
-4.905700 0.000000
-4.885700 0.000000
-4.865700 0.000000
-4.845600 0.000000
-4.825600 0.000000
-4.805600 0.000000
-4.785500 0.000000
-4.765500 0.000000
-4.745400 0.000000
-4.725400 0.000000
-4.705400 0.000000
-4.685300 0.000000
-4.665300 0.000000
-4.645300 0.000000
-4.625200 0.000000
-4.605200 0.000000
-4.585200 0.000000
-4.565100 0.000000
-4.545100 0.000000
-4.525100 0.000000
-4.505000 0.000000
-4.485000 0.000000
-4.465000 0.000000
-4.444900 0.000000
-4.424900 0.000000
-4.404800 0.000000
-4.384800 0.000000
-4.364800 0.000000
-4.344700 0.000000
-4.324700 0.000000
-4.304700 0.000000
-4.284600 0.000000
-4.264600 0.000000
-4.244600 0.000000
-4.224500 0.000000
-4.204500 0.000000
-4.184500 0.000000
-4.164400 0.000000
-4.144400 0.000000
-4.124400 0.000000
-4.104300 0.000000
-4.084300 0.000000
-4.064200 0.000000
-4.044200 0.000000
-4.024200 0.000000
-4.004100 0.000000
-3.984100 0.000000
-3.964100 0.000000
-3.944000 0.000000
-3.924000 0.000000
-3.904000 0.000000
-3.883900 0.000000
-3.863900 0.000000
-3.843900 0.000000
-3.823800 0.000000
-3.803800 0.000000
-3.783800 0.000000
-3.763700 0.000000
-3.743700 0.000000
-3.723600 0.000000
-3.703600 0.000000
-3.683600 0.000000
-3.663500 0.000000
-3.643500 0.000000
-3.623500 0.000000
-3.603400 0.000000
-3.583400 0.000000
-3.563400 0.000000
-3.543300 0.000000
-3.523300 0.000000
-3.503300 0.000000
-3.483200 0.000000
-3.463200 0.000000
-3.443200 0.000000
-3.423100 0.000000
-3.403100 0.000000
-3.383000 0.000000
-3.363000 0.000000
-3.343000 0.000000
-3.322900 0.000000
-3.302900 0.000000
-3.282900 0.000000
-3.262800 0.000000
-3.242800 0.000000
-3.222800 0.000000
-3.202700 0.000000
-3.182700 0.000000
-3.162700 0.000000
-3.142600 0.000000
-3.122600 0.000000
-3.102600 0.000000
-3.082500 0.000000
-3.062500 0.000000
-3.042400 0.000000
-3.022400 0.000000
-3.002400 0.000000
-2.982300 0.000000
-2.962300 0.000000
-2.942300 0.000000
-2.922200 0.000000
-2.902200 0.000000
-2.882200 0.000000
-2.862100 0.000000
-2.842100 0.000000
-2.822100 0.000000
-2.802000 0.000000
-2.782000 0.000000
-2.762000 0.000000
-2.741900 0.000000
-2.721900 0.000100
-2.701800 0.000500
-2.681800 0.002300
-2.661800 0.007700
-2.641700 0.019500
-2.621700 0.037400
-2.601700 0.057600
-2.581600 0.077500
-2.561600 0.098800
-2.541600 0.123900
-2.521500 0.160000
-2.501500 0.222000
-2.481500 0.307900
-2.461400 0.373900
-2.441400 0.365400
-2.421400 0.278100
-2.401300 0.165300
-2.381300 0.088600
-2.361200 0.081000
-2.341200 0.150800
-2.321200 0.282800
-2.301100 0.428100
-2.281100 0.519800
-2.261100 0.525600
-2.241000 0.475100
-2.221000 0.429500
-2.201000 0.438100
-2.180900 0.508900
-2.160900 0.583500
-2.140900 0.567500
-2.120800 0.434400
-2.100800 0.267700
-2.080800 0.168400
-2.060700 0.161800
-2.040700 0.206300
-2.020600 0.267200
-2.000600 0.361200
-1.980600 0.512500
-1.960500 0.675200
-1.940500 0.754500
-1.920500 0.715700
-1.900400 0.628200
-1.880400 0.590600
-1.860400 0.642700
-1.840300 0.737400
-1.820300 0.770700
-1.800300 0.667800
-1.780200 0.460100
-1.760200 0.258600
-1.740200 0.159600
-1.720100 0.198500
-1.700100 0.358600
-1.680000 0.586600
-1.660000 0.808000
-1.640000 0.953300
-1.619900 0.980100
-1.599900 0.898600
-1.579900 0.778200
-1.559800 0.699700
-1.539800 0.690300
-1.519800 0.707300
-1.499700 0.683700
-1.479700 0.595200
-1.459700 0.489800
-1.439600 0.435700
-1.419600 0.440900
-1.399600 0.465600
-1.379500 0.512500
-1.359500 0.622300
-1.339400 0.766200
-1.319400 0.834600
-1.299400 0.769200
-1.279300 0.650800
-1.259300 0.636300
-1.239300 0.822300
-1.219200 1.137300
-1.199200 1.359400
-1.179200 1.298000
-1.159100 0.975100
-1.139100 0.595400
-1.119100 0.368300
-1.099000 0.405300
-1.079000 0.718300
-1.059000 1.192300
-1.038900 1.574600
-1.018900 1.626600
-0.998800 1.342200
-0.978800 0.948600
-0.958800 0.681100
-0.938700 0.610200
-0.918700 0.654700
-0.898700 0.686300
-0.878600 0.630500
-0.858600 0.507900
-0.838600 0.391000
-0.818500 0.328600
-0.798500 0.323000
-0.778500 0.364200
-0.758400 0.454100
-0.738400 0.589500
-0.718400 0.747300
-0.698300 0.908600
-0.678300 1.091700
-0.658200 1.346200
-0.638200 1.669400
-0.618200 1.910300
-0.598100 1.845400
-0.578100 1.429200
-0.558100 0.893300
-0.538000 0.536800
-0.518000 0.484900
-0.498000 0.655200
-0.477900 0.871000
-0.457900 0.988600
-0.437900 0.973100
-0.417800 0.900400
-0.397800 0.894600
-0.377800 1.030500
-0.357700 1.252500
-0.337700 1.385500
-0.317600 1.279900
-0.297600 0.972100
-0.277600 0.666700
-0.257500 0.553500
-0.237500 0.659300
-0.217500 0.858400
-0.197400 0.995200
-0.177400 0.987700
-0.157400 0.856600
-0.137300 0.714900
-0.117300 0.712800
-0.097300 0.921800
-0.077200 1.243700
-0.057200 1.457800
-0.037100 1.417000
-0.017100 1.213000
0.002900 1.075100
0.023000 1.099300
0.043000 1.176500
0.063000 1.176300
0.083100 1.090600
0.103100 0.995000
0.123100 0.959700
0.143200 0.998100
0.163200 1.061900
0.183200 1.113000
0.203300 1.187700
0.223300 1.321500
0.243300 1.468300
0.263400 1.585600
0.283400 1.709200
0.303500 1.838900
0.323500 1.866800
0.343500 1.718400
0.363600 1.482400
0.383600 1.336200
0.403600 1.383500
0.423700 1.583700
0.443700 1.803600
0.463700 1.906300
0.483800 1.828100
0.503800 1.615800
0.523800 1.377500
0.543900 1.185700
0.563900 1.036400
0.583900 0.916100
0.604000 0.889800
0.624000 1.057300
0.644100 1.400400
0.664100 1.735600
0.684100 1.871600
0.704200 1.782700
0.724200 1.576200
0.744200 1.336400
0.764300 1.074800
0.784300 0.815100
0.804300 0.649400
0.824400 0.667400
0.844400 0.848900
0.864400 1.077200
0.884500 1.267200
0.904500 1.434400
0.924500 1.605000
0.944600 1.706100
0.964600 1.637000
0.984700 1.446000
1.004700 1.316900
1.024700 1.357000
1.044800 1.499300
1.064800 1.628000
1.084800 1.710300
1.104900 1.778500
1.124900 1.825500
1.144900 1.773400
1.165000 1.583000
1.185000 1.347400
1.205000 1.205300
1.225100 1.210900
1.245100 1.353300
1.265100 1.638100
1.285200 2.075400
1.305200 2.618000
1.325300 3.150700
1.345300 3.503700
1.365300 3.498900
1.385400 3.106900
1.405400 2.579800
1.425400 2.305200
1.445500 2.498700
1.465500 3.087300
1.485500 3.836000
1.505600 4.492200
1.525600 4.831300
1.545600 4.698000
1.565700 4.123500
1.585700 3.361600
1.605700 2.703300
1.625800 2.296500
1.645800 2.216000
1.665900 2.575400
1.685900 3.408600
1.705900 4.467500
1.726000 5.268600
1.746000 5.453000
1.766000 5.123300
1.786100 4.754300
1.806100 4.728400
1.826100 4.999500
1.846200 5.278800
1.866200 5.543600
1.886200 6.227600
1.906300 7.791200
1.926300 10.151200
1.946300 12.628000
1.966400 14.510800
1.986400 15.712200
2.006500 16.837600
2.026500 18.603700
2.046500 21.201900
2.066600 24.040500
2.086600 26.005800
2.106600 26.207300
2.126700 24.569000
2.146700 21.625600
2.166700 17.959300
2.186800 14.033000
2.206800 10.336600
2.226800 7.356700
2.246900 5.357900
2.266900 4.268600
2.286900 3.740100
2.307000 3.358200
2.327000 2.907500
2.347100 2.452500
2.367100 2.233400
2.387100 2.538500
2.407200 3.482200
2.427200 4.754000
2.447200 5.745700
2.467300 6.051200
2.487300 5.732200
2.507300 5.109500
2.527400 4.454600
2.547400 3.857900
2.567400 3.277300
2.587500 2.692700
2.607500 2.211300
2.627500 2.012000
2.647600 2.187300
2.667600 2.611200
2.687700 2.955000
2.707700 2.927500
2.727700 2.541900
2.747800 2.053900
2.767800 1.664700
2.787800 1.425000
2.807900 1.363600
2.827900 1.504500
2.847900 1.765400
2.868000 2.006800
2.888000 2.178400
2.908000 2.284300
2.928100 2.257400
2.948100 2.015800
2.968100 1.613100
2.988200 1.246700
3.008200 1.122500
3.028300 1.319300
3.048300 1.757000
3.068300 2.254400
3.088400 2.611500
3.108400 2.697700
3.128400 2.529900
3.148500 2.251400
3.168500 1.991400
3.188500 1.764800
3.208600 1.543600
3.228600 1.380900
3.248600 1.376700
3.268700 1.506300
3.288700 1.587300
3.308700 1.489400
3.328800 1.302500
3.348800 1.224300
3.368900 1.356800
3.388900 1.680500
3.408900 2.139900
3.429000 2.650200
3.449000 3.054100
3.469000 3.182300
3.489100 2.992100
3.509100 2.596400
3.529100 2.159100
3.549200 1.800300
3.569200 1.564300
3.589200 1.439800
3.609300 1.416700
3.629300 1.487800
3.649300 1.602300
3.669400 1.702100
3.689400 1.785700
3.709500 1.850100
3.729500 1.818600
3.749500 1.632800
3.769600 1.386600
3.789600 1.267100
3.809600 1.350200
3.829700 1.522000
3.849700 1.624900
3.869700 1.645300
3.889800 1.702900
3.909800 1.847100
3.929800 1.955100
3.949900 1.898500
3.969900 1.722400
3.989900 1.573200
4.010000 1.517100
4.030000 1.487500
4.050100 1.367400
4.070100 1.116700
4.090100 0.843700
4.110200 0.715700
4.130200 0.788500
4.150200 0.983100
4.170300 1.221800
4.190300 1.495300
4.210300 1.782600
4.230400 1.991900
4.250400 2.028200
4.270400 1.894000
4.290500 1.695200
4.310500 1.539700
4.330500 1.457100
4.350600 1.407900
4.370600 1.309300
4.390700 1.095600
4.410700 0.817900
4.430700 0.629700
4.450800 0.642800
4.470800 0.823600
4.490800 1.035500
4.510900 1.172100
4.530900 1.237500
4.550900 1.298300
4.571000 1.396400
4.591000 1.524600
4.611000 1.624600
4.631100 1.597100
4.651100 1.411300
4.671100 1.195100
4.691200 1.104400
4.711200 1.156500
4.731300 1.287800
4.751300 1.476900
4.771300 1.692000
4.791400 1.809300
4.811400 1.724800
4.831400 1.493100
4.851500 1.257200
4.871500 1.120400
4.891500 1.136700
4.911600 1.308400
4.931600 1.549500
4.951600 1.729600
4.971700 1.767700
4.991700 1.671800
5.011700 1.533600
5.031800 1.503500
5.051800 1.706500
5.071900 2.117300
5.091900 2.538000
5.111900 2.741000
5.132000 2.645200
5.152000 2.365800
5.172000 2.105700
5.192100 1.998700
5.212100 2.045000
5.232100 2.142300
5.252200 2.150100
5.272200 2.009200
5.292200 1.846100
5.312300 1.853100
5.332300 2.032400
5.352300 2.175400
5.372400 2.122900
5.392400 1.930500
5.412500 1.750100
5.432500 1.643000
5.452500 1.573100
5.472600 1.520000
5.492600 1.482900
5.512600 1.419500
5.532700 1.326000
5.552700 1.316000
5.572700 1.466900
5.592800 1.643900
5.612800 1.607300
5.632800 1.281000
5.652900 0.843400
5.672900 0.564200
5.692900 0.607600
5.713000 0.956400
5.733000 1.424500
5.753100 1.748500
5.773100 1.776100
5.793100 1.576200
5.813200 1.325300
5.833200 1.147400
5.853200 1.100500
5.873300 1.206200
5.893300 1.409700
5.913300 1.581700
5.933400 1.636700
5.953400 1.618100
5.973400 1.611300
5.993500 1.631700
6.013500 1.658200
6.033600 1.696600
6.053600 1.739400
6.073600 1.735100
6.093700 1.661000
6.113700 1.577300
6.133700 1.560100
6.153800 1.617900
6.173800 1.718100
6.193800 1.845200
6.213900 1.996100
6.233900 2.152500
6.253900 2.266200
6.274000 2.269000
6.294000 2.148900
6.314000 1.997600
6.334100 1.911300
6.354100 1.873000
6.374200 1.809100
6.394200 1.741800
6.414200 1.778300
6.434300 1.930800
6.454300 2.082300
6.474300 2.171600
6.494400 2.263700
6.514400 2.371000
6.534400 2.359700
6.554500 2.145100
6.574500 1.859300
6.594500 1.684800
6.614600 1.603600
6.634600 1.460600
6.654600 1.219400
6.674700 1.006000
6.694700 0.917000
6.714800 0.920600
6.734800 0.974600
6.754800 1.111800
6.774900 1.337200
6.794900 1.546000
6.814900 1.637300
6.835000 1.642400
6.855000 1.661400
6.875000 1.721200
6.895100 1.756400
6.915100 1.708200
6.935100 1.599400
6.955200 1.522100
6.975200 1.565200
6.995200 1.730000
7.015300 1.887300
7.035300 1.863000
7.055400 1.628400
7.075400 1.360000
7.095400 1.252900
7.115500 1.327700
7.135500 1.471000
7.155500 1.623700
7.175600 1.838500
7.195600 2.108000
7.215600 2.255200
7.235700 2.139200
7.255700 1.884900
7.275700 1.740400
7.295800 1.764700
7.315800 1.812200
7.335800 1.768400
7.355900 1.671000
7.375900 1.613900
7.396000 1.606600
7.416000 1.553600
7.436000 1.385400
7.456100 1.183600
7.476100 1.122500
7.496100 1.277600
7.516200 1.538100
7.536200 1.739200
7.556200 1.834400
7.576300 1.869100
7.596300 1.861800
7.616300 1.830600
7.636400 1.860900
7.656400 2.010700
7.676400 2.196500
7.696500 2.273500
7.716500 2.223500
7.736600 2.184300
7.756600 2.247600
7.776600 2.307100
7.796700 2.219600
7.816700 2.039900
7.836700 1.932600
7.856800 1.943300
7.876800 2.028500
7.896800 2.188300
7.916900 2.391900
7.936900 2.503000
7.956900 2.422800
7.977000 2.215100
7.997000 2.020800
8.017000 1.914200
8.037100 1.857300
8.057100 1.743800
8.077200 1.486600
8.097200 1.120400
8.117200 0.811200
8.137300 0.710400
8.157300 0.821300
8.177300 1.042200
8.197400 1.286100
8.217400 1.499400
8.237400 1.608000
8.257500 1.551400
8.277500 1.394500
8.297500 1.299000
8.317600 1.328900
8.337600 1.374100
8.357600 1.325800
8.377700 1.248500
8.397700 1.292000
8.417800 1.487700
8.437800 1.727000
8.457800 1.893100
8.477900 1.921500
8.497900 1.792500
8.517900 1.563400
8.538000 1.360300
8.558000 1.285500
8.578000 1.373900
8.598100 1.586800
8.618100 1.786200
8.638100 1.829700
8.658200 1.759900
8.678200 1.786900
8.698200 2.027100
8.718300 2.346400
8.738300 2.507300
8.758400 2.420700
8.778400 2.216200
8.798400 2.101000
8.818500 2.192200
8.838500 2.442000
8.858500 2.683800
8.878600 2.794600
8.898600 2.805200
8.918600 2.806200
8.938700 2.802600
8.958700 2.725800
8.978700 2.557800
8.998800 2.387800
9.018800 2.326800
9.038800 2.384700
9.058900 2.452500
9.078900 2.407900
9.099000 2.243900
9.119000 2.075300
9.139000 2.021900
9.159100 2.079800
9.179100 2.107100
9.199100 1.980800
9.219200 1.746800
9.239200 1.553000
9.259200 1.478200
9.279300 1.482200
9.299300 1.481600
9.319300 1.411100
9.339400 1.239800
9.359400 1.017400
9.379400 0.883400
9.399500 0.940800
9.419500 1.147400
9.439600 1.395700
9.459600 1.663500
9.479600 2.002800
9.499700 2.406300
9.519700 2.749800
9.539700 2.844000
9.559800 2.575400
9.579800 2.071600
9.599800 1.649500
9.619900 1.510300
9.639900 1.546900
9.659900 1.515900
9.680000 1.332500
9.700000 1.110500
9.720000 0.980800
9.740100 0.972500
9.760100 1.034000
9.780200 1.113500
9.800200 1.238600
9.820200 1.506400
9.840300 1.982500
9.860300 2.605600
9.880300 3.155900
9.900400 3.363900
9.920400 3.156400
9.940400 2.751300
9.960500 2.429100
9.980500 2.273000
10.000500 2.192300
10.020600 2.130700
10.040600 2.148000
10.060600 2.290700
10.080700 2.489200
10.100700 2.641200
10.120800 2.718100
10.140800 2.712600
10.160800 2.568500
10.180900 2.279700
10.200900 1.990000
10.220900 1.903800
10.241000 2.125200
10.261000 2.568100
10.281000 2.955000
10.301100 2.978200
10.321100 2.595400
10.341100 2.133600
10.361200 1.962300
10.381200 2.081600
10.401200 2.194800
10.421300 2.153800
10.441300 2.096100
10.461400 2.139500
10.481400 2.192800
10.501400 2.125000
10.521500 1.952900
10.541500 1.793400
10.561500 1.731000
10.581600 1.793100
10.601600 1.962900
10.621600 2.142800
10.641700 2.205100
10.661700 2.143200
10.681700 2.097800
10.701800 2.242700
10.721800 2.664800
10.741800 3.218000
10.761900 3.513200
10.781900 3.267200
10.802000 2.633700
10.822000 2.032000
10.842000 1.726000
10.862100 1.679300
10.882100 1.728800
10.902100 1.793400
10.922200 1.905100
10.942200 2.084100
10.962200 2.263700
10.982300 2.377900
11.002300 2.442700
11.022300 2.471000
11.042400 2.394600
11.062400 2.185300
11.082400 1.970300
11.102500 1.909700
11.122500 2.010100
