set title 'mp-1187007 - Density of States'
set xlabel 'Energy (eV)'
set ylabel 'DOS (states/eV)'
set grid
set xrange [-10:10]
set yrange [0:80.812]
set xzeroaxis lt -1
set terminal png size 800,600
set output 'mp-1187007_dos_gnuplot.png'
plot '-' using 1:2 with lines title 'DOS'
-12.179800 0.000000
-12.160400 0.000000
-12.141000 0.000000
-12.121600 0.000000
-12.102200 0.000000
-12.082800 0.000000
-12.063400 0.000000
-12.044000 0.000000
-12.024600 0.000000
-12.005200 0.000000
-11.985800 0.000000
-11.966400 0.000000
-11.947000 0.000000
-11.927600 0.000000
-11.908200 0.000000
-11.888800 0.000000
-11.869400 0.000000
-11.850000 0.000000
-11.830600 0.000000
-11.811200 0.000000
-11.791800 0.000000
-11.772400 0.000000
-11.753000 0.000000
-11.733600 0.000000
-11.714200 0.000000
-11.694800 0.000000
-11.675400 0.000000
-11.656000 0.000000
-11.636600 0.000000
-11.617200 0.000000
-11.597800 0.000000
-11.578400 0.000000
-11.559000 0.000000
-11.539600 0.000000
-11.520200 0.000000
-11.500800 0.000000
-11.481400 0.000000
-11.462000 0.000000
-11.442600 0.000000
-11.423200 0.000000
-11.403800 0.000000
-11.384400 0.000000
-11.365000 0.000000
-11.345600 0.000000
-11.326200 0.000000
-11.306800 0.000000
-11.287400 0.000000
-11.268000 0.000000
-11.248600 0.000000
-11.229200 0.000000
-11.209800 0.000000
-11.190400 0.000000
-11.171000 0.000000
-11.151600 0.000000
-11.132200 0.000000
-11.112800 0.000000
-11.093400 0.000000
-11.074000 0.000000
-11.054600 0.000000
-11.035200 0.000000
-11.015800 0.000000
-10.996400 0.000000
-10.977000 0.000000
-10.957600 0.000000
-10.938200 0.000000
-10.918800 0.000000
-10.899400 0.000000
-10.880000 0.000000
-10.860600 0.000000
-10.841200 0.000000
-10.821800 0.000000
-10.802400 0.000000
-10.783000 0.000000
-10.763600 0.000000
-10.744200 0.000000
-10.724800 0.000000
-10.705400 0.000000
-10.686000 0.000000
-10.666600 0.000000
-10.647200 0.000000
-10.627800 0.000000
-10.608400 0.000000
-10.589000 0.000000
-10.569600 0.000000
-10.550200 0.000100
-10.530800 0.000900
-10.511400 0.006500
-10.492000 0.035000
-10.472600 0.146600
-10.453200 0.480900
-10.433800 1.264900
-10.414400 2.764200
-10.395000 5.280700
-10.375600 9.319700
-10.356200 15.704800
-10.336800 25.125100
-10.317400 37.145600
-10.298000 49.710800
-10.278600 60.111700
-10.259200 66.872700
-10.239800 70.728100
-10.220400 73.538900
-10.201000 76.174700
-10.181600 77.699000
-10.162200 76.865900
-10.142800 74.075400
-10.123400 71.375100
-10.104000 70.888000
-10.084600 73.505700
-10.065200 78.125200
-10.045800 81.735400
-10.026400 81.684200
-10.007000 78.266500
-9.987600 73.465900
-9.968200 67.217600
-9.948800 57.147400
-9.929400 42.494800
-9.910000 26.395600
-9.890600 13.324800
-9.871200 5.388900
-9.851800 1.734800
-9.832400 0.443600
-9.813000 0.090000
-9.793600 0.014500
-9.774200 0.001800
-9.754800 0.000200
-9.735400 0.000000
-9.716000 0.000000
-9.696600 0.000000
-9.677200 0.000000
-9.657800 0.000000
-9.638400 0.000000
-9.619000 0.000000
-9.599600 0.000000
-9.580200 0.000000
-9.560800 0.000000
-9.541400 0.000000
-9.522000 0.000000
-9.502600 0.000000
-9.483200 0.000000
-9.463800 0.000000
-9.444400 0.000000
-9.425000 0.000000
-9.405600 0.000000
-9.386200 0.000000
-9.366800 0.000000
-9.347400 0.000000
-9.328000 0.000000
-9.308600 0.000000
-9.289200 0.000000
-9.269800 0.000000
-9.250400 0.000000
-9.231000 0.000000
-9.211600 0.000000
-9.192200 0.000000
-9.172800 0.000000
-9.153400 0.000000
-9.134000 0.000000
-9.114600 0.000000
-9.095200 0.000000
-9.075800 0.000000
-9.056400 0.000000
-9.037000 0.000000
-9.017600 0.000000
-8.998200 0.000000
-8.978800 0.000000
-8.959400 0.000000
-8.940000 0.000000
-8.920600 0.000000
-8.901200 0.000000
-8.881800 0.000000
-8.862300 0.000000
-8.842900 0.000000
-8.823500 0.000000
-8.804100 0.000000
-8.784700 0.000000
-8.765300 0.000000
-8.745900 0.000000
-8.726500 0.000000
-8.707100 0.000000
-8.687700 0.000000
-8.668300 0.000000
-8.648900 0.000000
-8.629500 0.000000
-8.610100 0.000000
-8.590700 0.000000
-8.571300 0.000000
-8.551900 0.000000
-8.532500 0.000000
-8.513100 0.000000
-8.493700 0.000000
-8.474300 0.000000
-8.454900 0.000000
-8.435500 0.000000
-8.416100 0.000000
-8.396700 0.000000
-8.377300 0.000000
-8.357900 0.000000
-8.338500 0.000000
-8.319100 0.000000
-8.299700 0.000000
-8.280300 0.000000
-8.260900 0.000000
-8.241500 0.000000
-8.222100 0.000000
-8.202700 0.000000
-8.183300 0.000000
-8.163900 0.000000
-8.144500 0.000000
-8.125100 0.000000
-8.105700 0.000000
-8.086300 0.000000
-8.066900 0.000000
-8.047500 0.000000
-8.028100 0.000000
-8.008700 0.000000
-7.989300 0.000000
-7.969900 0.000000
-7.950500 0.000000
-7.931100 0.000000
-7.911700 0.000000
-7.892300 0.000000
-7.872900 0.000000
-7.853500 0.000000
-7.834100 0.000000
-7.814700 0.000000
-7.795300 0.000000
-7.775900 0.000000
-7.756500 0.000000
-7.737100 0.000000
-7.717700 0.000000
-7.698300 0.000000
-7.678900 0.000000
-7.659500 0.000000
-7.640100 0.000000
-7.620700 0.000000
-7.601300 0.000000
-7.581900 0.000000
-7.562500 0.000000
-7.543100 0.000000
-7.523700 0.000000
-7.504300 0.000000
-7.484900 0.000000
-7.465500 0.000000
-7.446100 0.000000
-7.426700 0.000000
-7.407300 0.000000
-7.387900 0.000000
-7.368500 0.000000
-7.349100 0.000000
-7.329700 0.000000
-7.310300 0.000000
-7.290900 0.000000
-7.271500 0.000000
-7.252100 0.000000
-7.232700 0.000000
-7.213300 0.000000
-7.193900 0.000000
-7.174500 0.000000
-7.155100 0.000000
-7.135700 0.000000
-7.116300 0.000000
-7.096900 0.000000
-7.077500 0.000000
-7.058100 0.000000
-7.038700 0.000000
-7.019300 0.000000
-6.999900 0.000000
-6.980500 0.000000
-6.961100 0.000000
-6.941700 0.000000
-6.922300 0.000000
-6.902900 0.000000
-6.883500 0.000000
-6.864100 0.000000
-6.844700 0.000000
-6.825300 0.000000
-6.805900 0.000000
-6.786500 0.000000
-6.767100 0.000000
-6.747700 0.000000
-6.728300 0.000000
-6.708900 0.000000
-6.689500 0.000000
-6.670100 0.000000
-6.650700 0.000000
-6.631300 0.000000
-6.611900 0.000000
-6.592500 0.000000
-6.573100 0.000000
-6.553700 0.000000
-6.534300 0.000000
-6.514900 0.000000
-6.495500 0.000000
-6.476100 0.000000
-6.456700 0.000000
-6.437300 0.000000
-6.417900 0.000000
-6.398500 0.000000
-6.379100 0.000000
-6.359700 0.000000
-6.340300 0.000000
-6.320900 0.000000
-6.301500 0.000000
-6.282100 0.000000
-6.262700 0.000000
-6.243300 0.000000
-6.223900 0.000000
-6.204500 0.000000
-6.185100 0.000000
-6.165700 0.000000
-6.146300 0.000000
-6.126900 0.000000
-6.107500 0.000000
-6.088100 0.000000
-6.068700 0.000000
-6.049300 0.000000
-6.029900 0.000000
-6.010500 0.000000
-5.991100 0.000000
-5.971700 0.000000
-5.952300 0.000000
-5.932900 0.000000
-5.913500 0.000000
-5.894100 0.000000
-5.874700 0.000000
-5.855300 0.000000
-5.835900 0.000000
-5.816500 0.000000
-5.797100 0.000000
-5.777700 0.000000
-5.758300 0.000000
-5.738900 0.000000
-5.719500 0.000000
-5.700100 0.000000
-5.680700 0.000000
-5.661300 0.000000
-5.641900 0.000000
-5.622500 0.000000
-5.603100 0.000000
-5.583700 0.000000
-5.564300 0.000000
-5.544900 0.000000
-5.525500 0.000000
-5.506100 0.000000
-5.486700 0.000000
-5.467300 0.000000
-5.447900 0.000000
-5.428500 0.000000
-5.409100 0.000000
-5.389700 0.000000
-5.370300 0.000000
-5.350900 0.000000
-5.331500 0.000000
-5.312100 0.000000
-5.292700 0.000000
-5.273300 0.000000
-5.253900 0.000000
-5.234500 0.000000
-5.215100 0.000000
-5.195700 0.000000
-5.176300 0.000000
-5.156900 0.000000
-5.137500 0.000000
-5.118100 0.000000
-5.098700 0.000000
-5.079300 0.000000
-5.059900 0.000000
-5.040500 0.000000
-5.021100 0.000000
-5.001700 0.000000
-4.982300 0.000000
-4.962800 0.000000
-4.943400 0.000000
-4.924000 0.000000
-4.904600 0.000000
-4.885200 0.000000
-4.865800 0.000000
-4.846400 0.000000
-4.827000 0.000000
-4.807600 0.000200
-4.788200 0.001200
-4.768800 0.004400
-4.749400 0.012900
-4.730000 0.029000
-4.710600 0.052300
-4.691200 0.079500
-4.671800 0.107400
-4.652400 0.137600
-4.633000 0.180700
-4.613600 0.251200
-4.594200 0.340600
-4.574800 0.398700
-4.555400 0.373700
-4.536000 0.274000
-4.516600 0.167800
-4.497200 0.124800
-4.477800 0.174800
-4.458400 0.301200
-4.439000 0.448600
-4.419600 0.554700
-4.400200 0.590500
-4.380800 0.575000
-4.361400 0.560900
-4.342000 0.589200
-4.322600 0.629700
-4.303200 0.597500
-4.283800 0.458900
-4.264400 0.282800
-4.245000 0.168800
-4.225600 0.166300
-4.206200 0.262600
-4.186800 0.409700
-4.167400 0.553400
-4.148000 0.658800
-4.128600 0.719300
-4.109200 0.762800
-4.089800 0.840700
-4.070400 0.962400
-4.051000 1.037500
-4.031600 0.950600
-4.012200 0.703100
-3.992800 0.428600
-3.973400 0.265900
-3.954000 0.257800
-3.934600 0.358400
-3.915200 0.490000
-3.895800 0.601500
-3.876400 0.700300
-3.857000 0.827000
-3.837600 0.989500
-3.818200 1.118800
-3.798800 1.104600
-3.779400 0.904000
-3.760000 0.610000
-3.740600 0.388500
-3.721200 0.355200
-3.701800 0.512500
-3.682400 0.758600
-3.663000 0.954000
-3.643600 1.022800
-3.624200 0.995800
-3.604800 0.945600
-3.585400 0.919600
-3.566000 0.935500
-3.546600 0.966700
-3.527200 0.932000
-3.507800 0.777100
-3.488400 0.565500
-3.469000 0.446100
-3.449600 0.533100
-3.430200 0.819100
-3.410800 1.171200
-3.391400 1.409900
-3.372000 1.447400
-3.352600 1.364100
-3.333200 1.316800
-3.313800 1.362700
-3.294400 1.400900
-3.275000 1.293200
-3.255600 1.012900
-3.236200 0.664900
-3.216800 0.393300
-3.197400 0.281500
-3.178000 0.313900
-3.158600 0.411100
-3.139200 0.517600
-3.119800 0.661200
-3.100400 0.902100
-3.081000 1.231600
-3.061600 1.552200
-3.042200 1.736100
-3.022800 1.690700
-3.003400 1.436200
-2.984000 1.138200
-2.964600 0.988600
-2.945200 1.037500
-2.925800 1.183400
-2.906400 1.311300
-2.887000 1.385000
-2.867600 1.414400
-2.848200 1.392100
-2.828800 1.295200
-2.809400 1.118300
-2.790000 0.893900
-2.770600 0.707300
-2.751200 0.674400
-2.731800 0.833400
-2.712400 1.058600
-2.693000 1.152300
-2.673600 1.040600
-2.654200 0.838100
-2.634800 0.715500
-2.615400 0.746100
-2.596000 0.869900
-2.576600 0.972600
-2.557200 0.991600
-2.537800 0.942900
-2.518400 0.871000
-2.499000 0.824800
-2.479600 0.848100
-2.460200 0.934000
-2.440800 1.025000
-2.421400 1.104900
-2.402000 1.231400
-2.382600 1.421600
-2.363200 1.566600
-2.343800 1.528000
-2.324400 1.286100
-2.305000 0.961000
-2.285600 0.724200
-2.266200 0.687900
-2.246800 0.839400
-2.227400 1.073100
-2.208000 1.286300
-2.188600 1.440200
-2.169200 1.555600
-2.149800 1.673400
-2.130400 1.796300
-2.111000 1.859800
-2.091600 1.791100
-2.072200 1.614000
-2.052800 1.457100
-2.033400 1.415800
-2.014000 1.451100
-1.994600 1.474400
-1.975200 1.461800
-1.955800 1.429400
-1.936400 1.374500
-1.917000 1.304700
-1.897600 1.259300
-1.878200 1.236900
-1.858800 1.167600
-1.839400 1.024300
-1.820000 0.911500
-1.800600 0.986200
-1.781200 1.301400
-1.761800 1.731200
-1.742400 2.033200
-1.723000 2.007800
-1.703600 1.662900
-1.684200 1.234900
-1.664800 1.010400
-1.645400 1.103300
-1.626000 1.385100
-1.606600 1.603200
-1.587200 1.591000
-1.567800 1.397200
-1.548400 1.204800
-1.529000 1.139800
-1.509600 1.191800
-1.490200 1.299800
-1.470800 1.447400
-1.451400 1.639500
-1.432000 1.822500
-1.412600 1.886300
-1.393200 1.753200
-1.373800 1.466200
-1.354400 1.185000
-1.335000 1.068300
-1.315600 1.162100
-1.296200 1.411100
-1.276800 1.734800
-1.257400 2.058600
-1.238000 2.324500
-1.218600 2.518900
-1.199200 2.656700
-1.179800 2.718800
-1.160400 2.648900
-1.141000 2.446900
-1.121600 2.234800
-1.102200 2.144600
-1.082800 2.159600
-1.063300 2.161500
-1.043900 2.091300
-1.024500 1.971400
-1.005100 1.835500
-0.985700 1.705600
-0.966300 1.592200
-0.946900 1.498000
-0.927500 1.449300
-0.908100 1.489000
-0.888700 1.608500
-0.869300 1.741100
-0.849900 1.846200
-0.830500 1.931900
-0.811100 1.976200
-0.791700 1.913100
-0.772300 1.739000
-0.752900 1.561800
-0.733500 1.475100
-0.714100 1.438200
-0.694700 1.357300
-0.675300 1.263500
-0.655900 1.324400
-0.636500 1.632900
-0.617100 2.040300
-0.597700 2.298700
-0.578300 2.349600
-0.558900 2.332500
-0.539500 2.325400
-0.520100 2.271200
-0.500700 2.158400
-0.481300 2.071400
-0.461900 2.042400
-0.442500 1.996300
-0.423100 1.862900
-0.403700 1.675700
-0.384300 1.559000
-0.364900 1.625300
-0.345500 1.843900
-0.326100 2.022200
-0.306700 1.989800
-0.287300 1.801300
-0.267900 1.664700
-0.248500 1.671600
-0.229100 1.717000
-0.209700 1.699300
-0.190300 1.664800
-0.170900 1.699100
-0.151500 1.775700
-0.132100 1.792000
-0.112700 1.718900
-0.093300 1.643500
-0.073900 1.648700
-0.054500 1.703700
-0.035100 1.717400
-0.015700 1.665200
0.003700 1.620500
0.023100 1.660100
0.042500 1.758300
0.061900 1.812500
0.081300 1.784100
0.100700 1.744600
0.120100 1.757000
0.139500 1.786900
0.158900 1.768400
0.178300 1.701000
0.197700 1.657600
0.217100 1.711700
0.236500 1.868900
0.255900 2.074200
0.275300 2.262900
0.294700 2.375900
0.314100 2.358200
0.333500 2.201600
0.352900 1.974300
0.372300 1.753500
0.391700 1.551100
0.411100 1.356500
0.430500 1.215100
0.449900 1.202800
0.469300 1.336700
0.488700 1.553800
0.508100 1.775600
0.527500 1.960200
0.546900 2.082500
0.566300 2.107300
0.585700 2.015000
0.605100 1.842700
0.624500 1.678100
0.643900 1.612300
0.663300 1.694800
0.682700 1.911700
0.702100 2.188300
0.721500 2.431700
0.740900 2.591500
0.760300 2.670500
0.779700 2.678000
0.799100 2.610500
0.818500 2.482000
0.837900 2.334700
0.857300 2.199200
0.876700 2.058100
0.896100 1.854400
0.915500 1.558500
0.934900 1.253800
0.954300 1.127200
0.973700 1.314100
0.993100 1.748800
1.012500 2.187900
1.031900 2.368300
1.051300 2.168000
1.070700 1.685300
1.090100 1.167500
1.109500 0.826300
1.128900 0.713800
1.148300 0.748300
1.167700 0.802100
1.187100 0.780700
1.206500 0.671300
1.225900 0.528200
1.245300 0.405700
1.264700 0.323200
1.284100 0.288900
1.303500 0.313300
1.322900 0.380700
1.342300 0.431400
1.361700 0.406700
1.381100 0.312800
1.400500 0.213400
1.419900 0.157700
1.439300 0.140500
1.458700 0.129400
1.478100 0.107600
1.497500 0.082700
1.516900 0.065400
1.536300 0.053800
1.555700 0.040400
1.575100 0.024600
1.594500 0.011500
1.613900 0.004000
1.633300 0.001100
1.652700 0.000200
1.672100 0.000000
1.691500 0.000000
1.710900 0.000000
1.730300 0.000000
1.749700 0.000000
1.769100 0.000000
1.788500 0.000000
1.807900 0.000000
1.827300 0.000000
1.846700 0.000000
1.866100 0.000000
1.885500 0.000000
1.904900 0.000000
1.924300 0.000000
1.943700 0.000000
1.963100 0.000000
1.982500 0.000000
2.001900 0.000000
2.021300 0.000000
2.040700 0.000000
2.060100 0.000000
2.079500 0.000000
2.098900 0.000000
2.118300 0.000000
2.137700 0.000000
2.157100 0.000000
2.176500 0.000000
2.195900 0.000000
2.215300 0.000000
2.234700 0.000000
2.254100 0.000000
2.273500 0.000000
2.292900 0.000000
2.312300 0.000000
2.331700 0.000000
2.351100 0.000000
2.370500 0.000000
2.389900 0.000000
2.409300 0.000000
2.428700 0.000000
2.448100 0.000000
2.467500 0.000000
2.486900 0.000000
2.506300 0.000100
2.525700 0.000400
2.545100 0.002100
2.564500 0.008100
2.583900 0.023000
2.603300 0.048400
2.622700 0.076100
2.642100 0.089200
2.661500 0.078200
2.680900 0.053000
2.700300 0.036500
2.719700 0.056500
2.739100 0.146300
2.758500 0.330900
2.777900 0.575000
2.797300 0.757700
2.816700 0.755300
2.836100 0.569200
2.855600 0.325700
2.875000 0.150400
2.894400 0.085800
2.913800 0.116900
2.933200 0.211400
2.952600 0.323500
2.972000 0.401000
2.991400 0.419100
3.010800 0.397000
3.030200 0.380100
3.049600 0.417400
3.069000 0.537500
3.088400 0.720600
3.107800 0.908400
3.127200 1.058300
3.146600 1.154400
3.166000 1.170000
3.185400 1.080800
3.204800 0.925500
3.224200 0.799000
3.243600 0.776200
3.263000 0.854500
3.282400 0.962800
3.301800 1.019300
3.321200 0.985300
3.340600 0.880500
3.360000 0.772200
3.379400 0.731800
3.398800 0.772700
3.418200 0.843600
3.437600 0.880700
3.457000 0.841400
3.476400 0.710000
3.495800 0.513200
3.515200 0.332900
3.534600 0.280800
3.554000 0.450900
3.573400 0.850700
3.592800 1.329800
3.612200 1.645400
3.631600 1.698900
3.651000 1.638300
3.670400 1.641000
3.689800 1.707700
3.709200 1.737600
3.728600 1.668800
3.748000 1.497400
3.767400 1.288700
3.786800 1.185200
3.806200 1.282100
3.825600 1.478500
3.845000 1.568200
3.864400 1.504000
3.883800 1.458700
3.903200 1.588600
3.922600 1.841200
3.942000 2.035900
3.961400 2.052400
3.980800 1.904500
4.000200 1.698300
4.019600 1.572800
4.039000 1.638600
4.058400 1.892300
4.077800 2.190800
4.097200 2.351200
4.116600 2.265900
4.136000 1.940000
4.155400 1.499100
4.174800 1.167900
4.194200 1.166500
4.213600 1.575300
4.233000 2.253000
4.252400 2.875000
4.271800 3.152900
4.291200 3.071100
4.310600 2.853400
4.330000 2.718200
4.349400 2.738900
4.368800 2.888600
4.388200 3.130600
4.407600 3.463600
4.427000 3.878600
4.446400 4.270400
4.465800 4.429800
4.485200 4.184500
4.504600 3.579900
4.524000 2.870700
4.543400 2.293100
4.562800 1.918600
4.582200 1.759900
4.601600 1.877700
4.621000 2.286700
4.640400 2.841900
4.659800 3.329300
4.679200 3.665200
4.698600 3.951400
4.718000 4.288200
4.737400 4.541900
4.756800 4.413000
4.776200 3.786500
4.795600 2.909700
4.815000 2.185400
4.834400 1.867400
4.853800 1.929100
4.873200 2.132500
4.892600 2.241100
4.912000 2.211200
4.931400 2.162800
4.950800 2.198100
4.970200 2.306300
4.989600 2.414500
5.009000 2.476500
5.028400 2.505900
5.047800 2.534800
5.067200 2.562900
5.086600 2.581100
5.106000 2.616700
5.125400 2.688100
5.144800 2.747100
5.164200 2.769900
5.183600 2.842400
5.203000 3.015000
5.222400 3.151800
5.241800 3.076200
5.261200 2.796800
5.280600 2.497200
5.300000 2.366500
5.319400 2.456700
5.338800 2.618700
5.358200 2.597300
5.377600 2.279600
5.397000 1.823100
5.416400 1.487900
5.435800 1.387800
5.455200 1.442900
5.474600 1.512400
5.494000 1.519300
5.513400 1.476200
5.532800 1.426500
5.552200 1.391900
5.571600 1.392800
5.591000 1.460700
5.610400 1.582000
5.629800 1.690700
5.649200 1.765300
5.668600 1.880800
5.688000 2.119900
5.707400 2.472400
5.726800 2.820500
5.746200 2.974800
5.765600 2.783000
5.785000 2.287200
5.804400 1.717000
5.823800 1.269200
5.843200 0.979000
5.862600 0.831800
5.882000 0.859200
5.901400 1.072200
5.920800 1.400600
5.940200 1.742400
5.959600 2.011100
5.979000 2.131600
5.998400 2.055000
6.017800 1.799100
6.037200 1.459800
6.056600 1.177400
6.076000 1.083600
6.095400 1.229100
6.114800 1.537700
6.134200 1.864800
6.153600 2.103500
6.173000 2.220400
6.192400 2.259400
6.211800 2.349100
6.231200 2.605200
6.250600 2.987200
6.270000 3.344800
6.289400 3.597500
6.308800 3.749800
6.328200 3.759400
6.347600 3.559000
6.367000 3.204600
6.386400 2.846800
6.405800 2.562500
6.425200 2.322900
6.444600 2.083800
6.464000 1.860400
6.483400 1.749200
6.502800 1.831100
6.522200 2.033400
6.541600 2.180400
6.561000 2.178000
6.580400 2.054300
6.599800 1.857100
6.619200 1.627500
6.638600 1.444200
6.658000 1.384700
6.677400 1.445200
6.696800 1.566500
6.716200 1.708300
6.735600 1.838300
6.755100 1.913100
6.774500 1.943800
6.793900 2.020900
6.813300 2.215400
6.832700 2.476700
6.852100 2.637200
6.871500 2.540300
6.890900 2.199100
6.910300 1.791600
6.929700 1.483500
6.949100 1.315300
6.968500 1.263100
6.987900 1.325300
7.007300 1.496000
7.026700 1.684200
7.046100 1.748800
7.065500 1.647200
7.084900 1.497700
7.104300 1.451000
7.123700 1.527500
7.143100 1.638000
7.162500 1.746400
7.181900 1.919900
7.201300 2.186900
7.220700 2.444800
7.240100 2.594000
7.259500 2.682500
7.278900 2.806600
7.298300 2.943300
7.317700 3.006100
7.337100 3.000300
7.356500 3.009600
7.375900 3.068000
7.395300 3.125700
7.414700 3.116600
7.434100 3.017600
7.453500 2.845800
7.472900 2.618500
7.492300 2.341000
7.511700 2.046800
7.531100 1.822100
7.550500 1.765800
7.569900 1.931600
7.589300 2.287500
7.608700 2.701600
7.628100 2.990800
7.647500 3.022000
7.666900 2.793600
7.686300 2.445900
7.705700 2.190600
7.725100 2.203600
7.744500 2.521000
7.763900 2.968500
7.783300 3.237700
7.802700 3.123900
7.822100 2.673000
7.841500 2.085600
7.860900 1.569300
7.880300 1.284900
7.899700 1.292300
7.919100 1.509300
7.938500 1.798000
7.957900 2.088600
7.977300 2.370300
7.996700 2.600500
8.016100 2.692300
8.035500 2.601200
8.054900 2.390400
8.074300 2.191100
8.093700 2.120700
8.113100 2.235100
8.132500 2.481600
8.151900 2.678600
8.171300 2.645600
8.190700 2.370500
8.210100 1.999100
8.229500 1.729900
