set title 'mp-1079649 - Density of States'
set xlabel 'Energy (eV)'
set ylabel 'DOS (states/eV)'
set grid
set xrange [-10:10]
set yrange [0:4.179]
set xzeroaxis lt -1
set terminal png size 800,600
set output 'mp-1079649_dos_gnuplot.png'
plot '-' using 1:2 with lines title 'DOS'
-5.662500 0.000000
-5.648600 0.000000
-5.634700 0.000000
-5.620800 0.000000
-5.606900 0.000000
-5.593000 0.000000
-5.579200 0.000000
-5.565300 0.000000
-5.551400 0.000000
-5.537500 0.000000
-5.523600 0.000000
-5.509700 0.000000
-5.495900 0.000000
-5.482000 0.000000
-5.468100 0.000000
-5.454200 0.000000
-5.440300 0.000000
-5.426400 0.000000
-5.412500 0.000000
-5.398700 0.000000
-5.384800 0.000000
-5.370900 0.000000
-5.357000 0.000000
-5.343100 0.000000
-5.329200 0.000000
-5.315300 0.000000
-5.301500 0.000000
-5.287600 0.000000
-5.273700 0.000000
-5.259800 0.000000
-5.245900 0.000000
-5.232000 0.000000
-5.218100 0.000000
-5.204300 0.000000
-5.190400 0.000000
-5.176500 0.000000
-5.162600 0.000000
-5.148700 0.000000
-5.134800 0.000000
-5.120900 0.000000
-5.107100 0.000000
-5.093200 0.000000
-5.079300 0.000000
-5.065400 0.000000
-5.051500 0.000000
-5.037600 0.000000
-5.023800 0.000000
-5.009900 0.000000
-4.996000 0.000000
-4.982100 0.000000
-4.968200 0.000000
-4.954300 0.000000
-4.940400 0.000000
-4.926600 0.000000
-4.912700 0.000000
-4.898800 0.000000
-4.884900 0.000000
-4.871000 0.000000
-4.857100 0.000000
-4.843200 0.000000
-4.829400 0.000000
-4.815500 0.000000
-4.801600 0.000000
-4.787700 0.000000
-4.773800 0.000000
-4.759900 0.000000
-4.746000 0.000000
-4.732200 0.000000
-4.718300 0.000000
-4.704400 0.000000
-4.690500 0.000000
-4.676600 0.000000
-4.662700 0.000000
-4.648900 0.000000
-4.635000 0.000000
-4.621100 0.000000
-4.607200 0.000000
-4.593300 0.000000
-4.579400 0.000000
-4.565500 0.000000
-4.551700 0.000000
-4.537800 0.000000
-4.523900 0.000000
-4.510000 0.000000
-4.496100 0.000000
-4.482200 0.000000
-4.468300 0.000000
-4.454500 0.000000
-4.440600 0.000000
-4.426700 0.000000
-4.412800 0.000000
-4.398900 0.000100
-4.385000 0.016400
-4.371100 0.060300
-4.357300 0.130300
-4.343400 0.189200
-4.329500 0.207200
-4.315600 0.209000
-4.301700 0.223700
-4.287800 0.247800
-4.273900 0.272600
-4.260100 0.298200
-4.246200 0.324400
-4.232300 0.345500
-4.218400 0.358500
-4.204500 0.363800
-4.190600 0.369100
-4.176800 0.378500
-4.162900 0.390300
-4.149000 0.403800
-4.135100 0.417400
-4.121200 0.431000
-4.107300 0.444500
-4.093400 0.458000
-4.079600 0.472000
-4.065700 0.486600
-4.051800 0.501400
-4.037900 0.512600
-4.024000 0.519000
-4.010100 0.523600
-3.996200 0.531900
-3.982400 0.540600
-3.968500 0.549000
-3.954600 0.557100
-3.940700 0.565000
-3.926800 0.572900
-3.912900 0.581100
-3.899000 0.589700
-3.885200 0.599000
-3.871300 0.608900
-3.857400 0.619000
-3.843500 0.629400
-3.829600 0.639800
-3.815700 0.650400
-3.801900 0.661100
-3.788000 0.671400
-3.774100 0.679800
-3.760200 0.685900
-3.746300 0.690500
-3.732400 0.695600
-3.718500 0.701300
-3.704700 0.707600
-3.690800 0.714500
-3.676900 0.721300
-3.663000 0.728000
-3.649100 0.734600
-3.635200 0.741200
-3.621300 0.748100
-3.607500 0.755300
-3.593600 0.762700
-3.579700 0.770300
-3.565800 0.778000
-3.551900 0.785800
-3.538000 0.793700
-3.524100 0.801700
-3.510300 0.809600
-3.496400 0.817600
-3.482500 0.825700
-3.468600 0.833700
-3.454700 0.841600
-3.440800 0.849000
-3.426900 0.854400
-3.413100 0.859100
-3.399200 0.864500
-3.385300 0.870500
-3.371400 0.876300
-3.357500 0.882000
-3.343600 0.887600
-3.329800 0.893300
-3.315900 0.899100
-3.302000 0.905200
-3.288100 0.911400
-3.274200 0.917900
-3.260300 0.924500
-3.246400 0.931200
-3.232600 0.937900
-3.218700 0.944700
-3.204800 0.951500
-3.190900 0.958400
-3.177000 0.965300
-3.163100 0.972300
-3.149200 0.979500
-3.135400 0.986900
-3.121500 0.994600
-3.107600 1.002300
-3.093700 1.010400
-3.079800 1.018600
-3.065900 1.026900
-3.052000 1.035300
-3.038200 1.043500
-3.024300 1.051200
-3.010400 1.058600
-2.996500 1.066600
-2.982600 1.075500
-2.968700 1.084800
-2.954900 1.094500
-2.941000 1.104500
-2.927100 1.139200
-2.913200 1.172600
-2.899300 1.193100
-2.885400 1.182800
-2.871500 1.170200
-2.857700 1.162400
-2.843800 1.160500
-2.829900 1.177700
-2.816000 1.199600
-2.802100 1.218300
-2.788200 1.220800
-2.774300 1.217700
-2.760500 1.214900
-2.746600 1.212500
-2.732700 1.210400
-2.718800 1.208800
-2.704900 1.208600
-2.691000 1.209900
-2.677100 1.209100
-2.663300 1.208400
-2.649400 1.207800
-2.635500 1.205900
-2.621600 1.190600
-2.607700 1.174400
-2.593800 1.160000
-2.579900 1.150900
-2.566100 1.146200
-2.552200 1.160300
-2.538300 1.192400
-2.524400 1.216700
-2.510500 1.221200
-2.496600 1.210100
-2.482800 1.197000
-2.468900 1.182800
-2.455000 1.166700
-2.441100 1.149800
-2.427200 1.138500
-2.413300 1.133200
-2.399400 1.129800
-2.385600 1.125800
-2.371700 1.123200
-2.357800 1.122200
-2.343900 1.122800
-2.330000 1.124000
-2.316100 1.127000
-2.302200 1.131900
-2.288400 1.139200
-2.274500 1.147200
-2.260600 1.156900
-2.246700 1.168600
-2.232800 1.162900
-2.218900 1.145300
-2.205000 1.124800
-2.191200 1.121500
-2.177300 1.118800
-2.163400 1.116600
-2.149500 1.114800
-2.135600 1.113500
-2.121700 1.112500
-2.107900 1.111600
-2.094000 1.110500
-2.080100 1.113400
-2.066200 1.118000
-2.052300 1.124400
-2.038400 1.131800
-2.024500 1.186700
-2.010700 1.239700
-1.996800 1.278100
-1.982900 1.287300
-1.969000 1.290200
-1.955100 1.287600
-1.941200 1.285300
-1.927300 1.351300
-1.913500 1.356700
-1.899600 1.348200
-1.885700 1.327500
-1.871800 1.330300
-1.857900 1.333900
-1.844000 1.338100
-1.830100 1.343400
-1.816300 1.349800
-1.802400 1.357100
-1.788500 1.360900
-1.774600 1.363900
-1.760700 1.371900
-1.746800 1.380000
-1.732900 1.388100
-1.719100 1.396300
-1.705200 1.404600
-1.691300 1.410500
-1.677400 1.416800
-1.663500 1.423600
-1.649600 1.431600
-1.635800 1.441800
-1.621900 1.442500
-1.608000 1.442900
-1.594100 1.442600
-1.580200 1.451400
-1.566300 1.461300
-1.552400 1.472300
-1.538600 1.484400
-1.524700 1.497300
-1.510800 1.522000
-1.496900 1.537500
-1.483000 1.545600
-1.469100 1.556000
-1.455200 1.567600
-1.441400 1.578400
-1.427500 1.588000
-1.413600 1.597300
-1.399700 1.606500
-1.385800 1.615700
-1.371900 1.624700
-1.358000 1.631900
-1.344200 1.625300
-1.330300 1.596000
-1.316400 1.567700
-1.302500 1.553400
-1.288600 1.547500
-1.274700 1.549100
-1.260800 1.553200
-1.247000 1.558200
-1.233100 1.565300
-1.219200 1.580700
-1.205300 1.596200
-1.191400 1.600900
-1.177500 1.589300
-1.163700 1.571200
-1.149800 1.547700
-1.135900 1.517700
-1.122000 1.483800
-1.108100 1.446800
-1.094200 1.411200
-1.080300 1.380900
-1.066500 1.356200
-1.052600 1.335500
-1.038700 1.320000
-1.024800 1.310700
-1.010900 1.309700
-0.997000 1.308100
-0.983100 1.306300
-0.969300 1.312700
-0.955400 1.324200
-0.941500 1.337400
-0.927600 1.350400
-0.913700 1.363000
-0.899800 1.366900
-0.885900 1.370900
-0.872100 1.377200
-0.858200 1.387300
-0.844300 1.401800
-0.830400 1.420700
-0.816500 1.447300
-0.802600 1.458200
-0.788800 1.493800
-0.774900 1.529800
-0.761000 1.558900
-0.747100 1.598500
-0.733200 1.674800
-0.719300 1.775300
-0.705400 1.836800
-0.691600 1.853500
-0.677700 1.867100
-0.663800 1.871800
-0.649900 1.858700
-0.636000 1.844600
-0.622100 1.833500
-0.608200 1.810900
-0.594400 1.789800
-0.580500 1.773000
-0.566600 1.757500
-0.552700 1.743700
-0.538800 1.728700
-0.524900 1.716800
-0.511000 1.708100
-0.497200 1.702500
-0.483300 1.699900
-0.469400 1.700900
-0.455500 1.712000
-0.441600 1.726700
-0.427700 1.732500
-0.413800 1.738400
-0.400000 1.745500
-0.386100 1.753600
-0.372200 1.761700
-0.358300 1.766300
-0.344400 1.765300
-0.330500 1.752100
-0.316700 1.738600
-0.302800 1.731900
-0.288900 1.727500
-0.275000 1.724700
-0.261100 1.722300
-0.247200 1.721700
-0.233300 1.722400
-0.219500 1.732700
-0.205600 1.757100
-0.191700 1.786800
-0.177800 1.770500
-0.163900 1.780800
-0.150000 1.784000
-0.136100 1.789500
-0.122300 1.806300
-0.108400 1.828200
-0.094500 1.854000
-0.080600 1.876000
-0.066700 1.876500
-0.052800 1.859500
-0.038900 1.826000
-0.025100 1.808400
-0.011200 1.797200
0.002700 1.794600
0.016600 1.793500
0.030500 1.793900
0.044400 1.795100
0.058200 1.802400
0.072100 1.813900
0.086000 1.816200
0.099900 1.817100
0.113800 1.817300
0.127700 1.819700
0.141600 1.826600
0.155400 1.838500
0.169300 1.847400
0.183200 1.854000
0.197100 1.861200
0.211000 1.871300
0.224900 1.889200
0.238800 1.911800
0.252600 1.920100
0.266500 1.925900
0.280400 1.931300
0.294300 1.936100
0.308200 1.940200
0.322100 1.943700
0.336000 1.946900
0.349800 1.950000
0.363700 1.953200
0.377600 1.956100
0.391500 1.960900
0.405400 1.941200
0.419300 1.951000
0.433200 1.957200
0.447000 1.962100
0.460900 1.966200
0.474800 1.969700
0.488700 1.972900
0.502600 1.960700
0.516500 1.948600
0.530300 1.946600
0.544200 1.954100
0.558100 1.962000
0.572000 1.969100
0.585900 1.975900
0.599800 1.982800
0.613700 1.989600
0.627500 1.996300
0.641400 2.003500
0.655300 2.013400
0.669200 2.027500
0.683100 2.040100
0.697000 2.048000
0.710900 2.053000
0.724700 2.053400
0.738600 2.053400
0.752500 2.053500
0.766400 2.056100
0.780300 2.061500
0.794200 2.068500
0.808100 2.072200
0.821900 2.061900
0.835800 2.052500
0.849700 2.049000
0.863600 2.049300
0.877500 2.070500
0.891400 2.065200
0.905200 2.056100
0.919100 2.047700
0.933000 2.040100
0.946900 2.033300
0.960800 2.027500
0.974700 2.022300
0.988600 2.017800
1.002400 2.014500
1.016300 2.010000
1.030200 2.012500
1.044100 2.037700
1.058000 2.033000
1.071900 2.028400
1.085800 2.025100
1.099600 2.023000
1.113500 2.021100
1.127400 2.019200
1.141300 2.017200
1.155200 2.015200
1.169100 2.013500
1.183000 2.013700
1.196800 2.016600
1.210700 2.021900
1.224600 2.023400
1.238500 2.023900
1.252400 2.029000
1.266300 2.040000
1.280200 2.048000
1.294000 2.047500
1.307900 2.045500
1.321800 2.045900
1.335700 2.050000
1.349600 2.058300
1.363500 2.069400
1.377300 2.081600
1.391200 2.094500
1.405100 2.109100
1.419000 2.114000
1.432900 2.102300
1.446800 2.089000
1.460700 2.077100
1.474500 2.068200
1.488400 2.063200
1.502300 2.059500
1.516200 2.058700
1.530100 2.060500
1.544000 2.065600
1.557900 2.074400
1.571700 2.079100
1.585600 2.085500
1.599500 2.096300
1.613400 2.101600
1.627300 2.106900
1.641200 2.113400
1.655100 2.120700
1.668900 2.128100
1.682800 2.138200
1.696700 2.144100
1.710600 2.149300
1.724500 2.153700
1.738400 2.157800
1.752200 2.162700
1.766100 2.168100
1.780000 2.174600
1.793900 2.182300
1.807800 2.190700
1.821700 2.199800
1.835600 2.209800
1.849400 2.221000
1.863300 2.233400
1.877200 2.246100
1.891100 2.259800
1.905000 2.274700
1.918900 2.291500
1.932800 2.311900
1.946600 2.335900
1.960500 2.361400
1.974400 2.387400
1.988300 2.413300
2.002200 2.438400
2.016100 2.462700
2.030000 2.486500
2.043800 2.509500
2.057700 2.532400
2.071600 2.557400
2.085500 2.575700
2.099400 2.588500
2.113300 2.598000
2.127200 2.605900
2.141000 2.612200
2.154900 2.615600
2.168800 2.615800
2.182700 2.614300
2.196600 2.611600
2.210500 2.613400
2.224300 2.610400
2.238200 2.607000
2.252100 2.609000
2.266000 2.619400
2.279900 2.591100
2.293800 2.602100
2.307700 2.591400
2.321500 2.582500
2.335400 2.574800
2.349300 2.567700
2.363200 2.564100
2.377100 2.561500
2.391000 2.571700
2.404900 2.589200
2.418700 2.636500
2.432600 2.706200
2.446500 2.630500
2.460400 2.603900
2.474300 2.581800
2.488200 2.552800
2.502100 2.530800
2.515900 2.530000
2.529800 2.519700
2.543700 2.480300
2.557600 2.430700
2.571500 2.383400
2.585400 2.350800
2.599200 2.326400
2.613100 2.297200
2.627000 2.270600
2.640900 2.247100
2.654800 2.225500
2.668700 2.192000
2.682600 2.151600
2.696400 2.111200
2.710300 2.070700
2.724200 2.041100
2.738100 2.001400
2.752000 1.967200
2.765900 1.934400
2.779800 1.905400
2.793600 1.885800
2.807500 1.872900
2.821400 1.856400
2.835300 1.839200
2.849200 1.826000
2.863100 1.808600
2.877000 1.798900
2.890800 1.790500
2.904700 1.826400
2.918600 1.827800
2.932500 1.811000
2.946400 1.808000
2.960300 1.810800
2.974200 1.771800
2.988000 1.776700
3.001900 1.811700
3.015800 1.846800
3.029700 1.882200
3.043600 1.929300
3.057500 1.993900
3.071300 2.065700
3.085200 2.144800
3.099100 2.280500
3.113000 2.389100
3.126900 2.363300
3.140800 2.331900
3.154700 2.257100
3.168500 2.195800
3.182400 2.130300
3.196300 2.085100
3.210200 2.143200
3.224100 2.042500
3.238000 2.025200
3.251900 2.013200
3.265700 2.001400
3.279600 2.000400
3.293500 2.004300
3.307400 2.011500
3.321300 2.044700
3.335200 2.106000
3.349100 2.114500
3.362900 2.097000
3.376800 2.125500
3.390700 2.167400
3.404600 2.220300
3.418500 2.282700
3.432400 2.354900
3.446200 2.427800
3.460100 2.486500
3.474000 2.543100
3.487900 2.598600
3.501800 2.651400
3.515700 2.706100
3.529600 2.762800
3.543400 2.819400
3.557300 2.876400
3.571200 2.939400
3.585100 2.960000
3.599000 2.969900
3.612900 2.975700
3.626800 2.971400
3.640600 2.906500
3.654500 2.804500
3.668400 2.736000
3.682300 2.681700
3.696200 2.639800
3.710100 2.599500
3.724000 2.536300
3.737800 2.450500
3.751700 2.410900
3.765600 2.390400
3.779500 2.383200
3.793400 2.399600
3.807300 2.440000
3.821200 2.455900
3.835000 2.459600
3.848900 2.467400
3.862800 2.471500
3.876700 2.458400
3.890600 2.440300
3.904500 2.422200
3.918300 2.403200
3.932200 2.371000
3.946100 2.348800
3.960000 2.325000
3.973900 2.314500
3.987800 2.305600
4.001700 2.321400
4.015500 2.331300
4.029400 2.333800
4.043300 2.340100
4.057200 2.350900
4.071100 2.365300
4.085000 2.383300
4.098900 2.394100
4.112700 2.407100
4.126600 2.419700
4.140500 2.431200
4.154400 2.453000
4.168300 2.472000
4.182200 2.494000
4.196100 2.567500
4.209900 2.528000
4.223800 2.556500
4.237700 2.662500
4.251600 2.695200
4.265500 2.700600
4.279400 2.703300
4.293200 2.706100
4.307100 2.717000
4.321000 2.723700
4.334900 2.683200
4.348800 2.626000
4.362700 2.632200
4.376600 2.655100
4.390400 2.677000
4.404300 2.711900
4.418200 2.763000
4.432100 2.786200
4.446000 2.768000
4.459900 2.761000
4.473800 2.771400
4.487600 2.783300
4.501500 2.795400
4.515400 2.812900
4.529300 2.875700
4.543200 2.839300
4.557100 2.817900
4.571000 2.796100
4.584800 2.777200
4.598700 2.759800
4.612600 2.736000
4.626500 2.694100
4.640400 2.672400
4.654300 2.661700
4.668200 2.687500
4.682000 2.698400
4.695900 2.677100
4.709800 2.671300
4.723700 2.680600
4.737600 2.681700
4.751500 2.767900
4.765300 2.653800
4.779200 2.637900
4.793100 2.628400
4.807000 2.630000
4.820900 2.638800
4.834800 2.627800
4.848700 2.618000
4.862500 2.608600
4.876400 2.599900
4.890300 2.591600
4.904200 2.577500
4.918100 2.558900
4.932000 2.545900
4.945900 2.535800
4.959700 2.528000
4.973600 2.529900
4.987500 2.518300
5.001400 2.509800
5.015300 2.504900
5.029200 2.503300
5.043100 2.513200
5.056900 2.534000
5.070800 2.556100
5.084700 2.589600
5.098600 2.631200
5.112500 2.674500
5.126400 2.681900
5.140200 2.685700
5.154100 2.694300
5.168000 2.704600
5.181900 2.713200
5.195800 2.718500
5.209700 2.731900
5.223600 2.733300
5.237400 2.782100
5.251300 2.776000
5.265200 2.767500
5.279100 2.752300
5.293000 2.720500
5.306900 2.711400
5.320800 2.716400
5.334600 2.728000
5.348500 2.756100
5.362400 2.783700
5.376300 2.782000
5.390200 2.783100
5.404100 2.788600
5.418000 2.797100
5.431800 2.808600
5.445700 2.839600
5.459600 2.842900
5.473500 2.857000
5.487400 2.893900
5.501300 2.895700
5.515200 2.892400
5.529000 2.879500
5.542900 2.873600
5.556800 2.870600
5.570700 2.868500
5.584600 2.875000
5.598500 2.914500
5.612300 2.965300
5.626200 3.009100
5.640100 3.044100
5.654000 3.069500
5.667900 3.092100
5.681800 3.118500
5.695700 3.191300
5.709500 3.161900
5.723400 3.138600
5.737300 3.133800
5.751200 3.129200
5.765100 3.107600
5.779000 3.079500
5.792900 3.049500
5.806700 3.010900
5.820600 2.925800
5.834500 2.912000
5.848400 2.902200
5.862300 2.895500
5.876200 2.889300
5.890100 2.896200
5.903900 2.923500
5.917800 2.959800
5.931700 2.991300
5.945600 3.012400
5.959500 3.048100
5.973400 3.070400
5.987200 3.103000
6.001100 3.106900
6.015000 3.093100
6.028900 3.091700
6.042800 3.095100
6.056700 3.099400
6.070600 3.101500
6.084400 3.102700
6.098300 3.103000
6.112200 3.102100
6.126100 3.102200
6.140000 3.101100
6.153900 3.103500
6.167800 3.101900
6.181600 3.098600
6.195500 3.080000
6.209400 3.060700
6.223300 3.043600
6.237200 3.027100
6.251100 3.009700
6.265000 2.986600
6.278800 2.962900
6.292700 2.935100
6.306600 2.912100
6.320500 2.883300
6.334400 2.871300
6.348300 2.881900
6.362200 2.856100
6.376000 2.846700
6.389900 2.845800
6.403800 2.833300
6.417700 2.819200
6.431600 2.809400
6.445500 2.803700
6.459300 2.799800
6.473200 2.800700
6.487100 2.807100
6.501000 2.816900
6.514900 2.827000
6.528800 2.838900
6.542700 2.853800
6.556500 2.871100
6.570400 2.888200
6.584300 2.904600
6.598200 2.919700
6.612100 2.940800
6.626000 2.956700
6.639900 2.964800
6.653700 2.974700
6.667600 2.984900
6.681500 2.990700
6.695400 2.997400
6.709300 3.011300
6.723200 3.029000
6.737100 3.042400
6.750900 3.054100
6.764800 3.068400
6.778700 3.086800
6.792600 3.124300
6.806500 3.178800
6.820400 3.202200
6.834300 3.217000
6.848100 3.236300
6.862000 3.249000
6.875900 3.206900
6.889800 3.199300
6.903700 3.199700
6.917600 3.205800
6.931400 3.206900
6.945300 3.208700
6.959200 3.203600
6.973100 3.196300
6.987000 3.202800
7.000900 3.208000
7.014800 3.205200
7.028600 3.191400
7.042500 3.171400
7.056400 3.150900
7.070300 3.131700
7.084200 3.112300
7.098100 3.093900
7.112000 3.078200
7.125800 3.062300
7.139700 3.043400
7.153600 3.021400
7.167500 3.003800
7.181400 2.987700
7.195300 2.972300
7.209200 2.953100
7.223000 2.935200
7.236900 2.925000
7.250800 2.920600
7.264700 2.918900
7.278600 2.915100
7.292500 2.916100
7.306300 2.922200
7.320200 2.948000
7.334100 2.956400
7.348000 2.906400
7.361900 2.910800
7.375800 2.917500
7.389700 2.933500
7.403500 2.955200
7.417400 2.981100
7.431300 3.008600
7.445200 3.051100
7.459100 3.086600
7.473000 3.121100
7.486900 3.160900
7.500700 3.231900
7.514600 3.338400
7.528500 3.312100
7.542400 3.182600
7.556300 3.183200
7.570200 3.210900
7.584100 3.249100
7.597900 3.287900
7.611800 3.328500
7.625700 3.373400
7.639600 3.428800
7.653500 3.542700
7.667400 3.531200
7.681300 3.526400
7.695100 3.527800
7.709000 3.530300
7.722900 3.537400
7.736800 3.548300
7.750700 3.557900
7.764600 3.566900
7.778400 3.567200
7.792300 3.565000
7.806200 3.572000
7.820100 3.563300
7.834000 3.550800
7.847900 3.547100
7.861800 3.547900
7.875600 3.526800
7.889500 3.543500
7.903400 3.554300
7.917300 3.574900
7.931200 3.592800
7.945100 3.599700
7.959000 3.605700
7.972800 3.612900
7.986700 3.614800
8.000600 3.616400
8.014500 3.542100
8.028400 3.524100
8.042300 3.504600
8.056200 3.481300
8.070000 3.447000
8.083900 3.414000
8.097800 3.399800
8.111700 3.395400
8.125600 3.400100
8.139500 3.457800
8.153300 3.468900
8.167200 3.458300
8.181100 3.453300
8.195000 3.452800
8.208900 3.449400
8.222800 3.437700
8.236700 3.425600
8.250500 3.420400
8.264400 3.414300
8.278300 3.434300
8.292200 3.445100
8.306100 3.439700
8.320000 3.419700
8.333900 3.397000
8.347700 3.386300
8.361600 3.381700
8.375500 3.384100
8.389400 3.448000
8.403300 3.443800
8.417200 3.395300
8.431100 3.381700
8.444900 3.378500
8.458800 3.385500
8.472700 3.405500
8.486600 3.440700
8.500500 3.453800
8.514400 3.446700
8.528300 3.433900
8.542100 3.418400
8.556000 3.403900
8.569900 3.395600
8.583800 3.383900
8.597700 3.385200
8.611600 3.416700
8.625400 3.422200
8.639300 3.387500
8.653200 3.405100
8.667100 3.458400
8.681000 3.443800
8.694900 3.397800
8.708800 3.409300
8.722600 3.422100
8.736500 3.442300
8.750400 3.465600
8.764300 3.472700
8.778200 3.487700
8.792100 3.536100
8.806000 3.577900
8.819800 3.532800
8.833700 3.511600
8.847600 3.484800
8.861500 3.479400
8.875400 3.482000
8.889300 3.486900
8.903200 3.507100
8.917000 3.539300
8.930900 3.565600
8.944800 3.605400
8.958700 3.682800
8.972600 3.741800
8.986500 3.766200
9.000300 3.782300
9.014200 3.786000
9.028100 3.778700
9.042000 3.765800
9.055900 3.748400
9.069800 3.709100
9.083700 3.695500
9.097500 3.799000
9.111400 3.661200
9.125300 3.649800
9.139200 3.639600
9.153100 3.606000
9.167000 3.569800
9.180900 3.526300
9.194700 3.467600
9.208600 3.406000
