set title 'mp-1184292 - Density of States'
set xlabel 'Energy (eV)'
set ylabel 'DOS (states/eV)'
set grid
set xrange [-10:10]
set yrange [0:3.221]
set xzeroaxis lt -1
set terminal png size 800,600
set output 'mp-1184292_dos_gnuplot.png'
plot '-' using 1:2 with lines title 'DOS'
-12.876600 0.000000
-12.855200 0.000000
-12.833900 0.000000
-12.812500 0.000000
-12.791200 0.000000
-12.769800 0.000000
-12.748500 0.000000
-12.727100 0.000000
-12.705800 0.000000
-12.684400 0.000000
-12.663100 0.000000
-12.641700 0.000000
-12.620300 0.000000
-12.599000 0.000000
-12.577600 0.000000
-12.556300 0.000000
-12.534900 0.000000
-12.513600 0.000000
-12.492200 0.000000
-12.470900 0.000000
-12.449500 0.000000
-12.428200 0.000000
-12.406800 0.000000
-12.385500 0.000000
-12.364100 0.000000
-12.342700 0.000000
-12.321400 0.000000
-12.300000 0.000000
-12.278700 0.000000
-12.257300 0.000000
-12.236000 0.000000
-12.214600 0.000000
-12.193300 0.000000
-12.171900 0.000000
-12.150600 0.000000
-12.129200 0.000000
-12.107900 0.000000
-12.086500 0.000000
-12.065100 0.000000
-12.043800 0.000000
-12.022400 0.000000
-12.001100 0.000000
-11.979700 0.000000
-11.958400 0.000000
-11.937000 0.000000
-11.915700 0.000000
-11.894300 0.000000
-11.873000 0.000000
-11.851600 0.000000
-11.830200 0.000000
-11.808900 0.000000
-11.787500 0.000000
-11.766200 0.000000
-11.744800 0.000000
-11.723500 0.000000
-11.702100 0.000000
-11.680800 0.000000
-11.659400 0.000000
-11.638100 0.000000
-11.616700 0.000000
-11.595400 0.000000
-11.574000 0.000000
-11.552600 0.000000
-11.531300 0.000000
-11.509900 0.000000
-11.488600 0.000000
-11.467200 0.000000
-11.445900 0.000000
-11.424500 0.000000
-11.403200 0.000000
-11.381800 0.000000
-11.360500 0.000000
-11.339100 0.000000
-11.317800 0.000000
-11.296400 0.000000
-11.275000 0.000000
-11.253700 0.000000
-11.232300 0.000000
-11.211000 0.000000
-11.189600 0.000000
-11.168300 0.000000
-11.146900 0.000000
-11.125600 0.000000
-11.104200 0.000000
-11.082900 0.000000
-11.061500 0.000000
-11.040100 0.000000
-11.018800 0.000000
-10.997400 0.000000
-10.976100 0.000000
-10.954700 0.000000
-10.933400 0.671300
-10.912000 3.934100
-10.890700 5.936700
-10.869300 5.947500
-10.848000 8.579900
-10.826600 11.376500
-10.805300 32.340500
-10.783900 21.013700
-10.762500 22.232200
-10.741200 28.675200
-10.719800 42.199900
-10.698500 43.001800
-10.677100 66.259800
-10.655800 57.631800
-10.634400 39.516400
-10.613100 46.316500
-10.591700 41.899100
-10.570400 93.167200
-10.549000 74.347300
-10.527600 106.409300
-10.506300 132.828800
-10.484900 137.106000
-10.463600 163.515000
-10.442200 86.697800
-10.420900 45.495100
-10.399500 28.879300
-10.378200 27.804700
-10.356800 8.418700
-10.335500 5.721700
-10.314100 4.422900
-10.292800 4.007300
-10.271400 4.039500
-10.250000 3.246100
-10.228700 3.423300
-10.207300 0.850700
-10.186000 0.000000
-10.164600 0.000000
-10.143300 0.000000
-10.121900 0.000000
-10.100600 0.000000
-10.079200 0.000000
-10.057900 0.000000
-10.036500 0.000000
-10.015200 0.000000
-9.993800 0.000000
-9.972400 0.000000
-9.951100 0.000000
-9.929700 0.000000
-9.908400 0.000000
-9.887000 0.000000
-9.865700 0.000000
-9.844300 0.000000
-9.823000 0.000000
-9.801600 0.000000
-9.780300 0.000000
-9.758900 0.000000
-9.737500 0.000000
-9.716200 0.000000
-9.694800 0.000000
-9.673500 0.000000
-9.652100 0.000000
-9.630800 0.000000
-9.609400 0.000000
-9.588100 0.000000
-9.566700 0.000000
-9.545400 0.000000
-9.524000 0.000000
-9.502700 0.000000
-9.481300 0.000000
-9.459900 0.000000
-9.438600 0.000000
-9.417200 0.000000
-9.395900 0.000000
-9.374500 0.000000
-9.353200 0.000000
-9.331800 0.000000
-9.310500 0.000000
-9.289100 0.000000
-9.267800 0.000000
-9.246400 0.000000
-9.225100 0.000000
-9.203700 0.000000
-9.182300 0.000000
-9.161000 0.000000
-9.139600 0.000000
-9.118300 0.000000
-9.096900 0.000000
-9.075600 0.000000
-9.054200 0.000000
-9.032900 0.000000
-9.011500 0.000000
-8.990200 0.000000
-8.968800 0.000000
-8.947400 0.000000
-8.926100 0.000000
-8.904700 0.000000
-8.883400 0.000000
-8.862000 0.000000
-8.840700 0.000000
-8.819300 0.000000
-8.798000 0.000000
-8.776600 0.000000
-8.755300 0.000000
-8.733900 0.000000
-8.712600 0.000000
-8.691200 0.000000
-8.669800 0.000000
-8.648500 0.000000
-8.627100 0.000000
-8.605800 0.000000
-8.584400 0.000000
-8.563100 0.000000
-8.541700 0.000000
-8.520400 0.000000
-8.499000 0.000000
-8.477700 0.000000
-8.456300 0.000000
-8.435000 0.000000
-8.413600 0.000000
-8.392200 0.000000
-8.370900 0.000000
-8.349500 0.000000
-8.328200 0.000000
-8.306800 0.000000
-8.285500 0.000000
-8.264100 0.000000
-8.242800 0.000000
-8.221400 0.000000
-8.200100 0.000000
-8.178700 0.000000
-8.157300 0.000000
-8.136000 0.000000
-8.114600 0.000000
-8.093300 0.000000
-8.071900 0.000000
-8.050600 0.000000
-8.029200 0.000000
-8.007900 0.000000
-7.986500 0.000000
-7.965200 0.000000
-7.943800 0.000000
-7.922500 0.007900
-7.901100 0.044600
-7.879700 0.095200
-7.858400 0.147500
-7.837000 0.192100
-7.815700 0.217900
-7.794300 0.237900
-7.773000 0.240500
-7.751600 0.253500
-7.730300 0.274600
-7.708900 0.296400
-7.687600 0.319100
-7.666200 0.342600
-7.644800 0.361700
-7.623500 0.383700
-7.602100 0.399200
-7.580800 0.410600
-7.559400 0.421100
-7.538100 0.433800
-7.516700 0.447300
-7.495400 0.461100
-7.474000 0.476800
-7.452700 0.494700
-7.431300 0.512300
-7.410000 0.530500
-7.388600 0.549400
-7.367200 0.568800
-7.345900 0.589000
-7.324500 0.610200
-7.303200 0.667700
-7.281800 0.706400
-7.260500 0.729600
-7.239100 0.734600
-7.217800 0.731100
-7.196400 0.728100
-7.175100 0.718000
-7.153700 0.723600
-7.132400 0.729100
-7.111000 0.734100
-7.089600 0.738600
-7.068300 0.742700
-7.046900 0.746700
-7.025600 0.746400
-7.004200 0.742300
-6.982900 0.740500
-6.961500 0.741100
-6.940200 0.745300
-6.918800 0.750700
-6.897500 0.756300
-6.876100 0.761900
-6.854700 0.767500
-6.833400 0.773000
-6.812000 0.778600
-6.790700 0.784100
-6.769300 0.789600
-6.748000 0.794500
-6.726600 0.799100
-6.705300 0.803600
-6.683900 0.808100
-6.662600 0.813100
-6.641200 0.819000
-6.619900 0.826700
-6.598500 0.834400
-6.577100 0.842400
-6.555800 0.850800
-6.534400 0.860000
-6.513100 0.869800
-6.491700 0.880000
-6.470400 0.890400
-6.449000 0.900800
-6.427700 0.911500
-6.406300 0.924500
-6.385000 0.938900
-6.363600 0.954200
-6.342300 0.970500
-6.320900 0.992300
-6.299500 1.017100
-6.278200 1.059300
-6.256800 1.116000
-6.235500 1.193300
-6.214100 1.311400
-6.192800 1.473200
-6.171400 1.528900
-6.150100 1.544400
-6.128700 1.483800
-6.107400 1.344400
-6.086000 1.218000
-6.064600 1.109500
-6.043300 1.026200
-6.021900 0.982100
-6.000600 0.961700
-5.979200 0.937700
-5.957900 0.910000
-5.936500 0.878200
-5.915200 0.837000
-5.893800 0.793100
-5.872500 0.758500
-5.851100 0.730700
-5.829800 0.707800
-5.808400 0.692900
-5.787000 0.680900
-5.765700 0.668900
-5.744300 0.656700
-5.723000 0.644600
-5.701600 0.632700
-5.680300 0.620800
-5.658900 0.610900
-5.637600 0.600900
-5.616200 0.588600
-5.594900 0.574400
-5.573500 0.557400
-5.552200 0.541900
-5.530800 0.528800
-5.509400 0.517400
-5.488100 0.508200
-5.466700 0.499600
-5.445400 0.490900
-5.424000 0.493900
-5.402700 0.513400
-5.381300 0.512400
-5.360000 0.521400
-5.338600 0.528200
-5.317300 0.532800
-5.295900 0.535200
-5.274500 0.535300
-5.253200 0.539500
-5.231800 0.541300
-5.210500 0.551900
-5.189100 0.569500
-5.167800 0.574800
-5.146400 0.570800
-5.125100 0.562100
-5.103700 0.553900
-5.082400 0.545400
-5.061000 0.529600
-5.039700 0.515900
-5.018300 0.504400
-4.996900 0.493400
-4.975600 0.482600
-4.954200 0.471800
-4.932900 0.744700
-4.911500 0.556700
-4.890200 0.220100
-4.868800 0.224200
-4.847500 0.228500
-4.826100 0.233100
-4.804800 0.238400
-4.783400 0.243800
-4.762000 0.249400
-4.740700 0.255100
-4.719300 0.261300
-4.698000 0.267700
-4.676600 0.274300
-4.655300 0.280500
-4.633900 0.286000
-4.612600 0.291100
-4.591200 0.295500
-4.569900 0.299500
-4.548500 0.303700
-4.527200 0.308900
-4.505800 0.313700
-4.484400 0.318600
-4.463100 0.323800
-4.441700 0.329100
-4.420400 0.334300
-4.399000 0.339600
-4.377700 0.344900
-4.356300 0.350300
-4.335000 0.355700
-4.313600 0.361300
-4.292300 0.367300
-4.270900 0.373700
-4.249600 0.380300
-4.228200 0.387100
-4.206800 0.394300
-4.185500 0.401500
-4.164100 0.408900
-4.142800 0.416400
-4.121400 0.424000
-4.100100 0.431800
-4.078700 0.439700
-4.057400 0.447800
-4.036000 0.459500
-4.014700 0.477100
-3.993300 0.498500
-3.971900 0.522900
-3.950600 0.549000
-3.929200 0.576200
-3.907900 0.654200
-3.886500 0.960700
-3.865200 1.095900
-3.843800 1.218700
-3.822500 1.305400
-3.801100 1.321400
-3.779800 1.285700
-3.758400 1.280500
-3.737100 1.288300
-3.715700 1.302300
-3.694300 1.349100
-3.673000 1.334500
-3.651600 1.307600
-3.630300 1.269800
-3.608900 1.247900
-3.587600 1.242100
-3.566200 1.245700
-3.544900 1.213100
-3.523500 1.197400
-3.502200 1.183700
-3.480800 1.183500
-3.459500 1.199700
-3.438100 1.204600
-3.416700 1.208400
-3.395400 1.211800
-3.374000 1.214000
-3.352700 1.214900
-3.331300 1.223700
-3.310000 1.266200
-3.288600 1.246200
-3.267300 1.236700
-3.245900 1.234500
-3.224600 1.240300
-3.203200 1.254000
-3.181800 1.274800
-3.160500 1.305100
-3.139100 1.332800
-3.117800 1.359000
-3.096400 1.403600
-3.075100 1.427200
-3.053700 1.399100
-3.032400 1.354400
-3.011000 1.274300
-2.989700 1.207100
-2.968300 1.151300
-2.947000 1.119100
-2.925600 1.096300
-2.904200 1.083400
-2.882900 1.071300
-2.861500 1.058000
-2.840200 1.043600
-2.818800 1.013300
-2.797500 1.009400
-2.776100 1.019400
-2.754800 1.020500
-2.733400 1.015100
-2.712100 1.000300
-2.690700 1.008200
-2.669400 0.947500
-2.648000 0.911100
-2.626600 0.902400
-2.605300 0.907200
-2.583900 0.921300
-2.562600 0.970700
-2.541200 0.931600
-2.519900 0.900800
-2.498500 0.895500
-2.477200 0.781100
-2.455800 0.786600
-2.434500 0.792400
-2.413100 0.798900
-2.391700 0.806100
-2.370400 0.811400
-2.349000 0.820800
-2.327700 0.833600
-2.306300 0.848800
-2.285000 0.864300
-2.263600 0.895900
-2.242300 0.910800
-2.220900 0.925200
-2.199600 0.938400
-2.178200 0.949900
-2.156900 0.959700
-2.135500 0.967800
-2.114100 0.974700
-2.092800 0.983000
-2.071400 1.000200
-2.050100 1.016000
-2.028700 1.028100
-2.007400 1.027600
-1.986000 1.030800
-1.964700 1.039500
-1.943300 1.048500
-1.922000 1.058300
-1.900600 1.069300
-1.879200 1.006400
-1.857900 0.999400
-1.836500 0.990400
-1.815200 0.979700
-1.793800 0.969000
-1.772500 0.985000
-1.751100 1.001000
-1.729800 0.980300
-1.708400 0.909200
-1.687100 0.898400
-1.665700 0.909900
-1.644400 0.937600
-1.623000 0.939400
-1.601600 0.928100
-1.580300 0.919800
-1.558900 0.919300
-1.537600 0.922000
-1.516200 0.927000
-1.494900 0.936100
-1.473500 0.941800
-1.452200 0.975400
-1.430800 0.999200
-1.409500 1.004300
-1.388100 1.007300
-1.366800 1.006600
-1.345400 1.008500
-1.324000 1.008700
-1.302700 1.004600
-1.281300 1.036300
-1.260000 1.056500
-1.238600 1.060400
-1.217300 1.056800
-1.195900 1.031700
-1.174600 1.042600
-1.153200 1.054500
-1.131900 1.069600
-1.110500 1.088900
-1.089100 1.112100
-1.067800 1.139100
-1.046400 1.168600
-1.025100 1.205000
-1.003700 1.247600
-0.982400 1.313700
-0.961000 1.393900
-0.939700 1.410400
-0.918300 1.403600
-0.897000 1.397600
-0.875600 1.405300
-0.854300 1.406700
-0.832900 1.414300
-0.811500 1.426200
-0.790200 1.440900
-0.768800 1.460500
-0.747500 1.459800
-0.726100 1.473600
-0.704800 1.497600
-0.683400 1.534500
-0.662100 1.555200
-0.640700 1.605000
-0.619400 1.961400
-0.598000 1.865400
-0.576700 1.699800
-0.555300 1.718800
-0.533900 1.750700
-0.512600 1.783700
-0.491200 1.813200
-0.469900 1.839300
-0.448500 1.836300
-0.427200 1.854800
-0.405800 1.881200
-0.384500 1.894000
-0.363100 1.889000
-0.341800 1.866300
-0.320400 1.849800
-0.299000 1.821300
-0.277700 1.798300
-0.256300 1.724200
-0.235000 1.611000
-0.213600 1.471600
-0.192300 1.322100
-0.170900 1.179100
-0.149600 1.086200
-0.128200 1.017500
-0.106900 0.981200
-0.085500 0.965700
-0.064200 0.923200
-0.042800 0.902800
-0.021400 0.884300
-0.000100 0.867600
0.021300 0.852700
0.042600 0.897100
0.064000 0.941600
0.085300 0.960000
0.106700 1.028200
0.128000 1.072500
0.149400 1.003500
0.170700 1.093500
0.192100 1.061800
0.213400 1.090600
0.234800 1.106400
0.256200 1.105200
0.277500 1.088600
0.298900 1.113000
0.320200 1.159000
0.341600 1.180100
0.362900 1.225100
0.384300 1.185200
0.405600 1.206000
0.427000 1.227200
0.448300 1.245500
0.469700 1.258600
0.491100 1.281000
0.512400 1.268100
0.533800 1.213100
0.555100 1.207100
0.576500 1.180800
0.597800 1.165400
0.619200 1.158000
0.640500 1.164600
0.661900 1.265600
0.683200 1.254300
0.704600 1.269200
0.725900 1.285000
0.747300 1.301200
0.768700 1.316100
0.790000 1.353500
0.811400 1.377600
0.832700 1.352900
0.854100 1.355800
0.875400 1.362100
0.896800 1.367700
0.918100 1.372600
0.939500 1.376900
0.960800 1.381000
0.982200 1.387600
1.003600 1.383700
1.024900 1.390400
1.046300 1.392600
1.067600 1.399800
1.089000 1.407700
1.110300 1.416300
1.131700 1.425600
1.153000 1.435800
1.174400 1.446700
1.195700 1.454200
1.217100 1.507400
1.238400 1.557400
1.259800 1.546500
1.281200 1.560000
1.302500 1.572600
1.323900 1.580700
1.345200 1.593800
1.366600 1.609100
1.387900 1.616700
1.409300 1.636200
1.430600 1.628000
1.452000 1.624500
1.473300 1.618300
1.494700 1.611300
1.516000 1.603600
1.537400 1.595100
1.558800 1.588200
1.580100 1.592000
1.601500 1.590600
1.622800 1.591600
1.644200 1.595300
1.665500 1.602000
1.686900 1.614500
1.708200 1.634300
1.729600 1.706600
1.750900 1.739300
1.772300 1.733400
1.793700 1.731600
1.815000 1.746800
1.836400 1.758900
1.857700 1.768200
1.879100 1.765500
1.900400 1.749100
1.921800 1.728500
1.943100 1.707000
1.964500 1.693800
1.985800 1.688800
2.007200 1.691900
2.028500 1.709000
2.049900 1.734800
2.071300 1.765200
2.092600 1.800900
2.114000 1.801700
2.135300 1.726600
2.156700 1.716800
2.178000 1.715900
2.199400 1.722300
2.220700 1.721500
2.242100 1.705300
2.263400 1.691000
2.284800 1.699400
2.306100 1.703300
2.327500 1.701900
2.348900 1.702400
2.370200 1.711700
2.391600 1.725600
2.412900 1.743200
2.434300 1.760500
2.455600 1.771000
2.477000 1.775700
2.498300 1.799500
2.519700 1.823200
2.541000 1.871600
2.562400 1.903200
2.583800 1.936700
2.605100 1.898000
2.626500 1.926500
2.647800 1.926700
2.669200 1.942400
2.690500 1.936800
2.711900 1.938800
2.733200 1.949200
2.754600 1.947000
2.775900 1.947200
2.797300 1.948900
2.818600 1.949200
2.840000 1.948600
2.861400 1.946900
2.882700 1.946100
2.904100 1.947100
2.925400 1.948800
2.946800 1.950900
2.968100 1.948700
2.989500 1.944800
3.010800 1.945900
3.032200 1.953400
3.053500 1.982800
3.074900 1.961400
3.096300 1.988600
3.117600 2.002800
3.139000 2.003000
3.160300 2.000700
3.181700 1.999500
3.203000 1.995200
3.224400 1.992400
3.245700 2.034100
3.267100 1.896000
3.288400 1.874500
3.309800 1.858300
3.331100 1.850700
3.352500 1.854100
3.373900 1.848600
3.395200 1.849000
3.416600 1.851800
3.437900 1.859500
3.459300 1.845200
3.480600 1.836300
3.502000 1.808200
3.523300 1.789700
3.544700 1.804200
3.566000 1.804900
3.587400 1.804400
3.608700 1.802800
3.630100 1.763900
3.651500 1.702700
3.672800 1.650200
3.694200 1.607100
3.715500 1.574900
3.736900 1.549200
3.758200 1.529200
3.779600 1.516000
3.800900 1.443600
3.822300 1.423600
3.843600 1.395300
3.865000 1.372300
3.886400 1.369200
3.907700 1.371300
3.929100 1.378300
3.950400 1.384400
3.971800 1.390900
3.993100 1.392700
4.014500 1.422700
4.035800 1.477000
4.057200 1.425900
4.078500 1.383800
4.099900 1.376300
4.121200 1.364400
4.142600 1.341300
4.164000 1.262100
4.185300 1.234000
4.206700 1.223400
4.228000 1.241700
4.249400 1.262400
4.270700 1.275100
4.292100 1.280900
4.313400 1.288700
4.334800 1.310500
4.356100 1.335000
4.377500 1.360500
4.398800 1.408600
4.420200 1.445900
4.441600 1.519800
4.462900 1.595700
4.484300 1.653700
4.505600 1.736800
4.527000 1.817800
4.548300 1.863300
4.569700 1.844000
4.591000 1.740800
4.612400 1.753300
4.633700 1.774800
4.655100 1.796300
4.676500 1.799700
4.697800 1.804100
4.719200 1.810200
4.740500 1.816400
4.761900 1.824900
4.783200 1.861100
4.804600 1.882100
4.825900 1.897700
4.847300 1.902000
4.868600 1.905600
4.890000 1.945200
4.911300 1.955800
4.932700 1.949800
4.954100 1.908000
4.975400 1.849400
4.996800 1.789300
5.018100 1.727200
5.039500 1.669500
5.060800 1.632500
5.082200 1.594800
5.103500 1.581800
5.124900 1.567900
5.146200 1.540700
5.167600 1.521600
5.188900 1.489100
5.210300 1.479800
5.231700 1.479000
5.253000 1.479100
5.274400 1.478600
5.295700 1.479900
5.317100 1.505000
5.338400 1.537700
5.359800 1.577700
5.381100 1.612300
5.402500 1.635300
5.423800 1.639000
5.445200 1.649700
5.466600 1.673400
5.487900 1.703600
5.509300 1.735200
5.530600 1.787800
5.552000 1.829100
5.573300 1.880900
5.594700 1.965300
5.616000 2.036000
5.637400 2.096100
5.658700 2.055600
5.680100 2.032500
5.701400 2.009800
5.722800 1.867800
5.744200 1.740800
5.765500 1.691100
5.786900 1.664600
5.808200 1.639600
5.829600 1.620200
5.850900 1.599600
5.872300 1.569800
5.893600 1.561200
5.915000 1.515800
5.936300 1.477700
5.957700 1.502600
5.979100 1.531400
6.000400 1.554800
6.021800 1.574500
6.043100 1.576500
6.064500 1.581500
6.085800 1.601400
6.107200 1.650500
6.128500 1.727200
6.149900 1.812000
6.171200 1.859700
6.192600 1.899400
6.213900 1.972200
6.235300 2.079700
6.256700 2.199800
6.278000 2.330100
6.299400 2.370100
6.320700 2.387400
6.342100 2.425900
6.363400 2.402000
6.384800 2.337000
6.406100 2.311500
6.427500 2.301400
6.448800 2.235200
6.470200 2.294000
6.491500 2.334200
6.512900 2.328600
6.534300 2.329000
6.555600 2.364100
6.577000 2.372500
6.598300 2.325200
6.619700 2.254800
6.641000 2.151600
6.662400 2.038500
6.683700 1.953000
6.705100 1.885800
6.726400 1.827400
6.747800 1.766300
6.769200 1.694200
6.790500 1.632000
6.811900 1.583500
6.833200 1.529400
6.854600 1.517600
6.875900 1.511100
6.897300 1.508900
6.918600 1.510500
6.940000 1.519300
6.961300 1.519800
6.982700 1.533800
7.004000 1.557900
7.025400 1.582900
7.046800 1.624800
7.068100 1.682500
7.089500 1.755900
7.110800 1.847500
7.132200 1.909900
7.153500 1.975700
7.174900 2.073800
7.196200 2.180100
7.217600 2.237200
7.238900 2.367700
7.260300 2.407000
7.281600 2.305600
7.303000 2.306400
7.324400 2.304000
7.345700 2.127200
7.367100 1.888700
7.388400 1.794500
7.409800 1.756100
7.431100 1.748100
7.452500 1.750800
7.473800 1.756600
7.495200 1.763700
7.516500 1.777400
7.537900 1.799300
7.559300 1.833800
7.580600 1.878800
7.602000 1.934600
7.623300 2.060900
7.644700 2.225300
7.666000 2.299000
7.687400 2.350300
7.708700 2.442600
7.730100 2.465600
7.751400 2.511500
7.772800 2.433200
7.794100 2.296100
7.815500 2.197800
7.836900 2.162300
7.858200 2.129500
7.879600 2.128800
7.900900 2.072100
7.922300 2.016400
7.943600 1.988200
7.965000 2.016300
7.986300 1.980400
8.007700 1.908300
8.029000 1.849900
8.050400 1.803200
8.071700 1.755000
8.093100 1.767500
8.114500 1.745700
8.135800 1.746800
8.157200 1.792900
8.178500 1.739400
8.199900 1.679400
8.221200 1.666300
8.242600 1.666100
8.263900 1.652000
8.285300 1.629200
8.306600 1.705500
8.328000 1.729600
8.349400 1.789000
8.370700 1.865100
8.392100 1.946700
8.413400 2.067600
8.434800 2.225700
8.456100 2.306400
8.477500 2.394300
8.498800 2.470600
8.520200 2.544300
8.541500 2.620300
8.562900 2.680500
8.584200 2.714900
8.605600 2.746900
8.627000 2.799000
8.648300 2.804500
8.669700 2.740300
8.691000 2.927900
8.712400 2.384200
8.733700 2.393300
8.755100 2.310300
8.776400 2.274500
8.797800 2.244300
8.819100 2.232300
8.840500 2.222600
8.861900 2.252900
8.883200 2.327300
8.904600 2.426700
8.925900 2.498600
8.947300 2.505200
8.968600 2.582500
8.990000 2.673000
9.011300 2.721400
9.032700 2.726800
9.054000 2.756400
9.075400 2.749400
9.096700 2.684400
9.118100 2.610800
9.139500 2.518400
9.160800 2.427200
9.182200 2.393500
9.203500 2.350900
9.224900 2.378300
9.246200 2.308800
9.267600 2.287200
9.288900 2.269400
9.310300 2.254900
9.331600 2.246000
9.353000 2.246400
9.374300 2.255600
9.395700 2.253300
9.417100 2.239400
9.438400 2.219800
9.459800 2.193500
9.481100 2.155800
9.502500 2.115600
9.523800 2.075800
9.545200 2.044100
9.566500 1.969700
9.587900 1.855000
