set title 'mp-1226027 - Density of States'
set xlabel 'Energy (eV)'
set ylabel 'DOS (states/eV)'
set grid
set xrange [-10:10]
set yrange [0:5.753]
set xzeroaxis lt -1
set terminal png size 800,600
set output 'mp-1226027_dos_gnuplot.png'
plot '-' using 1:2 with lines title 'DOS'
-5.913000 0.000000
-5.871400 0.000000
-5.829700 0.000000
-5.788100 0.000000
-5.746500 0.000000
-5.704900 0.000000
-5.663300 0.000000
-5.621700 0.000000
-5.580100 0.000000
-5.538400 0.000000
-5.496800 0.000000
-5.455200 0.000000
-5.413600 0.000000
-5.372000 0.000000
-5.330400 0.000000
-5.288800 0.000000
-5.247100 0.000000
-5.205500 0.000000
-5.163900 0.000000
-5.122300 0.000000
-5.080700 0.000000
-5.039100 0.000000
-4.997500 0.000000
-4.955800 0.000000
-4.914200 0.000000
-4.872600 0.000000
-4.831000 0.000000
-4.789400 0.000000
-4.747800 0.000000
-4.706200 0.000000
-4.664500 0.000000
-4.622900 0.000000
-4.581300 0.000000
-4.539700 0.000000
-4.498100 0.000000
-4.456500 0.000000
-4.414800 0.000000
-4.373200 0.000000
-4.331600 0.000000
-4.290000 0.000000
-4.248400 0.000000
-4.206800 0.000000
-4.165200 0.000000
-4.123500 0.000000
-4.081900 0.000000
-4.040300 0.000000
-3.998700 0.000000
-3.957100 0.000000
-3.915500 0.000000
-3.873900 0.000000
-3.832200 0.000000
-3.790600 0.000000
-3.749000 0.000000
-3.707400 0.000000
-3.665800 0.000000
-3.624200 0.000000
-3.582600 0.000000
-3.540900 0.000000
-3.499300 0.000000
-3.457700 0.000000
-3.416100 0.000000
-3.374500 0.000000
-3.332900 0.000000
-3.291300 0.000000
-3.249600 0.000000
-3.208000 0.000000
-3.166400 0.000000
-3.124800 0.000000
-3.083200 0.000000
-3.041600 0.000000
-3.000000 0.000000
-2.958300 0.000000
-2.916700 0.000000
-2.875100 0.000000
-2.833500 0.000000
-2.791900 0.000000
-2.750300 0.000000
-2.708700 0.000000
-2.667000 0.000000
-2.625400 0.000000
-2.583800 0.000000
-2.542200 0.000000
-2.500600 0.000000
-2.459000 0.000000
-2.417400 0.000000
-2.375700 0.000000
-2.334100 0.000000
-2.292500 0.000000
-2.250900 0.000000
-2.209300 0.000000
-2.167700 0.000000
-2.126000 0.000500
-2.084400 0.009100
-2.042800 0.023200
-2.001200 0.039800
-1.959600 0.047500
-1.918000 0.050700
-1.876400 0.056100
-1.834700 0.060900
-1.793100 0.066800
-1.751500 0.073100
-1.709900 0.079100
-1.668300 0.084800
-1.626700 0.090000
-1.585100 0.094400
-1.543400 0.098300
-1.501800 0.101900
-1.460200 0.105900
-1.418600 0.110300
-1.377000 0.115000
-1.335400 0.119900
-1.293800 0.124800
-1.252100 0.130100
-1.210500 0.135700
-1.168900 0.141400
-1.127300 0.147300
-1.085700 0.153500
-1.044100 0.160000
-1.002500 0.167700
-0.960800 0.177800
-0.919200 0.187300
-0.877600 0.195200
-0.836000 0.197300
-0.794400 0.190900
-0.752800 0.193800
-0.711200 0.196600
-0.669500 0.199500
-0.627900 0.202200
-0.586300 0.204900
-0.544700 0.207300
-0.503100 0.209500
-0.461500 0.211300
-0.419900 0.212800
-0.378200 0.214400
-0.336600 0.216000
-0.295000 0.218400
-0.253400 0.221400
-0.211800 0.224600
-0.170200 0.227900
-0.128600 0.231500
-0.086900 0.235100
-0.045300 0.238800
-0.003700 0.242700
0.037900 0.247000
0.079500 0.251500
0.121100 0.256000
0.162700 0.260500
0.204400 0.266100
0.246000 0.272000
0.287600 0.278100
0.329200 0.284700
0.370800 0.291700
0.412400 0.299200
0.454100 0.308600
0.495700 0.322400
0.537300 0.340100
0.578900 0.432700
0.620500 0.603500
0.662100 0.789000
0.703700 0.966500
0.745400 1.058600
0.787000 1.125000
0.828600 1.139100
0.870200 1.226800
0.911800 1.267900
0.953400 1.268900
0.995000 1.251200
1.036700 1.210000
1.078300 1.161600
1.119900 1.091800
1.161500 1.006600
1.203100 0.924800
1.244700 0.821500
1.286300 0.783500
1.328000 0.761500
1.369600 0.740200
1.411200 0.746600
1.452800 0.809600
1.494400 0.998500
1.536000 1.057000
1.577600 1.148100
1.619300 1.227000
1.660900 1.322700
1.702500 1.424900
1.744100 1.509700
1.785700 1.621900
1.827300 1.766700
1.868900 1.875000
1.910600 2.027600
1.952200 2.085900
1.993800 2.074800
2.035400 2.182800
2.077000 2.346400
2.118600 2.739900
2.160200 2.408200
2.201900 2.352100
2.243500 2.255000
2.285100 2.222200
2.326700 2.198000
2.368300 2.257600
2.409900 2.236600
2.451500 2.221500
2.493200 2.208200
2.534800 2.001700
2.576400 1.871100
2.618000 1.781400
2.659600 1.692600
2.701200 1.570300
2.742900 1.785700
2.784500 1.678800
2.826100 1.056600
2.867700 0.519700
2.909300 0.466400
2.950900 0.497300
2.992500 0.690600
3.034200 1.049200
3.075800 1.405700
3.117400 1.886700
3.159000 2.510100
3.200600 2.626000
3.242200 2.479500
3.283800 2.495000
3.325500 2.332300
3.367100 2.270600
3.408700 2.173500
3.450300 2.291000
3.491900 2.566800
3.533500 2.723800
3.575100 2.661100
3.616800 2.485500
3.658400 2.117800
3.700000 1.744800
3.741600 1.771700
3.783200 2.198700
3.824800 2.579000
3.866400 2.489600
3.908100 2.656200
3.949700 2.766200
3.991300 3.075300
4.032900 3.024500
4.074500 3.222800
4.116100 2.673300
4.157700 2.425600
4.199400 2.184700
4.241000 2.055500
4.282600 1.952400
4.324200 1.881900
4.365800 1.890600
4.407400 1.820300
4.449000 1.730200
4.490700 1.697500
4.532300 1.726400
4.573900 1.755700
4.615500 1.906200
4.657100 1.917100
4.698700 2.000500
4.740300 2.190200
4.782000 1.938800
4.823600 1.730900
4.865200 1.640800
4.906800 1.592100
4.948400 1.601400
4.990000 1.680100
5.031700 1.750600
5.073300 1.846900
5.114900 2.080600
5.156500 2.324700
5.198100 2.873200
5.239700 2.784000
5.281300 2.950300
5.323000 3.230800
5.364600 3.084700
5.406200 2.891300
5.447800 2.946900
5.489400 3.431600
5.531000 3.957500
5.572600 3.053200
5.614300 2.814400
5.655900 3.060600
5.697500 3.442200
5.739100 3.277500
5.780700 3.123500
5.822300 3.513000
5.863900 3.927800
5.905600 4.147600
5.947200 3.801000
5.988800 3.975500
6.030400 3.557000
6.072000 3.053400
6.113600 3.282200
6.155200 3.104600
6.196900 2.892500
6.238500 2.563900
6.280100 2.863900
6.321700 3.822400
6.363300 4.892000
6.404900 4.608300
6.446500 4.038600
6.488200 3.531100
6.529800 3.470100
6.571400 3.468200
6.613000 3.397200
6.654600 3.235800
6.696200 3.215700
6.737800 3.077900
6.779500 2.998500
6.821100 3.380400
6.862700 3.882100
6.904300 3.831400
6.945900 3.987100
6.987500 3.523800
7.029100 3.523000
7.070800 4.081200
7.112400 4.155100
7.154000 3.995800
7.195600 3.577600
7.237200 3.303800
7.278800 3.505200
7.320400 3.606600
7.362100 3.358600
7.403700 3.220200
7.445300 3.066600
7.486900 2.970700
7.528500 2.872200
7.570100 2.781800
7.611800 2.662600
7.653400 2.657400
7.695000 2.726700
7.736600 2.824600
7.778200 2.969500
7.819800 3.096200
7.861400 3.238000
7.903100 3.504600
7.944700 4.250000
7.986300 4.610900
8.027900 5.229800
8.069500 4.116000
8.111100 3.920300
8.152700 3.869500
8.194400 2.920800
8.236000 2.865400
8.277600 2.760200
8.319200 2.890400
8.360800 2.969100
8.402400 2.994900
8.444000 3.094100
8.485700 3.320800
8.527300 3.505400
8.568900 3.546500
8.610500 2.857100
8.652100 2.551900
8.693700 2.283300
8.735300 2.007500
8.777000 1.694000
8.818600 1.563700
8.860200 1.476000
8.901800 1.339300
8.943400 1.476800
8.985000 0.990600
9.026600 0.774400
9.068300 0.758600
9.109900 0.713900
9.151500 0.693600
9.193100 0.699200
9.234700 0.703900
9.276300 0.709200
9.317900 0.719500
9.359600 0.727800
9.401200 0.724900
9.442800 0.722200
9.484400 0.719000
9.526000 0.711100
9.567600 0.699400
9.609200 0.690600
9.650900 0.698200
9.692500 0.654600
9.734100 0.649600
9.775700 0.646400
9.817300 0.644100
9.858900 0.642300
9.900600 0.640900
9.942200 0.639200
9.983800 0.637900
10.025400 0.636100
10.067000 0.634000
10.108600 0.631700
10.150200 0.629400
10.191900 0.628300
10.233500 0.627500
10.275100 0.626800
10.316700 0.630100
10.358300 0.630200
10.399900 0.630700
10.441500 0.631100
10.483200 0.630700
10.524800 0.628900
10.566400 0.625000
10.608000 0.616900
10.649600 0.595300
10.691200 0.590700
10.732800 0.590400
10.774500 0.590300
10.816100 0.590200
10.857700 0.589500
10.899300 0.587900
10.940900 0.586700
10.982500 0.582200
11.024100 0.576600
11.065800 0.571400
11.107400 0.566400
11.149000 0.561300
11.190600 0.556600
11.232200 0.552100
11.273800 0.547800
11.315400 0.543700
11.357100 0.539800
11.398700 0.536200
11.440300 0.532600
11.481900 0.529100
11.523500 0.525900
11.565100 0.523500
11.606700 0.521600
11.648400 0.522500
11.690000 0.525100
11.731600 0.527600
11.773200 0.528000
11.814800 0.526200
11.856400 0.521500
11.898000 0.508800
11.939700 0.499300
11.981300 0.494100
12.022900 0.489800
12.064500 0.490900
12.106100 0.489600
12.147700 0.484400
12.189400 0.479100
12.231000 0.474500
12.272600 0.469900
12.314200 0.465100
12.355800 0.460500
12.397400 0.456200
12.439000 0.452500
12.480700 0.453600
12.522300 0.462600
12.563900 0.476400
12.605500 0.502900
12.647100 0.507300
12.688700 0.473100
12.730300 0.446300
12.772000 0.436800
12.813600 0.432600
12.855200 0.424100
12.896800 0.412300
12.938400 0.406500
12.980000 0.401500
13.021600 0.397200
13.063300 0.394700
13.104900 0.406100
13.146500 0.416100
13.188100 0.414500
13.229700 0.406500
13.271300 0.392500
13.312900 0.387600
13.354600 0.384600
13.396200 0.383900
13.437800 0.385900
13.479400 0.390600
13.521000 0.426700
13.562600 0.476500
13.604200 0.510300
13.645900 0.516400
13.687500 0.497600
13.729100 0.477600
13.770700 0.459700
13.812300 0.444800
13.853900 0.433100
13.895500 0.418800
13.937200 0.405100
13.978800 0.391600
14.020400 0.378300
14.062000 0.364200
14.103600 0.349900
14.145200 0.338500
14.186800 0.316800
14.228500 0.306300
14.270100 0.296800
14.311700 0.287700
14.353300 0.279000
14.394900 0.270800
14.436500 0.263100
14.478100 0.256800
14.519800 0.264700
14.561400 0.270200
14.603000 0.276600
14.644600 0.282400
14.686200 0.287000
14.727800 0.291600
14.769500 0.303800
14.811100 0.321400
14.852700 0.357400
14.894300 0.426000
14.935900 0.516400
14.977500 0.591700
15.019100 0.633800
15.060800 0.636900
15.102400 0.639100
15.144000 0.638600
15.185600 0.619800
15.227200 0.610800
15.268800 0.633700
15.310400 0.620900
15.352100 0.589600
15.393700 0.567600
15.435300 0.557000
15.476900 0.561800
15.518500 0.531000
15.560100 0.512900
15.601700 0.497300
15.643400 0.483000
15.685000 0.469200
15.726600 0.458900
15.768200 0.451700
15.809800 0.543400
15.851400 0.759000
15.893000 0.670500
15.934700 0.628500
15.976300 0.608100
16.017900 0.593500
16.059500 0.592400
16.101100 0.595500
16.142700 0.599700
16.184300 0.605900
16.226000 0.611100
16.267600 0.609600
16.309200 0.604600
16.350800 0.600400
16.392400 0.596800
16.434000 0.594000
16.475600 0.590900
16.517300 0.587100
16.558900 0.582600
16.600500 0.581300
16.642100 0.585500
16.683700 0.583000
16.725300 0.573300
16.766900 0.567200
16.808600 0.561200
16.850200 0.575400
16.891800 0.555800
16.933400 0.540900
16.975000 0.530000
17.016600 0.515600
17.058300 0.496700
17.099900 0.488000
17.141500 0.485300
17.183100 0.480500
17.224700 0.474100
17.266300 0.466300
17.307900 0.455800
17.349600 0.446400
17.391200 0.438000
17.432800 0.428500
17.474400 0.418100
17.516000 0.414200
17.557600 0.410500
17.599200 0.406800
17.640900 0.403600
17.682500 0.401400
17.724100 0.400900
17.765700 0.402300
17.807300 0.405300
17.848900 0.406700
17.890500 0.403200
17.932200 0.406900
17.973800 0.416300
18.015400 0.432700
18.057000 0.456600
18.098600 0.485100
18.140200 0.518400
18.181800 0.557700
18.223500 0.602900
18.265100 0.651000
18.306700 0.709400
18.348300 0.765500
18.389900 0.785700
18.431500 0.793000
18.473100 0.824600
18.514800 0.855200
18.556400 0.860500
18.598000 0.844400
18.639600 0.815300
18.681200 0.789400
18.722800 0.771200
18.764400 0.780400
18.806100 0.834200
18.847700 0.896300
18.889300 0.888200
18.930900 0.860400
18.972500 0.829700
19.014100 0.810200
19.055700 0.805100
19.097400 0.796800
19.139000 0.791600
19.180600 0.788300
19.222200 0.786100
19.263800 0.785300
19.305400 0.794400
19.347100 0.804000
19.388700 0.813700
19.430300 0.831400
19.471900 0.853200
19.513500 0.859100
19.555100 0.876900
19.596700 0.886700
19.638400 0.893200
19.680000 0.899100
19.721600 0.901700
19.763200 0.899900
19.804800 0.897200
19.846400 0.892500
19.888000 0.890600
19.929700 0.907600
19.971300 0.879300
20.012900 0.851100
20.054500 0.841600
20.096100 0.832900
20.137700 0.825600
20.179300 0.818800
20.221000 0.815100
20.262600 0.817400
20.304200 0.824400
20.345800 0.834900
20.387400 0.848600
20.429000 0.863000
20.470600 0.879900
20.512300 0.903500
20.553900 0.928000
20.595500 0.946300
20.637100 0.957500
20.678700 0.963700
20.720300 0.963500
20.761900 0.957700
20.803600 0.951100
20.845200 0.951100
20.886800 0.956100
20.928400 0.974200
20.970000 0.996900
21.011600 1.009900
21.053200 1.036200
21.094900 1.034900
21.136500 1.043600
21.178100 1.046100
21.219700 1.046800
21.261300 1.051000
21.302900 1.063400
21.344500 1.059700
21.386200 1.027900
21.427800 1.004700
21.469400 0.992700
21.511000 0.984400
21.552600 0.976900
21.594200 0.968900
21.635800 0.963500
21.677500 0.957900
21.719100 0.952200
21.760700 0.948900
21.802300 0.945300
21.843900 0.941500
21.885500 0.940000
21.927200 0.940000
21.968800 0.962200
22.010400 0.956700
22.052000 0.950800
22.093600 0.946100
22.135200 0.943300
22.176800 0.942200
22.218500 0.939900
22.260100 0.943900
22.301700 0.946400
22.343300 0.947300
22.384900 0.948300
22.426500 0.948200
22.468100 0.948000
22.509800 0.947100
22.551400 0.942100
22.593000 0.935100
22.634600 0.930000
22.676200 0.921200
22.717800 0.917400
22.759400 0.914200
22.801100 0.910800
22.842700 0.907500
22.884300 0.905700
22.925900 0.904700
22.967500 0.904400
23.009100 0.907500
23.050700 0.915400
23.092400 0.928700
23.134000 0.926500
23.175600 0.921100
23.217200 0.913500
23.258800 0.903900
23.300400 0.891600
23.342000 0.877900
23.383700 0.866100
23.425300 0.858800
23.466900 0.856400
23.508500 0.858800
23.550100 0.865900
23.591700 0.876300
23.633300 0.890900
23.675000 0.907500
23.716600 0.908900
23.758200 0.918400
23.799800 0.947400
23.841400 0.953900
23.883000 0.964700
23.924600 0.988300
23.966300 1.004800
24.007900 1.019100
24.049500 1.036300
24.091100 1.056500
24.132700 1.076300
24.174300 1.068100
24.216000 1.006400
24.257600 0.990800
24.299200 0.958700
24.340800 0.924200
24.382400 0.894300
24.424000 0.872300
24.465600 0.852500
24.507300 0.843000
24.548900 0.834200
24.590500 0.818200
24.632100 0.791400
24.673700 0.759900
24.715300 0.733900
24.756900 0.721200
24.798600 0.712800
24.840200 0.708600
24.881800 0.747200
24.923400 0.779400
24.965000 0.788700
25.006600 0.800500
25.048200 0.816700
25.089900 0.846900
25.131500 0.892700
25.173100 0.946800
25.214700 0.983100
25.256300 1.025200
25.297900 1.041800
25.339500 1.074800
25.381200 1.126500
25.422800 1.207400
25.464400 1.209000
25.506000 1.194700
25.547600 1.108300
25.589200 1.058300
25.630800 1.012700
25.672500 0.988100
25.714100 1.020600
25.755700 1.043100
25.797300 1.072700
25.838900 1.106700
25.880500 1.167900
25.922100 1.237000
25.963800 1.275900
26.005400 1.254800
26.047000 1.231100
26.088600 1.200900
26.130200 1.170100
26.171800 1.133700
26.213400 1.088600
26.255100 1.061900
26.296700 1.041200
26.338300 1.024900
26.379900 1.012400
26.421500 1.003700
26.463100 1.000500
26.504800 0.998300
26.546400 0.996600
26.588000 0.995400
26.629600 0.993600
26.671200 0.986700
26.712800 0.984700
26.754400 0.996400
26.796100 0.957900
26.837700 0.945600
26.879300 0.931100
26.920900 0.912300
26.962500 0.884000
27.004100 0.860200
27.045700 0.843100
27.087400 0.839700
27.129000 0.841800
27.170600 0.847300
27.212200 0.855900
27.253800 0.859800
27.295400 0.853400
27.337000 0.847400
27.378700 0.840700
27.420300 0.835000
27.461900 0.834400
27.503500 0.833800
27.545100 0.831600
27.586700 0.844600
27.628300 0.824800
27.670000 0.829300
27.711600 0.842600
27.753200 0.861500
27.794800 0.882500
27.836400 0.904200
27.878000 0.918100
27.919600 0.918200
27.961300 0.901300
28.002900 0.887600
28.044500 0.889800
28.086100 0.867800
28.127700 0.864700
28.169300 0.898600
28.210900 0.923300
28.252600 0.954100
28.294200 1.025400
28.335800 1.075700
28.377400 1.106700
28.419000 1.148900
28.460600 1.152500
28.502200 1.141000
28.543900 1.124700
28.585500 1.129000
28.627100 1.124600
28.668700 1.082300
28.710300 1.033000
28.751900 1.059300
28.793500 1.107500
28.835200 1.140200
28.876800 1.135800
28.918400 1.068700
28.960000 0.972700
29.001600 0.892300
29.043200 0.824100
29.084900 0.782600
29.126500 0.764600
29.168100 0.769700
29.209700 0.788600
29.251300 0.803900
29.292900 0.831400
29.334500 0.873600
29.376200 0.903500
29.417800 0.916000
29.459400 0.922100
29.501000 0.928700
29.542600 0.941900
29.584200 0.960400
29.625800 0.988700
29.667500 1.019400
29.709100 1.053800
29.750700 1.112000
29.792300 1.135100
29.833900 1.158300
29.875500 1.201400
29.917100 1.263100
29.958800 1.313800
30.000400 1.256100
30.042000 1.161300
30.083600 1.115700
30.125200 1.100100
30.166800 1.087200
30.208400 1.093800
30.250100 1.079600
30.291700 1.051700
30.333300 1.042400
30.374900 1.109800
30.416500 1.058500
30.458100 1.058300
30.499700 1.067300
30.541400 1.080000
30.583000 1.099300
30.624600 1.125200
30.666200 1.161000
30.707800 1.200900
30.749400 1.224000
30.791000 1.236200
30.832700 1.252000
30.874300 1.274500
30.915900 1.298400
30.957500 1.308600
30.999100 1.288700
31.040700 1.273500
31.082300 1.248400
31.124000 1.252100
31.165600 1.254100
31.207200 1.236800
31.248800 1.230600
31.290400 1.221800
31.332000 1.211300
31.373700 1.190100
31.415300 1.161500
31.456900 1.147000
31.498500 1.131400
31.540100 1.103300
31.581700 1.070700
31.623300 1.044500
31.665000 1.031700
31.706600 1.027600
31.748200 1.018600
31.789800 1.014200
31.831400 1.034100
31.873000 1.073600
31.914600 1.110400
31.956300 1.120000
31.997900 1.093900
32.039500 1.096200
32.081100 1.070300
32.122700 1.017600
32.164300 0.978400
32.205900 0.949200
32.247600 0.936200
32.289200 0.924700
32.330800 0.929900
32.372400 0.936800
32.414000 0.930800
32.455600 0.930900
32.497200 0.941900
32.538900 0.954900
32.580500 0.966100
32.622100 1.002500
32.663700 1.011100
32.705300 0.957500
32.746900 0.957300
32.788500 0.926300
32.830200 0.901600
32.871800 0.876500
32.913400 0.848500
32.955000 0.835900
32.996600 0.819300
33.038200 0.778500
33.079800 0.717200
33.121500 0.665800
33.163100 0.624000
33.204700 0.593800
33.246300 0.578000
33.287900 0.559100
33.329500 0.535900
33.371100 0.503200
33.412800 0.470400
33.454400 0.459400
33.496000 0.472700
33.537600 0.490600
33.579200 0.469700
33.620800 0.464400
33.662500 0.460000
33.704100 0.453500
33.745700 0.450300
33.787300 0.454300
33.828900 0.453100
33.870500 0.451700
33.912100 0.453700
33.953800 0.475300
33.995400 0.510800
34.037000 0.465300
34.078600 0.470000
34.120200 0.481600
34.161800 0.507100
34.203400 0.546500
34.245100 0.595100
34.286700 0.640900
34.328300 0.681700
34.369900 0.725800
34.411500 0.797300
34.453100 0.865300
34.494700 0.901100
34.536400 0.900400
34.578000 0.900800
34.619600 0.906300
34.661200 0.953400
34.702800 1.020700
34.744400 1.027200
34.786000 1.040200
34.827700 1.035400
34.869300 1.054100
34.910900 1.072300
34.952500 1.080300
34.994100 1.080600
35.035700 1.082500
35.077300 1.062100
35.119000 1.059800
35.160600 1.073100
35.202200 1.130100
35.243800 1.087900
35.285400 1.053300
35.327000 1.047200
35.368600 1.054200
35.410300 1.093100
35.451900 1.103900
35.493500 1.112800
35.535100 1.134200
35.576700 1.174800
35.618300 1.205000
35.659900 1.236200
35.701600 1.260700
35.743200 1.242800
35.784800 1.237600
35.826400 1.223100
35.868000 1.201800
35.909600 1.179900
35.951200 1.134100
35.992900 1.123100
36.034500 1.125000
36.076100 1.149700
36.117700 1.175500
36.159300 1.216000
36.200900 1.284000
36.242600 1.301800
36.284200 1.309300
36.325800 1.328000
36.367400 1.402600
36.409000 1.483000
36.450600 1.567100
36.492200 1.611400
36.533900 1.637600
36.575500 1.624000
36.617100 1.616200
36.658700 1.549000
36.700300 1.509300
36.741900 1.410300
36.783500 1.335500
36.825200 1.239000
36.866800 1.143200
36.908400 1.084700
36.950000 1.061100
36.991600 1.027700
37.033200 1.006400
37.074800 0.988000
37.116500 0.976100
37.158100 0.979800
37.199700 0.997800
37.241300 0.977400
37.282900 0.978300
37.324500 0.980800
37.366100 0.992200
37.407800 1.013600
37.449400 1.037400
37.491000 1.050000
37.532600 1.069700
37.574200 1.065500
37.615800 1.073900
37.657400 1.082300
37.699100 1.094000
37.740700 1.105100
