set title 'mp-1215575 - Density of States'
set xlabel 'Energy (eV)'
set ylabel 'DOS (states/eV)'
set grid
set xrange [-10:10]
set yrange [0:44.496]
set xzeroaxis lt -1
set terminal png size 800,600
set output 'mp-1215575_dos_gnuplot.png'
plot '-' using 1:2 with lines title 'DOS'
-6.908400 0.000000
-6.886600 0.000000
-6.864800 0.000000
-6.843000 0.000000
-6.821300 0.000000
-6.799500 0.000000
-6.777700 0.000000
-6.756000 0.000000
-6.734200 0.000000
-6.712400 0.000000
-6.690600 0.000000
-6.668900 0.000000
-6.647100 0.000000
-6.625300 0.000000
-6.603600 0.000000
-6.581800 0.000000
-6.560000 0.000000
-6.538300 0.000000
-6.516500 0.000000
-6.494700 0.000000
-6.472900 0.000000
-6.451200 0.000000
-6.429400 0.000000
-6.407600 0.000000
-6.385900 0.000000
-6.364100 0.000000
-6.342300 0.000000
-6.320600 0.000000
-6.298800 0.000000
-6.277000 0.000000
-6.255200 0.000000
-6.233500 0.000000
-6.211700 0.000000
-6.189900 0.000000
-6.168200 0.000000
-6.146400 0.000000
-6.124600 0.000000
-6.102900 0.000000
-6.081100 0.000000
-6.059300 0.000000
-6.037500 0.000000
-6.015800 0.000000
-5.994000 0.000000
-5.972200 0.000000
-5.950500 0.000000
-5.928700 0.000000
-5.906900 0.000000
-5.885100 0.000000
-5.863400 0.000000
-5.841600 0.000000
-5.819800 0.000000
-5.798100 0.000000
-5.776300 0.000000
-5.754500 0.000000
-5.732800 0.000000
-5.711000 0.000000
-5.689200 0.000000
-5.667400 0.000000
-5.645700 0.000000
-5.623900 0.000000
-5.602100 0.000000
-5.580400 0.000000
-5.558600 0.000000
-5.536800 0.000000
-5.515100 0.000000
-5.493300 0.000000
-5.471500 0.000000
-5.449700 0.000000
-5.428000 0.000000
-5.406200 0.000000
-5.384400 0.000000
-5.362700 0.000000
-5.340900 0.000000
-5.319100 0.000000
-5.297400 0.000000
-5.275600 0.000000
-5.253800 0.000000
-5.232000 0.000000
-5.210300 0.000000
-5.188500 0.000000
-5.166700 0.000000
-5.145000 0.000000
-5.123200 0.000000
-5.101400 0.000000
-5.079600 0.000000
-5.057900 0.000000
-5.036100 0.000000
-5.014300 0.000000
-4.992600 0.000000
-4.970800 0.000000
-4.949000 0.000000
-4.927300 0.000100
-4.905500 0.010000
-4.883700 0.028200
-4.861900 0.052000
-4.840200 0.081300
-4.818400 0.116000
-4.796600 0.158700
-4.774900 0.207100
-4.753100 0.255500
-4.731300 0.303900
-4.709600 0.322600
-4.687800 0.314900
-4.666000 0.316200
-4.644200 0.316200
-4.622500 0.309400
-4.600700 0.286100
-4.578900 0.264600
-4.557200 0.269500
-4.535400 0.274400
-4.513600 0.279400
-4.491900 0.284300
-4.470100 0.289200
-4.448300 0.294200
-4.426500 0.299100
-4.404800 0.304000
-4.383000 0.308900
-4.361200 0.313900
-4.339500 0.318800
-4.317700 0.323700
-4.295900 0.328400
-4.274100 0.331400
-4.252400 0.333400
-4.230600 0.334500
-4.208800 0.334500
-4.187100 0.333100
-4.165300 0.331700
-4.143500 0.330200
-4.121800 0.331200
-4.100000 0.337200
-4.078200 0.347300
-4.056400 0.361000
-4.034700 0.377200
-4.012900 0.396200
-3.991100 0.417100
-3.969400 0.439300
-3.947600 0.462900
-3.925800 0.487600
-3.904100 0.496400
-3.882300 0.500300
-3.860500 0.511400
-3.838700 0.523000
-3.817000 0.534700
-3.795200 0.546800
-3.773400 0.559700
-3.751700 0.573100
-3.729900 0.586500
-3.708100 0.599900
-3.686300 0.613500
-3.664600 0.627400
-3.642800 0.641700
-3.621000 0.656400
-3.599300 0.671400
-3.577500 0.706400
-3.555700 0.751300
-3.534000 0.813300
-3.512200 0.865300
-3.490400 0.919000
-3.468600 0.975800
-3.446900 1.034800
-3.425100 1.096100
-3.403300 1.161400
-3.381600 1.234600
-3.359800 1.343100
-3.338000 1.490900
-3.316300 1.644200
-3.294500 1.813600
-3.272700 1.995400
-3.250900 6.931600
-3.229200 8.635900
-3.207400 7.196400
-3.185600 6.150400
-3.163900 6.110500
-3.142100 11.313000
-3.120300 12.030400
-3.098600 13.697900
-3.076800 16.834300
-3.055000 14.007400
-3.033200 40.451000
-3.011500 16.825100
-2.989700 12.973100
-2.967900 11.141100
-2.946200 26.772400
-2.924400 14.002700
-2.902600 10.502200
-2.880800 16.162000
-2.859100 7.273300
-2.837300 15.243500
-2.815500 13.450500
-2.793800 12.123600
-2.772000 9.332600
-2.750200 9.569200
-2.728500 11.029800
-2.706700 19.730700
-2.684900 24.412100
-2.663100 17.776500
-2.641400 9.990100
-2.619600 5.785800
-2.597800 13.965000
-2.576100 7.408700
-2.554300 6.398200
-2.532500 5.043900
-2.510800 4.954000
-2.489000 4.859100
-2.467200 4.757100
-2.445400 5.111800
-2.423700 5.484000
-2.401900 4.936000
-2.380100 4.311900
-2.358400 3.688400
-2.336600 1.921700
-2.314800 1.893500
-2.293100 1.880400
-2.271300 1.873000
-2.249500 1.872400
-2.227700 1.878700
-2.206000 1.889500
-2.184200 1.823200
-2.162400 1.696100
-2.140700 1.715000
-2.118900 1.747500
-2.097100 1.801100
-2.075300 1.869200
-2.053600 1.952400
-2.031800 2.058700
-2.010000 2.174600
-1.988300 2.291000
-1.966500 2.407800
-1.944700 2.524800
-1.923000 2.695500
-1.901200 2.865800
-1.879400 2.985100
-1.857600 3.075900
-1.835900 3.156200
-1.814100 3.348200
-1.792300 3.534900
-1.770600 3.637400
-1.748800 3.584900
-1.727000 3.601000
-1.705300 3.766000
-1.683500 3.919900
-1.661700 4.042500
-1.639900 4.129900
-1.618200 4.229700
-1.596400 4.282300
-1.574600 4.323700
-1.552900 4.540200
-1.531100 5.064900
-1.509300 5.454700
-1.487600 6.416200
-1.465800 7.152400
-1.444000 7.269600
-1.422200 7.126300
-1.400500 7.425800
-1.378700 7.339000
-1.356900 7.507700
-1.335200 7.807000
-1.313400 8.183500
-1.291600 8.419400
-1.269800 8.727700
-1.248100 8.992300
-1.226300 9.324800
-1.204500 9.966800
-1.182800 9.992500
-1.161000 9.836800
-1.139200 9.311900
-1.117500 8.916100
-1.095700 8.836800
-1.073900 9.273500
-1.052100 10.488300
-1.030400 8.194900
-1.008600 8.330500
-0.986800 8.713200
-0.965100 8.999800
-0.943300 9.334500
-0.921500 10.187500
-0.899800 9.739100
-0.878000 9.436000
-0.856200 9.006400
-0.834400 8.564000
-0.812700 8.206700
-0.790900 8.143000
-0.769100 7.657400
-0.747400 7.154000
-0.725600 7.290900
-0.703800 7.592500
-0.682000 5.505400
-0.660300 5.641200
-0.638500 5.884900
-0.616700 6.302000
-0.595000 7.088000
-0.573200 7.788300
-0.551400 15.821700
-0.529700 7.090200
-0.507900 6.799800
-0.486100 7.101600
-0.464300 7.750800
-0.442600 8.427900
-0.420800 8.290300
-0.399000 8.381800
-0.377300 8.171200
-0.355500 7.891000
-0.333700 6.765500
-0.312000 6.141200
-0.290200 6.089900
-0.268400 6.343500
-0.246600 6.403200
-0.224900 8.175000
-0.203100 11.780100
-0.181300 10.876900
-0.159600 10.059300
-0.137800 8.680100
-0.116000 9.714000
-0.094300 9.493400
-0.072500 9.001300
-0.050700 8.445300
-0.028900 8.488200
-0.007200 8.526800
0.014600 8.929800
0.036400 9.354900
0.058100 10.112800
0.079900 11.360100
0.101700 11.686200
0.123500 12.186000
0.145200 13.460800
0.167000 16.758800
0.188800 12.084600
0.210500 12.329700
0.232300 13.105000
0.254100 14.594100
0.275800 16.052900
0.297600 13.808300
0.319400 11.411900
0.341200 12.514600
0.362900 13.908300
0.384700 14.566700
0.406500 13.923800
0.428200 12.944200
0.450000 12.524400
0.471800 10.417100
0.493500 13.327100
0.515300 13.704100
0.537100 13.962400
0.558900 15.702600
0.580600 16.145800
0.602400 13.596300
0.624200 13.165200
0.645900 13.752400
0.667700 12.404000
0.689500 10.224700
0.711200 8.394800
0.733000 8.619100
0.754800 9.061300
0.776600 8.843700
0.798300 8.792300
0.820100 8.594800
0.841900 9.002900
0.863600 8.910900
0.885400 8.034800
0.907200 7.537600
0.929000 7.913100
0.950700 7.638800
0.972500 7.818900
0.994300 7.965800
1.016000 8.497900
1.037800 8.839000
1.059600 8.939500
1.081300 9.027200
1.103100 9.344800
1.124900 9.204600
1.146700 8.990100
1.168400 10.130200
1.190200 11.248600
1.212000 9.798900
1.233700 10.040100
1.255500 10.239500
1.277300 10.716900
1.299000 11.973400
1.320800 9.291100
1.342600 9.231200
1.364400 9.229000
1.386100 9.047000
1.407900 9.250500
1.429700 11.086400
1.451400 12.692000
1.473200 10.194200
1.495000 9.789800
1.516700 10.147400
1.538500 9.789200
1.560300 10.207300
1.582100 8.325400
1.603800 8.185400
1.625600 7.907500
1.647400 8.491700
1.669100 8.227200
1.690900 8.346700
1.712700 8.283100
1.734500 8.043000
1.756200 7.914800
1.778000 7.828600
1.799800 8.206300
1.821500 8.726800
1.843300 8.127400
1.865100 7.803200
1.886800 8.112500
1.908600 8.378300
1.930400 8.600000
1.952200 8.714100
1.973900 8.759400
1.995700 8.659100
2.017500 8.441600
2.039200 8.272900
2.061000 8.086500
2.082800 8.067600
2.104500 7.829900
2.126300 7.562300
2.148100 7.240900
2.169900 7.072300
2.191600 7.067900
2.213400 7.150500
2.235200 7.364900
2.256900 7.618900
2.278700 7.495800
2.300500 8.424200
2.322300 9.530500
2.344000 10.069900
2.365800 11.589500
2.387600 14.006900
2.409300 7.992000
2.431100 7.952000
2.452900 9.334400
2.474600 6.932700
2.496400 7.086700
2.518200 6.991100
2.540000 6.647500
2.561700 7.000900
2.583500 7.114000
2.605300 7.199600
2.627000 8.397900
2.648800 12.174200
2.670600 10.374400
2.692300 8.037500
2.714100 4.403500
2.735900 3.072800
2.757700 2.938900
2.779400 2.808600
2.801200 2.664100
2.823000 2.479400
2.844700 2.065100
2.866500 2.039100
2.888300 2.011600
2.910000 1.990000
2.931800 1.960600
2.953600 1.931300
2.975400 1.877100
2.997100 1.825700
3.018900 1.782200
3.040700 1.766500
3.062400 1.768700
3.084200 1.776300
3.106000 1.785700
3.127800 1.789700
3.149500 1.791700
3.171300 1.792500
3.193100 1.792200
3.214800 1.791200
3.236600 1.788300
3.258400 1.783200
3.280100 1.777100
3.301900 1.772700
3.323700 1.768400
3.345500 1.764400
3.367200 1.761700
3.389000 1.759600
3.410800 1.761200
3.432500 1.762700
3.454300 1.761700
3.476100 1.761000
3.497800 1.761000
3.519600 1.759500
3.541400 1.755700
3.563200 1.746700
3.584900 1.728400
3.606700 1.720200
3.628500 1.713900
3.650200 1.712000
3.672000 1.715100
3.693800 1.724300
3.715500 1.733800
3.737300 1.742100
3.759100 1.749000
3.780900 1.754700
3.802600 1.757900
3.824400 1.757100
3.846200 1.746400
3.867900 1.732700
3.889700 2.350400
3.911500 3.726800
3.933300 1.734000
3.955000 1.606700
3.976800 1.604600
3.998600 1.603500
4.020300 1.600100
4.042100 1.597400
4.063900 1.609200
4.085600 1.651000
4.107400 1.657400
4.129200 1.587000
4.151000 1.517400
4.172700 1.449200
4.194500 1.388100
4.216300 1.374200
4.238000 1.373400
4.259800 1.373200
4.281600 1.373600
4.303300 1.375300
4.325100 1.378300
4.346900 1.382600
4.368700 1.389300
4.390400 1.398800
4.412200 1.417300
4.434000 1.430500
4.455700 1.437800
4.477500 1.442800
4.499300 1.446500
4.521000 1.448900
4.542800 1.451400
4.564600 1.454400
4.586400 1.456300
4.608100 1.457400
4.629900 1.457500
4.651700 1.457000
4.673400 1.457200
4.695200 1.458500
4.717000 1.460800
4.738800 1.458600
4.760500 1.453100
4.782300 1.443200
4.804100 1.432800
4.825800 1.422700
4.847600 1.413600
4.869400 1.404500
4.891100 1.395600
4.912900 1.386800
4.934700 1.426700
4.956500 1.443300
4.978200 1.519800
5.000000 1.598500
5.021800 1.659700
5.043500 1.742000
5.065300 1.834400
5.087100 1.898600
5.108800 1.952000
5.130600 1.995200
5.152400 2.031100
5.174200 2.080800
5.195900 2.205000
5.217700 3.025500
5.239500 1.536100
5.261200 1.489400
5.283000 1.454200
5.304800 1.429000
5.326600 1.455600
5.348300 1.489000
5.370100 1.565900
5.391900 1.346600
5.413600 1.232100
5.435400 1.202900
5.457200 1.179600
5.478900 1.160100
5.500700 1.143400
5.522500 1.141000
5.544300 1.139200
5.566000 1.140900
5.587800 1.144100
5.609600 1.146700
5.631300 1.150200
5.653100 1.156800
5.674900 1.175100
5.696600 1.219400
5.718400 1.378700
5.740200 1.508500
5.762000 1.496900
5.783700 1.426900
5.805500 1.366300
5.827300 1.315300
5.849000 1.273700
5.870800 1.245500
5.892600 1.261000
5.914300 1.272400
5.936100 1.277100
5.957900 1.281300
5.979700 1.284700
6.001400 1.287300
6.023200 1.288700
6.045000 1.289300
6.066700 1.283800
6.088500 1.264900
6.110300 1.273700
6.132100 1.324900
6.153800 1.411500
6.175600 1.464200
6.197400 1.445600
6.219100 1.364600
6.240900 1.326100
6.262700 1.318700
6.284400 1.316600
6.306200 1.320500
6.328000 1.326500
6.349800 1.332800
6.371500 1.339400
6.393300 1.346900
6.415100 1.358300
6.436800 1.370400
6.458600 1.383500
6.480400 1.397500
6.502100 1.412300
6.523900 1.680000
6.545700 1.726000
6.567500 1.275800
6.589200 1.256200
6.611000 1.284700
6.632800 1.314000
6.654500 1.351700
6.676300 1.420900
6.698100 1.508300
6.719800 1.679900
6.741600 1.851200
6.763400 2.008400
6.785200 1.907300
6.806900 1.834300
6.828700 1.809900
6.850500 1.799800
6.872200 1.593500
6.894000 1.509600
6.915800 1.513000
6.937600 1.537300
6.959300 1.552700
6.981100 1.557000
7.002900 1.554200
7.024600 1.563700
7.046400 1.572500
7.068200 1.582100
7.089900 1.609700
7.111700 1.658200
7.133500 1.721000
7.155300 1.780600
7.177000 1.832900
7.198800 1.900100
7.220600 1.856300
7.242300 1.834700
7.264100 1.799300
7.285900 1.749500
7.307600 1.688100
7.329400 1.630100
7.351200 1.538300
7.373000 1.467700
7.394700 1.421100
7.416500 1.391400
7.438300 1.361700
7.460000 1.341900
7.481800 1.335900
7.503600 1.346200
7.525300 1.364700
7.547100 1.611700
7.568900 1.570600
7.590700 1.536900
7.612400 1.538100
7.634200 1.659400
7.656000 1.663200
7.677700 1.424800
7.699500 1.263400
7.721300 1.236800
7.743100 1.221500
7.764800 1.213900
7.786600 1.210200
7.808400 1.213500
7.830100 1.215100
7.851900 1.216100
7.873700 1.220000
7.895400 1.226800
7.917200 1.233100
7.939000 1.241900
7.960800 1.253400
7.982500 1.259900
8.004300 1.278200
8.026100 1.297500
8.047800 1.319300
8.069600 1.344200
8.091400 1.378100
8.113100 1.425600
8.134900 1.491500
8.156700 1.558600
8.178500 1.625000
8.200200 1.690100
8.222000 1.757500
8.243800 1.824200
8.265500 1.883200
8.287300 1.924000
8.309100 1.913100
8.330900 1.891500
8.352600 1.879100
8.374400 1.891000
8.396200 1.929500
8.417900 1.949000
8.439700 1.951500
8.461500 1.935100
8.483200 1.897900
8.505000 1.958100
8.526800 2.104300
8.548600 2.213000
8.570300 1.945800
8.592100 1.649600
8.613900 1.438200
8.635600 1.285300
8.657400 1.208300
8.679200 1.197900
8.700900 1.235700
8.722700 1.272300
8.744500 1.302700
8.766300 1.326800
8.788000 1.348600
8.809800 1.368900
8.831600 1.390000
8.853300 1.388500
8.875100 1.359400
8.896900 1.321200
8.918600 1.289700
8.940400 1.291500
8.962200 1.340500
8.984000 1.410400
9.005700 1.461100
9.027500 1.482800
9.049300 1.481400
9.071000 1.477000
9.092800 1.535700
9.114600 1.632100
9.136400 1.725500
9.158100 1.740000
9.179900 1.801200
9.201700 1.800800
9.223400 1.755600
9.245200 1.760700
9.267000 1.769800
9.288700 1.778400
9.310500 1.788500
9.332300 1.810200
9.354100 1.843800
9.375800 1.883300
9.397600 1.929400
9.419400 1.984500
9.441100 2.041900
9.462900 2.069700
9.484700 2.053800
9.506400 2.009400
9.528200 1.965900
9.550000 1.926200
9.571800 1.888900
9.593500 1.858800
9.615300 1.828500
9.637100 1.795100
9.658800 1.762300
9.680600 1.735400
9.702400 1.714200
9.724100 1.697600
9.745900 1.687700
9.767700 1.687500
9.789500 1.696800
9.811200 1.714200
9.833000 1.736700
9.854800 1.842100
9.876500 1.944300
9.898300 1.978700
9.920100 1.950800
9.941900 1.924100
9.963600 1.906300
9.985400 1.900800
10.007200 1.829500
10.028900 1.786800
10.050700 1.763300
10.072500 1.739300
10.094200 1.720600
10.116000 1.707400
10.137800 1.700900
10.159600 1.699200
10.181300 1.699900
10.203100 1.705800
10.224900 1.715800
10.246600 1.723200
10.268400 1.731000
10.290200 1.732900
10.311900 1.739100
10.333700 1.739200
10.355500 1.746200
10.377300 1.762300
10.399000 1.779800
10.420800 1.791000
10.442600 1.800100
10.464300 1.809500
10.486100 1.819400
10.507900 1.791800
10.529600 1.768600
10.551400 1.764400
10.573200 1.763500
10.595000 1.754000
10.616700 1.735400
10.638500 1.707500
10.660300 1.705800
10.682000 1.632700
10.703800 1.603600
10.725600 1.584800
10.747400 1.572200
10.769100 1.563200
10.790900 1.560000
10.812700 1.559200
10.834400 1.554500
10.856200 1.545700
10.878000 1.535300
10.899700 1.526800
10.921500 1.519100
10.943300 1.511200
10.965100 1.504700
10.986800 1.499700
11.008600 1.499600
11.030400 1.559100
11.052100 1.687600
11.073900 1.983600
11.095700 1.844600
11.117400 1.870000
11.139200 1.912700
11.161000 1.948800
11.182800 1.980900
11.204500 2.039900
11.226300 2.053200
11.248100 1.999900
11.269800 1.993900
11.291600 1.970300
11.313400 1.978600
11.335200 1.986600
11.356900 1.994300
11.378700 1.938600
11.400500 1.931100
11.422200 1.937700
11.444000 1.952100
11.465800 1.951400
11.487500 1.934400
11.509300 1.900600
11.531100 1.860300
11.552900 1.827500
11.574600 1.801800
11.596400 1.783700
11.618200 1.780600
11.639900 1.797400
11.661700 1.842900
11.683500 1.908100
11.705200 1.973800
11.727000 2.685900
11.748800 1.866700
11.770600 1.797300
11.792300 1.790200
11.814100 1.786900
11.835900 1.783700
11.857600 1.783300
11.879400 1.787300
11.901200 1.792000
11.922900 1.798700
11.944700 1.802400
11.966500 1.804400
11.988300 1.806600
12.010000 1.812500
12.031800 1.810700
12.053600 1.811900
12.075300 1.813000
12.097100 1.813500
12.118900 1.818900
12.140700 1.820600
12.162400 1.822300
12.184200 1.824500
12.206000 1.826500
12.227700 1.870100
12.249500 1.918400
12.271300 1.977500
12.293000 2.046600
12.314800 2.126500
12.336600 2.081700
12.358400 2.011800
12.380100 1.980400
12.401900 1.973700
12.423700 1.963900
12.445400 1.952200
12.467200 1.939600
12.489000 1.923400
12.510700 1.908500
12.532500 1.895200
12.554300 1.882500
12.576100 1.877000
12.597800 1.877900
12.619600 1.882000
12.641400 1.886100
12.663100 1.891800
12.684900 1.899700
12.706700 1.908600
12.728400 1.919200
12.750200 1.932200
12.772000 1.946000
12.793800 1.960000
12.815500 1.974800
12.837300 1.990100
12.859100 2.006100
12.880800 2.024900
12.902600 2.047800
12.924400 2.073800
12.946200 2.102800
12.967900 2.143300
12.989700 2.199200
13.011500 2.247300
13.033200 2.284500
13.055000 2.311800
13.076800 2.342900
13.098500 2.371200
13.120300 2.398100
13.142100 2.416800
13.163900 2.440300
13.185600 2.465600
13.207400 2.496700
13.229200 2.518200
13.250900 2.508200
13.272700 2.471600
13.294500 2.456300
13.316200 2.446600
13.338000 2.439000
13.359800 2.428700
13.381600 2.419600
13.403300 2.409300
13.425100 2.396200
13.446900 2.381200
13.468600 2.364200
13.490400 2.347900
13.512200 2.318700
13.533900 2.206000
13.555700 2.127100
13.577500 2.085100
13.599300 2.050400
13.621000 2.003500
13.642800 1.947700
13.664600 1.904700
13.686300 1.857100
13.708100 1.831100
13.729900 1.814600
13.751700 1.802900
13.773400 1.796400
13.795200 1.790400
13.817000 1.781200
13.838700 1.773800
13.860500 1.780900
13.882300 1.785500
13.904000 1.757200
13.925800 1.729300
13.947600 1.732700
13.969400 1.737600
13.991100 1.743400
14.012900 1.752500
14.034700 1.761300
14.056400 1.769100
14.078200 1.776900
14.100000 1.785600
14.121700 1.798800
14.143500 1.815500
14.165300 1.843200
14.187100 1.870200
14.208800 1.894700
14.230600 1.946400
14.252400 1.989000
14.274100 2.021000
14.295900 2.040800
14.317700 2.059000
14.339500 2.085900
14.361200 2.111100
14.383000 2.133300
14.404800 2.151800
14.426500 2.168800
14.448300 2.185600
14.470100 2.207500
14.491800 2.235400
14.513600 2.230300
14.535400 2.227400
14.557200 2.241600
14.578900 2.270900
14.600700 2.329100
14.622500 2.440600
14.644200 2.573000
14.666000 2.645800
14.687800 2.642000
14.709500 2.650900
14.731300 2.678700
14.753100 2.724700
14.774900 2.775300
14.796600 2.835300
14.818400 2.896700
14.840200 2.917400
14.861900 2.903200
14.883700 2.854700
14.905500 2.758200
14.927200 2.613000
14.949000 2.511600
14.970800 2.503700
14.992600 2.498700
15.014300 2.478800
15.036100 2.450300
15.057900 2.422500
15.079600 2.391900
15.101400 2.376000
15.123200 2.375200
15.145000 2.386600
15.166700 2.398800
15.188500 2.406600
15.210300 2.408200
15.232000 2.405100
15.253800 2.399400
15.275600 2.387600
15.297300 2.378800
15.319100 2.385600
15.340900 2.409100
15.362700 2.458600
15.384400 2.544000
15.406200 2.593700
15.428000 2.616100
15.449700 2.626200
15.471500 2.630300
15.493300 2.626800
15.515000 2.615200
15.536800 2.599000
15.558600 2.579400
15.580400 2.540700
15.602100 2.511700
15.623900 2.523100
15.645700 2.547900
15.667400 2.563600
15.689200 2.567800
15.711000 2.563500
15.732700 2.546200
15.754500 2.511400
15.776300 2.498300
15.798100 2.512600
15.819800 2.511500
15.841600 2.503500
15.863400 2.503800
15.885100 2.506800
15.906900 2.521000
15.928700 2.526400
15.950500 2.437800
15.972200 2.420000
15.994000 2.420800
16.015800 2.423800
16.037500 2.428600
16.059300 2.435400
16.081100 2.443500
16.102800 2.455100
