set title 'mp-865425 - Density of States'
set xlabel 'Energy (eV)'
set ylabel 'DOS (states/eV)'
set grid
set xrange [-10:10]
set yrange [0:50.374]
set xzeroaxis lt -1
set terminal png size 800,600
set output 'mp-865425_dos_gnuplot.png'
plot '-' using 1:2 with lines title 'DOS'
-4.832300 0.000000
-4.815400 0.000000
-4.798500 0.000000
-4.781600 0.000000
-4.764800 0.000000
-4.747900 0.000000
-4.731000 0.000000
-4.714100 0.000000
-4.697200 0.000000
-4.680300 0.000000
-4.663400 0.000000
-4.646500 0.000000
-4.629600 0.000000
-4.612700 0.000000
-4.595800 0.000000
-4.578900 0.000000
-4.562000 0.000000
-4.545100 0.000000
-4.528200 0.000000
-4.511400 0.000000
-4.494500 0.000000
-4.477600 0.000000
-4.460700 0.000000
-4.443800 0.000000
-4.426900 0.000000
-4.410000 0.000000
-4.393100 0.000000
-4.376200 0.000000
-4.359300 0.000000
-4.342400 0.000000
-4.325500 0.000000
-4.308600 0.000000
-4.291700 0.000000
-4.274900 0.000000
-4.258000 0.000000
-4.241100 0.000000
-4.224200 0.000000
-4.207300 0.000000
-4.190400 0.000000
-4.173500 0.000000
-4.156600 0.000000
-4.139700 0.000000
-4.122800 0.000000
-4.105900 0.000000
-4.089000 0.000000
-4.072100 0.000000
-4.055200 0.000000
-4.038400 0.000000
-4.021500 0.000000
-4.004600 0.000000
-3.987700 0.000000
-3.970800 0.000000
-3.953900 0.000000
-3.937000 0.000000
-3.920100 0.000000
-3.903200 0.000000
-3.886300 0.000000
-3.869400 0.000000
-3.852500 0.000000
-3.835600 0.000000
-3.818700 0.000000
-3.801800 0.000000
-3.785000 0.000000
-3.768100 0.000000
-3.751200 0.000000
-3.734300 0.000000
-3.717400 0.000000
-3.700500 0.000000
-3.683600 0.000000
-3.666700 0.000000
-3.649800 0.000000
-3.632900 0.000000
-3.616000 0.000000
-3.599100 0.000000
-3.582200 0.000000
-3.565300 0.000000
-3.548500 0.000000
-3.531600 0.000000
-3.514700 0.000000
-3.497800 0.000000
-3.480900 0.000000
-3.464000 0.000000
-3.447100 0.000000
-3.430200 0.000000
-3.413300 0.000100
-3.396400 0.000300
-3.379500 0.001000
-3.362600 0.003000
-3.345700 0.007400
-3.328800 0.014900
-3.312000 0.025200
-3.295100 0.036800
-3.278200 0.048600
-3.261300 0.059700
-3.244400 0.070400
-3.227500 0.083600
-3.210600 0.106500
-3.193700 0.145000
-3.176800 0.192400
-3.159900 0.226000
-3.143000 0.222700
-3.126100 0.180600
-3.109200 0.121200
-3.092300 0.073300
-3.075400 0.057000
-3.058600 0.079100
-3.041700 0.135400
-3.024800 0.210400
-3.007900 0.280900
-2.991000 0.327700
-2.974100 0.345600
-2.957200 0.343900
-2.940300 0.341200
-2.923400 0.352600
-2.906500 0.374200
-2.889600 0.383700
-2.872700 0.369900
-2.855800 0.360200
-2.838900 0.410200
-2.822100 0.566200
-2.805200 0.842400
-2.788300 1.237400
-2.771400 1.784600
-2.754500 2.613900
-2.737600 3.990800
-2.720700 6.277000
-2.703800 9.789100
-2.686900 14.621200
-2.670000 20.545200
-2.653100 27.042800
-2.636200 33.419800
-2.619300 38.933800
-2.602400 42.950100
-2.585600 45.170200
-2.568700 45.794400
-2.551800 45.333800
-2.534900 44.104900
-2.518000 41.940500
-2.501100 38.492100
-2.484200 33.751500
-2.467300 28.189900
-2.450400 22.470800
-2.433500 17.134700
-2.416600 12.490400
-2.399700 8.659900
-2.382800 5.671200
-2.365900 3.514900
-2.349100 2.123100
-2.332200 1.327200
-2.315300 0.895200
-2.298400 0.637700
-2.281500 0.472700
-2.264600 0.394100
-2.247700 0.399500
-2.230800 0.456300
-2.213900 0.521800
-2.197000 0.572200
-2.180100 0.605000
-2.163200 0.624600
-2.146300 0.638400
-2.129400 0.661900
-2.112500 0.715900
-2.095700 0.807500
-2.078800 0.912200
-2.061900 0.982300
-2.045000 0.987000
-2.028100 0.950400
-2.011200 0.937800
-1.994300 0.993100
-1.977400 1.090600
-1.960500 1.157100
-1.943600 1.139800
-1.926700 1.051300
-1.909800 0.952400
-1.892900 0.902700
-1.876000 0.924600
-1.859200 1.005600
-1.842300 1.131600
-1.825400 1.322000
-1.808500 1.623000
-1.791600 2.053100
-1.774700 2.550200
-1.757800 2.990000
-1.740900 3.273000
-1.724000 3.392200
-1.707100 3.411600
-1.690200 3.393800
-1.673300 3.357300
-1.656400 3.294100
-1.639500 3.213500
-1.622700 3.150600
-1.605800 3.111600
-1.588900 3.031900
-1.572000 2.831000
-1.555100 2.513100
-1.538200 2.180900
-1.521300 1.940600
-1.504400 1.817200
-1.487500 1.766900
-1.470600 1.748200
-1.453700 1.757700
-1.436800 1.800000
-1.419900 1.846700
-1.403000 1.842800
-1.386100 1.750600
-1.369300 1.578000
-1.352400 1.371600
-1.335500 1.193900
-1.318600 1.098600
-1.301700 1.107300
-1.284800 1.198900
-1.267900 1.314000
-1.251000 1.373900
-1.234100 1.317800
-1.217200 1.140800
-1.200300 0.900900
-1.183400 0.681200
-1.166500 0.538200
-1.149600 0.479500
-1.132800 0.478500
-1.115900 0.504700
-1.099000 0.543900
-1.082100 0.596100
-1.065200 0.654100
-1.048300 0.689300
-1.031400 0.670700
-1.014500 0.601000
-0.997600 0.522100
-0.980700 0.484700
-0.963800 0.520200
-0.946900 0.636700
-0.930000 0.823600
-0.913100 1.059700
-0.896300 1.318600
-0.879400 1.567600
-0.862500 1.768100
-0.845600 1.893200
-0.828700 1.950300
-0.811800 1.986600
-0.794900 2.063900
-0.778000 2.213700
-0.761100 2.405100
-0.744200 2.568800
-0.727300 2.655000
-0.710400 2.660300
-0.693500 2.608200
-0.676600 2.532400
-0.659800 2.472100
-0.642900 2.451000
-0.626000 2.459100
-0.609100 2.479300
-0.592200 2.536200
-0.575300 2.694000
-0.558400 2.985600
-0.541500 3.354200
-0.524600 3.688200
-0.507700 3.919600
-0.490800 4.076500
-0.473900 4.247200
-0.457000 4.513800
-0.440100 4.912800
-0.423200 5.431500
-0.406400 6.035100
-0.389500 6.697300
-0.372600 7.392200
-0.355700 8.067200
-0.338800 8.662800
-0.321900 9.154900
-0.305000 9.549600
-0.288100 9.861500
-0.271200 10.118500
-0.254300 10.350500
-0.237400 10.563800
-0.220500 10.783100
-0.203600 11.112400
-0.186700 11.654000
-0.169900 12.333400
-0.153000 12.904700
-0.136100 13.194600
-0.119200 13.261200
-0.102300 13.254000
-0.085400 13.200800
-0.068500 13.018000
-0.051600 12.673400
-0.034700 12.256000
-0.017800 11.905100
-0.000900 11.709200
0.016000 11.663400
0.032900 11.700900
0.049800 11.751600
0.066600 11.755700
0.083500 11.638900
0.100400 11.333100
0.117300 10.853900
0.134200 10.321200
0.151100 9.854600
0.168000 9.454100
0.184900 9.023200
0.201800 8.510600
0.218700 7.986900
0.235600 7.570900
0.252500 7.322500
0.269400 7.221500
0.286300 7.193500
0.303200 7.120800
0.320000 6.895400
0.336900 6.525600
0.353800 6.151000
0.370700 5.891300
0.387600 5.704300
0.404500 5.451700
0.421400 5.097800
0.438300 4.782200
0.455200 4.669100
0.472100 4.766000
0.489000 4.928600
0.505900 5.033300
0.522800 5.111300
0.539700 5.286400
0.556500 5.586300
0.573400 5.855500
0.590300 5.893500
0.607200 5.684600
0.624100 5.469200
0.641000 5.571100
0.657900 6.124400
0.674800 6.939500
0.691700 7.630500
0.708600 7.898400
0.725500 7.718900
0.742400 7.296000
0.759300 6.884100
0.776200 6.664300
0.793000 6.722600
0.809900 7.065600
0.826800 7.628300
0.843700 8.270900
0.860600 8.798400
0.877500 9.041600
0.894400 8.954200
0.911300 8.628800
0.928200 8.220700
0.945100 7.858400
0.962000 7.593700
0.978900 7.409400
0.995800 7.286600
1.012700 7.259400
1.029600 7.361100
1.046400 7.520300
1.063300 7.571800
1.080200 7.402900
1.097100 7.063300
1.114000 6.721400
1.130900 6.525300
1.147800 6.507000
1.164700 6.589700
1.181600 6.657900
1.198500 6.634000
1.215400 6.525800
1.232300 6.418700
1.249200 6.402700
1.266100 6.490000
1.282900 6.617100
1.299800 6.731800
1.316700 6.852100
1.333600 7.026300
1.350500 7.252900
1.367400 7.461600
1.384300 7.564600
1.401200 7.511600
1.418100 7.300100
1.435000 6.958600
1.451900 6.550100
1.468800 6.190200
1.485700 6.016900
1.502600 6.098100
1.519400 6.362900
1.536300 6.642600
1.553200 6.781000
1.570100 6.708700
1.587000 6.448200
1.603900 6.095500
1.620800 5.795100
1.637700 5.678000
1.654600 5.779100
1.671500 6.003300
1.688400 6.178800
1.705300 6.159500
1.722200 5.921800
1.739100 5.611200
1.755900 5.499700
1.772800 5.852800
1.789700 6.762300
1.806600 8.064900
1.823500 9.439800
1.840400 10.616600
1.857300 11.485400
1.874200 12.019700
1.891100 12.167800
1.908000 11.874600
1.924900 11.171300
1.941800 10.194900
1.958700 9.141200
1.975600 8.227000
1.992500 7.645500
2.009300 7.488000
2.026200 7.701400
2.043100 8.149000
2.060000 8.713200
2.076900 9.334300
2.093800 9.958100
2.110700 10.459800
2.127600 10.639900
2.144500 10.342700
2.161400 9.612500
2.178300 8.725800
2.195200 8.034100
2.212100 7.749100
2.229000 7.853600
2.245800 8.176500
2.262700 8.530800
2.279600 8.802400
2.296500 8.954100
2.313400 8.992700
2.330300 8.963800
2.347200 8.964900
2.364100 9.085200
2.381000 9.282000
2.397900 9.358600
2.414800 9.130000
2.431700 8.596700
2.448600 7.921700
2.465500 7.273300
2.482300 6.739500
2.499200 6.359700
2.516100 6.152100
2.533000 6.085800
2.549900 6.081800
2.566800 6.084400
2.583700 6.110300
2.600600 6.204600
2.617500 6.360900
2.634400 6.496100
2.651300 6.489500
2.668200 6.251600
2.685100 5.784200
2.702000 5.191400
2.718900 4.623700
2.735700 4.191300
2.752600 3.920700
2.769500 3.779700
2.786400 3.724300
2.803300 3.714900
2.820200 3.706800
2.837100 3.655100
2.854000 3.541700
2.870900 3.402600
2.887800 3.335200
2.904700 3.457700
2.921600 3.810300
2.938500 4.275500
2.955400 4.643200
2.972200 4.797200
2.989100 4.822600
3.006000 4.933600
3.022900 5.326700
3.039800 6.078300
3.056700 7.084800
3.073600 8.074300
3.090500 8.746300
3.107400 8.946500
3.124300 8.708400
3.141200 8.162100
3.158100 7.450600
3.175000 6.702100
3.191900 6.001400
3.208700 5.356500
3.225600 4.728000
3.242500 4.120700
3.259400 3.620500
3.276300 3.309800
3.293200 3.158700
3.310100 3.027400
3.327000 2.778300
3.343900 2.382000
3.360800 1.934500
3.377700 1.585300
3.394600 1.437200
3.411500 1.488000
3.428400 1.645600
3.445200 1.791600
3.462100 1.839100
3.479000 1.756100
3.495900 1.560000
3.512800 1.300900
3.529700 1.039200
3.546600 0.825200
3.563500 0.690700
3.580400 0.651300
3.597300 0.704800
3.614200 0.822800
3.631100 0.956200
3.648000 1.068200
3.664900 1.160000
3.681800 1.253500
3.698600 1.355100
3.715500 1.452300
3.732400 1.530500
3.749300 1.571800
3.766200 1.547700
3.783100 1.446800
3.800000 1.308500
3.816900 1.208300
3.833800 1.198900
3.850700 1.267700
3.867600 1.348400
3.884500 1.374000
3.901400 1.320900
3.918300 1.212500
3.935100 1.097800
3.952000 1.024300
3.968900 1.014400
3.985800 1.054000
4.002700 1.110500
4.019600 1.158600
4.036500 1.182900
4.053400 1.164000
4.070300 1.087100
4.087200 0.976900
4.104100 0.903300
4.121000 0.931600
4.137900 1.072100
4.154800 1.286100
4.171600 1.520500
4.188500 1.713000
4.205400 1.784600
4.222300 1.672400
4.239200 1.391600
4.256100 1.047100
4.273000 0.771900
4.289900 0.652400
4.306800 0.701400
4.323700 0.877400
4.340600 1.117800
4.357500 1.356700
4.374400 1.528900
4.391300 1.579600
4.408200 1.490600
4.425000 1.298000
4.441900 1.077100
4.458800 0.897600
4.475700 0.782300
4.492600 0.701600
4.509500 0.613600
4.526400 0.514800
4.543300 0.445200
4.560200 0.445000
4.577100 0.516200
4.594000 0.621100
4.610900 0.708800
4.627800 0.755100
4.644700 0.789900
4.661500 0.880500
4.678400 1.070700
4.695300 1.335100
4.712200 1.587700
4.729100 1.729600
4.746000 1.706800
4.762900 1.547400
4.779800 1.334500
4.796700 1.132200
4.813600 0.945900
4.830500 0.761500
4.847400 0.596600
4.864300 0.492100
4.881200 0.465400
4.898000 0.490800
4.914900 0.531000
4.931800 0.574900
4.948700 0.633600
4.965600 0.704800
4.982500 0.758200
4.999400 0.768000
5.016300 0.749900
5.033200 0.757200
5.050100 0.838400
5.067000 0.998000
5.083900 1.195200
5.100800 1.378200
5.117700 1.516700
5.134500 1.596900
5.151400 1.595800
5.168300 1.487900
5.185200 1.286000
5.202100 1.054600
5.219000 0.867200
5.235900 0.756500
5.252800 0.710300
5.269700 0.699700
5.286600 0.701600
5.303500 0.712100
5.320400 0.750500
5.337300 0.839800
5.354200 0.976500
5.371100 1.126900
5.387900 1.256300
5.404800 1.346400
5.421700 1.384300
5.438600 1.354900
5.455500 1.251700
5.472400 1.087400
5.489300 0.891700
5.506200 0.708000
5.523100 0.585000
5.540000 0.556300
5.556900 0.620800
5.573800 0.744000
5.590700 0.881300
5.607600 0.999900
5.624400 1.088700
5.641300 1.149800
5.658200 1.183100
5.675100 1.173100
5.692000 1.098000
5.708900 0.967100
5.725800 0.846700
5.742700 0.825000
5.759600 0.930300
5.776500 1.090200
5.793400 1.187600
5.810300 1.159400
5.827200 1.038600
5.844100 0.913600
5.860900 0.863900
5.877800 0.921600
5.894700 1.061200
5.911600 1.211500
5.928500 1.292400
5.945400 1.262000
5.962300 1.139100
5.979200 0.984500
5.996100 0.865300
6.013000 0.831200
6.029900 0.902100
6.046800 1.064500
6.063700 1.282100
6.080600 1.511900
6.097500 1.710000
6.114300 1.828200
6.131200 1.826000
6.148100 1.706000
6.165000 1.534500
6.181900 1.400400
6.198800 1.331600
6.215700 1.266300
6.232600 1.123700
6.249500 0.893300
6.266400 0.645900
6.283300 0.475800
6.300200 0.447700
6.317100 0.578300
6.334000 0.832900
6.350800 1.131900
6.367700 1.376100
6.384600 1.488500
6.401500 1.451000
6.418400 1.313500
6.435300 1.162100
6.452200 1.064000
6.469100 1.030700
6.486000 1.030800
6.502900 1.031400
6.519800 1.026200
6.536700 1.028400
6.553600 1.040800
6.570500 1.037300
6.587300 0.979200
6.604200 0.857400
6.621100 0.718700
6.638000 0.643100
6.654900 0.690900
6.671800 0.866500
6.688700 1.119700
6.705600 1.371700
6.722500 1.548400
6.739400 1.610600
6.756300 1.566100
6.773200 1.455300
6.790100 1.327800
6.807000 1.226600
6.823900 1.176600
6.840700 1.168100
6.857600 1.154400
6.874500 1.078200
6.891400 0.919700
6.908300 0.719900
6.925200 0.552300
6.942100 0.465500
6.959000 0.454700
6.975900 0.489200
6.992800 0.557100
7.009700 0.674000
7.026600 0.854100
7.043500 1.082600
7.060400 1.311700
7.077200 1.475900
7.094100 1.524400
7.111000 1.454600
7.127900 1.312600
7.144800 1.158200
7.161700 1.032300
7.178600 0.956200
7.195500 0.944300
7.212400 0.998800
7.229300 1.084800
7.246200 1.127000
7.263100 1.055600
7.280000 0.868700
7.296900 0.646300
7.313700 0.500300
7.330600 0.510200
7.347500 0.696600
7.364400 1.030300
7.381300 1.447000
7.398200 1.847400
7.415100 2.106000
7.432000 2.118400
7.448900 1.866500
7.465800 1.437900
7.482700 0.976100
7.499600 0.610000
7.516500 0.415400
7.533400 0.415400
7.550200 0.589900
7.567100 0.879500
7.584000 1.189200
7.600900 1.416300
7.617800 1.496800
7.634700 1.436800
7.651600 1.298400
7.668500 1.149800
7.685400 1.033100
7.702300 0.974900
7.719200 1.003100
7.736100 1.124800
7.753000 1.288400
7.769900 1.393400
7.786800 1.354400
7.803600 1.160000
7.820500 0.874400
7.837400 0.591500
7.854300 0.381300
7.871200 0.266600
7.888100 0.238400
7.905000 0.280800
7.921900 0.373600
7.938800 0.482100
7.955700 0.567700
7.972600 0.617700
7.989500 0.652100
8.006400 0.691700
8.023300 0.723100
8.040100 0.705800
8.057000 0.613700
8.073900 0.470900
8.090800 0.342600
8.107700 0.292100
8.124600 0.340300
8.141500 0.456000
8.158400 0.577400
8.175300 0.657400
8.192200 0.699000
8.209100 0.746200
8.226000 0.834800
8.242900 0.953700
8.259800 1.053400
8.276600 1.083000
8.293500 1.020600
8.310400 0.885300
8.327300 0.735400
8.344200 0.647000
8.361100 0.677400
8.378000 0.839300
8.394900 1.095900
8.411800 1.362200
8.428700 1.525700
8.445600 1.507000
8.462500 1.326000
8.479400 1.088800
8.496300 0.897000
8.513200 0.781500
8.530000 0.726300
8.546900 0.730400
8.563800 0.819900
8.580700 0.999600
8.597600 1.213400
8.614500 1.366400
8.631400 1.389600
8.648300 1.287100
8.665200 1.123900
8.682100 0.976100
8.699000 0.884500
8.715900 0.844400
8.732800 0.827200
8.749700 0.807900
8.766500 0.770900
8.783400 0.703500
8.800300 0.600000
8.817200 0.474200
8.834100 0.360700
8.851000 0.297200
8.867900 0.301400
8.884800 0.361600
8.901700 0.449600
8.918600 0.548400
8.935500 0.665400
8.952400 0.812100
8.969300 0.975000
8.986200 1.111600
9.003000 1.174100
9.019900 1.138700
9.036800 1.021600
9.053700 0.871800
9.070600 0.741600
9.087500 0.654400
9.104400 0.601900
9.121300 0.572200
9.138200 0.567000
9.155100 0.588000
9.172000 0.620500
9.188900 0.646400
9.205800 0.671900
9.222700 0.731000
9.239500 0.857000
9.256400 1.061600
9.273300 1.348800
9.290200 1.726600
9.307100 2.177400
9.324000 2.620800
9.340900 2.943900
9.357800 3.074800
9.374700 3.006600
9.391600 2.758700
9.408500 2.366400
9.425400 1.917500
9.442300 1.547500
9.459200 1.355700
9.476100 1.324400
9.492900 1.331200
9.509800 1.249100
9.526700 1.045000
9.543600 0.791600
9.560500 0.592500
9.577400 0.504400
9.594300 0.523300
9.611200 0.614000
9.628100 0.732800
9.645000 0.834800
9.661900 0.883400
9.678800 0.863100
9.695700 0.782900
9.712600 0.672400
9.729400 0.570800
9.746300 0.509100
9.763200 0.489700
9.780100 0.485700
9.797000 0.470300
9.813900 0.454300
9.830800 0.487500
9.847700 0.611700
9.864600 0.811500
9.881500 1.017800
9.898400 1.163800
9.915300 1.229100
9.932200 1.230700
9.949100 1.196300
9.965900 1.152600
9.982800 1.118700
9.999700 1.092700
10.016600 1.054200
10.033500 0.988600
10.050400 0.903400
10.067300 0.820500
10.084200 0.761100
10.101100 0.735600
10.118000 0.743900
10.134900 0.785800
10.151800 0.865100
10.168700 0.970500
10.185600 1.057800
10.202500 1.071700
10.219300 0.992700
10.236200 0.858900
10.253100 0.739300
10.270000 0.685100
10.286900 0.700900
10.303800 0.757800
10.320700 0.828300
10.337600 0.900800
10.354500 0.963800
10.371400 0.997000
10.388300 0.989700
10.405200 0.957600
10.422100 0.926300
10.439000 0.903300
10.455800 0.872800
10.472700 0.813200
10.489600 0.718200
10.506500 0.613100
10.523400 0.552300
10.540300 0.585800
10.557200 0.714900
10.574100 0.883900
10.591000 1.023900
10.607900 1.102400
10.624800 1.128300
10.641700 1.118400
10.658600 1.075600
10.675500 1.000300
10.692300 0.907600
10.709200 0.831500
10.726100 0.813400
10.743000 0.877400
10.759900 1.008000
10.776800 1.151400
10.793700 1.245400
10.810600 1.258000
10.827500 1.208500
10.844400 1.151400
10.861300 1.129100
10.878200 1.138600
10.895100 1.146000
10.912000 1.129300
10.928900 1.099100
10.945700 1.086100
10.962600 1.110200
10.979500 1.160000
10.996400 1.200800
11.013300 1.209200
11.030200 1.199300
11.047100 1.209700
11.064000 1.261400
11.080900 1.335500
11.097800 1.394400
11.114700 1.419700
11.131600 1.420500
11.148500 1.413900
11.165400 1.408600
11.182200 1.406800
11.199100 1.407600
11.216000 1.400400
11.232900 1.364900
11.249800 1.288100
11.266700 1.176000
11.283600 1.045100
11.300500 0.913900
11.317400 0.809200
11.334300 0.763500
11.351200 0.790700
11.368100 0.861700
11.385000 0.918500
11.401900 0.916100
11.418700 0.852000
11.435600 0.764800
11.452500 0.709400
11.469400 0.719700
11.486300 0.785800
11.503200 0.869500
11.520100 0.946800
11.537000 1.026700
11.553900 1.122100
11.570800 1.216300
11.587700 1.269700
11.604600 1.262000
11.621500 1.219800
11.638400 1.195600
11.655200 1.218100
11.672100 1.266400
11.689000 1.295600
11.705900 1.282700
11.722800 1.242600
11.739700 1.203700
11.756600 1.179200
11.773500 1.166800
11.790400 1.168500
11.807300 1.203300
11.824200 1.294700
11.841100 1.437000
11.858000 1.581000
11.874900 1.665400
11.891800 1.668500
11.908600 1.619900
11.925500 1.565800
11.942400 1.526900
11.959300 1.492400
11.976200 1.445900
11.993100 1.391700
12.010000 1.350500
12.026900 1.334700
12.043800 1.333200
12.060700 1.317200
12.077600 1.254500
12.094500 1.133300
12.111400 0.987200
12.128300 0.895500
12.145100 0.940900
12.162000 1.145500
12.178900 1.437100
12.195800 1.683100
12.212700 1.776400
12.229600 1.701800
12.246500 1.531600
12.263400 1.363600
12.280300 1.266100
12.297200 1.261400
12.314100 1.328600
12.331000 1.415100
12.347900 1.470000
12.364800 1.480600
12.381600 1.475400
12.398500 1.487100
12.415400 1.515500
12.432300 1.526400
12.449200 1.491600
12.466100 1.426700
12.483000 1.385200
12.499900 1.411900
12.516800 1.500800
12.533700 1.594600
12.550600 1.623900
12.567500 1.556200
12.584400 1.420900
12.601300 1.296600
12.618200 1.259200
12.635000 1.327300
12.651900 1.456200
12.668800 1.585300
12.685700 1.679200
12.702600 1.717100
12.719500 1.670600
12.736400 1.521700
12.753300 1.296300
12.770200 1.060900
12.787100 0.879100
12.804000 0.777100
12.820900 0.753600
12.837800 0.811700
12.854700 0.964400
12.871500 1.204800
12.888400 1.483300
12.905300 1.726400
12.922200 1.875500
12.939100 1.904300
12.956000 1.815000
12.972900 1.633600
12.989800 1.416300
13.006700 1.245600
13.023600 1.192200
13.040500 1.264800
13.057400 1.407500
13.074300 1.546100
13.091200 1.624200
13.108000 1.598700
13.124900 1.444600
13.141800 1.194100
13.158700 0.953400
