set title 'mp-11252 - Density of States'
set xlabel 'Energy (eV)'
set ylabel 'DOS (states/eV)'
set grid
set xrange [-10:10]
set yrange [0:8.922]
set xzeroaxis lt -1
set terminal png size 800,600
set output 'mp-11252_dos_gnuplot.png'
plot '-' using 1:2 with lines title 'DOS'
-51.684000 0.000000
-51.609200 0.000000
-51.534400 0.000000
-51.459600 0.000000
-51.384800 0.000000
-51.310000 0.000000
-51.235200 0.000000
-51.160500 0.000000
-51.085700 0.000000
-51.010900 0.000000
-50.936100 0.000000
-50.861300 0.000000
-50.786500 0.000000
-50.711700 0.000000
-50.636900 0.000000
-50.562100 0.000000
-50.487400 0.000000
-50.412600 0.000000
-50.337800 0.000000
-50.263000 0.000000
-50.188200 0.000000
-50.113400 0.000000
-50.038600 0.000000
-49.963800 0.000000
-49.889000 0.000000
-49.814200 0.000000
-49.739500 0.000000
-49.664700 0.000000
-49.589900 0.000000
-49.515100 0.000000
-49.440300 0.000000
-49.365500 0.000000
-49.290700 0.000000
-49.215900 0.000000
-49.141100 0.000000
-49.066300 0.000000
-48.991600 0.000000
-48.916800 0.000000
-48.842000 0.000000
-48.767200 0.000000
-48.692400 0.000000
-48.617600 0.000000
-48.542800 0.000000
-48.468000 0.000000
-48.393200 0.000000
-48.318500 0.000000
-48.243700 0.000000
-48.168900 0.000000
-48.094100 0.000000
-48.019300 0.000000
-47.944500 0.000000
-47.869700 0.000000
-47.794900 0.000000
-47.720100 0.000000
-47.645300 0.000000
-47.570600 0.000000
-47.495800 0.000000
-47.421000 0.000000
-47.346200 0.000000
-47.271400 0.000000
-47.196600 0.000000
-47.121800 0.000000
-47.047000 0.000000
-46.972200 0.000000
-46.897400 0.000000
-46.822700 0.000000
-46.747900 0.000000
-46.673100 0.000000
-46.598300 0.000000
-46.523500 0.000000
-46.448700 0.000000
-46.373900 0.000000
-46.299100 0.000000
-46.224300 0.000000
-46.149500 0.000000
-46.074800 0.000000
-46.000000 0.000000
-45.925200 0.000000
-45.850400 0.000000
-45.775600 0.000000
-45.700800 0.000000
-45.626000 0.000000
-45.551200 0.000000
-45.476400 0.000000
-45.401700 0.000000
-45.326900 0.000000
-45.252100 0.000000
-45.177300 0.000000
-45.102500 0.000000
-45.027700 0.000000
-44.952900 0.000000
-44.878100 105.615900
-44.803300 0.000000
-44.728500 0.000000
-44.653800 0.000000
-44.579000 0.000000
-44.504200 0.000000
-44.429400 0.000000
-44.354600 0.000000
-44.279800 0.000000
-44.205000 0.000000
-44.130200 0.000000
-44.055400 0.000000
-43.980600 0.000000
-43.905900 0.000000
-43.831100 0.000000
-43.756300 0.000000
-43.681500 0.000000
-43.606700 0.000000
-43.531900 0.000000
-43.457100 0.000000
-43.382300 0.000000
-43.307500 0.000000
-43.232800 0.000000
-43.158000 0.000000
-43.083200 0.000000
-43.008400 0.000000
-42.933600 0.000000
-42.858800 0.000000
-42.784000 0.000000
-42.709200 0.000000
-42.634400 0.000000
-42.559600 0.000000
-42.484900 0.000000
-42.410100 0.000000
-42.335300 0.000000
-42.260500 0.000000
-42.185700 0.000000
-42.110900 0.000000
-42.036100 0.000000
-41.961300 0.000000
-41.886500 0.000000
-41.811700 0.000000
-41.737000 0.000000
-41.662200 0.000000
-41.587400 0.000000
-41.512600 0.000000
-41.437800 0.000000
-41.363000 0.000000
-41.288200 0.000000
-41.213400 0.000000
-41.138600 0.000000
-41.063800 0.000000
-40.989100 0.000000
-40.914300 0.000000
-40.839500 0.000000
-40.764700 0.000000
-40.689900 0.000000
-40.615100 0.000000
-40.540300 0.000000
-40.465500 0.000000
-40.390700 0.000000
-40.316000 0.000000
-40.241200 0.000000
-40.166400 0.000000
-40.091600 0.000000
-40.016800 0.000000
-39.942000 0.000000
-39.867200 0.000000
-39.792400 0.000000
-39.717600 0.000000
-39.642800 0.000000
-39.568100 0.000000
-39.493300 0.000000
-39.418500 0.000000
-39.343700 0.000000
-39.268900 0.000000
-39.194100 0.000000
-39.119300 0.000000
-39.044500 0.000000
-38.969700 0.000000
-38.894900 0.000000
-38.820200 0.000000
-38.745400 0.000000
-38.670600 0.000000
-38.595800 0.000000
-38.521000 0.000000
-38.446200 0.000000
-38.371400 0.000000
-38.296600 0.000000
-38.221800 0.000000
-38.147000 0.000000
-38.072300 0.000000
-37.997500 0.000000
-37.922700 0.000000
-37.847900 0.000000
-37.773100 0.000000
-37.698300 0.000000
-37.623500 0.000000
-37.548700 0.000000
-37.473900 0.000000
-37.399200 0.000000
-37.324400 0.000000
-37.249600 0.000000
-37.174800 0.000000
-37.100000 0.000000
-37.025200 0.000000
-36.950400 0.000000
-36.875600 0.000000
-36.800800 0.000000
-36.726000 0.000000
-36.651300 0.000000
-36.576500 0.000000
-36.501700 0.000000
-36.426900 0.000000
-36.352100 0.000000
-36.277300 0.000000
-36.202500 0.000000
-36.127700 0.000000
-36.052900 0.000000
-35.978100 0.000000
-35.903400 0.000000
-35.828600 0.000000
-35.753800 0.000000
-35.679000 0.000000
-35.604200 0.000000
-35.529400 0.000000
-35.454600 0.000000
-35.379800 0.000000
-35.305000 0.000000
-35.230300 0.000000
-35.155500 0.000000
-35.080700 0.000000
-35.005900 0.000000
-34.931100 0.000000
-34.856300 0.000000
-34.781500 0.000000
-34.706700 0.000000
-34.631900 0.000000
-34.557100 0.000000
-34.482400 0.000000
-34.407600 0.000000
-34.332800 0.000000
-34.258000 0.000000
-34.183200 0.000000
-34.108400 0.000000
-34.033600 0.000000
-33.958800 0.000000
-33.884000 0.000000
-33.809200 0.000000
-33.734500 0.000000
-33.659700 0.000000
-33.584900 0.000000
-33.510100 0.000000
-33.435300 0.000000
-33.360500 0.000000
-33.285700 0.000000
-33.210900 0.000000
-33.136100 0.000000
-33.061300 0.000000
-32.986600 0.000000
-32.911800 0.000000
-32.837000 0.000000
-32.762200 0.000000
-32.687400 0.000000
-32.612600 0.000000
-32.537800 0.000000
-32.463000 0.000000
-32.388200 0.000000
-32.313500 0.000000
-32.238700 0.000000
-32.163900 0.000000
-32.089100 0.000000
-32.014300 0.000000
-31.939500 0.000000
-31.864700 0.000000
-31.789900 0.000000
-31.715100 0.000000
-31.640300 0.000000
-31.565600 0.000000
-31.490800 0.000000
-31.416000 0.000000
-31.341200 0.000000
-31.266400 0.000000
-31.191600 0.000000
-31.116800 0.000000
-31.042000 0.000000
-30.967200 0.000000
-30.892400 0.000000
-30.817700 0.000000
-30.742900 0.000000
-30.668100 0.000000
-30.593300 0.000000
-30.518500 0.000000
-30.443700 0.000000
-30.368900 0.000000
-30.294100 0.000000
-30.219300 0.000000
-30.144600 0.000000
-30.069800 0.000000
-29.995000 0.000000
-29.920200 0.000000
-29.845400 0.000000
-29.770600 0.000000
-29.695800 0.000000
-29.621000 0.000000
-29.546200 0.000000
-29.471400 0.000000
-29.396700 0.000000
-29.321900 0.000000
-29.247100 0.000000
-29.172300 0.000000
-29.097500 0.000000
-29.022700 0.000000
-28.947900 0.000000
-28.873100 0.000000
-28.798300 0.000000
-28.723500 0.000000
-28.648800 0.000000
-28.574000 0.000000
-28.499200 0.000000
-28.424400 0.000000
-28.349600 0.000000
-28.274800 0.000000
-28.200000 0.000000
-28.125200 0.000000
-28.050400 0.000000
-27.975600 0.000000
-27.900900 0.000000
-27.826100 0.000000
-27.751300 0.000000
-27.676500 0.000000
-27.601700 0.000000
-27.526900 0.000000
-27.452100 0.000000
-27.377300 0.000000
-27.302500 0.000000
-27.227800 0.000000
-27.153000 0.000000
-27.078200 0.000000
-27.003400 0.000000
-26.928600 0.000000
-26.853800 0.000000
-26.779000 0.000000
-26.704200 0.000000
-26.629400 0.000000
-26.554600 0.000000
-26.479900 0.000000
-26.405100 0.000000
-26.330300 0.000000
-26.255500 0.000000
-26.180700 0.000000
-26.105900 0.000000
-26.031100 0.000000
-25.956300 0.000000
-25.881500 0.000000
-25.806700 0.000000
-25.732000 0.000000
-25.657200 0.000000
-25.582400 0.000000
-25.507600 0.000000
-25.432800 0.000000
-25.358000 0.000000
-25.283200 0.000000
-25.208400 0.000000
-25.133600 0.000000
-25.058900 0.000000
-24.984100 0.000000
-24.909300 0.000000
-24.834500 0.000000
-24.759700 0.000000
-24.684900 0.000000
-24.610100 0.000000
-24.535300 0.000000
-24.460500 0.000000
-24.385700 0.000000
-24.311000 0.000000
-24.236200 0.000000
-24.161400 0.000000
-24.086600 0.000000
-24.011800 0.000000
-23.937000 0.000000
-23.862200 0.000000
-23.787400 0.000000
-23.712600 0.000000
-23.637800 0.000000
-23.563100 0.000000
-23.488300 0.000000
-23.413500 0.000000
-23.338700 0.000000
-23.263900 0.000000
-23.189100 0.000000
-23.114300 0.000000
-23.039500 0.000000
-22.964700 0.000000
-22.889900 0.000000
-22.815200 0.000000
-22.740400 0.000000
-22.665600 0.000000
-22.590800 0.000000
-22.516000 0.000000
-22.441200 0.000000
-22.366400 0.000000
-22.291600 0.000000
-22.216800 0.000000
-22.142100 0.000000
-22.067300 0.000000
-21.992500 0.000000
-21.917700 0.000000
-21.842900 0.000000
-21.768100 0.000000
-21.693300 0.000000
-21.618500 0.000000
-21.543700 0.000000
-21.468900 0.000000
-21.394200 0.000000
-21.319400 0.000000
-21.244600 0.000000
-21.169800 0.000000
-21.095000 0.000000
-21.020200 0.000000
-20.945400 0.000000
-20.870600 0.000000
-20.795800 0.000000
-20.721000 0.000000
-20.646300 0.000000
-20.571500 0.000000
-20.496700 0.000000
-20.421900 0.000000
-20.347100 0.000000
-20.272300 0.000000
-20.197500 0.000000
-20.122700 0.000000
-20.047900 0.000000
-19.973200 0.000000
-19.898400 0.000000
-19.823600 0.000000
-19.748800 0.000000
-19.674000 0.000000
-19.599200 0.000000
-19.524400 0.000000
-19.449600 0.000000
-19.374800 0.000000
-19.300000 0.000000
-19.225300 0.000000
-19.150500 0.000000
-19.075700 0.000000
-19.000900 0.000000
-18.926100 0.000000
-18.851300 0.000000
-18.776500 0.000000
-18.701700 0.000000
-18.626900 0.000000
-18.552100 0.000000
-18.477400 0.000000
-18.402600 0.000000
-18.327800 0.000000
-18.253000 0.000000
-18.178200 0.000000
-18.103400 0.000000
-18.028600 0.000000
-17.953800 0.000000
-17.879000 0.000000
-17.804200 0.000000
-17.729500 0.000000
-17.654700 0.000000
-17.579900 0.000000
-17.505100 0.000000
-17.430300 0.000000
-17.355500 0.000000
-17.280700 0.000000
-17.205900 0.000000
-17.131100 0.000000
-17.056400 0.000000
-16.981600 0.000000
-16.906800 0.000000
-16.832000 0.000000
-16.757200 0.000000
-16.682400 0.000000
-16.607600 0.000000
-16.532800 0.000000
-16.458000 0.000000
-16.383200 0.000000
-16.308500 0.000000
-16.233700 0.000000
-16.158900 0.000000
-16.084100 0.000000
-16.009300 0.000000
-15.934500 0.000000
-15.859700 0.000000
-15.784900 0.000000
-15.710100 0.000000
-15.635300 0.000000
-15.560600 0.000000
-15.485800 0.000000
-15.411000 0.000000
-15.336200 0.000000
-15.261400 0.000000
-15.186600 0.000000
-15.111800 0.000000
-15.037000 0.000000
-14.962200 0.000000
-14.887400 0.000000
-14.812700 0.000000
-14.737900 0.000000
-14.663100 0.000000
-14.588300 0.000000
-14.513500 0.000000
-14.438700 0.000000
-14.363900 0.000000
-14.289100 0.000000
-14.214300 0.000000
-14.139600 0.000000
-14.064800 0.000000
-13.990000 0.000000
-13.915200 0.000000
-13.840400 0.000000
-13.765600 0.000000
-13.690800 0.000000
-13.616000 0.000000
-13.541200 0.000000
-13.466400 0.000000
-13.391700 0.000000
-13.316900 0.000000
-13.242100 0.000000
-13.167300 0.000000
-13.092500 0.000000
-13.017700 0.000000
-12.942900 0.000000
-12.868100 0.000000
-12.793300 0.000000
-12.718500 0.000000
-12.643800 0.000000
-12.569000 0.000000
-12.494200 0.000000
-12.419400 0.000000
-12.344600 0.000000
-12.269800 0.000000
-12.195000 0.000000
-12.120200 0.000000
-12.045400 0.000000
-11.970700 0.000000
-11.895900 0.000000
-11.821100 0.000000
-11.746300 0.000000
-11.671500 0.000000
-11.596700 0.000000
-11.521900 0.000000
-11.447100 0.000000
-11.372300 0.000000
-11.297500 0.000000
-11.222800 0.000000
-11.148000 0.000000
-11.073200 0.000000
-10.998400 0.000000
-10.923600 0.000000
-10.848800 0.000000
-10.774000 0.000000
-10.699200 0.000000
-10.624400 0.000000
-10.549600 0.000000
-10.474900 0.000000
-10.400100 0.000000
-10.325300 0.000000
-10.250500 0.000000
-10.175700 0.000000
-10.100900 0.000000
-10.026100 0.000000
-9.951300 0.000000
-9.876500 0.000000
-9.801700 0.000000
-9.727000 0.000000
-9.652200 0.000000
-9.577400 0.000000
-9.502600 0.000000
-9.427800 0.000000
-9.353000 0.000000
-9.278200 0.000000
-9.203400 0.000000
-9.128600 0.000000
-9.053900 0.000000
-8.979100 0.000000
-8.904300 0.000000
-8.829500 0.000000
-8.754700 0.000000
-8.679900 0.000000
-8.605100 0.000000
-8.530300 0.000000
-8.455500 0.000000
-8.380700 0.000000
-8.306000 0.000000
-8.231200 0.000000
-8.156400 0.000000
-8.081600 0.000000
-8.006800 0.000000
-7.932000 0.000000
-7.857200 0.000000
-7.782400 0.000000
-7.707600 0.000000
-7.632800 0.000000
-7.558100 0.000000
-7.483300 0.000000
-7.408500 0.000000
-7.333700 0.000000
-7.258900 0.000000
-7.184100 0.000000
-7.109300 0.000000
-7.034500 0.000000
-6.959700 0.000000
-6.885000 0.000000
-6.810200 0.000000
-6.735400 0.000000
-6.660600 0.000000
-6.585800 0.000000
-6.511000 0.000000
-6.436200 0.000000
-6.361400 0.000000
-6.286600 0.000000
-6.211800 0.000000
-6.137100 0.000000
-6.062300 0.000000
-5.987500 0.000000
-5.912700 0.000000
-5.837900 0.000000
-5.763100 0.000000
-5.688300 0.000000
-5.613500 0.000000
-5.538700 0.000000
-5.463900 0.000000
-5.389200 0.000000
-5.314400 0.000000
-5.239600 0.000000
-5.164800 0.000000
-5.090000 0.000000
-5.015200 0.000000
-4.940400 0.000000
-4.865600 0.000000
-4.790800 0.000000
-4.716000 0.000000
-4.641300 0.000000
-4.566500 0.000000
-4.491700 0.000000
-4.416900 0.000000
-4.342100 0.000000
-4.267300 0.000000
-4.192500 0.000000
-4.117700 0.000000
-4.042900 0.000000
-3.968200 0.011300
-3.893400 0.042200
-3.818600 0.054100
-3.743800 0.063100
-3.669000 0.077300
-3.594200 0.088200
-3.519400 0.094400
-3.444600 0.102300
-3.369800 0.111300
-3.295000 0.120300
-3.220300 0.129800
-3.145500 0.138300
-3.070700 0.145900
-2.995900 0.154100
-2.921100 0.162000
-2.846300 0.171700
-2.771500 0.182100
-2.696700 0.192600
-2.621900 0.203600
-2.547100 0.214500
-2.472400 0.227800
-2.397600 0.243500
-2.322800 0.260700
-2.248000 0.282500
-2.173200 0.297500
-2.098400 0.317100
-2.023600 0.332100
-1.948800 0.355300
-1.874000 0.382900
-1.799300 0.426100
-1.724500 0.473700
-1.649700 0.567400
-1.574900 0.878700
-1.500100 1.351200
-1.425300 1.291600
-1.350500 1.363100
-1.275700 1.852800
-1.200900 1.908400
-1.126100 1.821800
-1.051400 1.851000
-0.976600 1.995900
-0.901800 2.225000
-0.827000 2.831100
-0.752200 2.761200
-0.677400 2.557000
-0.602600 3.464800
-0.527800 3.158600
-0.453000 3.810300
-0.378200 5.343300
-0.303500 2.243300
-0.228700 2.850500
-0.153900 3.514600
-0.079100 3.717500
-0.004300 3.196400
0.070500 3.058300
0.145300 2.882400
0.220100 2.432600
0.294900 2.307500
0.369700 1.739000
0.444400 1.771700
0.519200 2.059900
0.594000 1.936600
0.668800 3.038800
0.743600 4.107600
0.818400 5.857300
0.893200 4.108200
0.968000 3.089500
1.042800 2.476300
1.117500 1.874100
1.192300 1.643600
1.267100 1.606200
1.341900 1.638300
1.416700 1.781900
1.491500 2.270200
1.566300 2.577600
1.641100 2.870600
1.715900 2.621200
1.790700 3.146500
1.865400 2.882900
1.940200 3.302300
2.015000 2.988600
2.089800 3.790100
2.164600 2.810400
2.239400 3.026100
2.314200 5.609300
2.389000 3.795400
2.463800 3.452900
2.538600 2.090400
2.613300 1.918700
2.688100 2.610800
2.762900 2.335300
2.837700 3.124000
2.912500 3.660700
2.987300 8.110600
3.062100 3.674800
3.136900 3.663200
3.211700 3.126700
3.286500 3.880200
3.361200 4.742700
3.436000 3.849100
3.510800 3.497900
3.585600 3.204300
3.660400 2.609700
3.735200 1.206600
3.810000 0.571800
3.884800 0.542500
3.959600 0.529500
4.034300 0.517200
4.109100 0.513800
4.183900 0.511600
4.258700 0.507300
4.333500 0.495300
4.408300 0.489300
4.483100 0.485800
4.557900 0.482700
4.632700 0.481800
4.707500 0.477200
4.782200 0.474700
4.857000 0.475700
4.931800 0.480200
5.006600 0.483600
5.081400 0.480000
5.156200 0.471100
5.231000 0.456400
5.305800 0.440000
5.380600 0.440300
5.455400 0.443000
5.530100 0.449400
5.604900 0.446600
5.679700 0.435100
5.754500 0.434700
5.829300 0.443700
5.904100 0.443700
5.978900 0.442900
6.053700 0.440400
6.128500 0.437100
6.203200 0.434800
6.278000 0.432800
6.352800 0.431300
6.427600 0.415400
6.502400 0.417900
6.577200 0.409600
6.652000 0.406800
6.726800 0.404600
6.801600 0.401600
6.876400 0.400900
6.951100 0.400300
7.025900 0.396600
7.100700 0.392000
7.175500 0.397600
7.250300 0.392900
7.325100 0.397000
7.399900 0.393100
7.474700 0.382800
7.549500 0.370000
7.624300 0.359100
7.699000 0.354400
7.773800 0.355100
7.848600 0.364500
7.923400 0.324600
7.998200 0.308800
8.073000 0.302900
8.147800 0.307000
8.222600 0.303100
8.297400 0.313900
8.372200 0.335400
8.446900 0.348100
8.521700 0.365600
8.596500 0.380300
8.671300 0.361600
8.746100 0.361400
8.820900 0.361600
8.895700 0.360400
8.970500 0.358200
9.045300 0.365200
9.120000 0.378000
9.194800 0.404700
9.269600 0.634400
9.344400 0.700100
9.419200 0.655800
9.494000 0.623200
9.568800 0.576900
9.643600 0.576500
9.718400 0.632100
9.793200 0.729600
9.867900 0.666600
9.942700 0.573000
10.017500 0.535100
10.092300 0.503700
10.167100 0.483600
10.241900 0.473900
10.316700 0.487200
10.391500 0.504700
10.466300 0.539300
10.541100 0.576100
10.615800 0.622300
10.690600 0.589600
10.765400 0.581200
10.840200 0.569700
10.915000 0.547300
10.989800 0.544600
11.064600 0.542900
11.139400 0.537900
11.214200 0.540500
11.288900 0.553600
11.363700 0.556800
11.438500 0.543600
11.513300 0.533600
11.588100 0.529500
11.662900 0.534600
11.737700 0.559100
11.812500 0.561700
11.887300 0.566900
11.962100 0.566300
12.036800 0.566700
12.111600 0.568300
12.186400 0.564700
12.261200 0.555300
12.336000 0.548800
12.410800 0.548900
12.485600 0.547500
12.560400 0.543900
12.635200 0.539400
12.710000 0.538800
12.784700 0.547300
12.859500 0.543700
12.934300 0.546200
13.009100 0.551900
13.083900 0.559600
13.158700 0.567900
13.233500 0.575800
13.308300 0.586600
13.383100 0.590300
13.457900 0.594600
13.532600 0.596400
13.607400 0.594400
13.682200 0.600800
13.757000 0.607300
13.831800 0.612700
13.906600 0.619800
13.981400 0.618300
14.056200 0.620300
14.131000 0.621200
14.205700 0.626700
14.280500 0.628900
14.355300 0.630700
14.430100 0.623100
14.504900 0.619300
14.579700 0.615000
14.654500 0.604600
14.729300 0.601800
14.804100 0.601800
14.878900 0.599700
14.953600 0.595800
15.028400 0.592200
15.103200 0.592800
15.178000 0.600300
15.252800 0.612600
15.327600 0.613300
15.402400 0.611300
15.477200 0.587300
15.552000 0.572200
15.626800 0.573200
15.701500 0.571700
15.776300 0.573900
15.851100 0.571600
15.925900 0.564600
16.000700 0.566300
16.075500 0.576300
16.150300 0.577500
16.225100 0.592700
16.299900 0.616300
16.374600 0.658700
16.449400 0.698400
16.524200 0.702200
16.599000 0.734900
16.673800 0.768900
16.748600 0.806000
16.823400 0.838400
16.898200 0.872600
16.973000 0.819300
17.047800 0.774900
17.122500 0.739900
17.197300 0.734200
17.272100 0.774400
17.346900 0.812300
17.421700 0.824800
17.496500 0.886500
17.571300 0.868300
17.646100 0.910400
17.720900 1.057400
17.795700 1.100600
17.870400 1.011500
17.945200 0.993300
18.020000 0.958000
18.094800 0.942800
18.169600 0.888200
18.244400 0.853200
18.319200 0.831000
18.394000 0.795400
18.468800 0.781400
18.543600 0.780900
18.618300 0.780200
18.693100 0.792000
18.767900 0.886400
18.842700 0.926000
18.917500 0.959100
18.992300 0.942400
19.067100 0.933600
19.141900 0.948600
19.216700 0.885000
19.291400 0.852000
19.366200 0.844300
19.441000 0.870800
19.515800 0.885300
19.590600 0.934700
19.665400 0.953700
19.740200 0.967000
19.815000 0.968100
19.889800 0.951400
19.964600 0.923200
20.039300 0.869700
20.114100 0.849200
20.188900 0.822800
20.263700 0.801900
20.338500 0.777800
20.413300 0.745600
20.488100 0.753100
20.562900 0.752600
20.637700 0.723300
20.712500 0.683000
20.787200 0.689000
20.862000 0.690300
20.936800 0.670900
21.011600 0.698900
21.086400 0.738400
21.161200 0.918400
21.236000 0.945500
21.310800 0.927700
21.385600 0.891500
21.460400 0.895500
21.535100 0.850800
21.609900 0.800300
21.684700 0.737900
21.759500 0.662400
21.834300 0.658700
21.909100 0.763100
21.983900 0.671800
22.058700 0.689200
22.133500 0.683400
22.208200 0.672900
22.283000 0.633400
22.357800 0.606900
22.432600 0.593500
22.507400 0.578000
22.582200 0.589100
22.657000 0.583500
22.731800 0.552400
22.806600 0.524100
22.881400 0.491800
22.956100 0.513800
23.030900 0.560800
23.105700 0.652600
23.180500 0.587400
23.255300 0.594800
23.330100 0.631900
23.404900 0.674800
23.479700 0.739300
23.554500 0.775500
23.629300 0.744900
23.704000 0.681400
23.778800 0.637000
23.853600 0.648300
23.928400 0.696600
24.003200 0.767800
24.078000 0.821100
24.152800 0.923600
