set title 'mp-1183580 - Density of States'
set xlabel 'Energy (eV)'
set ylabel 'DOS (states/eV)'
set grid
set xrange [-10:10]
set yrange [0:39.466]
set xzeroaxis lt -1
set terminal png size 800,600
set output 'mp-1183580_dos_gnuplot.png'
plot '-' using 1:2 with lines title 'DOS'
-8.969100 0.000000
-8.948300 0.000000
-8.927400 0.000000
-8.906500 0.000000
-8.885600 0.000000
-8.864700 0.000000
-8.843900 0.000000
-8.823000 0.000000
-8.802100 0.000000
-8.781200 0.000000
-8.760300 0.000000
-8.739500 0.000000
-8.718600 0.000000
-8.697700 0.000000
-8.676800 0.000000
-8.655900 0.000000
-8.635100 0.000000
-8.614200 0.000000
-8.593300 0.000000
-8.572400 0.000000
-8.551500 0.000000
-8.530700 0.000000
-8.509800 0.000000
-8.488900 0.000000
-8.468000 0.000000
-8.447100 0.000000
-8.426300 0.000000
-8.405400 0.000000
-8.384500 0.000000
-8.363600 0.000000
-8.342700 0.000000
-8.321900 0.000000
-8.301000 0.000000
-8.280100 0.000000
-8.259200 0.000000
-8.238300 0.000000
-8.217500 0.000000
-8.196600 0.000000
-8.175700 0.000000
-8.154800 0.000000
-8.133900 0.000000
-8.113100 0.000000
-8.092200 0.000000
-8.071300 0.000000
-8.050400 0.000000
-8.029500 0.000000
-8.008600 0.000000
-7.987800 0.000000
-7.966900 0.000000
-7.946000 0.000000
-7.925100 0.000000
-7.904200 0.000000
-7.883400 0.000000
-7.862500 0.000000
-7.841600 0.000000
-7.820700 0.000000
-7.799800 0.000000
-7.779000 0.000000
-7.758100 0.000000
-7.737200 0.000000
-7.716300 0.000000
-7.695400 0.000000
-7.674600 0.000000
-7.653700 0.000000
-7.632800 0.000000
-7.611900 0.000000
-7.591000 0.000000
-7.570200 0.000000
-7.549300 0.000000
-7.528400 0.000000
-7.507500 0.000000
-7.486600 0.000000
-7.465800 0.000000
-7.444900 0.000000
-7.424000 0.000000
-7.403100 0.000000
-7.382200 0.000000
-7.361400 0.000000
-7.340500 0.000000
-7.319600 0.000000
-7.298700 0.000000
-7.277800 0.000000
-7.257000 0.000000
-7.236100 0.000000
-7.215200 0.000000
-7.194300 0.000000
-7.173400 0.000000
-7.152600 0.000000
-7.131700 0.000000
-7.110800 0.000000
-7.089900 0.000000
-7.069000 0.014500
-7.048200 0.272700
-7.027300 0.557700
-7.006400 0.655200
-6.985500 0.802600
-6.964600 1.564500
-6.943800 2.501600
-6.922900 3.405000
-6.902000 3.702200
-6.881100 4.297600
-6.860200 5.606700
-6.839300 6.168200
-6.818500 7.380100
-6.797600 9.102100
-6.776700 11.612100
-6.755800 12.780600
-6.734900 11.351800
-6.714100 10.702200
-6.693200 12.635200
-6.672300 15.092800
-6.651400 17.380300
-6.630500 17.676200
-6.609700 18.104000
-6.588800 18.694000
-6.567900 20.899300
-6.547000 19.228800
-6.526100 17.414300
-6.505300 15.699400
-6.484400 14.541600
-6.463500 14.464500
-6.442600 14.212600
-6.421700 14.926400
-6.400900 16.136900
-6.380000 14.762500
-6.359100 16.047800
-6.338200 16.998500
-6.317300 16.528900
-6.296500 17.241800
-6.275600 17.267800
-6.254700 28.720000
-6.233800 24.199400
-6.212900 14.913500
-6.192100 16.705600
-6.171200 20.716900
-6.150300 20.350800
-6.129400 14.495600
-6.108500 8.676300
-6.087700 19.787600
-6.066800 29.347500
-6.045900 21.833800
-6.025000 13.825500
-6.004100 14.940800
-5.983300 13.913000
-5.962400 15.944600
-5.941500 19.433200
-5.920600 17.413900
-5.899700 16.230200
-5.878900 18.230500
-5.858000 20.275400
-5.837100 18.963200
-5.816200 19.588500
-5.795300 21.085200
-5.774400 22.184900
-5.753600 23.648200
-5.732700 26.558400
-5.711800 27.668900
-5.690900 27.489300
-5.670000 18.524500
-5.649200 35.877800
-5.628300 26.392500
-5.607400 19.934200
-5.586500 21.689600
-5.565600 20.174800
-5.544800 19.102400
-5.523900 18.716600
-5.503000 20.701700
-5.482100 17.614400
-5.461200 16.481900
-5.440400 17.432500
-5.419500 16.313000
-5.398600 14.970700
-5.377700 15.510500
-5.356800 16.252600
-5.336000 16.503300
-5.315100 10.984000
-5.294200 11.763400
-5.273300 25.505500
-5.252400 19.536200
-5.231600 12.356100
-5.210700 9.971100
-5.189800 9.556500
-5.168900 7.319000
-5.148000 3.799100
-5.127200 3.459400
-5.106300 2.567300
-5.085400 2.435700
-5.064500 2.276400
-5.043600 2.346800
-5.022800 2.056000
-5.001900 2.099200
-4.981000 1.624900
-4.960100 1.104700
-4.939200 0.761300
-4.918400 0.719100
-4.897500 0.676400
-4.876600 0.646300
-4.855700 0.635200
-4.834800 0.627700
-4.814000 0.622300
-4.793100 0.618800
-4.772200 0.616500
-4.751300 0.615100
-4.730400 0.614700
-4.709600 0.617900
-4.688700 0.622000
-4.667800 0.626600
-4.646900 0.631400
-4.626000 0.636100
-4.605100 0.640400
-4.584300 0.644600
-4.563400 0.648100
-4.542500 0.650900
-4.521600 0.653800
-4.500700 0.667900
-4.479900 0.677400
-4.459000 0.673500
-4.438100 0.667000
-4.417200 0.669600
-4.396300 0.671600
-4.375500 0.673200
-4.354600 0.674500
-4.333700 0.675600
-4.312800 0.676600
-4.291900 0.678400
-4.271100 0.680700
-4.250200 0.683900
-4.229300 0.687600
-4.208400 0.691500
-4.187500 0.695800
-4.166700 0.700400
-4.145800 0.705300
-4.124900 0.710900
-4.104000 0.717100
-4.083100 0.723800
-4.062300 0.732500
-4.041400 0.761500
-4.020500 0.786200
-3.999600 0.795700
-3.978700 0.807400
-3.957900 0.818100
-3.937000 0.827900
-3.916100 0.836800
-3.895200 0.844200
-3.874300 0.851800
-3.853500 0.864500
-3.832600 0.874600
-3.811700 0.882900
-3.790800 0.877900
-3.769900 0.863500
-3.749100 0.859700
-3.728200 0.856900
-3.707300 0.854000
-3.686400 0.851100
-3.665500 0.857300
-3.644700 0.903200
-3.623800 0.924700
-3.602900 0.915900
-3.582000 0.891500
-3.561100 0.884800
-3.540300 0.860900
-3.519400 0.835400
-3.498500 0.815500
-3.477600 0.795900
-3.456700 0.771400
-3.435800 0.745900
-3.415000 0.720700
-3.394100 0.700000
-3.373200 0.684900
-3.352300 0.671700
-3.331400 0.660500
-3.310600 0.651200
-3.289700 0.654300
-3.268800 0.653900
-3.247900 0.642800
-3.227000 0.627400
-3.206200 0.608800
-3.185300 0.586800
-3.164400 0.573600
-3.143500 0.567800
-3.122600 0.563000
-3.101800 0.558900
-3.080900 0.555200
-3.060000 0.555200
-3.039100 0.554700
-3.018200 0.554500
-2.997400 0.552700
-2.976500 0.550000
-2.955600 0.546400
-2.934700 0.542300
-2.913800 0.539500
-2.893000 0.528500
-2.872100 0.523300
-2.851200 0.520700
-2.830300 0.518800
-2.809400 0.521000
-2.788600 0.532200
-2.767700 0.552200
-2.746800 0.581100
-2.725900 0.618500
-2.705000 0.664800
-2.684200 0.712100
-2.663300 0.746900
-2.642400 0.765300
-2.621500 0.777200
-2.600600 0.797800
-2.579800 0.821100
-2.558900 0.847300
-2.538000 0.876400
-2.517100 0.915600
-2.496200 0.936300
-2.475400 0.955900
-2.454500 0.974700
-2.433600 0.999100
-2.412700 1.176900
-2.391800 1.056200
-2.371000 1.069800
-2.350100 1.073300
-2.329200 1.063700
-2.308300 1.034200
-2.287400 1.012200
-2.266500 1.006000
-2.245700 1.002100
-2.224800 0.996600
-2.203900 0.989400
-2.183000 0.980200
-2.162100 0.967200
-2.141300 0.950200
-2.120400 0.886200
-2.099500 0.851800
-2.078600 0.802300
-2.057700 0.815700
-2.036900 0.814800
-2.016000 0.815700
-1.995100 0.818400
-1.974200 0.822800
-1.953300 0.828700
-1.932500 0.834900
-1.911600 0.842200
-1.890700 0.854300
-1.869800 0.865900
-1.848900 0.876900
-1.828100 0.887200
-1.807200 0.896600
-1.786300 0.905200
-1.765400 0.912900
-1.744500 0.919600
-1.723700 0.927100
-1.702800 0.940400
-1.681900 0.953300
-1.661000 0.965300
-1.640100 0.976300
-1.619300 0.987800
-1.598400 1.003300
-1.577500 1.017100
-1.556600 1.028700
-1.535700 1.023700
-1.514900 1.031300
-1.494000 1.037600
-1.473100 1.045200
-1.452200 1.053600
-1.431300 1.056700
-1.410500 1.075600
-1.389600 1.071200
-1.368700 1.050500
-1.347800 1.040900
-1.326900 1.042100
-1.306100 1.047200
-1.285200 1.052400
-1.264300 1.057600
-1.243400 1.062800
-1.222500 1.067900
-1.201700 1.072800
-1.180800 1.077200
-1.159900 1.081200
-1.139000 1.084500
-1.118100 1.086500
-1.097200 1.088800
-1.076400 1.091400
-1.055500 1.093300
-1.034600 1.125300
-1.013700 1.123100
-0.992800 1.120700
-0.972000 1.118000
-0.951100 1.115100
-0.930200 1.116200
-0.909300 1.113900
-0.888400 1.108700
-0.867600 1.111200
-0.846700 1.121500
-0.825800 1.128600
-0.804900 1.133300
-0.784000 1.133700
-0.763200 1.125600
-0.742300 1.132000
-0.721400 1.124300
-0.700500 1.117400
-0.679600 1.112900
-0.658800 1.110800
-0.637900 1.142500
-0.617000 1.131800
-0.596100 1.104600
-0.575200 1.080400
-0.554400 1.063900
-0.533500 1.055200
-0.512600 1.059000
-0.491700 1.069100
-0.470800 1.075400
-0.450000 1.104600
-0.429100 1.112000
-0.408200 1.119300
-0.387300 1.126400
-0.366400 1.134800
-0.345600 1.145900
-0.324700 1.159600
-0.303800 1.191900
-0.282900 1.197700
-0.262000 1.200100
-0.241200 1.200300
-0.220300 1.198600
-0.199400 1.195000
-0.178500 1.191600
-0.157600 1.189500
-0.136800 1.188800
-0.115900 1.189300
-0.095000 1.191500
-0.074100 1.195900
-0.053200 1.204800
-0.032400 1.218200
-0.011500 1.234700
0.009400 1.253100
0.030300 1.312900
0.051200 1.342200
0.072100 1.368800
0.092900 1.401800
0.113800 1.454700
0.134700 1.513300
0.155600 1.560300
0.176500 1.592700
0.197300 1.595200
0.218200 1.600600
0.239100 1.572300
0.260000 1.559400
0.280900 1.546600
0.301700 1.525200
0.322600 1.494000
0.343500 1.452600
0.364400 1.429900
0.385300 1.407800
0.406100 1.383300
0.427000 1.355100
0.447900 1.335000
0.468800 1.323700
0.489700 1.313900
0.510500 1.303100
0.531400 1.291400
0.552300 1.275400
0.573200 1.261300
0.594100 1.254600
0.614900 1.247900
0.635800 1.278800
0.656700 1.217200
0.677600 1.187400
0.698500 1.161300
0.719300 1.133900
0.740200 1.108700
0.761100 1.090000
0.782000 1.079700
0.802900 1.071500
0.823700 1.065700
0.844600 1.076500
0.865500 1.070300
0.886400 1.054200
0.907300 1.042100
0.928100 1.025700
0.949000 1.005400
0.969900 0.990600
0.990800 0.977400
1.011700 0.966100
1.032500 0.957300
1.053400 0.946500
1.074300 0.945700
1.095200 0.957000
1.116100 0.970400
1.136900 0.984500
1.157800 0.990800
1.178700 0.993300
1.199600 1.006400
1.220500 1.015100
1.241400 1.035300
1.262200 1.057300
1.283100 1.083800
1.304000 1.100400
1.324900 1.114900
1.345800 1.170800
1.366600 1.220000
1.387500 1.257700
1.408400 1.296600
1.429300 1.336700
1.450200 1.376400
1.471000 1.484200
1.491900 1.527000
1.512800 1.577400
1.533700 1.620200
1.554600 1.652400
1.575400 1.635500
1.596300 1.601100
1.617200 1.615600
1.638100 1.625800
1.659000 1.634000
1.679800 1.647800
1.700700 1.666100
1.721600 1.667700
1.742500 1.677100
1.763400 1.687600
1.784200 1.733300
1.805100 1.749400
1.826000 1.774000
1.846900 1.817500
1.867800 1.799300
1.888600 1.786900
1.909500 1.737400
1.930400 1.651800
1.951300 1.591900
1.972200 1.553100
1.993000 1.531900
2.013900 1.519100
2.034800 1.501100
2.055700 1.428300
2.076600 1.413200
2.097400 1.397300
2.118300 1.376600
2.139200 1.366000
2.160100 1.369600
2.181000 1.392500
2.201800 1.399800
2.222700 1.408600
2.243600 1.411400
2.264500 1.408400
2.285400 1.404900
2.306200 1.389800
2.327100 1.368400
2.348000 1.359000
2.368900 1.350100
2.389800 1.340000
2.410700 1.328300
2.431500 1.331500
2.452400 1.319200
2.473300 1.313900
2.494200 1.307000
2.515100 1.299800
2.535900 1.295200
2.556800 1.292400
2.577700 1.290900
2.598600 1.291300
2.619500 1.290400
2.640300 1.290900
2.661200 1.289800
2.682100 1.280900
2.703000 1.277600
2.723900 1.273100
2.744700 1.268000
2.765600 1.268100
2.786500 1.260900
2.807400 1.267000
2.828300 1.273800
2.849100 1.283700
2.870000 1.302500
2.890900 1.327800
2.911800 1.354700
2.932700 1.382400
2.953500 1.366100
2.974400 1.369700
2.995300 1.382400
3.016200 1.404300
3.037100 1.434700
3.057900 1.465500
3.078800 1.494200
3.099700 1.496500
3.120600 1.518600
3.141500 1.548800
3.162300 1.587200
3.183200 1.637000
3.204100 1.719800
3.225000 1.746200
3.245900 1.764800
3.266700 1.759100
3.287600 1.749100
3.308500 1.738700
3.329400 1.683500
3.350300 1.696500
3.371100 1.710200
3.392000 1.723300
3.412900 1.729000
3.433800 1.705100
3.454700 1.687900
3.475500 1.671900
3.496400 1.654100
3.517300 1.669900
3.538200 1.514600
3.559100 1.489900
3.580000 1.475300
3.600800 1.474600
3.621700 1.482300
3.642600 1.494000
3.663500 1.508400
3.684400 1.526500
3.705200 1.527400
3.726100 1.538300
3.747000 1.565300
3.767900 1.592400
3.788800 1.614900
3.809600 1.635300
3.830500 1.648000
3.851400 1.663100
3.872300 1.682300
3.893200 1.683500
3.914000 1.674500
3.934900 1.645700
3.955800 1.611500
3.976700 1.579000
3.997600 1.557700
4.018400 1.546800
4.039300 1.541000
4.060200 1.539600
4.081100 1.573300
4.102000 1.598000
4.122800 1.612500
4.143700 1.620400
4.164600 1.619600
4.185500 1.597400
4.206400 1.575600
4.227200 1.621400
4.248100 1.573800
4.269000 1.538500
4.289900 1.474800
4.310800 1.413400
4.331600 1.407900
4.352500 1.404500
4.373400 1.405000
4.394300 1.408700
4.415200 1.404400
4.436000 1.382300
4.456900 1.375700
4.477800 1.369400
4.498700 1.364500
4.519600 1.363200
4.540400 1.366000
4.561300 1.367900
4.582200 1.366200
4.603100 1.370000
4.624000 1.373400
4.644800 1.374600
4.665700 1.375400
4.686600 1.375500
4.707500 1.375800
4.728400 1.381100
4.749300 1.422900
4.770100 1.422800
4.791000 1.418700
4.811900 1.420200
4.832800 1.428000
4.853700 1.422500
4.874500 1.430800
4.895400 1.440900
4.916300 1.454900
4.937200 1.470000
4.958100 1.484700
4.978900 1.499100
4.999800 1.518500
5.020700 1.539200
5.041600 1.560800
5.062500 1.584800
5.083300 1.611600
5.104200 1.642200
5.125100 1.677500
5.146000 1.728400
5.166900 1.779200
5.187700 1.831100
5.208600 1.878100
5.229500 1.917400
5.250400 1.962600
5.271300 1.996500
5.292100 2.034800
5.313000 2.076200
5.333900 2.153500
5.354800 2.284300
5.375700 2.374200
5.396500 2.330000
5.417400 2.247700
5.438300 2.193000
5.459200 2.199700
5.480100 2.210600
5.500900 2.230700
5.521800 2.253100
5.542700 2.262000
5.563600 2.261600
5.584500 2.253700
5.605300 2.244800
5.626200 2.234900
5.647100 2.194200
5.668000 2.163800
5.688900 2.149500
5.709700 2.150100
5.730600 2.158300
5.751500 2.174700
5.772400 2.200100
5.793300 2.265800
5.814100 2.303400
5.835000 2.344200
5.855900 2.372000
5.876800 2.348500
5.897700 2.368700
5.918600 2.380300
5.939400 2.496600
5.960300 2.603000
5.981200 2.539800
6.002100 2.533200
6.023000 2.438300
6.043800 2.399400
6.064700 2.430600
6.085600 2.498600
6.106500 2.566400
6.127400 2.578300
6.148200 2.548400
6.169100 2.404900
6.190000 2.341000
6.210900 2.322100
6.231800 2.406400
6.252600 2.374800
6.273500 2.047400
6.294400 1.654900
6.315300 1.311400
6.336200 1.123500
6.357000 1.011400
6.377900 0.969500
6.398800 0.976000
6.419700 1.001700
6.440600 1.024800
6.461400 1.055100
6.482300 1.093000
6.503200 1.130900
6.524100 1.169800
6.545000 1.218600
6.565800 1.255700
6.586700 1.283400
6.607600 1.316900
6.628500 1.355600
6.649400 1.396400
6.670200 1.428700
6.691100 1.448700
6.712000 1.469500
6.732900 1.471500
6.753800 1.474900
6.774600 1.475300
6.795500 1.472900
6.816400 1.467700
6.837300 1.486100
6.858200 1.559400
6.879000 1.603600
6.899900 1.625300
6.920800 1.683100
6.941700 1.734000
6.962600 1.727500
6.983400 1.699300
7.004300 1.641100
7.025200 1.526600
7.046100 1.472500
7.067000 1.442900
7.087900 1.445800
7.108700 1.452700
7.129600 1.452800
7.150500 1.433700
7.171400 1.403800
7.192300 1.411200
7.213100 1.446800
7.234000 1.531300
7.254900 1.691500
7.275800 1.763200
7.296700 1.475700
7.317500 1.307800
7.338400 1.271400
7.359300 1.253600
7.380200 1.243000
7.401100 1.234400
7.421900 1.228100
7.442800 1.224000
7.463700 1.224500
7.484600 1.233200
7.505500 1.277100
7.526300 1.364000
7.547200 1.442900
7.568100 1.512700
7.589000 1.537400
7.609900 1.635300
7.630700 1.741100
7.651600 1.855200
7.672500 1.954500
7.693400 2.282600
7.714300 2.146700
7.735100 2.136400
7.756000 2.130100
7.776900 2.123700
7.797800 2.125800
7.818700 2.135400
7.839500 2.151600
7.860400 2.067500
7.881300 2.047200
7.902200 2.029400
7.923100 2.003200
7.943900 2.041000
7.964800 2.046700
7.985700 2.048500
8.006600 2.051200
8.027500 2.053300
8.048300 2.052600
8.069200 2.047700
8.090100 2.039300
8.111000 2.033200
8.131900 2.032900
8.152700 2.024200
8.173600 1.957900
8.194500 1.882100
8.215400 1.823700
8.236300 1.730600
8.257200 1.667300
8.278000 1.647700
8.298900 1.673000
8.319800 1.641100
8.340700 1.585300
8.361600 1.529100
8.382400 1.499800
8.403300 1.476700
8.424200 1.459600
8.445100 1.449300
8.466000 1.452200
8.486800 1.462400
8.507700 1.481000
8.528600 1.506700
8.549500 1.532300
8.570400 1.552400
8.591200 1.640900
8.612100 1.788400
8.633000 1.894100
8.653900 1.985400
8.674800 2.056800
8.695600 2.148800
8.716500 2.247300
8.737400 2.318800
8.758300 2.397500
8.779200 2.534900
8.800000 2.669800
8.820900 2.807200
8.841800 2.951100
8.862700 3.034000
8.883600 3.163300
8.904400 3.265000
8.925300 3.319300
8.946200 3.309100
8.967100 3.102400
8.988000 3.012900
9.008800 2.977100
9.029700 2.877500
9.050600 2.780200
9.071500 2.767700
9.092400 2.750000
9.113200 2.702600
9.134100 2.570500
9.155000 2.397300
9.175900 2.335100
9.196800 2.301200
9.217600 2.321800
9.238500 2.370500
9.259400 2.360500
9.280300 2.399400
9.301200 2.486900
9.322000 2.546100
9.342900 2.649100
9.363800 2.751700
9.384700 2.936700
9.405600 3.097200
9.426500 3.144700
9.447300 3.189500
9.468200 3.195500
9.489100 3.165100
9.510000 2.970900
9.530900 2.826100
9.551700 2.690000
9.572600 2.558500
9.593500 2.425300
9.614400 2.335100
9.635300 2.264600
9.656100 2.094200
9.677000 1.982600
9.697900 1.981800
9.718800 1.974100
9.739700 1.933700
9.760500 1.898800
9.781400 1.881100
9.802300 1.863800
9.823200 1.846600
9.844100 1.848300
9.864900 1.723300
9.885800 1.629300
9.906700 1.405000
9.927600 1.330200
9.948500 1.271300
9.969300 1.214300
9.990200 1.165200
10.011100 1.104600
10.032000 1.073900
10.052900 1.044100
10.073700 1.013700
10.094600 0.987800
10.115500 0.966000
10.136400 0.944100
10.157300 0.922800
10.178100 0.907000
10.199000 0.897400
10.219900 0.946000
10.240800 0.903400
10.261700 0.867300
10.282500 0.842200
10.303400 0.828800
10.324300 0.823200
10.345200 0.825700
10.366100 0.837500
10.386900 0.861400
10.407800 0.921700
10.428700 0.995100
10.449600 1.026800
10.470500 1.059000
10.491300 1.096600
10.512200 1.137900
10.533100 1.173800
10.554000 1.206200
10.574900 1.241600
10.595800 1.277300
10.616600 1.307700
10.637500 1.330000
10.658400 1.348000
10.679300 1.369100
10.700200 1.402400
10.721000 1.434400
10.741900 1.461300
10.762800 1.482400
10.783700 1.497900
10.804600 1.507700
10.825400 1.511500
10.846300 1.509800
10.867200 1.502500
10.888100 1.490900
10.909000 1.465200
10.929800 1.442500
10.950700 1.437600
10.971600 1.444100
10.992500 1.453900
11.013400 1.475600
11.034200 1.503000
11.055100 1.535300
11.076000 1.563600
11.096900 1.585900
11.117800 1.609500
11.138600 1.632000
11.159500 1.656600
11.180400 1.690800
11.201300 1.736100
11.222200 1.786000
11.243000 1.832000
11.263900 1.865800
11.284800 1.904600
11.305700 1.954100
11.326600 1.924100
11.347400 1.974800
11.368300 2.017200
11.389200 2.054200
11.410100 2.086000
11.431000 2.134000
11.451800 2.152000
11.472700 2.170400
11.493600 2.184400
11.514500 2.204300
11.535400 2.233200
11.556200 2.459300
11.577100 2.452800
11.598000 2.430100
11.618900 2.415300
11.639800 2.404900
11.660600 2.400800
11.681500 2.399700
11.702400 2.403500
11.723300 2.402300
11.744200 2.431900
11.765100 2.455100
11.785900 2.437700
11.806800 2.367300
11.827700 2.433900
11.848600 2.363200
11.869500 2.303300
11.890300 2.230500
11.911200 2.156400
11.932100 2.095700
11.953000 2.050100
11.973900 2.015700
11.994700 1.990800
12.015600 1.972300
12.036500 1.964200
12.057400 1.952200
12.078300 1.938100
12.099100 1.913500
12.120000 1.872800
12.140900 1.853200
12.161800 1.814100
12.182700 1.749300
12.203500 1.705400
12.224400 1.679200
12.245300 1.659400
12.266200 1.645400
12.287100 1.635300
12.307900 1.632500
12.328800 1.638200
12.349700 1.642700
12.370600 1.644600
12.391500 1.644200
12.412300 1.645700
12.433200 1.645600
12.454100 1.644300
12.475000 1.643000
12.495900 1.655900
12.516700 1.677300
12.537600 1.720400
12.558500 1.748300
12.579400 1.766000
12.600300 1.776100
12.621100 1.793500
12.642000 1.816900
12.662900 1.926200
12.683800 2.222600
12.704700 1.864700
12.725500 1.871700
12.746400 1.913600
12.767300 1.958600
12.788200 2.003800
12.809100 2.047200
12.829900 2.323800
12.850800 2.157200
12.871700 2.034500
12.892600 2.023700
12.913500 2.070200
12.934400 2.023100
12.955200 1.945700
12.976100 1.847600
12.997000 1.789900
13.017900 1.778700
13.038800 1.770400
13.059600 1.766600
13.080500 1.813000
13.101400 1.809200
13.122300 1.812400
