set title 'mp-684663 - Density of States'
set xlabel 'Energy (eV)'
set ylabel 'DOS (states/eV)'
set grid
set xrange [-10:10]
set yrange [0:3.286]
set xzeroaxis lt -1
set terminal png size 800,600
set output 'mp-684663_dos_gnuplot.png'
plot '-' using 1:2 with lines title 'DOS'
-16.012100 0.000000
-15.935300 0.000000
-15.858500 0.000000
-15.781700 0.000000
-15.704900 0.000000
-15.628200 0.000000
-15.551400 0.000000
-15.474600 0.000000
-15.397800 0.000000
-15.321000 0.000000
-15.244200 0.000000
-15.167400 0.000000
-15.090600 0.000000
-15.013800 0.000000
-14.937000 0.000000
-14.860200 0.000000
-14.783400 0.000000
-14.706700 0.000000
-14.629900 0.000000
-14.553100 0.000000
-14.476300 0.000000
-14.399500 0.000000
-14.322700 0.000000
-14.245900 0.000000
-14.169100 0.000000
-14.092300 0.000000
-14.015500 0.000000
-13.938700 0.000000
-13.861900 0.000000
-13.785200 0.000000
-13.708400 0.000000
-13.631600 0.000000
-13.554800 0.000000
-13.478000 0.000000
-13.401200 0.000000
-13.324400 0.000000
-13.247600 0.000000
-13.170800 0.000000
-13.094000 0.000000
-13.017200 0.000000
-12.940400 0.000000
-12.863700 0.000000
-12.786900 0.000000
-12.710100 0.000000
-12.633300 0.000000
-12.556500 0.000000
-12.479700 0.000000
-12.402900 0.000000
-12.326100 0.000000
-12.249300 0.000000
-12.172500 0.000000
-12.095700 0.000000
-12.018900 0.000000
-11.942100 0.000000
-11.865400 0.000000
-11.788600 0.000000
-11.711800 0.000000
-11.635000 0.000000
-11.558200 0.000000
-11.481400 0.000000
-11.404600 0.000000
-11.327800 0.000000
-11.251000 0.000000
-11.174200 0.000000
-11.097400 0.000000
-11.020600 0.000000
-10.943900 0.000000
-10.867100 0.000000
-10.790300 0.000000
-10.713500 0.000000
-10.636700 0.000000
-10.559900 0.000000
-10.483100 0.000000
-10.406300 0.000000
-10.329500 0.000000
-10.252700 0.000000
-10.175900 0.000000
-10.099100 0.000000
-10.022400 0.000000
-9.945600 0.000000
-9.868800 0.000000
-9.792000 0.000000
-9.715200 0.000000
-9.638400 0.000000
-9.561600 0.000000
-9.484800 0.000000
-9.408000 0.000000
-9.331200 0.000000
-9.254400 0.000000
-9.177600 0.000000
-9.100900 0.000000
-9.024100 0.001800
-8.947300 0.118600
-8.870500 0.195800
-8.793700 0.249000
-8.716900 0.295900
-8.640100 0.343000
-8.563300 0.388000
-8.486500 0.436800
-8.409700 0.486600
-8.332900 0.537900
-8.256100 0.599600
-8.179400 0.661000
-8.102600 0.734800
-8.025800 0.819000
-7.949000 0.927000
-7.872200 1.046100
-7.795400 1.213600
-7.718600 1.459200
-7.641800 1.827000
-7.565000 2.941500
-7.488200 2.828700
-7.411400 2.987600
-7.334600 1.272800
-7.257900 0.953600
-7.181100 0.735600
-7.104300 0.583500
-7.027500 0.485600
-6.950700 0.381000
-6.873900 0.306100
-6.797100 0.220000
-6.720300 0.150200
-6.643500 0.000000
-6.566700 0.000000
-6.489900 0.000000
-6.413100 0.000000
-6.336300 0.000000
-6.259600 0.000000
-6.182800 0.000000
-6.106000 0.000000
-6.029200 0.000000
-5.952400 0.000000
-5.875600 0.000000
-5.798800 0.000000
-5.722000 0.000000
-5.645200 0.000000
-5.568400 0.000000
-5.491600 0.000000
-5.414800 0.000000
-5.338100 0.000000
-5.261300 0.000000
-5.184500 0.000000
-5.107700 0.000000
-5.030900 0.000000
-4.954100 0.000000
-4.877300 0.000000
-4.800500 0.000000
-4.723700 0.000000
-4.646900 0.000000
-4.570100 0.000000
-4.493300 0.000000
-4.416600 0.000000
-4.339800 0.000000
-4.263000 0.000000
-4.186200 0.000000
-4.109400 0.000000
-4.032600 0.000000
-3.955800 0.000000
-3.879000 0.000000
-3.802200 0.000000
-3.725400 0.000000
-3.648600 0.000000
-3.571800 0.000000
-3.495100 0.000000
-3.418300 0.000000
-3.341500 0.000000
-3.264700 0.000000
-3.187900 0.000000
-3.111100 0.000000
-3.034300 0.000000
-2.957500 0.000000
-2.880700 0.000000
-2.803900 0.000000
-2.727100 0.000000
-2.650300 0.000000
-2.573600 0.000000
-2.496800 0.000000
-2.420000 0.000000
-2.343200 0.000000
-2.266400 0.000000
-2.189600 0.000000
-2.112800 0.000000
-2.036000 0.000000
-1.959200 0.000000
-1.882400 0.000000
-1.805600 0.000000
-1.728800 0.000000
-1.652100 0.000000
-1.575300 0.000000
-1.498500 0.000000
-1.421700 0.000000
-1.344900 0.000000
-1.268100 0.000000
-1.191300 0.000000
-1.114500 0.000000
-1.037700 0.000000
-0.960900 0.000000
-0.884100 0.000000
-0.807300 0.000000
-0.730500 0.000000
-0.653800 0.000000
-0.577000 0.000000
-0.500200 0.000000
-0.423400 0.000000
-0.346600 0.000000
-0.269800 0.000000
-0.193000 0.000000
-0.116200 0.000000
-0.039400 0.000000
0.037400 0.255900
0.114200 0.444900
0.191000 0.560600
0.267700 0.691200
0.344500 0.797800
0.421300 0.944100
0.498100 1.094100
0.574900 1.298900
0.651700 1.650300
0.728500 1.972600
0.805300 1.871000
0.882100 1.576900
0.958900 1.254600
1.035700 1.104700
1.112500 0.983200
1.189200 0.904400
1.266000 0.838400
1.342800 0.802100
1.419600 0.789700
1.496400 0.740500
1.573200 0.700000
1.650000 0.733900
1.726800 0.799600
1.803600 0.885400
1.880400 0.975500
1.957200 1.000100
2.034000 1.040200
2.110700 1.036000
2.187500 1.040600
2.264300 1.051100
2.341100 1.085000
2.417900 1.154600
2.494700 1.100500
2.571500 1.111600
2.648300 1.126700
2.725100 1.140200
2.801900 1.173600
2.878700 1.191600
2.955500 1.192100
3.032200 1.202400
3.109000 1.217700
3.185800 1.253500
3.262600 1.296400
3.339400 1.314400
3.416200 1.323300
3.493000 1.451700
3.569800 1.363300
3.646600 1.259100
3.723400 1.209000
3.800200 1.196900
3.877000 1.203900
3.953700 1.227200
4.030500 1.243700
4.107300 1.379400
4.184100 1.514500
4.260900 1.621600
4.337700 1.851600
4.414500 2.391100
4.491300 2.070900
4.568100 1.735700
4.644900 1.552700
4.721700 1.439300
4.798500 1.374600
4.875300 1.108400
4.952000 0.803900
5.028800 0.618900
5.105600 0.383900
5.182400 0.149800
5.259200 0.000000
5.336000 0.000000
5.412800 0.000000
5.489600 0.000000
5.566400 0.000000
5.643200 0.000000
5.720000 0.000000
5.796800 0.000000
5.873500 0.000000
5.950300 0.000000
6.027100 0.000000
6.103900 0.000000
6.180700 0.000000
6.257500 0.000000
6.334300 0.000000
6.411100 0.000000
6.487900 0.000000
6.564700 0.000000
6.641500 0.000000
6.718300 0.000000
6.795000 0.000000
6.871800 0.000000
6.948600 0.000000
7.025400 0.000000
7.102200 0.000000
7.179000 0.000000
7.255800 0.000000
7.332600 0.000000
7.409400 0.000000
7.486200 0.000000
7.563000 0.000000
7.639800 0.000000
7.716500 0.000000
7.793300 0.000000
7.870100 0.000000
7.946900 0.000000
8.023700 0.000000
8.100500 0.000000
8.177300 0.000000
8.254100 0.000000
8.330900 0.000000
8.407700 0.000000
8.484500 0.000000
8.561300 0.000000
8.638000 0.000000
8.714800 0.000000
8.791600 0.000000
8.868400 0.000000
8.945200 0.016900
9.022000 0.032800
9.098800 0.071700
9.175600 0.081900
9.252400 0.096800
9.329200 0.112000
9.406000 0.127100
9.482800 0.149000
9.559500 0.155400
9.636300 0.151700
9.713100 0.163700
9.789900 0.176800
9.866700 0.190100
9.943500 0.201400
10.020300 0.219100
10.097100 0.226600
10.173900 0.235700
10.250700 0.282100
10.327500 0.353700
10.404300 0.463600
10.481000 0.490200
10.557800 0.553200
10.634600 0.623800
10.711400 0.717100
10.788200 0.807500
10.865000 0.969200
10.941800 1.108700
11.018600 1.163100
11.095400 1.130600
11.172200 1.158200
11.249000 1.164200
11.325800 1.233200
11.402600 1.350600
11.479300 1.530200
11.556100 1.366700
11.632900 0.992600
11.709700 0.999300
11.786500 1.091400
11.863300 1.077200
11.940100 1.124000
12.016900 1.146200
12.093700 1.201600
12.170500 1.330000
12.247300 1.596500
12.324100 1.915100
12.400800 2.027900
12.477600 2.065300
12.554400 2.108800
12.631200 2.140500
12.708000 1.884800
12.784800 1.405500
12.861600 1.192500
12.938400 1.046200
13.015200 0.933800
13.092000 0.825300
13.168800 0.734200
13.245600 0.671500
13.322300 0.632600
13.399100 0.630700
13.475900 0.637800
13.552700 0.663600
13.629500 0.792200
13.706300 1.245100
13.783100 1.312500
13.859900 1.256400
13.936700 1.135600
14.013500 1.057700
14.090300 0.999800
14.167100 0.977100
14.243800 1.030200
14.320600 0.990100
14.397400 0.964200
14.474200 0.924000
14.551000 0.921100
14.627800 0.938200
14.704600 0.944400
14.781400 0.937500
14.858200 1.003500
14.935000 0.969500
15.011800 0.979300
15.088600 0.996900
15.165300 1.052300
15.242100 1.132100
15.318900 1.199800
15.395700 1.296200
15.472500 1.389100
15.549300 1.450000
15.626100 1.344800
15.702900 1.345700
15.779700 1.348200
15.856500 1.360000
15.933300 1.371400
16.010100 1.325200
16.086800 1.249700
16.163600 1.275100
16.240400 1.279700
16.317200 1.289200
16.394000 1.288400
16.470800 1.248700
16.547600 1.172100
16.624400 1.155700
16.701200 1.156100
16.778000 1.164600
16.854800 1.129200
16.931600 1.130200
17.008400 1.115200
17.085100 1.095400
17.161900 1.066100
17.238700 1.080900
17.315500 1.047300
17.392300 1.020500
17.469100 0.950900
17.545900 0.882100
17.622700 0.844600
17.699500 0.851300
17.776300 0.856900
17.853100 0.877900
17.929900 0.908700
18.006600 0.974600
18.083400 1.171200
18.160200 1.194800
18.237000 1.232900
18.313800 1.285900
18.390600 1.316500
18.467400 1.345800
18.544200 1.512800
18.621000 1.508700
18.697800 1.483700
18.774600 1.418700
18.851400 1.307300
18.928100 1.054100
19.004900 1.072600
19.081700 1.163400
19.158500 1.098400
19.235300 1.121700
19.312100 1.168000
19.388900 1.230000
19.465700 1.281300
19.542500 1.364400
19.619300 1.266300
19.696100 1.237900
19.772900 1.254900
19.849600 1.300500
19.926400 1.259300
20.003200 1.237000
20.080000 1.270500
20.156800 1.311600
20.233600 1.348500
20.310400 1.394700
20.387200 1.523700
20.464000 1.556600
20.540800 1.348800
20.617600 1.244700
20.694400 1.144600
20.771100 1.180400
20.847900 1.280500
20.924700 1.438000
21.001500 1.498700
21.078300 1.542900
21.155100 1.548200
21.231900 1.449600
21.308700 1.433600
21.385500 1.409600
21.462300 1.379400
21.539100 1.391600
21.615900 1.469400
21.692600 1.568700
21.769400 1.413800
21.846200 1.304400
21.923000 1.244900
21.999800 1.204800
22.076600 1.179800
22.153400 1.198100
22.230200 1.167800
22.307000 1.142700
22.383800 1.236800
22.460600 1.203100
22.537400 1.219200
22.614200 1.275000
22.690900 1.375100
22.767700 1.604800
22.844500 1.916600
22.921300 1.993500
22.998100 2.022100
23.074900 1.668700
23.151700 1.515200
23.228500 1.613900
23.305300 1.479700
23.382100 1.262100
23.458900 1.194500
23.535700 1.191900
23.612400 1.229200
23.689200 1.255700
23.766000 1.293100
23.842800 1.354500
23.919600 1.423100
23.996400 1.432900
24.073200 1.600000
24.150000 1.676400
24.226800 1.730300
24.303600 1.676300
24.380400 1.593500
24.457200 1.500700
24.533900 1.455500
24.610700 1.402400
24.687500 1.350700
24.764300 1.333000
24.841100 1.679000
24.917900 1.876300
24.994700 1.686000
25.071500 1.489000
25.148300 1.367700
25.225100 1.303300
25.301900 1.239800
25.378700 1.227800
25.455400 1.290000
25.532200 1.343500
25.609000 1.540500
25.685800 2.097200
25.762600 1.868900
25.839400 1.782500
25.916200 1.737800
25.993000 1.625500
26.069800 1.617400
26.146600 1.560600
26.223400 1.609800
26.300200 1.601400
26.376900 1.689900
26.453700 1.790000
26.530500 1.645400
26.607300 1.651900
26.684100 1.740800
26.760900 1.592700
26.837700 1.505100
26.914500 1.578000
26.991300 1.602000
27.068100 1.522800
27.144900 1.523200
27.221700 1.523900
27.298400 1.544700
27.375200 1.565500
27.452000 1.740200
27.528800 1.913100
27.605600 1.987300
27.682400 2.187300
27.759200 1.969500
27.836000 1.724900
27.912800 1.567600
27.989600 1.539300
28.066400 1.482100
28.143200 1.413700
28.220000 1.343300
28.296700 1.321900
28.373500 1.347700
28.450300 1.355800
28.527100 1.474800
28.603900 1.615200
28.680700 1.638800
28.757500 1.577900
28.834300 1.445800
28.911100 1.283900
28.987900 1.198100
29.064700 1.225700
29.141500 1.128300
29.218200 1.110700
29.295000 1.174300
29.371800 1.418900
29.448600 1.524900
29.525400 1.917900
29.602200 1.620800
29.679000 1.431000
29.755800 1.324200
29.832600 1.336200
29.909400 1.437800
29.986200 1.531100
30.063000 1.638900
30.139700 1.705800
30.216500 1.742100
30.293300 1.736100
30.370100 1.712100
30.446900 1.644100
30.523700 1.663800
30.600500 1.692500
30.677300 1.865300
30.754100 1.942000
30.830900 1.991600
30.907700 1.937100
30.984500 1.817100
31.061200 1.678900
31.138000 1.544200
31.214800 1.509600
31.291600 1.446300
31.368400 1.392600
31.445200 1.422500
31.522000 1.459300
31.598800 1.541500
31.675600 1.511200
31.752400 1.268700
31.829200 1.227100
31.906000 1.248100
31.982700 1.280600
32.059500 1.386100
32.136300 1.517500
32.213100 1.578400
32.289900 1.647900
32.366700 1.570500
32.443500 1.586200
32.520300 1.522000
32.597100 1.448500
32.673900 1.406300
32.750700 1.437400
32.827500 1.477800
32.904200 1.555700
32.981000 1.512700
33.057800 1.566700
33.134600 1.578300
33.211400 1.639500
33.288200 1.771300
33.365000 1.905800
33.441800 2.010900
33.518600 2.161900
33.595400 2.212700
33.672200 2.076800
33.749000 1.993400
33.825700 1.949200
33.902500 1.894400
33.979300 1.869700
34.056100 1.866400
34.132900 1.851400
34.209700 1.792500
34.286500 1.640200
34.363300 1.529800
34.440100 1.392500
34.516900 1.377500
34.593700 1.458600
34.670500 1.629200
34.747300 1.730300
34.824000 1.876100
34.900800 1.970500
34.977600 1.851000
35.054400 1.884900
35.131200 1.967600
35.208000 2.043000
35.284800 1.965300
35.361600 1.888600
35.438400 1.884300
35.515200 1.867000
35.592000 1.834300
35.668800 1.707000
35.745500 1.606300
35.822300 1.550700
35.899100 1.593800
35.975900 1.545400
36.052700 1.647100
36.129500 1.661200
36.206300 1.657600
36.283100 1.654600
36.359900 1.581200
36.436700 1.635100
36.513500 1.818700
36.590300 2.050000
36.667000 2.035900
36.743800 2.018300
36.820600 1.861400
36.897400 1.619500
36.974200 1.560200
37.051000 1.577500
37.127800 1.726700
37.204600 1.761300
37.281400 1.745200
37.358200 1.827200
37.435000 2.014200
37.511800 2.039900
37.588500 1.933500
37.665300 2.024800
37.742100 1.931900
37.818900 1.844700
37.895700 1.681700
37.972500 1.625400
38.049300 1.601200
38.126100 1.524100
38.202900 1.451000
38.279700 1.458200
38.356500 1.576500
38.433300 1.573700
38.510000 1.557600
38.586800 1.634400
38.663600 1.648100
38.740400 1.647200
38.817200 1.768000
38.894000 1.617700
38.970800 1.600500
39.047600 1.632400
39.124400 1.617300
39.201200 1.644300
39.278000 1.710900
39.354800 1.720900
39.431500 1.720800
39.508300 1.740800
39.585100 1.775400
39.661900 1.714100
39.738700 1.921500
39.815500 1.834900
39.892300 1.760100
39.969100 1.735300
40.045900 1.704600
40.122700 1.566000
40.199500 1.586100
40.276300 1.664500
40.353100 1.757600
40.429800 1.877600
40.506600 2.031000
40.583400 2.149000
40.660200 2.183400
40.737000 2.080800
40.813800 1.742600
40.890600 1.606800
40.967400 1.529400
41.044200 1.630400
41.121000 1.761000
41.197800 1.899800
41.274600 1.942700
41.351300 2.128800
41.428100 2.187000
41.504900 1.777700
41.581700 1.518600
41.658500 1.383400
41.735300 1.531300
41.812100 1.714400
41.888900 1.834200
41.965700 2.122500
42.042500 2.282100
42.119300 2.284500
42.196100 2.344900
42.272800 2.577500
42.349600 2.976900
42.426400 2.951600
42.503200 2.610600
42.580000 2.234500
42.656800 1.820900
42.733600 1.475700
42.810400 1.312100
42.887200 1.422800
42.964000 1.568800
43.040800 1.672600
43.117600 1.678400
43.194300 1.813800
43.271100 1.673700
43.347900 1.522800
43.424700 1.510100
43.501500 1.559800
43.578300 1.643000
43.655100 1.728900
43.731900 1.692700
43.808700 1.651300
43.885500 1.644500
43.962300 1.664900
44.039100 1.703200
44.115800 1.765100
44.192600 1.841500
44.269400 1.853900
44.346200 1.846100
44.423000 1.834100
44.499800 1.795200
44.576600 1.706500
44.653400 1.660500
44.730200 1.736400
44.807000 1.493100
44.883800 1.479300
44.960600 1.497200
45.037300 1.486500
45.114100 1.478000
45.190900 1.536700
45.267700 1.504800
45.344500 1.510000
45.421300 1.494600
45.498100 1.553700
45.574900 1.548700
45.651700 1.490700
45.728500 1.475100
45.805300 1.498500
45.882100 1.659100
45.958900 1.752300
46.035600 1.802800
46.112400 1.942500
46.189200 2.091100
46.266000 2.437200
46.342800 2.838500
46.419600 3.136900
46.496400 3.018600
46.573200 2.839200
46.650000 2.468200
46.726800 2.081400
46.803600 2.096700
46.880400 2.270400
46.957100 2.240800
47.033900 2.180300
47.110700 2.101600
47.187500 2.097500
47.264300 2.127100
47.341100 2.100300
47.417900 2.054200
47.494700 1.966100
47.571500 1.869200
47.648300 1.792200
47.725100 1.670400
47.801900 1.466900
47.878600 1.402300
47.955400 1.336400
48.032200 1.279600
48.109000 1.224300
48.185800 1.200900
48.262600 1.142400
48.339400 1.201500
48.416200 1.321900
48.493000 1.343400
48.569800 1.573700
48.646600 1.972500
48.723400 2.295200
48.800100 2.647300
48.876900 2.770000
48.953700 2.494900
49.030500 2.140500
49.107300 1.979200
49.184100 1.387200
49.260900 1.332700
49.337700 1.309500
49.414500 1.333200
49.491300 1.424200
49.568100 1.544800
49.644900 1.661800
49.721600 1.960100
49.798400 2.146000
49.875200 2.004000
49.952000 1.871000
50.028800 1.823500
50.105600 1.891500
50.182400 2.142400
50.259200 2.337300
50.336000 2.115200
50.412800 2.101700
50.489600 2.111500
50.566400 2.269200
50.643100 2.087300
50.719900 2.100800
50.796700 2.243500
50.873500 2.397200
50.950300 2.379000
51.027100 2.119600
51.103900 1.982200
51.180700 1.926600
51.257500 1.814300
51.334300 1.682000
51.411100 1.668500
51.487900 1.732300
51.564700 1.819100
51.641400 2.010000
51.718200 2.273900
51.795000 2.313500
51.871800 2.437800
51.948600 2.819400
52.025400 2.757700
52.102200 1.995600
52.179000 1.850000
52.255800 1.816900
52.332600 1.798400
52.409400 1.803200
52.486200 1.835600
52.562900 1.873100
52.639700 1.969300
52.716500 2.099000
52.793300 2.465900
52.870100 2.455900
52.946900 2.280200
53.023700 2.095800
53.100500 1.908700
53.177300 1.808900
53.254100 1.752500
53.330900 1.777300
53.407700 1.918500
53.484400 2.066700
53.561200 2.047400
53.638000 2.123700
53.714800 2.185600
53.791600 2.174200
53.868400 2.094300
53.945200 2.031600
54.022000 2.132500
54.098800 2.307300
54.175600 2.229000
54.252400 2.034500
54.329200 1.881400
54.405900 1.817300
54.482700 1.845700
54.559500 1.965400
54.636300 1.964100
54.713100 2.052200
54.789900 2.051800
54.866700 2.074400
54.943500 2.110100
55.020300 2.058700
55.097100 1.980100
55.173900 1.745400
55.250700 1.658800
55.327400 1.368100
55.404200 1.311300
55.481000 1.398700
55.557800 1.476100
55.634600 1.595500
55.711400 1.781300
55.788200 2.020900
55.865000 2.453000
55.941800 2.704500
56.018600 2.620900
56.095400 2.441900
56.172200 2.317400
56.248900 2.078100
56.325700 1.814100
56.402500 1.641000
56.479300 1.500800
56.556100 1.474200
56.632900 1.600700
56.709700 1.799000
56.786500 1.985500
56.863300 2.365300
56.940100 2.619500
57.016900 2.634000
57.093700 2.381400
57.170400 2.237300
57.247200 2.136800
57.324000 2.076600
57.400800 2.207900
57.477600 2.426000
57.554400 2.859500
57.631200 3.005700
57.708000 2.695500
57.784800 2.433200
57.861600 2.211500
57.938400 2.065500
58.015200 1.930600
58.092000 1.960600
58.168700 1.759700
58.245500 1.728000
58.322300 1.723700
58.399100 1.809000
58.475900 1.979600
58.552700 2.069900
58.629500 1.942600
58.706300 2.015700
58.783100 2.120900
58.859900 2.201200
58.936700 2.193500
59.013500 2.168500
59.090200 2.162800
59.167000 2.055000
59.243800 2.260000
59.320600 2.241700
59.397400 2.302800
59.474200 2.339900
59.551000 2.370300
59.627800 2.466500
59.704600 2.503800
59.781400 2.421700
59.858200 2.293000
59.935000 2.212500
60.011700 2.191400
60.088500 2.311100
60.165300 2.443300
60.242100 2.626100
60.318900 2.639300
60.395700 2.596000
60.472500 2.519400
60.549300 2.366000
60.626100 2.318500
60.702900 2.304500
60.779700 2.240700
60.856500 2.216000
60.933200 2.330800
61.010000 2.543500
61.086800 2.915700
61.163600 2.226200
61.240400 2.544600
61.317200 2.864400
61.394000 2.960100
61.470800 3.296100
61.547600 3.122900
61.624400 2.544200
61.701200 2.151700
61.778000 1.948100
61.854700 1.782100
61.931500 1.740600
62.008300 1.771300
62.085100 1.901500
62.161900 2.184400
62.238700 2.297600
62.315500 2.191500
62.392300 2.082400
62.469100 2.096600
62.545900 2.274000
62.622700 2.353300
62.699500 2.334500
62.776200 2.271000
62.853000 2.271000
62.929800 2.209300
63.006600 2.247200
63.083400 2.207100
63.160200 2.059500
63.237000 1.850400
63.313800 1.813600
63.390600 1.834700
63.467400 1.743400
63.544200 1.753300
63.621000 1.850300
63.697800 2.032200
63.774500 2.439700
