set title 'mp-1226077 - Density of States'
set xlabel 'Energy (eV)'
set ylabel 'DOS (states/eV)'
set grid
set xrange [-10:10]
set yrange [0:10.184]
set xzeroaxis lt -1
set terminal png size 800,600
set output 'mp-1226077_dos_gnuplot.png'
plot '-' using 1:2 with lines title 'DOS'
-6.300300 0.000000
-6.277900 0.000000
-6.255600 0.000000
-6.233200 0.000000
-6.210900 0.000000
-6.188500 0.000000
-6.166100 0.000000
-6.143800 0.000000
-6.121400 0.000000
-6.099100 0.000000
-6.076700 0.000000
-6.054400 0.000000
-6.032000 0.000000
-6.009700 0.000000
-5.987300 0.000000
-5.965000 0.000000
-5.942600 0.000000
-5.920300 0.000000
-5.897900 0.000000
-5.875600 0.000000
-5.853200 0.000000
-5.830800 0.000000
-5.808500 0.000000
-5.786100 0.000000
-5.763800 0.000000
-5.741400 0.000000
-5.719100 0.000000
-5.696700 0.000000
-5.674400 0.000000
-5.652000 0.000000
-5.629700 0.000000
-5.607300 0.000000
-5.585000 0.000000
-5.562600 0.000000
-5.540300 0.000000
-5.517900 0.000000
-5.495500 0.000000
-5.473200 0.000000
-5.450800 0.000000
-5.428500 0.000000
-5.406100 0.000000
-5.383800 0.000000
-5.361400 0.000000
-5.339100 0.000000
-5.316700 0.000000
-5.294400 0.000000
-5.272000 0.000000
-5.249700 0.000000
-5.227300 0.000000
-5.204900 0.000000
-5.182600 0.000000
-5.160200 0.000000
-5.137900 0.000000
-5.115500 0.000000
-5.093200 0.000000
-5.070800 0.000000
-5.048500 0.000000
-5.026100 0.000000
-5.003800 0.000000
-4.981400 0.000000
-4.959100 0.000000
-4.936700 0.000000
-4.914400 0.000000
-4.892000 0.000000
-4.869600 0.000000
-4.847300 0.000000
-4.824900 0.000000
-4.802600 0.000000
-4.780200 0.000000
-4.757900 0.000000
-4.735500 0.000000
-4.713200 0.000000
-4.690800 0.000000
-4.668500 0.000000
-4.646100 0.000000
-4.623800 0.000000
-4.601400 0.000000
-4.579000 0.000000
-4.556700 0.000000
-4.534300 0.000000
-4.512000 0.000000
-4.489600 0.000000
-4.467300 0.000000
-4.444900 0.000000
-4.422600 0.000000
-4.400200 0.000000
-4.377900 0.000000
-4.355500 0.000000
-4.333200 0.000000
-4.310800 0.000000
-4.288500 0.000000
-4.266100 0.000000
-4.243700 0.000800
-4.221400 0.005400
-4.199000 0.012200
-4.176700 0.020500
-4.154300 0.030300
-4.132000 0.041200
-4.109600 0.053400
-4.087300 0.066600
-4.064900 0.081000
-4.042600 0.096800
-4.020200 0.114400
-3.997900 0.119200
-3.975500 0.117000
-3.953100 0.119100
-3.930800 0.121600
-3.908400 0.124000
-3.886100 0.125700
-3.863700 0.126800
-3.841400 0.127000
-3.819000 0.125600
-3.796700 0.120400
-3.774300 0.118900
-3.752000 0.124200
-3.729600 0.130300
-3.707300 0.137300
-3.684900 0.144800
-3.662600 0.152800
-3.640200 0.161400
-3.617800 0.170500
-3.595500 0.180100
-3.573100 0.188400
-3.550800 0.190400
-3.528400 0.194000
-3.506100 0.198500
-3.483700 0.202900
-3.461400 0.207100
-3.439000 0.211100
-3.416700 0.215000
-3.394300 0.218900
-3.372000 0.222800
-3.349600 0.226700
-3.327300 0.230400
-3.304900 0.234300
-3.282500 0.239200
-3.260200 0.245000
-3.237800 0.250800
-3.215500 0.256300
-3.193100 0.261700
-3.170800 0.266700
-3.148400 0.271400
-3.126100 0.275400
-3.103700 0.278700
-3.081400 0.281300
-3.059000 0.282900
-3.036700 0.279300
-3.014300 0.277700
-2.991900 0.280400
-2.969600 0.282900
-2.947200 0.285400
-2.924900 0.287900
-2.902500 0.290200
-2.880200 0.293200
-2.857800 0.297700
-2.835500 0.303800
-2.813100 0.310800
-2.790800 0.318400
-2.768400 0.326700
-2.746100 0.335500
-2.723700 0.345000
-2.701400 0.355100
-2.679000 0.365800
-2.656600 0.375000
-2.634300 0.376700
-2.611900 0.383200
-2.589600 0.390300
-2.567200 0.397800
-2.544900 0.405800
-2.522500 0.414500
-2.500200 0.423800
-2.477800 0.434600
-2.455500 0.446800
-2.433100 0.459900
-2.410800 0.472500
-2.388400 0.484600
-2.366000 0.496300
-2.343700 0.507800
-2.321300 0.518800
-2.299000 0.529100
-2.276600 0.538400
-2.254300 0.546700
-2.231900 0.552300
-2.209600 0.550900
-2.187200 0.561500
-2.164900 0.574300
-2.142500 0.592600
-2.120200 0.615600
-2.097800 0.646500
-2.075500 0.680100
-2.053100 0.714200
-2.030700 0.748800
-2.008400 0.783900
-1.986000 0.819400
-1.963700 0.855300
-1.941300 0.868300
-1.919000 0.879500
-1.896600 0.881200
-1.874300 0.871500
-1.851900 0.905700
-1.829600 1.042500
-1.807200 1.298600
-1.784900 1.520900
-1.762500 1.778600
-1.740200 1.911300
-1.717800 1.959000
-1.695400 1.911600
-1.673100 1.861500
-1.650700 1.782500
-1.628400 1.630700
-1.606000 1.688600
-1.583700 1.924700
-1.561300 2.141000
-1.539000 2.322200
-1.516600 2.548200
-1.494300 2.772000
-1.471900 3.044400
-1.449600 3.337600
-1.427200 3.406600
-1.404800 3.255600
-1.382500 3.181300
-1.360100 3.389100
-1.337800 3.421500
-1.315400 3.396700
-1.293100 3.375900
-1.270700 3.336300
-1.248400 3.619300
-1.226000 4.084600
-1.203700 4.152100
-1.181300 4.191000
-1.159000 4.205000
-1.136600 4.097600
-1.114300 4.079100
-1.091900 4.054000
-1.069500 4.023700
-1.047200 4.033700
-1.024800 4.140000
-1.002500 4.019100
-0.980100 4.187200
-0.957800 4.174200
-0.935400 4.172400
-0.913100 4.156300
-0.890700 4.384300
-0.868400 4.641400
-0.846000 4.495700
-0.823700 4.089600
-0.801300 4.237600
-0.778900 4.451400
-0.756600 4.576000
-0.734200 4.725800
-0.711900 4.495800
-0.689500 4.602800
-0.667200 4.692500
-0.644800 4.685800
-0.622500 4.607700
-0.600100 5.174900
-0.577800 3.353900
-0.555400 3.034300
-0.533100 3.200600
-0.510700 3.585000
-0.488400 4.142400
-0.466000 3.821300
-0.443600 2.953400
-0.421300 3.176000
-0.398900 3.545600
-0.376600 3.533900
-0.354200 5.338000
-0.331900 3.467100
-0.309500 3.616300
-0.287200 3.953700
-0.264800 5.235600
-0.242500 4.340800
-0.220100 4.202200
-0.197800 3.208100
-0.175400 3.089500
-0.153100 2.078900
-0.130700 2.237400
-0.108300 2.554700
-0.086000 3.175700
-0.063600 3.985300
-0.041300 4.854400
-0.018900 4.595500
0.003400 5.027200
0.025800 5.885100
0.048100 6.187900
0.070500 6.351900
0.092800 6.915400
0.115200 7.549700
0.137500 6.705000
0.159900 5.862800
0.182300 5.064600
0.204600 4.724300
0.227000 5.098800
0.249300 5.373400
0.271700 6.228800
0.294000 8.685200
0.316400 7.290500
0.338700 6.301000
0.361100 5.616400
0.383400 5.245700
0.405800 5.166500
0.428100 4.621200
0.450500 4.595700
0.472800 4.646600
0.495200 4.632200
0.517600 4.747000
0.539900 5.237200
0.562300 6.315800
0.584600 7.710800
0.607000 7.381100
0.629300 6.573400
0.651700 7.225900
0.674000 7.258100
0.696400 7.161900
0.718700 6.126200
0.741100 4.951800
0.763400 4.659400
0.785800 4.438700
0.808200 4.363800
0.830500 4.519200
0.852900 4.955800
0.875200 5.344100
0.897600 4.966900
0.919900 4.264000
0.942300 4.692800
0.964600 4.827700
0.987000 5.079400
1.009300 5.489900
1.031700 5.736200
1.054000 6.033500
1.076400 5.784100
1.098700 5.344300
1.121100 4.737300
1.143500 5.590400
1.165800 5.300500
1.188200 4.980500
1.210500 4.197800
1.232900 3.931500
1.255200 3.899200
1.277600 4.280400
1.299900 4.459500
1.322300 4.187800
1.344600 3.776200
1.367000 4.576200
1.389300 4.868800
1.411700 5.256300
1.434000 5.584600
1.456400 5.756600
1.478800 5.915100
1.501100 5.456000
1.523500 5.862100
1.545800 5.224700
1.568200 6.149600
1.590500 5.553000
1.612900 5.440200
1.635200 5.461400
1.657600 5.458700
1.679900 5.081800
1.702300 4.858900
1.724600 4.362300
1.747000 4.315600
1.769400 4.811900
1.791700 4.981700
1.814100 4.380300
1.836400 4.211100
1.858800 4.275300
1.881100 4.243300
1.903500 4.404600
1.925800 4.837400
1.948200 5.752700
1.970500 5.872500
1.992900 4.699700
2.015200 3.678800
2.037600 3.395600
2.059900 3.503100
2.082300 3.841000
2.104700 4.215100
2.127000 4.882000
2.149400 5.206100
2.171700 4.598900
2.194100 4.255800
2.216400 3.994400
2.238800 3.915900
2.261100 4.022900
2.283500 4.342500
2.305800 4.254200
2.328200 4.248400
2.350500 4.275900
2.372900 4.218000
2.395300 4.441100
2.417600 4.606900
2.440000 5.114400
2.462300 6.379800
2.484700 5.850400
2.507000 6.780300
2.529400 6.562800
2.551700 8.385600
2.574100 7.929700
2.596400 8.420800
2.618800 6.291200
2.641100 4.728300
2.663500 4.325000
2.685800 4.390400
2.708200 4.554200
2.730600 4.676700
2.752900 4.875800
2.775300 5.276400
2.797600 5.269800
2.820000 5.103800
2.842300 4.943900
2.864700 5.366500
2.887000 7.126100
2.909400 7.276200
2.931700 5.810900
2.954100 4.291500
2.976400 3.868600
2.998800 3.691400
3.021100 3.592700
3.043500 5.891200
3.065900 4.905900
3.088200 5.731000
3.110600 5.137400
3.132900 5.704000
3.155300 6.171900
3.177600 6.978300
3.200000 6.295700
3.222300 5.601300
3.244700 5.248400
3.267000 5.081700
3.289400 6.159000
3.311700 6.352600
3.334100 5.565700
3.356500 4.539900
3.378800 3.809300
3.401200 3.683200
3.423500 4.567700
3.445900 5.553600
3.468200 3.909700
3.490600 3.654400
3.512900 7.458400
3.535300 9.258000
3.557600 7.737800
3.580000 2.480500
3.602300 2.200300
3.624700 1.390200
3.647000 1.221400
3.669400 1.191900
3.691800 1.170500
3.714100 1.152100
3.736500 1.137400
3.758800 1.125700
3.781200 1.112500
3.803500 1.097700
3.825900 1.082900
3.848200 1.059100
3.870600 1.045100
3.892900 1.032700
3.915300 1.021800
3.937600 1.011800
3.960000 1.002700
3.982400 0.992200
4.004700 0.981000
4.027100 0.968700
4.049400 0.947900
4.071800 0.927800
4.094100 0.905300
4.116500 0.901300
4.138800 0.885800
4.161200 0.870400
4.183500 0.854800
4.205900 0.845000
4.228200 0.836100
4.250600 0.828500
4.272900 0.822300
4.295300 0.817300
4.317700 0.813100
4.340000 0.809500
4.362400 0.806500
4.384700 0.802700
4.407100 0.798500
4.429400 0.794500
4.451800 0.790900
4.474100 0.788000
4.496500 0.784800
4.518800 0.781900
4.541200 0.779700
4.563500 0.778300
4.585900 0.777700
4.608300 0.777900
4.630600 0.778900
4.653000 0.781300
4.675300 0.785400
4.697700 0.788500
4.720000 0.790700
4.742400 0.792400
4.764700 0.793500
4.787100 0.794100
4.809400 0.795000
4.831800 0.798800
4.854100 0.800800
4.876500 0.807500
4.898800 0.812500
4.921200 0.808200
4.943600 0.804100
4.965900 0.800400
4.988300 0.797400
5.010600 0.794800
5.033000 0.793000
5.055300 0.793100
5.077700 0.793800
5.100000 0.794000
5.122400 0.793600
5.144700 0.793100
5.167100 0.792800
5.189400 0.792700
5.211800 0.793000
5.234100 0.793700
5.256500 0.794900
5.278900 0.796500
5.301200 0.799600
5.323600 0.805600
5.345900 0.814500
5.368300 0.826000
5.390600 0.840200
5.413000 1.045700
5.435300 0.879200
5.457700 0.797200
5.480000 0.751300
5.502400 0.719400
5.524700 0.714600
5.547100 0.712600
5.569500 0.711100
5.591800 0.710200
5.614200 0.709800
5.636500 0.710100
5.658900 0.711700
5.681200 0.715300
5.703600 0.728300
5.725900 0.739300
5.748300 0.742300
5.770600 0.743700
5.793000 0.744200
5.815300 0.743400
5.837700 0.741800
5.860000 0.740900
5.882400 0.744700
5.904800 0.727900
5.927100 0.685700
5.949500 0.668200
5.971800 0.655100
5.994200 0.647900
6.016500 0.643200
6.038900 0.640600
6.061200 0.639300
6.083600 0.639200
6.105900 0.640000
6.128300 0.641800
6.150600 0.642000
6.173000 0.641600
6.195400 0.642500
6.217700 0.644100
6.240100 0.646800
6.262400 0.649700
6.284800 0.652700
6.307100 0.652300
6.329500 0.645600
6.351800 0.634300
6.374200 0.630700
6.396500 0.627500
6.418900 0.638000
6.441200 0.686600
6.463600 0.635700
6.485900 0.634900
6.508300 0.636100
6.530700 0.638400
6.553000 0.640200
6.575400 0.641400
6.597700 0.642200
6.620100 0.642400
6.642400 0.641900
6.664800 0.641400
6.687100 0.640400
6.709500 0.638500
6.731800 0.636400
6.754200 0.634500
6.776500 0.634000
6.798900 0.636600
6.821200 0.873400
6.843600 0.689700
6.866000 0.607500
6.888300 0.611000
6.910700 0.615200
6.933000 0.620500
6.955400 0.626400
6.977700 0.631900
7.000100 0.636600
7.022400 0.640400
7.044800 0.643200
7.067100 0.647600
7.089500 0.653200
7.111800 0.659100
7.134200 0.673200
7.156600 0.711900
7.178900 0.743000
7.201300 0.750900
7.223600 0.739300
7.246000 0.708400
7.268300 0.648300
7.290700 0.647600
7.313000 0.646300
7.335400 0.643400
7.357700 0.631100
7.380100 0.625100
7.402400 0.632200
7.424800 0.695200
7.447100 0.688400
7.469500 0.664000
7.491900 0.622000
7.514200 0.569000
7.536600 0.553700
7.558900 0.542800
7.581300 0.531500
7.603600 0.524600
7.626000 0.526700
7.648300 0.544700
7.670700 0.563300
7.693000 0.573500
7.715400 0.575600
7.737700 0.569500
7.760100 0.555900
7.782500 0.546500
7.804800 0.553200
7.827200 0.563800
7.849500 0.577400
7.871900 0.593700
7.894200 0.554400
7.916600 0.551200
7.938900 0.549700
7.961300 0.551700
7.983600 0.595500
8.006000 0.644300
8.028300 0.729900
8.050700 0.770700
8.073000 0.761800
8.095400 0.709200
8.117800 0.697400
8.140100 0.716300
8.162500 1.063700
8.184800 0.837700
8.207200 0.868000
8.229500 0.867100
8.251900 0.867500
8.274200 0.871600
8.296600 0.867300
8.318900 0.877400
8.341300 0.900400
8.363600 0.926600
8.386000 0.941400
8.408300 0.925300
8.430700 0.914600
8.453100 0.911300
8.475400 0.908900
8.497800 0.900900
8.520100 0.887600
8.542500 0.845600
8.564800 0.841400
8.587200 0.841000
8.609500 0.838800
8.631900 0.843400
8.654200 0.843900
8.676600 0.838500
8.698900 0.827400
8.721300 0.816900
8.743700 0.802400
8.766000 0.788600
8.788400 0.776100
8.810700 0.764800
8.833100 0.755700
8.855400 0.750100
8.877800 0.747800
8.900100 0.746400
8.922500 0.746300
8.944800 0.752700
8.967200 0.763100
8.989500 0.776500
9.011900 0.800900
9.034200 0.824800
9.056600 0.839400
9.079000 0.850600
9.101300 0.862000
9.123700 0.872900
9.146000 0.880300
9.168400 0.884300
9.190700 0.884700
9.213100 0.881300
9.235400 0.870500
9.257800 0.853700
9.280100 0.830700
9.302500 0.801600
9.324800 0.772600
9.347200 0.753300
9.369600 0.743600
9.391900 0.745400
9.414300 0.753000
9.436600 0.758200
9.459000 0.762300
9.481300 0.790700
9.503700 0.809100
9.526000 0.814800
9.548400 0.812700
9.570700 0.810300
9.593100 0.808800
9.615400 0.801000
9.637800 0.799400
9.660100 0.803000
9.682500 0.833900
9.704900 0.872500
9.727200 0.886100
9.749600 0.858900
9.771900 0.798200
9.794300 0.733500
9.816600 0.689500
9.839000 0.681500
9.861300 0.682400
9.883700 0.683100
9.906000 0.689600
9.928400 0.699000
9.950700 0.702100
9.973100 0.674300
9.995400 0.666400
10.017800 0.667500
10.040200 0.672800
10.062500 0.680900
10.084900 0.692100
10.107200 0.707100
10.129600 0.726800
10.151900 0.736100
10.174300 0.747400
10.196600 0.751000
10.219000 0.757100
10.241300 0.767300
10.263700 0.771200
10.286000 0.773700
10.308400 0.779700
10.330800 0.791400
10.353100 0.893500
10.375500 0.931500
10.397800 0.914100
10.420200 0.904600
10.442500 0.903700
10.464900 0.913500
10.487200 0.923200
10.509600 0.928100
10.531900 0.924100
10.554300 0.912600
10.576600 0.889600
10.599000 0.862300
10.621300 0.843700
10.643700 0.823900
10.666100 0.805700
10.688400 0.789200
10.710800 0.778000
10.733100 0.770800
10.755500 0.766500
10.777800 0.759500
10.800200 0.750800
10.822500 0.741400
10.844900 0.731100
10.867200 0.719800
10.889600 0.707500
10.911900 0.694200
10.934300 0.680500
10.956700 0.669900
10.979000 0.667900
11.001400 0.677100
11.023700 0.688700
11.046100 0.697500
11.068400 0.707500
11.090800 0.716900
11.113100 0.725600
11.135500 0.735700
11.157800 0.748400
11.180200 0.764500
11.202500 0.784000
11.224900 0.807300
11.247200 0.960800
11.269600 0.851900
11.292000 0.758400
11.314300 0.755900
11.336700 0.756900
11.359000 0.758300
11.381400 0.758900
11.403700 0.759600
11.426100 0.763000
11.448400 0.766000
11.470800 0.767800
11.493100 0.768600
11.515500 0.768500
11.537800 0.767600
11.560200 0.767500
11.582500 0.767500
11.604900 0.766300
11.627300 0.762700
11.649600 0.758800
11.672000 0.755500
11.694300 0.754600
11.716700 0.752200
11.739000 0.747500
11.761400 0.743100
11.783700 0.739200
11.806100 0.738500
11.828400 0.739600
11.850800 0.742400
11.873100 0.746800
11.895500 0.752200
11.917900 0.750300
11.940200 0.745200
11.962600 0.740500
11.984900 0.737000
12.007300 0.734900
12.029600 0.736000
12.052000 0.751000
12.074300 0.768400
12.096700 0.786500
12.119000 0.805500
12.141400 0.819400
12.163700 0.823900
12.186100 0.831400
12.208400 0.858700
12.230800 0.908900
12.253200 0.981900
12.275500 0.896500
12.297900 0.867500
12.320200 0.872300
12.342600 0.884100
12.364900 0.900400
12.387300 0.917900
12.409600 0.937300
12.432000 0.966800
12.454300 1.009500
12.476700 1.044600
12.499000 1.057800
12.521400 1.062100
12.543800 1.059400
12.566100 1.047200
12.588500 1.078500
12.610800 1.080500
12.633200 1.041700
12.655500 1.029100
12.677900 1.017600
12.700200 1.003300
12.722600 0.987200
12.744900 0.969700
12.767300 0.951100
12.789600 0.932300
12.812000 0.915800
12.834300 0.900800
12.856700 0.891600
12.879100 0.872600
12.901400 0.857300
12.923800 0.847900
12.946100 0.838700
12.968500 0.832600
12.990800 0.829000
13.013200 0.826700
13.035500 0.843700
13.057900 0.838300
13.080200 0.832100
13.102600 0.825100
13.124900 0.818900
13.147300 0.813600
13.169700 0.809700
13.192000 0.806500
13.214400 0.803800
13.236700 0.805300
13.259100 0.810200
13.281400 0.816900
13.303800 0.823500
13.326100 0.829900
13.348500 0.837100
13.370800 0.845300
13.393200 0.854700
13.415500 0.865000
13.437900 0.875900
13.460200 0.887600
13.482600 0.900400
13.505000 0.914400
13.527300 0.929300
13.549700 0.945400
13.572000 0.962500
13.594400 0.979400
13.616700 0.993100
13.639100 1.061400
13.661400 1.010800
13.683800 1.007700
13.706100 1.010400
13.728500 1.014400
13.750800 1.018000
13.773200 1.021300
13.795500 1.024400
13.817900 1.028000
13.840300 1.031900
13.862600 1.036600
13.885000 1.042800
13.907300 1.048400
13.929700 1.053000
13.952000 1.056600
13.974400 1.060500
13.996700 1.053500
14.019100 1.056500
14.041400 1.061000
14.063800 1.066500
14.086100 1.072500
14.108500 1.078800
14.130900 1.085600
14.153200 1.083000
14.175600 1.093400
14.197900 1.095000
14.220300 1.095800
14.242600 1.097200
14.265000 1.105600
14.287300 1.119800
14.309700 1.130900
14.332000 1.146200
14.354400 1.153100
14.376700 1.148900
14.399100 1.150400
14.421400 1.138000
14.443800 1.117500
14.466200 1.105000
14.488500 1.095900
14.510900 1.087100
14.533200 1.079600
14.555600 1.068400
14.577900 1.059000
14.600300 1.050700
14.622600 1.043200
14.645000 1.036900
14.667300 1.030700
14.689700 1.025100
14.712000 1.020500
14.734400 1.017000
14.756800 1.014600
14.779100 1.011400
14.801500 1.010200
14.823800 1.008900
14.846200 1.006800
14.868500 1.002100
14.890900 0.995300
14.913200 1.030600
14.935600 1.005200
14.957900 1.005400
14.980300 1.006400
15.002600 1.004100
15.025000 0.997800
15.047300 0.997600
15.069700 0.999800
15.092100 1.003300
15.114400 1.007600
15.136800 1.012500
15.159100 1.018100
15.181500 1.025000
15.203800 1.036300
15.226200 1.048300
15.248500 1.060100
15.270900 1.056100
15.293200 1.068500
15.315600 1.108000
15.337900 1.155500
15.360300 1.178800
15.382600 1.149800
15.405000 1.122600
15.427400 1.122100
15.449700 1.123800
15.472100 1.127300
15.494400 1.132400
15.516800 1.139800
15.539100 1.148800
15.561500 1.157000
15.583800 1.164400
15.606200 1.169700
15.628500 1.172500
15.650900 1.172600
15.673200 1.171800
15.695600 1.171900
15.718000 1.175700
15.740300 1.181200
15.762700 1.187800
15.785000 1.194600
15.807400 1.202500
15.829700 1.228100
15.852100 1.252300
15.874400 1.273500
15.896800 1.291800
15.919100 1.299900
15.941500 1.306600
15.963800 1.296600
15.986200 1.271400
16.008500 1.258200
16.030900 1.257100
16.053300 1.264200
16.075600 1.304200
16.098000 1.355700
16.120300 1.366200
16.142700 1.354500
16.165000 1.316800
16.187400 1.285000
16.209700 1.264600
16.232100 1.254800
16.254400 1.255100
16.276800 1.257800
16.299100 1.261400
16.321500 1.265600
16.343900 1.270000
16.366200 1.273700
16.388600 1.268300
16.410900 1.230100
16.433300 1.196800
16.455600 1.187300
16.478000 1.190400
16.500300 1.201800
16.522700 1.216500
16.545000 1.228800
16.567400 1.237400
16.589700 1.242100
16.612100 1.246600
16.634400 1.252900
16.656800 1.260800
16.679200 1.270500
16.701500 1.282000
16.723900 1.293700
16.746200 1.302700
16.768600 1.314100
16.790900 1.323500
16.813300 1.330800
16.835600 1.337300
16.858000 1.343000
16.880300 1.347200
16.902700 1.349800
16.925000 1.351400
16.947400 1.353000
16.969700 1.350100
16.992100 1.345000
17.014500 1.340900
17.036800 1.334400
17.059200 1.320500
17.081500 1.347900
17.103900 1.332900
17.126200 1.321900
17.148600 1.318500
17.170900 1.317500
17.193300 1.316300
17.215600 1.317100
17.238000 1.315800
17.260300 1.315200
17.282700 1.317700
17.305100 1.321600
17.327400 1.329200
17.349800 1.332300
17.372100 1.325100
17.394500 1.303100
