set title 'mp-10752 - Density of States'
set xlabel 'Energy (eV)'
set ylabel 'DOS (states/eV)'
set grid
set xrange [-10:10]
set yrange [0:2.819]
set xzeroaxis lt -1
set terminal png size 800,600
set output 'mp-10752_dos_gnuplot.png'
plot '-' using 1:2 with lines title 'DOS'
-28.208500 0.000000
-28.138100 0.000000
-28.067700 0.000000
-27.997300 0.000000
-27.926900 0.000000
-27.856500 0.000000
-27.786000 0.000000
-27.715600 0.000000
-27.645200 0.000000
-27.574800 0.000000
-27.504400 0.000000
-27.434000 0.000000
-27.363600 0.000000
-27.293200 0.000000
-27.222700 0.000000
-27.152300 0.000000
-27.081900 0.000000
-27.011500 0.000000
-26.941100 0.000000
-26.870700 0.000000
-26.800300 0.000000
-26.729800 0.000000
-26.659400 0.000000
-26.589000 0.000000
-26.518600 0.000000
-26.448200 0.000000
-26.377800 0.000000
-26.307400 0.000000
-26.237000 0.000000
-26.166500 0.000000
-26.096100 0.000000
-26.025700 0.000000
-25.955300 0.000000
-25.884900 0.000000
-25.814500 0.000000
-25.744100 0.000000
-25.673700 0.000000
-25.603200 0.000000
-25.532800 0.000000
-25.462400 0.000000
-25.392000 0.000000
-25.321600 0.000000
-25.251200 0.000000
-25.180800 0.000000
-25.110400 0.000000
-25.039900 0.000000
-24.969500 0.000000
-24.899100 0.000000
-24.828700 0.000000
-24.758300 0.000000
-24.687900 0.000000
-24.617500 0.000000
-24.547000 0.000000
-24.476600 0.000000
-24.406200 0.000000
-24.335800 0.000000
-24.265400 0.000000
-24.195000 0.000000
-24.124600 0.000000
-24.054200 0.000000
-23.983700 0.000000
-23.913300 0.000000
-23.842900 0.000000
-23.772500 0.000000
-23.702100 0.000000
-23.631700 0.000000
-23.561300 0.000000
-23.490900 0.000000
-23.420400 0.000000
-23.350000 0.000000
-23.279600 0.000000
-23.209200 0.000000
-23.138800 0.000000
-23.068400 0.000000
-22.998000 0.000000
-22.927600 0.000000
-22.857100 0.000000
-22.786700 0.000000
-22.716300 0.000000
-22.645900 0.000000
-22.575500 0.000000
-22.505100 0.000000
-22.434700 0.000000
-22.364300 0.000000
-22.293800 0.000000
-22.223400 0.000000
-22.153000 0.000000
-22.082600 0.000000
-22.012200 0.000000
-21.941800 0.000000
-21.871400 0.000000
-21.800900 1.046000
-21.730500 7.951400
-21.660100 13.622200
-21.589700 3.141100
-21.519300 7.003400
-21.448900 8.421200
-21.378500 17.175600
-21.308100 19.386400
-21.237600 7.119200
-21.167200 0.000000
-21.096800 0.000000
-21.026400 0.000000
-20.956000 0.000000
-20.885600 0.000000
-20.815200 0.000000
-20.744800 0.000000
-20.674300 0.000000
-20.603900 0.000000
-20.533500 0.000000
-20.463100 0.000000
-20.392700 0.000000
-20.322300 0.000000
-20.251900 0.000000
-20.181500 0.000000
-20.111000 0.000000
-20.040600 0.000000
-19.970200 0.000000
-19.899800 0.000000
-19.829400 0.000000
-19.759000 0.000000
-19.688600 0.000000
-19.618100 0.000000
-19.547700 0.000000
-19.477300 0.000000
-19.406900 0.000000
-19.336500 0.000000
-19.266100 0.000000
-19.195700 0.000000
-19.125300 0.000000
-19.054800 0.000000
-18.984400 0.000000
-18.914000 0.000000
-18.843600 0.000000
-18.773200 0.000000
-18.702800 0.000000
-18.632400 0.000000
-18.562000 0.000000
-18.491500 0.000000
-18.421100 0.000000
-18.350700 0.000000
-18.280300 0.000000
-18.209900 0.000000
-18.139500 0.000000
-18.069100 0.000000
-17.998700 0.000000
-17.928200 0.000000
-17.857800 0.000000
-17.787400 0.000000
-17.717000 0.000000
-17.646600 0.000000
-17.576200 0.000000
-17.505800 0.000000
-17.435300 0.000000
-17.364900 0.000000
-17.294500 0.000000
-17.224100 0.000000
-17.153700 0.000000
-17.083300 0.000000
-17.012900 0.000000
-16.942500 0.000000
-16.872000 0.000000
-16.801600 0.000000
-16.731200 0.000000
-16.660800 0.000000
-16.590400 0.000000
-16.520000 0.000000
-16.449600 0.000000
-16.379200 0.000000
-16.308700 0.000000
-16.238300 0.000000
-16.167900 0.000000
-16.097500 0.000000
-16.027100 0.000000
-15.956700 0.000000
-15.886300 0.000000
-15.815900 0.000000
-15.745400 0.000000
-15.675000 0.000000
-15.604600 0.000000
-15.534200 0.000000
-15.463800 0.000000
-15.393400 0.000000
-15.323000 0.000000
-15.252600 0.000000
-15.182100 0.000000
-15.111700 0.000000
-15.041300 0.000000
-14.970900 0.000000
-14.900500 0.000000
-14.830100 0.000000
-14.759700 0.000000
-14.689200 0.000000
-14.618800 0.000000
-14.548400 0.000000
-14.478000 0.000000
-14.407600 0.000000
-14.337200 0.000000
-14.266800 0.000000
-14.196400 0.000000
-14.125900 0.000000
-14.055500 0.000000
-13.985100 0.000000
-13.914700 0.000000
-13.844300 0.000000
-13.773900 0.000000
-13.703500 0.000000
-13.633100 0.000000
-13.562600 0.000000
-13.492200 0.000000
-13.421800 0.000000
-13.351400 0.000000
-13.281000 0.000000
-13.210600 0.000000
-13.140200 0.000000
-13.069800 0.000000
-12.999300 0.000000
-12.928900 0.000000
-12.858500 0.000000
-12.788100 0.000000
-12.717700 0.000000
-12.647300 0.000000
-12.576900 0.000000
-12.506400 0.000000
-12.436000 0.000000
-12.365600 0.000000
-12.295200 0.000000
-12.224800 0.000000
-12.154400 0.000000
-12.084000 0.000000
-12.013600 0.000000
-11.943100 0.000000
-11.872700 0.000000
-11.802300 0.000000
-11.731900 0.000000
-11.661500 0.000000
-11.591100 0.000000
-11.520700 0.000000
-11.450300 0.000000
-11.379800 0.000000
-11.309400 0.000000
-11.239000 0.000000
-11.168600 0.000000
-11.098200 0.000000
-11.027800 0.000000
-10.957400 0.000000
-10.887000 0.000000
-10.816500 0.000000
-10.746100 0.000000
-10.675700 0.000000
-10.605300 0.000000
-10.534900 0.000000
-10.464500 0.000000
-10.394100 0.000000
-10.323700 0.000000
-10.253200 0.000000
-10.182800 0.000000
-10.112400 0.000000
-10.042000 0.000000
-9.971600 0.000000
-9.901200 0.000000
-9.830800 0.000000
-9.760300 0.000000
-9.689900 0.000000
-9.619500 0.000000
-9.549100 0.000000
-9.478700 0.000000
-9.408300 0.000000
-9.337900 0.000000
-9.267500 0.000000
-9.197000 0.000000
-9.126600 0.000000
-9.056200 0.000000
-8.985800 0.000000
-8.915400 0.000000
-8.845000 0.000000
-8.774600 0.000000
-8.704200 0.000000
-8.633700 0.000000
-8.563300 0.000000
-8.492900 0.000000
-8.422500 0.000000
-8.352100 0.000000
-8.281700 0.000000
-8.211300 0.000000
-8.140900 0.000000
-8.070400 0.000000
-8.000000 0.000000
-7.929600 0.000000
-7.859200 0.000000
-7.788800 0.000000
-7.718400 0.000000
-7.648000 0.000000
-7.577500 0.000000
-7.507100 0.000000
-7.436700 0.000000
-7.366300 0.000000
-7.295900 0.000000
-7.225500 0.000000
-7.155100 0.000000
-7.084700 0.000000
-7.014200 0.000000
-6.943800 0.000000
-6.873400 0.000000
-6.803000 0.000000
-6.732600 0.000000
-6.662200 0.000000
-6.591800 0.000000
-6.521400 0.000000
-6.450900 0.000000
-6.380500 0.000000
-6.310100 0.000000
-6.239700 0.000000
-6.169300 0.000000
-6.098900 0.000000
-6.028500 0.000000
-5.958100 0.000000
-5.887600 0.000000
-5.817200 0.000000
-5.746800 0.000000
-5.676400 0.000000
-5.606000 0.000000
-5.535600 0.000000
-5.465200 0.000000
-5.394800 0.000000
-5.324300 0.000000
-5.253900 0.000000
-5.183500 0.000000
-5.113100 0.000000
-5.042700 0.000000
-4.972300 0.000000
-4.901900 0.000000
-4.831400 0.000000
-4.761000 0.000000
-4.690600 0.000000
-4.620200 0.000000
-4.549800 0.000000
-4.479400 0.000000
-4.409000 0.000000
-4.338600 0.000000
-4.268100 0.000000
-4.197700 0.000000
-4.127300 0.000000
-4.056900 0.000000
-3.986500 0.000000
-3.916100 0.000000
-3.845700 0.000000
-3.775300 0.000000
-3.704800 0.000000
-3.634400 0.000000
-3.564000 0.000000
-3.493600 0.000000
-3.423200 0.000000
-3.352800 0.000000
-3.282400 0.000000
-3.212000 0.000000
-3.141500 0.000000
-3.071100 0.000000
-3.000700 0.000000
-2.930300 0.000000
-2.859900 0.000000
-2.789500 0.000000
-2.719100 0.000000
-2.648600 0.000000
-2.578200 0.000000
-2.507800 0.000000
-2.437400 0.000100
-2.367000 0.015900
-2.296600 0.037600
-2.226200 0.045200
-2.155800 0.056300
-2.085300 0.067700
-2.014900 0.074000
-1.944500 0.079000
-1.874100 0.086500
-1.803700 0.094200
-1.733300 0.102100
-1.662900 0.108600
-1.592500 0.114400
-1.522000 0.120400
-1.451600 0.126500
-1.381200 0.133200
-1.310800 0.140400
-1.240400 0.147800
-1.170000 0.155000
-1.099600 0.160800
-1.029200 0.167600
-0.958700 0.174700
-0.888300 0.182000
-0.817900 0.189600
-0.747500 0.197700
-0.677100 0.206100
-0.606700 0.214800
-0.536300 0.223200
-0.465900 0.231900
-0.395400 0.241200
-0.325000 0.251400
-0.254600 0.262200
-0.184200 0.273500
-0.113800 0.285700
-0.043400 0.298700
0.027000 0.312500
0.097500 0.327000
0.167900 0.342900
0.238300 0.361200
0.308700 0.382600
0.379100 0.406900
0.449500 0.434800
0.519900 0.466700
0.590300 0.502200
0.660800 0.554600
0.731200 0.671600
0.801600 0.654200
0.872000 0.679900
0.942400 0.712600
1.012800 0.749600
1.083200 0.841100
1.153600 0.930800
1.224100 0.912500
1.294500 0.922300
1.364900 0.895500
1.435300 0.868900
1.505700 0.863400
1.576100 0.860900
1.646500 0.856100
1.716900 0.828000
1.787400 0.810400
1.857800 0.793300
1.928200 0.771000
1.998600 0.761400
2.069000 0.739700
2.139400 0.832500
2.209800 0.981600
2.280300 1.088500
2.350700 0.924400
2.421100 0.707100
2.491500 0.669600
2.561900 0.957100
2.632300 1.540200
2.702700 1.632200
2.773100 1.589200
2.843600 1.578700
2.914000 1.663500
2.984400 1.612100
3.054800 1.390700
3.125200 1.311200
3.195600 1.235700
3.266000 1.299700
3.336400 1.395600
3.406900 1.539000
3.477300 1.932200
3.547700 1.918200
3.618100 1.910300
3.688500 1.618700
3.758900 1.506400
3.829300 1.569900
3.899700 1.616900
3.970200 1.768000
4.040600 1.932400
4.111000 1.726400
4.181400 1.591000
4.251800 1.508100
4.322200 1.408000
4.392600 1.336200
4.463000 1.313600
4.533500 1.189800
4.603900 1.100600
4.674300 1.017400
4.744700 0.939300
4.815100 0.940100
4.885500 0.762000
4.955900 0.781800
5.026400 0.847300
5.096800 0.858900
5.167200 1.048300
5.237600 1.167000
5.308000 1.696800
5.378400 1.615000
5.448800 1.315400
5.519200 1.123100
5.589700 1.063400
5.660100 1.070700
5.730500 1.017400
5.800900 1.024500
5.871300 1.092500
5.941700 1.181000
6.012100 1.346200
6.082500 1.338400
6.153000 1.494000
6.223400 1.508800
6.293800 1.404600
6.364200 1.233000
6.434600 1.251400
6.505000 1.180900
6.575400 1.132000
6.645800 1.122800
6.716300 1.032600
6.786700 0.993200
6.857100 0.931400
6.927500 0.886000
6.997900 0.856900
7.068300 0.833700
7.138700 0.802500
7.209200 0.748400
7.279600 0.748200
7.350000 0.793300
7.420400 0.915400
7.490800 0.967800
7.561200 0.926000
7.631600 0.911800
7.702000 0.925200
7.772500 0.927800
7.842900 0.911000
7.913300 0.916300
7.983700 0.939200
8.054100 0.958000
8.124500 0.989100
8.194900 1.050200
8.265300 1.119100
8.335800 1.176800
8.406200 1.231900
8.476600 1.289400
8.547000 1.511500
8.617400 1.544200
8.687800 1.535000
8.758200 1.453100
8.828600 1.519800
8.899100 1.546200
8.969500 1.580700
9.039900 1.466700
9.110300 1.352700
9.180700 1.268000
9.251100 1.386500
9.321500 1.452200
9.391900 1.592300
9.462400 1.657100
9.532800 2.563100
9.603200 1.597400
9.673600 1.755200
9.744000 1.768100
9.814400 1.622200
9.884800 1.205000
9.955300 0.937000
10.025700 0.759500
10.096100 0.703600
10.166500 0.610000
10.236900 0.483500
10.307300 0.341100
10.377700 0.264200
10.448100 0.218700
10.518600 0.177400
10.589000 0.071900
10.659400 0.101300
10.729800 0.140600
10.800200 0.338300
10.870600 1.180200
10.941000 1.147300
11.011400 1.140600
11.081900 1.082400
11.152300 1.011800
11.222700 0.966500
11.293100 0.976700
11.363500 0.930100
11.433900 1.031600
11.504300 0.731300
11.574700 0.702800
11.645200 0.700500
11.715600 0.683000
11.786000 0.747100
11.856400 0.803100
11.926800 0.754400
11.997200 0.802700
12.067600 0.756200
12.138100 0.755100
12.208500 0.736800
12.278900 0.721600
12.349300 0.695800
12.419700 0.667600
12.490100 0.631900
12.560500 0.594700
12.630900 0.584100
12.701400 0.577100
12.771800 0.594100
12.842200 0.630400
12.912600 0.666500
12.983000 0.659400
13.053400 0.667100
13.123800 0.673300
13.194200 0.686000
13.264700 0.712500
13.335100 0.750200
13.405500 0.788400
13.475900 0.825300
13.546300 0.865600
13.616700 0.886700
13.687100 0.921500
13.757500 0.925500
13.828000 0.922000
13.898400 0.908600
13.968800 0.943100
14.039200 0.918800
14.109600 0.909100
14.180000 0.913100
14.250400 0.916500
14.320800 0.936900
14.391300 0.975100
14.461700 1.024800
14.532100 1.111900
14.602500 1.245900
14.672900 1.324500
14.743300 1.369600
14.813700 1.409500
14.884200 1.425400
14.954600 1.363000
15.025000 1.111100
15.095400 1.111300
15.165800 1.237100
15.236200 1.421700
15.306600 1.580100
15.377000 1.496000
15.447500 1.615500
15.517900 1.843200
15.588300 1.894700
15.658700 1.759500
15.729100 1.519300
15.799500 1.314900
15.869900 1.222500
15.940300 1.066900
16.010800 0.939300
16.081200 0.864300
16.151600 0.783600
16.222000 0.744500
16.292400 0.709500
16.362800 0.662300
16.433200 0.624400
16.503600 0.534400
16.574100 0.659600
16.644500 0.890200
16.714900 0.935900
16.785300 0.936100
16.855700 0.931200
16.926100 0.915800
16.996500 0.939800
17.067000 0.946000
17.137400 0.939700
17.207800 0.965300
17.278200 0.979700
17.348600 0.985000
17.419000 1.011800
17.489400 1.055600
17.559800 1.079200
17.630300 1.104800
17.700700 1.100200
17.771100 1.151000
17.841500 1.224800
17.911900 1.302700
17.982300 1.291100
18.052700 1.316800
18.123100 1.565600
18.193600 1.327500
18.264000 1.232200
18.334400 1.221000
18.404800 1.172100
18.475200 1.052600
18.545600 0.845500
18.616000 0.743100
18.686400 0.667700
18.756900 0.438600
18.827300 0.325300
18.897700 0.275500
18.968100 0.269300
19.038500 0.296900
19.108900 0.371100
19.179300 0.336900
19.249700 0.353300
19.320200 0.371900
19.390600 0.393500
19.461000 0.422800
19.531400 0.464600
19.601800 0.508000
19.672200 0.568600
19.742600 0.608000
19.813100 0.642200
19.883500 0.690000
19.953900 0.755800
20.024300 0.804200
20.094700 0.828300
20.165100 0.822400
20.235500 0.842200
20.305900 0.862600
20.376400 0.886400
20.446800 0.911100
20.517200 0.918200
20.587600 0.930200
20.658000 0.882800
20.728400 0.873700
20.798800 0.975800
20.869200 1.068400
20.939700 0.936400
21.010100 0.920000
21.080500 0.909500
21.150900 0.906800
21.221300 0.938300
21.291700 0.991900
21.362100 1.017700
21.432500 1.016800
21.503000 1.009900
21.573400 1.091100
21.643800 1.076900
21.714200 1.006900
21.784600 0.916400
21.855000 0.891500
21.925400 0.897600
21.995900 0.913900
22.066300 0.965600
22.136700 0.982600
22.207100 1.075600
22.277500 1.255900
22.347900 1.389000
22.418300 1.556200
22.488700 1.703300
22.559200 1.878000
22.629600 1.552700
22.700000 1.518800
22.770400 1.471400
22.840800 1.389500
22.911200 1.303000
22.981600 1.307000
23.052000 1.369300
23.122500 1.504000
23.192900 1.579400
23.263300 1.662100
23.333700 1.625300
23.404100 1.651900
23.474500 1.743400
23.544900 1.736500
23.615300 1.186500
23.685800 0.976200
23.756200 0.832000
23.826600 0.872800
23.897000 1.048500
23.967400 1.080600
24.037800 1.240700
24.108200 1.181100
24.178600 1.125600
24.249100 1.070200
24.319500 1.092500
24.389900 1.105500
24.460300 1.114200
24.530700 0.993200
24.601100 0.938400
24.671500 0.934700
24.742000 0.956300
24.812400 1.106800
24.882800 1.134900
24.953200 1.037800
25.023600 0.974900
25.094000 0.945700
25.164400 0.932300
25.234800 0.879200
25.305300 0.853300
25.375700 0.873400
25.446100 0.918300
25.516500 1.115500
25.586900 1.377200
25.657300 1.532900
25.727700 1.435800
25.798100 1.444500
25.868600 1.363200
25.939000 1.222800
26.009400 1.103700
26.079800 1.019400
26.150200 0.940400
26.220600 0.872800
26.291000 0.834100
26.361400 0.816100
26.431900 0.811000
26.502300 0.806900
26.572700 0.863000
26.643100 0.962800
26.713500 0.963200
26.783900 1.060500
26.854300 1.177800
26.924800 1.322600
26.995200 1.289800
27.065600 1.239500
27.136000 1.225900
27.206400 1.212400
27.276800 1.201600
27.347200 1.250100
27.417600 1.319300
27.488100 1.398300
27.558500 1.499200
27.628900 1.563500
27.699300 1.510500
27.769700 1.376100
27.840100 1.298500
27.910500 1.178600
27.980900 1.068400
28.051400 1.045800
28.121800 1.066400
28.192200 1.207900
28.262600 1.311000
28.333000 1.434900
28.403400 1.456800
28.473800 1.484600
28.544200 1.514400
28.614700 1.438000
28.685100 1.414700
28.755500 1.372100
28.825900 1.243500
28.896300 1.216500
28.966700 1.234000
29.037100 1.321000
29.107500 1.484200
29.178000 1.656000
29.248400 1.713300
29.318800 1.616000
29.389200 1.494100
29.459600 1.433100
29.530000 1.264000
29.600400 1.057200
29.670900 0.966800
29.741300 0.693700
29.811700 0.695600
29.882100 0.736000
29.952500 0.737600
30.022900 0.694200
30.093300 0.822500
30.163700 0.937200
30.234200 1.209500
30.304600 1.303200
30.375000 1.391000
30.445400 1.520400
30.515800 1.642900
30.586200 1.710900
30.656600 1.692600
30.727000 1.651000
30.797500 1.564800
30.867900 1.764300
30.938300 1.557100
31.008700 1.392200
31.079100 1.141100
31.149500 0.927700
31.219900 0.774900
31.290300 0.765000
31.360800 0.817800
31.431200 0.782400
31.501600 0.827400
31.572000 0.898500
31.642400 1.018700
31.712800 1.165100
31.783200 1.335900
31.853700 1.457100
31.924100 1.485200
31.994500 1.545500
32.064900 1.614400
32.135300 1.630800
32.205700 1.626500
32.276100 1.541400
32.346500 1.557100
32.417000 1.555300
32.487400 1.546700
32.557800 1.517100
32.628200 1.440500
32.698600 1.350200
32.769000 1.291400
32.839400 1.256100
32.909800 1.166500
32.980300 1.074000
33.050700 1.019700
33.121100 1.011500
33.191500 0.899600
33.261900 0.849500
33.332300 0.819100
33.402700 0.811800
33.473100 0.823400
33.543600 0.981300
33.614000 1.166400
33.684400 1.355700
33.754800 1.555900
33.825200 1.585300
33.895600 1.711700
33.966000 1.835800
34.036400 1.607600
34.106900 1.544900
34.177300 1.488000
34.247700 1.398300
34.318100 1.322600
34.388500 1.328600
34.458900 1.389600
34.529300 1.619700
34.599800 1.601800
34.670200 1.626600
34.740600 1.660800
34.811000 1.732200
34.881400 1.798700
34.951800 1.861300
35.022200 1.932800
35.092600 1.989900
35.163100 2.049100
35.233500 2.118000
35.303900 2.226800
35.374300 2.458000
35.444700 2.886300
35.515100 3.449700
35.585500 7.876700
35.655900 3.689800
35.726400 2.380100
35.796800 2.221700
35.867200 1.962600
35.937600 1.978600
36.008000 1.725500
36.078400 1.560000
36.148800 1.375200
36.219200 1.276200
36.289700 1.236100
36.360100 1.414900
36.430500 1.553800
36.500900 1.632400
36.571300 1.644600
36.641700 1.541000
36.712100 1.511000
36.782600 1.500000
36.853000 1.581100
36.923400 1.586700
36.993800 1.457900
37.064200 1.416100
37.134600 1.195000
37.205000 1.247800
37.275400 1.340300
37.345900 1.427800
37.416300 1.593700
37.486700 1.652600
37.557100 1.671900
37.627500 1.643100
37.697900 1.597500
37.768300 1.499500
37.838700 1.424800
37.909200 1.325700
37.979600 1.246900
38.050000 1.192100
38.120400 1.178800
38.190800 1.173900
38.261200 1.160100
38.331600 1.167200
38.402000 1.184300
38.472500 1.207600
38.542900 1.238500
38.613300 1.247700
38.683700 1.275800
38.754100 1.319900
38.824500 1.339300
38.894900 1.342600
38.965300 1.326200
39.035800 1.313600
39.106200 1.313300
39.176600 1.354900
39.247000 1.373200
39.317400 1.421200
39.387800 1.444000
39.458200 1.451200
39.528700 1.494200
39.599100 1.546900
39.669500 1.423300
39.739900 1.353600
39.810300 1.392900
39.880700 1.381800
39.951100 1.369200
40.021500 1.379500
40.092000 1.450400
40.162400 1.467900
40.232800 1.510100
40.303200 1.573900
40.373600 1.675200
40.444000 1.617200
40.514400 1.599200
40.584800 1.590800
40.655300 1.559600
40.725700 1.513800
40.796100 1.456700
40.866500 1.418500
40.936900 1.395400
41.007300 1.391600
41.077700 1.437000
41.148100 1.385500
41.218600 1.357800
41.289000 1.310800
41.359400 1.318200
41.429800 1.382400
41.500200 1.439000
41.570600 1.474400
41.641000 1.447800
41.711500 1.445300
41.781900 1.315000
41.852300 1.252600
41.922700 1.255900
41.993100 1.327500
42.063500 1.357400
42.133900 1.312500
42.204300 1.273600
42.274800 1.278000
42.345200 1.289000
42.415600 1.346600
42.486000 1.426900
42.556400 1.489400
42.626800 1.655700
42.697200 1.743800
42.767600 1.834800
42.838100 1.864900
42.908500 1.814800
42.978900 1.746600
43.049300 1.621400
43.119700 1.526900
43.190100 1.454800
43.260500 1.445900
43.330900 1.552600
43.401400 1.386000
43.471800 1.339400
43.542200 1.306900
43.612600 1.283800
43.683000 1.260000
43.753400 1.242200
43.823800 1.257100
43.894300 1.288400
43.964700 1.339100
44.035100 1.405000
44.105500 1.478100
44.175900 1.486600
44.246300 1.528700
44.316700 1.631700
