set title 'mp-1228947 - Density of States'
set xlabel 'Energy (eV)'
set ylabel 'DOS (states/eV)'
set grid
set xrange [-10:10]
set yrange [0:28.854]
set xzeroaxis lt -1
set terminal png size 800,600
set output 'mp-1228947_dos_gnuplot.png'
plot '-' using 1:2 with lines title 'DOS'
-6.847600 0.000000
-6.830200 0.000000
-6.812800 0.000000
-6.795500 0.000000
-6.778100 0.000000
-6.760700 0.000000
-6.743400 0.000000
-6.726000 0.000000
-6.708600 0.000000
-6.691200 0.000000
-6.673900 0.000000
-6.656500 0.000000
-6.639100 0.000000
-6.621800 0.000000
-6.604400 0.000000
-6.587000 0.000000
-6.569600 0.000000
-6.552300 0.000000
-6.534900 0.000000
-6.517500 0.000000
-6.500100 0.000000
-6.482800 0.000000
-6.465400 0.000000
-6.448000 0.000000
-6.430700 0.000000
-6.413300 0.000000
-6.395900 0.000000
-6.378500 0.000000
-6.361200 0.000000
-6.343800 0.000000
-6.326400 0.000000
-6.309100 0.000000
-6.291700 0.000000
-6.274300 0.000000
-6.256900 0.000000
-6.239600 0.000000
-6.222200 0.000000
-6.204800 0.000000
-6.187500 0.000000
-6.170100 0.000000
-6.152700 0.000000
-6.135300 0.000000
-6.118000 0.000000
-6.100600 0.000000
-6.083200 0.000000
-6.065900 0.000000
-6.048500 0.000000
-6.031100 0.000000
-6.013700 0.000000
-5.996400 0.000000
-5.979000 0.000000
-5.961600 0.000000
-5.944200 0.000000
-5.926900 0.000000
-5.909500 0.000000
-5.892100 0.000000
-5.874800 0.000000
-5.857400 0.000000
-5.840000 0.000000
-5.822600 0.000000
-5.805300 0.000000
-5.787900 0.000000
-5.770500 0.000000
-5.753200 0.000000
-5.735800 0.000000
-5.718400 0.000000
-5.701000 0.000000
-5.683700 0.000000
-5.666300 0.000000
-5.648900 0.000000
-5.631600 0.000000
-5.614200 0.000000
-5.596800 0.000000
-5.579400 0.000000
-5.562100 0.000000
-5.544700 0.000000
-5.527300 0.000000
-5.509900 0.000000
-5.492600 0.000000
-5.475200 0.000000
-5.457800 0.000000
-5.440500 0.000000
-5.423100 0.000000
-5.405700 0.000000
-5.388300 0.000000
-5.371000 0.000000
-5.353600 0.000000
-5.336200 0.000000
-5.318900 0.000000
-5.301500 0.000000
-5.284100 0.000000
-5.266700 0.000700
-5.249400 0.041500
-5.232000 0.095700
-5.214600 0.150000
-5.197300 0.204300
-5.179900 0.258500
-5.162500 0.312800
-5.145100 0.367100
-5.127800 0.421300
-5.110400 0.475600
-5.093000 0.529900
-5.075600 0.287800
-5.058300 0.292700
-5.040900 0.297700
-5.023500 0.302600
-5.006200 0.307600
-4.988800 0.312500
-4.971400 0.317500
-4.954000 0.322400
-4.936700 0.327400
-4.919300 0.332300
-4.901900 0.337200
-4.884600 0.342200
-4.867200 0.347100
-4.849800 0.352100
-4.832400 0.357000
-4.815100 0.362000
-4.797700 0.366900
-4.780300 0.371900
-4.763000 0.376800
-4.745600 0.381800
-4.728200 0.382100
-4.710800 0.377600
-4.693500 0.373200
-4.676100 0.368800
-4.658700 0.364300
-4.641400 0.359900
-4.624000 0.355500
-4.606600 0.351000
-4.589200 0.346600
-4.571900 0.342100
-4.554500 0.343000
-4.537100 0.345200
-4.519700 0.347400
-4.502400 0.349600
-4.485000 0.351800
-4.467600 0.354100
-4.450300 0.356300
-4.432900 0.358500
-4.415500 0.360700
-4.398100 0.362900
-4.380800 0.365100
-4.363400 0.367300
-4.346000 0.369600
-4.328700 0.371800
-4.311300 0.374000
-4.293900 0.376200
-4.276500 0.378400
-4.259200 0.380600
-4.241800 0.382800
-4.224400 0.385100
-4.207100 0.387300
-4.189700 0.389500
-4.172300 0.391700
-4.154900 0.393900
-4.137600 0.396100
-4.120200 0.398300
-4.102800 0.400600
-4.085400 0.402800
-4.068100 0.387900
-4.050700 0.389100
-4.033300 0.390300
-4.016000 0.391500
-3.998600 0.392600
-3.981200 0.393800
-3.963800 0.395000
-3.946500 0.396200
-3.929100 0.397400
-3.911700 0.398600
-3.894400 0.399800
-3.877000 0.401000
-3.859600 0.402200
-3.842200 0.403400
-3.824900 0.404600
-3.807500 0.405800
-3.790100 0.406900
-3.772800 0.408600
-3.755400 0.410800
-3.738000 0.412900
-3.720600 0.415000
-3.703300 0.417200
-3.685900 0.419300
-3.668500 0.421400
-3.651100 0.423600
-3.633800 0.425700
-3.616400 0.427900
-3.599000 0.430000
-3.581700 0.432100
-3.564300 0.434300
-3.546900 0.436400
-3.529500 0.438500
-3.512200 0.440700
-3.494800 0.442800
-3.477400 0.445000
-3.460100 0.447100
-3.442700 0.449200
-3.425300 0.451400
-3.407900 0.453500
-3.390600 0.455600
-3.373200 0.457800
-3.355800 0.459900
-3.338500 0.463300
-3.321100 0.468400
-3.303700 0.473600
-3.286300 0.478700
-3.269000 0.483900
-3.251600 0.489000
-3.234200 0.494200
-3.216800 0.499200
-3.199500 0.504300
-3.182100 0.509300
-3.164700 0.514300
-3.147400 0.519300
-3.130000 0.526800
-3.112600 0.538900
-3.095200 0.554300
-3.077900 0.571500
-3.060500 0.590600
-3.043100 0.611400
-3.025800 0.633800
-3.008400 0.657300
-2.991000 0.682100
-2.973600 0.708100
-2.956300 0.735400
-2.938900 0.763800
-2.921500 0.784800
-2.904200 0.778600
-2.886800 0.789700
-2.869400 0.801200
-2.852000 0.814600
-2.834700 0.829200
-2.817300 0.844000
-2.799900 0.858900
-2.782600 0.874500
-2.765200 0.890900
-2.747800 0.907600
-2.730400 0.924200
-2.713100 0.940200
-2.695700 0.955500
-2.678300 0.970400
-2.660900 0.984800
-2.643600 0.999700
-2.626200 1.015300
-2.608800 1.031600
-2.591500 1.048600
-2.574100 1.059000
-2.556700 1.060700
-2.539300 1.159900
-2.522000 1.216700
-2.504600 1.274400
-2.487200 1.332800
-2.469900 1.401200
-2.452500 1.485000
-2.435100 1.564100
-2.417700 1.644700
-2.400400 1.727400
-2.383000 1.810700
-2.365600 2.007100
-2.348300 2.229900
-2.330900 2.437900
-2.313500 2.357700
-2.296100 2.238600
-2.278800 2.121000
-2.261400 2.005000
-2.244000 1.890500
-2.226600 1.778200
-2.209300 1.669800
-2.191900 1.624500
-2.174500 1.678000
-2.157200 1.732700
-2.139800 1.786400
-2.122400 1.839000
-2.105000 1.890100
-2.087700 1.937400
-2.070300 2.348500
-2.052900 3.145300
-2.035600 3.193500
-2.018200 3.396700
-2.000800 4.626600
-1.983400 5.717700
-1.966100 6.060700
-1.948700 6.412700
-1.931300 6.900900
-1.914000 7.464800
-1.896600 8.108700
-1.879200 8.833400
-1.861800 9.555900
-1.844500 9.911700
-1.827100 10.173800
-1.809700 10.390400
-1.792300 10.591300
-1.775000 11.005600
-1.757600 10.910300
-1.740200 11.201600
-1.722900 11.482000
-1.705500 12.190100
-1.688100 13.249800
-1.670700 14.269300
-1.653400 16.211400
-1.636000 16.882600
-1.618600 17.326600
-1.601300 17.292100
-1.583900 16.318500
-1.566500 15.637200
-1.549100 15.351400
-1.531800 15.057400
-1.514400 14.795000
-1.497000 14.414800
-1.479700 13.686400
-1.462300 14.310600
-1.444900 13.370600
-1.427500 12.705700
-1.410200 12.763500
-1.392800 12.590800
-1.375400 14.046500
-1.358000 12.785400
-1.340700 12.477500
-1.323300 13.794500
-1.305900 11.514100
-1.288600 10.731500
-1.271200 9.513800
-1.253800 10.717400
-1.236400 10.671600
-1.219100 12.487400
-1.201700 11.288700
-1.184300 12.343900
-1.167000 12.645700
-1.149600 13.269200
-1.132200 11.929000
-1.114800 10.664800
-1.097500 8.052500
-1.080100 5.757500
-1.062700 6.484200
-1.045400 9.740800
-1.028000 11.529600
-1.010600 11.841500
-0.993200 13.609600
-0.975900 15.631700
-0.958500 14.394600
-0.941100 13.679300
-0.923800 13.798300
-0.906400 13.524700
-0.889000 13.868400
-0.871600 12.280800
-0.854300 12.017400
-0.836900 11.952000
-0.819500 13.554400
-0.802100 14.575600
-0.784800 13.111700
-0.767400 13.683600
-0.750000 15.093900
-0.732700 18.239800
-0.715300 17.404700
-0.697900 20.002800
-0.680500 18.166200
-0.663200 16.906800
-0.645800 19.522900
-0.628400 17.032000
-0.611100 16.179000
-0.593700 15.051600
-0.576300 14.687000
-0.558900 14.083500
-0.541600 12.113500
-0.524200 11.456200
-0.506800 11.643300
-0.489500 14.005300
-0.472100 19.117500
-0.454700 19.466800
-0.437300 20.873200
-0.420000 24.332500
-0.402600 20.868400
-0.385200 24.819600
-0.367800 18.566500
-0.350500 16.835000
-0.333100 15.790900
-0.315700 14.851000
-0.298400 16.275000
-0.281000 15.008900
-0.263600 13.153000
-0.246200 12.091600
-0.228900 11.455000
-0.211500 11.757000
-0.194100 11.050400
-0.176800 9.455300
-0.159400 8.448300
-0.142000 7.709400
-0.124600 8.214100
-0.107300 9.032500
-0.089900 10.534000
-0.072500 13.040100
-0.055200 13.198600
-0.037800 13.227500
-0.020400 13.360500
-0.003000 13.837300
0.014300 15.856800
0.031700 14.017100
0.049100 26.230700
0.066500 17.845600
0.083800 14.734300
0.101200 13.973200
0.118600 13.558900
0.135900 12.269800
0.153300 15.937900
0.170700 12.623800
0.188100 11.423100
0.205400 11.022500
0.222800 12.251300
0.240200 13.582800
0.257500 14.963500
0.274900 14.780600
0.292300 12.280800
0.309700 12.142000
0.327000 12.555900
0.344400 10.671300
0.361800 9.854100
0.379100 9.699600
0.396500 9.842400
0.413900 9.939600
0.431300 9.940900
0.448600 10.659900
0.466000 11.659900
0.483400 13.298900
0.500700 15.023000
0.518100 11.840000
0.535500 11.891000
0.552900 12.263500
0.570200 12.366100
0.587600 12.313600
0.605000 12.230100
0.622400 12.076600
0.639700 11.835100
0.657100 11.425100
0.674500 10.926900
0.691800 10.662000
0.709200 10.439000
0.726600 10.319500
0.744000 10.829900
0.761300 9.944300
0.778700 18.711600
0.796100 7.801800
0.813400 10.968200
0.830800 12.417600
0.848200 13.760400
0.865600 17.761000
0.882900 11.154600
0.900300 9.121300
0.917700 11.716900
0.935000 9.369900
0.952400 6.494200
0.969800 8.990100
0.987200 6.928300
1.004500 7.052600
1.021900 7.201000
1.039300 7.368300
1.056700 8.699500
1.074000 12.188100
1.091400 20.880500
1.108800 5.460900
1.126100 5.201000
1.143500 5.070200
1.160900 4.940000
1.178300 3.773000
1.195600 3.622800
1.213000 3.474000
1.230400 2.547400
1.247700 2.551400
1.265100 2.412900
1.282500 2.294400
1.299900 2.162200
1.317200 2.073900
1.334600 1.990700
1.352000 1.905800
1.369300 1.809600
1.386700 1.764700
1.404100 1.740800
1.421500 1.727700
1.438800 1.719900
1.456200 1.717000
1.473600 1.715600
1.491000 1.714700
1.508300 1.717000
1.525700 1.720400
1.543100 1.725300
1.560400 1.731200
1.577800 1.731800
1.595200 1.733900
1.612600 1.731600
1.629900 1.724000
1.647300 1.713500
1.664700 1.703600
1.682000 1.694500
1.699400 1.686100
1.716800 1.678500
1.734200 1.671700
1.751500 1.665100
1.768900 1.658200
1.786300 1.651100
1.803600 1.643800
1.821000 1.636600
1.838400 1.630500
1.855800 1.624500
1.873100 1.618500
1.890500 1.612700
1.907900 1.603300
1.925300 1.596600
1.942600 1.590500
1.960000 1.568400
1.977400 1.541200
1.994700 1.514100
2.012100 1.848600
2.029500 2.098400
2.046900 1.994400
2.064200 1.890600
2.081600 1.786900
2.099000 1.683400
2.116300 1.580000
2.133700 1.476800
2.151100 1.394900
2.168500 1.343900
2.185800 1.307800
2.203200 1.282500
2.220600 1.265500
2.237900 1.257200
2.255300 1.256800
2.272700 1.256900
2.290100 1.258500
2.307400 1.266500
2.324800 1.300600
2.342200 1.363600
2.359500 1.426000
2.376900 1.488000
2.394300 1.549500
2.411700 1.609700
2.429000 1.669000
2.446400 1.728400
2.463800 1.788200
2.481200 1.848300
2.498500 1.908500
2.515900 1.965100
2.533300 1.987400
2.550600 1.966100
2.568000 1.933800
2.585400 1.878400
2.602800 1.829100
2.620100 1.796600
2.637500 1.767400
2.654900 1.737500
2.672200 1.707600
2.689600 1.674000
2.707000 1.638500
2.724400 1.596600
2.741700 1.528400
2.759100 1.443100
2.776500 1.404900
2.793800 1.390500
2.811200 1.380000
2.828600 1.370200
2.846000 1.360300
2.863300 1.351400
2.880700 1.343000
2.898100 1.334900
2.915500 1.326900
2.932800 1.319200
2.950200 1.311600
2.967600 3.963100
2.984900 1.201800
3.002300 1.198000
3.019700 1.194200
3.037100 1.190700
3.054400 1.187200
3.071800 1.184000
3.089200 1.181100
3.106500 1.178500
3.123900 1.176300
3.141300 1.174700
3.158700 1.173200
3.176000 1.171800
3.193400 1.170500
3.210800 1.169300
3.228100 1.168200
3.245500 1.167300
3.262900 1.166600
3.280300 1.166200
3.297600 1.166000
3.315000 3.747800
3.332400 1.874500
3.349800 2.520800
3.367100 2.365300
3.384500 1.406900
3.401900 1.373400
3.419200 1.375300
3.436600 1.378200
3.454000 1.384900
3.471400 1.394400
3.488700 1.407400
3.506100 1.427000
3.523500 1.445500
3.540800 1.459700
3.558200 1.467000
3.575600 1.470700
3.593000 1.471100
3.610300 1.468600
3.627700 1.462800
3.645100 1.456000
3.662400 1.449800
3.679800 1.443800
3.697200 1.438600
3.714600 1.435600
3.731900 1.432700
3.749300 1.429700
3.766700 1.426700
3.784100 1.423700
3.801400 1.421400
3.818800 1.417900
3.836200 1.412100
3.853500 1.406400
3.870900 1.401400
3.888300 1.405600
3.905700 1.427900
3.923000 1.470200
3.940400 1.530200
3.957800 1.616900
3.975100 1.580200
3.992500 1.488700
4.009900 1.463900
4.027300 1.467400
4.044600 1.473900
4.062000 1.481000
4.079400 1.488600
4.096700 1.496700
4.114100 1.505800
4.131500 1.516300
4.148900 1.576800
4.166200 1.629800
4.183600 1.645300
4.201000 1.630100
4.218300 1.601100
4.235700 1.562300
4.253100 1.529900
4.270500 1.524700
4.287800 1.528800
4.305200 1.544200
4.322600 1.571500
4.340000 1.648200
4.357300 1.698700
4.374700 1.802700
4.392100 1.948100
4.409400 1.677300
4.426800 1.463800
4.444200 1.398100
4.461600 1.359800
4.478900 1.331100
4.496300 1.313000
4.513700 1.307500
4.531000 1.306400
4.548400 1.307900
4.565800 1.311900
4.583200 1.318400
4.600500 1.327400
4.617900 1.336200
4.635300 1.341800
4.652600 1.346400
4.670000 1.350000
4.687400 1.354500
4.704800 1.371800
4.722100 1.395200
4.739500 1.424100
4.756900 1.458600
4.774300 1.498700
4.791600 1.545000
4.809000 1.598000
4.826400 1.650200
4.843700 1.699000
4.861100 1.744100
4.878500 1.779600
4.895900 1.371100
4.913200 1.390400
4.930600 1.410800
4.948000 1.427400
4.965300 1.439600
4.982700 1.445600
5.000100 1.438500
5.017500 1.454600
5.034800 1.466000
5.052200 1.461600
5.069600 1.437800
5.086900 1.387800
5.104300 1.311400
5.121700 1.245200
5.139100 1.204800
5.156400 1.182700
5.173800 1.167300
5.191200 1.159600
5.208600 1.153500
5.225900 1.152700
5.243300 1.156000
5.260700 1.161700
5.278000 1.170400
5.295400 1.182200
5.312800 1.200600
5.330200 1.232600
5.347500 1.264900
5.364900 1.293100
5.382300 1.317100
5.399600 1.338700
5.417000 1.367100
5.434400 1.400200
5.451800 1.445900
5.469100 1.511000
5.486500 1.580100
5.503900 1.652700
5.521200 1.713100
5.538600 1.779600
5.556000 1.855600
5.573400 1.885700
5.590700 1.885300
5.608100 1.861800
5.625500 1.806400
5.642800 1.750400
5.660200 1.702100
5.677600 1.666100
5.695000 1.635700
5.712300 1.605900
5.729700 1.578400
5.747100 1.567000
5.764500 1.561100
5.781800 1.554400
5.799200 1.545700
5.816600 1.534700
5.833900 1.523100
5.851300 1.513400
5.868700 1.505100
5.886100 1.497400
5.903400 1.489700
5.920800 1.478000
5.938200 1.469600
5.955500 1.464300
5.972900 1.457000
5.990300 1.446800
6.007700 1.430900
6.025000 1.414500
6.042400 1.391200
6.059800 1.366500
6.077100 2.319300
6.094500 1.227700
6.111900 1.200400
6.129300 1.172800
6.146600 1.144000
6.164000 1.113800
6.181400 1.081500
6.198800 1.044200
6.216100 0.994600
6.233500 0.964900
6.250900 0.976300
6.268200 0.984700
6.285600 0.990100
6.303000 0.991800
6.320400 0.988500
6.337700 0.987200
6.355100 0.987900
6.372500 1.010000
6.389800 1.048500
6.407200 1.086200
6.424600 1.113400
6.442000 1.131200
6.459300 1.139900
6.476700 1.141900
6.494100 1.143400
6.511400 1.147400
6.528800 1.161200
6.546200 1.175500
6.563600 1.189500
6.580900 1.189100
6.598300 1.191300
6.615700 1.195800
6.633100 1.199500
6.650400 1.199700
6.667800 1.194600
6.685200 1.183600
6.702500 1.165500
6.719900 1.151100
6.737300 1.157500
6.754700 1.189700
6.772000 1.251700
6.789400 1.335600
6.806800 1.413900
6.824100 1.480700
6.841500 1.562600
6.858900 1.666600
6.876300 1.812000
6.893600 2.001400
6.911000 2.135700
6.928400 2.158300
6.945700 2.026900
6.963100 1.933000
6.980500 1.846800
6.997900 1.730000
7.015200 1.689900
7.032600 1.638900
7.050000 1.554500
7.067400 1.486300
7.084700 1.446400
7.102100 1.397400
7.119500 1.351200
7.136800 1.424400
7.154200 1.452400
7.171600 1.483700
7.189000 1.534900
7.206300 1.610800
7.223700 1.811900
7.241100 1.785000
7.258400 1.757600
7.275800 1.733600
7.293200 1.715100
7.310600 1.723800
7.327900 1.759500
7.345300 1.828600
7.362700 1.861600
7.380000 1.804800
7.397400 1.751200
7.414800 1.711400
7.432200 1.674100
7.449500 1.638200
7.466900 1.603700
7.484300 1.577600
7.501600 1.562000
7.519000 1.531700
7.536400 1.491100
7.553800 1.448300
7.571100 1.412400
7.588500 1.392400
7.605900 1.374400
7.623300 1.368900
7.640600 1.373500
7.658000 1.388900
7.675400 1.400300
7.692700 1.386700
7.710100 1.387400
7.727500 1.383600
7.744900 1.377800
7.762200 1.371600
7.779600 1.367400
7.797000 1.369400
7.814300 1.378300
7.831700 1.388300
7.849100 1.398000
7.866500 1.414000
7.883800 1.436700
7.901200 1.462900
7.918600 1.491500
7.935900 1.521600
7.953300 1.550900
7.970700 1.558500
7.988100 1.543300
8.005400 1.520700
8.022800 1.502700
8.040200 1.515700
8.057600 1.571000
8.074900 1.599700
8.092300 1.606700
8.109700 1.625800
8.127000 1.650800
8.144400 1.676900
8.161800 1.689400
8.179200 1.703400
8.196500 1.720500
8.213900 1.742600
8.231300 1.766700
8.248600 1.781600
8.266000 1.794600
8.283400 1.805900
8.300800 1.815400
8.318100 1.823100
8.335500 1.829100
8.352900 1.833000
8.370200 1.834700
8.387600 1.833100
8.405000 1.826400
8.422400 1.802300
8.439700 1.774000
8.457100 1.745300
8.474500 1.719800
8.491900 1.706200
8.509200 1.696700
8.526600 1.754400
8.544000 1.792600
8.561300 1.807600
8.578700 1.800700
8.596100 1.799900
8.613500 1.795500
8.630800 1.769000
8.648200 1.740100
8.665600 1.709700
8.682900 1.677300
8.700300 1.667400
8.717700 1.676800
8.735100 1.698200
8.752400 1.730000
8.769800 1.767200
8.787200 1.801100
8.804500 1.827700
8.821900 1.845500
8.839300 1.857500
8.856700 1.877900
8.874000 1.922600
8.891400 1.988300
8.908800 2.049100
8.926200 2.045200
8.943500 1.921500
8.960900 1.927500
8.978300 1.943700
8.995600 1.969200
9.013000 1.999000
9.030400 2.026400
9.047800 2.039800
9.065100 2.061700
9.082500 2.097000
9.099900 2.151200
9.117200 2.170400
9.134600 2.125400
9.152000 2.144900
9.169400 2.175700
9.186700 2.210000
9.204100 2.293600
9.221500 2.408000
9.238800 2.494100
9.256200 2.550300
9.273600 2.551900
9.291000 2.507000
9.308300 2.444000
9.325700 2.430700
9.343100 2.405500
9.360400 2.452300
9.377800 2.404200
9.395200 2.409000
9.412600 2.431800
9.429900 2.446800
9.447300 2.448200
9.464700 2.443000
9.482100 2.434900
9.499400 2.419200
9.516800 2.422500
9.534200 2.417800
9.551500 2.399900
9.568900 2.373300
9.586300 2.348500
9.603700 2.332300
9.621000 2.325900
9.638400 2.307600
9.655800 2.286200
9.673100 2.261200
9.690500 2.229900
9.707900 2.197800
9.725300 2.164300
9.742600 2.129200
9.760000 2.093500
9.777400 2.057200
9.794700 1.977400
9.812100 1.898800
9.829500 1.855800
9.846900 1.822700
9.864200 1.793600
9.881600 1.768000
9.899000 1.745000
9.916400 1.730800
9.933700 1.728300
9.951100 1.740400
9.968500 1.762900
9.985800 1.786600
10.003200 1.810500
10.020600 1.832200
10.038000 1.850000
10.055300 1.864500
10.072700 1.880500
10.090100 1.893600
10.107400 1.902400
10.124800 1.907200
10.142200 1.907900
10.159600 1.904400
10.176900 1.899100
10.194300 1.894100
10.211700 1.890200
10.229000 1.888000
10.246400 1.886000
10.263800 1.871000
10.281200 1.848900
10.298500 1.825000
10.315900 1.798700
10.333300 1.769600
10.350700 1.737400
10.368000 1.702300
10.385400 1.675200
10.402800 1.654900
10.420100 1.637200
10.437500 1.612400
10.454900 1.587700
10.472300 1.575700
10.489600 1.569400
10.507000 1.567200
10.524400 1.586500
10.541700 1.654300
10.559100 1.722400
10.576500 1.752400
10.593900 1.714800
10.611200 1.712900
10.628600 1.732300
10.646000 1.751600
10.663300 1.770900
10.680700 1.790900
10.698100 1.811500
10.715500 1.833500
10.732800 1.865200
10.750200 1.887600
10.767600 1.928600
10.784900 1.987400
10.802300 2.031700
10.819700 2.070900
10.837100 2.104500
10.854400 2.120600
10.871800 2.166900
10.889200 2.215900
10.906600 2.258600
10.923900 2.290300
10.941300 2.304400
10.958700 2.310800
10.976000 2.317000
10.993400 2.318900
11.010800 2.324200
11.028200 2.329900
11.045500 2.357300
11.062900 2.394800
11.080300 2.419100
11.097600 2.433900
11.115000 2.425300
11.132400 2.417900
11.149800 2.413300
11.167100 2.415600
11.184500 2.402900
11.201900 2.388100
11.219200 2.372200
11.236600 2.356000
11.254000 2.341100
11.271400 2.325900
11.288700 2.311400
11.306100 2.282900
11.323500 2.249100
11.340900 2.222700
11.358200 2.201300
11.375600 2.186800
11.393000 2.179900
11.410300 2.182100
11.427700 2.186400
11.445100 2.192500
11.462500 2.210000
11.479800 2.248500
11.497200 2.275700
11.514600 2.293000
11.531900 2.372200
11.549300 2.382200
