set title 'mp-1066989 - Density of States'
set xlabel 'Energy (eV)'
set ylabel 'DOS (states/eV)'
set grid
set xrange [-10:10]
set yrange [0:0.911]
set xzeroaxis lt -1
set terminal png size 800,600
set output 'mp-1066989_dos_gnuplot.png'
plot '-' using 1:2 with lines title 'DOS'
-21.070000 0.000000
-20.963000 0.000000
-20.856000 0.000000
-20.749000 0.000000
-20.642000 0.000000
-20.535000 0.000000
-20.428000 0.000000
-20.321000 0.000000
-20.214000 0.000000
-20.107000 0.000000
-20.000000 0.000000
-19.893100 0.000000
-19.786100 0.000000
-19.679100 0.000000
-19.572100 0.000000
-19.465100 0.000000
-19.358100 0.000000
-19.251100 0.000000
-19.144100 0.000000
-19.037100 0.000000
-18.930100 0.000000
-18.823100 0.000000
-18.716100 0.000000
-18.609100 0.000000
-18.502100 0.000000
-18.395100 0.000000
-18.288100 0.000000
-18.181100 0.000000
-18.074100 0.000000
-17.967100 0.000000
-17.860100 0.000000
-17.753200 0.000000
-17.646200 0.000000
-17.539200 0.000000
-17.432200 0.000000
-17.325200 0.000000
-17.218200 0.000000
-17.111200 0.000000
-17.004200 0.000000
-16.897200 0.000000
-16.790200 0.000000
-16.683200 0.000000
-16.576200 0.000000
-16.469200 0.000000
-16.362200 0.000000
-16.255200 0.000000
-16.148200 0.000000
-16.041200 0.000000
-15.934200 0.000000
-15.827200 0.000000
-15.720300 0.000000
-15.613300 0.000000
-15.506300 0.000000
-15.399300 0.000000
-15.292300 0.000000
-15.185300 0.000000
-15.078300 0.000000
-14.971300 0.000000
-14.864300 0.000000
-14.757300 0.000000
-14.650300 0.000000
-14.543300 0.000000
-14.436300 0.000000
-14.329300 0.000000
-14.222300 0.000000
-14.115300 0.000000
-14.008300 0.000000
-13.901300 0.000000
-13.794300 0.000000
-13.687400 0.000000
-13.580400 0.000000
-13.473400 0.000000
-13.366400 0.000000
-13.259400 0.000000
-13.152400 0.000000
-13.045400 0.000000
-12.938400 0.000000
-12.831400 0.000000
-12.724400 0.000000
-12.617400 0.000000
-12.510400 0.000000
-12.403400 0.000000
-12.296400 0.000000
-12.189400 0.000000
-12.082400 0.000000
-11.975400 0.000000
-11.868400 0.000000
-11.761400 0.000000
-11.654500 0.000000
-11.547500 0.000000
-11.440500 0.000000
-11.333500 0.000200
-11.226500 0.034200
-11.119500 0.081800
-11.012500 0.092000
-10.905500 0.116800
-10.798500 0.138800
-10.691500 0.154500
-10.584500 0.167800
-10.477500 0.184200
-10.370500 0.201200
-10.263500 0.219200
-10.156500 0.238100
-10.049500 0.256200
-9.942500 0.274400
-9.835500 0.300400
-9.728500 0.327100
-9.621600 0.368900
-9.514600 0.410700
-9.407600 0.399300
-9.300600 0.411800
-9.193600 0.423600
-9.086600 0.431800
-8.979600 0.444900
-8.872600 0.461200
-8.765600 0.478200
-8.658600 0.496200
-8.551600 0.519100
-8.444600 0.552000
-8.337600 0.616200
-8.230600 0.698900
-8.123600 0.691100
-8.016600 0.723500
-7.909600 0.719600
-7.802600 0.738300
-7.695600 0.779900
-7.588700 0.828400
-7.481700 0.740800
-7.374700 0.661300
-7.267700 0.622500
-7.160700 0.593900
-7.053700 0.512900
-6.946700 0.421900
-6.839700 0.359300
-6.732700 0.306800
-6.625700 0.264200
-6.518700 0.188400
-6.411700 0.034600
-6.304700 0.000000
-6.197700 0.000000
-6.090700 0.000000
-5.983700 0.000000
-5.876700 0.000000
-5.769700 0.000000
-5.662700 0.000000
-5.555700 0.000000
-5.448800 0.000000
-5.341800 0.000000
-5.234800 0.000000
-5.127800 0.000000
-5.020800 0.000000
-4.913800 0.000000
-4.806800 0.000000
-4.699800 0.000000
-4.592800 0.000000
-4.485800 0.000000
-4.378800 0.000000
-4.271800 0.000000
-4.164800 0.000000
-4.057800 0.000000
-3.950800 0.000000
-3.843800 0.000000
-3.736800 0.000000
-3.629800 0.000000
-3.522800 0.000000
-3.415900 0.000000
-3.308900 0.000000
-3.201900 0.000000
-3.094900 0.000000
-2.987900 0.000000
-2.880900 0.000000
-2.773900 0.000000
-2.666900 0.000000
-2.559900 0.000000
-2.452900 0.000000
-2.345900 0.000000
-2.238900 0.000000
-2.131900 0.000000
-2.024900 0.000000
-1.917900 0.000000
-1.810900 0.000000
-1.703900 0.000000
-1.596900 0.000000
-1.489900 0.000000
-1.383000 0.000000
-1.276000 0.000000
-1.169000 0.000000
-1.062000 0.000000
-0.955000 0.000000
-0.848000 0.000000
-0.741000 0.000000
-0.634000 0.000000
-0.527000 0.000000
-0.420000 0.000000
-0.313000 0.000000
-0.206000 0.000000
-0.099000 0.000000
0.008000 0.000000
0.115000 0.011000
0.222000 0.034500
0.329000 0.030100
0.436000 0.037700
0.543000 0.046000
0.649900 0.055000
0.756900 0.061200
0.863900 0.067800
0.970900 0.071900
1.077900 0.077800
1.184900 0.083900
1.291900 0.090100
1.398900 0.095800
1.505900 0.102300
1.612900 0.108800
1.719900 0.124800
1.826900 0.196100
1.933900 0.253800
2.040900 0.287500
2.147900 0.329000
2.254900 0.356400
2.361900 0.379500
2.468900 0.390100
2.575900 0.392400
2.682800 0.393300
2.789800 0.490400
2.896800 0.405300
3.003800 0.412500
3.110800 0.420700
3.217800 0.426800
3.324800 0.432400
3.431800 0.436800
3.538800 0.442100
3.645800 0.451800
3.752800 0.463000
3.859800 0.475400
3.966800 0.492700
4.073800 0.512700
4.180800 0.540100
4.287800 0.562300
4.394800 0.555000
4.501800 0.620300
4.608800 0.565000
4.715800 0.530900
4.822700 0.512400
4.929700 0.500700
5.036700 0.515500
5.143700 0.468800
5.250700 0.379600
5.357700 0.363700
5.464700 0.314500
5.571700 0.292700
5.678700 0.282800
5.785700 0.274700
5.892700 0.253800
5.999700 0.241400
6.106700 0.227600
6.213700 0.224600
6.320700 0.252400
6.427700 0.257200
6.534700 0.283700
6.641700 0.319800
6.748700 0.297900
6.855600 0.308000
6.962600 0.318900
7.069600 0.331200
7.176600 0.344100
7.283600 0.359400
7.390600 0.387300
7.497600 0.406600
7.604600 0.456900
7.711600 0.466300
7.818600 0.456600
7.925600 0.455400
8.032600 0.505600
8.139600 0.467600
8.246600 0.469100
8.353600 0.484400
8.460600 0.483600
8.567600 0.458700
8.674600 0.437200
8.781600 0.426400
8.888500 0.409100
8.995500 0.390300
9.102500 0.385300
9.209500 0.373900
9.316500 0.357200
9.423500 0.348500
9.530500 0.369300
9.637500 0.397700
9.744500 0.413900
9.851500 0.442600
9.958500 0.408400
10.065500 0.419500
10.172500 0.424200
10.279500 0.424900
10.386500 0.416900
10.493500 0.412900
10.600500 0.425700
10.707500 0.417600
10.814500 0.429700
10.921400 0.427600
11.028400 0.431700
11.135400 0.440300
11.242400 0.455100
11.349400 0.440100
11.456400 0.443800
11.563400 0.454000
11.670400 0.464300
11.777400 0.499300
11.884400 0.494400
11.991400 0.501300
12.098400 0.489900
12.205400 0.473800
12.312400 0.465800
12.419400 0.470800
12.526400 0.474500
12.633400 0.474600
12.740400 0.488900
12.847400 0.508900
12.954300 0.488800
13.061300 0.471100
13.168300 0.472200
13.275300 0.477600
13.382300 0.477900
13.489300 0.475600
13.596300 0.474400
13.703300 0.461500
13.810300 0.460100
13.917300 0.480800
14.024300 0.476700
14.131300 0.478200
14.238300 0.480700
14.345300 0.477600
14.452300 0.480500
14.559300 0.478000
14.666300 0.471800
14.773300 0.459200
14.880300 0.451300
14.987300 0.445100
15.094200 0.442300
15.201200 0.449000
15.308200 0.465100
15.415200 0.510900
15.522200 0.537200
15.629200 0.503300
15.736200 0.487800
15.843200 0.480600
15.950200 0.474600
16.057200 0.468800
16.164200 0.455200
16.271200 0.435800
16.378200 0.423000
16.485200 0.412100
16.592200 0.407200
16.699200 0.412600
16.806200 0.407300
16.913200 0.416400
17.020200 0.428100
17.127100 0.435600
17.234100 0.442100
17.341100 0.449400
17.448100 0.454200
17.555100 0.461700
17.662100 0.469800
17.769100 0.476700
17.876100 0.483000
17.983100 0.491000
18.090100 0.495400
18.197100 0.501400
18.304100 0.511600
18.411100 0.509700
18.518100 0.515200
18.625100 0.519700
18.732100 0.526000
18.839100 0.534300
18.946100 0.546400
19.053100 0.556900
19.160000 0.565100
19.267000 0.573700
19.374000 0.581100
19.481000 0.590300
19.588000 0.597400
19.695000 0.603000
19.802000 0.606300
19.909000 0.606900
20.016000 0.609600
20.123000 0.613400
20.230000 0.603900
20.337000 0.597400
20.444000 0.595000
20.551000 0.592000
20.658000 0.589900
20.765000 0.588100
20.872000 0.591400
20.979000 0.592800
21.086000 0.593500
21.192900 0.606900
21.299900 0.589500
21.406900 0.554400
21.513900 0.528300
21.620900 0.523200
21.727900 0.525800
21.834900 0.534900
21.941900 0.534100
22.048900 0.533500
22.155900 0.535200
22.262900 0.539400
22.369900 0.551000
22.476900 0.557700
22.583900 0.556100
22.690900 0.535800
22.797900 0.509100
22.904900 0.490700
23.011900 0.484900
23.118900 0.481000
23.225800 0.470900
23.332800 0.457400
23.439800 0.438400
23.546800 0.446500
23.653800 0.463500
23.760800 0.474500
23.867800 0.485500
23.974800 0.512700
24.081800 0.538700
24.188800 0.546200
24.295800 0.574600
24.402800 0.595800
24.509800 0.622100
24.616800 0.645000
24.723800 0.661400
24.830800 0.689100
24.937800 0.715800
25.044800 0.744800
25.151800 0.776100
25.258700 0.785900
25.365700 0.751500
25.472700 0.707100
25.579700 0.663100
25.686700 0.623200
25.793700 0.595300
25.900700 0.569100
26.007700 0.546300
26.114700 0.532800
26.221700 0.522800
26.328700 0.514900
26.435700 0.513800
26.542700 0.517600
26.649700 0.522400
26.756700 0.527900
26.863700 0.543600
26.970700 0.535100
27.077700 0.539400
27.184700 0.570300
27.291700 0.593600
27.398600 0.619000
27.505600 0.650900
27.612600 0.686300
27.719600 0.727400
27.826600 0.678600
27.933600 0.669800
28.040600 0.664000
28.147600 0.670500
28.254600 0.649900
28.361600 0.632700
28.468600 0.626300
28.575600 0.618900
28.682600 0.613300
28.789600 0.605100
28.896600 0.589900
29.003600 0.585800
29.110600 0.585500
29.217600 0.590300
29.324600 0.615700
29.431500 0.655200
29.538500 0.698400
29.645500 0.709200
29.752500 0.707100
29.859500 0.698500
29.966500 0.684500
30.073500 0.661800
30.180500 0.647000
30.287500 0.614000
30.394500 0.581600
30.501500 0.564100
30.608500 0.555100
30.715500 0.562600
30.822500 0.573100
30.929500 0.600500
31.036500 0.632000
31.143500 0.644200
31.250500 0.652700
31.357500 0.660100
31.464400 0.667100
31.571400 0.659000
31.678400 0.636200
31.785400 0.613500
31.892400 0.597200
31.999400 0.605700
32.106400 0.600000
32.213400 0.597400
32.320400 0.603700
32.427400 0.601800
32.534400 0.595300
32.641400 0.597100
32.748400 0.605200
32.855400 0.625000
32.962400 0.647000
33.069400 0.664300
33.176400 0.682000
33.283400 0.694400
33.390400 0.694200
33.497300 0.679800
33.604300 0.679000
33.711300 0.679400
33.818300 0.687200
33.925300 0.699700
34.032300 0.723900
34.139300 0.752800
34.246300 0.777700
34.353300 0.791900
34.460300 0.780300
34.567300 0.757600
34.674300 0.730300
34.781300 0.701800
34.888300 0.677400
34.995300 0.659800
35.102300 0.645000
35.209300 0.637800
35.316300 0.635600
35.423300 0.635100
35.530200 0.650800
35.637200 0.666200
35.744200 0.682300
35.851200 0.695300
35.958200 0.719200
36.065200 0.713800
36.172200 0.712600
36.279200 0.711300
36.386200 0.699800
36.493200 0.688700
36.600200 0.672500
36.707200 0.666700
36.814200 0.659400
36.921200 0.644700
37.028200 0.642200
37.135200 0.639100
37.242200 0.639100
37.349200 0.643400
37.456200 0.652800
37.563200 0.663600
37.670100 0.671600
37.777100 0.669400
37.884100 0.680100
37.991100 0.698500
38.098100 0.709100
38.205100 0.726500
38.312100 0.747800
38.419100 0.737500
38.526100 0.746100
38.633100 0.761600
38.740100 0.760000
38.847100 0.754300
38.954100 0.743100
39.061100 0.731500
39.168100 0.708500
39.275100 0.713000
39.382100 0.726600
39.489100 0.736600
39.596100 0.740200
39.703000 0.746000
39.810000 0.760800
39.917000 0.771000
40.024000 0.734200
40.131000 0.730600
40.238000 0.730500
40.345000 0.731500
40.452000 0.718900
40.559000 0.710800
40.666000 0.702600
40.773000 0.692500
40.880000 0.694100
40.987000 0.700400
41.094000 0.704700
41.201000 0.713300
41.308000 0.715700
41.415000 0.724000
41.522000 0.721700
41.629000 0.719900
41.735900 0.708400
41.842900 0.705100
41.949900 0.706900
42.056900 0.711200
42.163900 0.721300
42.270900 0.736000
42.377900 0.731100
42.484900 0.728700
42.591900 0.714600
42.698900 0.707700
42.805900 0.706000
42.912900 0.710100
43.019900 0.758400
43.126900 0.724000
43.233900 0.729100
43.340900 0.732800
43.447900 0.732500
43.554900 0.719700
43.661900 0.703600
43.768800 0.694200
43.875800 0.689600
43.982800 0.695500
44.089800 0.706100
44.196800 0.713700
44.303800 0.735200
44.410800 0.745100
44.517800 0.760000
44.624800 0.746300
44.731800 0.762600
44.838800 0.777500
44.945800 0.787500
45.052800 0.790700
45.159800 0.776500
45.266800 0.774200
45.373800 0.764200
45.480800 0.725700
45.587800 0.714200
45.694800 0.726200
45.801700 0.754900
45.908700 0.759300
46.015700 0.771300
46.122700 0.790500
46.229700 0.801300
46.336700 0.812300
46.443700 0.820800
46.550700 0.833700
46.657700 0.839400
46.764700 0.836800
46.871700 0.829900
46.978700 0.872400
47.085700 0.843200
47.192700 0.745900
47.299700 0.739200
47.406700 0.742400
47.513700 0.736900
47.620700 0.757900
47.727700 0.769500
47.834600 0.742900
47.941600 0.729300
48.048600 0.740000
48.155600 0.718500
48.262600 0.737300
48.369600 0.717200
48.476600 0.706300
48.583600 0.706600
48.690600 0.695300
48.797600 0.688600
48.904600 0.721300
49.011600 0.735600
49.118600 0.749900
49.225600 0.777400
49.332600 0.826900
49.439600 0.854100
49.546600 0.837300
49.653600 0.825900
49.760600 0.807800
49.867600 0.770800
49.974500 0.786000
50.081500 0.789900
50.188500 0.758700
50.295500 0.773500
50.402500 0.831300
50.509500 0.837300
50.616500 0.854900
50.723500 0.864400
50.830500 0.865800
50.937500 0.873800
51.044500 0.887300
51.151500 0.857600
51.258500 0.863100
51.365500 0.859700
51.472500 0.848900
51.579500 0.836400
51.686500 0.830400
51.793500 0.854900
51.900500 0.857300
52.007400 0.855100
52.114400 0.848200
52.221400 0.833700
52.328400 0.803400
52.435400 0.799800
52.542400 0.728000
52.649400 0.699800
52.756400 0.672100
52.863400 0.650400
52.970400 0.627000
53.077400 0.629400
53.184400 0.645800
53.291400 0.672200
53.398400 0.712900
53.505400 0.743200
53.612400 0.757500
53.719400 0.766200
53.826400 0.762100
53.933400 0.738700
54.040300 0.715000
54.147300 0.742900
54.254300 0.761200
54.361300 0.771500
54.468300 0.796100
54.575300 0.809400
54.682300 0.879800
54.789300 0.903400
54.896300 0.904500
55.003300 0.934400
55.110300 0.943500
55.217300 0.951100
55.324300 0.937900
55.431300 0.910300
55.538300 0.897600
55.645300 0.852100
55.752300 0.847800
55.859300 0.852800
55.966300 0.851100
56.073200 0.849600
56.180200 0.853600
56.287200 0.831200
56.394200 0.832500
56.501200 0.823100
56.608200 0.815400
56.715200 0.812100
56.822200 0.818400
56.929200 0.823300
57.036200 0.828400
57.143200 0.836000
57.250200 0.840400
57.357200 0.845500
57.464200 0.848500
57.571200 0.839800
57.678200 0.837600
57.785200 0.833600
57.892200 0.831600
57.999200 0.831900
58.106100 0.835300
58.213100 0.861000
58.320100 0.866800
58.427100 0.874400
58.534100 0.883800
58.641100 0.904000
58.748100 0.922800
58.855100 0.942500
58.962100 0.909400
59.069100 0.905300
59.176100 0.896800
59.283100 0.875900
59.390100 0.855300
59.497100 0.848100
59.604100 0.849100
59.711100 0.880500
59.818100 0.814400
59.925100 0.810100
60.032100 0.804000
60.139100 0.798400
60.246000 0.797400
60.353000 0.790600
60.460000 0.783400
60.567000 0.780000
60.674000 0.782000
60.781000 0.783400
60.888000 0.790500
60.995000 0.787500
61.102000 0.781500
61.209000 0.781300
61.316000 0.803400
61.423000 0.819100
61.530000 0.838000
61.637000 0.875400
61.744000 0.896100
61.851000 0.928300
61.958000 0.917800
62.065000 0.924100
62.172000 0.917100
62.278900 0.897100
62.385900 0.894400
62.492900 0.908300
62.599900 0.939300
62.706900 0.942200
62.813900 0.891000
62.920900 0.872700
63.027900 0.858700
63.134900 0.853500
63.241900 0.850000
63.348900 0.858000
63.455900 0.876000
63.562900 0.868700
63.669900 0.869500
63.776900 0.876300
63.883900 0.886600
63.990900 0.910500
64.097900 0.923100
64.204900 0.937900
64.311800 0.947100
64.418800 0.953300
64.525800 0.974400
64.632800 1.004900
64.739800 1.057300
64.846800 1.010300
64.953800 0.983000
65.060800 0.977400
65.167800 0.948400
65.274800 0.930700
65.381800 0.926400
65.488800 0.917200
65.595800 0.926600
65.702800 0.930200
65.809800 0.928100
65.916800 0.912300
66.023800 0.889600
66.130800 0.872200
66.237800 0.859100
66.344700 0.869700
66.451700 0.915100
66.558700 0.921900
66.665700 0.853500
66.772700 0.812100
66.879700 0.782300
66.986700 0.772600
67.093700 0.756100
67.200700 0.735100
67.307700 0.728700
67.414700 0.725600
67.521700 0.728200
67.628700 0.735200
67.735700 0.739300
67.842700 0.744600
67.949700 0.781000
68.056700 0.791800
68.163700 0.827200
68.270700 0.899100
68.377600 0.950000
68.484600 0.968500
68.591600 1.004600
68.698600 1.013800
68.805600 0.985300
68.912600 0.970500
69.019600 0.970400
69.126600 0.980000
69.233600 0.994900
69.340600 0.993800
69.447600 1.014000
69.554600 1.010900
69.661600 1.010400
69.768600 1.010600
69.875600 1.013000
69.982600 1.009700
70.089600 1.023300
70.196600 1.043100
70.303600 1.047200
70.410600 1.025200
70.517500 0.990700
70.624500 0.958000
70.731500 0.934600
70.838500 0.912900
70.945500 0.921600
71.052500 0.926700
71.159500 0.863800
71.266500 0.857900
71.373500 0.856500
71.480500 0.862400
71.587500 0.882800
71.694500 0.887700
71.801500 0.872200
71.908500 0.879100
72.015500 0.888500
72.122500 0.873100
72.229500 0.864700
72.336500 0.859200
72.443500 0.867400
72.550400 0.880500
72.657400 0.879800
72.764400 0.877700
72.871400 0.891000
72.978400 0.905200
73.085400 0.888400
73.192400 0.888800
73.299400 0.895000
73.406400 0.905400
73.513400 0.946400
73.620400 0.946800
73.727400 0.940400
73.834400 0.966100
73.941400 0.902000
74.048400 0.883400
74.155400 0.884800
74.262400 0.843000
74.369400 0.838500
74.476400 0.845400
74.583300 0.853500
74.690300 0.856400
74.797300 0.857400
74.904300 0.870200
75.011300 0.882500
75.118300 0.882700
75.225300 0.867400
75.332300 0.849200
75.439300 0.846400
75.546300 0.863500
75.653300 0.914200
75.760300 0.928900
75.867300 0.997500
75.974300 1.065400
76.081300 1.114400
76.188300 1.158700
76.295300 1.186900
76.402300 1.215200
76.509300 1.181000
76.616200 1.148200
76.723200 1.096900
76.830200 1.065700
76.937200 1.068600
77.044200 1.047000
77.151200 1.039800
77.258200 1.027300
77.365200 1.008400
77.472200 1.002100
77.579200 0.993600
77.686200 0.986600
77.793200 0.988800
77.900200 0.982200
78.007200 0.974500
78.114200 0.968300
78.221200 0.965800
78.328200 0.964300
78.435200 0.962700
78.542200 0.947900
78.649100 0.934600
78.756100 0.919300
78.863100 0.908100
78.970100 0.931600
79.077100 0.938700
79.184100 0.937800
79.291100 0.933900
79.398100 0.932700
79.505100 0.950700
79.612100 0.957000
79.719100 0.956900
79.826100 0.956300
79.933100 0.952100
80.040100 0.946100
80.147100 0.939800
80.254100 0.936300
80.361100 0.931900
80.468100 0.934400
80.575100 0.951600
80.682000 0.992500
80.789000 0.947100
80.896000 0.945300
81.003000 0.941700
81.110000 0.946400
81.217000 0.939300
81.324000 0.962500
81.431000 0.950100
81.538000 0.925000
81.645000 0.921100
81.752000 0.909900
81.859000 0.927100
81.966000 0.921100
82.073000 0.921100
82.180000 0.932500
82.287000 0.984600
82.394000 0.958100
82.501000 0.954800
82.608000 0.962100
82.715000 0.951200
82.821900 0.943700
82.928900 0.941400
83.035900 0.954600
83.142900 0.978500
83.249900 0.980200
83.356900 0.990700
83.463900 0.988100
83.570900 0.989000
83.677900 1.006900
83.784900 1.020300
83.891900 1.042400
83.998900 1.045800
84.105900 1.075200
84.212900 1.089900
84.319900 1.098600
84.426900 1.082700
84.533900 1.078200
84.640900 1.079100
84.747900 1.094400
84.854800 1.135400
84.961800 1.152900
85.068800 1.181100
85.175800 1.201800
85.282800 1.220800
85.389800 1.227100
85.496800 1.211600
85.603800 1.186700
85.710800 1.179700
85.817800 1.146400
85.924800 1.119400
86.031800 1.099200
86.138800 1.085600
86.245800 1.072700
86.352800 1.058800
86.459800 1.063400
86.566800 1.031500
86.673800 1.029000
86.780800 0.987500
86.887700 0.979400
86.994700 0.988000
87.101700 0.982200
87.208700 0.981700
87.315700 0.978700
87.422700 0.972900
87.529700 0.962500
87.636700 0.948400
87.743700 0.943100
87.850700 0.936000
87.957700 0.935800
88.064700 0.896300
88.171700 0.870300
88.278700 0.863700
88.385700 0.852900
88.492700 0.843800
88.599700 0.837200
88.706700 0.860500
88.813700 0.843800
88.920600 0.827100
89.027600 0.815900
89.134600 0.814800
89.241600 0.818800
89.348600 0.830300
89.455600 0.843000
89.562600 0.851300
89.669600 0.866400
89.776600 0.878900
