set title 'mp-288 - Density of States'
set xlabel 'Energy (eV)'
set ylabel 'DOS (states/eV)'
set grid
set xrange [-10:10]
set yrange [0:15.910]
set xzeroaxis lt -1
set terminal png size 800,600
set output 'mp-288_dos_gnuplot.png'
plot '-' using 1:2 with lines title 'DOS'
-11.477500 0.000000
-11.463400 0.000000
-11.449400 0.000000
-11.435300 0.000000
-11.421300 0.000000
-11.407200 0.000000
-11.393200 0.000000
-11.379100 0.000000
-11.365000 0.000000
-11.351000 0.000000
-11.336900 0.000000
-11.322900 0.000000
-11.308800 0.000000
-11.294800 0.000000
-11.280700 0.000000
-11.266700 0.000000
-11.252600 0.000000
-11.238600 0.000000
-11.224500 0.000000
-11.210400 0.000000
-11.196400 0.000000
-11.182300 0.000000
-11.168300 0.000000
-11.154200 0.000000
-11.140200 0.000000
-11.126100 0.000000
-11.112100 0.000000
-11.098000 0.000000
-11.084000 0.000000
-11.069900 0.000000
-11.055800 0.000000
-11.041800 0.000000
-11.027700 0.000000
-11.013700 0.000000
-10.999600 0.000000
-10.985600 0.000000
-10.971500 0.000000
-10.957500 0.000000
-10.943400 0.000000
-10.929400 0.000000
-10.915300 0.000000
-10.901200 0.000000
-10.887200 0.000000
-10.873100 0.000000
-10.859100 0.000000
-10.845000 0.000000
-10.831000 0.000000
-10.816900 0.000000
-10.802900 0.000000
-10.788800 0.000000
-10.774800 0.000000
-10.760700 0.000000
-10.746600 0.000000
-10.732600 0.000000
-10.718500 0.000000
-10.704500 0.000000
-10.690400 0.000000
-10.676400 0.000000
-10.662300 0.000000
-10.648300 0.000000
-10.634200 0.000000
-10.620200 0.000000
-10.606100 0.000000
-10.592000 0.000000
-10.578000 0.000000
-10.563900 0.000000
-10.549900 0.000000
-10.535800 0.000000
-10.521800 0.000000
-10.507700 0.000000
-10.493700 0.000000
-10.479600 0.000000
-10.465600 0.000000
-10.451500 0.000000
-10.437400 0.000000
-10.423400 0.000000
-10.409300 0.000000
-10.395300 0.000000
-10.381200 0.000000
-10.367200 0.000000
-10.353100 0.000000
-10.339100 0.000000
-10.325000 0.000000
-10.311000 0.000000
-10.296900 0.000000
-10.282800 0.000000
-10.268800 0.000000
-10.254700 0.000000
-10.240700 0.000000
-10.226600 0.000000
-10.212600 0.000000
-10.198500 0.000200
-10.184500 0.033200
-10.170400 0.116600
-10.156400 0.189200
-10.142300 0.214100
-10.128200 0.229700
-10.114200 0.263900
-10.100100 0.303600
-10.086100 0.333400
-10.072000 0.353400
-10.058000 0.375700
-10.043900 0.398900
-10.029900 0.419100
-10.015800 0.441800
-10.001800 0.465500
-9.987700 0.488400
-9.973600 0.506600
-9.959600 0.524400
-9.945500 0.545900
-9.931500 0.568600
-9.917400 0.591500
-9.903400 0.614700
-9.889300 0.637600
-9.875300 0.657700
-9.861200 0.678100
-9.847200 0.701000
-9.833100 0.723000
-9.819000 0.744600
-9.805000 0.766900
-9.790900 0.789800
-9.776900 0.812900
-9.762800 0.836000
-9.748800 0.859300
-9.734700 0.885700
-9.720700 0.915600
-9.706600 0.945700
-9.692600 0.976800
-9.678500 1.009800
-9.664400 1.042900
-9.650400 1.074400
-9.636300 1.105300
-9.622300 1.139200
-9.608200 1.181900
-9.594200 1.225300
-9.580100 1.268700
-9.566100 1.314100
-9.552000 1.367300
-9.538000 1.429000
-9.523900 1.492600
-9.509800 1.571200
-9.495800 1.662600
-9.481700 1.754300
-9.467700 1.849900
-9.453600 1.953900
-9.439600 2.119400
-9.425500 2.371700
-9.411500 2.661900
-9.397400 2.996500
-9.383400 3.919300
-9.369300 5.181400
-9.355200 4.081700
-9.341200 2.873300
-9.327100 2.777000
-9.313100 2.671300
-9.299000 2.553700
-9.285000 2.379000
-9.270900 2.118100
-9.256900 2.010800
-9.242800 1.983900
-9.228800 1.957100
-9.214700 1.927000
-9.200600 1.893100
-9.186600 1.855200
-9.172500 1.810900
-9.158500 1.731900
-9.144400 1.642300
-9.130400 1.629900
-9.116300 1.624200
-9.102300 1.619100
-9.088200 1.614400
-9.074200 1.610100
-9.060100 1.604100
-9.046000 1.596200
-9.032000 1.587300
-9.017900 1.574700
-9.003900 1.541400
-8.989800 1.526500
-8.975800 1.512700
-8.961700 1.533700
-8.947700 1.551500
-8.933600 1.557900
-8.919600 1.562300
-8.905500 1.565500
-8.891400 1.567300
-8.877400 1.568900
-8.863300 1.570300
-8.849300 1.577400
-8.835200 1.613800
-8.821200 1.610800
-8.807100 1.649200
-8.793100 1.696900
-8.779000 1.712800
-8.765000 1.725800
-8.750900 1.740300
-8.736800 1.756100
-8.722800 1.779000
-8.708700 1.825300
-8.694700 1.891400
-8.680600 2.045000
-8.666600 2.056000
-8.652500 2.145400
-8.638500 2.200800
-8.624400 2.253000
-8.610400 2.306500
-8.596300 2.404800
-8.582200 2.587700
-8.568200 2.908100
-8.554100 3.202800
-8.540100 3.827900
-8.526000 4.057400
-8.512000 4.290900
-8.497900 7.190500
-8.483900 8.931100
-8.469800 7.001500
-8.455800 6.344000
-8.441700 6.235300
-8.427600 6.268600
-8.413600 6.286500
-8.399500 6.219400
-8.385500 6.266800
-8.371400 6.355800
-8.357400 5.848600
-8.343300 5.078300
-8.329300 4.056500
-8.315200 2.531600
-8.301200 2.078300
-8.287100 1.695400
-8.273000 1.499000
-8.259000 1.291800
-8.244900 1.145600
-8.230900 1.017700
-8.216800 0.901300
-8.202800 0.806900
-8.188700 0.657200
-8.174700 0.507100
-8.160600 0.373100
-8.146600 0.253700
-8.132500 0.139300
-8.118400 0.038900
-8.104400 0.000000
-8.090300 0.000000
-8.076300 0.000000
-8.062200 0.000000
-8.048200 0.000000
-8.034100 0.000000
-8.020100 0.000000
-8.006000 0.000000
-7.992000 0.000000
-7.977900 0.000000
-7.963800 0.000000
-7.949800 0.000000
-7.935700 0.000000
-7.921700 0.000000
-7.907600 0.000000
-7.893600 0.000000
-7.879500 0.000000
-7.865500 0.000000
-7.851400 0.000000
-7.837400 0.000000
-7.823300 0.000000
-7.809200 0.000000
-7.795200 0.000000
-7.781100 0.000000
-7.767100 0.000000
-7.753000 0.000000
-7.739000 0.000000
-7.724900 0.000000
-7.710900 0.000000
-7.696800 0.000000
-7.682800 0.000000
-7.668700 0.000000
-7.654600 0.000000
-7.640600 0.000000
-7.626500 0.000000
-7.612500 0.000000
-7.598400 0.000000
-7.584400 0.000000
-7.570300 0.000000
-7.556300 0.000000
-7.542200 0.000000
-7.528200 0.000000
-7.514100 0.000000
-7.500000 0.000000
-7.486000 0.000000
-7.471900 0.000000
-7.457900 0.000000
-7.443800 0.000000
-7.429800 0.000000
-7.415700 0.000000
-7.401700 0.000000
-7.387600 0.000000
-7.373600 0.000000
-7.359500 0.000000
-7.345400 0.000000
-7.331400 0.000000
-7.317300 0.000000
-7.303300 0.000000
-7.289200 0.000000
-7.275200 0.000000
-7.261100 0.000000
-7.247100 0.000000
-7.233000 0.000000
-7.219000 0.000000
-7.204900 0.000000
-7.190800 0.000000
-7.176800 0.000000
-7.162700 0.000000
-7.148700 0.000000
-7.134600 0.000000
-7.120600 0.000000
-7.106500 0.000000
-7.092500 0.000000
-7.078400 0.000000
-7.064400 0.000000
-7.050300 0.000000
-7.036200 0.000000
-7.022200 0.000000
-7.008100 0.000000
-6.994100 0.000000
-6.980000 0.000000
-6.966000 0.000000
-6.951900 0.000000
-6.937900 0.000000
-6.923800 0.000000
-6.909800 0.000000
-6.895700 0.000000
-6.881600 0.000000
-6.867600 0.000000
-6.853500 0.000000
-6.839500 0.000000
-6.825400 0.000000
-6.811400 0.000000
-6.797300 0.000000
-6.783300 0.000000
-6.769200 0.000000
-6.755200 0.000000
-6.741100 0.000000
-6.727000 0.000000
-6.713000 0.000000
-6.698900 0.000000
-6.684900 0.000000
-6.670800 0.000000
-6.656800 0.000000
-6.642700 0.000000
-6.628700 0.000000
-6.614600 0.000000
-6.600600 0.000000
-6.586500 0.000000
-6.572400 0.000000
-6.558400 0.000000
-6.544300 0.000000
-6.530300 0.000000
-6.516200 0.000000
-6.502200 0.000000
-6.488100 0.000000
-6.474100 0.000000
-6.460000 0.000000
-6.446000 0.000000
-6.431900 0.000000
-6.417800 0.000000
-6.403800 0.000000
-6.389700 0.000000
-6.375700 0.000000
-6.361600 0.000000
-6.347600 0.000000
-6.333500 0.000000
-6.319500 0.000000
-6.305400 0.000000
-6.291400 0.000000
-6.277300 0.000000
-6.263200 0.000000
-6.249200 0.000000
-6.235100 0.000000
-6.221100 0.000000
-6.207000 0.000000
-6.193000 0.000000
-6.178900 0.000000
-6.164900 0.000000
-6.150800 0.000000
-6.136800 0.000000
-6.122700 0.000000
-6.108600 0.000000
-6.094600 0.000000
-6.080500 0.000000
-6.066500 0.000000
-6.052400 0.000000
-6.038400 0.000000
-6.024300 0.000000
-6.010300 0.000000
-5.996200 0.000000
-5.982200 0.000000
-5.968100 0.000000
-5.954000 0.000000
-5.940000 0.000000
-5.925900 0.000000
-5.911900 0.000000
-5.897800 0.000000
-5.883800 0.000000
-5.869700 0.000000
-5.855700 0.000000
-5.841600 0.000000
-5.827600 0.000000
-5.813500 0.000000
-5.799400 0.000000
-5.785400 0.000000
-5.771300 0.000000
-5.757300 0.000000
-5.743200 0.000000
-5.729200 0.000000
-5.715100 0.000000
-5.701100 0.000000
-5.687000 0.000000
-5.673000 0.000000
-5.658900 0.000000
-5.644800 0.000000
-5.630800 0.000000
-5.616700 0.000000
-5.602700 0.000000
-5.588600 0.000000
-5.574600 0.000000
-5.560500 0.000000
-5.546500 0.000000
-5.532400 0.000000
-5.518400 0.000000
-5.504300 0.000000
-5.490200 0.000000
-5.476200 0.000000
-5.462100 0.000000
-5.448100 0.000000
-5.434000 0.000000
-5.420000 0.000000
-5.405900 0.000000
-5.391900 0.000000
-5.377800 0.000000
-5.363800 0.000000
-5.349700 0.000000
-5.335600 0.000000
-5.321600 0.000000
-5.307500 0.000000
-5.293500 0.000000
-5.279400 0.000000
-5.265400 0.000000
-5.251300 0.000000
-5.237300 0.000000
-5.223200 0.000000
-5.209200 0.000000
-5.195100 0.000000
-5.181000 0.000000
-5.167000 0.000000
-5.152900 0.000000
-5.138900 0.000000
-5.124800 0.000000
-5.110800 0.000000
-5.096700 0.000000
-5.082700 0.000000
-5.068600 0.000000
-5.054600 0.000000
-5.040500 0.000000
-5.026400 0.000000
-5.012400 0.000000
-4.998300 0.000000
-4.984300 0.000000
-4.970200 0.000000
-4.956200 0.000000
-4.942100 0.000000
-4.928100 0.000000
-4.914000 0.000000
-4.900000 0.000000
-4.885900 0.000000
-4.871800 0.000000
-4.857800 0.000000
-4.843700 0.000000
-4.829700 0.000000
-4.815600 0.000000
-4.801600 0.000000
-4.787500 0.000000
-4.773500 0.000000
-4.759400 0.000000
-4.745400 0.000000
-4.731300 0.000000
-4.717200 0.000000
-4.703200 0.000000
-4.689100 0.000000
-4.675100 0.000000
-4.661000 0.000000
-4.647000 0.000000
-4.632900 0.000000
-4.618900 0.000000
-4.604800 0.000000
-4.590800 0.000000
-4.576700 0.000000
-4.562600 0.000000
-4.548600 0.000000
-4.534500 0.000000
-4.520500 0.000000
-4.506400 0.000000
-4.492400 0.000000
-4.478300 0.000000
-4.464300 0.000000
-4.450200 0.000000
-4.436200 0.000000
-4.422100 0.000000
-4.408000 0.000000
-4.394000 0.000000
-4.379900 0.000000
-4.365900 0.000000
-4.351800 0.000000
-4.337800 0.000000
-4.323700 0.000000
-4.309700 0.000000
-4.295600 0.000000
-4.281600 0.000000
-4.267500 0.000000
-4.253400 0.000000
-4.239400 0.000000
-4.225300 0.000000
-4.211300 0.000000
-4.197200 0.000000
-4.183200 0.000000
-4.169100 0.000000
-4.155100 0.000000
-4.141000 0.000000
-4.127000 0.000000
-4.112900 0.000000
-4.098800 0.000000
-4.084800 0.000000
-4.070700 0.000000
-4.056700 0.000000
-4.042600 0.000000
-4.028600 0.000000
-4.014500 0.000000
-4.000500 0.000000
-3.986400 0.000000
-3.972400 0.000000
-3.958300 0.000000
-3.944200 0.000000
-3.930200 0.000000
-3.916100 0.000000
-3.902100 0.000000
-3.888000 0.000000
-3.874000 0.000000
-3.859900 0.000000
-3.845900 0.000000
-3.831800 0.000000
-3.817800 0.000000
-3.803700 0.000000
-3.789600 0.000000
-3.775600 0.000000
-3.761500 0.000000
-3.747500 0.000000
-3.733400 0.000000
-3.719400 0.000000
-3.705300 0.000000
-3.691300 0.000000
-3.677200 0.000000
-3.663200 0.000000
-3.649100 0.000000
-3.635000 0.000000
-3.621000 0.000000
-3.606900 0.000000
-3.592900 0.000000
-3.578800 0.000000
-3.564800 0.001300
-3.550700 0.009300
-3.536700 0.024200
-3.522600 0.039700
-3.508600 0.053200
-3.494500 0.065600
-3.480400 0.079000
-3.466400 0.093200
-3.452300 0.108400
-3.438300 0.124400
-3.424200 0.139100
-3.410200 0.148000
-3.396100 0.152200
-3.382100 0.157400
-3.368000 0.163800
-3.354000 0.170100
-3.339900 0.176000
-3.325800 0.181500
-3.311800 0.186700
-3.297700 0.193500
-3.283700 0.202400
-3.269600 0.211100
-3.255600 0.218700
-3.241500 0.225600
-3.227500 0.232300
-3.213400 0.239000
-3.199400 0.245600
-3.185300 0.252200
-3.171200 0.258600
-3.157200 0.265900
-3.143100 0.274000
-3.129100 0.282700
-3.115000 0.291700
-3.101000 0.301100
-3.086900 0.310800
-3.072900 0.320400
-3.058800 0.329700
-3.044800 0.338600
-3.030700 0.345700
-3.016600 0.351700
-3.002600 0.358000
-2.988500 0.364500
-2.974500 0.371500
-2.960400 0.379100
-2.946400 0.387300
-2.932300 0.395800
-2.918300 0.404400
-2.904200 0.413300
-2.890200 0.422500
-2.876100 0.431900
-2.862000 0.441500
-2.848000 0.451100
-2.833900 0.460500
-2.819900 0.469500
-2.805800 0.478400
-2.791800 0.487200
-2.777700 0.496900
-2.763700 0.508500
-2.749600 0.521900
-2.735600 0.535100
-2.721500 0.547400
-2.707400 0.559600
-2.693400 0.572000
-2.679300 0.584600
-2.665300 0.597500
-2.651200 0.610500
-2.637200 0.623400
-2.623100 0.636300
-2.609100 0.649700
-2.595000 0.665800
-2.581000 0.685300
-2.566900 0.705700
-2.552800 0.725200
-2.538800 0.743900
-2.524700 0.762900
-2.510700 0.782200
-2.496600 0.801900
-2.482600 0.820500
-2.468500 0.838400
-2.454500 0.858200
-2.440400 0.881300
-2.426400 0.908000
-2.412300 0.936400
-2.398200 0.966200
-2.384200 0.998600
-2.370100 1.034000
-2.356100 1.069800
-2.342000 1.104500
-2.328000 1.139600
-2.313900 1.180400
-2.299900 1.235200
-2.285800 1.293700
-2.271800 1.344700
-2.257700 1.397000
-2.243600 1.450800
-2.229600 1.515800
-2.215500 1.599900
-2.201500 1.884600
-2.187400 2.088000
-2.173400 2.348900
-2.159300 2.721000
-2.145300 2.831500
-2.131200 2.512700
-2.117200 2.153400
-2.103100 2.112500
-2.089000 2.078500
-2.075000 2.038300
-2.060900 1.987000
-2.046900 1.928700
-2.032800 1.843700
-2.018800 1.761600
-2.004700 1.740600
-1.990700 1.719000
-1.976600 1.697700
-1.962600 1.684000
-1.948500 1.672400
-1.934400 1.654200
-1.920400 1.682200
-1.906300 1.686800
-1.892300 1.676600
-1.878200 1.651100
-1.864200 1.620100
-1.850100 2.990000
-1.836100 3.358700
-1.822000 3.091600
-1.808000 3.253700
-1.793900 3.297700
-1.779800 3.221700
-1.765800 3.017000
-1.751700 2.936000
-1.737700 2.896700
-1.723600 2.963100
-1.709600 2.898600
-1.695500 2.785500
-1.681500 2.618800
-1.667400 2.576400
-1.653400 2.552600
-1.639300 2.522700
-1.625200 2.491900
-1.611200 2.442100
-1.597100 2.377500
-1.583100 2.359300
-1.569000 2.393500
-1.555000 2.436700
-1.540900 2.512900
-1.526900 2.602000
-1.512800 2.681800
-1.498800 2.787400
-1.484700 3.044900
-1.470600 3.321700
-1.456600 3.701200
-1.442500 3.761700
-1.428500 3.739900
-1.414400 3.863200
-1.400400 4.094300
-1.386300 5.280000
-1.372300 4.552600
-1.358200 3.872400
-1.344200 3.259400
-1.330100 2.847000
-1.316000 2.736800
-1.302000 2.630100
-1.287900 2.580100
-1.273900 2.549600
-1.259800 2.354500
-1.245800 2.272100
-1.231700 2.217800
-1.217700 2.178300
-1.203600 2.083500
-1.189600 2.004800
-1.175500 2.033100
-1.161400 2.097400
-1.147400 2.878400
-1.133300 3.213800
-1.119300 3.758100
-1.105200 4.188900
-1.091200 4.799900
-1.077100 5.610500
-1.063100 6.531600
-1.049000 7.105900
-1.035000 8.618500
-1.020900 8.484900
-1.006900 7.653600
-0.992800 7.538600
-0.978700 7.743800
-0.964700 6.704900
-0.950600 6.404200
-0.936600 5.945200
-0.922500 5.301700
-0.908500 4.737800
-0.894400 4.557500
-0.880400 4.491300
-0.866300 4.466800
-0.852300 4.376000
-0.838200 4.153900
-0.824100 3.819500
-0.810100 3.473700
-0.796000 3.392600
-0.782000 3.611800
-0.767900 3.872700
-0.753900 3.585000
-0.739800 3.270900
-0.725800 3.042600
-0.711700 2.840700
-0.697700 2.625500
-0.683600 2.503700
-0.669500 2.447100
-0.655500 2.420300
-0.641400 2.393300
-0.627400 2.440900
-0.613300 2.454800
-0.599300 2.498000
-0.585200 2.566900
-0.571200 2.402800
-0.557100 2.258700
-0.543100 2.143800
-0.529000 2.112600
-0.514900 2.063200
-0.500900 2.003500
-0.486800 1.973900
-0.472800 1.945200
-0.458700 1.928100
-0.444700 1.913200
-0.430600 1.907200
-0.416600 1.897900
-0.402500 1.891000
-0.388500 1.888400
-0.374400 1.894300
-0.360300 1.921800
-0.346300 1.949100
-0.332200 1.988100
-0.318200 2.255700
-0.304100 2.355800
-0.290100 2.621600
-0.276000 2.760600
-0.262000 2.818900
-0.247900 2.958300
-0.233900 3.015200
-0.219800 2.898500
-0.205700 2.878600
-0.191700 2.938900
-0.177600 3.001700
-0.163600 3.023400
-0.149500 3.046600
-0.135500 3.089600
-0.121400 3.132300
-0.107400 3.180700
-0.093300 3.232000
-0.079300 3.305500
-0.065200 3.409000
-0.051100 3.543000
-0.037100 3.836800
-0.023000 4.346900
-0.009000 4.748400
0.005100 5.284700
0.019100 5.684600
0.033200 5.982500
0.047200 4.921300
0.061300 4.184000
0.075300 3.842600
0.089400 3.035300
0.103500 2.446000
0.117500 2.462400
0.131600 2.667900
0.145600 2.894500
0.159700 2.867000
0.173700 2.803000
0.187800 2.776900
0.201800 2.810100
0.215900 2.780600
0.229900 2.599300
0.244000 2.526500
0.258100 2.521600
0.272100 2.582800
0.286200 2.698100
0.300200 2.552600
0.314300 2.434100
0.328300 2.364500
0.342400 2.356100
0.356400 2.347900
0.370500 2.313300
0.384500 2.250400
0.398600 2.226300
0.412700 2.221000
0.426700 2.171500
0.440800 2.140000
0.454800 2.113100
0.468900 2.085800
0.482900 2.065800
0.497000 2.051900
0.511000 2.043800
0.525100 2.032100
0.539100 2.021200
0.553200 2.013700
0.567300 2.007500
0.581300 1.998900
0.595400 1.994700
0.609400 2.044300
0.623500 2.080000
0.637500 2.072300
0.651600 2.066400
0.665600 2.060700
0.679700 2.051600
0.693700 2.061200
0.707800 2.090300
0.721900 2.097400
0.735900 2.086300
0.750000 2.096100
0.764000 2.140100
0.778100 2.121100
0.792100 2.101400
0.806200 2.084000
0.820200 2.074300
0.834300 2.109400
0.848300 2.124100
0.862400 2.103200
0.876500 2.087200
0.890500 2.067300
0.904600 2.110700
0.918600 2.106000
0.932700 2.124900
0.946700 2.227500
0.960800 2.312500
0.974800 2.388700
0.988900 2.346500
1.002900 2.389700
1.017000 2.464900
1.031100 2.568000
1.045100 2.636300
1.059200 2.652900
1.073200 2.690500
1.087300 2.752800
1.101300 2.762900
1.115400 2.777600
1.129400 2.711100
1.143500 2.696800
1.157500 2.743800
1.171600 2.836900
1.185700 2.952900
1.199700 3.092300
1.213800 3.300900
1.227800 3.782600
1.241900 3.099100
1.255900 2.831900
1.270000 2.610500
1.284000 2.465700
1.298100 2.390400
1.312100 2.322200
1.326200 2.296200
1.340300 2.335200
1.354300 2.258200
1.368400 2.195600
1.382400 2.181200
1.396500 2.171900
1.410500 2.170100
1.424600 2.139900
1.438600 2.088500
1.452700 2.064700
1.466700 2.075300
1.480800 2.080100
1.494900 2.093000
1.508900 2.107000
1.523000 2.104400
1.537000 2.103700
1.551100 2.088200
1.565100 2.063000
1.579200 2.021100
1.593200 1.989100
1.607300 1.968100
1.621300 1.935400
1.635400 1.893300
1.649500 1.853000
1.663500 1.810400
1.677600 1.770800
1.691600 1.729500
1.705700 1.685600
1.719700 1.650500
1.733800 1.625000
1.747800 1.588100
1.761900 1.537800
1.775900 1.485300
1.790000 1.443000
1.804100 1.401500
1.818100 1.362300
1.832200 1.333600
1.846200 1.291100
1.860300 1.356100
1.874300 1.356700
1.888400 1.295200
1.902400 1.294100
1.916500 1.266200
1.930500 1.286100
1.944600 1.314700
1.958700 1.350400
1.972700 1.385900
1.986800 1.421300
2.000800 1.485600
2.014900 1.558100
2.028900 1.635600
2.043000 1.728800
2.057000 1.836000
2.071100 1.971600
2.085100 2.139500
2.099200 2.310900
2.113300 2.499300
2.127300 2.732600
2.141400 2.990100
2.155400 3.211700
2.169500 3.459800
2.183500 3.839300
2.197600 4.129600
2.211600 4.456800
2.225700 4.795900
2.239700 5.137700
2.253800 5.591000
2.267900 6.140500
2.281900 6.806500
2.296000 7.392000
2.310000 7.555000
2.324100 7.120800
2.338100 6.752100
2.352200 6.390400
2.366200 5.998100
2.380300 5.729000
2.394300 5.945200
2.408400 6.230300
2.422500 6.700100
2.436500 7.132200
2.450600 7.303100
2.464600 8.137400
2.478700 9.258400
2.492700 10.781100
2.506800 13.114300
2.520800 13.729200
2.534900 14.079600
2.548900 14.463700
2.563000 13.062300
2.577100 11.914700
2.591100 10.417000
2.605200 8.380400
2.619200 6.685500
2.633300 6.398200
2.647300 7.032100
2.661400 7.803100
2.675400 7.723600
2.689500 8.059800
2.703500 7.924100
2.717600 7.770100
2.731700 8.601300
2.745700 8.939800
2.759800 8.604500
2.773800 9.281700
2.787900 9.746200
2.801900 9.453200
2.816000 9.135100
2.830000 9.053500
2.844100 8.926400
2.858100 8.991800
2.872200 9.001700
2.886300 9.582800
2.900300 9.824600
2.914400 10.576200
2.928400 10.435100
2.942500 9.957500
2.956500 9.867300
2.970600 9.978700
2.984600 10.483600
2.998700 10.591700
3.012700 10.072000
3.026800 9.052400
3.040900 8.918100
3.054900 8.217300
3.069000 7.750100
3.083000 7.300700
3.097100 6.466300
3.111100 6.216400
3.125200 6.418600
3.139200 6.478100
3.153300 6.171100
3.167300 5.950700
3.181400 6.212100
