set title 'mp-569423 - Density of States'
set xlabel 'Energy (eV)'
set ylabel 'DOS (states/eV)'
set grid
set xrange [-10:10]
set yrange [0:5.198]
set xzeroaxis lt -1
set terminal png size 800,600
set output 'mp-569423_dos_gnuplot.png'
plot '-' using 1:2 with lines title 'DOS'
-13.191300 0.000000
-13.173700 0.000000
-13.156100 0.000000
-13.138500 0.000000
-13.120800 0.000000
-13.103200 0.000000
-13.085600 0.000000
-13.068000 0.000000
-13.050400 0.000000
-13.032800 0.000000
-13.015100 0.000000
-12.997500 0.000000
-12.979900 0.000000
-12.962300 0.000000
-12.944700 0.000000
-12.927000 0.000000
-12.909400 0.000000
-12.891800 0.000000
-12.874200 0.000000
-12.856600 0.000000
-12.839000 0.000000
-12.821300 0.000000
-12.803700 0.000000
-12.786100 0.000000
-12.768500 0.000000
-12.750900 0.000000
-12.733200 0.000000
-12.715600 0.000000
-12.698000 0.000000
-12.680400 0.000000
-12.662800 0.000000
-12.645100 0.000000
-12.627500 0.000000
-12.609900 0.000000
-12.592300 0.000000
-12.574700 0.000000
-12.557100 0.000000
-12.539400 0.000000
-12.521800 0.000000
-12.504200 0.000000
-12.486600 0.000000
-12.469000 0.000000
-12.451300 0.000000
-12.433700 0.000000
-12.416100 0.000000
-12.398500 0.000000
-12.380900 0.000000
-12.363200 0.000000
-12.345600 0.000000
-12.328000 0.000000
-12.310400 0.000000
-12.292800 0.000000
-12.275200 0.000000
-12.257500 0.000000
-12.239900 0.000000
-12.222300 0.000000
-12.204700 0.000000
-12.187100 0.000000
-12.169400 0.000000
-12.151800 0.000000
-12.134200 0.000000
-12.116600 0.000000
-12.099000 0.000000
-12.081300 0.000000
-12.063700 0.000000
-12.046100 0.000000
-12.028500 0.000000
-12.010900 0.000000
-11.993300 0.000000
-11.975600 0.000000
-11.958000 0.000000
-11.940400 0.000000
-11.922800 0.000000
-11.905200 0.000000
-11.887500 0.000000
-11.869900 0.000000
-11.852300 0.000000
-11.834700 0.000000
-11.817100 0.000000
-11.799500 0.000000
-11.781800 0.000000
-11.764200 0.000000
-11.746600 0.000000
-11.729000 0.000000
-11.711400 0.000000
-11.693700 0.000000
-11.676100 0.000000
-11.658500 0.000000
-11.640900 0.000000
-11.623300 0.000000
-11.605600 0.000000
-11.588000 37.108800
-11.570400 114.230500
-11.552800 101.151700
-11.535200 143.084700
-11.517600 119.271800
-11.499900 235.596600
-11.482300 118.372500
-11.464700 146.554600
-11.447100 205.628900
-11.429500 82.503000
-11.411800 138.048700
-11.394200 157.720900
-11.376600 71.707900
-11.359000 90.653800
-11.341400 154.158800
-11.323700 206.961300
-11.306100 236.103100
-11.288500 106.930300
-11.270900 136.062600
-11.253300 65.926800
-11.235700 120.770700
-11.218000 200.720000
-11.200400 324.715300
-11.182800 0.000000
-11.165200 0.000000
-11.147600 0.000000
-11.129900 0.000000
-11.112300 0.000000
-11.094700 0.000000
-11.077100 0.000000
-11.059500 0.000000
-11.041900 0.000000
-11.024200 0.000000
-11.006600 0.000000
-10.989000 0.000000
-10.971400 0.000000
-10.953800 0.000000
-10.936100 0.000000
-10.918500 0.000000
-10.900900 0.000000
-10.883300 0.000000
-10.865700 0.000000
-10.848000 0.000000
-10.830400 0.000000
-10.812800 0.000000
-10.795200 0.000000
-10.777600 0.000000
-10.760000 0.000000
-10.742300 0.000000
-10.724700 0.000000
-10.707100 0.000000
-10.689500 0.000000
-10.671900 0.000000
-10.654200 0.000000
-10.636600 0.000000
-10.619000 0.000000
-10.601400 0.000000
-10.583800 0.000000
-10.566100 0.000000
-10.548500 0.000000
-10.530900 0.000000
-10.513300 0.000000
-10.495700 0.000000
-10.478100 0.000000
-10.460400 0.000000
-10.442800 0.000000
-10.425200 0.000000
-10.407600 0.000000
-10.390000 0.000000
-10.372300 0.000000
-10.354700 0.000000
-10.337100 0.000000
-10.319500 0.000000
-10.301900 0.000000
-10.284300 0.000000
-10.266600 0.000000
-10.249000 0.000000
-10.231400 0.000000
-10.213800 0.000000
-10.196200 0.000000
-10.178500 0.000000
-10.160900 0.000000
-10.143300 0.000000
-10.125700 0.000000
-10.108100 0.000000
-10.090400 0.000000
-10.072800 0.000000
-10.055200 0.000000
-10.037600 0.000000
-10.020000 0.000000
-10.002400 0.000000
-9.984700 0.000000
-9.967100 0.000000
-9.949500 0.000000
-9.931900 0.000000
-9.914300 0.000000
-9.896600 0.000000
-9.879000 0.000000
-9.861400 0.000000
-9.843800 0.000000
-9.826200 0.000000
-9.808500 0.000000
-9.790900 0.000000
-9.773300 0.000000
-9.755700 0.000000
-9.738100 0.000000
-9.720500 0.000000
-9.702800 0.000000
-9.685200 0.000000
-9.667600 0.000000
-9.650000 0.000000
-9.632400 0.000000
-9.614700 0.000000
-9.597100 0.000000
-9.579500 0.000000
-9.561900 0.000000
-9.544300 0.000000
-9.526700 0.000000
-9.509000 0.000000
-9.491400 0.000000
-9.473800 0.000000
-9.456200 0.000000
-9.438600 0.000000
-9.420900 0.000000
-9.403300 0.000000
-9.385700 0.000000
-9.368100 0.000000
-9.350500 0.000000
-9.332800 0.000000
-9.315200 0.000000
-9.297600 0.000000
-9.280000 0.000000
-9.262400 0.000000
-9.244800 0.000000
-9.227100 0.000000
-9.209500 0.000000
-9.191900 0.000000
-9.174300 0.000000
-9.156700 0.000000
-9.139000 0.000000
-9.121400 0.000000
-9.103800 0.000000
-9.086200 0.000000
-9.068600 0.000000
-9.050900 0.000000
-9.033300 0.000000
-9.015700 0.000000
-8.998100 0.000000
-8.980500 0.000000
-8.962900 0.000000
-8.945200 0.000000
-8.927600 0.000000
-8.910000 0.000000
-8.892400 0.000000
-8.874800 0.000000
-8.857100 0.000000
-8.839500 0.000000
-8.821900 0.000000
-8.804300 0.000000
-8.786700 0.000000
-8.769100 0.000000
-8.751400 0.000000
-8.733800 0.000000
-8.716200 0.000000
-8.698600 0.000000
-8.681000 0.000000
-8.663300 0.000000
-8.645700 0.000000
-8.628100 0.000000
-8.610500 0.000000
-8.592900 0.000000
-8.575200 0.000000
-8.557600 0.000000
-8.540000 0.000000
-8.522400 0.000000
-8.504800 0.000000
-8.487200 0.000000
-8.469500 0.000000
-8.451900 0.000000
-8.434300 0.000000
-8.416700 0.000000
-8.399100 0.000000
-8.381400 0.000000
-8.363800 0.000000
-8.346200 0.000000
-8.328600 0.000000
-8.311000 0.000000
-8.293300 0.000000
-8.275700 0.000000
-8.258100 0.000000
-8.240500 0.000000
-8.222900 0.000000
-8.205300 0.000000
-8.187600 0.000000
-8.170000 0.000000
-8.152400 0.000000
-8.134800 0.000000
-8.117200 0.000000
-8.099500 0.000000
-8.081900 0.000000
-8.064300 0.000000
-8.046700 0.000000
-8.029100 0.000000
-8.011500 0.000000
-7.993800 0.000000
-7.976200 0.000000
-7.958600 0.000000
-7.941000 0.000000
-7.923400 0.000000
-7.905700 0.000000
-7.888100 0.000000
-7.870500 0.000000
-7.852900 0.000000
-7.835300 0.000000
-7.817600 0.000000
-7.800000 0.000000
-7.782400 0.000000
-7.764800 0.000000
-7.747200 0.000000
-7.729600 0.000000
-7.711900 0.000000
-7.694300 0.000000
-7.676700 0.000000
-7.659100 0.000000
-7.641500 0.000000
-7.623800 0.000000
-7.606200 0.000000
-7.588600 0.000000
-7.571000 0.000000
-7.553400 0.000000
-7.535700 0.000000
-7.518100 0.000000
-7.500500 0.096500
-7.482900 0.132300
-7.465300 0.162900
-7.447700 0.188100
-7.430000 0.208000
-7.412400 0.246800
-7.394800 0.279700
-7.377200 0.304200
-7.359600 0.320500
-7.341900 0.298400
-7.324300 0.313600
-7.306700 0.329200
-7.289100 0.345200
-7.271500 0.361700
-7.253900 0.378600
-7.236200 0.395900
-7.218600 0.413600
-7.201000 0.431800
-7.183400 0.450400
-7.165800 0.452500
-7.148100 0.464400
-7.130500 0.474600
-7.112900 0.482900
-7.095300 0.488900
-7.077700 0.492100
-7.060000 0.496600
-7.042400 0.502400
-7.024800 0.509500
-7.007200 0.519000
-6.989600 0.530400
-6.972000 0.542000
-6.954300 0.554000
-6.936700 0.566400
-6.919100 0.579100
-6.901500 0.592100
-6.883900 0.605500
-6.866200 0.619200
-6.848600 0.622200
-6.831000 0.626600
-6.813400 0.630900
-6.795800 0.635100
-6.778100 0.639200
-6.760500 0.644000
-6.742900 0.650300
-6.725300 0.656600
-6.707700 0.662800
-6.690100 0.668900
-6.672400 0.675500
-6.654800 0.682600
-6.637200 0.689800
-6.619600 0.697200
-6.602000 0.704600
-6.584300 0.712200
-6.566700 0.719900
-6.549100 0.727800
-6.531500 0.735800
-6.513900 0.744000
-6.496300 0.752900
-6.478600 0.761300
-6.461000 0.769200
-6.443400 0.776700
-6.425800 0.783500
-6.408200 0.789400
-6.390500 0.794400
-6.372900 0.798300
-6.355300 0.801300
-6.337700 0.805600
-6.320100 0.810900
-6.302400 0.816000
-6.284800 0.821000
-6.267200 0.825800
-6.249600 0.830500
-6.232000 0.835000
-6.214400 0.839500
-6.196700 0.843700
-6.179100 0.848200
-6.161500 0.854000
-6.143900 0.860400
-6.126300 0.867400
-6.108600 0.875000
-6.091000 0.882700
-6.073400 0.890600
-6.055800 0.898900
-6.038200 0.907700
-6.020500 0.917000
-6.002900 0.923000
-5.985300 0.932000
-5.967700 0.941400
-5.950100 0.951200
-5.932500 0.961300
-5.914800 0.971800
-5.897200 0.982700
-5.879600 0.993900
-5.862000 1.005500
-5.844400 1.030500
-5.826700 1.041600
-5.809100 1.053100
-5.791500 1.065000
-5.773900 1.077100
-5.756300 1.090000
-5.738600 1.105600
-5.721000 1.124500
-5.703400 1.146500
-5.685800 1.171700
-5.668200 1.209800
-5.650600 1.208500
-5.632900 1.205300
-5.615300 1.200400
-5.597700 1.193600
-5.580100 1.185000
-5.562500 1.174600
-5.544800 1.162300
-5.527200 1.148200
-5.509600 1.147500
-5.492000 1.116500
-5.474400 1.085000
-5.456800 1.053200
-5.439100 1.021000
-5.421500 0.991300
-5.403900 0.969400
-5.386300 0.954900
-5.368700 0.947800
-5.351000 0.948000
-5.333400 0.949200
-5.315800 0.951400
-5.298200 0.954500
-5.280600 0.958400
-5.262900 0.963200
-5.245300 0.968800
-5.227700 0.975200
-5.210100 0.982500
-5.192500 0.990700
-5.174900 1.135200
-5.157200 1.103200
-5.139600 1.073400
-5.122000 1.045800
-5.104400 1.020400
-5.086800 1.001000
-5.069100 0.988900
-5.051500 0.984000
-5.033900 0.986100
-5.016300 0.995200
-4.998700 0.982900
-4.981000 1.011700
-4.963400 1.041900
-4.945800 1.073400
-4.928200 1.106200
-4.910600 1.140500
-4.893000 1.176000
-4.875300 1.213000
-4.857700 1.251200
-4.840100 1.246900
-4.822500 1.254300
-4.804900 1.261000
-4.787200 1.267000
-4.769600 1.272500
-4.752000 1.275000
-4.734400 1.272000
-4.716800 1.263600
-4.699200 1.249800
-4.681500 1.221100
-4.663900 1.235400
-4.646300 1.248700
-4.628700 1.260800
-4.611100 1.271900
-4.593400 1.282000
-4.575800 1.290900
-4.558200 1.298800
-4.540600 1.305500
-4.523000 1.311200
-4.505300 1.310600
-4.487700 1.307800
-4.470100 1.304500
-4.452500 1.300600
-4.434900 1.296200
-4.417300 1.298600
-4.399600 1.335000
-4.382000 1.408000
-4.364400 1.517600
-4.346800 1.450100
-4.329200 1.366200
-4.311500 1.365000
-4.293900 1.364400
-4.276300 1.364600
-4.258700 1.365400
-4.241100 1.367000
-4.223400 1.369200
-4.205800 1.372200
-4.188200 1.419500
-4.170600 1.391900
-4.153000 1.376000
-4.135400 1.354100
-4.117700 1.326200
-4.100100 1.325700
-4.082500 1.355600
-4.064900 1.378700
-4.047300 1.394800
-4.029600 1.403900
-4.012000 1.385300
-3.994400 1.384700
-3.976800 1.384500
-3.959200 1.384900
-3.941600 1.385700
-3.923900 1.386900
-3.906300 1.388700
-3.888700 1.390900
-3.871100 1.393600
-3.853500 1.393700
-3.835800 1.368200
-3.818200 1.372500
-3.800600 1.377100
-3.783000 1.381800
-3.765400 1.390800
-3.747700 1.398100
-3.730100 1.405000
-3.712500 1.411400
-3.694900 1.417600
-3.677300 1.423100
-3.659700 1.428000
-3.642000 1.432600
-3.624400 1.436800
-3.606800 1.440500
-3.589200 1.443900
-3.571600 1.446900
-3.553900 1.449500
-3.536300 1.451700
-3.518700 1.595800
-3.501100 1.590600
-3.483500 1.586200
-3.465800 1.582600
-3.448200 1.580000
-3.430600 1.580800
-3.413000 1.579500
-3.395400 1.573600
-3.377800 1.563000
-3.360100 1.592800
-3.342500 1.587000
-3.324900 1.599800
-3.307300 1.614300
-3.289700 1.630600
-3.272000 1.648800
-3.254400 1.668800
-3.236800 1.690500
-3.219200 1.714100
-3.201600 1.739500
-3.184000 1.653600
-3.166300 1.646600
-3.148700 1.640000
-3.131100 1.633700
-3.113500 1.629400
-3.095900 1.625300
-3.078200 1.620200
-3.060600 1.611400
-3.043000 1.599100
-3.025400 1.587600
-3.007800 1.587200
-2.990100 1.587400
-2.972500 1.588000
-2.954900 1.589300
-2.937300 1.591000
-2.919700 1.593300
-2.902100 1.596100
-2.884400 1.599400
-2.866800 1.604800
-2.849200 1.615000
-2.831600 1.624300
-2.814000 1.632600
-2.796300 1.640000
-2.778700 1.644000
-2.761100 1.645400
-2.743500 1.645800
-2.725900 1.649700
-2.708200 1.650700
-2.690600 1.660700
-2.673000 1.650100
-2.655400 1.647700
-2.637800 1.645400
-2.620200 1.643100
-2.602500 1.640900
-2.584900 1.638700
-2.567300 1.636500
-2.549700 1.634400
-2.532100 1.694200
-2.514400 1.701900
-2.496800 1.703000
-2.479200 1.697800
-2.461600 1.686600
-2.444000 1.718000
-2.426400 1.756000
-2.408700 1.787500
-2.391100 1.827800
-2.373500 1.792400
-2.355900 1.806400
-2.338300 1.820900
-2.320600 1.836000
-2.303000 1.851600
-2.285400 1.867900
-2.267800 1.884900
-2.250200 1.902500
-2.232500 1.929900
-2.214900 1.939400
-2.197300 1.948200
-2.179700 1.959200
-2.162100 1.977000
-2.144500 2.010700
-2.126800 2.044700
-2.109200 2.085900
-2.091600 2.130400
-2.074000 2.170600
-2.056400 2.209300
-2.038700 2.246500
-2.021100 2.282200
-2.003500 2.316400
-1.985900 2.349200
-1.968300 2.380600
-1.950600 2.410500
-1.933000 2.438900
-1.915400 2.439300
-1.897800 2.464000
-1.880200 2.492900
-1.862600 2.521900
-1.844900 2.550500
-1.827300 2.577200
-1.809700 2.563700
-1.792100 2.551400
-1.774500 2.556900
-1.756800 2.567900
-1.739200 2.576500
-1.721600 2.579800
-1.704000 2.577700
-1.686400 2.570400
-1.668800 2.559500
-1.651100 2.549500
-1.633500 2.533100
-1.615900 2.513600
-1.598300 2.523300
-1.580700 2.498100
-1.563000 2.452200
-1.545400 2.387300
-1.527800 2.266900
-1.510200 2.123500
-1.492600 2.006300
-1.474900 1.910700
-1.457300 1.828200
-1.439700 1.764500
-1.422100 1.699100
-1.404500 1.612300
-1.386900 1.545000
-1.369200 1.485800
-1.351600 1.428300
-1.334000 1.361200
-1.316400 1.292300
-1.298800 1.230500
-1.281100 1.178400
-1.263500 1.145500
-1.245900 1.136900
-1.228300 1.130700
-1.210700 1.127000
-1.193000 1.125700
-1.175400 1.126800
-1.157800 1.130400
-1.140200 1.090100
-1.122600 1.085900
-1.105000 1.082900
-1.087300 1.081000
-1.069700 1.080200
-1.052100 1.074600
-1.034500 1.073300
-1.016900 1.073000
-0.999200 1.090700
-0.981600 1.113500
-0.964000 1.283400
-0.946400 1.192800
-0.928800 1.372800
-0.911200 1.136300
-0.893500 1.161900
-0.875900 1.202300
-0.858300 1.280200
-0.840700 1.367000
-0.823100 1.462500
-0.805400 1.574500
-0.787800 1.765100
-0.770200 1.841900
-0.752600 1.911100
-0.735000 1.941100
-0.717300 1.964900
-0.699700 1.982600
-0.682100 1.995700
-0.664500 2.017100
-0.646900 2.013500
-0.629300 1.986500
-0.611600 1.969500
-0.594000 1.949700
-0.576400 1.927500
-0.558800 1.893700
-0.541200 1.873600
-0.523500 1.817000
-0.505900 1.815400
-0.488300 1.825800
-0.470700 1.822000
-0.453100 1.808700
-0.435400 1.773800
-0.417800 1.744300
-0.400200 1.713200
-0.382600 1.688000
-0.365000 1.669700
-0.347400 1.682400
-0.329700 1.696400
-0.312100 1.732400
-0.294500 1.749200
-0.276900 1.767100
-0.259300 1.787000
-0.241600 1.807000
-0.224000 1.833700
-0.206400 1.864900
-0.188800 1.898700
-0.171200 1.935800
-0.153600 1.978200
-0.135900 2.030900
-0.118300 2.097800
-0.100700 2.171700
-0.083100 2.250100
-0.065500 2.337800
-0.047800 2.437400
-0.030200 2.549600
-0.012600 2.654100
0.005000 2.716900
0.022600 2.765100
0.040300 2.797300
0.057900 2.823000
0.075500 2.841200
0.093100 2.850100
0.110700 2.844400
0.128300 2.818100
0.146000 2.792900
0.163600 2.758800
0.181200 2.795000
0.198800 2.779800
0.216400 2.698100
0.234100 3.301400
0.251700 2.056700
0.269300 1.943900
0.286900 1.855600
0.304500 1.771900
0.322200 1.640700
0.339800 1.576900
0.357400 1.514800
0.375000 1.411500
0.392600 1.387300
0.410200 1.368600
0.427900 1.345900
0.445500 1.319200
0.463100 1.288400
0.480700 1.260900
0.498300 1.229800
0.516000 1.201600
0.533600 1.176200
0.551200 1.156000
0.568800 1.118200
0.586400 1.109100
0.604100 1.100500
0.621700 1.094500
0.639300 1.090200
0.656900 1.087800
0.674500 1.087200
0.692100 1.087300
0.709800 1.104200
0.727400 1.123900
0.745000 1.154100
0.762600 1.188200
0.780200 1.221400
0.797900 1.271400
0.815500 1.331600
0.833100 1.565400
0.850700 1.667000
0.868300 1.765100
0.885900 1.860100
0.903600 1.951600
0.921200 2.039000
0.938800 2.154500
0.956400 2.219600
0.974000 2.275800
0.991700 2.323200
1.009300 2.361700
1.026900 2.391400
1.044500 2.415900
1.062100 2.381100
1.079800 2.364000
1.097400 2.347800
1.115000 2.361300
1.132600 2.347000
1.150200 2.333300
1.167800 2.319400
1.185500 2.302500
1.203100 2.283300
1.220700 2.261900
1.238300 2.238200
1.255900 2.212600
1.273600 2.186900
1.291200 2.193700
1.308800 2.162900
1.326400 2.091600
1.344000 2.081800
1.361700 2.225800
1.379300 2.354500
1.396900 2.466700
1.414500 2.688500
1.432100 2.739500
1.449700 2.482700
1.467400 2.371500
1.485000 2.126200
1.502600 2.116800
1.520200 2.105400
1.537800 2.094100
1.555500 2.084400
1.573100 2.077300
1.590700 2.070600
1.608300 2.382000
1.625900 2.279700
1.643500 1.995500
1.661200 1.947700
1.678800 1.923700
1.696400 1.925500
1.714000 1.931500
1.731600 1.941400
1.749300 1.958800
1.766900 1.970000
1.784500 1.983200
1.802100 1.998500
1.819700 2.015700
1.837400 2.173600
1.855000 2.241600
1.872600 2.322100
1.890200 2.410300
1.907800 2.497100
1.925400 2.565000
1.943100 2.616200
1.960700 2.650800
1.978300 2.621000
1.995900 2.604100
2.013500 2.592400
2.031200 2.566900
2.048800 2.533500
2.066400 2.447100
2.084000 2.440500
2.101600 2.434800
2.119300 2.430200
2.136900 2.447800
2.154500 2.447300
2.172100 2.447000
2.189700 2.446900
2.207300 2.448100
2.225000 2.511000
2.242600 2.610500
2.260200 2.647400
2.277800 2.666000
2.295400 2.663000
2.313100 2.655200
2.330700 2.642700
2.348300 2.632700
2.365900 2.588600
2.383500 2.588200
2.401100 2.590400
2.418800 2.595100
2.436400 2.602500
2.454000 2.691900
2.471600 2.689200
2.489200 2.660600
2.506900 2.616500
2.524500 2.565300
2.542100 2.729600
2.559700 2.768700
2.577300 2.547400
2.595000 2.425100
2.612600 2.319900
2.630200 2.233800
2.647800 2.158600
2.665400 2.041500
2.683000 1.966100
2.700700 1.931300
2.718300 1.910500
2.735900 1.916200
2.753500 1.929300
2.771100 1.933000
2.788800 1.920000
2.806400 1.884600
2.824000 1.988600
2.841600 1.990800
2.859200 2.006800
2.876900 2.051300
2.894500 2.094800
2.912100 2.126600
2.929700 2.143600
2.947300 2.110400
2.964900 2.047600
2.982600 2.072100
3.000200 2.102100
3.017800 2.130300
3.035400 2.137800
3.053000 2.166200
3.070700 2.194000
3.088300 2.230600
3.105900 2.301700
3.123500 2.407700
3.141100 2.467000
3.158700 2.525300
3.176400 2.586200
3.194000 2.632300
3.211600 2.707800
3.229200 2.761200
3.246800 2.807000
3.264500 2.876300
3.282100 2.962400
3.299700 3.025700
3.317300 3.120400
3.334900 3.324600
3.352600 3.222100
3.370200 3.181200
3.387800 3.120800
3.405400 3.040900
3.423000 2.764200
3.440600 2.715600
3.458300 2.660800
3.475900 2.599500
3.493500 2.523300
3.511100 2.413900
3.528700 2.343500
3.546400 2.347800
3.564000 2.351700
3.581600 2.488900
3.599200 2.335300
3.616800 2.324900
3.634500 2.315900
3.652100 2.308300
3.669700 2.317300
3.687300 2.318200
3.704900 2.308500
3.722500 2.297800
3.740200 2.286100
3.757800 2.269000
3.775400 2.263000
3.793000 2.204700
3.810600 2.188500
3.828300 2.172500
3.845900 2.156700
3.863500 2.141100
3.881100 2.125800
3.898700 2.113100
3.916300 2.096500
3.934000 2.108000
3.951600 2.119800
3.969200 2.132000
3.986800 2.144600
4.004400 2.159700
4.022100 2.185900
4.039700 2.187000
4.057300 2.197000
4.074900 2.207400
4.092500 2.222000
4.110200 2.270200
4.127800 2.349600
4.145400 2.448000
4.163000 2.484400
4.180600 2.519500
4.198200 2.553400
4.215900 2.663100
4.233500 2.603600
4.251100 2.585800
4.268700 2.712900
4.286300 2.795800
4.304000 2.957200
4.321600 3.061800
4.339200 3.153900
4.356800 3.241100
4.374400 3.117900
4.392100 3.124100
4.409700 3.110200
4.427300 3.006700
4.444900 2.949100
4.462500 2.864800
4.480100 2.831100
4.497800 2.778000
4.515400 2.776500
4.533000 2.777100
4.550600 2.780000
4.568200 2.786400
4.585900 2.804100
4.603500 2.780000
4.621100 2.750600
4.638700 2.908300
4.656300 2.805300
4.673900 2.716200
4.691600 2.640600
4.709200 2.578000
4.726800 2.529700
4.744400 2.496400
4.762000 2.570900
4.779700 2.571800
4.797300 2.607000
4.814900 2.639400
4.832500 2.624400
4.850100 2.562800
4.867800 2.513000
4.885400 2.460500
4.903000 2.405400
4.920600 2.347700
4.938200 2.288500
4.955800 2.246500
4.973500 2.208400
4.991100 2.171500
5.008700 2.135700
5.026300 2.100900
5.043900 2.067300
5.061600 2.034700
5.079200 2.003900
5.096800 1.974700
5.114400 1.915500
5.132000 1.906300
