set title 'mp-1219457 - Density of States'
set xlabel 'Energy (eV)'
set ylabel 'DOS (states/eV)'
set grid
set xrange [-10:10]
set yrange [0:2.185]
set xzeroaxis lt -1
set terminal png size 800,600
set output 'mp-1219457_dos_gnuplot.png'
plot '-' using 1:2 with lines title 'DOS'
-10.087300 0.000000
-10.057600 0.000000
-10.027900 0.000000
-9.998300 0.000000
-9.968600 0.000000
-9.938900 0.000000
-9.909300 0.000000
-9.879600 0.000000
-9.849900 0.000000
-9.820300 0.000000
-9.790600 0.000000
-9.761000 0.000000
-9.731300 0.000000
-9.701600 0.000000
-9.672000 0.000000
-9.642300 0.000000
-9.612600 0.000000
-9.583000 0.000000
-9.553300 0.000000
-9.523600 0.000000
-9.494000 0.000000
-9.464300 0.000000
-9.434600 0.000000
-9.405000 0.000000
-9.375300 0.000000
-9.345700 0.000000
-9.316000 0.000000
-9.286300 0.000000
-9.256700 0.000000
-9.227000 0.000000
-9.197300 0.000000
-9.167700 0.000000
-9.138000 0.000000
-9.108300 0.000000
-9.078700 0.000000
-9.049000 0.000000
-9.019300 0.000000
-8.989700 0.000000
-8.960000 0.000000
-8.930400 0.000000
-8.900700 0.000000
-8.871000 0.000000
-8.841400 0.000000
-8.811700 0.000000
-8.782000 0.000000
-8.752400 0.000000
-8.722700 0.000000
-8.693000 0.000000
-8.663400 0.000000
-8.633700 0.000000
-8.604000 0.000000
-8.574400 0.000000
-8.544700 0.000000
-8.515100 0.000000
-8.485400 0.000000
-8.455700 0.000000
-8.426100 0.000000
-8.396400 0.000000
-8.366700 0.000000
-8.337100 0.000000
-8.307400 0.000000
-8.277700 0.000000
-8.248100 0.000000
-8.218400 0.000000
-8.188700 0.000000
-8.159100 0.000000
-8.129400 0.000000
-8.099800 0.000000
-8.070100 0.000000
-8.040400 0.000000
-8.010800 0.000000
-7.981100 0.000000
-7.951400 0.000000
-7.921800 0.000000
-7.892100 0.000000
-7.862400 0.000000
-7.832800 0.000000
-7.803100 0.000000
-7.773400 0.000000
-7.743800 0.000000
-7.714100 0.000000
-7.684500 0.000000
-7.654800 0.000000
-7.625100 0.000000
-7.595500 0.000000
-7.565800 0.000000
-7.536100 0.000000
-7.506500 0.000000
-7.476800 0.000000
-7.447100 0.000000
-7.417500 0.000000
-7.387800 0.000300
-7.358100 0.036700
-7.328500 0.121700
-7.298800 0.124600
-7.269200 0.150900
-7.239500 0.179400
-7.209800 0.204300
-7.180200 0.221100
-7.150500 0.233000
-7.120800 0.247300
-7.091200 0.264400
-7.061500 0.281900
-7.031800 0.297400
-7.002200 0.311400
-6.972500 0.327100
-6.942800 0.338500
-6.913200 0.351000
-6.883500 0.363300
-6.853900 0.375800
-6.824200 0.389100
-6.794500 0.401700
-6.764900 0.414800
-6.735200 0.428000
-6.705500 0.441300
-6.675900 0.455100
-6.646200 0.468200
-6.616500 0.479800
-6.586900 0.492100
-6.557200 0.505000
-6.527500 0.518100
-6.497900 0.531500
-6.468200 0.545600
-6.438600 0.560100
-6.408900 0.575100
-6.379200 0.590800
-6.349600 0.607000
-6.319900 0.623800
-6.290200 0.641000
-6.260600 0.657800
-6.230900 0.675400
-6.201200 0.699000
-6.171600 0.727900
-6.141900 0.761800
-6.112200 0.815800
-6.082600 0.831700
-6.052900 0.827200
-6.023300 0.844900
-5.993600 0.858500
-5.963900 0.857000
-5.934300 0.860800
-5.904600 0.872900
-5.874900 0.885300
-5.845300 0.895600
-5.815600 0.905000
-5.785900 0.914000
-5.756300 0.924100
-5.726600 0.937300
-5.696900 0.950800
-5.667300 0.968100
-5.637600 0.986600
-5.608000 1.006400
-5.578300 1.027600
-5.548600 1.048100
-5.519000 1.071200
-5.489300 1.099700
-5.459600 1.131900
-5.430000 1.170800
-5.400300 1.218300
-5.370600 1.276900
-5.341000 1.373200
-5.311300 1.463400
-5.281600 1.578100
-5.252000 1.662400
-5.222300 1.773300
-5.192700 1.845300
-5.163000 1.894500
-5.133300 1.964800
-5.103700 1.663500
-5.074000 1.397000
-5.044300 1.300800
-5.014700 1.144200
-4.985000 1.044500
-4.955300 1.081200
-4.925700 1.019700
-4.896000 0.891100
-4.866300 0.788200
-4.836700 0.578700
-4.807000 0.140600
-4.777400 0.000000
-4.747700 0.000000
-4.718000 0.000000
-4.688400 0.000000
-4.658700 0.000000
-4.629000 0.000000
-4.599400 0.000000
-4.569700 0.000000
-4.540000 0.000000
-4.510400 0.000000
-4.480700 0.000000
-4.451000 0.000000
-4.421400 0.000000
-4.391700 0.000000
-4.362100 0.000000
-4.332400 0.000000
-4.302700 0.000000
-4.273100 0.000000
-4.243400 0.000000
-4.213700 0.000000
-4.184100 0.000000
-4.154400 0.000000
-4.124700 0.000000
-4.095100 0.000000
-4.065400 0.000000
-4.035700 0.000000
-4.006100 0.000000
-3.976400 0.000000
-3.946800 0.000000
-3.917100 0.000000
-3.887400 0.000000
-3.857800 0.000000
-3.828100 0.000000
-3.798400 0.000000
-3.768800 0.000000
-3.739100 0.000000
-3.709400 0.000000
-3.679800 0.053100
-3.650100 0.176600
-3.620400 0.189400
-3.590800 0.262400
-3.561100 0.592400
-3.531500 0.490000
-3.501800 0.554600
-3.472100 0.606600
-3.442500 0.695900
-3.412800 0.836900
-3.383100 1.672600
-3.353500 1.059600
-3.323800 1.057800
-3.294100 1.043600
-3.264500 1.026000
-3.234800 1.045800
-3.205100 1.066000
-3.175500 1.081900
-3.145800 1.075700
-3.116200 1.079600
-3.086500 1.085900
-3.056800 1.219600
-3.027200 1.189800
-2.997500 1.241700
-2.967800 1.336600
-2.938200 1.397600
-2.908500 1.449600
-2.878800 1.681600
-2.849200 1.951300
-2.819500 1.519500
-2.789800 1.386100
-2.760200 1.291900
-2.730500 1.256600
-2.700900 1.224800
-2.671200 1.175600
-2.641500 1.120300
-2.611900 1.079400
-2.582200 1.041500
-2.552500 1.006500
-2.522900 0.993400
-2.493200 0.989300
-2.463500 0.956300
-2.433900 0.921300
-2.404200 0.867000
-2.374500 0.797700
-2.344900 0.758200
-2.315200 0.726900
-2.285600 0.691900
-2.255900 0.663000
-2.226200 0.632900
-2.196600 0.604500
-2.166900 0.584600
-2.137200 0.569700
-2.107600 0.554600
-2.077900 0.539200
-2.048200 0.522800
-2.018600 0.505700
-1.988900 0.485500
-1.959200 0.465400
-1.929600 0.450800
-1.899900 0.436900
-1.870300 0.422500
-1.840600 0.406200
-1.810900 0.386500
-1.781300 0.373800
-1.751600 0.366400
-1.721900 0.359100
-1.692300 0.351700
-1.662600 0.344300
-1.632900 0.336900
-1.603300 0.329300
-1.573600 0.321400
-1.543900 0.313300
-1.514300 0.304700
-1.484600 0.295600
-1.455000 0.286200
-1.425300 0.276800
-1.395600 0.267500
-1.366000 0.256500
-1.336300 0.247500
-1.306600 0.237500
-1.277000 0.228700
-1.247300 0.223100
-1.217600 0.218400
-1.188000 0.213800
-1.158300 0.209200
-1.128600 0.204600
-1.099000 0.200000
-1.069300 0.195500
-1.039700 0.190900
-1.010000 0.186300
-0.980300 0.181500
-0.950700 0.176700
-0.921000 0.171500
-0.891300 0.166000
-0.861700 0.160200
-0.832000 0.154700
-0.802300 0.149400
-0.772700 0.144300
-0.743000 0.139300
-0.713300 0.133100
-0.683700 0.127800
-0.654000 0.124400
-0.624400 0.121100
-0.594700 0.117800
-0.565000 0.114500
-0.535400 0.111200
-0.505700 0.108000
-0.476000 0.104800
-0.446400 0.101600
-0.416700 0.098400
-0.387000 0.095300
-0.357400 0.092100
-0.327700 0.088800
-0.298000 0.085500
-0.268400 0.082100
-0.238700 0.078600
-0.209100 0.075100
-0.179400 0.071700
-0.149700 0.068500
-0.120100 0.065400
-0.090400 0.062400
-0.060700 0.059400
-0.031100 0.056500
-0.001400 0.053600
0.028300 0.050800
0.057900 0.048000
0.087600 0.045300
0.117200 0.042500
0.146900 0.039900
0.176600 0.037200
0.206200 0.034600
0.235900 0.032500
0.265600 0.033300
0.295200 0.031200
0.324900 0.023900
0.354600 0.017600
0.384200 0.012300
0.413900 0.007900
0.443600 0.004500
0.473200 0.002100
0.502900 0.000500
0.532500 0.000000
0.562200 0.000000
0.591900 0.231700
0.621500 0.733700
0.651200 0.641100
0.680900 0.640000
0.710500 0.669500
0.740200 0.731300
0.769900 0.816800
0.799500 0.753200
0.829200 0.743100
0.858900 0.762900
0.888500 0.800100
0.918200 0.862700
0.947800 0.954100
0.977500 0.998200
1.007200 0.934000
1.036800 0.908300
1.066500 0.916300
1.096200 0.904500
1.125800 0.858900
1.155500 0.810400
1.185200 0.793300
1.214800 0.787700
1.244500 0.777400
1.274200 0.792400
1.303800 0.817000
1.333500 0.812100
1.363100 0.816300
1.392800 0.820700
1.422500 0.827800
1.452100 0.836500
1.481800 0.848900
1.511500 0.866200
1.541100 0.886400
1.570800 0.902700
1.600500 0.917500
1.630100 0.932500
1.659800 0.944400
1.689500 0.952900
1.719100 0.960500
1.748800 0.971800
1.778400 0.984400
1.808100 0.998300
1.837800 1.012900
1.867400 1.027500
1.897100 1.042900
1.926800 1.058800
1.956400 1.074000
1.986100 1.090200
2.015800 1.110400
2.045400 1.129200
2.075100 1.150700
2.104800 1.177000
2.134400 1.202400
2.164100 1.226200
2.193700 1.258300
2.223400 1.299600
2.253100 1.342700
2.282700 1.390400
2.312400 1.444200
2.342100 1.509200
2.371700 1.542700
2.401400 1.505700
2.431100 1.561500
2.460700 1.577100
2.490400 1.590200
2.520100 1.584100
2.549700 1.573600
2.579400 1.567900
2.609000 1.557900
2.638700 1.548800
2.668400 1.544700
2.698000 1.542000
2.727700 1.539600
2.757400 1.537900
2.787000 1.535100
2.816700 1.525600
2.846400 1.515800
2.876000 1.515700
2.905700 1.517700
2.935400 1.522900
2.965000 1.527000
2.994700 1.527100
3.024300 1.523800
3.054000 1.526900
3.083700 1.530200
3.113300 1.533900
3.143000 1.539400
3.172700 1.545200
3.202300 1.550500
3.232000 1.557700
3.261700 1.565600
3.291300 1.576900
3.321000 1.587700
3.350700 1.592500
3.380300 1.590600
3.410000 1.582400
3.439600 1.573600
3.469300 1.568000
3.499000 1.565600
3.528600 1.563500
3.558300 1.561900
3.588000 1.561500
3.617600 1.565100
3.647300 1.575100
3.677000 1.595800
3.706600 1.627200
3.736300 1.664100
3.766000 1.692400
3.795600 1.722700
3.825300 1.725200
3.854900 1.694000
3.884600 1.625400
3.914300 1.582800
3.943900 1.512000
3.973600 1.504500
4.003300 1.516700
4.032900 1.543900
4.062600 1.537400
4.092300 1.513700
4.121900 1.493900
4.151600 1.467700
4.181300 1.417200
4.210900 1.286700
4.240600 1.244900
4.270200 1.211600
4.299900 1.183900
4.329600 1.181400
4.359200 1.180900
4.388900 1.156900
4.418600 1.127200
4.448200 1.091400
4.477900 1.074000
4.507600 1.052800
4.537200 1.035000
4.566900 1.061900
4.596600 1.110300
4.626200 1.148100
4.655900 1.174900
4.685500 1.193800
4.715200 1.198200
4.744900 1.209300
4.774500 1.224400
4.804200 1.236700
4.833900 1.220900
4.863500 1.170500
4.893200 1.102900
4.922900 1.029300
4.952500 0.955700
4.982200 0.916400
5.011900 0.911300
5.041500 0.903900
5.071200 0.893200
5.100800 0.873800
5.130500 0.840500
5.160200 0.804400
5.189800 0.778600
5.219500 0.799400
5.249200 0.855800
5.278800 0.765300
5.308500 0.726800
5.338200 0.700300
5.367800 0.671300
5.397500 0.645100
5.427200 0.616800
5.456800 0.588400
5.486500 0.564000
5.516100 0.523800
5.545800 0.474500
5.575500 0.438600
5.605100 0.431000
5.634800 0.429300
5.664500 0.423900
5.694100 0.419100
5.723800 0.597600
5.753500 0.478400
5.783100 0.370600
5.812800 0.241600
5.842500 0.120200
5.872100 0.084500
5.901800 0.069400
5.931400 0.055700
5.961100 0.043400
5.990800 0.043500
6.020400 0.049900
6.050100 0.060800
6.079800 0.075100
6.109400 0.092700
6.139100 0.113400
6.168800 0.138100
6.198400 0.166200
6.228100 0.197800
6.257800 0.233700
6.287400 0.265900
6.317100 0.272900
6.346700 0.294100
6.376400 0.321300
6.406100 0.352800
6.435700 0.396400
6.465400 0.487700
6.495100 0.574700
6.524700 0.640300
6.554400 0.759600
6.584100 0.909500
6.613700 0.983700
6.643400 1.050700
6.673100 1.089700
6.702700 1.150100
6.732400 1.230200
6.762000 1.311700
6.791700 1.391900
6.821400 1.376900
6.851000 1.413500
6.880700 1.500500
6.910400 1.482700
6.940000 1.484000
6.969700 1.511600
6.999400 1.535400
7.029000 1.654500
7.058700 1.624600
7.088400 1.569600
7.118000 1.524800
7.147700 1.496000
7.177300 1.476600
7.207000 1.469600
7.236700 1.456500
7.266300 1.442600
7.296000 1.431100
7.325700 1.420400
7.355300 1.409200
7.385000 1.399400
7.414700 1.391500
7.444300 1.384900
7.474000 1.377900
7.503700 1.371200
7.533300 1.364300
7.563000 1.358100
7.592600 1.354900
7.622300 1.353300
7.652000 1.353500
7.681600 1.355200
7.711300 1.357300
7.741000 1.360000
7.770600 1.383000
7.800300 1.417500
7.830000 1.461400
7.859600 1.511100
7.889300 1.567800
7.919000 1.626900
7.948600 1.693500
7.978300 1.826500
8.007900 1.986000
8.037600 1.874300
8.067300 1.834500
8.096900 1.835700
8.126600 1.881400
8.156300 1.872400
8.185900 1.829700
8.215600 1.871200
8.245300 1.964100
8.274900 1.946800
8.304600 1.962900
8.334300 1.932100
8.363900 1.862300
8.393600 1.741400
8.423200 1.562400
8.452900 1.391500
8.482600 1.340000
8.512200 1.284900
8.541900 1.225000
8.571600 1.138700
8.601200 1.091600
8.630900 1.057300
8.660600 1.056400
8.690200 1.060800
8.719900 1.066000
8.749600 1.077400
8.779200 1.107200
8.808900 1.168900
8.838500 1.227000
8.868200 1.261900
8.897900 1.283900
8.927500 1.286500
8.957200 1.252200
8.986900 1.217400
9.016500 1.211200
9.046200 1.249300
9.075900 1.258900
9.105500 1.272900
9.135200 1.286400
9.164900 1.300100
9.194500 1.313900
9.224200 1.342700
9.253800 1.363300
9.283500 1.353600
9.313200 1.311600
9.342800 1.278900
9.372500 1.281500
9.402200 1.337200
9.431800 1.406700
9.461500 1.441500
9.491200 1.460400
9.520800 1.471100
9.550500 1.479300
9.580200 1.503300
9.609800 1.517700
9.639500 1.518600
9.669100 1.506700
9.698800 1.484700
9.728500 1.440600
9.758100 1.365500
9.787800 1.289200
9.817500 1.233500
9.847100 1.187500
9.876800 1.149200
9.906500 1.115500
9.936100 1.087000
9.965800 1.061900
9.995500 1.028300
10.025100 0.995300
10.054800 0.962300
10.084400 0.928300
10.114100 0.900000
10.143800 0.879200
10.173400 0.860700
10.203100 0.834200
10.232800 0.822500
10.262400 0.811500
10.292100 0.800400
10.321800 0.783700
10.351400 0.759200
10.381100 0.732400
10.410800 0.758300
10.440400 0.657500
10.470100 0.631400
10.499700 0.628500
10.529400 0.627000
10.559100 0.636500
10.588700 0.661500
10.618400 0.701600
10.648100 0.748500
10.677700 0.800600
10.707400 0.857600
10.737100 0.924900
10.766700 1.046900
10.796400 1.283400
10.826100 1.453100
10.855700 1.624900
10.885400 1.620400
10.915000 1.556000
10.944700 1.510700
10.974400 1.536700
11.004000 1.519100
11.033700 1.508000
11.063400 1.516800
11.093000 1.531600
11.122700 1.525200
11.152400 1.567000
11.182000 1.512900
11.211700 1.464600
11.241400 1.439700
11.271000 1.420600
11.300700 1.408000
11.330300 1.394200
11.360000 1.387100
11.389700 1.382500
11.419300 1.383400
11.449000 1.415200
11.478700 1.395900
11.508300 1.443200
11.538000 1.503200
11.567700 1.585700
11.597300 1.668700
11.627000 1.672600
11.656700 1.589200
11.686300 1.448200
11.716000 1.357500
11.745600 1.330400
11.775300 1.313300
11.805000 1.309600
11.834600 1.326000
11.864300 1.351900
11.894000 1.391900
11.923600 1.499100
11.953300 1.483500
11.983000 1.411800
12.012600 1.418300
12.042300 1.443100
12.072000 1.441900
12.101600 1.414300
12.131300 1.374100
12.160900 1.333100
12.190600 1.321400
12.220300 1.287300
12.249900 1.264800
12.279600 1.276400
12.309300 1.261000
12.338900 1.213100
12.368600 1.146400
12.398300 1.011800
12.427900 0.968900
12.457600 0.903700
12.487300 0.821700
12.516900 0.769900
12.546600 0.751600
12.576200 0.727600
12.605900 0.698200
12.635600 0.666100
12.665200 0.667900
12.694900 0.676200
12.724600 0.688100
12.754200 0.699700
12.783900 0.705900
12.813600 0.711200
12.843200 0.719200
12.872900 0.729900
12.902600 0.741800
12.932200 0.755300
12.961900 0.833400
12.991500 0.840800
13.021200 0.875900
13.050900 0.896400
13.080500 0.914400
13.110200 0.934100
13.139900 0.945600
13.169500 0.949200
13.199200 0.952700
13.228900 0.968200
13.258500 0.989700
13.288200 1.007600
13.317900 1.012100
13.347500 1.012600
13.377200 1.013600
13.406800 1.015200
13.436500 1.019400
13.466200 1.025300
13.495800 1.036000
13.525500 1.061300
13.555200 1.073400
13.584800 1.097300
13.614500 1.089600
13.644200 1.044300
13.673800 1.028600
13.703500 1.022100
13.733200 1.016200
13.762800 1.014700
13.792500 1.016100
13.822100 1.018900
13.851800 1.022600
13.881500 1.029000
13.911100 1.038200
13.940800 1.052000
13.970500 1.072000
14.000100 1.093300
14.029800 1.107900
14.059500 1.119200
14.089100 1.118500
14.118800 1.112800
14.148500 1.121400
14.178100 1.127500
14.207800 1.141300
14.237400 1.157200
14.267100 1.178300
14.296800 1.200000
14.326400 1.214600
14.356100 1.220700
14.385800 1.228700
14.415400 1.239200
14.445100 1.330400
14.474800 1.358600
14.504400 1.383000
14.534100 1.411800
14.563800 1.437800
14.593400 1.459400
14.623100 1.466500
14.652700 1.460800
14.682400 1.461900
14.712100 1.471900
14.741700 1.498600
14.771400 1.510000
14.801100 1.516800
14.830700 1.503000
14.860400 1.479100
14.890100 1.491200
14.919700 1.512800
14.949400 1.537200
14.979100 1.556100
15.008700 1.581600
15.038400 1.606500
15.068000 1.620200
15.097700 1.660300
15.127400 1.678500
15.157000 1.682200
15.186700 1.700600
15.216400 1.713900
15.246000 1.721000
15.275700 1.723000
15.305400 1.724400
15.335000 1.722900
15.364700 1.742900
15.394400 1.723300
15.424000 1.716200
15.453700 1.698100
15.483300 1.690100
15.513000 1.680700
15.542700 1.672900
15.572300 1.668100
15.602000 1.671200
15.631700 1.674200
15.661300 1.674000
15.691000 1.725000
15.720700 1.754400
15.750300 1.697800
15.780000 1.669500
15.809600 1.665000
15.839300 1.616000
15.869000 1.616100
15.898600 1.643800
15.928300 1.714700
15.958000 1.793900
15.987600 1.899800
16.017300 1.987000
16.047000 2.046200
16.076600 2.071600
16.106300 2.075900
16.136000 2.075000
16.165600 2.057500
16.195300 2.042100
16.224900 2.039500
16.254600 2.037200
16.284300 2.011600
16.313900 1.978500
16.343600 1.924800
16.373300 1.933100
16.402900 1.906100
16.432600 1.912500
16.462300 1.956900
16.491900 2.001900
16.521600 1.913100
16.551300 1.853700
16.580900 1.803000
16.610600 1.730900
16.640200 1.655600
16.669900 1.589700
16.699600 1.547900
16.729200 1.533000
16.758900 1.522400
16.788600 1.545700
16.818200 1.585300
16.847900 1.648900
16.877600 1.732800
16.907200 1.834400
16.936900 1.957400
16.966600 2.103300
16.996200 2.231600
17.025900 2.311000
17.055500 2.383700
17.085200 2.520900
17.114900 2.528300
17.144500 2.634600
17.174200 2.920400
17.203900 2.910600
17.233500 2.565300
17.263200 2.215800
17.292900 2.012500
17.322500 1.864300
17.352200 1.751900
17.381900 1.681800
17.411500 1.626300
17.441200 1.515500
17.470800 1.507400
17.500500 1.486600
17.530200 1.556700
17.559800 1.633500
17.589500 1.666100
17.619200 1.703000
17.648800 1.743200
17.678500 1.775400
17.708200 1.809000
17.737800 1.838400
17.767500 1.830900
17.797200 1.865300
17.826800 1.906000
17.856500 2.034800
17.886100 2.068600
17.915800 2.027600
17.945500 1.945300
17.975100 1.925400
18.004800 1.931900
18.034500 1.941600
18.064100 1.945900
18.093800 1.869600
18.123500 1.899400
18.153100 1.972600
18.182800 1.987800
18.212500 1.917700
18.242100 1.757200
18.271800 1.632000
18.301400 1.599400
18.331100 1.588100
18.360800 1.654900
18.390400 1.604000
18.420100 1.616500
18.449800 1.589400
18.479400 1.559200
18.509100 1.544700
18.538800 1.543900
18.568400 1.571500
18.598100 1.583000
18.627800 1.619800
18.657400 1.689400
18.687100 1.762000
18.716700 1.807900
18.746400 1.871700
18.776100 1.949200
18.805700 1.973400
18.835400 2.005900
18.865100 2.027100
18.894700 2.047400
18.924400 2.078700
18.954100 2.115400
18.983700 2.162000
19.013400 2.230300
19.043100 2.277800
19.072700 2.254600
19.102400 2.158600
19.132000 2.065700
19.161700 2.017200
19.191400 1.979600
19.221000 1.965200
19.250700 1.965600
19.280400 1.969900
19.310000 1.926300
19.339700 1.867200
19.369400 1.792700
19.399000 1.753700
19.428700 1.718700
19.458400 1.766100
19.488000 1.784800
19.517700 1.855800
19.547300 1.980900
19.577000 2.027500
19.606700 2.041100
19.636300 2.022100
19.666000 2.002800
19.695700 2.037600
19.725300 2.089800
19.755000 2.105600
19.784700 2.127000
19.814300 2.147400
19.844000 2.226000
19.873700 2.274800
19.903300 2.114900
19.933000 2.030100
19.962600 2.003800
19.992300 1.983800
20.022000 1.936000
20.051600 1.882600
20.081300 1.827900
20.111000 1.777700
20.140600 1.741400
20.170300 1.716300
20.200000 1.717200
20.229600 1.742500
20.259300 1.789800
20.289000 1.846300
20.318600 1.880000
20.348300 1.912200
20.377900 1.977900
20.407600 2.034400
20.437300 2.070900
20.466900 2.136800
20.496600 2.184500
20.526300 2.211600
20.555900 2.208100
20.585600 2.235100
20.615300 2.290700
20.644900 2.304600
20.674600 2.300400
20.704300 2.251800
20.733900 2.197900
20.763600 2.162000
20.793200 2.122600
20.822900 2.095200
20.852600 2.091600
20.882200 2.162000
20.911900 2.167800
20.941600 2.240800
20.971200 2.297600
21.000900 2.364200
21.030600 2.475800
21.060200 2.387100
21.089900 2.430000
21.119600 2.452300
21.149200 2.446900
21.178900 2.425700
