set title 'mp-1178952 - Density of States'
set xlabel 'Energy (eV)'
set ylabel 'DOS (states/eV)'
set grid
set xrange [-10:10]
set yrange [0:4.690]
set xzeroaxis lt -1
set terminal png size 800,600
set output 'mp-1178952_dos_gnuplot.png'
plot '-' using 1:2 with lines title 'DOS'
-9.072300 0.000000
-9.053400 0.000000
-9.034600 0.000000
-9.015800 0.000000
-8.996900 0.000000
-8.978100 0.000000
-8.959200 0.000000
-8.940400 0.000000
-8.921600 0.000000
-8.902700 0.000000
-8.883900 0.000000
-8.865100 0.000000
-8.846200 0.000000
-8.827400 0.000000
-8.808500 0.000000
-8.789700 0.000000
-8.770900 0.000000
-8.752000 0.000000
-8.733200 0.000000
-8.714300 0.000000
-8.695500 0.000000
-8.676700 0.000000
-8.657800 0.000000
-8.639000 0.000000
-8.620100 0.000000
-8.601300 0.000000
-8.582500 0.000000
-8.563600 0.000000
-8.544800 0.000000
-8.526000 0.000000
-8.507100 0.000000
-8.488300 0.000000
-8.469400 0.000000
-8.450600 0.000000
-8.431800 0.000000
-8.412900 0.000000
-8.394100 0.000000
-8.375200 0.000000
-8.356400 0.000000
-8.337600 0.000000
-8.318700 0.000000
-8.299900 0.000000
-8.281000 0.000000
-8.262200 0.000000
-8.243400 0.000000
-8.224500 0.000000
-8.205700 0.000000
-8.186900 0.000000
-8.168000 0.000000
-8.149200 0.000000
-8.130300 0.000000
-8.111500 0.000000
-8.092700 0.000000
-8.073800 0.000000
-8.055000 0.000000
-8.036100 0.000000
-8.017300 0.000000
-7.998500 0.000000
-7.979600 0.000000
-7.960800 0.000000
-7.942000 0.000000
-7.923100 0.000000
-7.904300 0.000000
-7.885400 0.000000
-7.866600 0.000000
-7.847800 0.000000
-7.828900 0.000000
-7.810100 0.000000
-7.791200 0.000000
-7.772400 0.000000
-7.753600 0.000000
-7.734700 0.000000
-7.715900 0.000000
-7.697000 0.000000
-7.678200 0.000000
-7.659400 0.000000
-7.640500 0.000000
-7.621700 0.000000
-7.602900 0.000000
-7.584000 0.000000
-7.565200 0.000000
-7.546300 0.000000
-7.527500 0.000000
-7.508700 0.000000
-7.489800 0.000000
-7.471000 0.000000
-7.452100 0.000000
-7.433300 0.000000
-7.414500 0.000000
-7.395600 0.000000
-7.376800 0.000000
-7.358000 0.000200
-7.339100 0.028800
-7.320300 0.105800
-7.301400 0.227300
-7.282600 0.332600
-7.263800 0.389700
-7.244900 0.404100
-7.226100 0.420000
-7.207200 0.452500
-7.188400 0.499700
-7.169600 0.550600
-7.150700 0.600800
-7.131900 0.663600
-7.113000 0.765800
-7.094200 0.844200
-7.075400 0.855800
-7.056500 0.822600
-7.037700 0.799300
-7.018900 0.808500
-7.000000 0.823600
-6.981200 0.837100
-6.962300 0.849000
-6.943500 0.852300
-6.924700 0.854700
-6.905800 0.854700
-6.887000 0.852200
-6.868100 0.851800
-6.849300 0.931100
-6.830500 1.037000
-6.811600 1.109600
-6.792800 1.120200
-6.773900 1.114800
-6.755100 1.132500
-6.736300 1.162900
-6.717400 1.195700
-6.698600 1.224600
-6.679800 1.251300
-6.660900 1.278800
-6.642100 1.310400
-6.623200 1.337700
-6.604400 1.365500
-6.585600 1.401300
-6.566700 1.442100
-6.547900 1.482700
-6.529000 1.523700
-6.510200 1.565400
-6.491400 1.613200
-6.472500 1.663900
-6.453700 1.715300
-6.434900 1.763700
-6.416000 1.809900
-6.397200 1.836300
-6.378300 1.845200
-6.359500 1.841700
-6.340700 1.841600
-6.321800 1.854000
-6.303000 1.886900
-6.284100 1.936400
-6.265300 1.995100
-6.246500 2.015200
-6.227600 2.025800
-6.208800 2.030800
-6.189900 2.080900
-6.171100 2.181400
-6.152300 2.221900
-6.133400 2.233200
-6.114600 2.197900
-6.095800 2.173900
-6.076900 2.135900
-6.058100 2.083600
-6.039200 2.018100
-6.020400 1.935800
-6.001600 1.853900
-5.982700 1.788100
-5.963900 1.752300
-5.945000 1.731100
-5.926200 1.723800
-5.907400 1.719500
-5.888500 1.716900
-5.869700 1.720300
-5.850900 1.729700
-5.832000 1.744700
-5.813200 1.771000
-5.794300 1.810200
-5.775500 1.861600
-5.756700 1.979000
-5.737800 2.141900
-5.719000 2.278600
-5.700100 2.355500
-5.681300 2.376700
-5.662500 2.397900
-5.643600 2.437300
-5.624800 2.475900
-5.605900 2.512300
-5.587100 2.531500
-5.568300 2.555200
-5.549400 2.592200
-5.530600 2.621300
-5.511800 2.654000
-5.492900 2.690900
-5.474100 2.752000
-5.455200 2.840100
-5.436400 2.966100
-5.417600 3.091000
-5.398700 3.175500
-5.379900 3.173700
-5.361000 3.141200
-5.342200 3.108800
-5.323400 3.091400
-5.304500 3.074400
-5.285700 3.060600
-5.266800 3.053900
-5.248000 3.041700
-5.229200 3.015800
-5.210300 3.085100
-5.191500 3.025500
-5.172700 2.919000
-5.153800 2.918300
-5.135000 2.915300
-5.116100 2.904900
-5.097300 2.897200
-5.078500 2.965600
-5.059600 2.973600
-5.040800 2.920500
-5.021900 2.813100
-5.003100 2.748700
-4.984300 2.732600
-4.965400 2.717000
-4.946600 2.701400
-4.927800 2.812000
-4.908900 2.789600
-4.890100 2.682800
-4.871200 2.665300
-4.852400 2.644400
-4.833600 2.628500
-4.814700 2.622800
-4.795900 2.620200
-4.777000 2.602600
-4.758200 2.601300
-4.739400 2.599000
-4.720500 2.597800
-4.701700 2.599100
-4.682800 2.623600
-4.664000 2.654600
-4.645200 2.691500
-4.626300 2.697600
-4.607500 2.660600
-4.588700 2.618800
-4.569800 2.582800
-4.551000 2.558800
-4.532100 2.537100
-4.513300 2.517200
-4.494500 2.478300
-4.475600 2.425400
-4.456800 2.387500
-4.437900 2.347800
-4.419100 2.306800
-4.400300 2.303500
-4.381400 2.304500
-4.362600 2.305600
-4.343800 2.303900
-4.324900 2.229100
-4.306100 2.205600
-4.287200 2.168000
-4.268400 2.142200
-4.249600 2.183700
-4.230700 1.988600
-4.211900 1.902900
-4.193000 1.824300
-4.174200 1.736900
-4.155400 1.666300
-4.136500 1.606400
-4.117700 1.544200
-4.098800 1.478900
-4.080000 1.439900
-4.061200 1.442400
-4.042300 1.450400
-4.023500 1.473400
-4.004700 1.493700
-3.985800 1.507100
-3.967000 1.518800
-3.948100 1.530200
-3.929300 1.539600
-3.910500 1.547100
-3.891600 1.552300
-3.872800 1.560400
-3.853900 1.570300
-3.835100 1.577300
-3.816300 1.594000
-3.797400 1.703200
-3.778600 1.692300
-3.759700 1.635500
-3.740900 1.581200
-3.722100 1.531800
-3.703200 1.482200
-3.684400 1.482900
-3.665600 1.442400
-3.646700 1.403300
-3.627900 1.361700
-3.609000 1.321000
-3.590200 1.316600
-3.571400 1.276900
-3.552500 1.265800
-3.533700 1.253100
-3.514800 1.238700
-3.496000 1.233400
-3.477200 1.237500
-3.458300 1.220000
-3.439500 1.158300
-3.420700 1.113000
-3.401800 1.069700
-3.383000 1.029100
-3.364100 0.999600
-3.345300 0.941500
-3.326500 0.902100
-3.307600 0.877200
-3.288800 0.852600
-3.269900 0.828600
-3.251100 0.805000
-3.232300 0.782000
-3.213400 0.759400
-3.194600 0.758200
-3.175700 0.732300
-3.156900 0.707500
-3.138100 0.683300
-3.119200 0.660000
-3.100400 0.741500
-3.081600 0.521500
-3.062700 0.514400
-3.043900 0.507500
-3.025000 0.499400
-3.006200 0.490700
-2.987400 0.482900
-2.968500 0.476300
-2.949700 0.471600
-2.930800 0.467500
-2.912000 0.463900
-2.893200 0.459900
-2.874300 0.462200
-2.855500 0.456400
-2.836700 0.450200
-2.817800 0.443700
-2.799000 0.436800
-2.780100 0.429500
-2.761300 0.421900
-2.742500 0.413900
-2.723600 0.405600
-2.704800 0.396900
-2.685900 0.438900
-2.667100 0.420900
-2.648300 0.411700
-2.629400 0.401400
-2.610600 0.312000
-2.591700 0.301500
-2.572900 0.289800
-2.554100 0.278300
-2.535200 0.266400
-2.516400 0.254300
-2.497600 0.241800
-2.478700 0.229200
-2.459900 0.216200
-2.441000 0.203100
-2.422200 0.190300
-2.403400 0.177900
-2.384500 0.167700
-2.365700 0.163100
-2.346800 0.157900
-2.328000 0.152100
-2.309200 0.145700
-2.290300 0.138600
-2.271500 0.113100
-2.252600 0.089200
-2.233800 0.067200
-2.215000 0.047000
-2.196100 0.028700
-2.177300 0.012200
-2.158500 0.000000
-2.139600 0.000000
-2.120800 0.000000
-2.101900 0.000000
-2.083100 0.000000
-2.064300 0.000000
-2.045400 0.000000
-2.026600 0.000000
-2.007700 0.000000
-1.988900 0.000000
-1.970100 0.000000
-1.951200 0.000000
-1.932400 0.000000
-1.913600 0.000000
-1.894700 0.000000
-1.875900 0.000000
-1.857000 0.000000
-1.838200 0.000000
-1.819400 0.000000
-1.800500 0.000000
-1.781700 0.000000
-1.762800 0.000000
-1.744000 0.000000
-1.725200 0.000000
-1.706300 0.000000
-1.687500 0.000000
-1.668600 0.000000
-1.649800 0.000000
-1.631000 0.000000
-1.612100 0.000000
-1.593300 0.000000
-1.574500 0.000000
-1.555600 0.000000
-1.536800 0.000000
-1.517900 0.000000
-1.499100 0.000000
-1.480300 0.000000
-1.461400 0.000000
-1.442600 0.000000
-1.423700 0.000000
-1.404900 0.000000
-1.386100 0.000000
-1.367200 0.000000
-1.348400 0.000000
-1.329600 0.000000
-1.310700 0.000000
-1.291900 0.000000
-1.273000 0.000000
-1.254200 0.000000
-1.235400 0.000000
-1.216500 0.000000
-1.197700 0.000000
-1.178800 0.000000
-1.160000 0.000000
-1.141200 0.000000
-1.122300 0.000000
-1.103500 0.000000
-1.084600 0.000000
-1.065800 0.000000
-1.047000 0.000000
-1.028100 0.000000
-1.009300 0.000000
-0.990500 0.000000
-0.971600 0.000000
-0.952800 0.000000
-0.933900 0.000000
-0.915100 0.000000
-0.896300 0.000000
-0.877400 0.000000
-0.858600 0.000000
-0.839700 0.000000
-0.820900 0.000000
-0.802100 0.000000
-0.783200 0.000000
-0.764400 0.000000
-0.745500 0.000000
-0.726700 0.000000
-0.707900 0.000000
-0.689000 0.000000
-0.670200 0.000000
-0.651400 0.000000
-0.632500 0.000000
-0.613700 0.000000
-0.594800 0.000000
-0.576000 0.000000
-0.557200 0.000000
-0.538300 0.000000
-0.519500 0.000000
-0.500600 0.000000
-0.481800 0.000000
-0.463000 0.000000
-0.444100 0.000000
-0.425300 0.000000
-0.406500 0.000000
-0.387600 0.000000
-0.368800 0.000000
-0.349900 0.000000
-0.331100 0.000000
-0.312300 0.000000
-0.293400 0.000000
-0.274600 0.000000
-0.255700 0.000000
-0.236900 0.000000
-0.218100 0.000000
-0.199200 0.000000
-0.180400 0.000000
-0.161500 0.000000
-0.142700 0.000000
-0.123900 0.000000
-0.105000 0.000000
-0.086200 0.000000
-0.067400 0.000000
-0.048500 0.000000
-0.029700 0.000000
-0.010800 0.000000
0.008000 0.000000
0.026800 0.000000
0.045700 0.000000
0.064500 0.000000
0.083400 0.000000
0.102200 0.000000
0.121000 0.000000
0.139900 0.000000
0.158700 0.000000
0.177500 0.000000
0.196400 0.000000
0.215200 0.000000
0.234100 0.000000
0.252900 0.000000
0.271700 0.061800
0.290600 0.148000
0.309400 0.227900
0.328300 0.221400
0.347100 0.207000
0.365900 0.206900
0.384800 0.227800
0.403600 0.256800
0.422500 0.296900
0.441300 0.347700
0.460100 0.397100
0.479000 0.567700
0.497800 0.612300
0.516600 0.616300
0.535500 0.735700
0.554300 0.783000
0.573200 0.798200
0.592000 0.806000
0.610800 0.845800
0.629700 0.884200
0.648500 0.906900
0.667400 0.951000
0.686200 0.990200
0.705000 1.028200
0.723900 1.066700
0.742700 1.263600
0.761600 1.338400
0.780400 1.318400
0.799200 1.463800
0.818100 1.638200
0.836900 1.672000
0.855700 1.632400
0.874600 1.581900
0.893400 1.616800
0.912300 1.652400
0.931100 1.688300
0.949900 1.724500
0.968800 1.763500
0.987600 1.798900
1.006500 1.817400
1.025300 1.808100
1.044100 1.838500
1.063000 1.886400
1.081800 1.945400
1.100600 1.979800
1.119500 2.014500
1.138300 2.050400
1.157200 2.088500
1.176000 2.159500
1.194800 2.258200
1.213700 2.389800
1.232500 2.551400
1.251400 2.586600
1.270200 2.596100
1.289000 2.582300
1.307900 2.529700
1.326700 2.565200
1.345600 2.601400
1.364400 2.761700
1.383200 2.664400
1.402100 2.662000
1.420900 2.660100
1.439700 2.623300
1.458600 2.600100
1.477400 2.580500
1.496300 2.540100
1.515100 2.526800
1.533900 2.599100
1.552800 2.657500
1.571600 2.719500
1.590500 2.794400
1.609300 2.888800
1.628100 2.996100
1.647000 3.112800
1.665800 3.235000
1.684600 3.456700
1.703500 3.705600
1.722300 3.699000
1.741200 3.737500
1.760000 3.720100
1.778800 3.769800
1.797700 3.855800
1.816500 3.949300
1.835400 4.024500
1.854200 3.903500
1.873000 3.779200
1.891900 3.762100
1.910700 3.815200
1.929600 3.799000
1.948400 3.775100
1.967200 3.669800
1.986100 3.577500
2.004900 3.485100
2.023700 3.362500
2.042600 3.273700
2.061400 3.258100
2.080300 3.237700
2.099100 3.218100
2.117900 3.212900
2.136800 3.214000
2.155600 3.228000
2.174500 3.264500
2.193300 3.330000
2.212100 3.432600
2.231000 3.873700
2.249800 3.735100
2.268700 3.473400
2.287500 3.578500
2.306300 3.532100
2.325200 3.562200
2.344000 3.373200
2.362800 3.360500
2.381700 3.344900
2.400500 3.352200
2.419400 3.377300
2.438200 3.419500
2.457000 3.465500
2.475900 3.517500
2.494700 3.604000
2.513600 3.928100
2.532400 3.733400
2.551200 3.810800
2.570100 3.816300
2.588900 3.581200
2.607700 3.593300
2.626600 3.578100
2.645400 3.446000
2.664300 3.393000
2.683100 3.373000
2.701900 3.349200
2.720800 3.365600
2.739600 3.391800
2.758500 3.495400
2.777300 3.515300
2.796100 3.558300
2.815000 3.645300
2.833800 3.745700
2.852700 3.974100
2.871500 3.980100
2.890300 3.984000
2.909200 3.921900
2.928000 3.966000
2.946800 3.897300
2.965700 3.921400
2.984500 3.968700
3.003400 4.113700
3.022200 4.045100
3.041000 3.898800
3.059900 3.749900
3.078700 3.668400
3.097600 3.688000
3.116400 3.665900
3.135200 3.636600
3.154100 3.631000
3.172900 3.664300
3.191700 3.739100
3.210600 3.996100
3.229400 4.019100
3.248300 3.988800
3.267100 3.971400
3.285900 3.944200
3.304800 3.893000
3.323600 3.836600
3.342500 3.693000
3.361300 3.601500
3.380100 3.589900
3.399000 4.263700
3.417800 3.663500
3.436700 3.295100
3.455500 3.010400
3.474300 2.837800
3.493200 2.796200
3.512000 2.774800
3.530800 2.765500
3.549700 2.829900
3.568500 2.715400
3.587400 2.652000
3.606200 2.645900
3.625000 2.633300
3.643900 2.623800
3.662700 2.616000
3.681600 2.606800
3.700400 2.593900
3.719200 2.620500
3.738100 2.678200
3.756900 2.707400
3.775800 2.859100
3.794600 2.507300
3.813400 2.313700
3.832300 2.195900
3.851100 2.175200
3.869900 2.158800
3.888800 2.143200
3.907600 2.128800
3.926500 2.164300
3.945300 2.223800
3.964100 2.307400
3.983000 2.296900
4.001800 2.278500
4.020700 2.248400
4.039500 2.247200
4.058300 2.259300
4.077200 2.277800
4.096000 2.304900
4.114800 2.340200
4.133700 2.377000
4.152500 2.418500
4.171400 2.463000
4.190200 2.513400
4.209000 2.587200
4.227900 2.673700
4.246700 2.768200
4.265600 2.871500
4.284400 2.962500
4.303200 3.037500
4.322100 3.115900
4.340900 3.186000
4.359800 3.251500
4.378600 3.313900
4.397400 3.349100
4.416300 3.426100
4.435100 3.339300
4.453900 3.351300
4.472800 3.366700
4.491600 3.409000
4.510500 3.413300
4.529300 3.430500
4.548100 3.434800
4.567000 3.437300
4.585800 3.430900
4.604700 3.428100
4.623500 3.421000
4.642300 3.462800
4.661200 3.430900
4.680000 3.425900
4.698800 3.377700
4.717700 3.339800
4.736500 3.304300
4.755400 3.205000
4.774200 3.193100
4.793000 3.174000
4.811900 3.172800
4.830700 3.168200
4.849600 3.158200
4.868400 3.121500
4.887200 3.082600
4.906100 3.085300
4.924900 2.952000
4.943800 2.840700
4.962600 2.770100
4.981400 2.703900
5.000300 2.638900
5.019100 2.559700
5.037900 2.478300
5.056800 2.399200
5.075600 2.327700
5.094500 2.266800
5.113300 2.269700
5.132100 2.280700
5.151000 2.291000
5.169800 2.294400
5.188700 2.287500
5.207500 2.283200
5.226300 2.276000
5.245200 2.266300
5.264000 2.248800
5.282900 2.231800
5.301700 2.217300
5.320500 2.206000
5.339400 2.200800
5.358200 2.190600
5.377000 2.172300
5.395900 2.162000
5.414700 2.133700
5.433600 2.139700
5.452400 2.156700
5.471200 2.175600
5.490100 2.196600
5.508900 2.216200
5.527800 2.236500
5.546600 2.258000
5.565400 2.278800
5.584300 2.295500
5.603100 2.313700
5.621900 2.349600
5.640800 2.488400
5.659600 2.524400
5.678500 2.549300
5.697300 2.480300
5.716100 2.482800
5.735000 2.485100
5.753800 2.487400
5.772700 2.490300
5.791500 2.495500
5.810300 2.503700
5.829200 2.514200
5.848000 2.508300
5.866900 2.504400
5.885700 2.507700
5.904500 2.508800
5.923400 2.507900
5.942200 2.504800
5.961000 2.488500
5.979900 2.475100
5.998700 2.464300
6.017600 2.453800
6.036400 2.443300
6.055200 2.440100
6.074100 2.448800
6.092900 2.480900
6.111800 2.538600
6.130600 2.559900
6.149400 2.583600
6.168300 2.623100
6.187100 2.637100
6.205900 2.655000
6.224800 2.635500
6.243600 2.611300
6.262500 2.588300
6.281300 2.574500
6.300100 2.569500
6.319000 2.568600
6.337800 2.569000
6.356700 2.513300
6.375500 2.474600
6.394300 2.483200
6.413200 2.512700
6.432000 2.543000
6.450900 2.571100
6.469700 2.541300
6.488500 2.549800
6.507400 2.514600
6.526200 2.485500
6.545000 2.453300
6.563900 2.432200
6.582700 2.376200
6.601600 2.371800
6.620400 2.365500
6.639200 2.355700
6.658100 2.344600
6.676900 2.330900
6.695800 2.315700
6.714600 2.299200
6.733400 2.284700
6.752300 2.272800
6.771100 2.260500
6.790000 2.229200
6.808800 2.226500
6.827600 2.227000
6.846500 2.226400
6.865300 2.224500
6.884100 2.225000
6.903000 2.234600
6.921800 2.254200
6.940700 2.285400
6.959500 2.319100
6.978300 2.355600
6.997200 2.391700
7.016000 2.421700
7.034900 2.441600
7.053700 2.476800
7.072500 2.544800
7.091400 2.623000
7.110200 2.626300
7.129000 2.609900
7.147900 2.593100
7.166700 2.578800
7.185600 2.562800
7.204400 2.546000
7.223200 2.527300
7.242100 2.501300
7.260900 2.481100
7.279800 2.471500
7.298600 2.444400
7.317400 2.416200
7.336300 2.390700
7.355100 2.381800
7.374000 2.367100
7.392800 2.354700
7.411600 2.346500
7.430500 2.336000
7.449300 2.315100
7.468100 2.308100
7.487000 2.332400
7.505800 2.362300
7.524700 2.405000
7.543500 2.494600
7.562300 2.572900
7.581200 2.631100
7.600000 2.692200
7.618900 2.738300
7.637700 2.776300
7.656500 2.814300
7.675400 2.852700
7.694200 2.943200
7.713000 2.974900
7.731900 3.001400
7.750700 3.024100
7.769600 3.049400
7.788400 3.499400
7.807200 3.230400
7.826100 2.944700
7.844900 2.955300
7.863800 2.848500
7.882600 2.844200
7.901400 2.867000
7.920300 2.906500
7.939100 2.946800
7.958000 3.008500
7.976800 3.060300
7.995600 3.141900
8.014500 3.150500
8.033300 3.129600
8.052100 3.079000
8.071000 3.054100
8.089800 3.022000
8.108700 2.992300
8.127500 2.965000
8.146300 2.934200
8.165200 2.907600
8.184000 2.886000
8.202900 2.865300
8.221700 2.848000
8.240500 2.831600
8.259400 2.830500
8.278200 2.828400
8.297100 2.829000
8.315900 2.831600
8.334700 2.831500
8.353600 2.827000
8.372400 2.808400
8.391200 2.794600
8.410100 2.782100
8.428900 2.766800
8.447800 2.751600
8.466600 2.740800
8.485400 2.745500
8.504300 2.755700
8.523100 2.762400
8.542000 2.766400
8.560800 2.786800
8.579600 2.795800
8.598500 2.804500
8.617300 2.814300
8.636100 2.824500
8.655000 2.837300
8.673800 3.173400
8.692700 2.728600
8.711500 2.653400
8.730300 2.590500
8.749200 2.524200
8.768000 2.414600
8.786900 2.367700
8.805700 2.346700
8.824500 2.319500
8.843400 2.277900
8.862200 2.244400
8.881100 2.182200
8.899900 2.279000
8.918700 2.329600
8.937600 2.389900
8.956400 2.207800
8.975200 2.154100
8.994100 2.182300
9.012900 2.119100
9.031800 1.871400
9.050600 1.865800
9.069400 1.852900
9.088300 1.835900
9.107100 1.822100
9.126000 1.816400
9.144800 1.538200
9.163600 1.392700
9.182500 1.376500
9.201300 1.411200
9.220100 1.433800
9.239000 1.466600
9.257800 1.513100
9.276700 1.563400
9.295500 1.620400
9.314300 1.871900
9.333200 1.991100
9.352000 1.831600
9.370900 1.812100
9.389700 1.821500
9.408500 1.808800
9.427400 1.763400
9.446200 1.881700
9.465100 1.943600
9.483900 2.040300
9.502700 2.035100
9.521600 1.945300
9.540400 1.916000
9.559200 1.879900
9.578100 1.810800
9.596900 1.716800
9.615800 1.643300
9.634600 1.591900
9.653400 1.560500
9.672300 1.536900
9.691100 1.535000
9.710000 1.526500
9.728800 1.513000
9.747600 1.497900
9.766500 1.481400
9.785300 1.455300
9.804200 1.460800
9.823000 1.445000
9.841800 1.456900
9.860700 1.460100
9.879500 1.465900
9.898300 1.469100
9.917200 1.476700
9.936000 1.485900
9.954900 1.495200
9.973700 1.507000
9.992500 1.527800
10.011400 1.554100
10.030200 1.581700
10.049100 1.596400
10.067900 1.599700
10.086700 1.620200
10.105600 1.654100
10.124400 1.689400
10.143200 1.726300
10.162100 1.724000
10.180900 1.719500
10.199800 1.733200
10.218600 1.748500
10.237400 1.742800
10.256300 1.739500
10.275100 1.742300
10.294000 1.758500
10.312800 1.782000
10.331600 1.806000
10.350500 1.817300
10.369300 1.848900
10.388200 1.868400
10.407000 1.898400
10.425800 1.842400
10.444700 1.850000
10.463500 1.861900
10.482300 1.868700
10.501200 1.862700
10.520000 1.842600
10.538900 1.812400
10.557700 1.779500
10.576500 1.744100
10.595400 1.722800
10.614200 1.709000
10.633100 1.669700
10.651900 1.636500
10.670700 1.610200
10.689600 1.585800
10.708400 1.562800
10.727200 1.540600
10.746100 1.526500
10.764900 1.522300
10.783800 1.540200
10.802600 1.567800
10.821400 1.604400
10.840300 1.616200
10.859100 1.566800
10.878000 1.534500
10.896800 1.543100
10.915600 1.546400
10.934500 1.545900
10.953300 1.527300
10.972200 1.511500
