set title 'mp-1066400 - Density of States'
set xlabel 'Energy (eV)'
set ylabel 'DOS (states/eV)'
set grid
set xrange [-10:10]
set yrange [0:71.101]
set xzeroaxis lt -1
set terminal png size 800,600
set output 'mp-1066400_dos_gnuplot.png'
plot '-' using 1:2 with lines title 'DOS'
-26.703600 0.000000
-26.658600 0.000000
-26.613600 0.000000
-26.568700 0.000000
-26.523700 0.000000
-26.478700 0.000000
-26.433700 0.000000
-26.388800 0.000000
-26.343800 0.000000
-26.298800 0.000000
-26.253800 0.000000
-26.208800 0.000000
-26.163900 0.000000
-26.118900 0.000000
-26.073900 0.000000
-26.028900 0.000000
-25.984000 0.000000
-25.939000 0.000000
-25.894000 0.000000
-25.849000 0.000000
-25.804100 0.000000
-25.759100 0.000000
-25.714100 0.000000
-25.669100 0.000000
-25.624100 0.000000
-25.579200 0.000000
-25.534200 0.000000
-25.489200 0.000000
-25.444200 0.000000
-25.399300 0.000000
-25.354300 0.000000
-25.309300 0.000000
-25.264300 0.000000
-25.219300 0.000000
-25.174400 0.000000
-25.129400 0.000000
-25.084400 0.000000
-25.039400 0.000000
-24.994500 0.000000
-24.949500 0.000000
-24.904500 0.000000
-24.859500 0.000000
-24.814600 0.000000
-24.769600 0.000000
-24.724600 0.000000
-24.679600 0.000000
-24.634600 0.000000
-24.589700 0.000000
-24.544700 0.000000
-24.499700 0.000000
-24.454700 0.000000
-24.409800 0.000000
-24.364800 0.000000
-24.319800 0.000000
-24.274800 0.000000
-24.229800 0.000000
-24.184900 0.000000
-24.139900 0.000000
-24.094900 0.000000
-24.049900 0.000000
-24.005000 0.000000
-23.960000 0.000000
-23.915000 0.000000
-23.870000 0.000000
-23.825100 0.000000
-23.780100 0.000000
-23.735100 0.000000
-23.690100 0.000000
-23.645100 0.000000
-23.600200 0.000000
-23.555200 0.000000
-23.510200 0.000000
-23.465200 0.000000
-23.420300 0.000000
-23.375300 0.000000
-23.330300 0.000000
-23.285300 0.000000
-23.240400 0.000000
-23.195400 0.000000
-23.150400 0.000000
-23.105400 0.000000
-23.060400 0.000000
-23.015500 0.000000
-22.970500 0.000000
-22.925500 0.000000
-22.880500 0.000000
-22.835600 0.000000
-22.790600 0.000000
-22.745600 0.000000
-22.700600 0.000000
-22.655600 0.000000
-22.610700 0.749300
-22.565700 23.352400
-22.520700 16.223500
-22.475700 0.000000
-22.430800 0.000000
-22.385800 0.000000
-22.340800 0.000000
-22.295800 0.000000
-22.250900 0.000000
-22.205900 0.000000
-22.160900 0.000000
-22.115900 33.272500
-22.070900 84.395500
-22.026000 0.000000
-21.981000 0.000000
-21.936000 0.000000
-21.891000 0.000000
-21.846100 0.000000
-21.801100 0.000000
-21.756100 0.000000
-21.711100 0.000000
-21.666100 0.000000
-21.621200 0.000000
-21.576200 0.000000
-21.531200 0.000000
-21.486200 0.000000
-21.441300 0.000000
-21.396300 0.000000
-21.351300 0.000000
-21.306300 0.000000
-21.261400 0.000000
-21.216400 0.000000
-21.171400 0.000000
-21.126400 0.000000
-21.081400 0.000000
-21.036500 0.000000
-20.991500 0.000000
-20.946500 0.000000
-20.901500 0.000000
-20.856600 0.000000
-20.811600 0.000000
-20.766600 0.000000
-20.721600 0.000000
-20.676700 0.000000
-20.631700 0.000000
-20.586700 0.000000
-20.541700 0.000000
-20.496700 0.000000
-20.451800 0.000000
-20.406800 0.000000
-20.361800 0.000000
-20.316800 0.000000
-20.271900 0.000000
-20.226900 0.000000
-20.181900 0.000000
-20.136900 0.000000
-20.091900 0.000000
-20.047000 0.000000
-20.002000 0.000000
-19.957000 0.000000
-19.912000 0.000000
-19.867100 0.000000
-19.822100 0.000000
-19.777100 0.000000
-19.732100 0.000000
-19.687200 0.000000
-19.642200 0.000000
-19.597200 0.000000
-19.552200 0.000000
-19.507200 0.000000
-19.462300 0.000000
-19.417300 0.000000
-19.372300 0.000000
-19.327300 0.000000
-19.282400 0.000000
-19.237400 0.000000
-19.192400 0.000000
-19.147400 0.000000
-19.102500 0.000000
-19.057500 0.000000
-19.012500 0.000000
-18.967500 0.000000
-18.922500 0.000000
-18.877600 0.000000
-18.832600 0.000000
-18.787600 0.000000
-18.742600 0.000000
-18.697700 0.000000
-18.652700 0.000000
-18.607700 0.000000
-18.562700 0.000000
-18.517700 0.000000
-18.472800 0.000000
-18.427800 0.000000
-18.382800 0.000000
-18.337800 0.000000
-18.292900 0.000000
-18.247900 21.901900
-18.202900 0.000000
-18.157900 0.000000
-18.113000 0.000000
-18.068000 0.000000
-18.023000 0.000000
-17.978000 0.000000
-17.933000 0.000000
-17.888100 0.000000
-17.843100 0.000000
-17.798100 0.000000
-17.753100 0.000000
-17.708200 0.000000
-17.663200 0.000000
-17.618200 0.000000
-17.573200 0.000000
-17.528200 0.000000
-17.483300 0.000000
-17.438300 0.000000
-17.393300 0.000000
-17.348300 0.000000
-17.303400 0.000000
-17.258400 0.000000
-17.213400 0.000000
-17.168400 0.000000
-17.123500 0.000000
-17.078500 0.000000
-17.033500 0.000000
-16.988500 0.000000
-16.943500 0.000000
-16.898600 0.000000
-16.853600 0.000000
-16.808600 0.000000
-16.763600 0.000000
-16.718700 0.000000
-16.673700 0.000000
-16.628700 0.000000
-16.583700 0.000000
-16.538800 0.000000
-16.493800 0.000000
-16.448800 0.000000
-16.403800 0.000000
-16.358800 0.000000
-16.313900 0.000000
-16.268900 0.000000
-16.223900 0.000000
-16.178900 0.000000
-16.134000 0.000000
-16.089000 0.000000
-16.044000 0.000000
-15.999000 0.000000
-15.954000 0.000000
-15.909100 0.000000
-15.864100 0.000000
-15.819100 0.000000
-15.774100 0.000000
-15.729200 0.000000
-15.684200 0.000000
-15.639200 0.000000
-15.594200 0.000000
-15.549300 0.000000
-15.504300 0.000000
-15.459300 0.000000
-15.414300 0.000000
-15.369300 0.000000
-15.324400 0.000000
-15.279400 0.000000
-15.234400 0.000000
-15.189400 0.000000
-15.144500 0.000000
-15.099500 0.000000
-15.054500 0.000000
-15.009500 0.000000
-14.964500 0.000000
-14.919600 0.000000
-14.874600 0.000000
-14.829600 0.000000
-14.784600 0.000000
-14.739700 0.000000
-14.694700 0.000000
-14.649700 0.000000
-14.604700 0.000000
-14.559800 0.000000
-14.514800 0.000000
-14.469800 0.000000
-14.424800 0.000000
-14.379800 0.000000
-14.334900 0.000000
-14.289900 0.000000
-14.244900 0.000000
-14.199900 0.000000
-14.155000 0.000000
-14.110000 0.000000
-14.065000 0.000000
-14.020000 0.000000
-13.975100 0.000000
-13.930100 0.000000
-13.885100 0.000000
-13.840100 0.000000
-13.795100 0.000000
-13.750200 0.000000
-13.705200 0.000000
-13.660200 0.000000
-13.615200 0.000000
-13.570300 0.000000
-13.525300 0.000000
-13.480300 0.000000
-13.435300 0.000000
-13.390300 0.000000
-13.345400 0.000000
-13.300400 0.000000
-13.255400 0.000000
-13.210400 0.000000
-13.165500 0.000000
-13.120500 0.000000
-13.075500 0.000000
-13.030500 0.000000
-12.985600 0.000000
-12.940600 0.000000
-12.895600 0.000000
-12.850600 0.000000
-12.805600 0.000000
-12.760700 0.000000
-12.715700 0.000000
-12.670700 0.000000
-12.625700 0.000000
-12.580800 0.000000
-12.535800 0.000000
-12.490800 0.000000
-12.445800 0.000000
-12.400900 0.000000
-12.355900 0.000000
-12.310900 0.000000
-12.265900 0.000000
-12.220900 0.000000
-12.176000 0.000000
-12.131000 0.000000
-12.086000 0.000000
-12.041000 0.000000
-11.996100 0.000000
-11.951100 0.000000
-11.906100 0.000000
-11.861100 0.000000
-11.816100 0.000000
-11.771200 0.000000
-11.726200 0.000000
-11.681200 0.000000
-11.636200 0.000000
-11.591300 0.000000
-11.546300 0.000000
-11.501300 0.000000
-11.456300 0.000000
-11.411400 0.000000
-11.366400 0.000000
-11.321400 0.000000
-11.276400 0.000000
-11.231400 0.000000
-11.186500 0.000000
-11.141500 0.000000
-11.096500 0.000000
-11.051500 0.000000
-11.006600 0.000000
-10.961600 0.000000
-10.916600 0.000000
-10.871600 0.000000
-10.826600 0.000000
-10.781700 0.000000
-10.736700 0.000000
-10.691700 0.000000
-10.646700 0.000000
-10.601800 0.000000
-10.556800 0.000000
-10.511800 0.000000
-10.466800 0.000000
-10.421900 0.000000
-10.376900 0.000000
-10.331900 0.000000
-10.286900 0.000000
-10.241900 0.000000
-10.197000 0.000000
-10.152000 0.000000
-10.107000 0.000000
-10.062000 0.000000
-10.017100 0.000000
-9.972100 0.000000
-9.927100 0.000000
-9.882100 0.000000
-9.837200 0.000000
-9.792200 0.000000
-9.747200 0.000000
-9.702200 0.000000
-9.657200 0.000000
-9.612300 0.000000
-9.567300 0.000000
-9.522300 0.000000
-9.477300 0.000000
-9.432400 0.000000
-9.387400 0.000000
-9.342400 0.000000
-9.297400 0.000000
-9.252400 0.000000
-9.207500 0.000000
-9.162500 0.000000
-9.117500 0.000000
-9.072500 0.000000
-9.027600 0.000000
-8.982600 0.000000
-8.937600 0.000000
-8.892600 0.000000
-8.847700 0.000000
-8.802700 0.000000
-8.757700 0.000000
-8.712700 0.000000
-8.667700 0.000000
-8.622800 0.000000
-8.577800 0.000000
-8.532800 0.000000
-8.487800 0.000000
-8.442900 0.000000
-8.397900 0.000000
-8.352900 0.000000
-8.307900 0.000000
-8.262900 0.000000
-8.218000 0.000000
-8.173000 0.000000
-8.128000 0.000000
-8.083000 0.000000
-8.038100 0.000000
-7.993100 0.000000
-7.948100 0.000000
-7.903100 0.000000
-7.858200 0.000000
-7.813200 0.000000
-7.768200 0.000000
-7.723200 0.000000
-7.678200 0.000000
-7.633300 0.000000
-7.588300 0.000000
-7.543300 0.000000
-7.498300 0.000000
-7.453400 0.000000
-7.408400 0.000000
-7.363400 0.000000
-7.318400 0.000000
-7.273500 0.000000
-7.228500 0.000000
-7.183500 0.000000
-7.138500 0.000000
-7.093500 5.357100
-7.048600 15.243800
-7.003600 10.438600
-6.958600 5.484700
-6.913600 2.874100
-6.868700 2.280100
-6.823700 1.642600
-6.778700 3.692500
-6.733700 4.334200
-6.688700 5.291600
-6.643800 10.093700
-6.598800 13.425500
-6.553800 8.809600
-6.508800 12.674500
-6.463900 5.280600
-6.418900 4.558400
-6.373900 4.677800
-6.328900 4.675600
-6.284000 4.676300
-6.239000 4.764000
-6.194000 2.543200
-6.149000 1.806000
-6.104000 0.621800
-6.059100 0.000000
-6.014100 0.000000
-5.969100 0.000000
-5.924100 0.000000
-5.879200 0.000000
-5.834200 0.000000
-5.789200 0.000000
-5.744200 0.000000
-5.699300 0.212300
-5.654300 0.266900
-5.609300 0.296800
-5.564300 0.374000
-5.519300 0.460300
-5.474400 0.584600
-5.429400 0.687200
-5.384400 0.798900
-5.339400 0.915100
-5.294500 1.036000
-5.249500 1.185800
-5.204500 1.364300
-5.159500 1.852800
-5.114500 2.306900
-5.069600 2.838100
-5.024600 3.095100
-4.979600 3.254500
-4.934600 3.306000
-4.889700 3.492300
-4.844700 3.893200
-4.799700 3.809000
-4.754700 2.789000
-4.709800 2.246200
-4.664800 1.713800
-4.619800 1.391600
-4.574800 0.344700
-4.529800 0.000000
-4.484900 0.000000
-4.439900 0.000000
-4.394900 0.000000
-4.349900 0.000000
-4.305000 0.000000
-4.260000 0.000000
-4.215000 0.000000
-4.170000 0.000000
-4.125000 0.000000
-4.080100 0.000000
-4.035100 0.000000
-3.990100 0.000000
-3.945100 0.000000
-3.900200 0.000000
-3.855200 0.000000
-3.810200 0.000000
-3.765200 0.000000
-3.720300 0.000000
-3.675300 0.000000
-3.630300 0.000000
-3.585300 0.000000
-3.540300 0.000000
-3.495400 0.000000
-3.450400 0.000000
-3.405400 0.000000
-3.360400 0.000000
-3.315500 0.000000
-3.270500 0.000000
-3.225500 0.000000
-3.180500 0.000000
-3.135600 0.000000
-3.090600 0.000000
-3.045600 0.000000
-3.000600 0.000000
-2.955600 0.000000
-2.910700 0.000000
-2.865700 0.000000
-2.820700 0.000000
-2.775700 0.000000
-2.730800 0.000000
-2.685800 0.000000
-2.640800 0.000000
-2.595800 0.000000
-2.550800 0.000000
-2.505900 0.000000
-2.460900 0.000000
-2.415900 0.000000
-2.370900 0.000000
-2.326000 0.000000
-2.281000 0.000000
-2.236000 0.000000
-2.191000 0.000000
-2.146100 0.000000
-2.101100 0.000000
-2.056100 0.000000
-2.011100 0.000000
-1.966100 0.000000
-1.921200 0.000000
-1.876200 0.000000
-1.831200 0.000000
-1.786200 0.000000
-1.741300 0.000000
-1.696300 0.000000
-1.651300 0.000000
-1.606300 0.000000
-1.561300 0.000000
-1.516400 0.000000
-1.471400 0.822200
-1.426400 1.282200
-1.381400 1.757900
-1.336500 2.460000
-1.291500 3.410900
-1.246500 4.692700
-1.201500 4.745900
-1.156600 5.470800
-1.111600 2.670900
-1.066600 2.293400
-1.021600 2.297800
-0.976600 2.481200
-0.931700 3.399600
-0.886700 3.650200
-0.841700 4.450500
-0.796700 5.537800
-0.751800 5.766600
-0.706800 5.940400
-0.661800 6.301300
-0.616800 6.601400
-0.571900 5.129000
-0.526900 3.533900
-0.481900 2.372000
-0.436900 1.100000
-0.391900 0.000000
-0.347000 0.000000
-0.302000 0.000000
-0.257000 0.000000
-0.212000 0.000000
-0.167100 0.000000
-0.122100 0.000000
-0.077100 0.000000
-0.032100 0.000000
0.012900 0.000000
0.057800 0.000000
0.102800 0.000000
0.147800 0.000000
0.192800 0.000000
0.237700 0.000000
0.282700 0.000000
0.327700 0.000000
0.372700 0.000000
0.417600 0.000000
0.462600 0.000000
0.507600 0.000000
0.552600 0.000000
0.597600 0.000000
0.642500 0.000000
0.687500 0.000000
0.732500 0.000000
0.777500 0.000000
0.822400 0.000000
0.867400 0.000000
0.912400 0.000000
0.957400 0.000000
1.002300 0.000000
1.047300 0.000000
1.092300 0.000000
1.137300 0.000000
1.182300 0.000000
1.227200 0.000000
1.272200 0.000000
1.317200 0.000000
1.362200 0.000000
1.407100 0.000000
1.452100 0.000000
1.497100 0.000000
1.542100 0.000000
1.587100 0.000000
1.632000 0.000000
1.677000 0.000000
1.722000 0.000000
1.767000 0.000000
1.811900 0.000000
1.856900 0.000000
1.901900 0.000000
1.946900 0.000000
1.991800 0.000000
2.036800 0.000000
2.081800 0.000000
2.126800 0.000000
2.171800 0.000000
2.216700 0.000000
2.261700 0.000000
2.306700 0.000000
2.351700 0.000000
2.396600 0.000000
2.441600 0.000000
2.486600 0.000000
2.531600 0.000000
2.576600 0.000000
2.621500 0.000000
2.666500 0.000000
2.711500 0.000000
2.756500 0.000000
2.801400 0.000000
2.846400 0.000000
2.891400 0.000000
2.936400 0.000000
2.981300 0.000000
3.026300 0.000000
3.071300 0.000000
3.116300 0.000000
3.161300 0.000000
3.206200 0.000000
3.251200 0.000000
3.296200 0.000000
3.341200 0.000000
3.386100 0.000000
3.431100 0.000000
3.476100 0.000000
3.521100 0.000000
3.566000 0.000000
3.611000 0.000000
3.656000 0.000000
3.701000 0.000000
3.746000 0.000000
3.790900 0.000000
3.835900 0.524300
3.880900 0.883600
3.925900 1.193600
3.970800 1.574100
4.015800 2.224500
4.060800 2.870300
4.105800 2.746500
4.150800 2.856100
4.195700 3.245000
4.240700 4.294700
4.285700 3.237700
4.330700 2.980800
4.375600 3.054700
4.420600 3.033700
4.465600 3.048100
4.510600 3.379900
4.555500 2.343000
4.600500 1.387300
4.645500 0.206400
4.690500 0.944200
4.735500 1.878800
4.780400 2.692400
4.825400 2.879600
4.870400 2.908300
4.915400 2.982600
4.960300 3.351200
5.005300 3.544400
5.050300 3.229300
5.095300 3.079400
5.140300 3.131700
5.185200 3.275300
5.230200 3.417500
5.275200 3.108100
5.320200 2.813600
5.365100 2.128800
5.410100 1.379600
5.455100 1.059800
5.500100 0.609300
5.545000 0.519700
5.590000 0.536700
5.635000 0.553700
5.680000 0.570700
5.725000 0.587700
5.769900 0.604700
5.814900 0.621600
5.859900 0.638500
5.904900 0.651500
5.949800 0.618900
5.994800 0.585800
6.039800 0.554100
6.084800 0.531000
6.129700 0.519100
6.174700 0.516300
6.219700 0.527400
6.264700 0.540100
6.309700 0.552800
6.354600 0.565500
6.399600 0.578300
6.444600 0.591000
6.489600 0.603700
6.534500 0.616400
6.579500 0.629100
6.624500 0.641700
6.669500 0.654400
6.714500 0.667100
6.759400 0.679800
6.804400 0.692500
6.849400 0.705100
6.894400 0.720900
6.939300 0.758300
6.984300 0.837100
7.029300 0.940100
7.074300 1.030900
7.119200 1.183500
7.164200 1.305900
7.209200 1.300200
7.254200 1.233200
7.299200 1.165900
7.344100 1.098500
7.389100 1.042500
7.434100 1.009300
7.479100 0.986600
7.524000 0.974400
7.569000 0.975000
7.614000 1.001800
7.659000 1.093300
7.703900 1.233900
7.748900 1.569300
7.793900 1.993200
7.838900 2.490800
7.883900 64.637100
7.928800 3.311500
7.973800 2.595700
8.018800 2.061800
8.063800 1.761900
8.108700 1.552900
8.153700 1.394400
8.198700 1.266000
8.243700 1.050100
8.288700 0.852000
8.333600 0.711300
8.378600 0.630700
8.423600 0.663100
8.468600 0.722500
8.513500 0.796600
8.558500 0.880900
8.603500 1.298500
8.648500 3.571700
8.693400 4.323000
8.738400 5.382600
8.783400 5.641300
8.828400 4.295300
8.873400 1.934900
8.918300 1.377600
8.963300 1.177800
9.008300 1.161900
9.053300 1.191000
9.098200 1.254100
9.143200 1.397800
9.188200 1.594900
9.233200 1.765400
9.278200 1.876900
9.323100 1.726900
9.368100 1.673900
9.413100 1.656700
9.458100 1.662700
9.503000 1.676200
9.548000 1.658300
9.593000 1.656100
9.638000 1.702300
9.682900 1.816400
9.727900 1.943800
9.772900 2.077600
9.817900 2.237500
9.862900 2.530400
9.907800 3.061100
9.952800 2.939100
9.997800 1.927400
10.042800 0.789200
10.087700 0.863500
10.132700 1.023700
10.177700 1.189600
10.222700 1.251500
10.267600 1.288600
10.312600 1.433200
10.357600 1.802800
10.402600 2.075800
10.447600 2.355700
10.492500 2.535100
10.537500 2.542700
10.582500 2.587000
10.627500 2.516400
10.672400 2.460800
10.717400 2.402300
10.762400 2.337800
10.807400 2.393300
10.852400 2.333600
10.897300 2.203700
10.942300 2.157900
10.987300 1.458500
11.032300 1.266600
11.077200 1.169900
11.122200 1.089300
11.167200 1.011000
11.212200 1.022300
11.257100 1.096900
11.302100 1.098000
11.347100 0.813500
11.392100 0.511800
11.437100 0.577200
11.482000 0.633700
11.527000 0.691400
11.572000 0.756100
11.617000 0.828800
11.661900 0.915000
11.706900 1.018900
11.751900 1.221600
11.796900 1.529300
11.841900 2.009100
11.886800 3.020100
11.931800 4.814500
11.976800 4.612500
12.021800 4.062400
12.066700 3.544700
12.111700 1.899400
12.156700 1.346700
12.201700 1.113100
12.246600 0.986000
12.291600 0.892500
12.336600 0.873600
12.381600 0.920600
12.426600 0.967300
12.471500 1.065500
12.516500 1.258200
12.561500 1.436000
12.606500 1.570700
12.651400 1.707400
12.696400 1.845100
12.741400 2.017800
12.786400 2.397100
12.831300 2.638900
12.876300 2.279100
12.921300 1.516700
12.966300 1.494900
13.011300 1.464900
13.056200 1.427900
13.101200 1.598300
13.146200 1.105300
13.191200 1.081000
13.236100 1.046600
13.281100 1.033400
13.326100 1.021500
13.371100 1.011200
13.416100 1.002200
13.461000 1.217100
13.506000 1.685200
13.551000 1.888000
13.596000 1.928400
13.640900 1.960000
13.685900 2.069600
13.730900 2.201700
13.775900 2.315000
13.820800 2.519200
13.865800 2.617800
13.910800 2.679200
13.955800 2.640500
14.000800 2.543100
14.045700 2.186000
14.090700 2.046700
14.135700 3.035600
14.180700 3.921600
14.225600 4.607700
14.270600 5.883700
14.315600 4.411600
14.360600 2.881800
14.405500 1.166100
14.450500 0.924400
14.495500 0.939800
14.540500 1.373700
14.585500 1.750500
14.630400 1.845900
14.675400 1.899300
14.720400 1.920700
14.765400 1.874900
14.810300 1.662300
14.855300 1.609300
14.900300 1.563400
14.945300 1.508600
14.990300 1.448900
15.035200 1.502300
15.080200 1.546400
15.125200 1.584000
15.170200 1.590500
15.215100 1.647400
15.260100 1.744700
15.305100 2.091300
15.350100 2.022200
15.395000 2.090200
15.440000 2.215700
15.485000 2.527500
15.530000 2.134500
15.575000 1.952400
15.619900 1.835600
15.664900 1.767100
15.709900 1.666500
15.754900 1.583200
15.799800 1.552600
15.844800 1.585000
15.889800 1.798300
15.934800 1.604700
15.979800 1.571200
16.024700 1.538100
16.069700 1.517000
16.114700 1.515400
16.159700 1.512900
16.204600 1.510300
16.249600 1.507800
16.294600 1.505600
16.339600 1.513400
16.384500 1.504400
16.429500 1.510600
16.474500 1.526500
16.519500 1.525300
16.564500 1.512000
16.609400 1.479600
16.654400 1.427900
16.699400 1.357000
16.744400 1.266900
16.789300 1.154900
16.834300 1.210400
16.879300 0.860400
16.924300 0.713700
16.969200 0.634700
17.014200 0.603700
17.059200 0.660300
17.104200 0.726700
17.149200 0.790600
17.194100 0.851800
17.239100 1.094300
17.284100 1.055500
17.329100 1.062000
17.374000 1.100000
17.419000 1.134600
17.464000 1.187100
17.509000 1.270600
17.554000 1.411200
17.598900 1.901900
17.643900 2.606300
17.688900 2.957200
17.733900 3.042000
17.778800 2.823700
17.823800 2.695200
17.868800 2.543200
17.913800 2.192800
17.958700 2.019100
18.003700 1.951000
18.048700 1.936100
18.093700 1.950800
18.138700 1.977000
18.183600 1.942200
18.228600 1.860500
18.273600 1.876300
18.318600 1.905800
18.363500 1.946800
18.408500 1.928000
18.453500 1.837100
18.498500 1.767800
18.543500 1.743600
18.588400 1.744000
18.633400 1.717900
18.678400 1.637800
18.723400 1.702200
18.768300 1.718700
18.813300 1.715300
18.858300 1.768300
18.903300 1.977500
18.948200 2.284900
18.993200 2.452100
19.038200 2.707200
19.083200 2.957100
19.128200 3.100100
19.173100 3.303500
19.218100 3.255600
19.263100 3.003800
19.308100 2.671200
19.353000 2.287200
19.398000 2.124800
19.443000 2.040700
19.488000 1.999700
19.532900 2.065000
