set title 'mp-1201 - Density of States'
set xlabel 'Energy (eV)'
set ylabel 'DOS (states/eV)'
set grid
set xrange [-10:10]
set yrange [0:10.928]
set xzeroaxis lt -1
set terminal png size 800,600
set output 'mp-1201_dos_gnuplot.png'
plot '-' using 1:2 with lines title 'DOS'
-8.108700 0.000000
-8.097000 0.000000
-8.085300 0.000000
-8.073700 0.000000
-8.062000 0.000000
-8.050300 0.000000
-8.038600 0.000000
-8.026900 0.000000
-8.015300 0.000000
-8.003600 0.000000
-7.991900 0.000000
-7.980200 0.000000
-7.968600 0.000000
-7.956900 0.000000
-7.945200 0.000000
-7.933500 0.000000
-7.921800 0.000000
-7.910200 0.000000
-7.898500 0.000000
-7.886800 0.000000
-7.875100 0.000000
-7.863500 0.000000
-7.851800 0.000000
-7.840100 0.000000
-7.828400 0.000000
-7.816800 0.000000
-7.805100 0.000000
-7.793400 0.000000
-7.781700 0.000000
-7.770000 0.000000
-7.758400 0.000000
-7.746700 0.000000
-7.735000 0.000000
-7.723300 0.000000
-7.711700 0.000000
-7.700000 0.000000
-7.688300 0.000000
-7.676600 0.000000
-7.664900 0.000000
-7.653300 0.000000
-7.641600 0.000000
-7.629900 0.000000
-7.618200 0.000000
-7.606600 0.000000
-7.594900 0.000000
-7.583200 0.000000
-7.571500 0.000000
-7.559900 0.000000
-7.548200 0.000000
-7.536500 0.000000
-7.524800 0.000000
-7.513100 0.000000
-7.501500 0.000000
-7.489800 0.000000
-7.478100 0.000000
-7.466400 0.000000
-7.454800 0.000000
-7.443100 0.000000
-7.431400 0.000000
-7.419700 0.000000
-7.408000 0.000000
-7.396400 0.000000
-7.384700 0.000000
-7.373000 0.000000
-7.361300 0.000000
-7.349700 0.000000
-7.338000 0.000000
-7.326300 0.000000
-7.314600 0.000000
-7.303000 0.000000
-7.291300 0.000000
-7.279600 0.000000
-7.267900 0.000000
-7.256200 0.000000
-7.244600 0.000000
-7.232900 0.000000
-7.221200 0.000000
-7.209500 0.000000
-7.197900 0.000000
-7.186200 0.000000
-7.174500 0.000000
-7.162800 0.000000
-7.151100 0.000000
-7.139500 0.000000
-7.127800 0.000000
-7.116100 0.000000
-7.104400 0.000000
-7.092800 0.000000
-7.081100 0.000000
-7.069400 0.000000
-7.057700 0.000000
-7.046100 0.000400
-7.034400 0.053800
-7.022700 0.190800
-7.011000 0.353200
-6.999300 0.405000
-6.987700 0.443700
-6.976000 0.505700
-6.964300 0.583900
-6.952600 0.677100
-6.941000 0.780000
-6.929300 0.878700
-6.917600 0.886700
-6.905900 0.826900
-6.894300 0.833100
-6.882600 0.838100
-6.870900 0.845500
-6.859200 0.851700
-6.847500 0.855900
-6.835900 0.854300
-6.824200 0.847800
-6.812500 0.843500
-6.800800 0.845200
-6.789200 0.857800
-6.777500 0.869700
-6.765800 0.866500
-6.754100 0.868600
-6.742400 0.870200
-6.730800 0.871100
-6.719100 0.870900
-6.707400 0.869400
-6.695700 0.866700
-6.684100 0.855400
-6.672400 0.856400
-6.660700 0.858900
-6.649000 0.862000
-6.637400 0.865700
-6.625700 0.870100
-6.614000 0.875500
-6.602300 0.882700
-6.590600 0.889800
-6.579000 0.910400
-6.567300 0.960100
-6.555600 1.040200
-6.543900 1.096200
-6.532300 1.140100
-6.520600 1.182400
-6.508900 1.208200
-6.497200 1.239500
-6.485500 1.272800
-6.473900 1.308300
-6.462200 1.337400
-6.450500 1.365400
-6.438800 1.393500
-6.427200 1.424000
-6.415500 1.457100
-6.403800 1.492300
-6.392100 1.536200
-6.380500 1.586100
-6.368800 1.638700
-6.357100 1.694800
-6.345400 1.757000
-6.333700 1.835500
-6.322100 1.886600
-6.310400 1.885100
-6.298700 1.859800
-6.287000 1.874500
-6.275400 1.886400
-6.263700 1.895300
-6.252000 1.901700
-6.240300 1.901100
-6.228600 1.896300
-6.217000 1.891200
-6.205300 1.898000
-6.193600 1.909400
-6.181900 1.921100
-6.170300 1.932400
-6.158600 1.942400
-6.146900 1.951100
-6.135200 1.958500
-6.123600 1.965100
-6.111900 1.963800
-6.100200 1.965700
-6.088500 1.973100
-6.076800 1.980800
-6.065200 1.988800
-6.053500 1.996700
-6.041800 2.006100
-6.030100 2.016300
-6.018500 2.026700
-6.006800 2.036500
-5.995100 2.045600
-5.983400 2.053700
-5.971700 2.060900
-5.960100 2.067100
-5.948400 2.073100
-5.936700 2.078700
-5.925000 2.084500
-5.913400 2.093300
-5.901700 2.104400
-5.890000 2.115300
-5.878300 2.126500
-5.866700 2.137900
-5.855000 2.149700
-5.843300 2.161700
-5.831600 2.174100
-5.819900 2.186900
-5.808300 2.199900
-5.796600 2.212900
-5.784900 2.225700
-5.773200 2.237700
-5.761600 2.249400
-5.749900 2.260900
-5.738200 2.274500
-5.726500 2.288000
-5.714800 2.304100
-5.703200 2.322100
-5.691500 2.342100
-5.679800 2.363700
-5.668100 2.385800
-5.656500 2.407600
-5.644800 2.429700
-5.633100 2.451900
-5.621400 2.474400
-5.609800 2.497500
-5.598100 2.521000
-5.586400 2.545300
-5.574700 2.571200
-5.563000 2.598500
-5.551400 2.627100
-5.539700 2.666500
-5.528000 2.762400
-5.516300 2.899900
-5.504700 3.008000
-5.493000 3.121700
-5.481300 3.240600
-5.469600 3.339600
-5.457900 3.441000
-5.446300 3.543800
-5.434600 3.734400
-5.422900 3.908500
-5.411200 4.077000
-5.399600 4.256700
-5.387900 4.376600
-5.376200 4.453800
-5.364500 4.536100
-5.352900 4.838200
-5.341200 5.208100
-5.329500 5.504200
-5.317800 5.596600
-5.306100 5.303800
-5.294500 5.073800
-5.282800 5.286200
-5.271100 5.517600
-5.259400 5.646400
-5.247800 5.956600
-5.236100 6.665000
-5.224400 6.057800
-5.212700 5.112700
-5.201000 4.949200
-5.189400 4.948100
-5.177700 5.141800
-5.166000 6.809700
-5.154300 7.422200
-5.142700 7.135100
-5.131000 6.918200
-5.119300 6.747100
-5.107600 6.750300
-5.096000 7.060500
-5.084300 7.870200
-5.072600 9.140300
-5.060900 8.830900
-5.049200 8.632800
-5.037600 8.601900
-5.025900 8.438300
-5.014200 8.405900
-5.002500 7.798400
-4.990900 7.603000
-4.979200 9.074800
-4.967500 9.934200
-4.955800 7.355800
-4.944100 5.701700
-4.932500 4.255200
-4.920800 2.985700
-4.909100 1.957500
-4.897400 1.342800
-4.885800 0.000000
-4.874100 0.000000
-4.862400 0.000000
-4.850700 0.000000
-4.839100 0.000000
-4.827400 0.000000
-4.815700 0.000000
-4.804000 0.000000
-4.792300 0.000000
-4.780700 0.000000
-4.769000 0.000000
-4.757300 0.000000
-4.745600 0.000000
-4.734000 0.000000
-4.722300 0.000000
-4.710600 0.000000
-4.698900 0.000000
-4.687200 0.000000
-4.675600 0.000000
-4.663900 0.000000
-4.652200 0.000000
-4.640500 0.000000
-4.628900 0.000000
-4.617200 0.000000
-4.605500 0.000000
-4.593800 0.000000
-4.582200 0.000000
-4.570500 0.000000
-4.558800 0.000000
-4.547100 0.000000
-4.535400 0.000000
-4.523800 0.000000
-4.512100 0.000000
-4.500400 0.000000
-4.488700 0.000000
-4.477100 0.000000
-4.465400 0.000000
-4.453700 0.000000
-4.442000 0.000000
-4.430300 0.000000
-4.418700 0.000000
-4.407000 0.000000
-4.395300 0.000000
-4.383600 0.000000
-4.372000 0.000000
-4.360300 0.000000
-4.348600 0.000000
-4.336900 0.000000
-4.325300 0.000000
-4.313600 0.000000
-4.301900 0.000000
-4.290200 0.000000
-4.278500 0.000000
-4.266900 0.000000
-4.255200 0.000000
-4.243500 0.000000
-4.231800 0.000000
-4.220200 0.000000
-4.208500 0.000000
-4.196800 0.000000
-4.185100 0.000000
-4.173400 0.000000
-4.161800 0.000000
-4.150100 0.000000
-4.138400 0.000000
-4.126700 0.000000
-4.115100 0.000000
-4.103400 0.000000
-4.091700 0.000000
-4.080000 0.000000
-4.068400 0.000000
-4.056700 0.000000
-4.045000 0.000000
-4.033300 0.000000
-4.021600 0.000000
-4.010000 0.000000
-3.998300 0.000000
-3.986600 0.000000
-3.974900 0.000000
-3.963300 0.000000
-3.951600 0.000000
-3.939900 0.000000
-3.928200 0.000000
-3.916500 0.000000
-3.904900 0.000000
-3.893200 0.000000
-3.881500 0.000000
-3.869800 0.000000
-3.858200 0.000000
-3.846500 0.000000
-3.834800 0.000000
-3.823100 0.000000
-3.811500 0.000000
-3.799800 0.000000
-3.788100 0.000000
-3.776400 0.000000
-3.764700 0.000000
-3.753100 0.000000
-3.741400 0.000000
-3.729700 0.000000
-3.718000 0.000000
-3.706400 0.000000
-3.694700 0.000000
-3.683000 0.000000
-3.671300 0.000000
-3.659600 0.000000
-3.648000 0.097000
-3.636300 0.908900
-3.624600 2.088100
-3.612900 5.726300
-3.601300 3.172300
-3.589600 4.167500
-3.577900 4.108900
-3.566200 4.363400
-3.554600 4.725600
-3.542900 4.585700
-3.531200 4.266700
-3.519500 3.758900
-3.507800 3.322100
-3.496200 3.150000
-3.484500 3.019100
-3.472800 2.911400
-3.461100 2.817900
-3.449500 2.733400
-3.437800 2.658600
-3.426100 2.622100
-3.414400 2.593500
-3.402700 2.564900
-3.391100 2.537400
-3.379400 2.518300
-3.367700 2.504300
-3.356000 2.495100
-3.344400 2.492300
-3.332700 2.495600
-3.321000 2.500400
-3.309300 2.506000
-3.297700 2.512500
-3.286000 2.519200
-3.274300 2.521000
-3.262600 2.498300
-3.250900 2.469000
-3.239300 2.462300
-3.227600 2.461300
-3.215900 2.461300
-3.204200 2.462200
-3.192600 2.464000
-3.180900 2.466900
-3.169200 2.534100
-3.157500 2.618600
-3.145800 2.682900
-3.134200 2.757900
-3.122500 2.827600
-3.110800 2.853300
-3.099100 2.883200
-3.087500 2.933800
-3.075800 3.033100
-3.064100 3.163300
-3.052400 3.328700
-3.040800 3.536600
-3.029100 3.703600
-3.017400 3.691300
-3.005700 3.711600
-2.994000 3.632100
-2.982400 3.563000
-2.970700 3.499800
-2.959000 3.427200
-2.947300 3.228100
-2.935700 3.153400
-2.924000 3.125300
-2.912300 3.127900
-2.900600 3.131300
-2.888900 3.164800
-2.877300 3.353500
-2.865600 3.565300
-2.853900 4.458000
-2.842200 5.189400
-2.830600 3.652900
-2.818900 3.329600
-2.807200 3.141400
-2.795500 3.005800
-2.783900 2.885000
-2.772200 2.773800
-2.760500 2.669600
-2.748800 2.573000
-2.737100 2.479700
-2.725500 2.386800
-2.713800 2.296400
-2.702100 2.208400
-2.690400 2.128000
-2.678800 2.071400
-2.667100 2.009500
-2.655400 1.947500
-2.643700 1.892200
-2.632000 1.843700
-2.620400 1.796200
-2.608700 1.750000
-2.597000 1.704800
-2.585300 1.665200
-2.573700 1.626700
-2.562000 1.585800
-2.550300 1.546200
-2.538600 1.516000
-2.527000 1.481600
-2.515300 1.453700
-2.503600 1.346400
-2.491900 1.238400
-2.480200 1.134200
-2.468600 1.035200
-2.456900 0.942900
-2.445200 0.849800
-2.433500 0.775500
-2.421900 0.766200
-2.410200 0.759400
-2.398500 0.753100
-2.386800 0.747200
-2.375100 0.741600
-2.363500 0.736300
-2.351800 0.731300
-2.340100 0.728400
-2.328400 0.724300
-2.316800 0.718900
-2.305100 0.712800
-2.293400 0.706300
-2.281700 0.699500
-2.270100 0.692500
-2.258400 0.685100
-2.246700 0.680100
-2.235000 0.675400
-2.223300 0.670600
-2.211700 0.665900
-2.200000 0.661200
-2.188300 0.656800
-2.176600 0.652700
-2.165000 0.648700
-2.153300 0.644800
-2.141600 0.641100
-2.129900 0.637400
-2.118200 0.633800
-2.106600 0.630200
-2.094900 0.626700
-2.083200 0.623200
-2.071500 0.619700
-2.059900 0.616500
-2.048200 0.614400
-2.036500 0.613700
-2.024800 0.613700
-2.013200 0.614000
-2.001500 0.614200
-1.989800 0.613100
-1.978100 0.610900
-1.966400 0.608200
-1.954800 0.605000
-1.943100 0.601400
-1.931400 0.597700
-1.919700 0.593900
-1.908100 0.589600
-1.896400 0.585300
-1.884700 0.581000
-1.873000 0.576600
-1.861300 0.572400
-1.849700 0.568900
-1.838000 0.566200
-1.826300 0.563900
-1.814600 0.561900
-1.803000 0.560100
-1.791300 0.558500
-1.779600 0.557100
-1.767900 0.555900
-1.756300 0.558100
-1.744600 0.565100
-1.732900 0.566100
-1.721200 0.564400
-1.709500 0.562500
-1.697900 0.560400
-1.686200 0.558200
-1.674500 0.555800
-1.662800 0.553300
-1.651200 0.550600
-1.639500 0.547300
-1.627800 0.543200
-1.616100 0.538700
-1.604400 0.534800
-1.592800 0.536200
-1.581100 0.543800
-1.569400 0.549000
-1.557700 0.553200
-1.546100 0.554900
-1.534400 0.553100
-1.522700 0.548400
-1.511000 0.541900
-1.499400 0.534800
-1.487700 0.527100
-1.476000 0.530400
-1.464300 0.547500
-1.452600 0.546200
-1.441000 0.526500
-1.429300 0.497900
-1.417600 0.470800
-1.405900 0.445200
-1.394300 0.422600
-1.382600 0.403300
-1.370900 0.386300
-1.359200 0.371400
-1.347500 0.357500
-1.335900 0.343800
-1.324200 0.330500
-1.312500 0.317700
-1.300800 0.306300
-1.289200 0.297300
-1.277500 0.288000
-1.265800 0.278300
-1.254100 0.268200
-1.242500 0.257500
-1.230800 0.245700
-1.219100 0.233800
-1.207400 0.222100
-1.195700 0.210700
-1.184100 0.200100
-1.172400 0.190300
-1.160700 0.180800
-1.149000 0.171500
-1.137400 0.162400
-1.125700 0.154200
-1.114000 0.148600
-1.102300 0.141700
-1.090600 0.132300
-1.079000 0.121200
-1.067300 0.105600
-1.055600 0.077200
-1.043900 0.053300
-1.032300 0.033800
-1.020600 0.018700
-1.008900 0.008000
-0.997200 0.001800
-0.985600 0.000000
-0.973900 0.000000
-0.962200 0.000000
-0.950500 0.000000
-0.938800 0.000000
-0.927200 0.000000
-0.915500 0.000000
-0.903800 0.000000
-0.892100 0.000000
-0.880500 0.000000
-0.868800 0.000000
-0.857100 0.000000
-0.845400 0.000000
-0.833700 0.000000
-0.822100 0.000000
-0.810400 0.000000
-0.798700 0.000000
-0.787000 0.000000
-0.775400 0.000000
-0.763700 0.000000
-0.752000 0.000000
-0.740300 0.000000
-0.728700 0.000000
-0.717000 0.000000
-0.705300 0.000000
-0.693600 0.000000
-0.681900 0.000000
-0.670300 0.000000
-0.658600 0.000000
-0.646900 0.000000
-0.635200 0.000000
-0.623600 0.000000
-0.611900 0.000000
-0.600200 0.000000
-0.588500 0.000000
-0.576800 0.000000
-0.565200 0.000000
-0.553500 0.000000
-0.541800 0.000000
-0.530100 0.000000
-0.518500 0.000000
-0.506800 0.000000
-0.495100 0.000000
-0.483400 0.000000
-0.471800 0.000000
-0.460100 0.000000
-0.448400 0.000000
-0.436700 0.000000
-0.425000 0.000000
-0.413400 0.000000
-0.401700 0.000000
-0.390000 0.000000
-0.378300 0.000000
-0.366700 0.000000
-0.355000 0.000000
-0.343300 0.000000
-0.331600 0.000000
-0.319900 0.000000
-0.308300 0.000000
-0.296600 0.000000
-0.284900 0.000000
-0.273200 0.000000
-0.261600 0.000000
-0.249900 0.000000
-0.238200 0.000000
-0.226500 0.000000
-0.214900 0.000000
-0.203200 0.000000
-0.191500 0.000000
-0.179800 0.000000
-0.168100 0.000000
-0.156500 0.000000
-0.144800 0.000000
-0.133100 0.000000
-0.121400 0.000000
-0.109800 0.000000
-0.098100 0.000000
-0.086400 0.000000
-0.074700 0.000000
-0.063000 0.000000
-0.051400 0.000000
-0.039700 0.000000
-0.028000 0.000000
-0.016300 0.000000
-0.004700 0.000000
0.007000 0.000000
0.018700 0.000000
0.030400 0.000000
0.042000 0.000000
0.053700 0.000000
0.065400 0.000000
0.077100 0.000000
0.088800 0.000000
0.100400 0.000000
0.112100 0.000000
0.123800 0.000000
0.135500 0.000000
0.147100 0.000000
0.158800 0.000000
0.170500 0.000000
0.182200 0.000000
0.193900 0.000000
0.205500 0.000000
0.217200 0.000000
0.228900 0.000000
0.240600 0.000000
0.252200 0.000000
0.263900 0.000000
0.275600 0.000000
0.287300 0.000000
0.298900 0.000000
0.310600 0.000000
0.322300 0.000000
0.334000 0.000000
0.345700 0.000000
0.357300 0.000000
0.369000 0.000000
0.380700 0.000000
0.392400 0.000000
0.404000 0.000000
0.415700 0.000000
0.427400 0.000000
0.439100 0.000000
0.450800 0.000000
0.462400 0.000000
0.474100 0.000000
0.485800 0.000000
0.497500 0.000000
0.509100 0.000000
0.520800 0.363800
0.532500 0.459600
0.544200 0.538200
0.555800 0.630400
0.567500 0.740900
0.579200 0.866900
0.590900 1.022600
0.602600 1.058400
0.614200 1.101200
0.625900 1.185000
0.637600 1.285200
0.649300 1.355900
0.660900 1.422000
0.672600 1.497800
0.684300 1.603600
0.696000 1.741000
0.707700 1.959900
0.719300 1.984900
0.731000 1.960800
0.742700 1.996400
0.754400 2.057400
0.766000 2.094600
0.777700 2.110900
0.789400 2.113400
0.801100 2.125200
0.812700 2.095600
0.824400 2.092000
0.836100 2.095500
0.847800 2.102500
0.859500 2.112200
0.871100 2.144000
0.882800 2.358300
0.894500 2.487300
0.906200 2.557400
0.917800 2.583400
0.929500 2.588100
0.941200 2.563500
0.952900 2.514900
0.964600 2.489000
0.976200 2.451300
0.987900 2.412800
0.999600 2.414200
1.011300 2.386800
1.022900 2.272100
1.034600 1.880600
1.046300 1.768000
1.058000 1.695800
1.069600 1.642000
1.081300 1.600900
1.093000 1.569200
1.104700 1.545600
1.116400 1.533800
1.128000 1.539000
1.139700 1.555100
1.151400 1.570700
1.163100 1.606800
1.174700 1.621800
1.186400 1.592700
1.198100 1.519600
1.209800 1.568500
1.221500 1.649200
1.233100 1.741600
1.244800 1.847700
1.256500 1.938100
1.268200 2.021500
1.279800 2.099100
1.291500 2.184300
1.303200 2.265200
1.314900 2.298800
1.326500 2.289700
1.338200 2.259900
1.349900 2.169400
1.361600 1.842500
1.373300 1.774500
1.384900 1.796900
1.396600 1.827400
1.408300 1.864900
1.420000 1.909600
1.431600 1.964800
1.443300 1.974100
1.455000 1.985000
1.466700 1.967500
1.478400 1.977300
1.490000 2.006200
1.501700 2.040000
1.513400 2.084200
1.525100 2.136000
1.536700 2.189900
1.548400 2.248400
1.560100 2.320700
1.571800 2.376100
1.583400 2.399000
1.595100 2.396900
1.606800 2.526700
1.618500 2.933900
1.630200 3.323400
1.641800 3.680100
1.653500 4.004600
1.665200 4.173700
1.676900 4.183800
1.688500 3.912700
1.700200 3.786500
1.711900 3.667400
1.723600 3.575900
1.735300 3.518500
1.746900 3.493200
1.758600 3.492400
1.770300 3.509400
1.782000 3.613500
1.793600 3.819700
1.805300 4.023800
1.817000 4.082000
1.828700 4.069700
1.840300 4.028800
1.852000 4.021000
1.863700 4.023200
1.875400 4.160500
1.887100 4.188200
1.898700 4.187400
1.910400 4.179200
1.922100 4.185600
1.933800 4.230800
1.945400 4.320500
1.957100 4.411300
1.968800 4.475600
1.980500 4.457800
1.992200 4.424100
2.003800 4.383900
2.015500 4.361900
2.027200 4.429900
2.038900 4.513900
2.050500 4.477200
2.062200 4.236500
2.073900 4.169600
2.085600 4.110300
2.097200 4.045000
2.108900 3.983700
2.120600 3.932500
2.132300 3.889000
2.144000 3.900100
2.155600 3.944100
2.167300 3.962300
2.179000 3.982600
2.190700 4.005500
2.202300 4.042100
2.214000 4.094500
2.225700 4.145900
2.237400 4.200100
2.249000 4.264600
2.260700 4.340500
2.272400 4.436800
2.284100 4.562300
2.295800 4.745500
2.307400 4.946400
2.319100 5.134400
2.330800 5.381300
2.342500 5.843800
2.354100 6.326500
2.365800 6.421600
2.377500 6.439200
2.389200 6.439200
2.400900 6.401100
2.412500 6.364000
2.424200 6.306800
2.435900 5.984800
2.447600 5.536700
2.459200 5.264700
2.470900 5.055300
2.482600 4.899500
2.494300 4.796400
2.505900 4.613400
2.517600 4.425400
2.529300 4.322600
2.541000 4.262300
2.552700 4.213900
2.564300 4.180000
2.576000 4.194400
2.587700 4.119900
2.599400 4.047100
2.611000 4.037600
2.622700 4.078500
2.634400 4.166700
2.646100 4.215100
2.657800 4.243000
2.669400 4.272000
2.681100 4.285600
2.692800 4.293600
2.704500 4.282100
2.716100 4.310700
2.727800 4.334800
2.739500 4.238600
2.751200 4.241300
2.762800 4.293900
2.774500 4.358300
2.786200 4.444300
2.797900 4.592100
2.809600 4.784100
2.821200 4.857300
2.832900 4.865900
2.844600 4.872400
2.856300 4.983900
2.867900 5.098700
2.879600 5.184200
2.891300 5.272900
2.903000 5.377000
2.914700 5.459900
2.926300 5.557600
2.938000 5.649000
2.949700 5.694800
2.961400 5.688400
2.973000 5.640700
2.984700 5.520900
2.996400 5.431100
3.008100 5.441400
3.019700 5.356900
3.031400 5.250500
3.043100 5.145300
3.054800 5.044300
3.066500 4.953900
3.078100 4.877800
3.089800 4.783000
3.101500 4.680800
3.113200 4.564700
3.124800 4.482000
3.136500 4.418500
3.148200 4.365700
3.159900 4.283600
3.171600 4.146000
3.183200 4.106300
3.194900 4.074600
3.206600 4.066700
3.218300 4.091200
3.229900 4.125400
3.241600 4.156700
3.253300 4.188100
3.265000 4.212900
3.276600 4.226200
3.288300 4.207100
3.300000 4.136100
3.311700 4.024600
3.323400 3.939200
3.335000 3.893600
3.346700 3.890700
3.358400 3.865900
3.370100 3.805900
3.381700 3.737800
3.393400 3.677400
3.405100 3.627000
3.416800 3.589700
3.428500 3.557200
3.440100 3.566200
3.451800 3.584900
3.463500 3.519700
3.475200 3.571700
3.486800 3.579000
3.498500 3.590100
3.510200 3.567900
3.521900 3.586000
3.533500 3.582800
3.545200 3.567300
3.556900 3.538000
3.568600 3.496000
3.580300 3.464000
3.591900 3.441600
3.603600 3.458700
3.615300 3.323600
3.627000 3.133900
3.638600 2.965100
3.650300 2.817400
3.662000 2.690500
3.673700 2.580300
3.685400 2.495200
3.697000 2.466600
3.708700 2.524700
3.720400 2.669700
3.732100 2.853600
3.743700 3.016800
3.755400 3.219000
3.767100 3.369000
3.778800 3.502500
3.790400 3.594400
3.802100 3.616800
3.813800 3.610200
3.825500 3.587400
3.837200 3.546300
3.848800 3.465200
3.860500 3.351500
3.872200 3.222000
3.883900 3.142900
3.895500 3.100000
3.907200 3.105100
3.918900 3.072800
3.930600 3.055500
3.942300 3.049500
3.953900 3.049300
3.965600 3.052800
3.977300 3.054100
3.989000 3.047000
4.000600 3.056100
4.012300 3.082200
4.024000 3.133700
4.035700 3.198500
4.047300 3.260000
4.059000 3.315500
4.070700 3.407900
4.082400 3.512000
4.094100 3.597600
4.105700 3.679800
4.117400 3.639800
4.129100 3.554100
4.140800 3.491600
4.152400 3.490500
4.164100 3.585200
4.175800 3.739600
4.187500 3.952300
4.199200 4.102400
4.210800 4.199900
4.222500 4.319900
