set title 'mp-10905 - Density of States'
set xlabel 'Energy (eV)'
set ylabel 'DOS (states/eV)'
set grid
set xrange [-10:10]
set yrange [0:16.478]
set xzeroaxis lt -1
set terminal png size 800,600
set output 'mp-10905_dos_gnuplot.png'
plot '-' using 1:2 with lines title 'DOS'
-4.166800 0.000000
-4.155400 0.000000
-4.144100 0.000000
-4.132700 0.000000
-4.121300 0.000000
-4.110000 0.000000
-4.098600 0.000000
-4.087200 0.000000
-4.075800 0.000000
-4.064500 0.000000
-4.053100 0.000000
-4.041700 0.000000
-4.030400 0.000000
-4.019000 0.000000
-4.007600 0.000000
-3.996300 0.000000
-3.984900 0.000000
-3.973500 0.000000
-3.962100 0.000000
-3.950800 0.000000
-3.939400 0.000000
-3.928000 0.000000
-3.916700 0.000000
-3.905300 0.000000
-3.893900 0.000000
-3.882500 0.000000
-3.871200 0.000000
-3.859800 0.000000
-3.848400 0.000000
-3.837100 0.000000
-3.825700 0.000000
-3.814300 0.000000
-3.803000 0.000000
-3.791600 0.000000
-3.780200 0.000000
-3.768800 0.000000
-3.757500 0.000000
-3.746100 0.000000
-3.734700 0.000000
-3.723400 0.000000
-3.712000 0.000000
-3.700600 0.000000
-3.689200 0.000000
-3.677900 0.000000
-3.666500 0.000000
-3.655100 0.000000
-3.643800 0.000000
-3.632400 0.000000
-3.621000 0.000000
-3.609700 0.000000
-3.598300 0.000000
-3.586900 0.000000
-3.575500 0.000000
-3.564200 0.000000
-3.552800 0.000000
-3.541400 0.000000
-3.530100 0.000000
-3.518700 0.000000
-3.507300 0.000000
-3.495900 0.000000
-3.484600 0.000000
-3.473200 0.000000
-3.461800 0.000000
-3.450500 0.000000
-3.439100 0.000000
-3.427700 0.000000
-3.416400 0.000000
-3.405000 0.000000
-3.393600 0.000000
-3.382200 0.000000
-3.370900 0.000000
-3.359500 0.000000
-3.348100 0.000000
-3.336800 0.000000
-3.325400 0.000000
-3.314000 0.000000
-3.302700 0.000000
-3.291300 0.000000
-3.279900 0.000000
-3.268500 0.000000
-3.257200 0.000000
-3.245800 0.000000
-3.234400 0.000000
-3.223100 0.000000
-3.211700 0.000000
-3.200300 0.000000
-3.188900 0.000000
-3.177600 0.000000
-3.166200 0.000000
-3.154800 0.000000
-3.143500 0.000000
-3.132100 0.000000
-3.120700 0.005900
-3.109400 0.021600
-3.098000 0.047300
-3.086600 0.081100
-3.075200 0.112300
-3.063900 0.122500
-3.052500 0.127000
-3.041100 0.125900
-3.029800 0.135100
-3.018400 0.146500
-3.007000 0.158200
-2.995600 0.170200
-2.984300 0.182400
-2.972900 0.194600
-2.961500 0.205500
-2.950200 0.213700
-2.938800 0.219100
-2.927400 0.221700
-2.916100 0.225700
-2.904700 0.230000
-2.893300 0.235100
-2.881900 0.241000
-2.870600 0.247700
-2.859200 0.254500
-2.847800 0.261300
-2.836500 0.268200
-2.825100 0.275000
-2.813700 0.281800
-2.802400 0.288800
-2.791000 0.295800
-2.779600 0.302700
-2.768200 0.309300
-2.756900 0.315700
-2.745500 0.320300
-2.734100 0.324600
-2.722800 0.328600
-2.711400 0.332600
-2.700000 0.337600
-2.688600 0.342500
-2.677300 0.347300
-2.665900 0.352000
-2.654500 0.356600
-2.643200 0.361100
-2.631800 0.365700
-2.620400 0.370500
-2.609100 0.375500
-2.597700 0.380800
-2.586300 0.386300
-2.574900 0.391900
-2.563600 0.397600
-2.552200 0.403300
-2.540800 0.409100
-2.529500 0.414800
-2.518100 0.420700
-2.506700 0.426500
-2.495300 0.432400
-2.484000 0.438400
-2.472600 0.444000
-2.461200 0.449200
-2.449900 0.453800
-2.438500 0.458100
-2.427100 0.462300
-2.415800 0.466800
-2.404400 0.471600
-2.393000 0.476700
-2.381600 0.481800
-2.370300 0.486900
-2.358900 0.492000
-2.347500 0.497100
-2.336200 0.502300
-2.324800 0.508600
-2.313400 0.516700
-2.302000 0.526600
-2.290700 0.538200
-2.279300 0.550000
-2.267900 0.559700
-2.256600 0.569500
-2.245200 0.579600
-2.233800 0.589800
-2.222500 0.600200
-2.211100 0.608400
-2.199700 0.613500
-2.188300 0.615400
-2.177000 0.614200
-2.165600 0.612800
-2.154200 0.615500
-2.142900 0.617800
-2.131500 0.619700
-2.120100 0.621000
-2.108800 0.621400
-2.097400 0.621500
-2.086000 0.621300
-2.074600 0.621200
-2.063300 0.620800
-2.051900 0.620400
-2.040500 0.620300
-2.029200 0.620500
-2.017800 0.621100
-2.006400 0.622100
-1.995000 0.623400
-1.983700 0.624800
-1.972300 0.626100
-1.960900 0.627500
-1.949600 0.628500
-1.938200 0.629400
-1.926800 0.630200
-1.915500 0.630900
-1.904100 0.631600
-1.892700 0.632100
-1.881300 0.632600
-1.870000 0.632900
-1.858600 0.633200
-1.847200 0.633400
-1.835900 0.634000
-1.824500 0.634900
-1.813100 0.635900
-1.801700 0.637000
-1.790400 0.638200
-1.779000 0.639500
-1.767600 0.640800
-1.756300 0.642200
-1.744900 0.643600
-1.733500 0.645200
-1.722200 0.646700
-1.710800 0.648100
-1.699400 0.649400
-1.688000 0.650500
-1.676700 0.651300
-1.665300 0.652100
-1.653900 0.652900
-1.642600 0.653700
-1.631200 0.654400
-1.619800 0.655100
-1.608500 0.655800
-1.597100 0.656400
-1.585700 0.657000
-1.574300 0.657500
-1.563000 0.658200
-1.551600 0.659000
-1.540200 0.659900
-1.528900 0.661000
-1.517500 0.662300
-1.506100 0.663600
-1.494700 0.665000
-1.483400 0.666400
-1.472000 0.667800
-1.460600 0.669300
-1.449300 0.670700
-1.437900 0.672200
-1.426500 0.673800
-1.415200 0.675300
-1.403800 0.676900
-1.392400 0.678500
-1.381000 0.680200
-1.369700 0.681800
-1.358300 0.683500
-1.346900 0.685200
-1.335600 0.686900
-1.324200 0.688400
-1.312800 0.690000
-1.301400 0.691600
-1.290100 0.693200
-1.278700 0.694800
-1.267300 0.696400
-1.256000 0.698100
-1.244600 0.699600
-1.233200 0.701100
-1.221900 0.702700
-1.210500 0.704400
-1.199100 0.706300
-1.187700 0.708200
-1.176400 0.710200
-1.165000 0.712300
-1.153600 0.714600
-1.142300 0.717000
-1.130900 0.719600
-1.119500 0.722200
-1.108200 0.724900
-1.096800 0.727700
-1.085400 0.730500
-1.074000 0.733400
-1.062700 0.736300
-1.051300 0.739300
-1.039900 0.742300
-1.028600 0.745500
-1.017200 0.749300
-1.005800 0.753600
-0.994400 0.758200
-0.983100 0.763200
-0.971700 0.768400
-0.960300 0.773700
-0.949000 0.779300
-0.937600 0.785100
-0.926200 0.791100
-0.914900 0.797200
-0.903500 0.803500
-0.892100 0.809900
-0.880700 0.816500
-0.869400 0.825400
-0.858000 0.847800
-0.846600 0.882000
-0.835300 0.913900
-0.823900 0.934800
-0.812500 0.945700
-0.801100 0.954200
-0.789800 0.961900
-0.778400 0.969000
-0.767000 0.975500
-0.755700 0.981600
-0.744300 0.987300
-0.732900 0.993300
-0.721600 1.038800
-0.710200 1.111200
-0.698800 1.106400
-0.687400 1.088900
-0.676100 1.036900
-0.664700 1.028200
-0.653300 1.027700
-0.642000 1.027200
-0.630600 1.026700
-0.619200 1.026300
-0.607800 1.025700
-0.596500 1.024900
-0.585100 1.023400
-0.573700 1.015100
-0.562400 1.009400
-0.551000 1.006600
-0.539600 1.005000
-0.528300 1.003200
-0.516900 1.001000
-0.505500 0.998600
-0.494100 0.996000
-0.482800 0.993400
-0.471400 0.990700
-0.460000 0.988000
-0.448700 0.985200
-0.437300 0.982300
-0.425900 0.979900
-0.414600 0.978500
-0.403200 0.977600
-0.391800 0.978200
-0.380400 0.979600
-0.369100 0.981600
-0.357700 0.984300
-0.346300 0.987400
-0.335000 0.990600
-0.323600 0.994000
-0.312200 0.997600
-0.300800 0.997800
-0.289500 0.988500
-0.278100 0.978300
-0.266700 0.967800
-0.255400 0.964700
-0.244000 0.961800
-0.232600 0.958700
-0.221300 0.955600
-0.209900 0.952400
-0.198500 0.949400
-0.187100 0.946600
-0.175800 0.944100
-0.164400 0.941600
-0.153000 0.939800
-0.141700 0.938800
-0.130300 0.937900
-0.118900 0.936900
-0.107500 0.935900
-0.096200 0.934900
-0.084800 0.933900
-0.073400 0.932800
-0.062100 0.931700
-0.050700 0.930500
-0.039300 0.929400
-0.028000 0.928400
-0.016600 0.927300
-0.005200 0.926700
0.006200 0.927500
0.017500 0.916300
0.028900 0.907700
0.040300 0.901500
0.051600 0.896300
0.063000 0.891900
0.074400 0.888400
0.085700 0.885900
0.097100 0.884400
0.108500 0.884100
0.119900 0.885400
0.131200 0.887900
0.142600 0.891800
0.154000 0.889600
0.165300 0.858000
0.176700 0.903000
0.188100 0.992100
0.199500 1.119400
0.210800 1.288300
0.222200 1.561300
0.233600 1.655400
0.244900 1.744900
0.256300 1.813500
0.267700 1.890000
0.279000 1.998200
0.290400 2.225500
0.301800 2.481900
0.313200 2.564200
0.324500 2.376700
0.335900 2.280400
0.347300 2.261900
0.358600 2.257500
0.370000 2.264300
0.381400 2.277200
0.392800 2.257000
0.404100 2.227400
0.415500 2.205000
0.426900 2.194400
0.438200 2.191600
0.449600 2.191900
0.461000 2.198500
0.472300 2.206300
0.483700 2.215500
0.495100 2.217300
0.506500 2.209900
0.517800 2.205700
0.529200 2.196700
0.540600 2.188000
0.551900 2.186400
0.563300 2.178100
0.574700 2.163000
0.586100 2.149700
0.597400 2.136500
0.608800 2.124400
0.620200 2.117600
0.631500 2.114300
0.642900 2.110000
0.654300 2.105900
0.665600 2.096000
0.677000 2.084500
0.688400 2.081600
0.699800 2.139000
0.711100 2.236000
0.722500 2.359800
0.733900 2.485800
0.745200 2.610100
0.756600 2.701500
0.768000 2.779500
0.779300 2.851100
0.790700 2.900100
0.802100 2.928100
0.813500 2.971400
0.824800 3.007800
0.836200 3.040000
0.847600 3.122100
0.858900 3.197300
0.870300 3.213600
0.881700 3.446400
0.893100 3.876700
0.904400 3.990800
0.915800 3.891300
0.927200 3.868900
0.938500 3.631000
0.949900 3.553200
0.961300 3.478400
0.972600 3.374600
0.984000 3.229400
0.995400 3.127600
1.006800 3.031600
1.018100 2.957700
1.029500 2.861800
1.040900 2.695400
1.052200 2.376300
1.063600 2.164200
1.075000 2.019700
1.086400 1.938200
1.097700 1.924100
1.109100 2.126100
1.120500 2.524300
1.131800 2.961300
1.143200 3.310300
1.154600 3.670500
1.165900 4.121600
1.177300 4.359100
1.188700 4.316800
1.200100 4.171700
1.211400 3.980600
1.222800 3.876300
1.234200 3.691100
1.245500 3.678500
1.256900 3.638200
1.268300 3.585600
1.279600 3.592200
1.291000 3.576600
1.302400 3.590600
1.313800 3.640700
1.325100 3.784900
1.336500 3.771100
1.347900 3.695000
1.359200 3.531700
1.370600 3.483800
1.382000 2.665400
1.393400 2.223100
1.404700 2.200000
1.416100 2.180800
1.427500 2.141900
1.438800 2.110800
1.450200 2.156600
1.461600 2.235900
1.472900 2.325100
1.484300 2.384500
1.495700 2.407600
1.507100 2.399900
1.518400 2.378200
1.529800 2.344000
1.541200 2.302700
1.552500 2.259600
1.563900 2.229400
1.575300 2.200600
1.586700 2.175700
1.598000 2.154900
1.609400 2.138700
1.620800 2.134600
1.632100 2.149000
1.643500 2.169500
1.654900 2.165700
1.666200 2.132800
1.677600 2.104100
1.689000 2.085200
1.700400 2.070800
1.711700 2.063300
1.723100 2.056000
1.734500 2.058900
1.745800 2.059200
1.757200 2.062600
1.768600 2.066300
1.779900 2.064000
1.791300 2.061900
1.802700 2.065900
1.814100 2.069200
1.825400 2.064100
1.836800 2.067500
1.848200 2.083600
1.859500 2.077200
1.870900 2.042900
1.882300 2.012200
1.893700 2.016300
1.905000 2.180500
1.916400 2.477600
1.927800 2.932600
1.939100 3.214500
1.950500 3.460200
1.961900 3.870800
1.973200 4.404600
1.984600 4.998300
1.996000 6.295300
2.007400 8.147800
2.018700 4.909400
2.030100 4.634300
2.041500 4.439400
2.052800 4.199100
2.064200 4.021200
2.075600 4.082700
2.087000 4.071500
2.098300 4.082300
2.109700 4.117600
2.121100 4.141200
2.132400 4.181600
2.143800 4.243700
2.155200 4.309500
2.166500 4.380800
2.177900 4.472500
2.189300 4.371600
2.200700 4.362600
2.212000 4.395200
2.223400 4.424000
2.234800 4.452900
2.246100 4.500500
2.257500 4.566800
2.268900 4.812000
2.280300 4.697300
2.291600 4.573700
2.303000 4.521100
2.314400 4.524900
2.325700 4.519400
2.337100 4.541600
2.348500 4.611600
2.359800 4.533100
2.371200 4.201500
2.382600 3.686900
2.394000 3.348700
2.405300 3.043300
2.416700 2.941100
2.428100 3.018000
2.439400 3.176300
2.450800 3.396000
2.462200 3.568200
2.473500 3.699000
2.484900 3.798000
2.496300 3.918800
2.507700 3.954100
2.519000 3.738600
2.530400 3.595900
2.541800 3.627900
2.553100 4.251200
2.564500 4.952000
2.575900 5.135000
2.587300 5.988200
2.598600 7.860600
2.610000 8.986800
2.621400 9.781700
2.632700 10.050800
2.644100 11.427100
2.655500 12.560400
2.666800 13.051300
2.678200 13.682400
2.689600 14.472300
2.701000 14.891400
2.712300 14.421000
2.723700 14.980200
2.735100 13.375100
2.746400 12.523000
2.757800 11.701900
2.769200 10.817500
2.780600 9.906700
2.791900 9.708000
2.803300 8.557300
2.814700 7.833400
2.826000 7.135700
2.837400 6.633200
2.848800 5.842200
2.860100 5.207600
2.871500 4.702000
2.882900 4.377500
2.894300 4.027300
2.905600 3.549800
2.917000 3.097900
2.928400 2.871200
2.939700 2.765300
2.951100 2.748300
2.962500 2.782000
2.973800 2.826800
2.985200 2.861700
2.996600 2.888600
3.008000 2.910700
3.019300 2.933400
3.030700 2.941200
3.042100 2.933300
3.053400 2.937400
3.064800 3.026200
3.076200 3.056300
3.087600 3.015100
3.098900 2.884400
3.110300 2.685500
3.121700 2.513800
3.133000 2.379600
3.144400 2.281700
3.155800 2.549300
3.167100 2.816500
3.178500 3.006800
3.189900 3.292600
3.201300 3.615200
3.212600 3.767400
3.224000 4.187500
3.235400 4.329500
3.246700 4.395400
3.258100 4.300900
3.269500 4.189600
3.280900 4.119900
3.292200 4.091400
3.303600 4.064300
3.315000 4.040600
3.326300 4.083000
3.337700 4.151700
3.349100 4.098400
3.360400 4.029000
3.371800 4.023500
3.383200 4.024900
3.394600 4.046300
3.405900 4.111400
3.417300 4.162300
3.428700 4.203100
3.440000 4.233800
3.451400 4.276300
3.462800 4.334200
3.474200 4.462900
3.485500 4.481400
3.496900 4.550200
3.508300 4.654000
3.519600 4.679900
3.531000 4.767300
3.542400 4.805200
3.553700 5.027900
3.565100 5.272200
3.576500 5.168900
3.587900 5.346900
3.599200 5.755000
3.610600 6.370900
3.622000 7.048900
3.633300 6.945600
3.644700 6.888100
3.656100 6.646000
3.667400 6.279100
3.678800 6.130600
3.690200 6.170500
3.701600 6.133500
3.712900 6.253600
3.724300 6.670900
3.735700 7.264500
3.747000 7.904700
3.758400 9.383400
3.769800 10.920000
3.781200 9.437500
3.792500 8.619000
3.803900 7.776000
3.815300 7.213000
3.826600 6.932300
3.838000 6.697900
3.849400 6.459900
3.860700 6.142700
3.872100 5.849000
3.883500 5.599200
3.894900 5.402300
3.906200 5.229200
3.917600 5.063700
3.929000 4.981700
3.940300 4.891500
3.951700 4.807200
3.963100 4.734200
3.974500 4.642700
3.985800 4.477100
3.997200 4.196900
4.008600 3.859700
4.019900 3.537500
4.031300 3.368200
4.042700 3.267600
4.054000 3.183900
4.065400 3.685100
4.076800 3.876100
4.088200 4.113900
4.099500 4.487900
4.110900 4.588400
4.122300 4.370700
4.133600 4.285700
4.145000 4.328000
4.156400 4.460000
4.167700 4.656700
4.179100 4.906800
4.190500 5.475600
4.201900 5.844800
4.213200 6.187100
4.224600 6.595300
4.236000 7.285500
4.247300 7.985000
4.258700 9.489500
4.270100 10.228000
4.281500 11.221000
4.292800 12.606700
4.304200 14.143900
4.315600 14.369700
4.326900 10.255500
4.338300 9.478800
4.349700 9.923800
4.361000 9.555100
4.372400 9.377900
4.383800 9.300200
4.395200 9.216100
4.406500 8.163700
4.417900 6.873900
4.429300 6.581800
4.440600 5.620500
4.452000 5.210100
4.463400 5.166300
4.474800 5.222200
4.486100 5.346500
4.497500 5.564800
4.508900 5.881100
4.520200 6.024500
4.531600 6.307400
4.543000 6.261600
4.554300 6.211000
4.565700 6.189000
4.577100 6.184500
4.588500 6.253100
4.599800 6.348600
4.611200 6.469900
4.622600 6.663800
4.633900 6.772400
4.645300 6.883000
4.656700 6.710400
4.668000 6.487100
4.679400 6.442300
4.690800 6.526000
4.702200 6.443100
4.713500 6.167900
4.724900 5.983100
4.736300 5.894200
4.747600 5.850300
4.759000 5.826300
4.770400 5.748200
4.781800 5.676400
4.793100 5.638000
4.804500 5.646400
4.815900 5.641200
4.827200 5.626900
4.838600 5.589700
4.850000 5.536300
4.861300 5.440800
4.872700 5.268700
4.884100 5.200200
4.895500 5.266600
4.906800 5.368900
4.918200 5.468100
4.929600 5.591400
4.940900 5.705200
4.952300 5.724700
4.963700 6.138900
4.975100 5.501300
4.986400 5.215900
4.997800 4.653200
5.009200 4.283200
5.020500 4.030700
5.031900 3.770500
5.043300 3.456100
5.054600 3.234400
5.066000 3.087300
5.077400 2.851100
5.088800 2.761500
5.100100 2.770000
5.111500 2.788600
5.122900 2.812300
5.134200 2.826800
5.145600 2.835500
5.157000 2.865800
5.168400 2.983100
5.179700 2.929200
5.191100 2.827800
5.202500 2.632900
5.213800 2.476300
5.225200 2.402800
5.236600 2.119200
5.247900 1.837400
5.259300 1.615400
5.270700 1.462600
5.282100 1.362000
5.293400 1.288600
5.304800 1.233400
5.316200 1.187900
5.327500 1.156600
5.338900 1.131300
5.350300 1.105500
5.361600 1.079600
5.373000 1.053400
5.384400 1.027100
5.395800 1.001600
5.407100 0.977100
5.418500 0.953500
5.429900 0.931300
5.441200 0.916200
5.452600 0.908300
5.464000 0.905700
5.475400 0.909300
5.486700 0.920200
5.498100 0.935400
5.509500 0.954800
5.520800 0.981500
5.532200 1.040400
5.543600 1.136600
5.554900 1.318600
5.566300 1.231100
5.577700 1.203800
5.589100 1.202800
5.600400 1.221700
5.611800 1.245200
5.623200 1.270700
5.634500 1.299100
5.645900 1.334000
5.657300 1.374600
5.668700 1.420000
5.680000 1.468200
5.691400 1.516600
5.702800 1.563300
5.714100 1.604900
5.725500 1.662500
5.736900 1.692600
5.748200 1.701700
5.759600 1.701400
5.771000 1.703200
5.782400 1.723200
5.793700 1.746000
5.805100 1.770200
5.816500 1.795700
5.827800 1.823200
5.839200 1.853800
5.850600 1.884200
5.861900 1.911900
5.873300 1.939800
5.884700 1.968600
5.896100 1.996400
5.907400 2.043700
5.918800 2.119800
5.930200 2.252400
5.941500 2.274800
5.952900 2.298100
5.964300 2.328800
5.975700 2.371500
5.987000 2.478200
5.998400 2.637200
6.009800 2.846600
6.021100 2.890200
6.032500 2.867600
6.043900 2.798900
6.055200 2.750500
6.066600 2.716000
6.078000 2.685000
6.089400 2.646300
6.100700 2.615000
6.112100 2.590400
6.123500 2.574500
6.134800 2.566200
6.146200 2.551000
6.157600 2.523400
6.169000 2.488100
6.180300 2.451600
6.191700 2.410500
6.203100 2.373400
6.214400 2.340300
6.225800 2.303400
6.237200 2.261300
6.248500 2.226400
6.259900 2.199400
6.271300 2.176700
6.282700 2.158200
6.294000 2.141800
6.305400 2.128100
6.316800 2.119200
6.328100 2.114900
6.339500 2.115800
6.350900 2.123400
6.362300 2.146400
6.373600 2.181700
6.385000 2.206100
6.396400 2.227000
6.407700 2.250800
6.419100 2.284200
6.430500 2.318200
6.441800 2.345100
6.453200 2.359700
6.464600 2.356800
6.476000 2.342100
6.487300 2.329100
6.498700 2.321700
6.510100 2.313300
6.521400 2.305900
6.532800 2.299500
6.544200 2.292700
6.555500 2.276700
6.566900 2.252200
6.578300 2.230000
6.589700 2.224200
6.601000 2.228900
6.612400 2.244300
6.623800 2.257300
6.635100 2.261400
6.646500 2.281400
6.657900 2.303700
6.669300 2.319200
6.680600 2.328600
6.692000 2.347200
6.703400 2.342600
6.714700 2.293700
6.726100 2.218000
6.737500 2.140000
6.748800 2.059700
6.760200 1.996200
6.771600 1.961700
6.783000 1.936500
6.794300 1.916000
6.805700 1.895900
6.817100 1.870600
6.828400 1.842300
6.839800 1.813800
6.851200 1.787300
6.862600 1.767000
6.873900 1.748000
6.885300 1.729700
6.896700 1.711800
6.908000 1.693800
6.919400 1.674200
6.930800 1.655400
6.942100 1.636900
6.953500 1.618600
6.964900 1.600100
6.976300 1.579600
6.987600 1.563000
6.999000 1.544300
7.010400 1.525000
7.021700 1.504400
7.033100 1.483300
7.044500 1.464700
7.055800 1.447800
7.067200 1.432500
7.078600 1.418700
7.090000 1.406100
7.101300 1.395500
7.112700 1.387200
7.124100 1.380400
7.135400 1.374900
7.146800 1.370800
7.158200 1.366500
7.169600 1.360500
7.180900 1.352800
7.192300 1.344400
7.203700 1.335700
7.215000 1.326600
7.226400 1.317700
7.237800 1.309700
7.249100 1.301700
7.260500 1.292400
7.271900 1.282000
7.283300 1.271100
7.294600 1.259300
7.306000 1.246600
7.317400 1.233100
7.328700 1.219800
7.340100 1.206100
7.351500 1.192400
7.362900 1.179800
7.374200 1.167100
7.385600 1.153700
7.397000 1.140600
7.408300 1.129400
7.419700 1.118100
7.431100 1.107700
7.442400 1.097900
7.453800 1.088500
7.465200 1.079100
7.476600 1.068900
7.487900 1.058100
7.499300 1.047600
7.510700 1.037300
7.522000 1.027300
7.533400 1.017400
7.544800 1.007200
7.556100 0.996900
7.567500 0.986700
7.578900 0.976500
7.590300 0.966600
7.601600 0.957100
7.613000 0.948400
7.624400 0.940300
7.635700 0.932500
7.647100 0.924700
7.658500 0.916300
7.669900 0.907300
7.681200 0.897600
7.692600 0.887900
7.704000 0.879200
7.715300 0.871300
7.726700 0.864100
7.738100 0.857300
7.749400 0.850800
7.760800 0.844400
7.772200 0.838200
7.783600 0.832100
7.794900 0.825800
7.806300 0.819800
7.817700 0.814000
7.829000 0.808100
7.840400 0.802300
7.851800 0.796600
7.863200 0.791100
7.874500 0.785900
7.885900 0.780800
7.897300 0.775600
7.908600 0.769900
7.920000 0.764200
7.931400 0.758600
7.942700 0.752900
7.954100 0.747100
7.965500 0.741500
7.976900 0.735900
7.988200 0.732300
7.999600 0.736900
8.011000 0.750000
8.022300 0.771700
8.033700 0.801700
