set title 'mp-21377 - Density of States'
set xlabel 'Energy (eV)'
set ylabel 'DOS (states/eV)'
set grid
set xrange [-10:10]
set yrange [0:2.510]
set xzeroaxis lt -1
set terminal png size 800,600
set output 'mp-21377_dos_gnuplot.png'
plot '-' using 1:2 with lines title 'DOS'
-46.389400 0.000000
-46.294700 0.000000
-46.200100 0.000000
-46.105400 0.000000
-46.010800 0.000000
-45.916200 0.000000
-45.821500 0.000000
-45.726900 0.000000
-45.632200 0.000000
-45.537600 0.000000
-45.442900 0.000000
-45.348300 0.000000
-45.253700 0.000000
-45.159000 0.000000
-45.064400 0.000000
-44.969700 0.000000
-44.875100 0.000000
-44.780400 0.000000
-44.685800 0.000000
-44.591200 0.000000
-44.496500 0.000000
-44.401900 0.000000
-44.307200 0.000000
-44.212600 0.000000
-44.118000 0.000000
-44.023300 0.000000
-43.928700 0.000000
-43.834000 0.000000
-43.739400 0.000000
-43.644700 0.000000
-43.550100 0.000000
-43.455500 0.000000
-43.360800 0.000000
-43.266200 0.000000
-43.171500 0.000000
-43.076900 0.000000
-42.982200 0.000000
-42.887600 0.000000
-42.793000 0.000000
-42.698300 0.000000
-42.603700 0.000000
-42.509000 0.000000
-42.414400 0.000000
-42.319700 0.000000
-42.225100 0.000000
-42.130500 0.000000
-42.035800 0.000000
-41.941200 0.000000
-41.846500 0.000000
-41.751900 0.000000
-41.657300 0.000000
-41.562600 0.000000
-41.468000 0.000000
-41.373300 0.000000
-41.278700 0.000000
-41.184000 0.000000
-41.089400 0.000000
-40.994800 0.000000
-40.900100 0.000000
-40.805500 0.000000
-40.710800 0.000000
-40.616200 0.000000
-40.521500 0.000000
-40.426900 0.000000
-40.332300 0.000000
-40.237600 0.000000
-40.143000 0.000000
-40.048300 0.000000
-39.953700 0.000000
-39.859000 0.000000
-39.764400 0.000000
-39.669800 0.000000
-39.575100 0.000000
-39.480500 0.000000
-39.385800 0.000000
-39.291200 0.000000
-39.196500 0.000000
-39.101900 0.000000
-39.007300 0.000000
-38.912600 0.000000
-38.818000 0.000000
-38.723300 0.000000
-38.628700 0.000000
-38.534100 0.000000
-38.439400 0.000000
-38.344800 0.000000
-38.250100 0.000000
-38.155500 0.000000
-38.060800 0.000000
-37.966200 0.000000
-37.871600 0.000000
-37.776900 1.853700
-37.682300 39.059900
-37.587600 0.000000
-37.493000 0.000000
-37.398300 0.000000
-37.303700 0.000000
-37.209100 0.000000
-37.114400 0.000000
-37.019800 0.000000
-36.925100 0.000000
-36.830500 0.000000
-36.735800 0.000000
-36.641200 0.000000
-36.546600 0.000000
-36.451900 0.000000
-36.357300 0.000000
-36.262600 0.000000
-36.168000 0.000000
-36.073300 0.000000
-35.978700 0.000000
-35.884100 0.000000
-35.789400 0.000000
-35.694800 0.000000
-35.600100 0.000000
-35.505500 0.000000
-35.410900 0.000000
-35.316200 0.000000
-35.221600 0.000000
-35.126900 0.000000
-35.032300 0.000000
-34.937600 0.000000
-34.843000 0.000000
-34.748400 0.000000
-34.653700 0.000000
-34.559100 0.000000
-34.464400 0.000000
-34.369800 0.000000
-34.275100 0.000000
-34.180500 0.000000
-34.085900 0.000000
-33.991200 0.000000
-33.896600 0.000000
-33.801900 0.000000
-33.707300 0.000000
-33.612600 0.000000
-33.518000 0.000000
-33.423400 0.000000
-33.328700 0.000000
-33.234100 0.000000
-33.139400 0.000000
-33.044800 0.000000
-32.950100 0.000000
-32.855500 0.000000
-32.760900 0.000000
-32.666200 0.000000
-32.571600 0.000000
-32.476900 0.000000
-32.382300 0.000000
-32.287700 0.000000
-32.193000 0.000000
-32.098400 0.000000
-32.003700 0.000000
-31.909100 0.000000
-31.814400 0.000000
-31.719800 0.000000
-31.625200 0.000000
-31.530500 0.000000
-31.435900 0.000000
-31.341200 0.000000
-31.246600 0.000000
-31.151900 0.000000
-31.057300 0.000000
-30.962700 0.000000
-30.868000 0.000000
-30.773400 0.000000
-30.678700 0.000000
-30.584100 0.000000
-30.489400 0.000000
-30.394800 0.000000
-30.300200 0.000000
-30.205500 0.000000
-30.110900 0.000000
-30.016200 0.000000
-29.921600 0.000000
-29.826900 0.000000
-29.732300 0.000000
-29.637700 0.000000
-29.543000 0.000000
-29.448400 0.000000
-29.353700 0.000000
-29.259100 0.000000
-29.164500 0.000000
-29.069800 0.000000
-28.975200 0.000000
-28.880500 0.000000
-28.785900 0.000000
-28.691200 0.000000
-28.596600 0.000000
-28.502000 0.000000
-28.407300 0.000000
-28.312700 0.000000
-28.218000 0.000000
-28.123400 0.000000
-28.028700 0.000000
-27.934100 0.000000
-27.839500 0.000000
-27.744800 0.000000
-27.650200 0.000000
-27.555500 0.000000
-27.460900 0.000000
-27.366200 0.000000
-27.271600 0.000000
-27.177000 0.000000
-27.082300 0.000000
-26.987700 0.000000
-26.893000 0.000000
-26.798400 0.000000
-26.703700 0.000000
-26.609100 0.000000
-26.514500 0.000000
-26.419800 0.000000
-26.325200 0.000000
-26.230500 0.000000
-26.135900 0.000000
-26.041300 0.000000
-25.946600 0.000000
-25.852000 0.000000
-25.757300 0.000000
-25.662700 0.000000
-25.568000 0.000000
-25.473400 0.000000
-25.378800 0.000000
-25.284100 0.000000
-25.189500 0.000000
-25.094800 0.000000
-25.000200 0.000000
-24.905500 0.000000
-24.810900 0.000000
-24.716300 0.000000
-24.621600 0.000000
-24.527000 0.000000
-24.432300 0.000000
-24.337700 0.000000
-24.243000 0.000000
-24.148400 0.000000
-24.053800 0.000000
-23.959100 0.000000
-23.864500 0.000000
-23.769800 0.000000
-23.675200 0.000000
-23.580500 0.000000
-23.485900 0.000000
-23.391300 0.000000
-23.296600 0.000000
-23.202000 0.000000
-23.107300 0.000000
-23.012700 0.000000
-22.918100 0.000000
-22.823400 0.000000
-22.728800 0.000000
-22.634100 0.000000
-22.539500 0.000000
-22.444800 0.000000
-22.350200 0.000000
-22.255600 0.000000
-22.160900 0.000000
-22.066300 0.000000
-21.971600 0.000000
-21.877000 0.000000
-21.782300 0.000000
-21.687700 0.000000
-21.593100 0.000000
-21.498400 0.000000
-21.403800 0.000000
-21.309100 0.000000
-21.214500 0.000000
-21.119800 0.000000
-21.025200 0.000000
-20.930600 0.000000
-20.835900 0.000000
-20.741300 0.000000
-20.646600 0.000000
-20.552000 0.000000
-20.457300 0.000000
-20.362700 0.000000
-20.268100 0.000000
-20.173400 0.000000
-20.078800 0.000000
-19.984100 0.000000
-19.889500 0.000000
-19.794900 0.000000
-19.700200 0.000000
-19.605600 0.000000
-19.510900 0.000000
-19.416300 0.000000
-19.321600 0.000000
-19.227000 0.000000
-19.132400 0.000000
-19.037700 0.000000
-18.943100 0.000000
-18.848400 0.000000
-18.753800 0.000000
-18.659100 0.000000
-18.564500 0.000000
-18.469900 0.000000
-18.375200 0.000000
-18.280600 0.000000
-18.185900 0.000000
-18.091300 0.000000
-17.996600 0.000000
-17.902000 0.000000
-17.807400 0.000000
-17.712700 2.026800
-17.618100 11.237800
-17.523400 4.667000
-17.428800 4.439900
-17.334100 5.243500
-17.239500 6.438000
-17.144900 12.320700
-17.050200 13.993600
-16.955600 4.929900
-16.860900 0.000000
-16.766300 0.000000
-16.671700 0.000000
-16.577000 0.000000
-16.482400 0.000000
-16.387700 0.000000
-16.293100 0.000000
-16.198400 0.000000
-16.103800 0.000000
-16.009200 0.000000
-15.914500 0.000000
-15.819900 0.000000
-15.725200 0.000000
-15.630600 0.000000
-15.535900 0.000000
-15.441300 0.000000
-15.346700 0.000000
-15.252000 0.000000
-15.157400 0.000000
-15.062700 0.000000
-14.968100 0.000000
-14.873400 0.000000
-14.778800 0.000000
-14.684200 0.000000
-14.589500 0.000000
-14.494900 0.000000
-14.400200 0.000000
-14.305600 0.000000
-14.210900 0.000000
-14.116300 0.000000
-14.021700 0.000000
-13.927000 0.000000
-13.832400 0.000000
-13.737700 0.000000
-13.643100 0.000000
-13.548500 0.000000
-13.453800 0.000000
-13.359200 0.000000
-13.264500 0.000000
-13.169900 0.000000
-13.075200 0.000000
-12.980600 0.000000
-12.886000 0.000000
-12.791300 0.000000
-12.696700 0.000000
-12.602000 0.000000
-12.507400 0.000000
-12.412700 0.000000
-12.318100 0.000000
-12.223500 0.000000
-12.128800 0.000000
-12.034200 0.000000
-11.939500 0.000000
-11.844900 0.000000
-11.750200 0.000000
-11.655600 0.000000
-11.561000 0.000000
-11.466300 0.000000
-11.371700 0.000000
-11.277000 0.000000
-11.182400 0.000000
-11.087700 0.000000
-10.993100 0.000000
-10.898500 0.000000
-10.803800 0.000000
-10.709200 0.000000
-10.614500 0.000000
-10.519900 0.000000
-10.425300 0.000000
-10.330600 0.000000
-10.236000 0.000000
-10.141300 0.000000
-10.046700 0.000000
-9.952000 0.000000
-9.857400 0.000000
-9.762800 0.000000
-9.668100 0.000000
-9.573500 0.000000
-9.478800 0.000000
-9.384200 0.000000
-9.289500 0.000000
-9.194900 0.000000
-9.100300 0.000000
-9.005600 0.000000
-8.911000 0.000000
-8.816300 0.000000
-8.721700 0.000000
-8.627000 0.000000
-8.532400 0.000000
-8.437800 0.000000
-8.343100 0.000000
-8.248500 0.000000
-8.153800 0.000000
-8.059200 0.000000
-7.964600 0.000000
-7.869900 0.000000
-7.775300 0.000000
-7.680600 0.000000
-7.586000 0.000000
-7.491300 0.000000
-7.396700 0.000000
-7.302100 0.000000
-7.207400 0.000000
-7.112800 0.000000
-7.018100 0.000000
-6.923500 0.000000
-6.828800 0.000000
-6.734200 0.000000
-6.639600 0.000000
-6.544900 0.000000
-6.450300 0.000000
-6.355600 0.000000
-6.261000 0.000000
-6.166300 0.000000
-6.071700 0.000000
-5.977100 0.000000
-5.882400 0.000000
-5.787800 0.000000
-5.693100 0.000000
-5.598500 0.000000
-5.503800 0.000000
-5.409200 0.000000
-5.314600 0.000000
-5.219900 0.000000
-5.125300 0.000000
-5.030600 0.000000
-4.936000 0.000000
-4.841400 0.000000
-4.746700 0.000000
-4.652100 0.000000
-4.557400 0.000000
-4.462800 0.000000
-4.368100 0.000000
-4.273500 0.000000
-4.178900 0.000000
-4.084200 0.000000
-3.989600 0.000000
-3.894900 0.000000
-3.800300 0.000000
-3.705600 0.000000
-3.611000 0.000000
-3.516400 0.000000
-3.421700 0.000000
-3.327100 0.000000
-3.232400 0.000000
-3.137800 0.000000
-3.043100 0.000000
-2.948500 0.000000
-2.853900 0.000000
-2.759200 0.000000
-2.664600 0.000000
-2.569900 0.000000
-2.475300 0.000000
-2.380600 0.000000
-2.286000 0.000000
-2.191400 0.000000
-2.096700 0.000000
-2.002100 0.000000
-1.907400 0.000000
-1.812800 0.000000
-1.718200 0.000000
-1.623500 0.000000
-1.528900 0.000000
-1.434200 0.000000
-1.339600 0.000000
-1.244900 0.000000
-1.150300 0.005600
-1.055700 0.038800
-0.961000 0.048800
-0.866400 0.064800
-0.771700 0.075900
-0.677100 0.084700
-0.582400 0.096200
-0.487800 0.108300
-0.393200 0.118200
-0.298500 0.128500
-0.203900 0.139500
-0.109200 0.152000
-0.014600 0.165100
0.080100 0.177600
0.174700 0.191700
0.269300 0.207400
0.364000 0.225100
0.458600 0.244900
0.553300 0.266600
0.647900 0.290800
0.742600 0.323900
0.837200 0.365400
0.931800 0.416800
1.026500 0.489700
1.121100 0.706300
1.215800 0.913600
1.310400 1.177700
1.405000 1.200400
1.499700 1.223800
1.594300 1.202300
1.689000 1.227800
1.783600 1.229300
1.878300 1.195500
1.972900 1.313100
2.067500 1.384100
2.162200 1.431100
2.256800 1.505800
2.351500 1.508700
2.446100 1.330400
2.540800 1.076000
2.635400 0.786800
2.730000 0.987300
2.824700 1.724200
2.919300 2.162000
3.014000 1.521400
3.108600 1.303800
3.203300 1.226800
3.297900 1.139600
3.392500 1.356800
3.487200 1.339300
3.581800 1.790300
3.676500 1.847000
3.771100 1.860400
3.865800 1.787100
3.960400 1.801600
4.055000 2.110900
4.149700 2.282200
4.244300 1.787200
4.339000 1.612200
4.433600 1.460700
4.528200 1.413200
4.622900 1.107800
4.717500 1.205400
4.812200 1.393600
4.906800 1.556200
5.001500 1.866000
5.096100 1.356600
5.190700 1.231200
5.285400 1.161600
5.380000 1.086000
5.474700 1.106400
5.569300 1.158400
5.664000 1.092900
5.758600 1.086800
5.853200 1.146800
5.947900 1.712900
6.042500 1.591300
6.137200 1.304500
6.231800 1.262200
6.326500 1.178700
6.421100 1.039600
6.515700 0.944900
6.610400 0.890300
6.705000 0.839500
6.799700 0.822400
6.894300 0.892800
6.989000 0.996000
7.083600 0.970400
7.178200 0.943600
7.272900 0.955500
7.367500 0.930900
7.462200 0.935500
7.556800 0.952000
7.651400 0.980900
7.746100 1.024200
7.840700 1.110800
7.935400 1.174400
8.030000 1.241800
8.124700 1.292900
8.219300 1.539100
8.313900 1.546900
8.408600 1.566800
8.503200 1.707300
8.597900 1.403700
8.692500 1.169600
8.787200 1.207200
8.881800 1.114500
8.976400 1.052600
9.071100 1.275700
9.165700 0.707800
9.260400 0.867300
9.355000 1.097300
9.449700 1.285500
9.544300 1.571100
9.638900 1.275600
9.733600 1.030700
9.828200 0.815600
9.922900 0.660000
10.017500 0.564200
10.112200 0.475200
10.206800 0.436200
10.301400 0.364100
10.396100 0.218200
10.490700 0.175300
10.585400 0.133400
10.680000 0.308000
10.774600 0.210500
10.869300 0.251400
10.963900 0.859500
11.058600 1.220400
11.153200 0.981500
11.247900 1.096900
11.342500 1.525200
11.437100 1.358900
11.531800 0.927900
11.626400 0.783200
11.721100 0.801800
11.815700 0.819500
11.910400 0.932100
12.005000 0.930200
12.099600 0.936300
12.194300 0.905000
12.288900 0.938600
12.383600 0.942300
12.478200 0.895400
12.572900 0.869400
12.667500 0.852600
12.762100 0.859800
12.856800 0.926600
12.951400 0.879800
13.046100 0.909800
13.140700 0.897100
13.235400 0.890800
13.330000 0.827300
13.424600 0.877800
13.519300 0.868100
13.613900 0.895700
13.708600 0.950600
13.803200 1.096200
13.897800 1.269200
13.992500 1.384400
14.087100 1.566400
14.181800 1.684300
14.276400 1.316400
14.371100 1.136100
14.465700 1.085400
14.560300 0.991700
14.655000 1.173800
14.749600 1.706100
14.844300 1.999700
14.938900 2.265400
15.033600 1.884200
15.128200 1.372800
15.222800 1.243700
15.317500 1.195700
15.412100 1.109400
15.506800 1.026100
15.601400 1.113500
15.696100 1.004800
15.790700 0.747400
15.885300 0.677100
15.980000 0.896100
16.074600 0.916400
16.169300 1.043400
16.263900 1.211500
16.358600 1.209500
16.453200 1.091400
16.547800 1.043100
16.642500 1.023800
16.737100 1.034200
16.831800 1.077500
16.926400 1.103500
17.021000 1.138700
17.115700 1.199900
17.210300 1.317500
17.305000 1.579000
17.399600 1.817600
17.494300 1.731900
17.588900 1.143200
17.683500 0.851200
17.778200 0.705300
17.872800 0.617700
17.967500 0.486600
18.062100 0.338900
18.156800 0.269200
18.251400 0.336000
18.346000 0.438600
18.440700 0.400700
18.535300 0.476800
18.630000 0.573100
18.724600 0.678600
18.819300 0.744500
18.913900 0.808600
19.008500 0.913300
19.103200 0.990600
19.197800 1.255500
19.292500 1.379900
19.387100 1.107100
19.481800 1.066500
19.576400 1.108900
19.671000 1.206700
19.765700 1.166700
19.860300 1.123700
19.955000 1.131400
20.049600 1.110000
20.144200 1.064900
20.238900 1.058800
20.333500 1.040000
20.428200 1.133600
20.522800 1.136300
20.617500 1.136600
20.712100 1.707500
20.806700 1.370700
20.901400 1.440000
20.996000 1.364800
21.090700 1.230600
21.185300 1.226100
21.280000 1.406000
21.374600 1.411100
21.469200 1.409800
21.563900 1.440300
21.658500 1.542000
21.753200 1.645300
21.847800 1.655300
21.942500 1.720600
22.037100 1.850500
22.131700 1.722600
22.226400 1.304100
22.321000 1.061100
22.415700 1.062700
22.510300 1.192600
22.605000 1.145700
22.699600 1.399400
22.794200 1.300400
22.888900 1.600900
22.983500 1.104000
23.078200 1.073900
23.172800 1.004900
23.267400 0.928300
23.362100 0.945700
23.456700 1.001300
23.551400 1.084500
23.646000 1.055600
23.740700 0.899500
23.835300 0.984100
23.929900 1.238100
24.024600 1.671900
24.119200 1.810600
24.213900 1.653900
24.308500 1.256300
24.403200 1.112800
24.497800 0.961000
24.592400 0.850600
24.687100 0.776300
24.781700 0.743700
24.876400 0.999200
24.971000 1.250400
25.065700 1.474400
25.160300 1.564100
25.254900 1.583600
25.349600 1.474100
25.444200 1.433300
25.538900 1.638700
25.633500 1.642500
25.728100 1.573400
25.822800 1.312700
25.917400 1.136300
26.012100 1.234000
26.106700 1.494000
26.201400 1.758400
26.296000 1.743700
26.390600 1.680800
26.485300 1.586500
26.579900 1.519400
26.674600 1.477100
26.769200 1.467300
26.863900 1.546200
26.958500 1.525300
27.053100 1.269600
27.147800 1.257800
27.242400 1.304500
27.337100 1.305100
27.431700 1.248700
27.526400 1.269800
27.621000 1.168400
27.715600 1.027500
27.810300 0.928100
27.904900 0.770700
27.999600 0.766000
28.094200 0.889500
28.188900 1.234500
28.283500 1.244600
28.378100 1.405900
28.472800 1.785800
28.567400 2.052900
28.662100 1.976200
28.756700 1.812900
28.851300 1.621200
28.946000 1.426600
29.040600 1.392500
29.135300 1.409700
29.229900 1.400500
29.324600 1.400800
29.419200 1.400600
29.513800 1.418800
29.608500 1.408600
29.703100 1.370500
29.797800 1.580400
29.892400 1.865100
29.987100 1.682000
30.081700 1.547900
30.176300 1.451500
30.271000 1.352800
30.365600 1.249700
30.460300 1.207200
30.554900 1.134000
30.649600 1.067900
30.744200 1.026300
30.838800 0.982500
30.933500 0.983400
31.028100 1.009800
31.122800 1.097700
31.217400 1.322600
31.312100 1.615500
31.406700 1.670200
31.501300 1.673000
31.596000 1.642200
31.690600 1.625800
31.785300 1.682900
31.879900 1.612700
31.974500 1.436400
32.069200 1.432600
32.163800 1.527000
32.258500 1.592400
32.353100 1.596600
32.447800 1.637300
32.542400 1.611800
32.637000 1.580800
32.731700 1.540500
32.826300 1.584100
32.921000 1.562800
33.015600 1.473700
33.110300 1.387700
33.204900 1.349400
33.299500 1.301800
33.394200 1.125800
33.488800 1.066600
33.583500 1.241000
33.678100 1.515100
33.772800 1.591000
33.867400 1.549900
33.962000 1.550000
34.056700 1.617000
34.151300 1.573300
34.246000 1.376900
34.340600 1.368200
34.435300 1.507300
34.529900 1.669200
34.624500 1.701000
34.719200 1.606100
34.813800 1.594500
34.908500 1.508100
35.003100 1.465700
35.097700 1.398200
35.192400 1.329100
35.287000 1.301200
35.381700 1.353500
35.476300 1.474400
35.571000 1.497800
35.665600 1.495400
35.760200 1.485600
35.854900 1.524300
35.949500 1.521000
36.044200 1.492500
36.138800 1.505200
36.233500 1.452000
36.328100 1.512800
36.422700 1.575800
36.517400 1.915600
36.612000 1.669100
36.706700 1.681800
36.801300 1.759300
36.896000 1.735300
36.990600 1.885900
37.085200 1.776400
37.179900 1.828100
37.274500 1.709900
37.369200 1.593100
37.463800 1.467800
37.558500 1.427500
37.653100 1.397700
37.747700 1.314400
37.842400 1.297500
37.937000 1.305900
38.031700 1.393900
38.126300 1.491300
38.220900 1.596500
38.315600 1.651000
38.410200 1.673100
38.504900 1.705800
38.599500 1.683800
38.694200 1.521800
38.788800 1.452200
38.883400 1.380100
38.978100 1.361200
39.072700 1.448200
39.167400 2.179600
39.262000 1.934500
39.356700 1.755600
39.451300 1.682800
39.545900 1.698400
39.640600 1.861100
39.735200 1.754200
39.829900 1.652500
39.924500 1.739100
40.019200 1.735400
40.113800 1.645900
40.208400 1.508200
40.303100 1.481900
40.397700 1.508100
40.492400 1.511000
40.587000 1.531300
40.681700 1.629300
40.776300 1.742500
40.870900 1.932600
40.965600 1.764800
41.060200 1.583000
41.154900 1.594300
41.249500 1.557900
41.344100 1.601700
41.438800 1.674900
41.533400 1.377700
41.628100 1.297400
41.722700 1.304700
41.817400 1.330000
41.912000 1.358100
42.006600 1.441200
42.101300 1.642200
42.195900 2.078500
42.290600 1.974400
42.385200 1.949300
42.479900 1.866100
42.574500 1.787000
42.669100 1.702100
42.763800 1.607400
42.858400 1.458200
42.953100 1.352900
43.047700 1.386900
43.142400 1.418500
43.237000 1.290800
43.331600 1.275900
43.426300 1.285600
43.520900 1.384100
43.615600 1.470900
43.710200 1.514400
43.804900 1.556900
43.899500 1.572400
43.994100 1.684900
44.088800 1.682700
44.183400 1.786500
44.278100 2.017700
44.372700 1.997200
44.467300 1.913500
44.562000 1.984000
44.656600 1.933500
44.751300 1.902100
44.845900 1.980200
44.940600 1.884800
45.035200 2.044700
45.129800 2.028900
45.224500 2.005100
45.319100 1.857700
45.413800 1.867100
45.508400 1.926500
45.603100 1.640200
45.697700 1.489100
45.792300 1.458800
45.887000 1.502800
45.981600 1.601000
46.076300 1.650300
46.170900 1.598700
46.265600 1.620300
46.360200 1.735400
46.454800 1.944000
46.549500 1.903700
46.644100 1.484700
46.738800 1.523100
46.833400 1.578700
46.928100 1.659800
47.022700 1.700200
47.117300 1.752900
47.212000 1.723800
47.306600 1.656500
47.401300 1.636700
47.495900 1.736000
47.590500 1.938700
47.685200 1.961800
47.779800 1.857600
47.874500 1.606400
47.969100 1.481100
48.063800 1.368800
48.158400 1.426700
48.253000 1.632100
48.347700 1.679600
48.442300 1.819300
48.537000 1.894100
48.631600 1.985600
48.726300 1.875700
48.820900 1.672000
48.915500 1.682700
49.010200 1.529400
49.104800 1.497700
49.199500 1.588900
49.294100 1.555800
49.388800 1.633400
49.483400 1.909800
49.578000 1.849600
49.672700 1.821000
49.767300 1.750000
49.862000 1.825900
49.956600 2.208900
50.051300 2.145300
50.145900 2.039000
50.240500 1.771000
50.335200 1.602500
