set title 'mp-80 - Density of States'
set xlabel 'Energy (eV)'
set ylabel 'DOS (states/eV)'
set grid
set xrange [-10:10]
set yrange [0:3.110]
set xzeroaxis lt -1
set terminal png size 800,600
set output 'mp-80_dos_gnuplot.png'
plot '-' using 1:2 with lines title 'DOS'
-5.927300 0.000000
-5.911100 0.000000
-5.894900 0.000000
-5.878700 0.000000
-5.862600 0.000000
-5.846400 0.000000
-5.830200 0.000000
-5.814000 0.000000
-5.797900 0.000000
-5.781700 0.000000
-5.765500 0.000000
-5.749300 0.000000
-5.733200 0.000000
-5.717000 0.000000
-5.700800 0.000000
-5.684600 0.000000
-5.668500 0.000000
-5.652300 0.000000
-5.636100 0.000000
-5.619900 0.000000
-5.603800 0.000000
-5.587600 0.000000
-5.571400 0.000000
-5.555200 0.000000
-5.539100 0.000000
-5.522900 0.000000
-5.506700 0.000000
-5.490500 0.000000
-5.474400 0.000000
-5.458200 0.000000
-5.442000 0.000000
-5.425800 0.000000
-5.409700 0.000000
-5.393500 0.000000
-5.377300 0.000000
-5.361100 0.000000
-5.345000 0.000000
-5.328800 0.000000
-5.312600 0.000000
-5.296400 0.000000
-5.280300 0.000000
-5.264100 0.000000
-5.247900 0.000000
-5.231700 0.000000
-5.215600 0.000000
-5.199400 0.000000
-5.183200 0.000000
-5.167000 0.000000
-5.150900 0.000000
-5.134700 0.000000
-5.118500 0.000000
-5.102300 0.000000
-5.086200 0.000000
-5.070000 0.000000
-5.053800 0.000000
-5.037600 0.000000
-5.021500 0.000000
-5.005300 0.000000
-4.989100 0.000000
-4.973000 0.000000
-4.956800 0.000000
-4.940600 0.000000
-4.924400 0.000000
-4.908300 0.000000
-4.892100 0.000000
-4.875900 0.000000
-4.859700 0.000000
-4.843600 0.000000
-4.827400 0.000000
-4.811200 0.000000
-4.795000 0.000000
-4.778900 0.000000
-4.762700 0.000000
-4.746500 0.000000
-4.730300 0.000000
-4.714200 0.000000
-4.698000 0.000000
-4.681800 0.000000
-4.665600 0.000000
-4.649500 0.000000
-4.633300 0.000000
-4.617100 0.000000
-4.600900 0.000000
-4.584800 0.000000
-4.568600 0.000000
-4.552400 0.000000
-4.536200 0.000000
-4.520100 0.000000
-4.503900 0.000000
-4.487700 0.000000
-4.471500 0.000000
-4.455400 0.000100
-4.439200 0.010200
-4.423000 0.037300
-4.406800 0.075900
-4.390700 0.089800
-4.374500 0.093900
-4.358300 0.100400
-4.342100 0.112900
-4.326000 0.125900
-4.309800 0.139300
-4.293600 0.150900
-4.277400 0.158600
-4.261300 0.162000
-4.245100 0.164400
-4.228900 0.170600
-4.212700 0.177700
-4.196600 0.184900
-4.180400 0.192000
-4.164200 0.199100
-4.148000 0.206200
-4.131900 0.213600
-4.115700 0.219900
-4.099500 0.225000
-4.083300 0.229600
-4.067200 0.234700
-4.051000 0.238700
-4.034800 0.242500
-4.018600 0.246700
-4.002500 0.251200
-3.986300 0.255800
-3.970100 0.260400
-3.953900 0.265100
-3.937800 0.270100
-3.921600 0.275300
-3.905400 0.280600
-3.889200 0.286100
-3.873100 0.291300
-3.856900 0.295700
-3.840700 0.299200
-3.824500 0.302700
-3.808400 0.306700
-3.792200 0.310800
-3.776000 0.314400
-3.759800 0.317300
-3.743700 0.320900
-3.727500 0.324400
-3.711300 0.328000
-3.695100 0.331600
-3.679000 0.335400
-3.662800 0.339200
-3.646600 0.343200
-3.630400 0.347300
-3.614300 0.351500
-3.598100 0.355700
-3.581900 0.359900
-3.565700 0.364100
-3.549600 0.367700
-3.533400 0.370800
-3.517200 0.373800
-3.501000 0.377100
-3.484900 0.380400
-3.468700 0.383700
-3.452500 0.387100
-3.436300 0.402800
-3.420200 0.426400
-3.404000 0.448000
-3.387800 0.424600
-3.371600 0.427100
-3.355500 0.429500
-3.339300 0.431800
-3.323100 0.433900
-3.306900 0.435900
-3.290800 0.434300
-3.274600 0.432300
-3.258400 0.430600
-3.242200 0.431800
-3.226100 0.433100
-3.209900 0.434400
-3.193700 0.435700
-3.177500 0.437000
-3.161400 0.437800
-3.145200 0.438200
-3.129000 0.438500
-3.112800 0.435600
-3.096700 0.435700
-3.080500 0.435700
-3.064300 0.435800
-3.048100 0.435900
-3.032000 0.435900
-3.015800 0.436300
-2.999600 0.452800
-2.983400 0.477600
-2.967300 0.504000
-2.951100 0.480500
-2.934900 0.485300
-2.918700 0.490200
-2.902600 0.495200
-2.886400 0.500400
-2.870200 0.504300
-2.854000 0.504400
-2.837900 0.504500
-2.821700 0.505900
-2.805500 0.509600
-2.789300 0.513500
-2.773200 0.517300
-2.757000 0.521300
-2.740800 0.525300
-2.724600 0.529200
-2.708500 0.532800
-2.692300 0.536500
-2.676100 0.536700
-2.659900 0.539500
-2.643800 0.542400
-2.627600 0.545200
-2.611400 0.548000
-2.595300 0.550900
-2.579100 0.554200
-2.562900 0.556500
-2.546700 0.559700
-2.530600 0.563000
-2.514400 0.566300
-2.498200 0.569600
-2.482000 0.572900
-2.465900 0.576200
-2.449700 0.579200
-2.433500 0.581500
-2.417300 0.583800
-2.401200 0.586700
-2.385000 0.589800
-2.368800 0.593000
-2.352600 0.596300
-2.336500 0.599500
-2.320300 0.602800
-2.304100 0.606100
-2.287900 0.609500
-2.271800 0.612900
-2.255600 0.616400
-2.239400 0.619900
-2.223200 0.623300
-2.207100 0.626600
-2.190900 0.629500
-2.174700 0.632400
-2.158500 0.635500
-2.142400 0.638900
-2.126200 0.641000
-2.110000 0.644100
-2.093800 0.647200
-2.077700 0.650300
-2.061500 0.653400
-2.045300 0.656700
-2.029100 0.660200
-2.013000 0.663700
-1.996800 0.667300
-1.980600 0.671000
-1.964400 0.674600
-1.948300 0.678200
-1.932100 0.681900
-1.915900 0.685500
-1.899700 0.689200
-1.883600 0.692900
-1.867400 0.696700
-1.851200 0.700500
-1.835000 0.704400
-1.818900 0.708300
-1.802700 0.712300
-1.786500 0.716400
-1.770300 0.720000
-1.754200 0.723300
-1.738000 0.726900
-1.721800 0.730900
-1.705600 0.734900
-1.689500 0.738900
-1.673300 0.742900
-1.657100 0.747100
-1.640900 0.751200
-1.624800 0.755500
-1.608600 0.759700
-1.592400 0.764200
-1.576200 0.768800
-1.560100 0.773400
-1.543900 0.778200
-1.527700 0.783000
-1.511500 0.787900
-1.495400 0.792900
-1.479200 0.798000
-1.463000 0.803200
-1.446800 0.808500
-1.430700 0.814000
-1.414500 0.819700
-1.398300 0.825300
-1.382100 0.831300
-1.366000 0.837500
-1.349800 0.843700
-1.333600 0.850100
-1.317400 0.856600
-1.301300 0.863200
-1.285100 0.869900
-1.268900 0.877400
-1.252700 0.885700
-1.236600 0.894500
-1.220400 0.903600
-1.204200 0.912900
-1.188000 0.922600
-1.171900 0.932700
-1.155700 0.943000
-1.139500 0.953700
-1.123300 0.964600
-1.107200 0.976100
-1.091000 1.000300
-1.074800 1.029600
-1.058600 1.046700
-1.042500 1.053400
-1.026300 1.058900
-1.010100 1.064200
-0.993900 1.069000
-0.977800 1.072600
-0.961600 1.159700
-0.945400 1.154700
-0.929200 1.094000
-0.913100 1.093600
-0.896900 1.094900
-0.880700 1.098700
-0.864500 1.102600
-0.848400 1.105500
-0.832200 1.097300
-0.816000 1.100600
-0.799800 1.103500
-0.783700 1.105600
-0.767500 1.107300
-0.751300 1.108900
-0.735100 1.110300
-0.719000 1.111900
-0.702800 1.115200
-0.686600 1.118500
-0.670400 1.114500
-0.654300 1.115300
-0.638100 1.118300
-0.621900 1.121700
-0.605700 1.125200
-0.589600 1.116800
-0.573400 1.104400
-0.557200 1.101900
-0.541000 1.100000
-0.524900 1.096500
-0.508700 1.092600
-0.492500 1.088500
-0.476300 1.084400
-0.460200 1.082700
-0.444000 1.081000
-0.427800 1.079400
-0.411600 1.077400
-0.395500 1.075000
-0.379300 1.072100
-0.363100 1.068900
-0.346900 1.065300
-0.330800 1.091400
-0.314600 1.073100
-0.298400 1.057800
-0.282200 1.043600
-0.266100 1.030800
-0.249900 1.022000
-0.233700 1.097000
-0.217500 1.001300
-0.201400 0.998100
-0.185200 0.996100
-0.169000 0.996800
-0.152900 1.000200
-0.136700 1.005100
-0.120500 1.011900
-0.104300 1.020000
-0.088200 1.029400
-0.072000 1.113900
-0.055800 1.083500
-0.039600 1.036200
-0.023500 1.021400
-0.007300 1.010300
0.008900 1.062700
0.025100 1.040800
0.041200 1.044900
0.057400 1.046700
0.073600 1.033200
0.089800 1.038300
0.105900 1.045800
0.122100 1.044600
0.138300 1.044800
0.154500 1.051700
0.170600 1.054800
0.186800 1.058400
0.203000 1.064300
0.219200 1.073000
0.235300 1.082000
0.251500 1.090700
0.267700 1.103300
0.283900 1.130400
0.300000 1.239100
0.316200 1.332800
0.332400 1.510700
0.348600 1.641200
0.364700 1.508000
0.380900 1.540100
0.397100 1.621600
0.413300 1.706100
0.429400 2.827500
0.445600 1.805300
0.461800 1.896400
0.478000 2.003000
0.494100 2.574800
0.510300 2.073900
0.526500 2.014700
0.542700 1.933400
0.558800 1.564500
0.575000 1.465100
0.591200 1.397200
0.607400 1.333900
0.623500 1.263300
0.639700 1.199900
0.655900 1.166600
0.672100 1.137600
0.688200 1.088900
0.704400 1.070600
0.720600 1.023100
0.736800 0.918700
0.752900 0.793000
0.769100 0.685200
0.785300 0.606100
0.801500 0.540000
0.817600 0.502100
0.833800 0.486900
0.850000 0.429400
0.866200 0.358900
0.882300 0.298200
0.898500 0.201900
0.914700 0.126700
0.930900 0.063500
0.947000 0.010700
0.963200 0.000000
0.979400 0.000000
0.995600 0.000000
1.011700 0.000000
1.027900 0.000000
1.044100 0.000000
1.060300 0.000000
1.076400 0.000000
1.092600 0.000000
1.108800 0.000000
1.125000 0.000000
1.141100 0.000000
1.157300 0.000000
1.173500 0.000000
1.189700 0.000000
1.205800 0.000000
1.222000 0.000000
1.238200 0.000000
1.254400 0.000000
1.270500 0.000000
1.286700 0.000000
1.302900 0.000000
1.319100 0.000000
1.335200 0.000000
1.351400 0.000000
1.367600 0.000000
1.383800 0.000000
1.399900 0.000000
1.416100 0.000000
1.432300 0.000000
1.448500 0.000000
1.464600 0.000000
1.480800 0.000000
1.497000 0.000000
1.513200 0.000000
1.529300 0.000000
1.545500 0.000000
1.561700 0.000000
1.577900 0.000000
1.594000 0.000000
1.610200 0.000000
1.626400 0.000000
1.642600 0.000000
1.658700 0.000000
1.674900 0.000000
1.691100 0.000000
1.707300 0.000000
1.723400 0.000000
1.739600 0.000000
1.755800 0.000000
1.772000 0.000000
1.788100 0.000000
1.804300 0.000000
1.820500 0.000000
1.836700 0.000000
1.852800 0.000000
1.869000 0.000000
1.885200 0.000000
1.901400 0.000000
1.917500 0.000000
1.933700 0.000000
1.949900 0.000000
1.966100 0.000000
1.982200 0.000000
1.998400 0.000000
2.014600 0.000000
2.030800 0.000000
2.046900 0.000000
2.063100 0.000000
2.079300 0.000000
2.095500 0.000000
2.111600 0.000000
2.127800 0.000000
2.144000 0.000000
2.160200 0.000000
2.176300 0.000000
2.192500 0.000000
2.208700 0.000000
2.224800 0.000000
2.241000 0.000000
2.257200 0.000000
2.273400 0.000000
2.289500 0.000000
2.305700 0.000000
2.321900 0.000000
2.338100 0.000000
2.354200 0.000000
2.370400 0.000000
2.386600 0.000000
2.402800 0.000000
2.418900 0.000000
2.435100 0.000000
2.451300 0.000000
2.467500 0.000000
2.483600 0.000000
2.499800 0.000000
2.516000 0.000000
2.532200 0.000000
2.548300 0.000000
2.564500 0.000000
2.580700 0.000000
2.596900 0.000000
2.613000 0.000000
2.629200 0.000500
2.645400 0.003200
2.661600 0.008000
2.677700 0.012500
2.693900 0.016100
2.710100 0.019900
2.726300 0.023900
2.742400 0.028000
2.758600 0.032400
2.774800 0.036800
2.791000 0.041200
2.807100 0.045300
2.823300 0.049200
2.839500 0.053200
2.855700 0.057200
2.871800 0.061300
2.888000 0.065500
2.904200 0.069700
2.920400 0.073800
2.936500 0.076600
2.952700 0.078200
2.968900 0.149400
2.985100 0.177000
3.001200 0.207300
3.017400 0.240400
3.033600 0.314900
3.049800 0.388800
3.065900 0.321600
3.082100 0.349700
3.098300 0.372300
3.114500 0.399800
3.130600 0.440800
3.146800 0.447000
3.163000 0.452900
3.179200 0.459300
3.195300 0.466300
3.211500 0.476000
3.227700 0.477900
3.243900 0.481400
3.260000 0.486200
3.276200 0.498000
3.292400 0.536200
3.308600 0.579300
3.324700 0.567800
3.340900 0.589400
3.357100 0.612100
3.373300 0.635500
3.389400 0.659800
3.405600 0.684500
3.421800 0.702500
3.438000 0.716400
3.454100 0.732200
3.470300 0.763600
3.486500 0.774700
3.502700 0.787100
3.518800 0.798200
3.535000 0.807900
3.551200 0.817700
3.567400 0.827300
3.583500 0.837500
3.599700 0.849100
3.615900 0.863900
3.632100 0.878100
3.648200 0.893700
3.664400 0.910500
3.680600 0.927900
3.696800 0.946600
3.712900 0.966600
3.729100 0.986700
3.745300 1.007700
3.761500 1.030500
3.777600 1.057700
3.793800 1.087700
3.810000 1.118800
3.826200 1.151700
3.842300 1.183700
3.858500 1.216400
3.874700 1.251000
3.890900 1.287300
3.907000 1.324500
3.923200 1.362700
3.939400 1.407300
3.955600 1.484900
3.971700 1.576100
3.987900 1.580900
4.004100 1.625400
4.020300 1.652700
4.036400 1.655400
4.052600 1.667900
4.068800 1.676900
4.085000 1.701800
4.101100 1.751900
4.117300 1.796700
4.133500 1.802000
4.149700 1.834700
4.165800 1.705300
4.182000 1.679600
4.198200 1.653600
4.214400 1.594800
4.230500 1.515900
4.246700 1.474200
4.262900 1.420400
4.279100 1.391000
4.295200 1.379500
4.311400 1.362700
4.327600 1.368300
4.343800 1.375500
4.359900 1.355600
4.376100 1.313100
4.392300 1.291900
4.408500 1.282400
4.424600 1.276000
4.440800 1.269500
4.457000 1.262500
4.473200 1.255600
4.489300 1.252300
4.505500 1.253600
4.521700 1.256500
4.537900 1.241800
4.554000 1.219300
4.570200 1.197600
4.586400 1.176600
4.602500 1.157200
4.618700 1.146700
4.634900 1.134000
4.651100 1.122500
4.667200 1.108800
4.683400 1.090200
4.699600 1.067500
4.715800 1.046500
4.731900 1.026900
4.748100 1.008300
4.764300 0.992700
4.780500 0.991300
4.796600 0.964300
4.812800 0.953900
4.829000 0.936200
4.845200 0.929200
4.861300 0.919300
4.877500 0.909400
4.893700 0.899800
4.909900 0.891400
4.926000 0.893700
4.942200 0.896700
4.958400 0.903000
4.974600 0.910200
4.990700 0.914800
5.006900 0.922600
5.023100 0.930400
5.039300 0.938100
5.055400 0.946500
5.071600 0.955500
5.087800 0.968500
5.104000 0.977200
5.120100 0.985800
5.136300 0.994700
5.152500 1.006700
5.168700 1.018700
5.184800 1.029200
5.201000 1.040400
5.217200 1.052800
5.233400 1.066400
5.249500 1.080000
5.265700 1.091300
5.281900 1.102400
5.298100 1.113600
5.314200 1.125700
5.330400 1.139000
5.346600 1.154200
5.362800 1.172700
5.378900 1.195500
5.395100 1.221300
5.411300 1.244800
5.427500 1.263600
5.443600 1.279700
5.459800 1.289700
5.476000 1.298100
5.492200 1.309400
5.508300 1.314800
5.524500 1.323300
5.540700 1.330000
5.556900 1.335000
5.573000 1.337200
5.589200 1.335900
5.605400 1.331500
5.621600 1.324500
5.637700 1.311100
5.653900 1.290800
5.670100 1.263300
5.686300 1.232500
5.702400 1.198600
5.718600 1.161900
5.734800 1.123400
5.751000 1.082300
5.767100 1.040700
5.783300 1.009200
5.799500 0.984900
5.815700 0.965100
5.831800 0.949300
5.848000 0.938900
5.864200 0.934400
5.880400 0.936300
5.896500 0.939400
5.912700 0.946000
5.928900 0.954500
5.945100 0.964400
5.961200 0.977400
5.977400 1.001000
5.993600 1.012900
6.009800 1.018100
6.025900 1.041300
6.042100 1.076800
6.058300 1.126800
6.074500 1.193100
6.090600 1.262800
6.106800 1.307800
6.123000 1.294400
6.139200 1.301400
6.155300 1.307100
6.171500 1.311300
6.187700 1.317000
6.203900 1.323300
6.220000 1.329400
6.236200 1.335400
6.252400 1.340900
6.268600 1.346600
6.284700 1.352300
6.300900 1.356700
6.317100 1.358100
6.333300 1.356600
6.349400 1.352900
6.365600 1.346600
6.381800 1.326700
6.398000 1.284400
6.414100 1.239200
6.430300 1.236700
6.446500 1.231300
6.462700 1.229700
6.478800 1.221200
6.495000 1.204500
6.511200 1.187100
6.527400 1.169500
6.543500 1.151800
6.559700 1.134800
6.575900 1.118700
6.592100 1.103800
6.608200 1.089700
6.624400 1.075700
6.640600 1.062000
6.656800 1.053800
6.672900 1.051400
6.689100 1.050200
6.705300 1.050200
6.721500 1.039400
6.737600 1.022000
6.753800 1.023500
6.770000 1.025000
6.786200 1.026600
6.802300 1.029600
6.818500 1.033400
6.834700 1.036600
6.850900 1.040500
6.867000 1.052300
6.883200 1.076400
6.899400 1.085000
6.915600 1.095100
6.931700 1.107700
6.947900 1.121200
6.964100 1.156600
6.980200 1.221500
6.996400 1.226000
7.012600 1.250700
7.028800 1.274900
7.044900 1.296100
7.061100 1.312400
7.077300 1.339800
7.093500 1.345700
7.109600 1.337300
7.125800 1.329900
7.142000 1.337100
7.158200 1.396900
7.174300 1.469200
7.190500 1.369100
7.206700 1.224200
7.222900 1.187700
7.239000 1.202900
7.255200 1.200300
7.271400 1.199300
7.287600 1.174000
7.303700 1.159500
7.319900 1.140900
7.336100 1.119700
7.352300 1.105800
7.368400 1.098800
7.384600 1.096000
7.400800 1.091100
7.417000 1.085800
7.433100 1.081700
7.449300 1.079000
7.465500 1.077800
7.481700 1.083500
7.497800 1.091200
7.514000 1.114300
7.530200 1.125900
7.546400 1.125900
7.562500 1.118200
7.578700 1.117200
7.594900 1.122300
7.611100 1.127900
7.627200 1.133600
7.643400 1.139300
7.659600 1.144500
7.675800 1.148800
7.691900 1.154800
7.708100 1.164800
7.724300 1.172500
7.740500 1.168200
7.756600 1.152800
7.772800 1.143500
7.789000 1.138700
7.805200 1.135200
7.821300 1.134500
7.837500 1.133000
7.853700 1.132200
7.869900 1.132100
7.886000 1.129500
7.902200 1.130100
7.918400 1.133100
7.934600 1.136600
7.950700 1.140400
7.966900 1.144700
7.983100 1.149700
7.999300 1.155500
8.015400 1.161600
8.031600 1.167900
8.047800 1.174600
8.064000 1.181400
8.080100 1.188300
8.096300 1.191100
8.112500 1.196900
8.128700 1.202700
8.144800 1.208700
8.161000 1.218200
8.177200 1.224500
8.193400 1.233500
8.209500 1.245200
8.225700 1.259200
8.241900 1.276800
8.258100 1.324000
8.274200 1.441600
8.290400 1.462900
8.306600 1.501600
8.322800 1.550500
8.338900 1.827900
8.355100 1.587800
8.371300 1.389600
8.387500 1.397500
8.403600 1.403100
8.419800 1.410500
8.436000 1.419700
8.452200 1.430800
8.468300 1.445500
8.484500 1.474000
8.500700 1.499300
8.516900 1.520400
8.533000 1.547100
8.549200 1.613100
8.565400 1.684900
8.581600 1.702300
8.597700 1.600400
8.613900 1.566900
8.630100 1.564900
8.646300 1.555400
8.662400 1.543400
8.678600 1.529700
8.694800 1.523500
8.711000 1.517400
8.727100 1.511500
8.743300 1.506400
8.759500 1.501800
8.775700 1.500200
8.791800 1.502200
8.808000 1.507300
8.824200 1.510900
8.840400 1.511200
8.856500 1.513200
8.872700 1.513300
8.888900 1.511800
8.905100 1.509000
8.921200 1.503200
8.937400 1.497200
8.953600 1.492500
8.969800 1.488600
8.985900 1.485800
9.002100 1.485800
9.018300 1.486400
9.034500 1.481000
9.050600 1.474800
9.066800 1.469200
9.083000 1.463300
9.099200 1.457300
9.115300 1.451600
9.131500 1.448500
9.147700 1.446200
9.163900 1.443300
9.180000 1.439500
9.196200 1.436500
9.212400 1.434500
9.228600 1.432800
9.244700 1.431700
9.260900 1.431300
9.277100 1.431600
9.293300 1.435000
9.309400 1.442300
9.325600 1.448900
9.341800 1.453100
9.357900 1.455600
9.374100 1.455500
9.390300 1.458400
9.406500 1.460200
9.422600 1.460700
9.438800 1.462700
9.455000 1.475400
9.471200 1.486100
9.487300 1.533000
9.503500 1.569200
9.519700 1.604200
9.535900 1.634100
9.552000 1.658200
9.568200 1.665300
9.584400 1.608400
9.600600 1.608600
9.616700 1.608700
9.632900 1.595100
9.649100 1.577800
9.665300 1.554800
9.681400 1.558200
9.697600 1.553200
9.713800 1.539000
9.730000 1.509400
9.746100 1.482800
9.762300 1.460200
9.778500 1.444800
9.794700 1.433700
9.810800 1.430900
9.827000 1.429700
9.843200 1.429700
9.859400 1.429700
9.875500 1.428900
9.891700 1.427400
9.907900 1.427900
9.924100 1.431100
9.940200 1.437800
9.956400 1.449000
9.972600 1.463500
9.988800 1.477500
10.004900 1.491200
10.021100 1.503200
10.037300 1.514700
10.053500 1.554900
10.069600 1.588600
10.085800 1.602600
10.102000 1.543700
10.118200 1.489300
10.134300 1.437100
10.150500 1.399300
10.166700 1.371000
10.182900 1.352000
10.199000 1.336200
10.215200 1.329000
10.231400 1.327600
10.247600 1.331300
10.263700 1.342000
10.279900 1.356900
10.296100 1.374800
10.312300 1.396300
10.328400 1.428900
10.344600 1.448700
10.360800 1.450300
10.377000 1.454800
10.393100 1.462100
10.409300 1.482600
10.425500 1.526000
10.441700 1.570500
10.457800 1.598300
10.474000 1.605500
10.490200 1.617500
10.506400 1.624600
10.522500 1.625900
10.538700 1.634700
10.554900 1.653000
10.571100 1.669700
10.587200 1.684400
10.603400 1.688800
10.619600 1.688100
10.635800 1.680800
10.651900 1.684100
10.668100 1.688200
10.684300 1.696300
10.700500 1.710300
10.716600 1.726900
10.732800 1.739600
10.749000 1.739500
10.765200 1.747100
10.781300 1.757800
10.797500 1.765600
10.813700 1.761400
10.829900 1.753600
10.846000 1.751200
10.862200 1.749200
10.878400 1.766300
10.894600 1.767500
10.910700 1.760300
10.926900 1.768900
10.943100 1.773000
10.959300 1.780900
10.975400 1.785400
10.991600 1.791100
11.007800 1.793600
11.024000 1.796600
11.040100 1.799900
11.056300 1.804400
11.072500 1.793200
11.088700 1.790000
11.104800 1.792200
11.121000 1.768000
11.137200 1.775000
11.153400 1.785500
11.169500 1.783400
11.185700 1.767500
11.201900 1.747500
11.218100 1.739300
11.234200 1.717000
11.250400 1.685000
11.266600 1.650200
11.282800 1.610400
11.298900 1.425100
11.315100 1.391700
11.331300 1.366100
11.347500 1.344400
11.363600 1.323400
11.379800 1.301500
