set title 'mp-1065811 - Density of States'
set xlabel 'Energy (eV)'
set ylabel 'DOS (states/eV)'
set grid
set xrange [-10:10]
set yrange [0:1.865]
set xzeroaxis lt -1
set terminal png size 800,600
set output 'mp-1065811_dos_gnuplot.png'
plot '-' using 1:2 with lines title 'DOS'
-18.668900 0.000000
-18.624700 0.000000
-18.580500 0.000000
-18.536200 0.000000
-18.492000 0.000000
-18.447800 0.000000
-18.403500 0.000000
-18.359300 0.000000
-18.315100 0.000000
-18.270800 0.000000
-18.226600 0.000000
-18.182400 0.000000
-18.138100 0.000000
-18.093900 0.000000
-18.049700 0.000000
-18.005400 0.000000
-17.961200 0.000000
-17.917000 0.000000
-17.872700 0.000000
-17.828500 0.000000
-17.784300 0.000000
-17.740000 0.000000
-17.695800 0.000000
-17.651600 0.000000
-17.607300 0.000000
-17.563100 0.000000
-17.518900 0.000000
-17.474600 0.000000
-17.430400 0.000000
-17.386200 0.000000
-17.341900 0.000000
-17.297700 0.000000
-17.253500 0.000000
-17.209200 0.000000
-17.165000 0.000000
-17.120800 0.000000
-17.076500 0.000000
-17.032300 0.000000
-16.988100 0.000000
-16.943800 0.000000
-16.899600 0.000000
-16.855400 0.000000
-16.811100 0.000000
-16.766900 0.000000
-16.722700 0.000000
-16.678400 0.000000
-16.634200 0.000000
-16.590000 0.000000
-16.545700 0.000000
-16.501500 0.000000
-16.457300 0.000000
-16.413000 0.000000
-16.368800 0.000000
-16.324600 0.000000
-16.280300 0.000000
-16.236100 0.000000
-16.191900 0.000000
-16.147600 0.000000
-16.103400 0.000000
-16.059200 0.000000
-16.014900 0.000000
-15.970700 0.000000
-15.926500 0.000000
-15.882200 0.000000
-15.838000 0.000000
-15.793800 0.000000
-15.749500 0.000000
-15.705300 0.000000
-15.661100 0.000000
-15.616800 0.000000
-15.572600 0.000000
-15.528400 0.000000
-15.484100 0.000000
-15.439900 0.000000
-15.395700 0.000000
-15.351400 0.000000
-15.307200 0.000000
-15.262900 0.000000
-15.218700 0.000000
-15.174500 0.000000
-15.130200 0.000000
-15.086000 0.000000
-15.041800 0.000000
-14.997500 0.000000
-14.953300 0.000000
-14.909100 0.000000
-14.864800 0.000000
-14.820600 0.000000
-14.776400 0.000000
-14.732100 0.000000
-14.687900 0.000000
-14.643700 0.452000
-14.599400 1.747300
-14.555200 2.005800
-14.511000 2.128200
-14.466700 3.118600
-14.422500 4.306800
-14.378300 7.125300
-14.334000 7.900400
-14.289800 14.403300
-14.245600 19.821600
-14.201300 31.431700
-14.157100 33.558500
-14.112900 39.701100
-14.068600 40.753200
-14.024400 14.619900
-13.980200 3.956800
-13.935900 4.119500
-13.891700 0.118900
-13.847500 0.000000
-13.803200 0.000000
-13.759000 0.000000
-13.714800 0.000000
-13.670500 0.000000
-13.626300 0.000000
-13.582100 0.000000
-13.537800 0.000000
-13.493600 0.000000
-13.449400 0.000000
-13.405100 0.000000
-13.360900 0.000000
-13.316700 0.000000
-13.272400 0.000000
-13.228200 0.000000
-13.184000 0.000000
-13.139700 0.000000
-13.095500 0.000000
-13.051300 0.000000
-13.007000 0.000000
-12.962800 0.000000
-12.918600 0.000000
-12.874300 0.000000
-12.830100 0.000000
-12.785900 0.000000
-12.741600 0.000000
-12.697400 0.000000
-12.653200 0.000000
-12.608900 0.000000
-12.564700 0.000000
-12.520500 0.000000
-12.476200 0.000000
-12.432000 0.000000
-12.387800 0.000000
-12.343500 0.000000
-12.299300 0.000000
-12.255100 0.000000
-12.210800 0.000000
-12.166600 0.000000
-12.122400 0.000000
-12.078100 0.000000
-12.033900 0.000000
-11.989700 0.000000
-11.945400 0.000000
-11.901200 0.000000
-11.857000 0.000000
-11.812700 0.000000
-11.768500 0.000000
-11.724300 0.000000
-11.680000 0.000000
-11.635800 0.000000
-11.591600 0.000000
-11.547300 0.000000
-11.503100 0.000000
-11.458900 0.000000
-11.414600 0.000000
-11.370400 0.000000
-11.326200 0.000000
-11.281900 0.000000
-11.237700 0.000000
-11.193500 0.000000
-11.149200 0.310000
-11.105000 0.505700
-11.060800 0.655100
-11.016500 0.790700
-10.972300 0.941700
-10.928100 1.090100
-10.883800 1.292300
-10.839600 1.521800
-10.795400 2.000400
-10.751100 2.144100
-10.706900 2.320700
-10.662700 2.610700
-10.618400 3.010400
-10.574200 2.882300
-10.530000 2.806300
-10.485700 2.005500
-10.441500 1.756100
-10.397300 1.538900
-10.353000 1.371700
-10.308800 1.275300
-10.264600 1.180900
-10.220300 1.102000
-10.176100 1.032200
-10.131900 0.973300
-10.087600 0.925100
-10.043400 0.880200
-9.999200 0.846100
-9.954900 0.808900
-9.910700 0.766900
-9.866500 0.732200
-9.822200 0.732800
-9.778000 0.680000
-9.733800 0.572000
-9.689500 0.425700
-9.645300 0.338900
-9.601100 0.198900
-9.556800 0.000000
-9.512600 0.000000
-9.468400 0.000000
-9.424100 0.000000
-9.379900 0.000000
-9.335700 0.000000
-9.291400 0.000000
-9.247200 0.000000
-9.203000 0.000000
-9.158700 0.000000
-9.114500 0.000000
-9.070300 0.000000
-9.026000 0.000000
-8.981800 0.000000
-8.937600 0.000000
-8.893300 0.000000
-8.849100 0.000000
-8.804900 0.000000
-8.760600 0.000000
-8.716400 0.000000
-8.672200 0.000000
-8.627900 0.000000
-8.583700 0.000000
-8.539500 0.000000
-8.495200 0.000000
-8.451000 0.000000
-8.406800 0.000000
-8.362500 0.000000
-8.318300 0.000000
-8.274100 0.000000
-8.229800 0.000000
-8.185600 0.000000
-8.141400 0.000000
-8.097100 0.000000
-8.052900 0.000000
-8.008700 0.000000
-7.964400 0.000000
-7.920200 0.000000
-7.876000 0.000000
-7.831700 0.000000
-7.787500 0.000000
-7.743300 0.000000
-7.699000 0.000000
-7.654800 0.000000
-7.610600 0.000000
-7.566300 0.000000
-7.522100 0.000000
-7.477900 0.000000
-7.433600 0.000000
-7.389400 0.000000
-7.345200 0.000000
-7.300900 0.000000
-7.256700 0.000000
-7.212500 0.000000
-7.168200 0.000000
-7.124000 0.000000
-7.079800 0.000000
-7.035500 0.000000
-6.991300 0.000000
-6.947100 0.000000
-6.902800 0.000000
-6.858600 0.000000
-6.814400 0.000000
-6.770100 0.000000
-6.725900 0.000000
-6.681700 0.000000
-6.637400 0.000000
-6.593200 0.000000
-6.549000 0.000000
-6.504700 0.000000
-6.460500 0.000000
-6.416300 0.000000
-6.372000 0.000000
-6.327800 0.000000
-6.283600 0.000000
-6.239300 0.000000
-6.195100 0.000000
-6.150900 0.000000
-6.106600 0.000000
-6.062400 0.000000
-6.018200 0.000000
-5.973900 0.000000
-5.929700 0.000000
-5.885500 0.000000
-5.841200 0.000000
-5.797000 0.000000
-5.752800 0.000000
-5.708500 0.000000
-5.664300 0.000000
-5.620100 0.000000
-5.575800 0.000000
-5.531600 0.000000
-5.487400 0.000000
-5.443100 0.000000
-5.398900 0.000000
-5.354700 0.000000
-5.310400 0.000000
-5.266200 0.000000
-5.222000 0.000000
-5.177700 0.000000
-5.133500 0.000000
-5.089300 0.000000
-5.045000 0.000000
-5.000800 0.000000
-4.956600 0.000000
-4.912300 0.000000
-4.868100 0.000000
-4.823900 0.000000
-4.779600 0.000000
-4.735400 0.000000
-4.691200 0.000000
-4.646900 0.000000
-4.602700 0.000000
-4.558500 0.000000
-4.514200 0.000000
-4.470000 0.000000
-4.425800 0.000000
-4.381500 0.000000
-4.337300 0.000000
-4.293100 0.000000
-4.248800 0.000000
-4.204600 0.000000
-4.160400 0.000000
-4.116100 0.000000
-4.071900 0.000000
-4.027700 0.000000
-3.983400 0.000000
-3.939200 0.000000
-3.895000 0.000000
-3.850700 0.000000
-3.806500 0.000000
-3.762300 0.000000
-3.718000 0.000000
-3.673800 0.000000
-3.629600 0.000000
-3.585300 0.000000
-3.541100 0.000000
-3.496900 0.000000
-3.452600 0.000000
-3.408400 0.000000
-3.364200 0.000000
-3.319900 0.000000
-3.275700 0.000000
-3.231500 0.000000
-3.187200 0.000000
-3.143000 0.000000
-3.098800 0.000000
-3.054500 0.000000
-3.010300 0.000000
-2.966100 0.000000
-2.921800 0.000000
-2.877600 0.000000
-2.833400 0.000000
-2.789100 0.000000
-2.744900 0.000000
-2.700700 0.000000
-2.656400 0.000000
-2.612200 0.000000
-2.568000 0.000000
-2.523700 0.000000
-2.479500 0.000000
-2.435300 0.000000
-2.391000 0.000000
-2.346800 0.000000
-2.302600 0.000000
-2.258300 0.000000
-2.214100 0.000000
-2.169900 0.000000
-2.125600 0.000000
-2.081400 0.019000
-2.037200 0.107300
-1.992900 0.123200
-1.948700 0.156200
-1.904500 0.197400
-1.860200 0.221100
-1.816000 0.232700
-1.771800 0.252600
-1.727500 0.271900
-1.683300 0.291500
-1.639100 0.314700
-1.594800 0.336700
-1.550600 0.357100
-1.506400 0.370600
-1.462100 0.386000
-1.417900 0.401500
-1.373700 0.421900
-1.329400 0.443200
-1.285200 0.463200
-1.241000 0.484300
-1.196700 0.505500
-1.152500 0.529000
-1.108300 0.555700
-1.064000 0.583100
-1.019800 0.612500
-0.975600 0.643400
-0.931300 0.694500
-0.887100 0.798900
-0.842900 0.771700
-0.798600 0.782300
-0.754400 0.786800
-0.710200 0.775300
-0.665900 0.784200
-0.621700 0.787600
-0.577500 0.772200
-0.533200 0.773300
-0.489000 0.768900
-0.444800 0.767000
-0.400500 0.768800
-0.356300 0.770700
-0.312100 0.772000
-0.267800 0.772700
-0.223600 0.780500
-0.179400 0.807300
-0.135100 0.832000
-0.090900 0.846300
-0.046700 0.835000
-0.002400 0.823700
0.041800 0.808500
0.086000 0.790900
0.130300 0.778700
0.174500 0.767100
0.218700 0.754600
0.263000 0.741700
0.307200 0.726500
0.351400 0.715400
0.395700 0.706800
0.439900 0.699900
0.484100 0.685700
0.528400 0.700200
0.572600 0.652500
0.616800 0.628800
0.661100 0.605100
0.705300 0.583300
0.749500 0.567600
0.793800 0.548700
0.838000 0.571000
0.882200 0.580600
0.926500 0.589800
0.970700 0.606600
1.014900 0.644300
1.059200 0.581700
1.103400 0.541500
1.147600 0.511100
1.191900 0.505100
1.236100 0.502100
1.280300 0.511300
1.324600 0.522400
1.368800 0.515500
1.413000 0.511700
1.457300 0.503400
1.501500 0.583100
1.545700 0.522700
1.590000 0.518700
1.634200 0.489500
1.678400 0.486400
1.722700 0.476300
1.766900 0.498900
1.811100 0.453600
1.855400 0.453800
1.899600 0.459600
1.943900 0.468700
1.988100 0.480800
2.032300 0.503700
2.076600 0.515900
2.120800 0.570000
2.165000 0.591500
2.209300 0.621700
2.253500 0.663700
2.297700 0.692700
2.342000 0.711000
2.386200 0.729900
2.430400 0.765200
2.474700 0.769600
2.518900 0.796600
2.563100 0.824100
2.607400 0.852900
2.651600 0.886500
2.695800 0.925000
2.740100 1.000600
2.784300 0.993700
2.828500 1.001000
2.872800 1.029900
2.917000 1.057900
2.961200 1.077000
3.005500 1.105900
3.049700 1.125400
3.093900 1.148500
3.138200 1.237500
3.182400 1.314200
3.226600 1.464100
3.270900 1.500600
3.315100 1.451200
3.359300 1.453500
3.403600 1.388600
3.447800 1.510300
3.492000 1.595600
3.536300 1.605600
3.580500 1.589400
3.624700 1.470200
3.669000 1.446600
3.713200 1.473400
3.757400 1.538000
3.801700 1.415100
3.845900 1.409000
3.890100 1.462200
3.934400 1.523100
3.978600 1.450500
4.022800 1.461600
4.067100 1.475500
4.111300 1.514600
4.155500 1.551700
4.199800 1.637600
4.244000 1.435200
4.288200 1.375100
4.332500 1.287500
4.376700 1.242100
4.420900 1.160200
4.465200 1.102800
4.509400 1.033500
4.553600 0.952400
4.597900 0.852100
4.642100 0.837300
4.686300 0.851100
4.730600 0.835300
4.774800 0.833900
4.819000 0.844700
4.863300 0.886400
4.907500 0.876500
4.951700 0.902000
4.996000 0.923400
5.040200 0.975400
5.084400 1.032700
5.128700 1.024700
5.172900 1.094400
5.217100 1.236700
5.261400 1.277600
5.305600 1.317400
5.349800 1.355000
5.394100 1.383400
5.438300 1.397600
5.482500 1.478800
5.526800 1.480300
5.571000 1.523500
5.615200 1.553300
5.659500 1.489000
5.703700 1.553600
5.747900 1.429300
5.792200 0.983900
5.836400 0.996400
5.880600 1.040000
5.924900 1.063000
5.969100 1.067600
6.013300 1.087100
6.057600 1.109800
6.101800 1.143300
6.146000 1.180000
6.190300 1.236100
6.234500 1.327600
6.278700 1.427800
6.323000 1.478600
6.367200 1.537000
6.411400 1.539800
6.455700 1.597100
6.499900 1.695600
6.544100 1.529100
6.588400 1.231800
6.632600 0.914900
6.676800 0.749300
6.721100 0.634200
6.765300 0.449500
6.809500 0.363800
6.853800 0.311100
6.898000 0.274200
6.942200 0.243300
6.986500 0.215300
7.030700 0.191500
7.074900 0.171800
7.119200 0.164200
7.163400 0.176200
7.207600 0.302200
7.251900 0.141800
7.296100 0.118400
7.340300 0.136300
7.384600 0.151700
7.428800 0.165000
7.473000 0.182000
7.517300 0.200700
7.561500 0.217900
7.605700 0.226000
7.650000 0.232900
7.694200 0.242900
7.738400 0.252300
7.782700 0.253300
7.826900 0.252000
7.871100 0.252500
7.915400 0.254100
7.959600 0.260600
8.003800 0.309800
8.048100 0.332200
8.092300 0.345200
8.136500 0.363900
8.180800 0.386800
8.225000 0.407400
8.269200 0.421400
8.313500 0.427000
8.357700 0.434000
8.401900 0.443800
8.446200 0.441100
8.490400 0.439500
8.534600 0.438800
8.578900 0.445700
8.623100 0.453200
8.667300 0.460300
8.711600 0.468000
8.755800 0.477100
8.800000 0.486700
8.844300 0.494400
8.888500 0.501900
8.932700 0.509500
8.977000 0.519500
9.021200 0.535700
9.065400 0.553500
9.109700 0.572700
9.153900 0.587200
9.198100 0.594600
9.242400 0.595900
9.286600 0.593700
9.330800 0.592100
9.375100 0.591000
9.419300 0.589000
9.463500 0.591300
9.507800 0.596900
9.552000 0.589400
9.596200 0.670700
9.640500 0.656500
9.684700 0.519800
9.728900 0.530900
9.773200 0.513700
9.817400 0.491200
9.861600 0.473300
9.905900 0.462800
9.950100 0.462500
9.994300 0.464100
10.038600 0.466200
10.082800 0.469300
10.127000 0.474100
10.171300 0.502200
10.215500 0.519400
10.259700 0.518300
10.304000 0.521600
10.348200 0.536300
10.392400 0.563900
10.436700 0.606600
10.480900 0.620100
10.525100 0.633000
10.569400 0.648600
10.613600 0.664800
10.657800 0.657400
10.702100 0.680800
10.746300 0.750400
10.790500 0.697000
10.834800 0.694500
10.879000 0.674700
10.923200 0.630700
10.967500 0.599400
11.011700 0.583200
11.055900 0.580100
11.100200 0.581600
11.144400 0.582500
11.188600 0.584800
11.232900 0.589100
11.277100 0.592800
11.321300 0.596700
11.365600 0.600500
11.409800 0.604200
11.454000 0.611900
11.498300 0.627200
11.542500 0.639000
11.586700 0.649600
11.631000 0.661000
11.675200 0.671100
11.719400 0.680100
11.763700 0.700700
11.807900 0.716400
11.852100 0.724200
11.896400 0.725800
11.940600 0.743900
11.984800 0.768200
12.029100 0.860200
12.073300 0.849300
12.117500 1.553800
12.161800 2.405000
12.206000 1.740500
12.250200 1.381600
12.294500 1.215900
12.338700 1.139100
12.382900 1.092300
12.427200 0.966200
12.471400 0.895200
12.515600 0.888500
12.559900 0.877800
12.604100 0.893100
12.648300 0.912300
12.692600 0.938400
12.736800 0.968700
12.781000 1.005600
12.825300 1.045300
12.869500 1.114100
12.913700 1.187000
12.958000 1.149200
13.002200 1.110600
13.046400 1.050900
13.090700 1.000100
13.134900 0.964900
13.179100 0.935600
13.223400 0.915000
13.267600 0.897500
13.311800 0.890500
13.356100 0.894000
13.400300 0.914000
13.444500 0.956000
13.488800 0.969200
13.533000 1.025600
13.577200 1.072700
13.621500 1.150400
13.665700 1.238500
13.709900 1.274600
13.754200 1.269000
13.798400 1.187700
13.842600 1.106200
13.886900 1.041000
13.931100 0.993500
13.975300 0.957400
14.019600 0.931600
14.063800 0.913300
14.108000 0.899900
14.152300 0.884800
14.196500 0.870700
14.240700 0.867300
14.285000 0.865200
14.329200 0.866300
14.373400 0.871100
14.417700 0.872400
14.461900 0.875500
14.506100 0.879500
14.550400 0.883900
14.594600 0.891800
14.638800 0.912600
14.683100 0.936900
14.727300 0.984700
14.771500 0.979000
14.815800 1.006100
14.860000 1.114400
14.904200 1.128300
14.948500 1.105200
14.992700 1.112000
15.036900 1.112700
15.081200 1.097700
15.125400 1.092000
15.169600 1.095500
15.213900 1.122200
15.258100 1.138100
15.302300 1.110400
15.346600 1.074300
15.390800 1.024700
15.435000 0.982600
15.479300 0.930500
15.523500 0.890700
15.567700 0.853200
15.612000 0.813500
15.656200 0.769300
15.700400 0.723000
15.744700 0.702700
15.788900 0.684000
15.833100 0.668800
15.877400 0.655400
15.921600 0.643100
15.965800 0.631600
16.010100 0.621400
16.054300 0.612500
16.098500 0.604300
16.142800 0.596800
16.187000 0.590200
16.231200 0.585100
16.275500 0.580400
16.319700 0.575600
16.363900 0.571100
16.408200 0.566700
16.452400 0.561100
16.496600 0.555400
16.540900 0.549000
16.585100 0.544900
16.629300 0.542100
16.673600 0.541300
16.717800 0.539300
16.762000 0.537800
16.806300 0.537500
16.850500 0.537900
16.894700 0.539500
16.939000 0.543300
16.983200 0.548200
17.027400 0.552300
17.071700 0.555800
17.115900 0.559100
17.160100 0.562700
17.204400 0.566800
17.248600 0.570700
17.292800 0.575300
17.337100 0.581300
17.381300 0.587200
17.425500 0.595500
17.469800 0.604700
17.514000 0.614800
17.558200 0.625900
17.602500 0.638000
17.646700 0.653900
17.690900 0.672200
17.735200 0.689800
17.779400 0.707100
17.823600 0.726200
17.867900 0.748200
17.912100 0.772800
17.956300 0.799100
18.000600 0.828500
18.044800 0.860100
18.089000 0.887800
18.133300 0.901100
18.177500 0.945900
18.221700 0.950300
18.266000 0.928500
18.310200 0.897700
18.354400 0.875200
18.398700 0.869900
18.442900 0.896000
18.487100 0.874900
18.531400 0.857600
18.575600 0.882600
18.619800 0.929700
18.664100 0.910400
18.708300 0.918200
18.752500 0.932600
18.796800 0.950700
18.841000 0.978600
18.885200 1.072700
18.929500 1.155000
18.973700 1.213300
19.018000 1.134400
19.062200 0.973700
19.106400 0.902500
19.150700 0.853000
19.194900 0.838800
19.239100 0.819000
19.283400 0.813000
19.327600 0.795300
19.371800 0.788500
19.416100 0.791200
19.460300 0.798800
19.504500 0.822500
19.548800 0.863200
19.593000 0.918300
19.637200 0.933200
19.681500 0.899900
19.725700 0.893000
19.769900 0.898200
19.814200 0.902600
19.858400 0.904900
19.902600 0.911400
19.946900 0.933500
19.991100 0.952500
20.035300 1.003600
20.079600 0.945200
20.123800 0.891000
20.168000 0.842400
20.212300 0.800100
20.256500 0.762700
20.300700 0.736100
20.345000 0.686000
20.389200 0.646700
20.433400 0.652000
20.477700 0.639700
20.521900 0.641100
20.566100 0.643500
20.610400 0.645000
20.654600 0.648800
20.698800 0.655400
20.743100 0.665600
20.787300 0.679800
20.831500 0.694400
20.875800 0.708600
20.920000 0.720700
20.964200 0.735100
21.008500 0.758200
21.052700 0.779300
21.096900 0.816900
21.141200 0.878400
21.185400 0.941900
21.229600 0.961300
21.273900 0.963500
21.318100 0.958000
21.362300 0.971800
21.406600 1.006800
21.450800 1.052200
21.495000 1.103400
21.539300 1.159400
21.583500 1.168900
21.627700 1.200300
21.672000 1.240400
21.716200 1.270900
21.760400 1.305800
21.804700 1.343400
21.848900 1.347100
21.893100 1.323900
21.937400 1.272400
21.981600 1.246400
22.025800 1.198300
22.070100 1.176600
22.114300 1.158200
22.158500 1.122200
22.202800 1.095600
22.247000 1.083500
22.291200 1.074100
22.335500 1.061500
22.379700 1.050200
22.423900 1.031100
22.468200 1.006100
22.512400 1.008500
22.556600 0.940900
22.600900 0.895700
22.645100 0.872700
22.689300 0.859900
22.733600 0.883500
22.777800 0.831700
22.822000 0.802400
22.866300 0.798400
22.910500 0.816400
22.954700 0.848100
22.999000 0.910000
23.043200 0.929000
23.087400 1.055600
23.131700 1.152300
23.175900 1.173600
23.220100 1.178300
23.264400 1.181400
23.308600 1.201900
23.352800 1.225400
23.397100 1.253900
23.441300 1.249100
23.485500 1.229700
23.529800 1.197900
23.574000 1.178800
23.618200 1.132900
23.662500 1.084000
23.706700 1.031700
23.750900 0.986300
23.795200 0.950300
23.839400 0.923000
23.883600 0.894100
23.927900 0.868800
23.972100 0.843800
24.016300 0.839900
24.060600 0.822300
24.104800 0.806200
24.149000 0.801700
24.193300 0.805300
24.237500 0.821200
24.281700 0.851300
24.326000 0.880900
24.370200 0.923100
24.414400 1.005300
24.458700 1.060600
24.502900 1.101500
24.547100 1.153300
24.591400 1.204100
24.635600 1.220200
24.679800 1.173500
24.724100 1.182000
24.768300 1.150500
24.812500 1.137000
24.856800 1.148600
24.901000 1.146100
24.945200 1.162800
24.989500 1.178500
25.033700 1.190700
25.077900 1.199800
25.122200 1.197100
25.166400 1.191000
25.210600 1.196800
25.254900 1.196300
25.299100 1.194100
25.343300 1.190100
25.387600 1.156300
25.431800 1.061700
25.476000 0.879100
25.520300 0.870200
25.564500 0.860100
25.608700 0.851300
25.653000 0.848800
25.697200 0.853800
25.741400 0.861300
25.785700 0.879200
25.829900 0.884600
25.874100 0.883800
25.918400 0.881000
25.962600 0.883700
26.006800 0.895200
26.051100 0.909200
26.095300 0.918800
26.139500 1.048500
26.183800 1.125000
26.228000 1.159400
26.272200 1.194000
26.316500 1.214900
26.360700 1.232400
26.404900 1.260000
26.449200 1.428400
26.493400 1.358200
26.537600 1.333400
26.581900 1.321600
26.626100 1.310600
26.670300 1.288400
26.714600 1.254600
26.758800 1.222800
26.803000 1.200500
26.847300 1.178000
26.891500 1.160000
26.935700 1.130300
26.980000 1.092300
27.024200 1.062400
27.068400 1.081200
27.112700 1.110500
27.156900 1.123400
27.201100 1.167300
27.245400 1.236100
