set title 'mp-8643 - Density of States'
set xlabel 'Energy (eV)'
set ylabel 'DOS (states/eV)'
set grid
set xrange [-10:10]
set yrange [0:2.189]
set xzeroaxis lt -1
set terminal png size 800,600
set output 'mp-8643_dos_gnuplot.png'
plot '-' using 1:2 with lines title 'DOS'
-45.791800 0.000000
-45.704700 0.000000
-45.617700 0.000000
-45.530600 0.000000
-45.443500 0.000000
-45.356400 0.000000
-45.269300 0.000000
-45.182300 0.000000
-45.095200 0.000000
-45.008100 0.000000
-44.921000 0.000000
-44.834000 0.000000
-44.746900 0.000000
-44.659800 0.000000
-44.572700 0.000000
-44.485600 0.000000
-44.398600 0.000000
-44.311500 0.000000
-44.224400 0.000000
-44.137300 0.000000
-44.050300 0.000000
-43.963200 0.000000
-43.876100 0.000000
-43.789000 0.000000
-43.701900 0.000000
-43.614900 0.000000
-43.527800 0.000000
-43.440700 0.000000
-43.353600 0.000000
-43.266500 0.000000
-43.179500 0.000000
-43.092400 0.000000
-43.005300 0.000000
-42.918200 0.000000
-42.831200 0.000000
-42.744100 0.000000
-42.657000 0.000000
-42.569900 0.000000
-42.482800 0.000000
-42.395800 0.000000
-42.308700 0.000000
-42.221600 0.000000
-42.134500 0.000000
-42.047500 0.000000
-41.960400 0.000000
-41.873300 0.000000
-41.786200 0.000000
-41.699100 0.000000
-41.612100 0.000000
-41.525000 0.000000
-41.437900 0.000000
-41.350800 0.000000
-41.263800 0.000000
-41.176700 0.000000
-41.089600 0.000000
-41.002500 0.000000
-40.915400 0.000000
-40.828400 0.000000
-40.741300 0.000000
-40.654200 0.000000
-40.567100 0.000000
-40.480100 0.000000
-40.393000 0.000000
-40.305900 0.000000
-40.218800 0.000000
-40.131700 0.000000
-40.044700 0.000000
-39.957600 0.000000
-39.870500 0.000000
-39.783400 0.000000
-39.696400 0.000000
-39.609300 0.000000
-39.522200 0.000000
-39.435100 0.000000
-39.348000 0.000000
-39.261000 0.000000
-39.173900 0.000000
-39.086800 0.000000
-38.999700 0.000000
-38.912600 0.000000
-38.825600 0.000000
-38.738500 0.000000
-38.651400 0.000000
-38.564300 0.000000
-38.477300 0.000000
-38.390200 0.000000
-38.303100 0.000000
-38.216000 0.000000
-38.128900 0.000000
-38.041900 0.000000
-37.954800 0.000000
-37.867700 0.637300
-37.780600 3.625100
-37.693600 9.380200
-37.606500 5.043000
-37.519400 3.142000
-37.432300 4.225600
-37.345200 4.952600
-37.258200 10.043600
-37.171100 10.816900
-37.084000 11.857200
-36.996900 6.434300
-36.909900 0.000000
-36.822800 0.000000
-36.735700 0.000000
-36.648600 0.000000
-36.561500 0.000000
-36.474500 0.000000
-36.387400 0.000000
-36.300300 0.000000
-36.213200 0.000000
-36.126200 0.000000
-36.039100 0.000000
-35.952000 0.000000
-35.864900 0.000000
-35.777800 0.000000
-35.690800 0.000000
-35.603700 0.000000
-35.516600 0.000000
-35.429500 0.000000
-35.342500 0.000000
-35.255400 0.000000
-35.168300 0.000000
-35.081200 0.000000
-34.994100 0.000000
-34.907100 0.000000
-34.820000 0.000000
-34.732900 0.000000
-34.645800 0.000000
-34.558800 0.000000
-34.471700 0.000000
-34.384600 0.000000
-34.297500 0.000000
-34.210400 0.000000
-34.123400 0.000000
-34.036300 0.000000
-33.949200 0.000000
-33.862100 0.000000
-33.775000 0.000000
-33.688000 0.000000
-33.600900 0.000000
-33.513800 0.000000
-33.426700 0.000000
-33.339700 0.000000
-33.252600 0.000000
-33.165500 0.000000
-33.078400 0.000000
-32.991300 0.000000
-32.904300 0.000000
-32.817200 0.000000
-32.730100 0.000000
-32.643000 0.000000
-32.556000 0.000000
-32.468900 0.000000
-32.381800 0.000000
-32.294700 0.000000
-32.207600 0.000000
-32.120600 0.000000
-32.033500 0.000000
-31.946400 0.000000
-31.859300 0.000000
-31.772300 0.000000
-31.685200 0.000000
-31.598100 0.000000
-31.511000 0.000000
-31.423900 0.000000
-31.336900 0.000000
-31.249800 0.000000
-31.162700 0.000000
-31.075600 0.000000
-30.988600 0.000000
-30.901500 0.000000
-30.814400 0.000000
-30.727300 0.000000
-30.640200 0.000000
-30.553200 0.000000
-30.466100 0.000000
-30.379000 0.000000
-30.291900 0.000000
-30.204900 0.000000
-30.117800 0.000000
-30.030700 0.000000
-29.943600 0.000000
-29.856500 0.000000
-29.769500 0.000000
-29.682400 0.000000
-29.595300 0.000000
-29.508200 0.000000
-29.421100 0.000000
-29.334100 0.000000
-29.247000 0.000000
-29.159900 0.000000
-29.072800 0.000000
-28.985800 0.000000
-28.898700 0.000000
-28.811600 0.000000
-28.724500 0.000000
-28.637400 0.000000
-28.550400 0.000000
-28.463300 0.000000
-28.376200 0.000000
-28.289100 0.000000
-28.202100 0.000000
-28.115000 0.000000
-28.027900 0.000000
-27.940800 0.000000
-27.853700 0.000000
-27.766700 0.000000
-27.679600 0.000000
-27.592500 0.000000
-27.505400 0.000000
-27.418400 0.000000
-27.331300 0.000000
-27.244200 0.000000
-27.157100 0.000000
-27.070000 0.000000
-26.983000 0.000000
-26.895900 0.000000
-26.808800 0.000000
-26.721700 0.000000
-26.634700 0.000000
-26.547600 0.000000
-26.460500 0.000000
-26.373400 0.000000
-26.286300 0.000000
-26.199300 0.000000
-26.112200 0.000000
-26.025100 0.000000
-25.938000 0.000000
-25.851000 0.000000
-25.763900 0.000000
-25.676800 0.000000
-25.589700 0.000000
-25.502600 0.000000
-25.415600 0.000000
-25.328500 0.000000
-25.241400 0.000000
-25.154300 0.000000
-25.067200 0.000000
-24.980200 0.000000
-24.893100 0.000000
-24.806000 0.000000
-24.718900 0.000000
-24.631900 0.000000
-24.544800 0.000000
-24.457700 0.000000
-24.370600 0.000000
-24.283500 0.000000
-24.196500 0.000000
-24.109400 0.000000
-24.022300 0.000000
-23.935200 0.000000
-23.848200 0.000000
-23.761100 0.000000
-23.674000 0.000000
-23.586900 0.000000
-23.499800 0.000000
-23.412800 0.000000
-23.325700 0.000000
-23.238600 0.000000
-23.151500 0.000000
-23.064500 0.000000
-22.977400 0.000000
-22.890300 0.000000
-22.803200 0.000000
-22.716100 0.000000
-22.629100 0.000000
-22.542000 0.000000
-22.454900 0.000000
-22.367800 0.000000
-22.280800 0.000000
-22.193700 0.000000
-22.106600 0.000000
-22.019500 0.000000
-21.932400 0.000000
-21.845400 0.000000
-21.758300 0.000000
-21.671200 0.000000
-21.584100 0.000000
-21.497100 0.000000
-21.410000 0.000000
-21.322900 0.000000
-21.235800 0.000000
-21.148700 0.000000
-21.061700 0.000000
-20.974600 0.000000
-20.887500 0.000000
-20.800400 0.000000
-20.713400 0.000000
-20.626300 0.000000
-20.539200 0.000000
-20.452100 0.000000
-20.365000 0.000000
-20.278000 0.000000
-20.190900 0.000000
-20.103800 0.000000
-20.016700 0.000000
-19.929600 0.000000
-19.842600 0.000000
-19.755500 0.000000
-19.668400 0.000000
-19.581300 0.000000
-19.494300 0.000000
-19.407200 0.000000
-19.320100 0.000000
-19.233000 0.000000
-19.145900 0.000000
-19.058900 0.000000
-18.971800 0.000000
-18.884700 0.000000
-18.797600 0.000000
-18.710600 0.000000
-18.623500 0.000000
-18.536400 0.000000
-18.449300 0.000000
-18.362200 0.000000
-18.275200 0.000000
-18.188100 0.000000
-18.101000 0.000000
-18.013900 0.000000
-17.926900 0.000000
-17.839800 0.000000
-17.752700 0.000000
-17.665600 0.000000
-17.578500 0.000000
-17.491500 0.000000
-17.404400 0.000000
-17.317300 0.000000
-17.230200 0.000000
-17.143200 0.000000
-17.056100 0.000000
-16.969000 0.000000
-16.881900 0.000000
-16.794800 0.000000
-16.707800 0.000000
-16.620700 0.000000
-16.533600 0.000000
-16.446500 0.000000
-16.359500 0.000000
-16.272400 0.000000
-16.185300 0.000000
-16.098200 0.000000
-16.011100 0.000000
-15.924100 0.000000
-15.837000 0.000000
-15.749900 0.000000
-15.662800 0.000000
-15.575700 0.000000
-15.488700 0.000000
-15.401600 0.000000
-15.314500 0.000000
-15.227400 0.000000
-15.140400 0.000000
-15.053300 0.000000
-14.966200 0.000000
-14.879100 0.000000
-14.792000 0.000000
-14.705000 0.000000
-14.617900 0.000000
-14.530800 0.000000
-14.443700 0.000000
-14.356700 0.000000
-14.269600 0.000000
-14.182500 0.000000
-14.095400 0.000000
-14.008300 0.000000
-13.921300 0.000000
-13.834200 0.000000
-13.747100 0.000000
-13.660000 0.000000
-13.573000 0.000000
-13.485900 0.000000
-13.398800 0.000000
-13.311700 0.000000
-13.224600 0.000000
-13.137600 0.000000
-13.050500 0.000000
-12.963400 0.000000
-12.876300 0.000000
-12.789300 0.000000
-12.702200 0.000000
-12.615100 0.000000
-12.528000 0.000000
-12.440900 0.000000
-12.353900 0.000000
-12.266800 0.000000
-12.179700 0.000000
-12.092600 0.000000
-12.005600 0.000000
-11.918500 0.000000
-11.831400 0.000000
-11.744300 0.000000
-11.657200 0.000000
-11.570200 0.000000
-11.483100 0.000000
-11.396000 0.000000
-11.308900 0.000000
-11.221800 0.000000
-11.134800 0.000000
-11.047700 0.000000
-10.960600 0.000000
-10.873500 0.000000
-10.786500 0.000000
-10.699400 0.000000
-10.612300 0.000000
-10.525200 0.000000
-10.438100 0.000000
-10.351100 0.000000
-10.264000 0.000000
-10.176900 0.000000
-10.089800 0.000000
-10.002800 0.000000
-9.915700 0.000000
-9.828600 0.000000
-9.741500 0.000000
-9.654400 0.000000
-9.567400 0.000000
-9.480300 0.000000
-9.393200 0.000000
-9.306100 0.000000
-9.219100 0.000000
-9.132000 0.000000
-9.044900 0.000000
-8.957800 0.000000
-8.870700 0.000000
-8.783700 0.000000
-8.696600 0.000000
-8.609500 0.000000
-8.522400 0.000000
-8.435400 0.000000
-8.348300 0.000000
-8.261200 0.000000
-8.174100 0.000000
-8.087000 0.000000
-8.000000 0.000000
-7.912900 0.000000
-7.825800 0.000000
-7.738700 0.000000
-7.651700 0.000000
-7.564600 0.000000
-7.477500 0.000000
-7.390400 0.000000
-7.303300 0.000000
-7.216300 0.000000
-7.129200 0.000000
-7.042100 0.000000
-6.955000 0.000000
-6.868000 0.000000
-6.780900 0.000000
-6.693800 0.000000
-6.606700 0.000000
-6.519600 0.000000
-6.432600 0.000000
-6.345500 0.000000
-6.258400 0.000000
-6.171300 0.000000
-6.084200 0.000000
-5.997200 0.000000
-5.910100 0.000000
-5.823000 0.000000
-5.735900 0.000000
-5.648900 0.000000
-5.561800 0.000000
-5.474700 0.000000
-5.387600 0.000000
-5.300500 0.000000
-5.213500 0.000000
-5.126400 0.000000
-5.039300 0.000000
-4.952200 0.000000
-4.865200 0.000000
-4.778100 0.000000
-4.691000 0.000000
-4.603900 0.000000
-4.516800 0.000000
-4.429800 0.000000
-4.342700 0.000000
-4.255600 0.000000
-4.168500 0.000000
-4.081500 0.000000
-3.994400 0.000000
-3.907300 0.000000
-3.820200 0.000000
-3.733100 0.000000
-3.646100 0.000000
-3.559000 0.000000
-3.471900 0.000000
-3.384800 0.000000
-3.297800 0.000000
-3.210700 0.000000
-3.123600 0.000000
-3.036500 0.000000
-2.949400 0.000000
-2.862400 0.000000
-2.775300 0.000000
-2.688200 0.000000
-2.601100 0.000000
-2.514100 0.000000
-2.427000 0.000000
-2.339900 0.000000
-2.252800 0.000000
-2.165700 0.000000
-2.078700 0.000000
-1.991600 0.007200
-1.904500 0.017800
-1.817400 0.023900
-1.730300 0.029100
-1.643300 0.033300
-1.556200 0.038500
-1.469100 0.041500
-1.382000 0.045300
-1.295000 0.049500
-1.207900 0.053000
-1.120800 0.056200
-1.033700 0.059900
-0.946600 0.063900
-0.859600 0.067300
-0.772500 0.070900
-0.685400 0.074600
-0.598300 0.078500
-0.511300 0.082800
-0.424200 0.086700
-0.337100 0.090700
-0.250000 0.095100
-0.162900 0.099900
-0.075900 0.105000
0.011200 0.109900
0.098300 0.115500
0.185400 0.121600
0.272400 0.127900
0.359500 0.134600
0.446600 0.142900
0.533700 0.152000
0.620800 0.161800
0.707800 0.172700
0.794900 0.187300
0.882000 0.205700
0.969100 0.228300
1.056100 0.267600
1.143200 0.454800
1.230300 0.467600
1.317400 0.554500
1.404500 0.608700
1.491500 0.659900
1.578600 0.721700
1.665700 0.826100
1.752800 0.843700
1.839800 0.865800
1.926900 0.888300
2.014000 0.996300
2.101100 1.069300
2.188200 1.128300
2.275200 1.153500
2.362300 1.164000
2.449400 1.136100
2.536500 1.117000
2.623600 1.080200
2.710600 1.069700
2.797700 1.048100
2.884800 1.043200
2.971900 1.078300
3.058900 1.047300
3.146000 0.977400
3.233100 0.884500
3.320200 0.816700
3.407300 0.698500
3.494300 0.639500
3.581400 0.632100
3.668500 0.759800
3.755600 1.109500
3.842600 1.173900
3.929700 1.170500
4.016800 1.039700
4.103900 0.963700
4.191000 0.940300
4.278000 0.965600
4.365100 0.959300
4.452200 1.045400
4.539300 0.998600
4.626300 1.025200
4.713400 1.090500
4.800500 1.165200
4.887600 1.195200
4.974700 1.213400
5.061700 1.169000
5.148800 1.191800
5.235900 1.228800
5.323000 1.355400
5.410000 1.396400
5.497100 1.388400
5.584200 1.396800
5.671300 1.407800
5.758400 1.547900
5.845400 1.532900
5.932500 1.449500
6.019600 1.500800
6.106700 1.671500
6.193700 1.990300
6.280800 1.328800
6.367900 1.035200
6.455000 1.023800
6.542100 1.168500
6.629100 1.027100
6.716200 0.935600
6.803300 0.880200
6.890400 0.855900
6.977400 0.838900
7.064500 0.853200
7.151600 0.833800
7.238700 0.798200
7.325800 0.791800
7.412800 0.838700
7.499900 0.901500
7.587000 0.995700
7.674100 1.028300
7.761200 1.045200
7.848200 1.158400
7.935300 1.419300
8.022400 1.145800
8.109500 1.010200
8.196500 0.942600
8.283600 0.865600
8.370700 0.794500
8.457800 0.743000
8.544900 0.773000
8.631900 0.872900
8.719000 0.824700
8.806100 0.797300
8.893200 0.791000
8.980200 0.774800
9.067300 0.767700
9.154400 0.757500
9.241500 0.754300
9.328600 0.754000
9.415600 0.755900
9.502700 0.760100
9.589800 0.765400
9.676900 0.775700
9.763900 0.788900
9.851000 0.804500
9.938100 0.823800
10.025200 0.850800
10.112300 0.886400
10.199300 0.929200
10.286400 0.982700
10.373500 1.059900
10.460600 1.208900
10.547600 1.374100
10.634700 1.392300
10.721800 1.399800
10.808900 1.400100
10.896000 1.281500
10.983000 1.090800
11.070100 0.932800
11.157200 0.841300
11.244300 0.722200
11.331300 0.650700
11.418400 0.652700
11.505500 0.530100
11.592600 0.276000
11.679700 0.277000
11.766700 0.277300
11.853800 0.277000
11.940900 0.277200
12.028000 0.278200
12.115100 0.279000
12.202100 0.279500
12.289200 0.280000
12.376300 0.280100
12.463400 0.280800
12.550400 0.281000
12.637500 0.281200
12.724600 0.281600
12.811700 0.282700
12.898800 0.283600
12.985800 0.283700
13.072900 0.284300
13.160000 0.286000
13.247100 0.287200
13.334100 0.286700
13.421200 0.286300
13.508300 0.288500
13.595400 0.288400
13.682500 0.288200
13.769500 0.290200
13.856600 0.289500
13.943700 0.288500
14.030800 0.288000
14.117800 0.285700
14.204900 0.282600
14.292000 0.279000
14.379100 0.275400
14.466200 0.271900
14.553200 0.267800
14.640300 0.264600
14.727400 0.260100
14.814500 0.254400
14.901500 0.249900
14.988600 0.244000
15.075700 0.238300
15.162800 0.233000
15.249900 0.228900
15.336900 0.227600
15.424000 0.220700
15.511100 0.215200
15.598200 0.211800
15.685200 0.208200
15.772300 0.202700
15.859400 0.198500
15.946500 0.197700
16.033600 0.193300
16.120600 0.189400
16.207700 0.162600
16.294800 0.125800
16.381900 0.172700
16.469000 0.290200
16.556000 0.348900
16.643100 0.364100
16.730200 0.384500
16.817300 0.387100
16.904300 0.387300
16.991400 0.397700
17.078500 0.394500
17.165600 0.400100
17.252700 0.380100
17.339700 0.355100
17.426800 0.346300
17.513900 0.343300
17.601000 0.333100
17.688000 0.333300
17.775100 0.333600
17.862200 0.336800
17.949300 0.365200
18.036400 0.357400
18.123400 0.348300
18.210500 0.346200
18.297600 0.344800
18.384700 0.341600
18.471700 0.339700
18.558800 0.330700
18.645900 0.320400
18.733000 0.313500
18.820100 0.307800
18.907100 0.302700
18.994200 0.297700
19.081300 0.298500
19.168400 0.296300
19.255400 0.294800
19.342500 0.294300
19.429600 0.293300
19.516700 0.293700
19.603800 0.293400
19.690800 0.295500
19.777900 0.295800
19.865000 0.298300
19.952100 0.301600
20.039100 0.301900
20.126200 0.308300
20.213300 0.301600
20.300400 0.291600
20.387500 0.289000
20.474500 0.292100
20.561600 0.296400
20.648700 0.306500
20.735800 0.319000
20.822900 0.341800
20.909900 0.382100
20.997000 0.395600
21.084100 0.396000
21.171200 0.395800
21.258200 0.398800
21.345300 0.404400
21.432400 0.408300
21.519500 0.410700
21.606600 0.412800
21.693600 0.410900
21.780700 0.393800
21.867800 0.389100
21.954900 0.386900
22.041900 0.383300
22.129000 0.381800
22.216100 0.382400
22.303200 0.384500
22.390300 0.397900
22.477300 0.416100
22.564400 0.430900
22.651500 0.442900
22.738600 0.458200
22.825600 0.472000
22.912700 0.492800
22.999800 0.517800
23.086900 0.550400
23.174000 0.586500
23.261000 0.607700
23.348100 0.621000
23.435200 0.621500
23.522300 0.629900
23.609300 0.644300
23.696400 0.661000
23.783500 0.675200
23.870600 0.686200
23.957700 0.700600
24.044700 0.716600
24.131800 0.738800
24.218900 0.771200
24.306000 0.820100
24.393000 0.917500
24.480100 0.895000
24.567200 0.874000
24.654300 0.853000
24.741400 0.824300
24.828400 0.787100
24.915500 0.737100
25.002600 0.702700
25.089700 0.676300
25.176700 0.641500
25.263800 0.624600
25.350900 0.665000
25.438000 0.695100
25.525100 0.701000
25.612100 0.688700
25.699200 0.681100
25.786300 0.690900
25.873400 0.716400
25.960500 0.750200
26.047500 0.749700
26.134600 0.747300
26.221700 0.772300
26.308800 0.803900
26.395800 0.793600
26.482900 0.783700
26.570000 0.746900
26.657100 0.730200
26.744200 0.660000
26.831200 0.607500
26.918300 0.574400
27.005400 0.511900
27.092500 0.479100
27.179500 0.432600
27.266600 0.403500
27.353700 0.361900
27.440800 0.327900
27.527900 0.299900
27.614900 0.274800
27.702000 0.254700
27.789100 0.239500
27.876200 0.231400
27.963200 0.236100
28.050300 0.246700
28.137400 0.256500
28.224500 0.273900
28.311600 0.292000
28.398600 0.312300
28.485700 0.348300
28.572800 0.403800
28.659900 0.492900
28.746900 0.563500
28.834000 0.614900
28.921100 0.652300
29.008200 0.803500
29.095300 0.713600
29.182300 0.695800
29.269400 0.636100
29.356500 0.633600
29.443600 0.628100
29.530600 0.619700
29.617700 0.616400
29.704800 0.617900
29.791900 0.626700
29.879000 0.638300
29.966000 0.655900
30.053100 0.676100
30.140200 0.709000
30.227300 0.751900
30.314400 0.754600
30.401400 0.763700
30.488500 0.780400
30.575600 0.748000
30.662700 0.728500
30.749700 0.709700
30.836800 0.692600
30.923900 0.676300
31.011000 0.664400
31.098100 0.647900
31.185100 0.628800
31.272200 0.613900
31.359300 0.595200
31.446400 0.573300
31.533400 0.543900
31.620500 0.511500
31.707600 0.478900
31.794700 0.430900
31.881800 0.379700
31.968800 0.346900
32.055900 0.323900
32.143000 0.303900
32.230100 0.282900
32.317100 0.255600
32.404200 0.236200
32.491300 0.226200
32.578400 0.227600
32.665500 0.232600
32.752500 0.230300
32.839600 0.241100
32.926700 0.266800
33.013800 0.255400
33.100800 0.256000
33.187900 0.259400
33.275000 0.267700
33.362100 0.287100
33.449200 0.304700
33.536200 0.328000
33.623300 0.366300
33.710400 0.373300
33.797500 0.393100
33.884500 0.408800
33.971600 0.427900
34.058700 0.448600
34.145800 0.468000
34.232900 0.487700
34.319900 0.519000
34.407000 0.548700
34.494100 0.573500
34.581200 0.596400
34.668300 0.642800
34.755300 0.699600
34.842400 0.747200
34.929500 0.780600
35.016600 0.761500
35.103600 0.770500
35.190700 0.797400
35.277800 0.729700
35.364900 0.657300
35.452000 0.564200
35.539000 0.504200
35.626100 0.479300
35.713200 0.461000
35.800300 0.466900
35.887300 0.477000
35.974400 0.476400
36.061500 0.486000
36.148600 0.498900
36.235700 0.498100
36.322700 0.520700
36.409800 0.516800
36.496900 0.518900
36.584000 0.528200
36.671000 0.540900
36.758100 0.516400
36.845200 0.513000
36.932300 0.521000
37.019400 0.523600
37.106400 0.534900
37.193500 0.542800
37.280600 0.548500
37.367700 0.561800
37.454700 0.568800
37.541800 0.583900
37.628900 0.609500
37.716000 0.632400
37.803100 0.676200
37.890100 0.770700
37.977200 0.905600
38.064300 0.988100
38.151400 1.010200
38.238400 1.029100
38.325500 0.963600
38.412600 0.902900
38.499700 0.887200
38.586800 0.905100
38.673800 0.910500
38.760900 0.928300
38.848000 0.943400
38.935100 0.975200
39.022100 1.030900
39.109200 1.058700
39.196300 1.102000
39.283400 1.134200
39.370500 1.118300
39.457500 1.157800
39.544600 1.110500
39.631700 1.045100
39.718800 0.912100
39.805900 0.786100
39.892900 0.725600
39.980000 0.710400
40.067100 0.740600
40.154200 0.690500
40.241200 0.636800
40.328300 0.587400
40.415400 0.554300
40.502500 0.524200
40.589600 0.513000
40.676600 0.490000
40.763700 0.456700
40.850800 0.450300
40.937900 0.447100
41.024900 0.448400
41.112000 0.463100
41.199100 0.477500
41.286200 0.476200
41.373300 0.477600
41.460300 0.478100
41.547400 0.476600
41.634500 0.480500
41.721600 0.488700
41.808600 0.503700
41.895700 0.513100
41.982800 0.536800
42.069900 0.569300
42.157000 0.649400
42.244000 0.672900
42.331100 0.691700
42.418200 0.733700
42.505300 0.753100
42.592300 0.722900
42.679400 0.707900
42.766500 0.685700
42.853600 0.703400
42.940700 0.699000
43.027700 0.589000
43.114800 0.546400
