set title 'mp-1008374 - Density of States'
set xlabel 'Energy (eV)'
set ylabel 'DOS (states/eV)'
set grid
set xrange [-10:10]
set yrange [0:1.946]
set xzeroaxis lt -1
set terminal png size 800,600
set output 'mp-1008374_dos_gnuplot.png'
plot '-' using 1:2 with lines title 'DOS'
-17.003300 0.000000
-16.955400 0.000000
-16.907600 0.000000
-16.859700 0.000000
-16.811900 0.000000
-16.764100 0.000000
-16.716200 0.000000
-16.668400 0.000000
-16.620600 0.000000
-16.572700 0.000000
-16.524900 0.000000
-16.477000 0.000000
-16.429200 0.000000
-16.381400 0.000000
-16.333500 0.000000
-16.285700 0.000000
-16.237900 0.000000
-16.190000 0.000000
-16.142200 0.000000
-16.094300 0.000000
-16.046500 0.000000
-15.998700 0.000000
-15.950800 0.000000
-15.903000 0.000000
-15.855200 0.000000
-15.807300 0.000000
-15.759500 0.000000
-15.711600 0.000000
-15.663800 0.000000
-15.616000 0.000000
-15.568100 0.000000
-15.520300 0.000000
-15.472400 0.000000
-15.424600 0.000000
-15.376800 0.000000
-15.328900 0.000000
-15.281100 0.000000
-15.233300 0.000000
-15.185400 0.000000
-15.137600 0.000000
-15.089700 0.000000
-15.041900 0.000000
-14.994100 0.000000
-14.946200 0.000000
-14.898400 0.000000
-14.850600 0.000000
-14.802700 0.000000
-14.754900 0.000000
-14.707000 0.000000
-14.659200 0.000000
-14.611400 0.000000
-14.563500 0.000000
-14.515700 0.000000
-14.467800 0.000000
-14.420000 0.000000
-14.372200 0.000000
-14.324300 0.000000
-14.276500 0.000000
-14.228700 0.000000
-14.180800 0.000000
-14.133000 0.000000
-14.085100 0.000000
-14.037300 0.000000
-13.989500 0.000000
-13.941600 0.000000
-13.893800 0.000000
-13.846000 0.000000
-13.798100 0.000000
-13.750300 0.000000
-13.702400 0.000000
-13.654600 0.000000
-13.606800 0.000000
-13.558900 0.000000
-13.511100 0.000000
-13.463200 0.000000
-13.415400 0.000000
-13.367600 0.000000
-13.319700 0.000000
-13.271900 0.000000
-13.224100 0.000000
-13.176200 0.000000
-13.128400 0.000000
-13.080500 0.000000
-13.032700 0.000000
-12.984900 0.000000
-12.937000 0.000000
-12.889200 0.000000
-12.841400 0.000000
-12.793500 0.000000
-12.745700 0.000000
-12.697800 0.000000
-12.650000 0.000400
-12.602200 0.050300
-12.554300 0.083600
-12.506500 0.108700
-12.458700 0.121900
-12.410800 0.139700
-12.363000 0.159300
-12.315100 0.171600
-12.267300 0.181800
-12.219500 0.192300
-12.171600 0.205000
-12.123800 0.218300
-12.075900 0.229400
-12.028100 0.239100
-11.980300 0.248400
-11.932400 0.257900
-11.884600 0.268000
-11.836800 0.277700
-11.788900 0.286900
-11.741100 0.295800
-11.693200 0.304900
-11.645400 0.314600
-11.597600 0.324500
-11.549700 0.334500
-11.501900 0.344400
-11.454100 0.355500
-11.406200 0.368100
-11.358400 0.380900
-11.310500 0.394500
-11.262700 0.422900
-11.214900 0.410600
-11.167000 0.415700
-11.119200 0.416400
-11.071300 0.419400
-11.023500 0.421000
-10.975700 0.421100
-10.927800 0.422600
-10.880000 0.425100
-10.832200 0.427800
-10.784300 0.430600
-10.736500 0.433000
-10.688600 0.436400
-10.640800 0.437400
-10.593000 0.440200
-10.545100 0.443200
-10.497300 0.446900
-10.449500 0.450500
-10.401600 0.455000
-10.353800 0.460700
-10.305900 0.467500
-10.258100 0.474800
-10.210300 0.492300
-10.162400 0.519700
-10.114600 0.558500
-10.066700 0.573600
-10.018900 0.602700
-9.971100 0.638400
-9.923200 0.695400
-9.875400 0.676100
-9.827600 0.672100
-9.779700 0.665100
-9.731900 0.658900
-9.684000 0.685900
-9.636200 0.644800
-9.588400 0.621800
-9.540500 0.605800
-9.492700 0.599700
-9.444900 0.595700
-9.397000 0.589700
-9.349200 0.588200
-9.301300 0.586100
-9.253500 0.583100
-9.205700 0.580800
-9.157800 0.577400
-9.110000 0.576500
-9.062200 0.577100
-9.014300 0.577800
-8.966500 0.578600
-8.918600 0.579800
-8.870800 0.580400
-8.823000 0.582300
-8.775100 0.584800
-8.727300 0.588300
-8.679400 0.592300
-8.631600 0.623400
-8.583800 0.623100
-8.535900 0.623600
-8.488100 0.622100
-8.440300 0.623800
-8.392400 0.623300
-8.344600 0.620500
-8.296700 0.624300
-8.248900 0.628500
-8.201100 0.632700
-8.153200 0.635900
-8.105400 0.639800
-8.057600 0.643800
-8.009700 0.647200
-7.961900 0.662200
-7.914000 0.690800
-7.866200 0.694900
-7.818400 0.724200
-7.770500 0.731700
-7.722700 0.738400
-7.674800 0.735400
-7.627000 0.736000
-7.579200 0.720200
-7.531300 0.719400
-7.483500 0.720100
-7.435700 0.720400
-7.387800 0.719900
-7.340000 0.722100
-7.292100 0.724200
-7.244300 0.726500
-7.196500 0.731800
-7.148600 0.741100
-7.100800 0.757000
-7.053000 0.776300
-7.005100 0.788100
-6.957300 0.805300
-6.909400 0.814700
-6.861600 0.816100
-6.813800 0.797200
-6.765900 0.778600
-6.718100 0.760400
-6.670200 0.748700
-6.622400 0.740700
-6.574600 0.730700
-6.526700 0.721900
-6.478900 0.713800
-6.431100 0.704200
-6.383200 0.700600
-6.335400 0.698300
-6.287500 0.648700
-6.239700 0.623200
-6.191900 0.606900
-6.144000 0.562800
-6.096200 0.557200
-6.048400 0.563100
-6.000500 0.558300
-5.952700 0.554600
-5.904800 0.546400
-5.857000 0.521500
-5.809200 0.495200
-5.761300 0.481800
-5.713500 0.480400
-5.665700 0.465900
-5.617800 0.453900
-5.570000 0.446400
-5.522100 0.442700
-5.474300 0.442100
-5.426500 0.464600
-5.378600 0.437300
-5.330800 0.424200
-5.282900 0.411200
-5.235100 0.393100
-5.187300 0.380800
-5.139400 0.361100
-5.091600 0.354500
-5.043800 0.352700
-4.995900 0.349200
-4.948100 0.328900
-4.900200 0.334600
-4.852400 0.339700
-4.804600 0.331000
-4.756700 0.388200
-4.708900 0.423500
-4.661100 0.469400
-4.613200 0.507400
-4.565400 0.548300
-4.517500 0.628800
-4.469700 0.714000
-4.421900 0.769600
-4.374000 0.823900
-4.326200 0.896000
-4.278300 0.972500
-4.230500 1.027000
-4.182700 1.071400
-4.134800 1.104700
-4.087000 1.147700
-4.039200 1.215400
-3.991300 1.167900
-3.943500 1.118300
-3.895600 1.060100
-3.847800 1.027700
-3.800000 1.007100
-3.752100 0.990700
-3.704300 0.978600
-3.656500 0.968700
-3.608600 0.956300
-3.560800 0.946200
-3.512900 0.934900
-3.465100 0.927400
-3.417300 0.905600
-3.369400 0.895000
-3.321600 0.851500
-3.273700 0.802800
-3.225900 0.772400
-3.178100 0.745900
-3.130200 0.726900
-3.082400 0.698500
-3.034600 0.672400
-2.986700 0.657900
-2.938900 0.641500
-2.891000 0.623100
-2.843200 0.610400
-2.795400 0.597800
-2.747500 0.586000
-2.699700 0.576500
-2.651900 0.563000
-2.604000 0.551400
-2.556200 0.542200
-2.508300 0.531200
-2.460500 0.520200
-2.412700 0.527500
-2.364800 0.535800
-2.317000 0.544900
-2.269200 0.521900
-2.221300 0.522100
-2.173500 0.531500
-2.125600 0.543200
-2.077800 0.556300
-2.030000 0.574500
-1.982100 0.593000
-1.934300 0.613900
-1.886400 0.635400
-1.838600 0.682600
-1.790800 0.658600
-1.742900 0.664100
-1.695100 0.668300
-1.647300 0.679200
-1.599400 0.675200
-1.551600 0.687900
-1.503700 0.727800
-1.455900 0.849200
-1.408100 0.847000
-1.360200 0.846200
-1.312400 0.845300
-1.264600 0.837000
-1.216700 0.843800
-1.168900 0.897500
-1.121000 0.914500
-1.073200 1.008100
-1.025400 1.052900
-0.977500 1.110800
-0.929700 1.170300
-0.881800 1.194500
-0.834000 1.232200
-0.786200 1.282400
-0.738300 1.301400
-0.690500 1.281600
-0.642700 1.230500
-0.594800 1.191400
-0.547000 1.211500
-0.499100 1.202600
-0.451300 1.180000
-0.403500 1.152700
-0.355600 1.135000
-0.307800 1.092700
-0.260000 1.074900
-0.212100 1.073700
-0.164300 1.102000
-0.116400 1.084000
-0.068600 1.053000
-0.020800 1.011100
0.027100 0.974800
0.074900 0.957300
0.122800 0.932800
0.170600 0.916500
0.218400 0.978600
0.266300 0.999000
0.314100 0.977300
0.361900 0.937300
0.409800 0.926700
0.457600 0.940800
0.505500 0.945800
0.553300 0.953400
0.601100 0.986600
0.649000 1.045300
0.696800 1.154700
0.744600 1.223300
0.792500 1.277100
0.840300 1.441200
0.888200 1.443900
0.936000 1.455500
0.983800 1.463200
1.031700 1.485800
1.079500 1.532000
1.127300 1.412100
1.175200 1.400000
1.223000 1.387500
1.270900 1.389100
1.318700 1.439600
1.366500 1.504400
1.414400 1.607000
1.462200 1.686900
1.510100 1.741000
1.557900 1.769200
1.605700 1.769500
1.653600 1.708100
1.701400 1.650900
1.749200 1.639700
1.797100 1.618400
1.844900 1.597000
1.892800 1.576700
1.940600 1.601000
1.988400 1.614900
2.036300 1.592600
2.084100 1.563800
2.131900 1.559500
2.179800 1.545100
2.227600 1.536400
2.275500 1.540700
2.323300 1.521400
2.371100 1.520200
2.419000 1.485900
2.466800 1.433300
2.514700 1.408200
2.562500 1.395000
2.610300 1.355100
2.658200 1.325400
2.706000 1.273400
2.753800 1.243600
2.801700 1.225100
2.849500 1.192500
2.897400 1.184300
2.945200 1.165000
2.993000 1.119600
3.040900 1.120200
3.088700 1.107200
3.136500 1.080600
3.184400 1.055800
3.232200 1.023900
3.280100 1.016800
3.327900 1.025200
3.375700 1.104700
3.423600 1.150800
3.471400 1.169700
3.519300 1.204100
3.567100 1.229200
3.614900 1.215100
3.662800 1.233900
3.710600 1.252000
3.758400 1.264100
3.806300 1.276800
3.854100 1.283500
3.902000 1.292800
3.949800 1.301200
3.997600 1.315600
4.045500 1.323100
4.093300 1.201700
4.141100 1.134800
4.189000 1.087800
4.236800 1.046200
4.284700 1.018500
4.332500 0.996300
4.380300 0.971900
4.428200 0.950500
4.476000 0.930200
4.523800 0.894800
4.571700 0.881200
4.619500 0.881000
4.667400 0.891400
4.715200 0.894600
4.763000 0.894400
4.810900 0.926600
4.858700 1.022300
4.906600 1.012700
4.954400 0.965900
5.002200 0.932100
5.050100 0.918500
5.097900 0.903000
5.145700 0.886200
5.193600 0.867100
5.241400 0.854400
5.289300 0.842000
5.337100 0.831800
5.384900 0.819800
5.432800 0.804000
5.480600 0.787500
5.528400 0.775700
5.576300 0.768300
5.624100 0.758400
5.672000 0.757000
5.719800 0.736000
5.767600 0.698400
5.815500 0.659900
5.863300 0.657500
5.911200 0.684500
5.959000 0.676600
6.006800 0.663400
6.054700 0.654300
6.102500 0.648500
6.150300 0.660400
6.198200 0.690600
6.246000 0.630300
6.293900 0.538400
6.341700 0.482400
6.389500 0.410900
6.437400 0.377700
6.485200 0.373100
6.533000 0.368600
6.580900 0.365300
6.628700 0.363200
6.676600 0.360500
6.724400 0.356900
6.772200 0.352000
6.820100 0.346200
6.867900 0.341900
6.915800 0.338400
6.963600 0.335100
7.011400 0.331900
7.059300 0.332000
7.107100 0.335600
7.154900 0.339800
7.202800 0.345300
7.250600 0.353400
7.298500 0.364500
7.346300 0.384000
7.394100 0.386200
7.442000 0.381900
7.489800 0.370900
7.537600 0.346000
7.585500 0.312500
7.633300 0.261900
7.681200 0.224300
7.729000 0.197300
7.776800 0.177200
7.824700 0.167500
7.872500 0.159100
7.920300 0.151500
7.968200 0.144500
8.016000 0.138200
8.063900 0.132300
8.111700 0.126600
8.159500 0.120800
8.207400 0.115000
8.255200 0.109600
8.303100 0.113500
8.350900 0.129100
8.398700 0.143200
8.446600 0.160400
8.494400 0.170900
8.542200 0.182800
8.590100 0.205200
8.637900 0.220000
8.685800 0.243200
8.733600 0.343100
8.781400 0.403600
8.829300 0.385400
8.877100 0.382800
8.924900 0.375700
8.972800 0.372900
9.020600 0.361100
9.068500 0.370800
9.116300 0.388300
9.164100 0.407100
9.212000 0.432500
9.259800 0.453800
9.307700 0.476700
9.355500 0.494800
9.403300 0.526800
9.451200 0.567900
9.499000 0.609900
9.546800 0.745300
9.594700 0.742900
9.642500 0.650900
9.690400 0.615600
9.738200 0.599600
9.786000 0.586000
9.833900 0.574500
9.881700 0.562500
9.929500 0.553400
9.977400 0.549800
10.025200 0.549600
10.073100 0.548000
10.120900 0.550400
10.168700 0.535600
10.216600 0.527800
10.264400 0.523500
10.312300 0.515000
10.360100 0.512700
10.407900 0.508400
10.455800 0.503600
10.503600 0.506900
10.551400 0.504700
10.599300 0.487900
10.647100 0.473000
10.695000 0.459500
10.742800 0.446800
10.790600 0.435500
10.838500 0.425600
10.886300 0.417400
10.934100 0.424800
10.982000 0.446100
11.029800 0.467700
11.077700 0.473000
11.125500 0.476000
11.173300 0.478400
11.221200 0.481100
11.269000 0.483100
11.316900 0.484100
11.364700 0.485400
11.412500 0.487100
11.460400 0.483300
11.508200 0.480800
11.556000 0.479800
11.603900 0.478400
11.651700 0.478500
11.699600 0.479700
11.747400 0.483200
11.795200 0.494000
11.843100 0.505800
11.890900 0.497000
11.938700 0.486400
11.986600 0.481800
12.034400 0.481100
12.082300 0.480800
12.130100 0.480500
12.177900 0.500300
12.225800 0.513600
12.273600 0.531900
12.321400 0.559600
12.369300 0.590200
12.417100 0.614200
12.465000 0.590000
12.512800 0.582600
12.560600 0.582300
12.608500 0.580300
12.656300 0.578500
12.704200 0.569200
12.752000 0.560200
12.799800 0.547900
12.847700 0.529300
12.895500 0.517800
12.943300 0.502400
12.991200 0.480200
13.039000 0.461000
13.086900 0.421700
13.134700 0.396400
13.182500 0.385500
13.230400 0.383200
13.278200 0.392900
13.326000 0.409000
13.373900 0.435400
13.421700 0.464100
13.469600 0.490100
13.517400 0.512100
13.565200 0.532200
13.613100 0.546700
13.660900 0.564200
13.708800 0.586900
13.756600 0.606900
13.804400 0.631300
13.852300 0.666200
13.900100 0.699400
13.947900 0.718100
13.995800 0.745700
14.043600 0.770800
14.091500 0.799300
14.139300 0.792900
14.187100 0.796000
14.235000 0.805800
14.282800 0.813800
14.330600 0.805400
14.378500 0.773900
14.426300 0.733100
14.474200 0.730300
14.522000 0.748200
14.569800 0.793700
14.617700 0.833600
14.665500 0.876300
14.713400 0.916100
14.761200 0.906400
14.809000 0.837500
14.856900 0.815200
14.904700 0.842300
14.952500 0.903100
15.000400 0.950100
15.048200 0.987800
15.096100 1.052900
15.143900 1.111000
15.191700 1.165500
15.239600 1.221000
15.287400 1.265800
15.335200 1.271200
15.383100 1.390000
15.430900 1.415100
15.478800 1.475100
15.526600 1.538700
15.574400 1.537700
15.622300 1.509500
15.670100 1.530000
15.717900 1.573800
15.765800 1.598000
15.813600 1.689900
15.861500 1.793600
15.909300 1.847600
15.957100 2.034600
16.005000 2.151700
16.052800 2.191600
16.100700 2.209000
16.148500 2.108200
16.196300 1.996400
16.244200 2.002200
16.292000 2.133100
16.339800 2.108500
16.387700 2.002700
16.435500 2.019500
16.483400 2.065900
16.531200 2.011900
16.579000 1.883100
16.626900 1.718300
16.674700 1.687600
16.722500 1.695900
16.770400 1.767900
16.818200 1.838000
16.866100 1.865600
16.913900 1.883000
16.961700 1.833100
17.009600 1.648300
17.057400 1.526900
17.105300 1.460900
17.153100 1.438600
17.200900 1.455600
17.248800 1.456200
17.296600 1.435300
17.344400 1.420700
17.392300 1.405600
17.440100 1.423000
17.488000 1.427200
17.535800 1.361000
17.583600 1.328900
17.631500 1.264900
17.679300 1.221700
17.727100 1.210300
17.775000 1.187300
17.822800 1.174400
17.870700 1.139800
17.918500 1.156500
17.966300 1.148200
18.014200 1.157600
18.062000 1.170700
18.109900 1.146200
18.157700 1.089600
18.205500 1.093000
18.253400 1.095000
18.301200 1.089300
18.349000 1.100600
18.396900 1.108900
18.444700 1.128200
18.492600 1.176400
18.540400 1.233700
18.588200 1.261800
18.636100 1.293700
18.683900 1.349500
18.731700 1.416500
18.779600 1.476600
18.827400 1.542700
18.875300 1.623300
18.923100 1.828800
18.970900 2.030300
19.018800 2.031700
19.066600 1.993900
19.114400 1.975900
19.162300 1.948700
19.210100 1.954600
19.258000 1.911600
19.305800 1.940600
19.353600 1.944300
19.401500 1.940300
19.449300 1.959300
19.497200 2.043800
19.545000 2.110000
19.592800 2.012300
19.640700 1.877200
19.688500 1.705400
19.736300 1.599100
19.784200 1.520200
19.832000 1.448400
19.879900 1.376500
19.927700 1.288700
19.975500 1.228500
20.023400 1.190800
20.071200 1.156400
20.119000 1.129300
20.166900 1.104700
20.214700 1.092600
20.262600 1.084100
20.310400 1.075000
20.358200 1.076400
20.406100 1.082200
20.453900 1.083500
20.501800 1.124700
20.549600 1.156600
20.597400 1.199100
20.645300 1.271500
20.693100 1.360200
20.740900 1.370300
20.788800 1.350800
20.836600 1.341400
20.884500 1.356100
20.932300 1.383900
20.980100 1.411400
21.028000 1.460700
21.075800 1.423900
21.123600 1.404000
21.171500 1.409400
21.219300 1.426200
21.267200 1.505500
21.315000 1.483500
21.362800 1.452600
21.410700 1.388300
21.458500 1.331900
21.506400 1.346900
21.554200 1.353200
21.602000 1.254300
21.649900 1.239500
21.697700 1.212200
21.745500 1.184500
21.793400 1.160700
21.841200 1.123300
21.889100 1.113400
21.936900 1.106200
21.984700 1.077600
22.032600 1.076100
22.080400 1.074300
22.128200 1.096200
22.176100 1.158000
22.223900 1.203600
22.271800 1.224000
22.319600 1.219100
22.367400 1.160200
22.415300 1.119100
22.463100 1.086800
22.510900 1.043900
22.558800 1.084800
22.606600 1.069800
22.654500 1.062700
22.702300 1.050400
22.750100 1.097400
22.798000 1.214500
22.845800 1.273900
22.893700 1.290100
22.941500 1.144900
22.989300 1.095100
23.037200 1.059700
23.085000 1.021500
23.132800 0.990000
23.180700 0.989200
23.228500 0.900400
23.276400 0.715500
23.324200 0.715200
23.372000 0.687000
23.419900 0.629000
23.467700 0.587300
23.515500 0.570100
23.563400 0.566900
23.611200 0.545000
23.659100 0.525700
23.706900 0.513500
23.754700 0.506200
23.802600 0.498700
23.850400 0.491300
23.898300 0.483300
23.946100 0.476700
23.993900 0.471400
24.041800 0.458700
24.089600 0.445900
24.137400 0.430700
24.185300 0.419200
24.233100 0.429500
24.281000 0.481300
24.328800 0.492700
24.376600 0.520500
24.424500 0.547700
24.472300 0.581100
24.520100 0.625500
24.568000 0.678200
24.615800 0.713800
24.663700 0.782200
24.711500 0.866800
24.759300 0.840100
24.807200 0.804900
24.855000 0.826900
24.902900 0.825700
24.950700 0.812700
24.998500 0.824900
25.046400 0.848200
25.094200 0.936700
25.142000 0.886300
25.189900 0.903400
25.237700 0.958400
25.285600 0.985900
25.333400 0.994800
25.381200 1.016500
25.429100 1.070400
25.476900 0.987900
25.524700 0.898700
25.572600 0.919100
25.620400 1.012400
25.668300 1.137500
25.716100 1.256600
25.763900 1.421900
25.811800 1.506300
25.859600 1.655600
25.907400 1.857300
25.955300 1.924300
26.003100 1.938300
26.051000 1.989900
26.098800 2.049500
26.146600 2.048900
26.194500 2.012000
26.242300 1.934000
26.290200 1.873900
26.338000 1.817200
26.385800 1.766600
26.433700 1.739200
26.481500 1.683300
26.529300 1.616400
26.577200 1.582200
26.625000 1.484100
26.672900 1.375000
26.720700 1.303500
26.768500 1.239000
26.816400 1.186400
26.864200 1.176700
26.912000 1.157300
26.959900 1.171100
27.007700 1.183300
27.055600 1.191700
27.103400 1.201100
27.151200 1.235000
27.199100 1.223000
27.246900 1.235700
27.294800 1.279600
27.342600 1.306600
27.390400 1.182400
27.438300 1.067800
27.486100 1.023700
27.533900 1.001400
27.581800 1.009200
27.629600 1.001400
27.677500 1.016300
27.725300 1.039000
27.773100 1.069300
27.821000 1.097900
27.868800 1.173300
27.916600 1.272400
27.964500 1.358800
28.012300 1.436500
28.060200 1.504400
28.108000 1.580500
28.155800 1.678200
28.203700 1.728400
28.251500 1.781500
28.299400 1.807500
28.347200 1.769300
28.395000 1.749800
28.442900 1.780800
28.490700 1.698400
28.538500 1.595500
28.586400 1.543000
28.634200 1.492300
28.682100 1.375000
28.729900 1.271900
28.777700 1.230700
28.825600 1.242800
28.873400 1.283700
28.921200 1.384400
28.969100 1.505500
29.016900 1.618800
29.064800 1.704000
29.112600 1.901400
29.160400 2.254400
29.208300 2.374500
29.256100 2.451700
29.303900 2.515000
29.351800 2.358700
29.399600 2.252800
29.447500 2.053800
29.495300 1.974000
29.543100 1.946700
29.591000 1.778800
29.638800 1.767200
29.686700 1.840500
29.734500 1.822900
29.782300 1.703300
29.830200 1.629800
29.878000 1.545600
29.925800 1.501100
29.973700 1.467800
30.021500 1.419600
30.069400 1.380700
30.117200 1.357600
30.165000 1.311400
30.212900 1.365300
30.260700 1.418900
30.308500 1.478800
30.356400 1.481300
30.404200 1.473600
30.452100 1.464500
30.499900 1.512500
30.547700 1.600100
30.595600 1.651900
30.643400 1.738100
30.691300 1.823300
30.739100 1.908800
30.786900 1.898900
30.834800 1.850600
30.882600 1.880000
30.930400 1.903800
30.978300 1.887100
31.026100 1.541900
31.074000 1.359800
31.121800 1.282400
31.169600 1.209800
31.217500 1.169000
31.265300 1.174800
31.313100 1.206600
31.361000 1.257500
31.408800 1.326200
31.456700 1.442200
31.504500 1.590600
31.552300 1.700200
31.600200 1.649900
31.648000 1.695700
31.695900 1.705800
31.743700 1.660400
31.791500 1.961600
31.839400 1.899900
31.887200 1.918700
31.935000 1.681100
31.982900 1.547300
32.030700 1.444100
32.078600 1.351400
32.126400 1.282700
32.174200 1.231300
32.222100 1.180400
32.269900 1.134900
32.317700 1.119100
32.365600 1.051800
32.413400 0.970500
32.461300 0.913700
32.509100 0.870100
32.556900 0.820900
32.604800 0.792100
32.652600 0.775800
32.700400 0.755200
32.748300 0.739300
