set title 'mp-610517 - Density of States'
set xlabel 'Energy (eV)'
set ylabel 'DOS (states/eV)'
set grid
set xrange [-10:10]
set yrange [0:82.590]
set xzeroaxis lt -1
set terminal png size 800,600
set output 'mp-610517_dos_gnuplot.png'
plot '-' using 1:2 with lines title 'DOS'
-12.234500 0.000000
-12.214900 0.000000
-12.195200 0.000000
-12.175600 0.000000
-12.155900 0.000000
-12.136300 0.000000
-12.116600 0.000000
-12.097000 0.000000
-12.077300 0.000000
-12.057700 0.000000
-12.038000 0.000000
-12.018300 0.000000
-11.998700 0.000000
-11.979000 0.000000
-11.959400 0.000000
-11.939700 0.000000
-11.920100 0.000000
-11.900400 0.000000
-11.880800 0.000000
-11.861100 0.000000
-11.841500 0.000000
-11.821800 0.000000
-11.802200 0.000000
-11.782500 0.000000
-11.762800 0.000000
-11.743200 0.000000
-11.723500 0.000000
-11.703900 0.000000
-11.684200 0.000000
-11.664600 0.000000
-11.644900 0.000000
-11.625300 0.000000
-11.605600 0.000000
-11.586000 0.000000
-11.566300 0.000000
-11.546700 0.000000
-11.527000 0.000000
-11.507300 0.000000
-11.487700 0.000000
-11.468000 0.000000
-11.448400 0.000000
-11.428700 0.000000
-11.409100 0.000000
-11.389400 0.000000
-11.369800 0.000000
-11.350100 0.000000
-11.330500 0.000000
-11.310800 0.000000
-11.291200 0.000000
-11.271500 0.000000
-11.251800 0.000000
-11.232200 0.000000
-11.212500 0.000000
-11.192900 0.000000
-11.173200 0.000000
-11.153600 0.000000
-11.133900 0.000000
-11.114300 0.000000
-11.094600 0.000000
-11.075000 0.000000
-11.055300 0.000000
-11.035700 0.000000
-11.016000 0.000000
-10.996300 0.000000
-10.976700 0.000000
-10.957000 0.000000
-10.937400 0.000000
-10.917700 0.000000
-10.898100 0.000000
-10.878400 0.000000
-10.858800 0.000000
-10.839100 0.000000
-10.819500 0.000000
-10.799800 0.000000
-10.780200 0.000000
-10.760500 0.000000
-10.740800 0.000000
-10.721200 0.000000
-10.701500 0.000000
-10.681900 0.000000
-10.662200 0.000000
-10.642600 0.000000
-10.622900 0.000000
-10.603300 0.000000
-10.583600 0.000000
-10.564000 0.000000
-10.544300 0.000000
-10.524700 0.000000
-10.505000 0.000000
-10.485300 0.000000
-10.465700 0.000000
-10.446000 0.001000
-10.426400 0.138100
-10.406700 0.507300
-10.387100 1.108500
-10.367400 1.909700
-10.347800 2.736500
-10.328100 3.489700
-10.308500 3.994200
-10.288800 4.362100
-10.269200 4.676300
-10.249500 4.967100
-10.229800 5.234500
-10.210200 5.501400
-10.190500 5.901800
-10.170900 6.534700
-10.151200 8.100100
-10.131600 12.131400
-10.111900 14.061100
-10.092300 14.930100
-10.072600 15.356300
-10.053000 15.730400
-10.033300 16.551300
-10.013700 20.505600
-9.994000 24.940000
-9.974300 23.866700
-9.954700 19.690700
-9.935000 19.524700
-9.915400 31.100100
-9.895700 27.024000
-9.876100 21.124200
-9.856400 15.128200
-9.836800 18.368000
-9.817100 16.436000
-9.797500 11.674300
-9.777800 6.976900
-9.758200 2.095600
-9.738500 0.000000
-9.718800 0.000000
-9.699200 0.000000
-9.679500 0.000000
-9.659900 0.000000
-9.640200 0.000000
-9.620600 0.000000
-9.600900 0.000000
-9.581300 0.000000
-9.561600 0.000000
-9.542000 0.000000
-9.522300 0.000000
-9.502700 0.000000
-9.483000 0.000000
-9.463300 0.000000
-9.443700 0.000000
-9.424000 0.000000
-9.404400 0.000000
-9.384700 0.000000
-9.365100 0.000000
-9.345400 0.000000
-9.325800 0.000000
-9.306100 0.000000
-9.286500 0.000000
-9.266800 0.000000
-9.247200 0.000000
-9.227500 0.000000
-9.207800 0.000000
-9.188200 0.000000
-9.168500 0.000000
-9.148900 0.000000
-9.129200 0.000000
-9.109600 0.000000
-9.089900 0.000000
-9.070300 0.000000
-9.050600 0.000000
-9.031000 0.000000
-9.011300 0.000000
-8.991700 0.000000
-8.972000 0.000000
-8.952300 0.000000
-8.932700 0.000000
-8.913000 0.000000
-8.893400 0.000000
-8.873700 0.000000
-8.854100 0.000000
-8.834400 0.000000
-8.814800 0.000000
-8.795100 0.000000
-8.775500 0.000000
-8.755800 0.000000
-8.736200 0.000000
-8.716500 0.000000
-8.696800 0.000000
-8.677200 0.000000
-8.657500 0.000000
-8.637900 0.000000
-8.618200 0.000000
-8.598600 0.000000
-8.578900 0.000000
-8.559300 0.000000
-8.539600 0.000000
-8.520000 0.000000
-8.500300 0.000000
-8.480700 0.000000
-8.461000 0.000000
-8.441300 0.000000
-8.421700 0.000000
-8.402000 0.000000
-8.382400 0.000000
-8.362700 0.000000
-8.343100 0.000000
-8.323400 0.000000
-8.303800 0.000000
-8.284100 0.000000
-8.264500 0.000000
-8.244800 0.000000
-8.225200 0.000000
-8.205500 0.000000
-8.185800 0.000000
-8.166200 0.000000
-8.146500 0.000000
-8.126900 0.000000
-8.107200 0.000000
-8.087600 0.000000
-8.067900 0.000000
-8.048300 0.000000
-8.028600 0.000000
-8.009000 0.000000
-7.989300 0.000000
-7.969700 0.000000
-7.950000 0.000000
-7.930300 0.000000
-7.910700 0.000000
-7.891000 0.000000
-7.871400 0.000000
-7.851700 0.000000
-7.832100 0.000000
-7.812400 0.000000
-7.792800 0.000000
-7.773100 0.000000
-7.753500 0.000000
-7.733800 0.000000
-7.714200 0.000000
-7.694500 0.000000
-7.674800 0.000000
-7.655200 0.000000
-7.635500 0.000000
-7.615900 0.000000
-7.596200 0.000000
-7.576600 0.000000
-7.556900 0.000000
-7.537300 0.000000
-7.517600 0.000000
-7.498000 0.000000
-7.478300 0.000000
-7.458700 0.000000
-7.439000 0.000000
-7.419300 0.000000
-7.399700 0.000000
-7.380000 0.000000
-7.360400 0.000000
-7.340700 0.000000
-7.321100 0.000000
-7.301400 0.000000
-7.281800 0.000000
-7.262100 0.000000
-7.242500 0.000000
-7.222800 0.000000
-7.203200 0.000000
-7.183500 0.000000
-7.163800 0.000000
-7.144200 0.000000
-7.124500 0.000000
-7.104900 0.000000
-7.085200 0.000000
-7.065600 0.000000
-7.045900 0.000000
-7.026300 0.000000
-7.006600 0.000000
-6.987000 0.000000
-6.967300 0.000000
-6.947700 0.000000
-6.928000 0.000000
-6.908300 0.000000
-6.888700 0.000000
-6.869000 0.000000
-6.849400 0.000000
-6.829700 0.000000
-6.810100 0.000000
-6.790400 0.000000
-6.770800 0.000000
-6.751100 0.000000
-6.731500 0.000000
-6.711800 0.000000
-6.692200 0.000000
-6.672500 0.000000
-6.652800 0.000000
-6.633200 0.000000
-6.613500 0.000000
-6.593900 0.000000
-6.574200 0.000000
-6.554600 0.000000
-6.534900 0.000000
-6.515300 0.000000
-6.495600 0.000000
-6.476000 0.000000
-6.456300 0.000000
-6.436700 0.000000
-6.417000 0.000000
-6.397300 0.000000
-6.377700 0.000000
-6.358000 0.000000
-6.338400 0.000000
-6.318700 0.000000
-6.299100 0.000000
-6.279400 0.000000
-6.259800 0.000000
-6.240100 0.000000
-6.220500 0.000000
-6.200800 0.000000
-6.181200 0.000000
-6.161500 0.000000
-6.141800 0.000000
-6.122200 0.000000
-6.102500 0.000000
-6.082900 0.000000
-6.063200 0.000000
-6.043600 0.000000
-6.023900 0.000000
-6.004300 0.000000
-5.984600 0.000000
-5.965000 0.000000
-5.945300 0.000000
-5.925700 0.000000
-5.906000 0.000000
-5.886300 0.000000
-5.866700 0.000000
-5.847000 0.000000
-5.827400 0.000000
-5.807700 0.000000
-5.788100 0.000000
-5.768400 0.000000
-5.748800 0.000000
-5.729100 0.000000
-5.709500 0.000000
-5.689800 0.000000
-5.670200 0.000000
-5.650500 0.000000
-5.630800 0.000000
-5.611200 0.000000
-5.591500 0.000000
-5.571900 0.000000
-5.552200 0.000000
-5.532600 0.000000
-5.512900 0.000000
-5.493300 0.000000
-5.473600 0.000000
-5.454000 0.000000
-5.434300 0.000000
-5.414700 0.000000
-5.395000 0.000000
-5.375300 0.000000
-5.355700 0.000000
-5.336000 0.000000
-5.316400 0.000000
-5.296700 0.000000
-5.277100 0.000000
-5.257400 0.000000
-5.237800 0.000000
-5.218100 0.000000
-5.198500 0.000000
-5.178800 0.000000
-5.159200 0.000000
-5.139500 0.000000
-5.119800 0.000000
-5.100200 0.000000
-5.080500 0.000000
-5.060900 0.000000
-5.041200 0.000000
-5.021600 0.000000
-5.001900 0.000000
-4.982300 0.000000
-4.962600 0.000000
-4.943000 0.000000
-4.923300 0.000000
-4.903700 0.000000
-4.884000 0.000000
-4.864300 0.000000
-4.844700 0.000000
-4.825000 0.000000
-4.805400 0.000000
-4.785700 0.000000
-4.766100 0.000000
-4.746400 0.000000
-4.726800 0.000000
-4.707100 0.000000
-4.687500 0.000000
-4.667800 0.000000
-4.648200 0.000000
-4.628500 0.000000
-4.608800 0.000000
-4.589200 0.000000
-4.569500 0.000000
-4.549900 0.000000
-4.530200 0.000000
-4.510600 0.000000
-4.490900 0.000000
-4.471300 0.000000
-4.451600 0.000000
-4.432000 0.000000
-4.412300 0.000000
-4.392700 0.000000
-4.373000 0.000000
-4.353300 0.000000
-4.333700 0.000000
-4.314000 0.000000
-4.294400 0.000000
-4.274700 0.000000
-4.255100 0.000000
-4.235400 0.000000
-4.215800 0.000000
-4.196100 0.000000
-4.176500 0.000000
-4.156800 0.000000
-4.137200 0.000000
-4.117500 0.000000
-4.097800 0.000000
-4.078200 0.000000
-4.058500 0.000000
-4.038900 0.000000
-4.019200 0.000000
-3.999600 0.000000
-3.979900 0.000000
-3.960300 0.000000
-3.940600 0.000000
-3.921000 0.000000
-3.901300 0.000000
-3.881700 0.000000
-3.862000 0.000000
-3.842300 0.000000
-3.822700 0.000000
-3.803000 0.000000
-3.783400 0.000000
-3.763700 0.000000
-3.744100 0.000000
-3.724400 0.000000
-3.704800 0.000000
-3.685100 0.000000
-3.665500 0.000000
-3.645800 0.000000
-3.626200 0.000000
-3.606500 0.000000
-3.586800 0.000000
-3.567200 0.000000
-3.547500 0.000000
-3.527900 0.000000
-3.508200 0.000000
-3.488600 0.000000
-3.468900 0.000000
-3.449300 0.000000
-3.429600 0.000000
-3.410000 0.000000
-3.390300 0.000000
-3.370700 0.000000
-3.351000 0.000000
-3.331300 0.000000
-3.311700 0.000000
-3.292000 0.000000
-3.272400 0.000000
-3.252700 0.000400
-3.233100 0.124200
-3.213400 0.392500
-3.193800 0.739200
-3.174100 1.164300
-3.154500 1.945600
-3.134800 3.076600
-3.115200 4.614200
-3.095500 6.590100
-3.075800 8.639800
-3.056200 10.010500
-3.036500 13.412100
-3.016900 17.266800
-2.997200 19.181900
-2.977600 20.735000
-2.957900 20.304600
-2.938300 27.024300
-2.918600 28.909800
-2.899000 16.848700
-2.879300 8.393500
-2.859700 9.390900
-2.840000 10.855800
-2.820300 16.676500
-2.800700 16.910300
-2.781000 16.242000
-2.761400 21.253700
-2.741700 26.665800
-2.722100 23.607800
-2.702400 24.518700
-2.682800 24.210600
-2.663100 22.851200
-2.643500 20.863700
-2.623800 16.758500
-2.604200 12.023900
-2.584500 10.288900
-2.564800 11.861400
-2.545200 15.844500
-2.525500 30.336300
-2.505900 34.278700
-2.486200 20.679300
-2.466600 12.073400
-2.446900 4.924500
-2.427300 3.852100
-2.407600 4.900100
-2.388000 6.064300
-2.368300 7.214000
-2.348700 8.930400
-2.329000 10.204300
-2.309300 9.689700
-2.289700 10.568300
-2.270000 10.739900
-2.250400 10.918000
-2.230700 11.292600
-2.211100 12.225900
-2.191400 17.645000
-2.171800 18.269500
-2.152100 15.233400
-2.132500 9.750900
-2.112800 7.730800
-2.093200 7.130500
-2.073500 7.791000
-2.053800 11.384700
-2.034200 22.803900
-2.014500 29.723300
-1.994900 27.409100
-1.975200 25.459500
-1.955600 21.888600
-1.935900 23.493700
-1.916300 24.328600
-1.896600 25.961000
-1.877000 27.285600
-1.857300 27.954900
-1.837700 23.341400
-1.818000 18.811000
-1.798300 16.139900
-1.778700 15.347100
-1.759000 15.249800
-1.739400 15.206300
-1.719700 15.575100
-1.700100 18.875100
-1.680400 7.502900
-1.660800 2.029400
-1.641100 1.293200
-1.621500 3.527000
-1.601800 7.337800
-1.582200 15.951900
-1.562500 30.815100
-1.542800 30.103200
-1.523200 28.621500
-1.503500 28.262400
-1.483900 34.134800
-1.464200 55.994700
-1.444600 39.190100
-1.424900 40.198800
-1.405300 72.094100
-1.385600 36.748100
-1.366000 30.283700
-1.346300 57.283400
-1.326700 46.116900
-1.307000 36.130600
-1.287300 29.628900
-1.267700 18.555000
-1.248000 29.400300
-1.228400 34.389800
-1.208700 35.006200
-1.189100 32.393600
-1.169400 37.344100
-1.149800 51.140200
-1.130100 41.527500
-1.110500 33.367700
-1.090800 28.745600
-1.071200 34.545000
-1.051500 35.935800
-1.031800 40.769700
-1.012200 67.425100
-0.992500 46.043900
-0.972900 35.826600
-0.953200 31.743800
-0.933600 25.096900
-0.913900 73.700100
-0.894300 64.184200
-0.874600 32.200400
-0.855000 35.820700
-0.835300 61.602500
-0.815700 58.588600
-0.796000 75.081600
-0.776300 47.320400
-0.756700 45.680800
-0.737000 73.582600
-0.717400 70.243200
-0.697700 53.331100
-0.678100 55.856800
-0.658400 72.376100
-0.638800 46.725000
-0.619100 68.471900
-0.599500 72.428400
-0.579800 35.512200
-0.560200 31.264900
-0.540500 30.378800
-0.520800 52.040400
-0.501200 45.942000
-0.481500 36.629700
-0.461900 31.360700
-0.442200 29.983100
-0.422600 33.900300
-0.402900 32.033600
-0.383300 28.231000
-0.363600 33.083700
-0.344000 39.260400
-0.324300 36.661800
-0.304600 34.504900
-0.285000 28.442600
-0.265300 11.868700
-0.245700 7.060700
-0.226000 5.498300
-0.206400 4.547600
-0.186700 4.124800
-0.167100 4.955300
-0.147400 7.487900
-0.127800 8.361500
-0.108100 9.462500
-0.088500 13.741200
-0.068800 17.124300
-0.049100 17.871400
-0.029500 15.945500
-0.009800 16.223300
0.009800 16.050800
0.029500 14.470300
0.049100 13.150300
0.068800 12.597900
0.088400 12.136800
0.108100 11.937600
0.127700 11.047800
0.147400 9.711700
0.167000 9.249200
0.186700 8.833500
0.206400 8.357400
0.226000 8.112900
0.245700 9.994600
0.265300 11.681200
0.285000 11.677000
0.304600 11.505800
0.324300 11.447000
0.343900 10.764600
0.363600 9.821700
0.383200 9.194700
0.402900 8.491000
0.422500 7.744500
0.442200 7.113000
0.461900 7.059700
0.481500 7.804300
0.501200 9.162200
0.520800 9.774100
0.540500 9.182700
0.560100 8.383900
0.579800 7.509000
0.599400 6.574300
0.619100 5.360100
0.638700 4.355000
0.658400 5.238500
0.678000 6.469400
0.697700 7.287800
0.717400 7.937700
0.737000 8.410600
0.756700 8.741400
0.776300 8.921400
0.796000 8.947600
0.815600 8.695500
0.835300 8.323300
0.854900 8.242100
0.874600 8.135200
0.894200 7.952100
0.913900 7.754400
0.933500 7.494500
0.953200 7.490300
0.972900 7.721000
0.992500 7.615300
1.012200 7.844000
1.031800 8.405000
1.051500 9.262900
1.071100 9.340400
1.090800 9.053500
1.110400 9.061000
1.130100 9.340800
1.149700 9.590200
1.169400 9.733100
1.189000 8.866300
1.208700 7.795400
1.228400 10.641800
1.248000 12.562100
1.267700 12.394100
1.287300 8.273000
1.307000 8.355000
1.326600 8.684800
1.346300 9.147200
1.365900 10.051100
1.385600 11.103800
1.405200 12.664900
1.424900 14.217700
1.444500 15.205000
1.464200 15.956900
1.483900 14.204800
1.503500 11.059400
1.523200 8.933800
1.542800 8.394100
1.562500 8.310600
1.582100 8.382700
1.601800 8.580000
1.621400 10.929400
1.641100 10.671200
1.660700 9.078600
1.680400 8.614000
1.700000 8.390300
1.719700 8.387800
1.739400 8.785200
1.759000 9.447000
1.778700 9.773600
1.798300 9.779700
1.818000 10.065700
1.837600 10.188600
1.857300 10.044300
1.876900 9.668900
1.896600 9.792300
1.916200 10.028300
1.935900 9.225500
1.955500 7.899600
1.975200 8.496300
1.994900 9.588000
2.014500 10.167800
2.034200 10.549300
2.053800 11.018600
2.073500 10.464200
2.093100 9.102100
2.112800 8.219000
2.132400 7.208600
2.152100 6.869300
2.171700 6.531100
2.191400 6.259100
2.211000 6.012600
2.230700 5.753400
2.250400 5.475800
2.270000 4.980200
2.289700 4.358600
2.309300 4.033400
2.329000 3.674400
2.348600 3.104400
2.368300 2.612500
2.387900 2.101100
2.407600 1.092000
2.427200 0.560900
2.446900 0.183700
2.466500 0.001500
2.486200 0.000000
2.505900 0.000000
2.525500 0.000000
2.545200 0.000000
2.564800 0.000000
2.584500 0.000000
2.604100 0.000000
2.623800 0.000000
2.643400 0.000000
2.663100 0.000000
2.682700 0.000000
2.702400 0.000000
2.722000 0.000000
2.741700 0.000000
2.761400 0.000000
2.781000 0.000000
2.800700 0.000000
2.820300 0.000000
2.840000 0.000000
2.859600 0.000000
2.879300 0.000000
2.898900 0.000000
2.918600 0.000000
2.938200 0.000000
2.957900 0.000000
2.977500 0.000000
2.997200 0.000000
3.016900 0.000000
3.036500 0.000000
3.056200 0.000000
3.075800 0.000000
3.095500 0.000000
3.115100 0.000000
3.134800 0.000000
3.154400 0.000000
3.174100 0.000000
3.193700 0.000000
3.213400 0.000000
3.233000 0.000000
3.252700 0.000000
3.272400 0.000000
3.292000 0.000000
3.311700 0.000000
3.331300 0.000000
3.351000 0.000000
3.370600 0.000000
3.390300 0.000000
3.409900 0.000200
3.429600 0.002300
3.449200 0.006900
3.468900 0.013900
3.488500 0.023400
3.508200 0.035200
3.527900 0.049500
3.547500 0.066200
3.567200 0.085400
3.586800 0.107000
3.606500 0.131000
3.626100 0.157400
3.645800 0.186300
3.665400 0.217600
3.685100 0.251700
3.704700 0.288700
3.724400 0.328500
3.744000 0.371300
3.763700 0.417000
3.783400 0.465600
3.803000 0.517100
3.822700 0.570300
3.842300 0.623200
3.862000 0.675700
3.881600 0.728600
3.901300 0.784500
3.920900 0.848400
3.940600 0.942400
3.960200 1.047200
3.979900 1.160300
3.999500 1.281700
4.019200 1.410600
4.038900 1.541000
4.058500 1.672900
4.078200 1.810400
4.097800 1.962000
4.117500 2.132900
4.137100 2.308000
4.156800 2.485100
4.176400 2.663100
4.196100 2.841800
4.215700 3.021300
4.235400 3.201700
4.255000 3.382900
4.274700 3.563800
4.294400 3.736300
4.314000 3.896100
4.333700 4.094600
4.353300 4.309700
4.373000 4.509100
4.392600 4.697000
4.412300 4.876600
4.431900 5.041800
4.451600 5.146500
4.471200 5.231900
4.490900 5.252700
4.510500 5.237400
4.530200 5.167800
4.549900 5.264500
4.569500 5.475000
4.589200 5.774600
4.608800 6.272600
4.628500 7.162900
4.648100 7.740400
4.667800 7.655700
4.687400 7.529400
4.707100 7.498000
4.726700 7.401500
4.746400 7.145900
4.766000 6.866100
4.785700 6.562600
4.805400 6.120300
4.825000 5.690500
4.844700 5.416800
4.864300 5.290500
4.884000 5.335400
4.903600 5.524900
4.923300 5.531300
4.942900 5.398500
4.962600 5.345400
4.982200 5.022600
5.001900 4.698500
5.021500 4.534400
5.041200 4.654200
5.060900 4.876600
5.080500 5.018700
5.100200 5.093000
5.119800 5.131200
5.139500 5.133400
5.159100 5.162600
5.178800 5.172900
5.198400 5.171300
5.218100 5.158300
5.237700 5.188600
5.257400 5.252500
5.277000 5.256900
5.296700 5.201800
5.316400 5.099900
5.336000 4.962200
5.355700 4.836100
5.375300 4.848900
5.395000 5.120000
5.414600 5.160400
5.434300 5.190200
5.453900 5.198000
5.473600 5.139000
5.493200 5.063400
5.512900 4.950100
5.532500 8.822700
5.552200 4.355200
5.571900 4.001700
5.591500 3.678000
5.611200 3.380600
5.630800 3.109300
5.650500 2.906000
5.670100 2.752800
5.689800 2.634500
5.709400 2.548800
5.729100 2.506100
5.748700 2.522100
5.768400 2.561100
5.788000 2.763800
5.807700 3.018100
5.827400 3.228600
5.847000 3.370300
5.866700 3.550900
5.886300 3.686100
5.906000 3.769800
5.925600 3.913700
5.945300 4.248700
5.964900 4.298900
5.984600 4.339400
6.004200 4.396200
6.023900 4.523100
6.043500 4.751800
6.063200 5.031600
6.082900 5.240200
6.102500 5.366400
6.122200 5.452700
6.141800 5.540300
6.161500 5.546400
6.181100 5.546100
6.200800 5.495200
6.220400 5.420700
6.240100 5.400800
6.259700 5.380600
6.279400 5.502400
6.299000 5.550500
6.318700 5.464500
6.338400 5.258200
6.358000 5.031000
6.377700 4.803100
6.397300 4.435600
6.417000 3.990900
6.436600 3.930500
6.456300 3.958400
6.475900 4.039300
6.495600 4.046400
6.515200 4.416500
6.534900 5.101500
6.554500 5.663500
6.574200 6.089000
6.593900 6.663900
6.613500 7.559200
6.633200 8.362200
6.652800 7.650300
6.672500 6.436400
6.692100 6.097800
6.711800 6.031400
6.731400 5.960700
6.751100 5.858600
6.770700 5.711700
6.790400 5.558200
6.810000 5.490900
6.829700 5.509100
6.849400 5.584400
6.869000 5.720300
6.888700 5.907500
6.908300 6.102200
6.928000 6.331700
6.947600 6.661600
6.967300 6.872700
6.986900 6.982900
7.006600 7.193400
7.026200 6.998400
7.045900 6.030000
7.065500 5.223400
7.085200 4.685600
7.104900 4.151700
7.124500 3.962000
7.144200 3.937700
7.163800 3.953800
7.183500 6.461600
7.203100 8.844600
7.222800 8.026200
7.242400 8.796300
7.262100 9.372700
7.281700 9.023100
7.301400 8.450400
7.321000 8.409600
7.340700 8.683800
7.360400 9.149700
7.380000 9.551700
7.399700 9.868300
7.419300 10.250000
7.439000 10.686300
7.458600 10.398200
7.478300 9.202900
7.497900 8.262200
7.517600 7.973000
7.537200 7.368600
7.556900 6.427000
7.576500 5.959000
7.596200 5.685100
7.615900 5.498600
7.635500 5.367000
7.655200 5.334000
7.674800 5.509600
7.694500 6.359500
7.714100 7.450100
7.733800 7.649000
7.753400 7.600800
7.773100 7.310800
7.792700 6.882200
7.812400 6.632800
7.832000 6.440500
7.851700 6.244000
7.871400 6.060700
7.891000 5.912200
7.910700 5.802500
7.930300 5.731500
7.950000 5.699400
7.969600 5.844500
7.989300 6.068200
8.008900 5.807500
8.028600 5.890500
8.048200 5.947400
8.067900 5.980100
8.087500 6.006400
8.107200 5.962100
8.126900 5.651600
8.146500 5.063500
8.166200 4.412000
8.185800 3.979600
8.205500 3.778300
8.225100 3.594500
8.244800 3.417700
8.264400 3.265300
