set title 'mp-971673 - Density of States'
set xlabel 'Energy (eV)'
set ylabel 'DOS (states/eV)'
set grid
set xrange [-10:10]
set yrange [0:49.334]
set xzeroaxis lt -1
set terminal png size 800,600
set output 'mp-971673_dos_gnuplot.png'
plot '-' using 1:2 with lines title 'DOS'
-11.527900 0.000000
-11.514900 0.000000
-11.501800 0.000000
-11.488700 0.000000
-11.475700 0.000000
-11.462600 0.000000
-11.449500 0.000000
-11.436500 0.000000
-11.423400 0.000000
-11.410400 0.000000
-11.397300 0.000000
-11.384200 0.000000
-11.371200 0.000000
-11.358100 0.000000
-11.345000 0.000000
-11.332000 0.000000
-11.318900 0.000000
-11.305800 0.000000
-11.292800 0.000000
-11.279700 0.000000
-11.266600 0.000000
-11.253600 0.000000
-11.240500 0.000000
-11.227500 0.000000
-11.214400 0.000000
-11.201300 0.000000
-11.188300 0.000000
-11.175200 0.000000
-11.162100 0.000000
-11.149100 0.000000
-11.136000 0.000000
-11.122900 0.000000
-11.109900 0.000000
-11.096800 0.000000
-11.083700 0.000000
-11.070700 0.000000
-11.057600 0.000000
-11.044600 0.000000
-11.031500 0.000000
-11.018400 0.000000
-11.005400 0.000000
-10.992300 0.000000
-10.979200 0.000000
-10.966200 0.000000
-10.953100 0.000000
-10.940000 0.000000
-10.927000 0.000000
-10.913900 0.000000
-10.900800 0.000000
-10.887800 0.000000
-10.874700 0.000000
-10.861700 0.000000
-10.848600 0.000000
-10.835500 0.000000
-10.822500 0.000000
-10.809400 0.000000
-10.796300 0.000000
-10.783300 0.000000
-10.770200 0.000000
-10.757100 0.000000
-10.744100 0.000000
-10.731000 0.000000
-10.717900 0.000000
-10.704900 0.000000
-10.691800 0.000000
-10.678800 0.000000
-10.665700 0.000000
-10.652600 0.000000
-10.639600 0.000000
-10.626500 0.000000
-10.613400 0.000000
-10.600400 0.000000
-10.587300 0.000000
-10.574200 0.000000
-10.561200 0.000000
-10.548100 0.000000
-10.535000 0.000000
-10.522000 0.000000
-10.508900 0.000000
-10.495900 0.000000
-10.482800 0.000000
-10.469700 0.000000
-10.456700 0.000000
-10.443600 0.000000
-10.430500 0.000000
-10.417500 0.000000
-10.404400 0.000000
-10.391300 0.000000
-10.378300 0.000000
-10.365200 0.000000
-10.352100 0.000000
-10.339100 0.004000
-10.326000 0.567800
-10.312900 1.402000
-10.299900 1.756900
-10.286800 2.343700
-10.273800 3.161500
-10.260700 3.538200
-10.247600 3.581700
-10.234600 3.807100
-10.221500 4.037700
-10.208400 4.255900
-10.195400 4.569400
-10.182300 5.593000
-10.169200 6.679200
-10.156200 5.256600
-10.143100 4.764700
-10.130000 4.281200
-10.117000 3.933400
-10.103900 3.917600
-10.090900 3.918600
-10.077800 4.388500
-10.064700 5.078400
-10.051700 5.623100
-10.038600 6.410800
-10.025500 7.902200
-10.012500 8.551700
-9.999400 9.306700
-9.986300 11.224600
-9.973300 12.161600
-9.960200 10.939400
-9.947100 10.359100
-9.934100 9.638400
-9.921000 10.727500
-9.908000 12.923700
-9.894900 12.931200
-9.881800 4.111900
-9.868800 4.068700
-9.855700 4.110100
-9.842600 4.134100
-9.829600 4.121600
-9.816500 4.098200
-9.803400 4.111100
-9.790400 4.309500
-9.777300 4.663100
-9.764200 5.062600
-9.751200 5.110100
-9.738100 5.125800
-9.725100 7.347900
-9.712000 9.213500
-9.698900 44.849000
-9.685900 0.000000
-9.672800 0.000000
-9.659700 0.000000
-9.646700 0.000000
-9.633600 0.000000
-9.620500 0.000000
-9.607500 0.000000
-9.594400 0.000000
-9.581300 0.000000
-9.568300 0.000000
-9.555200 0.000000
-9.542200 0.000000
-9.529100 0.000000
-9.516000 0.000000
-9.503000 0.000000
-9.489900 0.000000
-9.476800 0.000000
-9.463800 0.000000
-9.450700 0.000000
-9.437600 0.000000
-9.424600 0.000000
-9.411500 0.000000
-9.398400 0.000000
-9.385400 0.000000
-9.372300 0.000000
-9.359200 0.000000
-9.346200 0.000000
-9.333100 0.000000
-9.320100 0.000000
-9.307000 0.000000
-9.293900 0.000000
-9.280900 0.000000
-9.267800 0.000000
-9.254700 0.000000
-9.241700 0.000000
-9.228600 0.000000
-9.215500 0.027900
-9.202500 0.468700
-9.189400 0.574900
-9.176300 0.660400
-9.163300 0.797400
-9.150200 0.967300
-9.137200 1.175000
-9.124100 1.379600
-9.111000 1.423300
-9.098000 1.441100
-9.084900 2.137500
-9.071800 3.172400
-9.058800 2.861400
-9.045700 2.844200
-9.032600 2.917700
-9.019600 2.985600
-9.006500 3.059900
-8.993400 3.150200
-8.980400 3.203300
-8.967300 3.243300
-8.954300 3.291300
-8.941200 3.335100
-8.928100 3.389900
-8.915100 3.456700
-8.902000 3.553000
-8.888900 3.667200
-8.875900 3.792700
-8.862800 3.932000
-8.849700 4.101100
-8.836700 4.256100
-8.823600 4.436000
-8.810500 4.702400
-8.797500 5.065300
-8.784400 5.452700
-8.771400 5.433300
-8.758300 5.365300
-8.745200 5.556100
-8.732200 5.231800
-8.719100 4.964700
-8.706000 4.588500
-8.693000 4.315000
-8.679900 4.114700
-8.666800 3.994000
-8.653800 3.745300
-8.640700 3.606700
-8.627600 3.457600
-8.614600 3.374400
-8.601500 3.312800
-8.588500 3.233700
-8.575400 3.172500
-8.562300 3.112200
-8.549300 3.055500
-8.536200 3.007000
-8.523100 2.948800
-8.510100 2.883600
-8.497000 2.830200
-8.483900 2.805700
-8.470900 2.775100
-8.457800 2.739100
-8.444700 2.707300
-8.431700 2.676500
-8.418600 2.637200
-8.405600 2.602000
-8.392500 2.571800
-8.379400 2.543600
-8.366400 2.493700
-8.353300 2.451600
-8.340200 2.429200
-8.327200 2.416200
-8.314100 2.404200
-8.301000 2.388200
-8.288000 2.375600
-8.274900 2.364800
-8.261800 2.355100
-8.248800 2.345800
-8.235700 2.336200
-8.222600 2.325000
-8.209600 2.316100
-8.196500 2.305400
-8.183500 2.277500
-8.170400 2.263200
-8.157300 2.251000
-8.144300 2.242900
-8.131200 2.237600
-8.118100 2.232700
-8.105100 2.226100
-8.092000 2.220300
-8.078900 2.215900
-8.065900 2.211600
-8.052800 2.206800
-8.039700 2.202100
-8.026700 2.197600
-8.013600 2.193300
-8.000600 2.187300
-7.987500 2.187100
-7.974400 4.199000
-7.961400 4.440700
-7.948300 5.069200
-7.935200 3.445500
-7.922200 1.211000
-7.909100 1.067600
-7.896000 1.612300
-7.883000 2.722000
-7.869900 3.035700
-7.856800 2.257400
-7.843800 1.854800
-7.830700 1.243300
-7.817700 0.776500
-7.804600 0.484100
-7.791500 0.278500
-7.778500 0.115700
-7.765400 0.000000
-7.752300 0.000000
-7.739300 0.076600
-7.726200 0.366700
-7.713100 0.753600
-7.700100 1.366600
-7.687000 2.485500
-7.673900 3.102300
-7.660900 3.552800
-7.647800 2.111800
-7.634800 1.403700
-7.621700 1.895800
-7.608600 3.107800
-7.595600 5.104900
-7.582500 4.670400
-7.569400 3.514500
-7.556400 2.988600
-7.543300 2.951200
-7.530200 3.157200
-7.517200 3.408300
-7.504100 3.597100
-7.491000 3.822000
-7.478000 4.081100
-7.464900 4.360000
-7.451900 4.696000
-7.438800 5.189000
-7.425700 5.490500
-7.412700 5.900500
-7.399600 6.391200
-7.386500 7.105200
-7.373500 7.965400
-7.360400 9.100600
-7.347300 9.913500
-7.334300 12.552300
-7.321200 12.826500
-7.308100 12.314300
-7.295100 11.845100
-7.282000 11.883500
-7.268900 11.187900
-7.255900 10.929000
-7.242800 11.262400
-7.229800 10.133100
-7.216700 9.856300
-7.203600 9.915200
-7.190600 10.832400
-7.177500 11.864700
-7.164400 10.334200
-7.151400 9.126300
-7.138300 8.088400
-7.125200 7.523200
-7.112200 5.276800
-7.099100 3.131300
-7.086000 1.784400
-7.073000 1.610900
-7.059900 1.463700
-7.046900 1.312600
-7.033800 1.407700
-7.020700 1.524400
-7.007700 1.646300
-6.994600 1.766200
-6.981500 1.881700
-6.968500 1.972400
-6.955400 1.963000
-6.942300 1.981500
-6.929300 2.017200
-6.916200 2.094100
-6.903100 2.205200
-6.890100 2.300500
-6.877000 2.356900
-6.864000 2.402800
-6.850900 2.439300
-6.837800 2.467600
-6.824800 2.465800
-6.811700 2.434700
-6.798600 2.415400
-6.785600 2.425800
-6.772500 2.435200
-6.759400 2.443600
-6.746400 2.454500
-6.733300 2.473100
-6.720200 2.498200
-6.707200 2.525500
-6.694100 2.553100
-6.681100 2.580800
-6.668000 2.606300
-6.654900 2.628400
-6.641900 2.649300
-6.628800 2.669900
-6.615700 2.689100
-6.602700 2.703400
-6.589600 2.711100
-6.576500 2.721500
-6.563500 2.734600
-6.550400 2.753000
-6.537300 2.776100
-6.524300 2.803000
-6.511200 2.835600
-6.498200 2.873200
-6.485100 2.910700
-6.472000 2.945400
-6.459000 2.980500
-6.445900 3.019200
-6.432800 3.061400
-6.419800 3.107800
-6.406700 3.155700
-6.393600 3.204800
-6.380600 3.254900
-6.367500 3.304200
-6.354400 3.440100
-6.341400 3.558700
-6.328300 3.670000
-6.315300 3.667700
-6.302200 3.693700
-6.289100 3.728800
-6.276100 3.775500
-6.263000 3.820600
-6.249900 3.912400
-6.236900 4.032400
-6.223800 4.184200
-6.210700 4.313800
-6.197700 4.411200
-6.184600 4.462800
-6.171500 4.431800
-6.158500 4.354400
-6.145400 4.295600
-6.132300 4.341400
-6.119300 4.464100
-6.106200 4.628100
-6.093200 4.657600
-6.080100 5.039000
-6.067000 6.037200
-6.054000 6.940500
-6.040900 6.961700
-6.027800 6.053100
-6.014800 4.750000
-6.001700 3.031700
-5.988600 2.171900
-5.975600 1.580900
-5.962500 1.396300
-5.949400 1.474000
-5.936400 1.592200
-5.923300 1.757200
-5.910300 2.079800
-5.897200 2.485600
-5.884100 3.016700
-5.871100 3.240500
-5.858000 3.412100
-5.844900 3.684600
-5.831900 3.744300
-5.818800 4.122000
-5.805700 4.739000
-5.792700 5.759600
-5.779600 7.339700
-5.766500 6.960600
-5.753500 5.758600
-5.740400 5.195500
-5.727400 6.375400
-5.714300 8.877800
-5.701200 7.315700
-5.688200 7.108400
-5.675100 7.189700
-5.662000 7.680900
-5.649000 7.760000
-5.635900 6.728000
-5.622800 6.237800
-5.609800 5.711100
-5.596700 5.367100
-5.583600 5.131300
-5.570600 4.973100
-5.557500 4.797300
-5.544500 4.629300
-5.531400 4.456200
-5.518300 4.590900
-5.505300 4.796100
-5.492200 5.190800
-5.479100 5.833400
-5.466100 5.636300
-5.453000 5.390900
-5.439900 5.022600
-5.426900 4.692600
-5.413800 4.315100
-5.400700 4.088000
-5.387700 3.952600
-5.374600 4.058000
-5.361600 4.526800
-5.348500 5.373000
-5.335400 6.646500
-5.322400 6.276200
-5.309300 5.339900
-5.296200 4.391100
-5.283200 3.915800
-5.270100 3.839500
-5.257000 3.906300
-5.244000 4.211400
-5.230900 4.552000
-5.217800 5.449100
-5.204800 6.432800
-5.191700 6.474500
-5.178600 5.441200
-5.165600 4.959000
-5.152500 4.647700
-5.139500 4.427900
-5.126400 4.277800
-5.113300 4.229700
-5.100300 4.186400
-5.087200 4.143500
-5.074100 4.106400
-5.061100 4.070900
-5.048000 4.035000
-5.034900 4.000200
-5.021900 3.969400
-5.008800 3.938500
-4.995700 3.905800
-4.982700 3.860800
-4.969600 3.811800
-4.956600 3.779700
-4.943500 3.759000
-4.930400 3.747700
-4.917400 3.745100
-4.904300 3.758500
-4.891200 3.754100
-4.878200 3.719500
-4.865100 3.703600
-4.852000 3.680800
-4.839000 3.633700
-4.825900 3.573200
-4.812800 3.523600
-4.799800 3.495000
-4.786700 3.504200
-4.773700 3.477000
-4.760600 3.327600
-4.747500 3.091100
-4.734500 2.915300
-4.721400 2.810400
-4.708300 2.737200
-4.695300 2.683100
-4.682200 2.649300
-4.669100 2.621200
-4.656100 2.589300
-4.643000 2.547100
-4.629900 2.476500
-4.616900 2.412300
-4.603800 2.370400
-4.590800 2.337700
-4.577700 2.310100
-4.564600 2.289500
-4.551600 2.268700
-4.538500 2.246400
-4.525400 2.244200
-4.512400 2.252800
-4.499300 2.263000
-4.486200 2.278300
-4.473200 2.295900
-4.460100 2.485200
-4.447000 2.659100
-4.434000 2.663100
-4.420900 2.717000
-4.407900 2.791000
-4.394800 2.820000
-4.381700 2.852500
-4.368700 2.877700
-4.355600 2.903400
-4.342500 2.919100
-4.329500 2.938000
-4.316400 2.952600
-4.303300 2.973200
-4.290300 2.978600
-4.277200 2.993800
-4.264100 3.002400
-4.251100 3.004000
-4.238000 3.007700
-4.225000 3.027300
-4.211900 3.057300
-4.198800 3.063100
-4.185800 3.061700
-4.172700 3.068300
-4.159600 3.075200
-4.146600 3.075900
-4.133500 3.093700
-4.120400 3.143500
-4.107400 3.179700
-4.094300 3.201000
-4.081200 3.221700
-4.068200 3.249600
-4.055100 3.330800
-4.042000 3.460600
-4.029000 3.550900
-4.015900 3.619300
-4.002900 3.645300
-3.989800 3.725800
-3.976700 3.727300
-3.963700 3.740300
-3.950600 3.798600
-3.937500 3.866500
-3.924500 3.640300
-3.911400 3.529500
-3.898300 3.309900
-3.885300 3.080900
-3.872200 2.506200
-3.859100 2.293100
-3.846100 2.179800
-3.833000 2.091600
-3.820000 2.024600
-3.806900 2.040800
-3.793800 2.078000
-3.780800 1.932700
-3.767700 1.616700
-3.754600 1.057700
-3.741600 0.525600
-3.728500 0.141100
-3.715400 0.000600
-3.702400 0.000000
-3.689300 0.000000
-3.676200 0.000000
-3.663200 0.000000
-3.650100 0.000000
-3.637100 0.000000
-3.624000 0.000000
-3.610900 0.000000
-3.597900 0.000000
-3.584800 0.000000
-3.571700 0.000000
-3.558700 0.000000
-3.545600 0.000000
-3.532500 0.000000
-3.519500 0.000000
-3.506400 0.000000
-3.493300 0.000000
-3.480300 0.000000
-3.467200 0.000000
-3.454200 0.000000
-3.441100 0.000000
-3.428000 0.000000
-3.415000 0.000000
-3.401900 0.000000
-3.388800 0.000000
-3.375800 0.000000
-3.362700 0.000000
-3.349600 0.000000
-3.336600 0.000000
-3.323500 0.000000
-3.310400 0.000000
-3.297400 0.000000
-3.284300 0.000000
-3.271300 0.000000
-3.258200 0.000000
-3.245100 0.000000
-3.232100 0.000000
-3.219000 0.000000
-3.205900 0.000000
-3.192900 0.000000
-3.179800 0.000000
-3.166700 0.000000
-3.153700 0.000000
-3.140600 0.000000
-3.127500 0.000000
-3.114500 0.000000
-3.101400 0.000000
-3.088300 0.000000
-3.075300 0.000000
-3.062200 0.000000
-3.049200 0.000000
-3.036100 0.000000
-3.023000 0.000000
-3.010000 0.000000
-2.996900 0.000000
-2.983800 0.000000
-2.970800 0.000000
-2.957700 0.000000
-2.944600 0.000000
-2.931600 0.000000
-2.918500 0.000000
-2.905400 0.000000
-2.892400 0.000000
-2.879300 0.000000
-2.866300 0.000000
-2.853200 0.000000
-2.840100 0.000000
-2.827100 0.000000
-2.814000 0.000000
-2.800900 0.000000
-2.787900 0.000000
-2.774800 0.000000
-2.761700 0.000000
-2.748700 0.000000
-2.735600 0.000000
-2.722500 0.000000
-2.709500 0.000000
-2.696400 0.000000
-2.683400 0.000000
-2.670300 0.000000
-2.657200 0.000000
-2.644200 0.000000
-2.631100 0.000000
-2.618000 0.000000
-2.605000 0.000000
-2.591900 0.000000
-2.578800 0.000000
-2.565800 0.000000
-2.552700 0.000000
-2.539600 0.000000
-2.526600 0.000000
-2.513500 0.000000
-2.500500 0.000000
-2.487400 0.000000
-2.474300 0.000000
-2.461300 0.000000
-2.448200 0.000000
-2.435100 0.000000
-2.422100 0.000000
-2.409000 0.000000
-2.395900 0.000000
-2.382900 0.000000
-2.369800 0.000000
-2.356700 0.000000
-2.343700 0.000000
-2.330600 0.000000
-2.317600 0.000000
-2.304500 0.000000
-2.291400 0.000000
-2.278400 0.000000
-2.265300 0.000000
-2.252200 0.000000
-2.239200 0.000000
-2.226100 0.000000
-2.213000 0.000000
-2.200000 0.000000
-2.186900 0.000000
-2.173800 0.000000
-2.160800 0.000000
-2.147700 0.000000
-2.134600 0.000000
-2.121600 0.000000
-2.108500 0.000000
-2.095500 0.000000
-2.082400 0.000000
-2.069300 0.000000
-2.056300 0.000000
-2.043200 0.000000
-2.030100 0.000000
-2.017100 0.000000
-2.004000 0.000000
-1.990900 0.000000
-1.977900 0.000000
-1.964800 0.000000
-1.951700 0.000000
-1.938700 0.000000
-1.925600 0.000000
-1.912600 0.000000
-1.899500 0.000000
-1.886400 0.000000
-1.873400 0.000000
-1.860300 0.000000
-1.847200 0.000000
-1.834200 0.000000
-1.821100 0.000000
-1.808000 0.000000
-1.795000 0.000000
-1.781900 0.000000
-1.768800 0.000000
-1.755800 0.000000
-1.742700 0.000000
-1.729700 0.000000
-1.716600 0.000000
-1.703500 0.000000
-1.690500 0.000000
-1.677400 0.000000
-1.664300 0.000000
-1.651300 0.000000
-1.638200 0.000000
-1.625100 0.000000
-1.612100 0.000000
-1.599000 0.000000
-1.585900 0.000000
-1.572900 0.000000
-1.559800 0.000000
-1.546800 0.000000
-1.533700 0.000000
-1.520600 0.000000
-1.507600 0.000000
-1.494500 0.000000
-1.481400 0.000000
-1.468400 0.000000
-1.455300 0.000000
-1.442200 0.000000
-1.429200 0.000000
-1.416100 0.000000
-1.403000 0.000000
-1.390000 0.000000
-1.376900 0.000000
-1.363900 0.000000
-1.350800 0.000000
-1.337700 0.000000
-1.324700 0.000000
-1.311600 0.000000
-1.298500 0.000000
-1.285500 0.000000
-1.272400 0.000000
-1.259300 0.000000
-1.246300 0.000000
-1.233200 0.000000
-1.220100 0.000000
-1.207100 0.000000
-1.194000 0.000000
-1.181000 0.000000
-1.167900 0.000000
-1.154800 0.000000
-1.141800 0.000000
-1.128700 0.000000
-1.115600 0.000000
-1.102600 0.000000
-1.089500 0.000000
-1.076400 0.000000
-1.063400 0.000000
-1.050300 0.000000
-1.037200 0.000000
-1.024200 0.000000
-1.011100 0.000000
-0.998000 0.000000
-0.985000 0.000000
-0.971900 0.000000
-0.958900 0.000000
-0.945800 0.000000
-0.932700 0.010100
-0.919700 0.249600
-0.906600 0.657700
-0.893500 1.062100
-0.880500 1.549600
-0.867400 2.128700
-0.854300 2.509400
-0.841300 2.696200
-0.828200 2.775600
-0.815100 2.786500
-0.802100 2.925000
-0.789000 3.187800
-0.776000 3.453600
-0.762900 3.695800
-0.749800 3.449200
-0.736800 2.785400
-0.723700 2.577400
-0.710600 2.462500
-0.697600 2.329200
-0.684500 2.199800
-0.671400 2.100300
-0.658400 2.232600
-0.645300 2.561800
-0.632200 2.870200
-0.619200 3.196200
-0.606100 3.486700
-0.593100 3.761200
-0.580000 4.053400
-0.566900 4.230700
-0.553900 4.540300
-0.540800 5.014900
-0.527700 5.405200
-0.514700 5.816900
-0.501600 6.278500
-0.488500 6.690200
-0.475500 7.203700
-0.462400 7.962800
-0.449300 8.661800
-0.436300 8.562800
-0.423200 7.770300
-0.410200 7.421400
-0.397100 7.137500
-0.384000 6.812100
-0.371000 6.361100
-0.357900 5.722400
-0.344800 5.285400
-0.331800 4.919100
-0.318700 4.723000
-0.305600 4.683700
-0.292600 4.643300
-0.279500 4.665900
-0.266400 4.570100
-0.253400 4.558900
-0.240300 4.591600
-0.227300 4.751900
-0.214200 4.968900
-0.201100 5.236700
-0.188100 5.584700
-0.175000 5.856100
-0.161900 6.033300
-0.148900 6.263600
-0.135800 6.588900
-0.122700 6.868500
-0.109700 7.030500
-0.096600 7.250500
-0.083500 7.396300
-0.070500 7.669300
-0.057400 7.656600
-0.044300 7.622200
-0.031300 7.459200
-0.018200 7.021200
-0.005200 6.867100
0.007900 6.831400
0.021000 6.997300
0.034000 7.291100
0.047100 7.650800
0.060200 8.591200
0.073200 8.452300
0.086300 8.042600
0.099400 7.475900
0.112400 6.696700
0.125500 6.370900
0.138600 6.318100
0.151600 6.364100
0.164700 6.264200
0.177700 6.168900
0.190800 6.320600
0.203900 6.895000
0.216900 8.008200
0.230000 9.739000
0.243100 10.834600
0.256100 11.397400
0.269200 11.179000
0.282300 11.028400
0.295300 10.734900
0.308400 11.230800
0.321500 11.768500
0.334500 10.185700
0.347600 9.924400
0.360600 9.881400
0.373700 9.850100
0.386800 9.396800
0.399800 8.195300
0.412900 7.750800
0.426000 7.396200
0.439000 7.524800
0.452100 7.491600
0.465200 7.701300
0.478200 7.823900
0.491300 7.768200
0.504400 7.629600
0.517400 7.662300
0.530500 7.824600
0.543500 7.869400
0.556600 7.636100
0.569700 7.339600
0.582700 7.091300
0.595800 6.885600
0.608900 6.877900
0.621900 6.503200
0.635000 6.205100
0.648100 6.073500
0.661100 6.072700
0.674200 6.041100
0.687300 6.156300
0.700300 6.195400
0.713400 6.198900
0.726400 6.188000
0.739500 6.090600
0.752600 6.184600
0.765600 6.309700
0.778700 6.559900
0.791800 7.154500
0.804800 7.831300
0.817900 8.598900
0.831000 9.182100
0.844000 9.718300
0.857100 10.602000
0.870200 10.267500
0.883200 9.973200
0.896300 9.514800
0.909300 9.050000
0.922400 9.015000
0.935500 9.505500
0.948500 9.972700
0.961600 9.876000
0.974700 9.912300
0.987700 9.977900
1.000800 9.822900
1.013900 9.700900
1.026900 9.676100
1.040000 9.196200
1.053100 9.209000
1.066100 8.826300
1.079200 8.210500
1.092300 7.474800
1.105300 7.054500
1.118400 6.932800
1.131400 6.919700
1.144500 6.991500
1.157600 6.746800
1.170600 6.546200
1.183700 6.169400
1.196800 6.034100
1.209800 5.969400
1.222900 5.982800
1.236000 6.002600
1.249000 6.150900
1.262100 6.381400
1.275200 6.566100
1.288200 6.690300
1.301300 6.824700
1.314300 7.019100
1.327400 7.218900
1.340500 7.471700
1.353500 7.784700
1.366600 8.182500
1.379700 8.593100
1.392700 8.863200
1.405800 8.861700
1.418900 8.749200
1.431900 8.688500
1.445000 8.532300
1.458100 7.910600
1.471100 7.604500
1.484200 7.311200
1.497200 7.239400
1.510300 7.277800
1.523400 7.359900
1.536400 7.534700
1.549500 7.722300
1.562600 7.727200
1.575600 7.440500
1.588700 7.480600
1.601800 7.561100
1.614800 7.595000
1.627900 7.982600
1.641000 8.148800
1.654000 8.281300
1.667100 8.450900
1.680100 8.974900
1.693200 10.306800
1.706300 10.298400
1.719300 10.387300
1.732400 11.037800
1.745500 11.997400
1.758500 12.424400
1.771600 11.262600
1.784700 10.599800
1.797700 10.125900
1.810800 9.996900
1.823900 9.827500
1.836900 9.640600
1.850000 9.858600
1.863000 10.451400
1.876100 10.817000
1.889200 10.701300
1.902200 10.490700
1.915300 10.408000
1.928400 10.169500
1.941400 9.841700
1.954500 9.937000
1.967600 9.855400
1.980600 9.536100
1.993700 8.684800
2.006800 8.313600
