set title 'mp-2653 - Density of States'
set xlabel 'Energy (eV)'
set ylabel 'DOS (states/eV)'
set grid
set xrange [-10:10]
set yrange [0:3.571]
set xzeroaxis lt -1
set terminal png size 800,600
set output 'mp-2653_dos_gnuplot.png'
plot '-' using 1:2 with lines title 'DOS'
-14.659100 0.000000
-14.638200 0.000000
-14.617400 0.000000
-14.596500 0.000000
-14.575700 0.000000
-14.554800 0.000000
-14.533900 0.000000
-14.513100 0.000000
-14.492200 0.000000
-14.471400 0.000000
-14.450500 0.000000
-14.429600 0.000000
-14.408800 0.000000
-14.387900 0.000000
-14.367100 0.000000
-14.346200 0.000000
-14.325300 0.000000
-14.304500 0.000000
-14.283600 0.000000
-14.262800 0.000000
-14.241900 0.000000
-14.221000 0.000000
-14.200200 0.000000
-14.179300 0.000000
-14.158500 0.000000
-14.137600 0.000000
-14.116700 0.000000
-14.095900 0.000000
-14.075000 0.000000
-14.054200 0.000000
-14.033300 0.000000
-14.012400 0.000000
-13.991600 0.000000
-13.970700 0.000000
-13.949900 0.000000
-13.929000 0.000000
-13.908100 0.000000
-13.887300 0.000000
-13.866400 0.000000
-13.845600 0.000000
-13.824700 0.000000
-13.803800 0.000000
-13.783000 0.000000
-13.762100 0.000000
-13.741300 0.000000
-13.720400 0.000000
-13.699500 0.000000
-13.678700 0.000000
-13.657800 0.000000
-13.637000 0.000000
-13.616100 0.000000
-13.595200 0.000000
-13.574400 0.000000
-13.553500 0.000000
-13.532700 0.000000
-13.511800 0.000000
-13.490900 0.000000
-13.470100 0.000000
-13.449200 0.000000
-13.428400 0.000000
-13.407500 0.000000
-13.386600 0.000000
-13.365800 0.000000
-13.344900 0.000000
-13.324100 0.000000
-13.303200 0.000000
-13.282300 0.000000
-13.261500 0.000000
-13.240600 0.000000
-13.219800 0.000000
-13.198900 0.000000
-13.178000 0.000000
-13.157200 0.000000
-13.136300 0.000000
-13.115500 0.000000
-13.094600 0.000000
-13.073700 0.000000
-13.052900 0.000000
-13.032000 0.000000
-13.011200 0.000000
-12.990300 0.000000
-12.969400 0.000000
-12.948600 0.000000
-12.927700 0.000000
-12.906900 0.000000
-12.886000 0.000000
-12.865100 0.000000
-12.844300 0.000000
-12.823400 0.000000
-12.802600 0.000000
-12.781700 0.000000
-12.760800 0.000100
-12.740000 0.020900
-12.719100 0.053400
-12.698300 0.057800
-12.677400 0.072000
-12.656500 0.087100
-12.635700 0.096700
-12.614800 0.099900
-12.594000 0.107000
-12.573100 0.115000
-12.552200 0.122900
-12.531400 0.131400
-12.510500 0.138400
-12.489700 0.142000
-12.468800 0.147100
-12.447900 0.151800
-12.427100 0.156700
-12.406200 0.162100
-12.385400 0.168100
-12.364500 0.174300
-12.343600 0.180600
-12.322800 0.185100
-12.301900 0.187900
-12.281100 0.191800
-12.260200 0.195800
-12.239300 0.199800
-12.218500 0.203900
-12.197600 0.208400
-12.176800 0.213100
-12.155900 0.217800
-12.135000 0.222500
-12.114200 0.227300
-12.093300 0.230900
-12.072500 0.234000
-12.051600 0.237300
-12.030700 0.240600
-12.009900 0.244000
-11.989000 0.247500
-11.968200 0.251200
-11.947300 0.255000
-11.926400 0.258700
-11.905600 0.262500
-11.884700 0.266400
-11.863900 0.270400
-11.843000 0.274600
-11.822100 0.278400
-11.801300 0.281200
-11.780400 0.284200
-11.759600 0.287200
-11.738700 0.290200
-11.717800 0.293200
-11.697000 0.296300
-11.676100 0.299600
-11.655300 0.302900
-11.634400 0.306300
-11.613500 0.309800
-11.592700 0.313200
-11.571800 0.316800
-11.551000 0.320300
-11.530100 0.323900
-11.509200 0.327500
-11.488400 0.344300
-11.467500 0.349100
-11.446700 0.351700
-11.425800 0.354000
-11.404900 0.356200
-11.384100 0.354700
-11.363200 0.353400
-11.342400 0.354700
-11.321500 0.355900
-11.300600 0.357000
-11.279800 0.358000
-11.258900 0.356900
-11.238100 0.357300
-11.217200 0.357800
-11.196300 0.358500
-11.175500 0.359600
-11.154600 0.360700
-11.133800 0.361500
-11.112900 0.385300
-11.092000 0.385900
-11.071200 0.389900
-11.050300 0.394900
-11.029500 0.399200
-11.008600 0.399800
-10.987700 0.402200
-10.966900 0.406000
-10.946000 0.410000
-10.925200 0.414000
-10.904300 0.418200
-10.883400 0.419400
-10.862600 0.421600
-10.841700 0.424400
-10.820900 0.427900
-10.800000 0.431600
-10.779100 0.435400
-10.758300 0.439200
-10.737400 0.442700
-10.716600 0.444900
-10.695700 0.447700
-10.674800 0.450800
-10.654000 0.454000
-10.633100 0.457100
-10.612300 0.460000
-10.591400 0.463100
-10.570500 0.466500
-10.549700 0.469900
-10.528800 0.473400
-10.508000 0.476000
-10.487100 0.479200
-10.466200 0.482500
-10.445400 0.485900
-10.424500 0.489400
-10.403700 0.492900
-10.382800 0.496400
-10.361900 0.500000
-10.341100 0.503500
-10.320200 0.507200
-10.299400 0.510600
-10.278500 0.514100
-10.257600 0.517200
-10.236800 0.520400
-10.215900 0.523900
-10.195100 0.527400
-10.174200 0.530900
-10.153300 0.534500
-10.132500 0.538200
-10.111600 0.542000
-10.090800 0.545800
-10.069900 0.549600
-10.049000 0.553400
-10.028200 0.557300
-10.007300 0.561200
-9.986500 0.565200
-9.965600 0.568700
-9.944700 0.572500
-9.923900 0.576400
-9.903000 0.580400
-9.882200 0.584500
-9.861300 0.588600
-9.840400 0.592800
-9.819600 0.597100
-9.798700 0.601500
-9.777900 0.605900
-9.757000 0.610300
-9.736100 0.614900
-9.715300 0.619400
-9.694400 0.624100
-9.673600 0.628700
-9.652700 0.633400
-9.631800 0.638000
-9.611000 0.642800
-9.590100 0.647600
-9.569300 0.652500
-9.548400 0.657500
-9.527500 0.662600
-9.506700 0.667800
-9.485800 0.673000
-9.465000 0.678400
-9.444100 0.683800
-9.423300 0.689300
-9.402400 0.694900
-9.381500 0.700900
-9.360700 0.706800
-9.339800 0.713100
-9.319000 0.719600
-9.298100 0.726100
-9.277200 0.732900
-9.256400 0.739900
-9.235500 0.746900
-9.214700 0.754200
-9.193800 0.761600
-9.172900 0.769100
-9.152100 0.776800
-9.131200 0.784600
-9.110400 0.792700
-9.089500 0.801100
-9.068600 0.809700
-9.047800 0.818500
-9.026900 0.827700
-9.006100 0.838500
-8.985200 0.849500
-8.964300 0.860800
-8.943500 0.872600
-8.922600 0.884700
-8.901800 0.897400
-8.880900 0.911100
-8.860000 0.927500
-8.839200 0.945300
-8.818300 0.964400
-8.797500 0.984600
-8.776600 1.006200
-8.755700 1.053000
-8.734900 1.082400
-8.714000 1.103200
-8.693200 1.119100
-8.672300 1.151900
-8.651400 1.161100
-8.630600 1.158800
-8.609700 1.147400
-8.588900 1.143600
-8.568000 1.139600
-8.547100 1.133300
-8.526300 1.128000
-8.505400 1.128500
-8.484600 1.131300
-8.463700 1.137900
-8.442800 1.131800
-8.422000 1.134400
-8.401100 1.135700
-8.380300 1.135800
-8.359400 1.134100
-8.338500 1.131600
-8.317700 1.130000
-8.296800 1.128600
-8.276000 1.126200
-8.255100 1.122700
-8.234200 1.118900
-8.213400 1.116200
-8.192500 1.116000
-8.171700 1.118600
-8.150800 1.120800
-8.129900 1.125100
-8.109100 1.128600
-8.088200 1.129200
-8.067400 1.134200
-8.046500 1.110600
-8.025600 1.123600
-8.004800 1.101600
-7.983900 1.098800
-7.963100 1.101300
-7.942200 1.110900
-7.921300 1.156300
-7.900500 1.137500
-7.879600 1.136000
-7.858800 1.138000
-7.837900 1.159500
-7.817000 1.155300
-7.796200 1.159200
-7.775300 1.162000
-7.754500 1.168900
-7.733600 1.173800
-7.712700 1.180400
-7.691900 1.182600
-7.671000 1.186700
-7.650200 1.196500
-7.629300 1.210800
-7.608400 1.222400
-7.587600 1.225000
-7.566700 1.235600
-7.545900 1.267900
-7.525000 1.294500
-7.504100 1.312700
-7.483300 1.350300
-7.462400 1.409200
-7.441600 1.514900
-7.420700 1.675200
-7.399800 1.650900
-7.379000 1.758800
-7.358100 1.941100
-7.337300 2.013000
-7.316400 1.931400
-7.295500 1.934700
-7.274700 2.001700
-7.253800 1.924400
-7.233000 1.859500
-7.212100 1.579700
-7.191200 1.480900
-7.170400 1.426600
-7.149500 1.249300
-7.128700 1.046800
-7.107800 0.909200
-7.086900 0.778100
-7.066100 0.686400
-7.045200 0.617500
-7.024400 0.521100
-7.003500 0.427900
-6.982600 0.306900
-6.961800 0.238700
-6.940900 0.022900
-6.920100 0.000000
-6.899200 0.000000
-6.878300 0.000000
-6.857500 0.000000
-6.836600 0.000000
-6.815800 0.000000
-6.794900 0.000000
-6.774000 0.000000
-6.753200 0.000000
-6.732300 0.000000
-6.711500 0.000000
-6.690600 0.000000
-6.669700 0.000000
-6.648900 0.000000
-6.628000 0.000000
-6.607200 0.000000
-6.586300 0.000000
-6.565400 0.000000
-6.544600 0.000000
-6.523700 0.000000
-6.502900 0.000000
-6.482000 0.000000
-6.461100 0.000000
-6.440300 0.000000
-6.419400 0.000000
-6.398600 0.000000
-6.377700 0.000000
-6.356800 0.000000
-6.336000 0.000000
-6.315100 0.000000
-6.294300 0.000000
-6.273400 0.000000
-6.252500 0.000000
-6.231700 0.000000
-6.210800 0.000000
-6.190000 0.000000
-6.169100 0.000000
-6.148200 0.000000
-6.127400 0.000000
-6.106500 0.000000
-6.085700 0.000000
-6.064800 0.000000
-6.043900 0.000000
-6.023100 0.000000
-6.002200 0.000000
-5.981400 0.000000
-5.960500 0.000000
-5.939600 0.000000
-5.918800 0.000000
-5.897900 0.000000
-5.877100 0.000000
-5.856200 0.000000
-5.835300 0.000000
-5.814500 0.000000
-5.793600 0.000000
-5.772800 0.000000
-5.751900 0.000000
-5.731000 0.000000
-5.710200 0.000000
-5.689300 0.000000
-5.668500 0.000000
-5.647600 0.000000
-5.626700 0.000000
-5.605900 0.000000
-5.585000 0.000000
-5.564200 0.000000
-5.543300 0.000000
-5.522400 0.000000
-5.501600 0.000000
-5.480700 0.000000
-5.459900 0.000000
-5.439000 0.000000
-5.418100 0.000000
-5.397300 0.000000
-5.376400 0.000000
-5.355600 0.000000
-5.334700 0.000000
-5.313800 0.000000
-5.293000 0.000000
-5.272100 0.000000
-5.251300 0.000000
-5.230400 0.000000
-5.209500 0.000000
-5.188700 0.000000
-5.167800 0.000000
-5.147000 0.000000
-5.126100 0.000000
-5.105200 0.000000
-5.084400 0.000000
-5.063500 0.000000
-5.042700 0.000000
-5.021800 0.000000
-5.000900 0.000000
-4.980100 0.000000
-4.959200 0.000000
-4.938400 0.000000
-4.917500 0.000000
-4.896600 0.000000
-4.875800 0.000000
-4.854900 0.000000
-4.834100 0.000000
-4.813200 0.000000
-4.792300 0.000000
-4.771500 0.000000
-4.750600 0.000000
-4.729800 0.000000
-4.708900 0.000000
-4.688000 0.000000
-4.667200 0.000000
-4.646300 0.000000
-4.625500 0.000000
-4.604600 0.000000
-4.583700 0.000000
-4.562900 0.000000
-4.542000 0.000000
-4.521200 0.000000
-4.500300 0.000000
-4.479400 0.000000
-4.458600 0.000000
-4.437700 0.000000
-4.416900 0.000000
-4.396000 0.000000
-4.375100 0.000000
-4.354300 0.000000
-4.333400 0.000000
-4.312600 0.000000
-4.291700 0.000000
-4.270800 0.000000
-4.250000 0.000000
-4.229100 0.000000
-4.208300 0.000000
-4.187400 0.000000
-4.166500 0.000000
-4.145700 0.000000
-4.124800 0.000000
-4.104000 0.000000
-4.083100 0.000000
-4.062200 0.000000
-4.041400 0.000000
-4.020500 0.000000
-3.999700 0.000000
-3.978800 0.000000
-3.957900 0.000000
-3.937100 0.000000
-3.916200 0.000000
-3.895400 0.000000
-3.874500 0.000000
-3.853600 0.000000
-3.832800 0.000000
-3.811900 0.000000
-3.791100 0.000000
-3.770200 0.000000
-3.749300 0.000000
-3.728500 0.000000
-3.707600 0.000000
-3.686800 0.000000
-3.665900 0.000000
-3.645000 0.000000
-3.624200 0.000000
-3.603300 0.000000
-3.582500 0.000000
-3.561600 0.000000
-3.540700 0.000000
-3.519900 0.000000
-3.499000 0.000000
-3.478200 0.000000
-3.457300 0.000000
-3.436500 0.000000
-3.415600 0.000000
-3.394700 0.000000
-3.373900 0.000000
-3.353000 0.000000
-3.332200 0.000000
-3.311300 0.000000
-3.290400 0.000700
-3.269600 0.006700
-3.248700 0.013100
-3.227900 0.019100
-3.207000 0.025600
-3.186100 0.032600
-3.165300 0.039000
-3.144400 0.044900
-3.123600 0.047700
-3.102700 0.049900
-3.081800 0.052700
-3.061000 0.055300
-3.040100 0.057400
-3.019300 0.059800
-2.998400 0.062300
-2.977500 0.064600
-2.956700 0.067000
-2.935800 0.069300
-2.915000 0.071600
-2.894100 0.074400
-2.873200 0.077200
-2.852400 0.079700
-2.831500 0.082200
-2.810700 0.084600
-2.789800 0.087000
-2.768900 0.089300
-2.748100 0.091600
-2.727200 0.094000
-2.706400 0.095800
-2.685500 0.097900
-2.664600 0.100000
-2.643800 0.102000
-2.622900 0.103800
-2.602100 0.105600
-2.581200 0.107300
-2.560300 0.213400
-2.539500 0.255400
-2.518600 0.302700
-2.497800 0.347800
-2.476900 0.389700
-2.456000 0.411000
-2.435200 0.430500
-2.414300 0.448800
-2.393500 0.469000
-2.372600 0.489100
-2.351700 0.509100
-2.330900 0.519200
-2.310000 0.536500
-2.289200 0.554100
-2.268300 0.628800
-2.247400 0.609600
-2.226600 0.631900
-2.205700 0.654300
-2.184900 0.676500
-2.164000 0.703700
-2.143100 0.719700
-2.122300 0.734400
-2.101400 0.753600
-2.080600 0.778500
-2.059700 0.804200
-2.038800 0.830000
-2.018000 0.856100
-1.997100 0.878300
-1.976300 0.900100
-1.955400 0.938300
-1.934500 0.981900
-1.913700 1.026700
-1.892800 1.071800
-1.872000 1.078200
-1.851100 1.080200
-1.830200 1.080000
-1.809400 1.090500
-1.788500 1.103500
-1.767700 1.113100
-1.746800 1.121100
-1.725900 1.127600
-1.705100 1.137000
-1.684200 1.153600
-1.663400 1.172000
-1.642500 1.193400
-1.621600 1.211200
-1.600800 1.232500
-1.579900 1.306100
-1.559100 1.388200
-1.538200 1.499700
-1.517300 1.540800
-1.496500 1.461000
-1.475600 1.465700
-1.454800 1.469100
-1.433900 1.476500
-1.413000 1.521500
-1.392200 1.595800
-1.371300 1.559100
-1.350500 1.557500
-1.329600 1.576300
-1.308700 1.562800
-1.287900 1.537700
-1.267000 1.508100
-1.246200 1.474100
-1.225300 1.492200
-1.204400 1.493700
-1.183600 1.469900
-1.162700 1.444800
-1.141900 1.440500
-1.121000 1.412300
-1.100100 1.378200
-1.079300 1.353400
-1.058400 1.310200
-1.037600 1.282500
-1.016700 1.260100
-0.995800 1.240100
-0.975000 1.226300
-0.954100 1.207500
-0.933300 1.189900
-0.912400 1.181400
-0.891500 1.175000
-0.870700 1.182400
-0.849800 1.110500
-0.829000 1.066200
-0.808100 1.026800
-0.787200 0.984800
-0.766400 0.959000
-0.745500 0.936600
-0.724700 0.917800
-0.703800 0.903200
-0.682900 0.894700
-0.662100 0.900300
-0.641200 0.906300
-0.620400 0.912000
-0.599500 0.912100
-0.578600 0.914800
-0.557800 0.922600
-0.536900 0.930700
-0.516100 0.939100
-0.495200 0.945300
-0.474300 0.954400
-0.453500 0.964700
-0.432600 0.978200
-0.411800 0.992800
-0.390900 1.006900
-0.370000 1.022700
-0.349200 1.040400
-0.328300 1.069300
-0.307500 1.078700
-0.286600 1.091100
-0.265700 1.112600
-0.244900 1.134600
-0.224000 1.159500
-0.203200 1.191800
-0.182300 1.207400
-0.161400 1.229900
-0.140600 1.247900
-0.119700 1.269200
-0.098900 1.298900
-0.078000 1.331700
-0.057100 1.372800
-0.036300 1.395400
-0.015400 1.380800
0.005400 1.358500
0.026300 1.334100
0.047200 1.313100
0.068000 1.295600
0.088900 1.290600
0.109700 1.199700
0.130600 1.054800
0.151500 0.963300
0.172300 0.907100
0.193200 0.868300
0.214000 0.825100
0.234900 0.799800
0.255800 0.795500
0.276600 0.793900
0.297500 0.792400
0.318300 0.790800
0.339200 0.799800
0.360100 0.814600
0.380900 0.805800
0.401800 0.813600
0.422600 0.819300
0.443500 0.827400
0.464400 0.836400
0.485200 0.845200
0.506100 0.852600
0.526900 0.861500
0.547800 0.888600
0.568700 0.956900
0.589500 1.022300
0.610400 1.070800
0.631200 1.113300
0.652100 1.136300
0.673000 1.158700
0.693800 1.180900
0.714700 1.207400
0.735500 1.233500
0.756400 1.260900
0.777300 1.302800
0.798100 1.315400
0.819000 1.321700
0.839800 1.322200
0.860700 1.321000
0.881600 1.304400
0.902400 1.270200
0.923300 1.253400
0.944100 1.196500
0.965000 1.147500
0.985900 1.112700
1.006700 1.095000
1.027600 1.078900
1.048400 1.065400
1.069300 1.055400
1.090200 1.053700
1.111000 1.055800
1.131900 1.055300
1.152700 1.047500
1.173600 1.047700
1.194500 1.058000
1.215300 1.074900
1.236200 1.080800
1.257000 1.083200
1.277900 1.089200
1.298800 1.095700
1.319600 1.104900
1.340500 1.116700
1.361300 1.156100
1.382200 1.193500
1.403100 1.214200
1.423900 1.214400
1.444800 1.223900
1.465600 1.257600
1.486500 1.299700
1.507400 1.463100
1.528200 1.093000
1.549100 1.099500
1.569900 1.117700
1.590800 1.121000
1.611700 1.120900
1.632500 1.122100
1.653400 1.128700
1.674200 1.133800
1.695100 1.141000
1.716000 1.146100
1.736800 1.148500
1.757700 1.153100
1.778500 1.167300
1.799400 1.183100
1.820300 1.196300
1.841100 1.210600
1.862000 1.227200
1.882800 1.246900
1.903700 1.277400
1.924600 1.308000
1.945400 1.314600
1.966300 1.301400
1.987100 1.292300
2.008000 1.279200
2.028900 1.250500
2.049700 1.231900
2.070600 1.216100
2.091400 1.212600
2.112300 1.212100
2.133200 1.213500
2.154000 1.213200
2.174900 1.211700
2.195700 1.237200
2.216600 1.240900
2.237500 1.246900
2.258300 1.254900
2.279200 1.268500
2.300000 1.291100
2.320900 1.306400
2.341800 1.346200
2.362600 1.451600
2.383500 1.567400
2.404300 1.333800
2.425200 1.340100
2.446100 1.341900
2.466900 1.338700
2.487800 1.343300
2.508600 1.367000
2.529500 1.396500
2.550300 1.420100
2.571200 1.451600
2.592100 1.491100
2.612900 1.520700
2.633800 1.525400
2.654600 1.524100
2.675500 1.521200
2.696400 1.514100
2.717200 1.510600
2.738100 1.509600
2.758900 1.512000
2.779800 1.497800
2.800700 1.495400
2.821500 1.502000
2.842400 1.513900
2.863200 1.517500
2.884100 1.520000
2.905000 1.523300
2.925800 1.544300
2.946700 1.541900
2.967500 1.541400
2.988400 1.550000
3.009300 1.559000
3.030100 1.570400
3.051000 1.588700
3.071800 1.612300
3.092700 1.635300
3.113600 1.644000
3.134400 1.801300
3.155300 1.708000
3.176100 1.702100
3.197000 1.688100
3.217900 1.676800
3.238700 1.671000
3.259600 1.677600
3.280400 1.660800
3.301300 1.654300
3.322200 1.657500
3.343000 1.647500
3.363900 1.649900
3.384700 1.654400
3.405600 1.662200
3.426500 1.677100
3.447300 1.688700
3.468200 1.692000
3.489000 1.686300
3.509900 1.679100
3.530800 1.669500
3.551600 1.663100
3.572500 1.664300
3.593300 1.677500
3.614200 1.685100
3.635100 1.692900
3.655900 1.699700
3.676800 1.705300
3.697600 1.718500
3.718500 1.739900
3.739400 1.906300
3.760200 1.852100
3.781100 1.874100
3.801900 1.896000
3.822800 1.898400
3.843700 1.890100
3.864500 1.893000
3.885400 1.870900
3.906200 1.989500
3.927100 2.114000
3.948000 2.075100
3.968800 1.979800
3.989700 1.945000
4.010500 1.921400
4.031400 1.865100
4.052300 1.805400
4.073100 1.779700
4.094000 1.757200
4.114800 1.768400
4.135700 1.807800
4.156600 1.822600
4.177400 1.831900
4.198300 1.837600
4.219100 1.950200
4.240000 2.070500
4.260900 2.224100
4.281700 2.230400
4.302600 2.208300
4.323400 2.200400
4.344300 2.219400
4.365200 2.240700
4.386000 2.273600
4.406900 2.314500
4.427700 2.368200
4.448600 2.448400
4.469500 2.543600
4.490300 2.740600
4.511200 3.246100
4.532000 2.980300
4.552900 2.578300
4.573800 2.396000
4.594600 2.279800
4.615500 2.202500
4.636300 2.147600
4.657200 2.110600
4.678100 2.042700
4.698900 2.005400
4.719800 1.954900
4.740600 1.911600
4.761500 1.873300
4.782400 1.840800
4.803200 1.813100
4.824100 1.783900
4.844900 1.758300
4.865800 1.734600
4.886700 1.710600
4.907500 1.691800
4.928400 1.677600
4.949200 1.662100
4.970100 1.646200
4.991000 1.625700
5.011800 1.615500
5.032700 1.608700
5.053500 1.599800
5.074400 1.590500
5.095300 1.581400
5.116100 1.567800
5.137000 1.550700
5.157800 1.531800
5.178700 1.509300
5.199600 1.494000
5.220400 1.478700
5.241300 1.463700
5.262100 1.449800
5.283000 1.439700
5.303900 1.427400
5.324700 1.423600
5.345600 1.416900
5.366400 1.404400
5.387300 1.390200
5.408200 1.352700
5.429000 1.298400
5.449900 1.244500
5.470700 1.206800
5.491600 1.177100
5.512500 1.153400
5.533300 1.133100
5.554200 1.114700
5.575000 1.087300
5.595900 1.066200
5.616800 1.046600
5.637600 1.027300
5.658500 1.012100
5.679300 1.000300
5.700200 0.987800
5.721100 0.972700
5.741900 0.954300
5.762800 0.936300
5.783600 0.919600
5.804500 0.903300
5.825400 0.888900
5.846200 0.873500
5.867100 0.859400
5.887900 0.846000
5.908800 0.831300
5.929700 0.816400
5.950500 0.801800
5.971400 0.787300
5.992200 0.772500
6.013100 0.758500
6.034000 0.746500
6.054800 0.734800
6.075700 0.722700
6.096500 0.712100
6.117400 0.702900
6.138300 0.689200
6.159100 0.675400
6.180000 0.662300
6.200800 0.664300
6.221700 0.643000
6.242600 0.623500
6.263400 0.608300
6.284300 0.602600
6.305100 0.597800
6.326000 0.591300
6.346900 0.586700
6.367700 0.577900
6.388600 0.568500
6.409400 0.559200
6.430300 0.558600
6.451200 0.542000
6.472000 0.523700
6.492900 0.513600
6.513700 0.504000
6.534600 0.494500
6.555500 0.485200
6.576300 0.475800
6.597200 0.467900
6.618000 0.459200
6.638900 0.450200
6.659800 0.441000
6.680600 0.431400
6.701500 0.422100
6.722300 0.414100
6.743200 0.406200
6.764100 0.397900
6.784900 0.389500
6.805800 0.379900
6.826600 0.370200
6.847500 0.360000
6.868400 0.349700
6.889200 0.339900
6.910100 0.330800
6.930900 0.322100
6.951800 0.314300
6.972700 0.307100
6.993500 0.300300
7.014400 0.294300
7.035200 0.286200
7.056100 0.275900
7.077000 0.267800
7.097800 0.256000
