set title 'mp-1019086 - Density of States'
set xlabel 'Energy (eV)'
set ylabel 'DOS (states/eV)'
set grid
set xrange [-10:10]
set yrange [0:11.105]
set xzeroaxis lt -1
set terminal png size 800,600
set output 'mp-1019086_dos_gnuplot.png'
plot '-' using 1:2 with lines title 'DOS'
-23.810600 0.000000
-23.776600 0.000000
-23.742600 0.000000
-23.708500 0.000000
-23.674500 0.000000
-23.640500 0.000000
-23.606500 0.000000
-23.572500 0.000000
-23.538500 0.000000
-23.504500 0.000000
-23.470400 0.000000
-23.436400 0.000000
-23.402400 0.000000
-23.368400 0.000000
-23.334400 0.000000
-23.300400 0.000000
-23.266300 0.000000
-23.232300 0.000000
-23.198300 0.000000
-23.164300 0.000000
-23.130300 0.000000
-23.096300 0.000000
-23.062300 0.000000
-23.028200 0.000000
-22.994200 0.000000
-22.960200 0.000000
-22.926200 0.000000
-22.892200 0.000000
-22.858200 0.000000
-22.824200 0.000000
-22.790100 0.000000
-22.756100 0.000000
-22.722100 0.000000
-22.688100 0.000000
-22.654100 0.000000
-22.620100 0.000000
-22.586100 0.000000
-22.552000 0.000000
-22.518000 0.000000
-22.484000 0.000000
-22.450000 0.000000
-22.416000 0.000000
-22.382000 0.000000
-22.347900 0.000000
-22.313900 0.000000
-22.279900 0.000000
-22.245900 0.000000
-22.211900 0.000000
-22.177900 0.000000
-22.143900 0.000000
-22.109800 0.000000
-22.075800 0.000000
-22.041800 0.000000
-22.007800 0.000000
-21.973800 0.000000
-21.939800 0.000000
-21.905800 0.000000
-21.871700 0.000000
-21.837700 0.000000
-21.803700 0.000000
-21.769700 0.000000
-21.735700 0.000000
-21.701700 0.000000
-21.667700 0.000000
-21.633600 0.000000
-21.599600 0.000000
-21.565600 0.000000
-21.531600 0.000000
-21.497600 0.000000
-21.463600 0.000000
-21.429500 0.000000
-21.395500 0.000000
-21.361500 0.000000
-21.327500 0.000000
-21.293500 0.000000
-21.259500 0.000000
-21.225500 0.000000
-21.191400 0.000000
-21.157400 0.000000
-21.123400 0.000000
-21.089400 0.000000
-21.055400 0.000000
-21.021400 0.000000
-20.987400 0.000000
-20.953300 0.000000
-20.919300 0.000000
-20.885300 0.000000
-20.851300 0.000000
-20.817300 0.000000
-20.783300 0.000000
-20.749300 0.000000
-20.715200 1.626200
-20.681200 0.455500
-20.647200 0.502300
-20.613200 0.549000
-20.579200 0.595800
-20.545200 0.642500
-20.511100 0.689200
-20.477100 0.736000
-20.443100 0.782700
-20.409100 0.720400
-20.375100 0.627000
-20.341100 0.627600
-20.307100 0.628200
-20.273000 0.628800
-20.239000 0.629500
-20.205000 0.630100
-20.171000 0.630700
-20.137000 0.631300
-20.103000 0.634200
-20.069000 0.646600
-20.034900 0.659000
-20.000900 0.671400
-19.966900 0.683800
-19.932900 0.696200
-19.898900 0.708700
-19.864900 0.721100
-19.830900 0.733500
-19.796800 0.672100
-19.762800 0.669200
-19.728800 0.666200
-19.694800 0.663300
-19.660800 0.660300
-19.626800 0.657400
-19.592700 0.654400
-19.558700 0.651500
-19.524700 0.649100
-19.490700 0.654400
-19.456700 0.659200
-19.422700 0.663900
-19.388700 0.668700
-19.354600 0.673500
-19.320600 0.678300
-19.286600 0.683100
-19.252600 0.687900
-19.218600 0.692700
-19.184600 0.697500
-19.150600 0.702300
-19.116500 0.707100
-19.082500 0.711900
-19.048500 0.716700
-19.014500 0.721500
-18.980500 0.726300
-18.946500 4.846400
-18.912400 0.992300
-18.878400 0.964500
-18.844400 0.936600
-18.810400 0.908800
-18.776400 0.881000
-18.742400 0.853200
-18.708400 0.825400
-18.674300 0.797500
-18.640300 0.570600
-18.606300 0.558400
-18.572300 0.546300
-18.538300 0.534100
-18.504300 0.522000
-18.470300 0.509900
-18.436200 0.497700
-18.402200 0.485600
-18.368200 0.473500
-18.334200 0.461300
-18.300200 0.449200
-18.266200 0.437000
-18.232200 0.424900
-18.198100 0.412800
-18.164100 0.400600
-18.130100 0.388500
-18.096100 0.331500
-18.062100 0.323900
-18.028100 0.316200
-17.994000 0.308500
-17.960000 0.300800
-17.926000 0.293100
-17.892000 0.285400
-17.858000 0.879500
-17.824000 0.901100
-17.790000 0.922800
-17.755900 0.944500
-17.721900 0.966200
-17.687900 0.987900
-17.653900 1.009500
-17.619900 1.031200
-17.585900 0.838400
-17.551900 0.851600
-17.517800 0.864700
-17.483800 0.877900
-17.449800 0.891100
-17.415800 0.904200
-17.381800 3.711600
-17.347800 0.768000
-17.313800 0.788800
-17.279700 0.809700
-17.245700 0.830500
-17.211700 0.851300
-17.177700 0.872200
-17.143700 1.339000
-17.109700 1.333400
-17.075600 1.327800
-17.041600 1.322200
-17.007600 1.316600
-16.973600 1.311000
-16.939600 1.305400
-16.905600 1.299800
-16.871600 1.294200
-16.837500 0.853500
-16.803500 0.833100
-16.769500 0.812600
-16.735500 0.792100
-16.701500 0.810300
-16.667500 0.810100
-16.633500 0.809900
-16.599400 0.809800
-16.565400 0.809600
-16.531400 1.745100
-16.497400 0.806300
-16.463400 0.743000
-16.429400 0.725900
-16.395400 0.708800
-16.361300 0.691700
-16.327300 0.674500
-16.293300 0.657400
-16.259300 0.640300
-16.225300 0.623200
-16.191300 0.606100
-16.157200 0.589000
-16.123200 0.571900
-16.089200 0.554800
-16.055200 0.537700
-16.021200 0.520600
-15.987200 0.503500
-15.953200 0.486400
-15.919100 0.498500
-15.885100 0.666800
-15.851100 0.846400
-15.817100 0.890300
-15.783100 0.776800
-15.749100 0.731200
-15.715100 0.685600
-15.681000 0.640100
-15.647000 0.594500
-15.613000 0.548900
-15.579000 0.503400
-15.545000 0.457800
-15.511000 0.412300
-15.477000 0.688400
-15.442900 0.000000
-15.408900 0.000000
-15.374900 0.000000
-15.340900 0.000000
-15.306900 0.000000
-15.272900 0.000000
-15.238800 0.000000
-15.204800 0.000000
-15.170800 0.000000
-15.136800 0.000000
-15.102800 0.000000
-15.068800 0.000000
-15.034800 0.000000
-15.000700 0.181900
-14.966700 0.196200
-14.932700 0.210500
-14.898700 0.224800
-14.864700 0.239000
-14.830700 0.253300
-14.796700 0.267600
-14.762600 0.281900
-14.728600 0.296200
-14.694600 0.310500
-14.660600 0.324700
-14.626600 0.339000
-14.592600 0.353300
-14.558600 0.367600
-14.524500 0.500600
-14.490500 0.518700
-14.456500 0.536800
-14.422500 0.643000
-14.388500 0.772400
-14.354500 0.901800
-14.320400 1.031200
-14.286400 0.554400
-14.252400 0.564900
-14.218400 0.575300
-14.184400 0.585800
-14.150400 0.596300
-14.116400 0.606700
-14.082300 0.617200
-14.048300 0.627700
-14.014300 0.638100
-13.980300 0.648600
-13.946300 0.659100
-13.912300 0.669500
-13.878300 0.680000
-13.844200 0.690500
-13.810200 0.700900
-13.776200 0.711400
-13.742200 0.721900
-13.708200 0.732300
-13.674200 0.742800
-13.640200 0.753300
-13.606100 0.914000
-13.572100 0.919200
-13.538100 0.924400
-13.504100 0.929600
-13.470100 0.937200
-13.436100 0.942900
-13.402000 0.948700
-13.368000 0.954400
-13.334000 0.961100
-13.300000 0.978400
-13.266000 0.995800
-13.232000 1.013200
-13.198000 1.030600
-13.163900 1.048000
-13.129900 1.103400
-13.095900 1.116900
-13.061900 1.130400
-13.027900 1.143900
-12.993900 1.157300
-12.959900 1.170800
-12.925800 1.184300
-12.891800 1.197800
-12.857800 1.211300
-12.823800 1.224700
-12.789800 1.238200
-12.755800 2.348700
-12.721800 2.261600
-12.687700 2.174500
-12.653700 2.087200
-12.619700 1.307600
-12.585700 1.281400
-12.551700 1.255200
-12.517700 1.229100
-12.483600 1.203100
-12.449600 1.193800
-12.415600 1.186900
-12.381600 1.217200
-12.347600 1.228300
-12.313600 2.111500
-12.279600 0.797300
-12.245500 0.804200
-12.211500 0.811100
-12.177500 0.818000
-12.143500 0.824900
-12.109500 0.831800
-12.075500 0.838700
-12.041500 0.845600
-12.007400 0.852500
-11.973400 0.859400
-11.939400 0.866300
-11.905400 0.873200
-11.871400 0.715000
-11.837400 0.729500
-11.803400 0.744100
-11.769300 0.758600
-11.735300 0.773200
-11.701300 2.373700
-11.667300 1.276400
-11.633300 1.300900
-11.599300 1.325300
-11.565200 1.349800
-11.531200 1.374200
-11.497200 1.398700
-11.463200 1.423100
-11.429200 3.865600
-11.395200 4.192600
-11.361200 4.387800
-11.327100 4.142800
-11.293100 0.000000
-11.259100 0.000000
-11.225100 0.000000
-11.191100 0.000000
-11.157100 0.000000
-11.123100 0.000000
-11.089000 0.000000
-11.055000 0.000000
-11.021000 0.000000
-10.987000 0.000000
-10.953000 0.000000
-10.919000 0.000000
-10.885000 0.000000
-10.850900 0.000000
-10.816900 0.000000
-10.782900 0.000000
-10.748900 0.000000
-10.714900 0.000000
-10.680900 0.000000
-10.646800 0.000000
-10.612800 0.000000
-10.578800 0.000000
-10.544800 0.000000
-10.510800 0.000000
-10.476800 0.000000
-10.442800 0.000000
-10.408700 0.000000
-10.374700 0.000000
-10.340700 0.000000
-10.306700 0.000000
-10.272700 0.000000
-10.238700 0.000000
-10.204700 0.000000
-10.170600 0.000000
-10.136600 0.000000
-10.102600 0.000000
-10.068600 0.000000
-10.034600 0.000000
-10.000600 0.000000
-9.966600 0.000000
-9.932500 0.000000
-9.898500 0.000000
-9.864500 0.000000
-9.830500 0.000000
-9.796500 0.000000
-9.762500 0.000000
-9.728400 0.000000
-9.694400 0.000000
-9.660400 0.000000
-9.626400 0.000000
-9.592400 0.000000
-9.558400 0.000000
-9.524400 0.000000
-9.490300 0.000000
-9.456300 0.000000
-9.422300 0.000000
-9.388300 0.000000
-9.354300 0.000000
-9.320300 0.000000
-9.286300 0.000000
-9.252200 0.000000
-9.218200 0.000000
-9.184200 0.000000
-9.150200 0.000000
-9.116200 0.000000
-9.082200 0.000000
-9.048200 0.000000
-9.014100 0.000000
-8.980100 0.000000
-8.946100 0.000000
-8.912100 0.000000
-8.878100 0.129200
-8.844100 0.137600
-8.810000 0.146100
-8.776000 0.504400
-8.742000 1.257600
-8.708000 1.416100
-8.674000 1.568700
-8.640000 1.721400
-8.606000 1.874100
-8.571900 2.026800
-8.537900 2.179500
-8.503900 3.146200
-8.469900 3.842400
-8.435900 3.853800
-8.401900 3.866100
-8.367900 4.100600
-8.333800 3.614700
-8.299800 1.974700
-8.265800 1.785500
-8.231800 1.664900
-8.197800 1.557700
-8.163800 1.493300
-8.129800 1.428900
-8.095700 1.364500
-8.061700 1.300100
-8.027700 1.235700
-7.993700 1.171200
-7.959700 1.106800
-7.925700 1.042400
-7.891600 0.301600
-7.857600 2.618000
-7.823600 2.422700
-7.789600 1.737200
-7.755600 1.449500
-7.721600 1.695800
-7.687600 1.644800
-7.653500 1.304600
-7.619500 1.338100
-7.585500 1.371600
-7.551500 1.405100
-7.517500 3.366900
-7.483500 3.794800
-7.449500 4.247600
-7.415400 2.630000
-7.381400 2.580500
-7.347400 2.531000
-7.313400 2.481600
-7.279400 2.622100
-7.245400 2.367400
-7.211400 1.773800
-7.177300 1.710800
-7.143300 1.647800
-7.109300 1.584700
-7.075300 2.476900
-7.041300 1.701400
-7.007300 1.310300
-6.973200 0.920300
-6.939200 0.531500
-6.905200 0.295400
-6.871200 0.225300
-6.837200 0.204700
-6.803200 0.184000
-6.769200 0.723000
-6.735100 0.000000
-6.701100 0.000000
-6.667100 0.000000
-6.633100 0.000000
-6.599100 0.000000
-6.565100 0.000000
-6.531100 0.000000
-6.497000 0.000000
-6.463000 0.000000
-6.429000 0.000000
-6.395000 0.000000
-6.361000 0.000000
-6.327000 0.000000
-6.293000 0.000000
-6.258900 0.000000
-6.224900 0.000000
-6.190900 0.000000
-6.156900 0.000000
-6.122900 0.000000
-6.088900 0.000000
-6.054800 0.000000
-6.020800 0.000000
-5.986800 0.000000
-5.952800 0.000000
-5.918800 0.000000
-5.884800 0.000000
-5.850800 0.000000
-5.816700 0.000000
-5.782700 0.000000
-5.748700 0.402500
-5.714700 0.493200
-5.680700 0.266800
-5.646700 0.298200
-5.612700 0.329600
-5.578600 0.361100
-5.544600 0.392600
-5.510600 0.424100
-5.476600 0.455600
-5.442600 0.487100
-5.408600 0.545700
-5.374600 0.636800
-5.340500 0.727800
-5.306500 1.259900
-5.272500 1.063800
-5.238500 1.161100
-5.204500 1.770600
-5.170500 2.317300
-5.136400 2.958800
-5.102400 3.642400
-5.068400 4.003700
-5.034400 4.571400
-5.000400 5.125300
-4.966400 5.774300
-4.932400 6.701400
-4.898300 2.974100
-4.864300 1.436500
-4.830300 1.386000
-4.796300 1.335600
-4.762300 1.285100
-4.728300 1.234700
-4.694300 1.313000
-4.660200 1.520200
-4.626200 1.727300
-4.592200 1.934400
-4.558200 2.141500
-4.524200 2.628500
-4.490200 3.221000
-4.456200 3.263800
-4.422100 4.900600
-4.388100 4.915400
-4.354100 5.067900
-4.320100 5.417400
-4.286100 4.783400
-4.252100 3.555700
-4.218000 2.229800
-4.184000 2.060100
-4.150000 1.890400
-4.116000 1.720700
-4.082000 1.550900
-4.048000 8.443700
-4.014000 1.429300
-3.979900 1.338500
-3.945900 1.247700
-3.911900 1.156900
-3.877900 1.066100
-3.843900 0.975400
-3.809900 0.884600
-3.775900 0.793800
-3.741800 0.747900
-3.707800 0.762600
-3.673800 0.809600
-3.639800 0.856600
-3.605800 0.903600
-3.571800 0.950600
-3.537700 0.997500
-3.503700 1.180400
-3.469700 1.272400
-3.435700 1.364400
-3.401700 1.456500
-3.367700 1.548700
-3.333700 1.738800
-3.299600 1.835400
-3.265600 1.932100
-3.231600 2.537400
-3.197600 2.686900
-3.163600 7.100400
-3.129600 1.718300
-3.095600 2.312400
-3.061500 3.392600
-3.027500 5.628100
-2.993500 4.804400
-2.959500 2.228800
-2.925500 2.183800
-2.891500 2.138800
-2.857500 2.093700
-2.823400 2.048500
-2.789400 2.003200
-2.755400 1.522100
-2.721400 1.477000
-2.687400 1.432000
-2.653400 1.387000
-2.619300 1.341900
-2.585300 1.296900
-2.551300 1.251900
-2.517300 1.206800
-2.483300 1.161800
-2.449300 1.212200
-2.415300 1.429900
-2.381200 0.897900
-2.347200 0.881100
-2.313200 0.864200
-2.279200 0.847400
-2.245200 0.830600
-2.211200 0.813800
-2.177200 0.797000
-2.143100 0.792300
-2.109100 0.777700
-2.075100 0.763000
-2.041100 0.748400
-2.007100 0.733700
-1.973100 0.719100
-1.939100 0.704500
-1.905000 0.689800
-1.871000 0.675200
-1.837000 0.660500
-1.803000 0.645900
-1.769000 0.631300
-1.735000 0.616600
-1.700900 0.602000
-1.666900 0.587300
-1.632900 1.607800
-1.598900 0.679500
-1.564900 0.658100
-1.530900 0.636600
-1.496900 0.615200
-1.462800 0.593700
-1.428800 0.572300
-1.394800 0.550900
-1.360800 0.529400
-1.326800 0.508000
-1.292800 0.486600
-1.258800 0.465100
-1.224700 0.443700
-1.190700 0.293200
-1.156700 0.276600
-1.122700 0.260000
-1.088700 0.243400
-1.054700 0.226800
-1.020700 0.210200
-0.986600 0.000000
-0.952600 0.000000
-0.918600 0.000000
-0.884600 0.000000
-0.850600 0.000000
-0.816600 0.000000
-0.782500 0.138700
-0.748500 0.176300
-0.714500 0.217800
-0.680500 0.263300
-0.646500 0.312800
-0.612500 0.346300
-0.578500 0.404400
-0.544400 0.468800
-0.510400 0.539600
-0.476400 1.183800
-0.442400 2.394100
-0.408400 2.877300
-0.374400 3.369200
-0.340400 3.477300
-0.306300 3.287200
-0.272300 3.062100
-0.238300 2.972000
-0.204300 2.859300
-0.170300 4.314100
-0.136300 3.389400
-0.102300 2.926000
-0.068200 2.534800
-0.034200 2.264400
-0.000200 2.111500
0.033800 1.339000
0.067800 1.405900
0.101800 2.214100
0.135900 2.881400
0.169900 4.808400
0.203900 6.713300
0.237900 4.824200
0.271900 4.314500
0.305900 4.248800
0.339900 4.074900
0.374000 3.847200
0.408000 3.307100
0.442000 3.147300
0.476000 2.984800
0.510000 3.019400
0.544000 2.931200
0.578000 2.695500
0.612100 2.413400
0.646100 2.002400
0.680100 1.535400
0.714100 1.071300
0.748100 0.662900
0.782100 0.000000
0.816100 0.000000
0.850200 0.000000
0.884200 0.000000
0.918200 0.000000
0.952200 0.000000
0.986200 0.000000
1.020200 0.000000
1.054300 0.000000
1.088300 0.000000
1.122300 0.000000
1.156300 0.000000
1.190300 0.000000
1.224300 0.000000
1.258300 0.000000
1.292400 0.000000
1.326400 0.000000
1.360400 0.000000
1.394400 0.000000
1.428400 0.000000
1.462400 0.000000
1.496400 0.000000
1.530500 0.000000
1.564500 0.000000
1.598500 0.000000
1.632500 0.000000
1.666500 0.000000
1.700500 0.000000
1.734500 0.000000
1.768600 0.000000
1.802600 0.000000
1.836600 0.000000
1.870600 0.000000
1.904600 0.000000
1.938600 0.000000
1.972700 0.000000
2.006700 0.000000
2.040700 1.652800
2.074700 2.709700
2.108700 3.877500
2.142700 3.642200
2.176700 2.732400
2.210800 1.658100
2.244800 1.595200
2.278800 1.512800
2.312800 1.409800
2.346800 1.269200
2.380800 1.987800
2.414800 1.653800
2.448900 1.711800
2.482900 1.769900
2.516900 1.827900
2.550900 1.886000
2.584900 1.944000
2.618900 2.002100
2.652900 2.074500
2.687000 2.046400
2.721000 2.459600
2.755000 2.610000
2.789000 2.741600
2.823000 3.005400
2.857000 3.035200
2.891100 3.284600
2.925100 2.445600
2.959100 2.375600
2.993100 2.338800
3.027100 2.430600
3.061100 2.798700
3.095100 3.194700
3.129200 3.533000
3.163200 3.968300
3.197200 4.665300
3.231200 6.716100
3.265200 10.095400
3.299200 4.320500
3.333200 2.757000
3.367300 2.108100
3.401300 1.625200
3.435300 1.546300
3.469300 0.000000
3.503300 0.000000
3.537300 0.000000
3.571300 0.000000
3.605400 0.000000
3.639400 0.000000
3.673400 0.000000
3.707400 0.000000
3.741400 0.000000
3.775400 0.000000
3.809500 0.000000
3.843500 0.000000
3.877500 0.000000
3.911500 0.000000
3.945500 0.000000
3.979500 0.000000
4.013500 0.000000
4.047600 0.000000
4.081600 0.000000
4.115600 0.000000
4.149600 0.000000
4.183600 0.000000
4.217600 0.000000
4.251600 0.000000
4.285700 0.000000
4.319700 0.000000
4.353700 0.000000
4.387700 0.000000
4.421700 0.000000
4.455700 0.000000
4.489700 0.000000
4.523800 0.000000
4.557800 0.000000
4.591800 0.000000
4.625800 0.000000
4.659800 0.000000
4.693800 0.000000
4.727900 0.000000
4.761900 0.000000
4.795900 0.000000
4.829900 0.000000
4.863900 0.000000
4.897900 0.000000
4.931900 0.000000
4.966000 0.000000
5.000000 0.000000
5.034000 0.000000
5.068000 0.000000
5.102000 0.000000
5.136000 0.000000
5.170000 0.000000
5.204100 0.000000
5.238100 0.000000
5.272100 0.000000
5.306100 0.000000
5.340100 0.000000
5.374100 0.000000
5.408100 0.000000
5.442200 0.000000
5.476200 0.000000
5.510200 0.000000
5.544200 0.000000
5.578200 0.000000
5.612200 0.000000
5.646300 0.000000
5.680300 0.000000
5.714300 0.000000
5.748300 0.000000
5.782300 0.000000
5.816300 0.000000
5.850300 0.000000
5.884400 0.000000
5.918400 0.000000
5.952400 0.000000
5.986400 0.000000
6.020400 0.000000
6.054400 0.000000
6.088400 0.000000
6.122500 0.000000
6.156500 0.000000
6.190500 0.000000
6.224500 0.000000
6.258500 0.000000
6.292500 0.000000
6.326500 0.000000
6.360600 0.000000
6.394600 0.000000
6.428600 0.000000
6.462600 0.000000
6.496600 0.000000
6.530600 0.000000
6.564700 0.000000
6.598700 0.000000
6.632700 0.000000
6.666700 0.000000
6.700700 0.000000
6.734700 0.000000
6.768700 0.000000
6.802800 0.000000
6.836800 0.000000
6.870800 0.000000
6.904800 0.000000
6.938800 0.000000
6.972800 0.000000
7.006800 0.000000
7.040900 0.000000
7.074900 0.000000
7.108900 0.000000
7.142900 0.000000
7.176900 0.000000
7.210900 0.000000
7.244900 0.000000
7.279000 0.000000
7.313000 0.000000
7.347000 0.000000
7.381000 0.000000
7.415000 0.000000
7.449000 0.000000
7.483100 0.000000
7.517100 0.000000
7.551100 0.000000
7.585100 0.000000
7.619100 0.000000
7.653100 0.000000
7.687100 0.000000
7.721200 0.000000
7.755200 0.000000
7.789200 0.000000
7.823200 0.000000
7.857200 0.000000
7.891200 0.000000
7.925200 0.000000
7.959300 0.000000
7.993300 0.000000
8.027300 0.000000
8.061300 0.000000
8.095300 0.000000
8.129300 0.000000
8.163300 0.000000
8.197400 0.000000
8.231400 0.000000
8.265400 1.040900
8.299400 3.049500
8.333400 4.665900
8.367400 4.216500
8.401500 2.448900
8.435500 2.039500
8.469500 1.902600
8.503500 1.833000
8.537500 2.274300
8.571500 2.451100
8.605500 2.950000
8.639600 2.654700
8.673600 2.349200
8.707600 2.393800
8.741600 2.437100
8.775600 2.254400
8.809600 2.188600
8.843600 2.106900
8.877700 1.935200
8.911700 1.905600
8.945700 1.874000
8.979700 1.853300
9.013700 1.833300
9.047700 1.815200
9.081700 1.799000
9.115800 1.778800
9.149800 1.759600
9.183800 2.016400
9.217800 2.064300
9.251800 2.127800
9.285800 2.195900
9.319900 2.626900
9.353900 2.742600
9.387900 2.835300
9.421900 2.905900
9.455900 2.784000
9.489900 2.534200
9.523900 2.185800
9.558000 2.156000
9.592000 2.122300
9.626000 2.101600
9.660000 2.081000
9.694000 2.060200
9.728000 2.030700
9.762000 1.987400
9.796100 1.937200
9.830100 1.866100
9.864100 1.771600
9.898100 1.794900
9.932100 1.751200
9.966100 1.747600
10.000100 1.713700
10.034200 1.687500
10.068200 1.513600
10.102200 1.527500
10.136200 1.541400
10.170200 1.555400
10.204200 1.569300
10.238300 1.583300
10.272300 1.597300
10.306300 1.611200
10.340300 2.057400
10.374300 2.155600
10.408300 2.905100
10.442300 2.241100
10.476400 2.361200
10.510400 2.764700
10.544400 2.667500
10.578400 2.830000
10.612400 1.340000
10.646400 0.919100
10.680400 0.822500
10.714500 0.720800
10.748500 0.638000
10.782500 0.571300
10.816500 0.525600
10.850500 0.518300
10.884500 0.511000
10.918500 0.503700
10.952600 0.496400
10.986600 0.489100
11.020600 0.481700
11.054600 0.474400
11.088600 0.467100
11.122600 0.459800
11.156700 0.452500
11.190700 0.445200
11.224700 0.439600
