set title 'mp-10 - Density of States'
set xlabel 'Energy (eV)'
set ylabel 'DOS (states/eV)'
set grid
set xrange [-10:10]
set yrange [0:0.751]
set xzeroaxis lt -1
set terminal png size 800,600
set output 'mp-10_dos_gnuplot.png'
plot '-' using 1:2 with lines title 'DOS'
-14.339700 0.000000
-14.281600 0.000000
-14.223600 0.000000
-14.165500 0.000000
-14.107500 0.000000
-14.049400 0.000000
-13.991300 0.000000
-13.933300 0.000000
-13.875200 0.000000
-13.817200 0.000000
-13.759100 0.000000
-13.701100 0.000000
-13.643000 0.000000
-13.585000 0.000000
-13.526900 0.000000
-13.468800 0.000000
-13.410800 0.000000
-13.352700 0.000000
-13.294700 0.000000
-13.236600 0.000000
-13.178600 0.000000
-13.120500 0.000000
-13.062400 0.000000
-13.004400 0.000000
-12.946300 0.000000
-12.888300 0.000000
-12.830200 0.000000
-12.772200 0.000000
-12.714100 0.000000
-12.656100 0.000000
-12.598000 0.000000
-12.539900 0.000000
-12.481900 0.000000
-12.423800 0.000000
-12.365800 0.000000
-12.307700 0.000000
-12.249700 0.000000
-12.191600 0.000000
-12.133500 0.000000
-12.075500 0.000000
-12.017400 0.000000
-11.959400 0.000000
-11.901300 0.000000
-11.843300 0.000000
-11.785200 0.000000
-11.727200 0.000000
-11.669100 0.000000
-11.611000 0.000000
-11.553000 0.000000
-11.494900 0.000000
-11.436900 0.000000
-11.378800 0.000000
-11.320800 0.000000
-11.262700 0.000000
-11.204600 0.000000
-11.146600 0.000000
-11.088500 0.000000
-11.030500 0.000000
-10.972400 0.000000
-10.914400 0.000000
-10.856300 0.000000
-10.798200 0.000000
-10.740200 0.000000
-10.682100 0.000000
-10.624100 0.000000
-10.566000 0.000000
-10.508000 0.000000
-10.449900 0.000000
-10.391900 0.000000
-10.333800 0.000000
-10.275700 0.000000
-10.217700 0.000000
-10.159600 0.000000
-10.101600 0.000000
-10.043500 0.000000
-9.985500 0.000000
-9.927400 0.000000
-9.869300 0.000000
-9.811300 0.000000
-9.753200 0.000000
-9.695200 0.000000
-9.637100 0.000000
-9.579100 0.000000
-9.521000 0.000000
-9.463000 0.000000
-9.404900 0.000000
-9.346800 0.000000
-9.288800 0.000000
-9.230700 0.000000
-9.172700 0.000000
-9.114600 0.000000
-9.056600 0.020600
-8.998500 0.044600
-8.940400 0.062200
-8.882400 0.073200
-8.824300 0.082600
-8.766300 0.095900
-8.708200 0.104500
-8.650200 0.110700
-8.592100 0.116900
-8.534100 0.124900
-8.476000 0.133600
-8.417900 0.142400
-8.359900 0.146800
-8.301800 0.151600
-8.243800 0.157500
-8.185700 0.163700
-8.127700 0.170000
-8.069600 0.176300
-8.011500 0.183200
-7.953500 0.188200
-7.895400 0.193000
-7.837400 0.198000
-7.779300 0.203300
-7.721300 0.208700
-7.663200 0.214200
-7.605100 0.220000
-7.547100 0.226100
-7.489000 0.231700
-7.431000 0.236900
-7.372900 0.242100
-7.314900 0.247500
-7.256800 0.253000
-7.198800 0.258700
-7.140700 0.264500
-7.082600 0.270400
-7.024600 0.276400
-6.966500 0.282800
-6.908500 0.289600
-6.850400 0.296600
-6.792400 0.303800
-6.734300 0.311000
-6.676200 0.318300
-6.618200 0.325800
-6.560100 0.333300
-6.502100 0.340800
-6.444000 0.352600
-6.386000 0.366900
-6.327900 0.382100
-6.269900 0.396600
-6.211800 0.411300
-6.153700 0.426600
-6.095700 0.475900
-6.037600 0.489200
-5.979600 0.468800
-5.921500 0.464600
-5.863500 0.464200
-5.805400 0.456400
-5.747300 0.449900
-5.689300 0.444300
-5.631200 0.441400
-5.573200 0.438000
-5.515100 0.434200
-5.457100 0.426300
-5.399000 0.420800
-5.341000 0.416300
-5.282900 0.412300
-5.224800 0.408200
-5.166800 0.403900
-5.108700 0.399900
-5.050700 0.393800
-4.992600 0.388600
-4.934600 0.383800
-4.876500 0.379700
-4.818400 0.375400
-4.760400 0.371200
-4.702300 0.367200
-4.644300 0.363100
-4.586200 0.358900
-4.528200 0.353600
-4.470100 0.348800
-4.412000 0.344400
-4.354000 0.340200
-4.295900 0.335900
-4.237900 0.331800
-4.179800 0.327700
-4.121800 0.323700
-4.063700 0.319600
-4.005700 0.315500
-3.947600 0.311700
-3.889500 0.307400
-3.831500 0.302800
-3.773400 0.298400
-3.715400 0.294100
-3.657300 0.289900
-3.599300 0.285600
-3.541200 0.281300
-3.483100 0.277000
-3.425100 0.277600
-3.367000 0.274100
-3.309000 0.268100
-3.250900 0.261100
-3.192900 0.253400
-3.134800 0.245000
-3.076800 0.237800
-3.018700 0.219800
-2.960600 0.197200
-2.902600 0.186900
-2.844500 0.177000
-2.786500 0.167400
-2.728400 0.156600
-2.670400 0.149600
-2.612300 0.142900
-2.554200 0.136300
-2.496200 0.130100
-2.438100 0.124000
-2.380100 0.117400
-2.322000 0.112500
-2.264000 0.107800
-2.205900 0.103100
-2.147900 0.098700
-2.089800 0.094300
-2.031700 0.090100
-1.973700 0.085500
-1.915600 0.082000
-1.857600 0.078500
-1.799500 0.075000
-1.741500 0.071800
-1.683400 0.068600
-1.625300 0.065500
-1.567300 0.062500
-1.509200 0.059600
-1.451200 0.056400
-1.393100 0.053900
-1.335100 0.051400
-1.277000 0.048900
-1.219000 0.046500
-1.160900 0.044300
-1.102800 0.042100
-1.044800 0.039900
-0.986700 0.093200
-0.928700 0.125100
-0.870600 0.125900
-0.812600 0.136300
-0.754500 0.151600
-0.696400 0.162200
-0.638400 0.172000
-0.580300 0.182500
-0.522300 0.195800
-0.464200 0.209600
-0.406200 0.220400
-0.348100 0.223600
-0.290000 0.229400
-0.232000 0.237700
-0.173900 0.244900
-0.115900 0.252000
-0.057800 0.260200
0.000200 0.266900
0.058300 0.273900
0.116300 0.281400
0.174400 0.289200
0.232500 0.294100
0.290500 0.304000
0.348600 0.314200
0.406600 0.324600
0.464700 0.334400
0.522700 0.344600
0.580800 0.354000
0.638900 0.363300
0.696900 0.372800
0.755000 0.382600
0.813000 0.392500
0.871100 0.403900
0.929100 0.416200
0.987200 0.428900
1.045200 0.441700
1.103300 0.454900
1.161400 0.468500
1.219400 0.482400
1.277500 0.524100
1.335500 0.558200
1.393600 0.583100
1.451600 0.612900
1.509700 0.628800
1.567800 0.653400
1.625800 0.629800
1.683900 0.623400
1.741900 0.613900
1.800000 0.606500
1.858000 0.603500
1.916100 0.603400
1.974100 0.615400
2.032200 0.633700
2.090300 0.654400
2.148300 0.631600
2.206400 0.614800
2.264400 0.606400
2.322500 0.600100
2.380500 0.594400
2.438600 0.589600
2.496700 0.587700
2.554700 0.587000
2.612800 0.585700
2.670800 0.584800
2.728900 0.589700
2.786900 0.612300
2.845000 0.629600
2.903100 0.622900
2.961100 0.610200
3.019200 0.599500
3.077200 0.594500
3.135300 0.587800
3.193300 0.582300
3.251400 0.580300
3.309400 0.578300
3.367500 0.574900
3.425600 0.572200
3.483600 0.565900
3.541700 0.560500
3.599700 0.558400
3.657800 0.581800
3.715800 0.584800
3.773900 0.590100
3.832000 0.585900
3.890000 0.580900
3.948100 0.552300
4.006100 0.529900
4.064200 0.514800
4.122200 0.512800
4.180300 0.508500
4.238300 0.498100
4.296400 0.485300
4.354500 0.476800
4.412500 0.497700
4.470600 0.479900
4.528600 0.465300
4.586700 0.466100
4.644700 0.472800
4.702800 0.468900
4.760900 0.447900
4.818900 0.440600
4.877000 0.438300
4.935000 0.436500
4.993100 0.438400
5.051100 0.449300
5.109200 0.482600
5.167200 0.492400
5.225300 0.474100
5.283400 0.445100
5.341400 0.431000
5.399500 0.470800
5.457500 0.417800
5.515600 0.409100
5.573600 0.408300
5.631700 0.410300
5.689800 0.418800
5.747800 0.424100
5.805900 0.440800
5.863900 0.437400
5.922000 0.440100
5.980000 0.442800
6.038100 0.446100
6.096200 0.455400
6.154200 0.434500
6.212300 0.434200
6.270300 0.428400
6.328400 0.437300
6.386400 0.407600
6.444500 0.406800
6.502500 0.406200
6.560600 0.492100
6.618700 0.425100
6.676700 0.412600
6.734800 0.409700
6.792800 0.411600
6.850900 0.414800
6.908900 0.408600
6.967000 0.414400
7.025100 0.439600
7.083100 0.476500
7.141200 0.463100
7.199200 0.420200
7.257300 0.419500
7.315300 0.420500
7.373400 0.413400
7.431400 0.412000
7.489500 0.414700
7.547600 0.420200
7.605600 0.404800
7.663700 0.414600
7.721700 0.416400
7.779800 0.410300
7.837800 0.410800
7.895900 0.411300
7.954000 0.411800
8.012000 0.412700
8.070100 0.449200
8.128100 0.416300
8.186200 0.416800
8.244200 0.425300
8.302300 0.443600
8.360300 0.511800
8.418400 0.475000
8.476500 0.469000
8.534500 0.476800
8.592600 0.486800
8.650600 0.506900
8.708700 0.524500
8.766700 0.526800
8.824800 0.533700
8.882900 0.543500
8.940900 0.552900
8.999000 0.547700
9.057000 0.544300
9.115100 0.552200
9.173100 0.568300
9.231200 0.582400
9.289300 0.581300
9.347300 0.600800
9.405400 0.602800
9.463400 0.643700
9.521500 0.656600
9.579500 0.651600
9.637600 0.682500
9.695600 0.670000
9.753700 0.669800
9.811800 0.666700
9.869800 0.659800
9.927900 0.658400
9.985900 0.659700
10.044000 0.661100
10.102000 0.661000
10.160100 0.662400
10.218200 0.668300
10.276200 0.672100
10.334300 0.652000
10.392300 0.653200
10.450400 0.642300
10.508400 0.645300
10.566500 0.652900
10.624500 0.658400
10.682600 0.668000
10.740700 0.683500
10.798700 0.684900
10.856800 0.681200
10.914800 0.682800
10.972900 0.696400
11.030900 0.703300
11.089000 0.712300
11.147100 0.737200
11.205100 0.748800
11.263200 0.739400
11.321200 0.724000
11.379300 0.694800
11.437300 0.686000
11.495400 0.652200
11.553400 0.636700
11.611500 0.680900
11.669600 0.587200
11.727600 0.570700
11.785700 0.553500
11.843700 0.549100
11.901800 0.551300
11.959800 0.536700
12.017900 0.498100
12.076000 0.497100
12.134000 0.473300
12.192100 0.457500
12.250100 0.377700
12.308200 0.387200
12.366200 0.428500
12.424300 0.473600
12.482400 0.502400
12.540400 0.510100
12.598500 0.516200
12.656500 0.514300
12.714600 0.493300
12.772600 0.465100
12.830700 0.443400
12.888700 0.428700
12.946800 0.421800
13.004900 0.415800
13.062900 0.417500
13.121000 0.423100
13.179000 0.403200
13.237100 0.395300
13.295100 0.387300
13.353200 0.382200
13.411300 0.385900
13.469300 0.373600
13.527400 0.362000
13.585400 0.328200
13.643500 0.329300
13.701500 0.330200
13.759600 0.330300
13.817600 0.330400
13.875700 0.334300
13.933800 0.345900
13.991800 0.341400
14.049900 0.342700
14.107900 0.343800
14.166000 0.344700
14.224000 0.346100
14.282100 0.371600
14.340200 0.391700
14.398200 0.378600
14.456300 0.381500
14.514300 0.388100
14.572400 0.391300
14.630400 0.396500
14.688500 0.401900
14.746500 0.407400
14.804600 0.413000
14.862700 0.417800
14.920700 0.423600
14.978800 0.429600
15.036800 0.436000
15.094900 0.446100
15.152900 0.454700
15.211000 0.461900
15.269100 0.468500
15.327100 0.477600
15.385200 0.487000
15.443200 0.501100
15.501300 0.502500
15.559300 0.508200
15.617400 0.516100
15.675400 0.524900
15.733500 0.534300
15.791600 0.547100
15.849600 0.561300
15.907700 0.578300
15.965700 0.600800
16.023800 0.626200
16.081800 0.644000
16.139900 0.645300
16.198000 0.646500
16.256000 0.634200
16.314100 0.640100
16.372100 0.663200
16.430200 0.661600
16.488200 0.644000
16.546300 0.643200
16.604400 0.641200
16.662400 0.637100
16.720500 0.638100
16.778500 0.640400
16.836600 0.649000
16.894600 0.650500
16.952700 0.646700
17.010700 0.642000
17.068800 0.636900
17.126900 0.633700
17.184900 0.549200
17.243000 0.550100
17.301000 0.568400
17.359100 0.560000
17.417100 0.586700
17.475200 0.657900
17.533300 0.785000
17.591300 0.879100
17.649400 1.019900
17.707400 1.063100
17.765500 0.882500
17.823500 0.881400
17.881600 0.909400
17.939600 0.924100
17.997700 0.934000
18.055800 0.918300
18.113800 0.886100
18.171900 0.861200
18.229900 0.844200
18.288000 0.828400
18.346000 0.835500
18.404100 0.841400
18.462200 0.832800
18.520200 0.843300
18.578300 0.836300
18.636300 0.815200
18.694400 0.756500
18.752400 0.706400
18.810500 0.655500
18.868500 0.623300
18.926600 0.602800
18.984700 0.585200
19.042700 0.568200
19.100800 0.552800
19.158800 0.539300
19.216900 0.530200
19.274900 0.529800
19.333000 0.532200
19.391100 0.524200
19.449100 0.526500
19.507200 0.532700
19.565200 0.607300
19.623300 0.628400
19.681300 0.652800
19.739400 0.617000
19.797500 0.634400
19.855500 0.652500
19.913600 0.658600
19.971600 0.666700
20.029700 0.675900
20.087700 0.714900
20.145800 0.744700
20.203800 0.804900
20.261900 0.905300
20.320000 0.960900
20.378000 1.003100
20.436100 1.116800
20.494100 1.070600
20.552200 1.096600
20.610200 1.030800
20.668300 0.993100
20.726400 0.960700
20.784400 0.928100
20.842500 0.886500
20.900500 0.810000
20.958600 0.760000
21.016600 0.718100
21.074700 0.699600
21.132700 0.681800
21.190800 0.676700
21.248900 0.679800
21.306900 0.681300
21.365000 0.677100
21.423000 0.671900
21.481100 0.682600
21.539100 0.646100
21.597200 0.621300
21.655300 0.617400
21.713300 0.622800
21.771400 0.638500
21.829400 0.646500
21.887500 0.678600
21.945500 0.685200
22.003600 0.694100
22.061600 0.699200
22.119700 0.716300
22.177800 0.722700
22.235800 0.756700
22.293900 0.786500
22.351900 0.837600
22.410000 0.872600
22.468000 0.910100
22.526100 0.934200
22.584200 0.947200
22.642200 0.944600
22.700300 0.944300
22.758300 0.957200
22.816400 0.972500
22.874400 0.997900
22.932500 1.003000
22.990600 0.975000
23.048600 0.946500
23.106700 0.943200
23.164700 0.913600
23.222800 0.880400
23.280800 0.846300
23.338900 0.809100
23.396900 0.756000
23.455000 0.730800
23.513100 0.723300
23.571100 0.710600
23.629200 0.697500
23.687200 0.663700
23.745300 0.649400
23.803300 0.647700
23.861400 0.669600
23.919500 0.715200
23.977500 0.733200
24.035600 0.717100
24.093600 0.707700
24.151700 0.746000
24.209700 0.794400
24.267800 0.816700
24.325800 0.776300
24.383900 0.778000
24.442000 0.812600
24.500000 0.806600
24.558100 0.840900
24.616100 0.904200
24.674200 0.816000
24.732200 0.822800
24.790300 0.827000
24.848400 0.830700
24.906400 0.839300
24.964500 0.849600
25.022500 0.883000
25.080600 0.836300
25.138600 0.816500
25.196700 0.808900
25.254700 0.783200
25.312800 0.785900
25.370900 0.788200
25.428900 0.792900
25.487000 0.806000
25.545000 0.798300
25.603100 0.813100
25.661100 0.823200
25.719200 0.864700
25.777300 0.893500
25.835300 0.912500
25.893400 0.930000
25.951400 0.963400
26.009500 0.974000
26.067500 0.984600
26.125600 1.008000
26.183700 1.027900
26.241700 1.041900
26.299800 1.055200
26.357800 1.034000
26.415900 1.011700
26.473900 0.964100
26.532000 0.924100
26.590000 0.893200
26.648100 0.859100
26.706200 0.819400
26.764200 0.801800
26.822300 0.818600
26.880300 0.696200
26.938400 0.651800
26.996400 0.613800
27.054500 0.595800
27.112600 0.596600
27.170600 0.654200
27.228700 0.698600
27.286700 0.720700
27.344800 0.751400
27.402800 0.777500
27.460900 0.803100
27.518900 0.822900
27.577000 0.848700
27.635100 0.859000
27.693100 0.887900
27.751200 0.907100
27.809200 0.903000
27.867300 0.863100
27.925300 0.862900
27.983400 0.830200
28.041500 0.794000
28.099500 0.817100
28.157600 0.760300
28.215600 0.766800
28.273700 0.774500
28.331700 0.775500
28.389800 0.784500
28.447800 0.796800
28.505900 0.850400
28.564000 0.864700
28.622000 0.848000
28.680100 0.855400
28.738100 0.860300
28.796200 0.881100
28.854200 0.879400
28.912300 0.885500
28.970400 0.906100
29.028400 0.908900
29.086500 0.909500
29.144500 0.914800
29.202600 0.915800
29.260600 0.893600
29.318700 0.859900
29.376700 0.839300
29.434800 0.812600
29.492900 0.806100
29.550900 0.802600
29.609000 0.806400
29.667000 0.814400
29.725100 0.814000
29.783100 0.866000
29.841200 0.876200
29.899300 0.859100
29.957300 0.872400
30.015400 0.873000
30.073400 0.877900
30.131500 0.895300
30.189500 0.923100
30.247600 0.953700
30.305700 0.985100
30.363700 1.029000
30.421800 1.077000
30.479800 1.104700
30.537900 1.123900
30.595900 1.115500
30.654000 1.094000
30.712000 1.063000
30.770100 1.047700
30.828200 1.024400
30.886200 0.988600
30.944300 0.897100
31.002300 0.817200
31.060400 0.779600
31.118400 0.741100
31.176500 0.705600
31.234600 0.709200
31.292600 0.612500
31.350700 0.606900
31.408700 0.607300
31.466800 0.621300
31.524800 0.644500
31.582900 0.696100
31.640900 0.732100
31.699000 0.773000
31.757100 0.804600
31.815100 0.837100
31.873200 0.872000
31.931200 0.909700
31.989300 0.964200
32.047300 0.974400
32.105400 1.016200
32.163500 1.043400
32.221500 1.130500
32.279600 1.107200
32.337600 1.087800
32.395700 1.040500
32.453700 0.993100
32.511800 0.969200
32.569800 0.987300
32.627900 0.990400
32.686000 0.982800
32.744000 0.976800
32.802100 0.969300
32.860100 0.959000
32.918200 1.022900
32.976200 1.001600
33.034300 0.934200
33.092400 0.888700
33.150400 0.873400
33.208500 0.866100
33.266500 0.856300
33.324600 0.849000
33.382600 0.864000
33.440700 0.879100
33.498800 0.885300
33.556800 0.883000
33.614900 0.903300
33.672900 0.890100
33.731000 0.884900
33.789000 0.932900
33.847100 0.951000
33.905100 0.958200
33.963200 0.954200
34.021300 0.936000
34.079300 0.895400
34.137400 0.898800
34.195400 0.919200
34.253500 0.944500
34.311500 1.011000
34.369600 0.956200
34.427700 0.966400
34.485700 0.988500
34.543800 1.002100
34.601800 1.003800
34.659900 1.004400
34.717900 0.999100
34.776000 0.993100
34.834000 1.000900
34.892100 1.002400
34.950200 0.997600
35.008200 0.995000
35.066300 0.988300
35.124300 0.980700
35.182400 0.980900
35.240400 1.012300
35.298500 0.992300
35.356600 0.990200
35.414600 0.991900
35.472700 1.007900
35.530700 1.013000
35.588800 0.920200
35.646800 0.921500
35.704900 0.922100
35.762900 0.967800
35.821000 0.979300
35.879100 0.980400
35.937100 0.977200
35.995200 0.976600
36.053200 0.979800
36.111300 1.002900
36.169300 0.998200
36.227400 0.987000
36.285500 0.977300
36.343500 0.975400
36.401600 0.935500
36.459600 0.921800
36.517700 0.921900
36.575700 0.954900
36.633800 0.960700
36.691900 0.954200
36.749900 0.967300
36.808000 1.066300
36.866000 1.103400
36.924100 1.052300
36.982100 1.047100
37.040200 1.041100
37.098200 1.010900
37.156300 1.011500
37.214400 1.013500
37.272400 1.004000
37.330500 0.978700
37.388500 0.965300
37.446600 0.955600
37.504600 0.958400
37.562700 0.963000
37.620800 0.958800
37.678800 0.944900
37.736900 0.934900
37.794900 0.928900
37.853000 0.950300
37.911000 0.942900
37.969100 0.935400
38.027100 0.927600
38.085200 0.921500
38.143300 0.888900
38.201300 0.888100
38.259400 0.884100
38.317400 0.879700
38.375500 0.880200
38.433500 0.882600
38.491600 0.903600
38.549700 0.896700
38.607700 0.931200
38.665800 0.946300
38.723800 0.950900
38.781900 0.963400
38.839900 0.971700
38.898000 0.942800
38.956000 0.938900
39.014100 0.930200
39.072200 0.928800
39.130200 0.931500
39.188300 0.947900
39.246300 0.972400
39.304400 0.998400
39.362400 1.012700
39.420500 1.022300
39.478600 1.269200
39.536600 1.232100
39.594700 1.151000
39.652700 1.130900
39.710800 1.188700
39.768800 1.116200
39.826900 1.088400
39.885000 1.082700
39.943000 1.092100
40.001100 1.099800
40.059100 1.100000
40.117200 1.106000
40.175200 1.219700
40.233300 1.240400
40.291300 1.250000
40.349400 1.162800
40.407500 1.151000
40.465500 1.136900
40.523600 1.129900
40.581600 1.130700
40.639700 1.127300
40.697700 1.117400
40.755800 1.118400
40.813900 1.113200
40.871900 1.104500
40.930000 1.092300
40.988000 1.089400
41.046100 1.082600
41.104100 1.095200
41.162200 1.080000
41.220200 1.066900
41.278300 1.053700
41.336400 1.035100
41.394400 1.016500
41.452500 1.003300
41.510500 0.985000
41.568600 0.959200
41.626600 0.949900
41.684700 0.939000
41.742800 0.947600
41.800800 0.939700
41.858900 0.922800
41.916900 0.904800
41.975000 0.880000
42.033000 0.877100
42.091100 0.872700
42.149100 0.883200
42.207200 0.896600
42.265300 0.913200
42.323300 0.966800
42.381400 1.004700
42.439400 1.070800
42.497500 1.110500
42.555500 1.138400
42.613600 1.136400
42.671700 1.114100
42.729700 1.101400
42.787800 1.086900
42.845800 1.075500
42.903900 1.048700
42.961900 1.022500
43.020000 0.988700
43.078100 0.961600
43.136100 0.948100
43.194200 0.941700
43.252200 0.941800
43.310300 0.990000
43.368300 0.989400
43.426400 1.001800
43.484400 1.030100
43.542500 1.052500
43.600600 1.055800
43.658600 1.053700
43.716700 1.045700
43.774700 1.050000
43.832800 1.057500
43.890800 1.060000
43.948900 1.070400
44.007000 1.066000
44.065000 1.056700
44.123100 1.041900
44.181100 1.033500
44.239200 1.010900
44.297200 0.986700
44.355300 0.962300
44.413300 0.942100
44.471400 0.942600
44.529500 0.908800
44.587500 0.930400
44.645600 0.929000
44.703600 0.933100
44.761700 0.931800
44.819700 0.895500
44.877800 0.886600
44.935900 0.939800
44.993900 0.967800
45.052000 1.001100
45.110000 1.034000
45.168100 1.075800
45.226100 1.109600
45.284200 1.145100
45.342200 1.231800
45.400300 1.227400
45.458400 1.121500
45.516400 1.101900
45.574500 1.108800
45.632500 1.097300
45.690600 1.052100
45.748600 1.094400
45.806700 1.120800
45.864800 1.155600
45.922800 1.174100
45.980900 1.160000
46.038900 1.165400
46.097000 1.178600
46.155000 1.182500
