set title 'mp-22205 - Density of States'
set xlabel 'Energy (eV)'
set ylabel 'DOS (states/eV)'
set grid
set xrange [-10:10]
set yrange [0:79.584]
set xzeroaxis lt -1
set terminal png size 800,600
set output 'mp-22205_dos_gnuplot.png'
plot '-' using 1:2 with lines title 'DOS'
-10.300700 0.000000
-10.281900 0.000000
-10.263100 0.000000
-10.244300 0.000000
-10.225500 0.000000
-10.206700 0.000000
-10.187900 0.000000
-10.169100 0.000000
-10.150300 0.000000
-10.131500 0.000000
-10.112700 0.000000
-10.093900 0.000000
-10.075100 0.000000
-10.056300 0.000000
-10.037600 0.000000
-10.018800 0.000000
-10.000000 0.000000
-9.981200 0.000000
-9.962400 0.000000
-9.943600 0.000000
-9.924800 0.000000
-9.906000 0.000000
-9.887200 0.000000
-9.868400 0.000000
-9.849600 0.000000
-9.830800 0.000000
-9.812000 0.000000
-9.793200 0.000000
-9.774400 0.000000
-9.755600 0.000000
-9.736800 0.000000
-9.718000 0.000000
-9.699200 0.000000
-9.680400 0.000000
-9.661600 0.000000
-9.642800 0.000000
-9.624000 0.000000
-9.605200 0.000000
-9.586400 0.000000
-9.567600 0.000000
-9.548800 0.000000
-9.530000 0.000000
-9.511200 0.000000
-9.492400 0.000000
-9.473600 0.000000
-9.454800 0.000000
-9.436000 0.000000
-9.417200 0.000000
-9.398400 0.000000
-9.379600 0.000000
-9.360800 0.000000
-9.342000 0.000000
-9.323200 0.000000
-9.304400 0.000000
-9.285600 0.000000
-9.266800 0.000000
-9.248000 0.000000
-9.229200 0.000000
-9.210400 0.000000
-9.191600 0.000000
-9.172800 0.000000
-9.154000 0.000000
-9.135200 0.000000
-9.116400 0.000000
-9.097600 0.000000
-9.078800 0.000000
-9.060100 0.000000
-9.041300 0.000000
-9.022500 0.000000
-9.003700 0.000000
-8.984900 0.000000
-8.966100 0.000000
-8.947300 0.000000
-8.928500 0.000000
-8.909700 0.000000
-8.890900 0.000000
-8.872100 0.000000
-8.853300 0.000000
-8.834500 0.000000
-8.815700 0.000000
-8.796900 0.000000
-8.778100 0.000000
-8.759300 0.000000
-8.740500 0.000000
-8.721700 0.000000
-8.702900 0.000000
-8.684100 0.000000
-8.665300 0.000000
-8.646500 0.000000
-8.627700 0.000000
-8.608900 0.000000
-8.590100 6.630800
-8.571300 27.050100
-8.552500 22.298900
-8.533700 29.738200
-8.514900 30.718600
-8.496100 18.174300
-8.477300 13.073700
-8.458500 10.359200
-8.439700 8.360200
-8.420900 6.910300
-8.402100 5.220600
-8.383300 4.908400
-8.364500 4.217400
-8.345700 3.380400
-8.326900 2.805400
-8.308100 2.288300
-8.289300 1.833900
-8.270500 1.335300
-8.251700 0.828300
-8.232900 0.004500
-8.214100 0.000000
-8.195300 0.000000
-8.176500 0.000000
-8.157700 0.000000
-8.138900 0.000000
-8.120100 0.000000
-8.101300 0.000000
-8.082600 0.000000
-8.063800 0.000000
-8.045000 0.000000
-8.026200 0.000000
-8.007400 0.000000
-7.988600 0.000000
-7.969800 0.000000
-7.951000 0.000000
-7.932200 0.000000
-7.913400 0.000000
-7.894600 0.000000
-7.875800 0.000000
-7.857000 0.000000
-7.838200 0.000000
-7.819400 0.000000
-7.800600 0.000000
-7.781800 0.000000
-7.763000 0.000000
-7.744200 0.000000
-7.725400 0.000000
-7.706600 0.000000
-7.687800 0.000000
-7.669000 0.000000
-7.650200 0.000000
-7.631400 0.000000
-7.612600 0.000000
-7.593800 0.000000
-7.575000 0.000000
-7.556200 0.000000
-7.537400 0.000000
-7.518600 0.000000
-7.499800 0.000000
-7.481000 0.000000
-7.462200 0.000000
-7.443400 0.000000
-7.424600 0.000000
-7.405800 0.000000
-7.387000 0.000000
-7.368200 0.000000
-7.349400 0.000000
-7.330600 0.000000
-7.311800 0.000000
-7.293000 0.000000
-7.274200 2.277300
-7.255400 14.330600
-7.236600 22.629700
-7.217800 59.112300
-7.199000 47.872900
-7.180200 49.581700
-7.161400 33.379900
-7.142600 32.397200
-7.123800 31.982500
-7.105100 26.948800
-7.086300 29.043700
-7.067500 22.660300
-7.048700 56.423800
-7.029900 31.130500
-7.011100 56.718500
-6.992300 50.913700
-6.973500 35.456900
-6.954700 40.875100
-6.935900 50.416700
-6.917100 72.348800
-6.898300 42.731400
-6.879500 15.118700
-6.860700 0.672400
-6.841900 0.637100
-6.823100 0.623700
-6.804300 0.616100
-6.785500 0.582500
-6.766700 0.552900
-6.747900 0.548000
-6.729100 0.548800
-6.710300 0.551400
-6.691500 0.557400
-6.672700 0.567500
-6.653900 0.579300
-6.635100 0.591600
-6.616300 0.604200
-6.597500 0.617000
-6.578700 0.666400
-6.559900 0.712800
-6.541100 0.684800
-6.522300 0.692900
-6.503500 0.700300
-6.484700 0.706600
-6.465900 0.706200
-6.447100 0.708400
-6.428300 0.714100
-6.409500 0.719700
-6.390700 0.725700
-6.371900 0.732000
-6.353100 0.734200
-6.334300 0.739100
-6.315500 0.744200
-6.296700 0.808700
-6.277900 0.820600
-6.259100 0.838400
-6.240300 0.856800
-6.221500 0.875800
-6.202700 0.886400
-6.183900 0.895500
-6.165100 0.912200
-6.146300 0.929400
-6.127600 0.947100
-6.108800 0.965100
-6.090000 0.978200
-6.071200 0.994600
-6.052400 1.011200
-6.033600 1.028600
-6.014800 1.045700
-5.996000 1.065000
-5.977200 1.084900
-5.958400 1.104700
-5.939600 1.123000
-5.920800 1.143400
-5.902000 1.164400
-5.883200 1.185800
-5.864400 1.207600
-5.845600 1.230200
-5.826800 1.253100
-5.808000 1.276400
-5.789200 1.300100
-5.770400 1.323800
-5.751600 1.349000
-5.732800 1.375100
-5.714000 1.403100
-5.695200 1.435100
-5.676400 1.468100
-5.657600 1.502000
-5.638800 1.537000
-5.620000 1.573000
-5.601200 1.610300
-5.582400 1.649500
-5.563600 1.692300
-5.544800 1.737100
-5.526000 1.783900
-5.507200 1.833000
-5.488400 1.884000
-5.469600 1.937000
-5.450800 1.991800
-5.432000 2.057800
-5.413200 2.140900
-5.394400 2.235700
-5.375600 2.344200
-5.356800 2.477000
-5.338000 2.638400
-5.319200 3.084900
-5.300400 2.975200
-5.281600 2.966400
-5.262800 2.952500
-5.244000 2.978300
-5.225200 3.045700
-5.206400 3.169400
-5.187600 3.188100
-5.168800 3.211800
-5.150100 3.194400
-5.131300 3.159100
-5.112500 3.167500
-5.093700 3.204400
-5.074900 3.230700
-5.056100 3.291600
-5.037300 3.319700
-5.018500 3.368100
-4.999700 3.440800
-4.980900 3.432600
-4.962100 3.417500
-4.943300 3.459800
-4.924500 3.589300
-4.905700 3.647100
-4.886900 3.606100
-4.868100 3.946900
-4.849300 3.838500
-4.830500 4.166400
-4.811700 4.529200
-4.792900 4.431400
-4.774100 4.471500
-4.755300 4.972500
-4.736500 3.339400
-4.717700 2.317200
-4.698900 1.747600
-4.680100 1.030500
-4.661300 0.029500
-4.642500 0.000000
-4.623700 0.000000
-4.604900 0.000000
-4.586100 0.000000
-4.567300 0.000000
-4.548500 0.000000
-4.529700 0.000000
-4.510900 0.000000
-4.492100 0.000000
-4.473300 0.000000
-4.454500 0.000000
-4.435700 0.000000
-4.416900 0.000000
-4.398100 0.000000
-4.379300 0.000000
-4.360500 0.000000
-4.341700 0.000000
-4.322900 0.000000
-4.304100 0.000000
-4.285300 0.000000
-4.266500 0.000000
-4.247700 0.000000
-4.228900 0.000000
-4.210100 0.000000
-4.191300 0.000000
-4.172500 0.000000
-4.153800 0.000000
-4.135000 0.000000
-4.116200 0.000000
-4.097400 0.000000
-4.078600 0.000000
-4.059800 0.000000
-4.041000 0.000000
-4.022200 0.000000
-4.003400 0.000000
-3.984600 0.000000
-3.965800 0.000000
-3.947000 0.000000
-3.928200 0.000000
-3.909400 0.000000
-3.890600 0.000000
-3.871800 0.000000
-3.853000 0.000000
-3.834200 0.000000
-3.815400 0.000000
-3.796600 0.000000
-3.777800 0.000000
-3.759000 0.000000
-3.740200 0.000000
-3.721400 0.000000
-3.702600 0.000000
-3.683800 0.000000
-3.665000 0.000000
-3.646200 0.000000
-3.627400 0.000000
-3.608600 0.000000
-3.589800 0.000000
-3.571000 0.000000
-3.552200 0.000000
-3.533400 0.000000
-3.514600 0.000000
-3.495800 0.000000
-3.477000 0.000000
-3.458200 0.000000
-3.439400 0.000000
-3.420600 0.000000
-3.401800 0.000000
-3.383000 0.000000
-3.364200 0.000000
-3.345400 0.000000
-3.326600 0.000000
-3.307800 0.000000
-3.289000 0.000000
-3.270200 0.000000
-3.251400 0.000000
-3.232600 0.000000
-3.213800 0.000000
-3.195000 0.000000
-3.176300 0.000000
-3.157500 0.000000
-3.138700 0.000000
-3.119900 0.000000
-3.101100 0.000000
-3.082300 0.000000
-3.063500 0.000000
-3.044700 0.000000
-3.025900 0.000000
-3.007100 0.000000
-2.988300 0.000000
-2.969500 0.000000
-2.950700 0.000000
-2.931900 0.000000
-2.913100 0.000000
-2.894300 0.000000
-2.875500 0.000000
-2.856700 0.000000
-2.837900 0.000000
-2.819100 0.000000
-2.800300 0.000000
-2.781500 0.000000
-2.762700 0.000000
-2.743900 0.000000
-2.725100 0.000000
-2.706300 0.000000
-2.687500 0.000000
-2.668700 0.000000
-2.649900 0.000000
-2.631100 0.000000
-2.612300 0.000000
-2.593500 0.000000
-2.574700 0.000000
-2.555900 0.000000
-2.537100 0.000000
-2.518300 0.000000
-2.499500 0.000000
-2.480700 0.000000
-2.461900 0.000000
-2.443100 0.000000
-2.424300 0.000000
-2.405500 0.000000
-2.386700 0.000000
-2.367900 0.000000
-2.349100 0.000000
-2.330300 0.000000
-2.311500 0.000000
-2.292700 0.000000
-2.273900 0.000000
-2.255100 0.000000
-2.236300 0.000000
-2.217500 0.000000
-2.198800 0.000000
-2.180000 0.000000
-2.161200 0.000000
-2.142400 0.000000
-2.123600 0.000000
-2.104800 0.000000
-2.086000 0.000000
-2.067200 0.000000
-2.048400 0.000000
-2.029600 0.000000
-2.010800 0.000000
-1.992000 0.000000
-1.973200 0.000000
-1.954400 0.000000
-1.935600 0.000000
-1.916800 0.000000
-1.898000 0.000000
-1.879200 0.000000
-1.860400 0.000000
-1.841600 0.000000
-1.822800 0.000000
-1.804000 0.000000
-1.785200 0.000000
-1.766400 0.000000
-1.747600 0.000000
-1.728800 0.000000
-1.710000 0.000000
-1.691200 0.000000
-1.672400 0.000000
-1.653600 0.000000
-1.634800 0.000000
-1.616000 0.000000
-1.597200 0.000000
-1.578400 0.000000
-1.559600 0.000000
-1.540800 0.000000
-1.522000 0.000000
-1.503200 0.000000
-1.484400 0.000000
-1.465600 0.000000
-1.446800 0.000000
-1.428000 0.000000
-1.409200 0.000000
-1.390400 0.000000
-1.371600 0.000000
-1.352800 0.000000
-1.334000 0.000000
-1.315200 0.000000
-1.296400 0.000000
-1.277600 0.000000
-1.258800 0.000000
-1.240000 0.000000
-1.221300 0.000000
-1.202500 0.000000
-1.183700 0.000000
-1.164900 0.000000
-1.146100 0.000000
-1.127300 0.000000
-1.108500 0.000000
-1.089700 0.000000
-1.070900 0.000000
-1.052100 0.000000
-1.033300 0.000000
-1.014500 0.000000
-0.995700 0.000000
-0.976900 0.000000
-0.958100 0.000000
-0.939300 0.000000
-0.920500 0.000000
-0.901700 0.000000
-0.882900 0.000000
-0.864100 0.000000
-0.845300 0.000000
-0.826500 0.000000
-0.807700 0.000000
-0.788900 0.000000
-0.770100 0.000000
-0.751300 0.000000
-0.732500 0.000000
-0.713700 0.000000
-0.694900 0.000000
-0.676100 0.000000
-0.657300 0.000000
-0.638500 0.000000
-0.619700 0.000000
-0.600900 0.000000
-0.582100 0.000000
-0.563300 0.000000
-0.544500 0.000000
-0.525700 0.000000
-0.506900 0.000000
-0.488100 0.000000
-0.469300 0.000000
-0.450500 0.000000
-0.431700 0.000000
-0.412900 0.000000
-0.394100 0.000000
-0.375300 0.000000
-0.356500 0.000000
-0.337700 0.000000
-0.318900 0.000000
-0.300100 0.000000
-0.281300 0.000000
-0.262500 0.000000
-0.243800 0.000000
-0.225000 0.000000
-0.206200 0.000000
-0.187400 0.000000
-0.168600 0.000000
-0.149800 0.000000
-0.131000 0.000000
-0.112200 0.000000
-0.093400 0.000000
-0.074600 0.000000
-0.055800 0.000000
-0.037000 0.000000
-0.018200 0.000000
0.000600 0.000000
0.019400 0.000000
0.038200 0.000000
0.057000 0.000000
0.075800 0.000000
0.094600 0.000000
0.113400 0.000000
0.132200 0.000000
0.151000 0.000000
0.169800 0.000000
0.188600 0.000000
0.207400 0.000000
0.226200 0.000000
0.245000 0.000000
0.263800 0.000000
0.282600 0.000000
0.301400 0.000000
0.320200 0.000000
0.339000 0.000000
0.357800 0.000000
0.376600 0.000000
0.395400 0.000000
0.414200 0.000000
0.433000 0.000000
0.451800 0.000000
0.470600 0.000000
0.489400 0.000000
0.508200 0.000000
0.527000 0.000000
0.545800 0.000000
0.564600 0.006800
0.583400 0.033600
0.602200 0.053900
0.621000 0.076100
0.639800 0.100300
0.658600 0.125100
0.677400 0.137500
0.696200 0.145000
0.715000 0.155000
0.733700 0.165100
0.752500 0.362500
0.771300 0.674300
0.790100 0.895500
0.808900 1.089200
0.827700 1.251100
0.846500 1.345800
0.865300 1.426400
0.884100 1.607000
0.902900 1.809600
0.921700 1.939900
0.940500 2.043100
0.959300 2.192600
0.978100 2.212500
0.996900 2.316000
1.015700 2.427100
1.034500 2.573500
1.053300 2.782900
1.072100 2.956100
1.090900 3.192100
1.109700 3.802700
1.128500 3.840600
1.147300 3.744000
1.166100 3.800700
1.184900 3.791200
1.203700 3.708500
1.222500 3.784100
1.241300 3.907900
1.260100 4.111000
1.278900 4.443100
1.297700 4.322400
1.316500 4.375200
1.335300 4.235700
1.354100 4.096400
1.372900 3.812800
1.391700 3.016600
1.410500 2.501500
1.429300 2.392300
1.448100 2.302100
1.466900 2.170000
1.485700 2.113600
1.504500 2.058000
1.523300 2.012100
1.542100 1.992100
1.560900 1.973000
1.579700 1.978100
1.598500 1.983000
1.617300 1.996600
1.636100 2.027200
1.654900 2.082200
1.673700 2.159400
1.692500 2.296200
1.711200 2.328800
1.730000 2.438000
1.748800 2.392600
1.767600 2.120400
1.786400 1.865100
1.805200 1.751500
1.824000 1.638500
1.842800 1.521600
1.861600 1.441000
1.880400 1.398000
1.899200 1.359300
1.918000 1.320300
1.936800 1.279000
1.955600 1.241600
1.974400 1.205200
1.993200 1.170000
2.012000 1.135800
2.030800 1.102800
2.049600 1.069700
2.068400 1.040000
2.087200 1.019400
2.106000 1.005300
2.124800 0.994000
2.143600 0.987000
2.162400 0.978600
2.181200 0.972000
2.200000 0.967900
2.218800 0.967200
2.237600 0.968900
2.256400 0.955800
2.275200 0.944000
2.294000 0.939500
2.312800 0.941300
2.331600 0.931700
2.350400 0.923400
2.369200 0.915100
2.388000 0.914700
2.406800 0.922100
2.425600 0.957400
2.444400 0.946900
2.463200 1.098300
2.482000 0.758800
2.500800 0.764200
2.519600 0.771100
2.538400 0.778500
2.557200 0.786200
2.576000 0.794000
2.594800 0.801800
2.613600 0.809600
2.632400 0.817700
2.651200 0.826200
2.670000 0.836000
2.688800 0.846300
2.707500 0.857500
2.726300 0.879900
2.745100 0.956600
2.763900 1.118800
2.782700 1.294500
2.801500 1.504500
2.820300 1.754600
2.839100 2.186000
2.857900 2.410200
2.876700 2.465700
2.895500 2.398700
2.914300 2.208000
2.933100 1.971700
2.951900 1.823300
2.970700 1.713900
2.989500 1.735500
3.008300 1.743100
3.027100 1.733600
3.045900 1.815300
3.064700 1.620200
3.083500 1.591500
3.102300 1.590100
3.121100 1.588700
3.139900 1.589000
3.158700 1.592400
3.177500 1.601400
3.196300 1.575600
3.215100 1.581800
3.233900 1.592600
3.252700 1.613300
3.271500 1.639100
3.290300 1.666800
3.309100 1.703500
3.327900 1.749400
3.346700 1.794400
3.365500 1.838400
3.384300 1.880100
3.403100 1.939700
3.421900 1.971500
3.440700 1.993000
3.459500 2.013500
3.478300 2.019700
3.497100 2.024500
3.515900 2.032300
3.534700 2.043700
3.553500 2.056600
3.572300 2.075600
3.591100 2.080300
3.609900 2.086900
3.628700 2.104700
3.647500 2.126000
3.666300 2.147900
3.685000 2.178800
3.703800 2.231100
3.722600 2.285000
3.741400 2.327600
3.760200 2.373800
3.779000 2.424900
3.797800 2.470900
3.816600 2.536700
3.835400 2.620400
3.854200 2.674100
3.873000 2.691000
3.891800 2.669600
3.910600 2.593400
3.929400 2.512900
3.948200 2.474100
3.967000 2.489100
3.985800 2.516700
4.004600 2.558000
4.023400 2.682000
4.042200 2.567300
4.061000 2.610700
4.079800 2.603700
4.098600 2.630300
4.117400 2.692200
4.136200 2.737200
4.155000 2.797200
4.173800 2.840000
4.192600 2.856000
4.211400 2.875100
4.230200 2.919300
4.249000 2.977900
4.267800 3.057100
4.286600 3.748600
4.305400 3.122100
4.324200 3.104600
4.343000 3.015300
4.361800 2.983300
4.380600 2.991800
4.399400 2.998200
4.418200 3.013800
4.437000 2.930400
4.455800 3.122900
4.474600 3.109600
4.493400 3.112200
4.512200 3.313500
4.531000 3.479500
4.549800 3.683600
4.568600 3.932600
4.587400 4.023300
4.606200 3.969300
4.625000 3.914600
4.643800 3.853800
4.662500 3.778000
4.681300 3.767100
4.700100 3.802200
4.718900 3.619000
4.737700 3.538700
4.756500 3.739300
4.775300 3.756200
4.794100 3.798900
4.812900 3.863300
4.831700 4.067400
4.850500 5.265700
4.869300 4.997000
4.888100 5.259400
4.906900 5.688600
4.925700 6.984400
4.944500 5.536900
4.963300 5.043000
4.982100 4.687100
5.000900 4.458500
5.019700 4.276600
5.038500 4.112900
5.057300 3.997900
5.076100 3.906400
5.094900 3.851200
5.113700 3.769900
5.132500 3.647000
5.151300 3.645600
5.170100 3.602400
5.188900 3.550700
5.207700 3.484900
5.226500 3.385600
5.245300 3.224500
5.264100 3.040600
5.282900 2.905300
5.301700 2.777900
5.320500 2.643500
5.339300 2.544800
5.358100 2.462700
5.376900 2.376000
5.395700 2.298600
5.414500 2.237600
5.433300 2.163200
5.452100 2.091300
5.470900 2.038400
5.489700 1.974900
5.508500 1.911500
5.527300 1.852300
5.546100 1.796100
5.564900 1.808100
5.583700 1.706800
5.602500 1.648700
5.621300 1.602500
5.640000 1.552200
5.658800 1.503900
5.677600 1.456200
5.696400 1.445400
5.715200 1.361000
5.734000 1.311700
5.752800 1.270200
5.771600 1.223300
5.790400 1.165000
5.809200 1.109400
5.828000 1.059700
5.846800 1.013600
5.865600 0.970600
5.884400 0.937900
5.903200 0.876400
5.922000 0.808100
5.940800 0.745900
5.959600 0.684200
5.978400 0.622400
5.997200 0.572500
6.016000 0.458300
6.034800 0.328900
6.053600 0.240200
6.072400 0.017100
6.091200 0.000000
6.110000 0.000100
6.128800 0.000200
6.147600 0.000300
6.166400 0.000500
6.185200 0.000700
6.204000 0.001000
6.222800 0.001300
6.241600 0.001700
6.260400 0.002100
6.279200 0.002500
6.298000 0.003000
6.316800 0.003600
6.335600 0.004100
6.354400 0.004800
6.373200 0.005400
6.392000 0.006200
6.410800 0.006900
6.429600 0.007700
6.448400 0.008600
6.467200 0.009800
6.486000 0.011800
6.504800 0.014300
6.523600 0.015800
6.542400 0.017300
6.561200 0.018700
6.580000 0.020100
6.598800 0.021500
6.617500 0.022800
6.636300 0.024000
6.655100 0.025200
6.673900 0.026400
6.692700 0.027500
6.711500 0.028800
6.730300 0.030300
6.749100 0.031900
6.767900 0.033500
6.786700 0.035200
6.805500 0.036800
6.824300 0.038500
6.843100 0.040300
6.861900 0.042000
6.880700 0.043800
6.899500 0.045700
6.918300 0.047500
6.937100 0.049500
6.955900 0.051500
6.974700 0.053500
6.993500 0.055600
7.012300 0.057700
7.031100 0.059900
7.049900 0.062200
7.068700 0.064700
7.087500 0.067500
7.106300 0.070500
7.125100 0.073100
7.143900 0.075600
7.162700 0.078100
7.181500 0.080600
7.200300 0.083100
7.219100 0.085600
7.237900 0.088100
7.256700 0.090700
7.275500 0.093200
7.294300 0.095800
7.313100 0.098400
7.331900 0.101100
7.350700 0.103700
7.369500 0.106500
7.388300 0.109400
7.407100 0.112600
7.425900 0.116000
7.444700 0.119700
7.463500 0.123500
7.482300 0.127400
7.501100 0.131000
7.519900 0.134700
7.538700 0.138400
7.557500 0.142000
7.576300 0.145600
7.595000 0.149200
7.613800 0.152800
7.632600 0.156500
7.651400 0.160100
7.670200 0.163700
7.689000 0.167400
7.707800 0.171100
7.726600 0.175000
7.745400 0.179400
7.764200 0.183800
7.783000 0.188200
7.801800 0.192600
7.820600 0.197100
7.839400 0.201700
7.858200 0.206300
7.877000 0.211100
7.895800 0.216000
7.914600 0.221100
7.933400 0.226300
7.952200 0.231400
7.971000 0.236400
7.989800 0.241300
8.008600 0.246400
8.027400 0.251400
8.046200 0.256500
8.065000 0.261700
8.083800 0.267800
8.102600 0.274000
8.121400 0.280100
8.140200 0.286100
8.159000 0.292200
8.177800 0.298300
8.196600 0.307300
8.215400 0.317000
8.234200 0.326200
8.253000 0.335100
8.271800 0.343700
8.290600 0.351900
8.309400 0.349100
8.328200 0.354600
8.347000 0.360100
8.365800 0.365500
8.384600 0.371000
8.403400 0.377000
8.422200 0.383300
8.441000 0.389800
8.459800 0.399300
8.478600 0.410200
8.497400 0.422100
8.516200 0.434500
8.535000 0.447500
8.553800 0.461100
8.572500 0.475500
8.591300 0.478200
8.610100 0.488300
8.628900 0.499100
8.647700 0.510800
8.666500 0.523200
8.685300 0.536500
8.704100 0.551000
8.722900 0.570100
8.741700 0.596900
8.760500 0.623900
8.779300 0.649000
8.798100 0.673400
8.816900 0.697200
8.835700 0.721300
8.854500 0.743400
8.873300 0.759800
8.892100 0.775100
8.910900 0.761500
8.929700 0.776500
8.948500 0.792500
8.967300 0.814000
8.986100 0.838600
9.004900 0.864200
9.023700 0.889000
9.042500 0.913700
9.061300 0.938200
9.080100 0.962600
9.098900 0.993000
9.117700 1.058700
9.136500 1.128700
9.155300 1.267800
9.174100 1.377300
9.192900 1.431100
9.211700 1.469400
9.230500 1.505400
9.249300 1.517600
9.268100 1.493900
9.286900 1.485000
9.305700 1.549600
9.324500 1.575800
9.343300 1.591300
9.362100 1.643900
9.380900 1.678000
9.399700 1.634000
9.418500 1.554700
9.437300 1.497000
9.456100 1.436700
9.474900 1.368100
9.493700 1.360700
9.512500 1.352900
9.531300 1.342800
9.550000 1.331100
9.568800 1.317400
9.587600 1.327400
9.606400 1.371000
9.625200 1.394700
9.644000 1.418100
