set title 'mp-20078 - Density of States'
set xlabel 'Energy (eV)'
set ylabel 'DOS (states/eV)'
set grid
set xrange [-10:10]
set yrange [0:99.592]
set xzeroaxis lt -1
set terminal png size 800,600
set output 'mp-20078_dos_gnuplot.png'
plot '-' using 1:2 with lines title 'DOS'
-15.167300 0.000000
-15.146900 0.000000
-15.126400 0.000000
-15.105900 0.000000
-15.085400 0.000000
-15.065000 0.000000
-15.044500 0.000000
-15.024000 0.000000
-15.003500 0.000000
-14.983100 0.000000
-14.962600 0.000000
-14.942100 0.000000
-14.921700 0.000000
-14.901200 0.000000
-14.880700 0.000000
-14.860200 0.000000
-14.839800 0.000000
-14.819300 0.000000
-14.798800 0.000000
-14.778300 0.000000
-14.757900 0.000000
-14.737400 0.000000
-14.716900 0.000000
-14.696500 0.000000
-14.676000 0.000000
-14.655500 0.000000
-14.635000 0.000000
-14.614600 0.000000
-14.594100 0.000000
-14.573600 0.000000
-14.553100 0.000000
-14.532700 0.000000
-14.512200 0.000000
-14.491700 0.000000
-14.471300 0.000000
-14.450800 0.000000
-14.430300 0.000000
-14.409800 0.000000
-14.389400 0.000000
-14.368900 0.000000
-14.348400 0.000000
-14.327900 0.000000
-14.307500 0.000000
-14.287000 0.000000
-14.266500 0.000000
-14.246100 0.000000
-14.225600 0.000000
-14.205100 0.000000
-14.184600 0.000000
-14.164200 0.000000
-14.143700 0.000000
-14.123200 0.000000
-14.102700 0.000000
-14.082300 0.000000
-14.061800 0.000000
-14.041300 0.000000
-14.020900 0.000000
-14.000400 0.000000
-13.979900 0.000000
-13.959400 0.000000
-13.939000 0.000000
-13.918500 0.000000
-13.898000 0.000000
-13.877500 0.000000
-13.857100 0.000000
-13.836600 0.000000
-13.816100 0.000000
-13.795700 0.000000
-13.775200 0.000000
-13.754700 0.000000
-13.734200 0.000000
-13.713800 0.000000
-13.693300 0.000000
-13.672800 0.000000
-13.652300 0.000000
-13.631900 0.000000
-13.611400 0.000000
-13.590900 0.000000
-13.570400 0.000000
-13.550000 0.000000
-13.529500 0.000000
-13.509000 0.000000
-13.488600 0.000000
-13.468100 0.000000
-13.447600 0.000000
-13.427100 0.000000
-13.406700 0.000000
-13.386200 0.000000
-13.365700 0.000000
-13.345200 0.000000
-13.324800 0.000000
-13.304300 0.842200
-13.283800 28.816700
-13.263400 28.789100
-13.242900 28.769400
-13.222400 28.757700
-13.201900 21.398000
-13.181500 14.042900
-13.161000 0.000000
-13.140500 0.000000
-13.120000 8.403800
-13.099600 59.831600
-13.079100 48.073700
-13.058600 44.681600
-13.038200 27.035400
-13.017700 3.759500
-12.997200 3.706600
-12.976700 19.030300
-12.956300 25.334300
-12.935800 20.473200
-12.915300 39.021300
-12.894800 36.892200
-12.874400 33.348800
-12.853900 11.974400
-12.833400 1.164500
-12.813000 0.000000
-12.792500 5.328900
-12.772000 6.629200
-12.751500 8.343000
-12.731100 35.672600
-12.710600 11.198000
-12.690100 19.580300
-12.669600 28.580000
-12.649200 19.756600
-12.628700 16.157700
-12.608200 10.858500
-12.587800 10.222200
-12.567300 8.784000
-12.546800 5.401000
-12.526300 1.293800
-12.505900 0.336500
-12.485400 0.000000
-12.464900 0.000000
-12.444400 1.198800
-12.424000 5.149100
-12.403500 41.500400
-12.383000 46.864500
-12.362600 36.732300
-12.342100 42.649300
-12.321600 27.764300
-12.301100 34.115900
-12.280700 51.036400
-12.260200 35.395000
-12.239700 30.393900
-12.219200 24.210800
-12.198800 13.646300
-12.178300 7.976300
-12.157800 4.178600
-12.137300 1.897500
-12.116900 0.694200
-12.096400 0.090600
-12.075900 0.000000
-12.055500 0.000000
-12.035000 0.000000
-12.014500 0.000000
-11.994000 0.000000
-11.973600 0.000000
-11.953100 0.000000
-11.932600 0.000000
-11.912100 0.000000
-11.891700 0.000000
-11.871200 0.000000
-11.850700 0.000000
-11.830300 0.000000
-11.809800 0.000000
-11.789300 0.000000
-11.768800 0.000000
-11.748400 0.000000
-11.727900 0.000000
-11.707400 0.000000
-11.686900 0.000000
-11.666500 0.000000
-11.646000 0.000000
-11.625500 0.000000
-11.605100 0.000000
-11.584600 0.000000
-11.564100 0.000000
-11.543600 0.000000
-11.523200 0.000000
-11.502700 0.000000
-11.482200 0.000000
-11.461700 0.000000
-11.441300 0.000000
-11.420800 0.000000
-11.400300 0.000000
-11.379900 0.000000
-11.359400 0.000000
-11.338900 0.000000
-11.318400 0.000000
-11.298000 0.000000
-11.277500 0.000000
-11.257000 0.000000
-11.236500 0.000000
-11.216100 0.000000
-11.195600 0.000000
-11.175100 0.000000
-11.154700 0.000000
-11.134200 0.000000
-11.113700 0.000000
-11.093200 0.000000
-11.072800 0.000000
-11.052300 0.000000
-11.031800 69.748900
-11.011300 126.000400
-10.990900 72.005300
-10.970400 102.794400
-10.949900 146.229600
-10.929500 87.561200
-10.909000 48.799700
-10.888500 224.871000
-10.868000 154.143900
-10.847600 211.447500
-10.827100 174.561600
-10.806600 18.085400
-10.786100 41.708800
-10.765700 75.425800
-10.745200 137.972600
-10.724700 88.162900
-10.704200 138.303800
-10.683800 187.340300
-10.663300 263.184700
-10.642800 192.230500
-10.622400 107.636200
-10.601900 114.619300
-10.581400 58.066800
-10.560900 41.772100
-10.540500 13.673000
-10.520000 21.591500
-10.499500 29.416200
-10.479000 15.752800
-10.458600 13.953600
-10.438100 13.373300
-10.417600 11.673000
-10.397200 12.452200
-10.376700 21.233900
-10.356200 21.689200
-10.335700 16.905800
-10.315300 17.679000
-10.294800 11.905800
-10.274300 14.728600
-10.253800 17.512400
-10.233400 15.903200
-10.212900 12.856400
-10.192400 8.672400
-10.172000 2.728600
-10.151500 1.897200
-10.131000 2.716100
-10.110500 5.805100
-10.090100 12.790500
-10.069600 28.163300
-10.049100 15.819100
-10.028600 18.297500
-10.008200 10.069000
-9.987700 2.391800
-9.967200 6.671900
-9.946800 14.574600
-9.926300 14.565600
-9.905800 10.172700
-9.885300 9.810600
-9.864900 9.153300
-9.844400 8.482300
-9.823900 10.147600
-9.803400 10.274900
-9.783000 10.745200
-9.762500 5.777800
-9.742000 17.356400
-9.721600 18.589900
-9.701100 17.333700
-9.680600 15.110100
-9.660100 6.513200
-9.639700 3.514800
-9.619200 2.708300
-9.598700 2.004400
-9.578200 1.403200
-9.557800 7.906500
-9.537300 8.786700
-9.516800 13.731200
-9.496400 13.410500
-9.475900 13.474000
-9.455400 11.120000
-9.434900 6.496700
-9.414500 5.915200
-9.394000 5.343200
-9.373500 4.780800
-9.353000 2.440300
-9.332600 1.213600
-9.312100 13.145900
-9.291600 28.953200
-9.271100 28.666700
-9.250700 32.946600
-9.230200 36.356600
-9.209700 27.273400
-9.189300 11.234300
-9.168800 3.825200
-9.148300 1.591400
-9.127800 0.000000
-9.107400 0.000000
-9.086900 0.000000
-9.066400 0.000000
-9.045900 0.000000
-9.025500 0.000000
-9.005000 0.000000
-8.984500 0.000000
-8.964100 0.000000
-8.943600 0.000000
-8.923100 0.000000
-8.902600 0.000000
-8.882200 0.000000
-8.861700 0.000000
-8.841200 0.000000
-8.820700 0.000000
-8.800300 0.000000
-8.779800 0.000000
-8.759300 0.000000
-8.738900 0.000000
-8.718400 0.000000
-8.697900 0.000000
-8.677400 0.000000
-8.657000 0.000000
-8.636500 0.000000
-8.616000 0.000000
-8.595500 0.000000
-8.575100 0.000000
-8.554600 0.000000
-8.534100 0.000000
-8.513700 0.000000
-8.493200 0.000000
-8.472700 0.000000
-8.452200 0.000000
-8.431800 0.000000
-8.411300 0.000000
-8.390800 0.000000
-8.370300 0.000000
-8.349900 0.000000
-8.329400 0.000000
-8.308900 0.000000
-8.288500 0.000000
-8.268000 0.000000
-8.247500 0.000000
-8.227000 0.000000
-8.206600 0.000000
-8.186100 0.000000
-8.165600 0.000000
-8.145100 0.000000
-8.124700 0.000000
-8.104200 0.000000
-8.083700 0.000000
-8.063300 0.000000
-8.042800 0.000000
-8.022300 0.000000
-8.001800 0.000000
-7.981400 0.000000
-7.960900 0.000000
-7.940400 0.000000
-7.919900 0.000000
-7.899500 0.000000
-7.879000 0.000000
-7.858500 0.000000
-7.838000 0.000000
-7.817600 0.000000
-7.797100 0.000000
-7.776600 0.000000
-7.756200 0.000000
-7.735700 0.000000
-7.715200 0.000000
-7.694700 0.000000
-7.674300 0.000000
-7.653800 0.000000
-7.633300 0.000000
-7.612800 0.000000
-7.592400 0.000000
-7.571900 0.000000
-7.551400 0.000000
-7.531000 0.000000
-7.510500 0.000000
-7.490000 0.000000
-7.469500 0.000000
-7.449100 0.000000
-7.428600 0.000000
-7.408100 0.000000
-7.387600 0.000000
-7.367200 0.000000
-7.346700 0.000000
-7.326200 0.000000
-7.305800 0.000000
-7.285300 0.000000
-7.264800 0.000000
-7.244300 0.000000
-7.223900 0.000000
-7.203400 0.000000
-7.182900 0.000000
-7.162400 0.000000
-7.142000 0.000000
-7.121500 0.000000
-7.101000 0.000000
-7.080600 0.000000
-7.060100 0.000000
-7.039600 0.000000
-7.019100 0.000000
-6.998700 0.000000
-6.978200 0.000000
-6.957700 0.000000
-6.937200 0.000000
-6.916800 0.000000
-6.896300 0.000000
-6.875800 0.000000
-6.855400 0.000000
-6.834900 0.000000
-6.814400 0.000000
-6.793900 0.000000
-6.773500 0.000000
-6.753000 0.000000
-6.732500 0.000000
-6.712000 0.000000
-6.691600 0.000000
-6.671100 0.000000
-6.650600 0.000000
-6.630100 0.000000
-6.609700 0.000000
-6.589200 0.000000
-6.568700 0.000000
-6.548300 0.000000
-6.527800 0.000000
-6.507300 0.000000
-6.486800 0.000000
-6.466400 0.000000
-6.445900 0.000000
-6.425400 0.000000
-6.404900 0.000000
-6.384500 0.000000
-6.364000 0.000000
-6.343500 0.000000
-6.323100 0.000000
-6.302600 0.000000
-6.282100 0.000000
-6.261600 0.000000
-6.241200 0.000000
-6.220700 0.000000
-6.200200 0.000000
-6.179700 0.000000
-6.159300 0.000000
-6.138800 0.000000
-6.118300 0.000000
-6.097900 0.000000
-6.077400 0.000000
-6.056900 0.000000
-6.036400 0.000000
-6.016000 0.000000
-5.995500 0.000000
-5.975000 0.000000
-5.954500 0.000000
-5.934100 0.000000
-5.913600 0.000000
-5.893100 0.000000
-5.872700 0.000000
-5.852200 0.000000
-5.831700 0.000000
-5.811200 0.000000
-5.790800 0.000000
-5.770300 0.000000
-5.749800 0.000000
-5.729300 0.000000
-5.708900 0.000000
-5.688400 0.000000
-5.667900 0.000000
-5.647500 0.000000
-5.627000 0.000000
-5.606500 0.000000
-5.586000 0.000000
-5.565600 0.000000
-5.545100 0.000000
-5.524600 0.000000
-5.504100 0.000000
-5.483700 0.000000
-5.463200 0.000000
-5.442700 0.000000
-5.422300 0.000000
-5.401800 0.000000
-5.381300 0.000000
-5.360800 0.000000
-5.340400 0.000000
-5.319900 0.000000
-5.299400 0.000000
-5.278900 0.000000
-5.258500 0.000000
-5.238000 0.000000
-5.217500 0.000000
-5.197000 0.000000
-5.176600 0.000000
-5.156100 0.000000
-5.135600 0.000000
-5.115200 0.000000
-5.094700 0.000000
-5.074200 0.000000
-5.053700 0.000000
-5.033300 0.000000
-5.012800 0.000000
-4.992300 0.000000
-4.971800 0.000000
-4.951400 0.000000
-4.930900 0.000000
-4.910400 0.000000
-4.890000 0.000000
-4.869500 0.000000
-4.849000 0.000000
-4.828500 0.000000
-4.808100 0.000000
-4.787600 0.000000
-4.767100 0.000000
-4.746600 0.000000
-4.726200 0.000000
-4.705700 0.000000
-4.685200 0.000000
-4.664800 0.000000
-4.644300 0.000000
-4.623800 0.000000
-4.603300 0.000000
-4.582900 0.000000
-4.562400 0.000000
-4.541900 0.000000
-4.521400 0.000000
-4.501000 0.000000
-4.480500 0.000000
-4.460000 0.000000
-4.439600 0.000000
-4.419100 0.000000
-4.398600 0.000000
-4.378100 0.000000
-4.357700 0.000000
-4.337200 0.000000
-4.316700 0.000000
-4.296200 0.000000
-4.275800 0.000000
-4.255300 0.000000
-4.234800 0.000000
-4.214400 0.000000
-4.193900 0.000000
-4.173400 0.000000
-4.152900 0.000000
-4.132500 0.000000
-4.112000 0.000000
-4.091500 0.000000
-4.071000 0.000000
-4.050600 0.000000
-4.030100 0.000000
-4.009600 0.000000
-3.989200 0.000000
-3.968700 0.000000
-3.948200 0.000000
-3.927700 0.000000
-3.907300 0.000000
-3.886800 0.000000
-3.866300 0.000000
-3.845800 0.000000
-3.825400 0.000000
-3.804900 0.000000
-3.784400 0.000000
-3.763900 0.000000
-3.743500 0.000000
-3.723000 0.000000
-3.702500 0.000000
-3.682100 0.000000
-3.661600 0.000000
-3.641100 0.000000
-3.620600 0.000000
-3.600200 0.000000
-3.579700 0.000000
-3.559200 0.000000
-3.538700 0.000000
-3.518300 0.000000
-3.497800 0.000000
-3.477300 0.000000
-3.456900 0.000000
-3.436400 0.000000
-3.415900 0.000000
-3.395400 0.000000
-3.375000 0.000000
-3.354500 0.000000
-3.334000 0.000000
-3.313500 0.000000
-3.293100 0.000000
-3.272600 0.000000
-3.252100 0.000000
-3.231700 0.000000
-3.211200 0.000000
-3.190700 0.000000
-3.170200 0.000000
-3.149800 0.000000
-3.129300 0.181800
-3.108800 1.517100
-3.088300 2.254200
-3.067900 3.318100
-3.047400 4.146400
-3.026900 4.745900
-3.006500 5.381600
-2.986000 6.319000
-2.965500 7.189800
-2.945000 7.889400
-2.924600 8.544500
-2.904100 8.918500
-2.883600 9.200200
-2.863100 10.203100
-2.842700 11.174400
-2.822200 11.649200
-2.801700 11.676800
-2.781300 11.466300
-2.760800 9.428700
-2.740300 9.036400
-2.719800 9.384900
-2.699400 11.205900
-2.678900 11.765400
-2.658400 6.822700
-2.637900 6.299300
-2.617500 5.775000
-2.597000 3.232400
-2.576500 2.401400
-2.556100 2.709000
-2.535600 2.902800
-2.515100 3.099100
-2.494600 3.297900
-2.474200 3.499200
-2.453700 3.703100
-2.433200 3.909500
-2.412700 4.118400
-2.392300 15.599700
-2.371800 11.810900
-2.351300 16.301700
-2.330800 18.596400
-2.310400 15.555300
-2.289900 10.312500
-2.269400 9.930800
-2.249000 9.388500
-2.228500 9.197400
-2.208000 9.854600
-2.187500 10.440900
-2.167100 11.560900
-2.146600 11.596900
-2.126100 11.272500
-2.105600 11.794100
-2.085200 10.782100
-2.064700 14.015800
-2.044200 14.703100
-2.023800 11.886300
-2.003300 10.285800
-1.982800 5.245700
-1.962300 2.926400
-1.941900 2.015000
-1.921400 3.539100
-1.900900 4.569300
-1.880400 5.268400
-1.860000 8.372500
-1.839500 15.620100
-1.819000 20.953000
-1.798600 13.437000
-1.778100 8.877500
-1.757600 6.197000
-1.737100 3.808600
-1.716700 2.782600
-1.696200 5.131600
-1.675700 5.725700
-1.655200 4.172300
-1.634800 4.240500
-1.614300 4.568600
-1.593800 5.209900
-1.573400 6.100900
-1.552900 4.486900
-1.532400 3.927600
-1.511900 4.001500
-1.491500 3.891800
-1.471000 3.831100
-1.450500 3.845800
-1.430000 3.936000
-1.409600 4.110600
-1.389100 4.355500
-1.368600 4.552400
-1.348200 4.742000
-1.327700 4.980800
-1.307200 5.184600
-1.286700 5.336100
-1.266300 5.435300
-1.245800 5.093700
-1.225300 5.024900
-1.204800 4.378600
-1.184400 3.773700
-1.163900 3.358700
-1.143400 3.013500
-1.123000 2.730300
-1.102500 2.344900
-1.082000 1.988100
-1.061500 1.981200
-1.041100 1.975100
-1.020600 1.970000
-1.000100 1.965800
-0.979600 1.962400
-0.959200 1.960000
-0.938700 1.958500
-0.918200 1.957900
-0.897700 1.958700
-0.877300 2.017600
-0.856800 2.109300
-0.836300 2.203900
-0.815900 2.249400
-0.795400 2.257300
-0.774900 2.227900
-0.754400 2.160900
-0.734000 2.056500
-0.713500 1.900200
-0.693000 1.743000
-0.672500 1.684300
-0.652100 1.624100
-0.631600 1.562300
-0.611100 1.499000
-0.590700 1.434100
-0.570200 1.367600
-0.549700 1.299600
-0.529200 1.230000
-0.508800 1.150600
-0.488300 1.074600
-0.467800 1.026700
-0.447300 0.977900
-0.426900 0.928200
-0.406400 0.877500
-0.385900 0.825900
-0.365500 0.773400
-0.345000 0.720000
-0.324500 0.665600
-0.304000 0.610300
-0.283600 0.554100
-0.263100 0.496900
-0.242600 0.438800
-0.222100 0.381100
-0.201700 0.341400
-0.181200 0.303500
-0.160700 0.267400
-0.140300 0.233600
-0.119800 0.202000
-0.099300 0.172800
-0.078800 0.145800
-0.058400 0.121100
-0.037900 0.098700
-0.017400 0.078600
0.003100 0.060800
0.023500 0.045200
0.044000 0.032000
0.064500 0.021000
0.084900 0.012400
0.105400 0.006000
0.125900 0.001900
0.146400 0.000100
0.166800 0.000000
0.187300 0.049700
0.207800 0.257300
0.228300 0.473500
0.248700 0.689500
0.269200 0.905300
0.289700 1.120900
0.310100 1.336200
0.330600 1.561900
0.351100 1.820500
0.371600 2.112600
0.392000 2.438300
0.412500 3.063200
0.433000 4.073900
0.453500 5.109700
0.473900 10.233100
0.494400 9.453100
0.514900 8.869800
0.535400 4.492900
0.555800 4.725000
0.576300 4.969100
0.596800 5.239600
0.617200 5.992000
0.637700 7.029000
0.658200 7.981900
0.678700 9.807700
0.699100 10.129300
0.719600 10.623700
0.740100 10.391000
0.760600 10.783900
0.781000 12.948500
0.801500 13.232300
0.822000 14.776700
0.842400 10.854500
0.862900 8.065800
0.883400 6.970800
0.903900 5.577700
0.924300 6.827300
0.944800 9.128400
0.965300 15.738000
0.985800 14.542500
1.006200 11.346700
1.026700 7.750800
1.047200 5.123800
1.067600 24.952300
1.088100 16.263800
1.108600 21.346900
1.129100 17.413600
1.149500 12.336800
1.170000 8.708900
1.190500 8.202800
1.211000 10.135100
1.231400 9.840200
1.251900 9.067600
1.272400 9.037400
1.292800 10.165300
1.313300 10.791400
1.333800 12.396000
1.354300 13.379100
1.374700 17.935800
1.395200 13.988200
1.415700 8.770300
1.436200 8.280600
1.456600 10.823600
1.477100 13.007400
1.497600 24.689900
1.518000 15.375400
1.538500 6.877900
1.559000 5.122800
1.579500 5.899900
1.599900 7.968500
1.620400 12.893900
1.640900 13.883700
1.661400 15.002700
1.681800 16.816800
1.702300 15.533400
1.722800 17.023500
1.743200 10.886100
1.763700 8.465100
1.784200 9.880000
1.804700 17.469500
1.825100 15.537400
1.845600 15.113800
1.866100 13.975900
1.886600 13.096000
1.907000 9.835800
1.927500 10.743600
1.948000 11.830200
1.968500 11.395100
1.988900 15.168300
2.009400 17.925300
2.029900 12.541900
2.050300 5.742500
2.070800 9.022900
2.091300 17.438300
2.111800 13.438300
2.132200 12.077200
2.152700 10.773300
2.173200 9.509000
2.193700 8.749000
2.214100 8.589600
2.234600 11.434700
2.255100 10.875100
2.275500 10.504500
2.296000 11.328500
2.316500 13.287900
2.337000 14.321600
2.357400 15.020100
2.377900 13.799200
2.398400 13.227600
2.418900 13.490200
2.439300 14.918700
2.459800 20.689100
2.480300 20.120700
2.500700 15.357100
2.521200 10.035400
2.541700 10.762700
2.562200 12.138300
2.582600 11.564500
2.603100 11.087700
2.623600 10.777900
2.644100 9.634700
2.664500 12.154600
2.685000 15.761800
2.705500 16.339500
2.725900 17.091800
2.746400 18.329300
2.766900 20.750900
2.787400 18.120200
2.807800 17.292600
2.828300 19.639200
2.848800 20.246200
2.869300 17.306600
2.889700 18.974300
2.910200 29.865400
2.930700 32.058200
2.951100 11.619400
2.971600 8.842600
2.992100 16.795400
3.012600 18.858200
3.033000 20.285400
3.053500 18.670700
3.074000 16.904200
3.094500 23.421300
3.114900 22.384700
3.135400 45.431500
3.155900 15.697100
3.176300 19.291200
3.196800 19.314500
3.217300 21.964300
3.237800 37.724200
3.258200 16.562600
3.278700 23.986700
3.299200 29.642000
3.319700 23.769400
3.340100 26.256000
3.360600 31.457400
3.381100 25.898900
3.401600 13.089700
3.422000 12.412600
3.442500 30.518200
3.463000 46.750700
3.483400 35.433900
3.503900 41.764800
3.524400 24.347200
3.544900 14.284600
3.565300 23.044600
3.585800 27.440800
3.606300 34.516200
3.626800 43.454400
3.647200 43.927200
3.667700 19.411800
3.688200 15.998600
3.708600 90.538400
3.729100 2.517500
3.749600 9.959600
3.770100 58.617000
3.790500 31.681300
3.811000 46.034300
3.831500 33.460700
3.852000 11.280400
3.872400 7.383100
3.892900 2.298000
3.913400 2.791000
3.933800 3.364400
3.954300 3.979400
3.974800 4.477200
3.995300 4.847100
4.015700 5.017200
4.036200 5.155500
4.056700 5.421200
4.077200 6.098300
4.097600 5.712500
4.118100 5.353500
4.138600 5.021200
4.159000 4.317600
4.179500 4.324600
4.200000 5.322800
4.220500 5.604400
4.240900 4.640100
4.261400 3.740400
4.281900 2.905400
4.302400 2.506500
4.322800 3.651000
4.343300 0.000000
4.363800 7.874000
4.384200 13.163600
4.404700 17.638400
4.425200 15.390500
4.445700 11.736100
4.466100 9.863600
4.486600 13.460400
4.507100 14.920500
4.527600 17.323500
4.548000 19.390100
4.568500 20.466200
4.589000 19.570900
4.609400 22.411300
4.629900 25.432500
4.650400 23.962000
4.670900 15.831500
4.691300 11.000200
4.711800 4.394100
4.732300 2.316000
4.752800 0.778900
4.773200 0.052100
4.793700 0.000000
4.814200 0.000000
4.834700 0.000000
4.855100 0.000000
4.875600 0.000000
4.896100 0.000000
4.916500 0.000000
4.937000 0.000000
4.957500 0.000000
4.978000 0.000000
4.998400 0.000000
5.018900 0.000000
5.039400 0.000000
5.059900 0.000000
5.080300 0.000000
5.100800 0.000000
5.121300 0.000000
5.141700 0.000000
5.162200 0.000000
5.182700 0.000000
5.203200 0.000000
5.223600 0.000000
5.244100 0.000000
5.264600 0.000000
5.285100 0.000000
5.305500 0.000000
5.326000 0.000000
5.346500 0.000000
5.366900 0.000000
5.387400 0.000000
5.407900 0.000000
5.428400 0.000000
5.448800 0.000000
5.469300 0.000000
5.489800 0.000000
5.510300 0.000000
5.530700 0.000000
5.551200 0.000000
5.571700 0.000000
5.592100 0.000000
5.612600 0.000000
5.633100 0.000000
5.653600 0.000000
5.674000 0.000000
5.694500 0.000000
5.715000 0.000000
5.735500 0.000000
5.755900 0.000000
5.776400 0.000000
