set title 'mp-1007660 - Density of States'
set xlabel 'Energy (eV)'
set ylabel 'DOS (states/eV)'
set grid
set xrange [-10:10]
set yrange [0:7.977]
set xzeroaxis lt -1
set terminal png size 800,600
set output 'mp-1007660_dos_gnuplot.png'
plot '-' using 1:2 with lines title 'DOS'
-12.119300 0.000000
-12.090200 0.000000
-12.061000 0.000000
-12.031800 0.000000
-12.002700 0.000000
-11.973500 0.000000
-11.944400 0.000000
-11.915200 0.000000
-11.886000 0.000000
-11.856900 0.000000
-11.827700 0.000000
-11.798600 0.000000
-11.769400 0.000000
-11.740300 0.000000
-11.711100 0.000000
-11.681900 0.000000
-11.652800 0.000000
-11.623600 0.000000
-11.594500 0.000000
-11.565300 0.000000
-11.536100 0.000000
-11.507000 0.000000
-11.477800 0.000000
-11.448700 0.000000
-11.419500 0.000000
-11.390300 0.000000
-11.361200 0.000000
-11.332000 0.000000
-11.302900 0.000000
-11.273700 0.000000
-11.244500 0.000000
-11.215400 0.000000
-11.186200 0.000000
-11.157100 0.000000
-11.127900 0.000000
-11.098800 0.000000
-11.069600 0.000000
-11.040400 0.000000
-11.011300 0.000000
-10.982100 0.000000
-10.953000 0.000000
-10.923800 0.000000
-10.894600 0.000000
-10.865500 0.000000
-10.836300 0.000000
-10.807200 0.000000
-10.778000 0.000000
-10.748800 0.000000
-10.719700 0.000000
-10.690500 0.000000
-10.661400 0.000000
-10.632200 0.000000
-10.603000 0.000000
-10.573900 0.000000
-10.544700 0.000000
-10.515600 0.000000
-10.486400 0.000000
-10.457300 0.000000
-10.428100 0.000000
-10.398900 0.000000
-10.369800 0.000000
-10.340600 0.000000
-10.311500 0.000000
-10.282300 0.000000
-10.253100 0.000000
-10.224000 0.000000
-10.194800 0.000000
-10.165700 0.000000
-10.136500 0.000000
-10.107300 0.000000
-10.078200 0.000000
-10.049000 0.000000
-10.019900 0.000000
-9.990700 0.000000
-9.961500 0.000000
-9.932400 0.000000
-9.903200 0.000000
-9.874100 0.000000
-9.844900 0.000000
-9.815700 0.000000
-9.786600 0.000000
-9.757400 0.000000
-9.728300 0.000000
-9.699100 0.000000
-9.670000 0.000000
-9.640800 0.000000
-9.611600 0.000000
-9.582500 0.000000
-9.553300 0.000000
-9.524200 0.000000
-9.495000 0.000000
-9.465800 0.052300
-9.436700 0.086600
-9.407500 0.127300
-9.378400 0.153100
-9.349200 0.176300
-9.320000 0.195100
-9.290900 0.211700
-9.261700 0.229700
-9.232600 0.253300
-9.203400 0.268900
-9.174200 0.286900
-9.145100 0.303800
-9.115900 0.318300
-9.086800 0.335400
-9.057600 0.353000
-9.028500 0.372000
-8.999300 0.391900
-8.970100 0.406900
-8.941000 0.422800
-8.911800 0.439200
-8.882700 0.462800
-8.853500 0.485800
-8.824300 0.510100
-8.795200 0.534300
-8.766000 0.619600
-8.736900 0.655800
-8.707700 0.661500
-8.678500 0.690100
-8.649400 0.717600
-8.620200 0.748200
-8.591100 0.773700
-8.561900 0.824600
-8.532700 0.888400
-8.503600 0.935700
-8.474400 1.040700
-8.445300 1.268900
-8.416100 2.027400
-8.387000 1.729900
-8.357800 1.793300
-8.328600 1.690800
-8.299500 1.618800
-8.270300 1.605100
-8.241200 1.611700
-8.212000 1.604800
-8.182800 1.569400
-8.153700 1.541900
-8.124500 1.522000
-8.095400 1.522400
-8.066200 1.531700
-8.037000 1.539400
-8.007900 1.525300
-7.978700 1.531800
-7.949600 1.536800
-7.920400 1.556100
-7.891200 1.581700
-7.862100 1.574500
-7.832900 1.568300
-7.803800 1.560700
-7.774600 1.606700
-7.745500 1.733100
-7.716300 1.792800
-7.687100 1.933400
-7.658000 2.045200
-7.628800 3.186700
-7.599700 5.102000
-7.570500 3.989200
-7.541300 2.991000
-7.512200 3.079300
-7.483000 7.251500
-7.453900 5.466600
-7.424700 3.828500
-7.395500 3.136600
-7.366400 2.565300
-7.337200 1.743500
-7.308100 1.659300
-7.278900 1.620300
-7.249700 1.542500
-7.220600 1.460400
-7.191400 1.387800
-7.162300 1.500900
-7.133100 1.409300
-7.104000 1.311600
-7.074800 1.298300
-7.045600 1.292500
-7.016500 1.287100
-6.987300 1.282700
-6.958200 1.388200
-6.929000 1.485900
-6.899800 1.557000
-6.870700 1.954500
-6.841500 1.793900
-6.812400 1.444500
-6.783200 1.077300
-6.754000 0.891900
-6.724900 0.751600
-6.695700 0.391100
-6.666600 0.367100
-6.637400 0.342700
-6.608200 0.319600
-6.579100 0.297700
-6.549900 0.275300
-6.520800 0.257700
-6.491600 0.244200
-6.462400 0.228800
-6.433300 0.213300
-6.404100 0.197900
-6.375000 0.181200
-6.345800 0.166100
-6.316700 0.154600
-6.287500 0.144400
-6.258300 0.133500
-6.229200 0.121900
-6.200000 0.109200
-6.170900 0.098900
-6.141700 0.079500
-6.112500 0.061900
-6.083400 0.046100
-6.054200 0.032100
-6.025100 0.000000
-5.995900 0.000000
-5.966700 0.000000
-5.937600 0.000000
-5.908400 0.000000
-5.879300 0.000000
-5.850100 0.000000
-5.820900 0.000000
-5.791800 0.000000
-5.762600 0.000000
-5.733500 0.000000
-5.704300 0.000000
-5.675200 0.000000
-5.646000 0.000000
-5.616800 0.000000
-5.587700 0.000000
-5.558500 0.000000
-5.529400 0.000000
-5.500200 0.000000
-5.471000 0.000000
-5.441900 0.000000
-5.412700 0.000000
-5.383600 0.000000
-5.354400 0.000000
-5.325200 0.000000
-5.296100 0.000000
-5.266900 0.000000
-5.237800 0.000000
-5.208600 0.000000
-5.179400 0.000000
-5.150300 0.000000
-5.121100 0.000000
-5.092000 0.000000
-5.062800 0.000000
-5.033700 0.000000
-5.004500 0.000000
-4.975300 0.000000
-4.946200 0.000000
-4.917000 0.000000
-4.887900 0.000000
-4.858700 0.000000
-4.829500 0.000000
-4.800400 0.000000
-4.771200 0.000000
-4.742100 0.000000
-4.712900 0.000000
-4.683700 0.000000
-4.654600 0.000000
-4.625400 0.000000
-4.596300 0.000000
-4.567100 0.000000
-4.537900 0.000000
-4.508800 0.000000
-4.479600 0.000000
-4.450500 0.000000
-4.421300 0.000000
-4.392200 0.000000
-4.363000 0.000000
-4.333800 0.000000
-4.304700 0.000000
-4.275500 0.000000
-4.246400 0.000000
-4.217200 0.000000
-4.188000 0.000000
-4.158900 0.000000
-4.129700 0.000000
-4.100600 0.000000
-4.071400 0.000000
-4.042200 0.000000
-4.013100 0.000000
-3.983900 0.000000
-3.954800 0.000000
-3.925600 0.000000
-3.896400 0.000000
-3.867300 0.000000
-3.838100 0.000000
-3.809000 0.000000
-3.779800 0.000000
-3.750700 0.000000
-3.721500 0.000000
-3.692300 0.000000
-3.663200 0.000000
-3.634000 0.000000
-3.604900 0.000000
-3.575700 0.000000
-3.546500 0.000000
-3.517400 0.000000
-3.488200 0.000000
-3.459100 0.000000
-3.429900 0.000000
-3.400700 0.000000
-3.371600 0.000000
-3.342400 0.000000
-3.313300 0.000000
-3.284100 0.000000
-3.254900 0.000000
-3.225800 0.000000
-3.196600 0.000000
-3.167500 0.000000
-3.138300 0.000000
-3.109200 0.000000
-3.080000 0.000000
-3.050800 0.000000
-3.021700 0.000000
-2.992500 0.000000
-2.963400 0.000000
-2.934200 0.000000
-2.905000 0.000000
-2.875900 0.000000
-2.846700 0.000000
-2.817600 0.000000
-2.788400 0.000000
-2.759200 0.000000
-2.730100 0.000000
-2.700900 0.000000
-2.671800 0.000000
-2.642600 0.000000
-2.613400 0.000000
-2.584300 0.000000
-2.555100 0.000000
-2.526000 0.000000
-2.496800 0.000000
-2.467600 0.000000
-2.438500 0.000000
-2.409300 0.000000
-2.380200 0.000000
-2.351000 0.000000
-2.321900 0.000000
-2.292700 0.000000
-2.263500 0.000000
-2.234400 0.000000
-2.205200 0.000000
-2.176100 0.000000
-2.146900 0.000000
-2.117700 0.000000
-2.088600 0.000000
-2.059400 0.000000
-2.030300 0.000000
-2.001100 0.033300
-1.971900 0.043700
-1.942800 0.055000
-1.913600 0.067300
-1.884500 0.068700
-1.855300 0.075800
-1.826100 0.083000
-1.797000 0.090400
-1.767800 0.098000
-1.738700 0.106400
-1.709500 0.115500
-1.680400 0.124900
-1.651200 0.131300
-1.622000 0.134500
-1.592900 0.140500
-1.563700 0.146300
-1.534600 0.152300
-1.505400 0.158200
-1.476200 0.164800
-1.447100 0.171100
-1.417900 0.177400
-1.388800 0.183800
-1.359600 0.191000
-1.330400 0.201400
-1.301300 0.210300
-1.272100 0.219300
-1.243000 0.228500
-1.213800 0.237500
-1.184600 0.246300
-1.155500 0.255300
-1.126300 0.264700
-1.097200 0.277600
-1.068000 0.291300
-1.038900 0.305800
-1.009700 0.321400
-0.980500 0.338200
-0.951400 0.356000
-0.922200 1.105800
-0.893100 0.726400
-0.863900 0.881700
-0.834700 1.056000
-0.805600 1.296600
-0.776400 1.283800
-0.747300 1.280400
-0.718100 1.256900
-0.688900 1.236700
-0.659800 1.202500
-0.630600 1.184800
-0.601500 1.180100
-0.572300 1.173300
-0.543100 1.161000
-0.514000 1.149100
-0.484800 1.140900
-0.455700 1.128500
-0.426500 1.195300
-0.397400 1.242700
-0.368200 1.289300
-0.339000 1.317300
-0.309900 1.347900
-0.280700 1.340500
-0.251600 1.282200
-0.222400 1.309200
-0.193200 1.351300
-0.164100 1.349900
-0.134900 1.615000
-0.105800 1.703800
-0.076600 1.872500
-0.047400 1.989500
-0.018300 2.282600
0.010900 2.401500
0.040000 2.578500
0.069200 2.840100
0.098400 3.259100
0.127500 3.672100
0.156700 3.793200
0.185800 3.371400
0.215000 2.989700
0.244100 2.772700
0.273300 2.626200
0.302500 2.333100
0.331600 2.080800
0.360800 1.934700
0.389900 1.842300
0.419100 1.814300
0.448300 1.881700
0.477400 2.237400
0.506600 2.169400
0.535700 2.291000
0.564900 2.141600
0.594100 2.275600
0.623200 2.426900
0.652400 2.552300
0.681500 2.574900
0.710700 2.367900
0.739900 2.081900
0.769000 1.903900
0.798200 2.011900
0.827300 1.771100
0.856500 1.644500
0.885600 1.505500
0.914800 1.657000
0.944000 1.890100
0.973100 2.137600
1.002300 2.225900
1.031400 2.400400
1.060600 2.735500
1.089800 3.226300
1.118900 3.358300
1.148100 3.181400
1.177200 3.205000
1.206400 3.171700
1.235600 3.032500
1.264700 2.950200
1.293900 2.771300
1.323000 2.456400
1.352200 2.186800
1.381400 1.833700
1.410500 1.745700
1.439700 1.621700
1.468800 1.579100
1.498000 1.571400
1.527200 1.607200
1.556300 1.705400
1.585500 1.811300
1.614600 1.906900
1.643800 2.086600
1.672900 2.242400
1.702100 2.297700
1.731300 2.349900
1.760400 2.365300
1.789600 2.401000
1.818700 2.477700
1.847900 2.550800
1.877100 2.629000
1.906200 2.731700
1.935400 2.774800
1.964500 2.767600
1.993700 2.712600
2.022900 2.727200
2.052000 2.759200
2.081200 3.166000
2.110300 2.906500
2.139500 3.020300
2.168700 3.142000
2.197800 3.253700
2.227000 3.508100
2.256100 4.827800
2.285300 5.280200
2.314400 5.870600
2.343600 5.923800
2.372800 4.707200
2.401900 6.628000
2.431100 6.463500
2.460200 4.316100
2.489400 2.565900
2.518600 2.742000
2.547700 2.842800
2.576900 2.209800
2.606000 2.085500
2.635200 2.155500
2.664400 2.064500
2.693500 2.024200
2.722700 2.390100
2.751800 2.324000
2.781000 2.594700
2.810200 2.659800
2.839300 2.661700
2.868500 2.636800
2.897600 2.636700
2.926800 2.633700
2.955900 2.571900
2.985100 2.767300
3.014300 2.950200
3.043400 2.791900
3.072600 2.577400
3.101700 2.545600
3.130900 2.616900
3.160100 2.627900
3.189200 2.674200
3.218400 2.880200
3.247500 3.097600
3.276700 2.579400
3.305900 2.575100
3.335000 2.476700
3.364200 2.424600
3.393300 2.397300
3.422500 2.518000
3.451700 2.464400
3.480800 2.216900
3.510000 2.123800
3.539100 2.100200
3.568300 2.064400
3.597400 2.043500
3.626600 2.037500
3.655800 2.084500
3.684900 2.151300
3.714100 2.264600
3.743200 2.230700
3.772400 2.267500
3.801600 2.309500
3.830700 2.499700
3.859900 2.651000
3.889000 2.599900
3.918200 2.640500
3.947400 2.112600
3.976500 1.856600
4.005700 2.014300
4.034800 2.184900
4.064000 2.453300
4.093200 2.880500
4.122300 4.232700
4.151500 3.917700
4.180600 3.492700
4.209800 3.318600
4.238900 3.092000
4.268100 3.028800
4.297300 2.214900
4.326400 2.111100
4.355600 1.993900
4.384700 1.889600
4.413900 1.879400
4.443100 1.872900
4.472200 2.012400
4.501400 2.079000
4.530500 2.116400
4.559700 2.052000
4.588900 2.174900
4.618000 2.691500
4.647200 2.500800
4.676300 2.474400
4.705500 2.404600
4.734700 2.300200
4.763800 2.144900
4.793000 2.510700
4.822100 2.637400
4.851300 2.847400
4.880400 2.988900
4.909600 3.256700
4.938800 3.722800
4.967900 3.656000
4.997100 3.575100
5.026200 3.342800
5.055400 3.247400
5.084600 3.061100
5.113700 3.140700
5.142900 3.114100
5.172000 3.087700
5.201200 3.120700
5.230400 3.174100
5.259500 3.040700
5.288700 3.068700
5.317800 2.983900
5.347000 3.020400
5.376200 3.104900
5.405300 3.272300
5.434500 3.269500
5.463600 3.369300
5.492800 3.717900
5.522000 3.746300
5.551100 3.634500
5.580300 4.002900
5.609400 3.757800
5.638600 3.933700
5.667700 4.381600
5.696900 4.511100
5.726100 4.594700
5.755200 3.938000
5.784400 4.081000
5.813500 4.001800
5.842700 4.113200
5.871900 4.132500
5.901000 4.588800
5.930200 3.867200
5.959300 3.960600
5.988500 3.851600
6.017700 3.695600
6.046800 3.796900
6.076000 3.977700
6.105100 4.169600
6.134300 4.604900
6.163500 4.849000
6.192600 4.328600
6.221800 3.701900
6.250900 3.369500
6.280100 3.221600
6.309200 3.156100
6.338400 3.167300
6.367600 3.149000
6.396700 3.144500
6.425900 3.399100
6.455000 3.788900
6.484200 3.153500
6.513400 3.153700
6.542500 3.096600
6.571700 3.133000
6.600800 3.220000
6.630000 3.541600
6.659200 3.618300
6.688300 3.339500
6.717500 3.421200
6.746600 3.228500
6.775800 3.247300
6.805000 3.182600
6.834100 3.367700
6.863300 3.457500
6.892400 3.868600
6.921600 3.649800
6.950700 3.961700
6.979900 4.191500
7.009100 3.554800
7.038200 3.274000
7.067400 3.180500
7.096500 2.818800
7.125700 2.518500
7.154900 2.558000
7.184000 2.603700
7.213200 2.548600
7.242300 2.547000
7.271500 2.555000
7.300700 2.633300
7.329800 2.316600
7.359000 2.351200
7.388100 2.399000
7.417300 2.466500
7.446500 2.517400
7.475600 2.507500
7.504800 2.422200
7.533900 2.408200
7.563100 2.391200
7.592200 2.361700
7.621400 2.350500
7.650600 2.338100
7.679700 2.282300
7.708900 2.230100
7.738000 2.189500
7.767200 2.054600
7.796400 1.937600
7.825500 1.962200
7.854700 1.988100
7.883800 2.070900
7.913000 2.125600
7.942200 2.119200
7.971300 2.067100
8.000500 2.115300
8.029600 2.196500
8.058800 2.367500
8.088000 2.287000
8.117100 2.258700
8.146300 2.068900
8.175400 2.039100
8.204600 2.013200
8.233700 1.953500
8.262900 1.872000
8.292100 1.888100
8.321200 1.938100
8.350400 2.084800
8.379500 2.170200
8.408700 2.561500
8.437900 2.566300
8.467000 2.676300
8.496200 2.831800
8.525300 3.002500
8.554500 3.336900
8.583700 3.991400
8.612800 4.023700
8.642000 3.696800
8.671100 3.561300
8.700300 2.919600
8.729500 2.723900
8.758600 2.568300
8.787800 2.198800
8.816900 2.063900
8.846100 1.938900
8.875300 1.801000
8.904400 1.805700
8.933600 1.848500
8.962700 1.912300
8.991900 1.946800
9.021000 1.939700
9.050200 1.926600
9.079400 1.913700
9.108500 1.742800
9.137700 1.721300
9.166800 1.728600
9.196000 1.660000
9.225200 1.547100
9.254300 0.861200
9.283500 0.823100
9.312600 0.784900
9.341800 0.715400
9.371000 0.641000
9.400100 0.597200
9.429300 0.588700
9.458400 0.582000
9.487600 0.575700
9.516800 0.570300
9.545900 0.565000
9.575100 0.560000
9.604200 0.564200
9.633400 0.561600
9.662500 0.558000
9.691700 0.553100
9.720900 0.548500
9.750000 0.536400
9.779200 0.529100
9.808300 0.521500
9.837500 0.496300
9.866700 0.643700
9.895800 1.102400
9.925000 0.676800
9.954100 0.645500
9.983300 0.617900
10.012500 0.580200
10.041600 0.557600
10.070800 0.548700
10.099900 0.540500
10.129100 0.532200
10.158300 0.524000
10.187400 0.523600
10.216600 0.521900
10.245700 0.518200
10.274900 0.511300
10.304000 0.531100
10.333200 0.537600
10.362400 0.561900
10.391500 0.594700
10.420700 0.598300
10.449800 0.610900
10.479000 0.529700
10.508200 0.661400
10.537300 0.768200
10.566500 0.486600
10.595600 0.447600
10.624800 0.427200
10.654000 0.446100
10.683100 0.539900
10.712300 0.538100
10.741400 0.702800
10.770600 0.599400
10.799800 0.630700
10.828900 0.695600
10.858100 0.760500
10.887200 0.889000
10.916400 1.002900
10.945500 1.003000
10.974700 0.872700
11.003900 0.909000
11.033000 0.960300
11.062200 1.037400
11.091300 1.103800
11.120500 1.217500
11.149700 1.302400
11.178800 1.424000
11.208000 1.514900
11.237100 1.602900
11.266300 1.800100
11.295500 2.209700
11.324600 2.070500
11.353800 2.141900
11.382900 2.148100
11.412100 2.207900
11.441300 2.269700
11.470400 2.231800
11.499600 2.263400
11.528700 2.275700
11.557900 2.271100
11.587000 2.282600
11.616200 2.282100
11.645400 2.255600
11.674500 2.231000
11.703700 2.201900
11.732800 2.176000
11.762000 2.147000
11.791200 2.152200
11.820300 2.137500
11.849500 2.149200
11.878600 2.166100
11.907800 2.061200
11.937000 2.063000
11.966100 2.090900
11.995300 2.198900
12.024400 2.188000
12.053600 2.284600
12.082800 2.604600
12.111900 2.952600
12.141100 3.174600
12.170200 2.889900
12.199400 2.533000
12.228500 2.377800
12.257700 2.256100
12.286900 2.250600
12.316000 2.150100
12.345200 2.115900
12.374300 2.159800
12.403500 1.739800
12.432700 1.590900
12.461800 1.406700
12.491000 1.162300
12.520100 1.105500
12.549300 0.877000
12.578500 0.848100
12.607600 0.823200
12.636800 0.796700
12.665900 0.781100
12.695100 0.775500
12.724300 0.772200
12.753400 0.772000
12.782600 0.777300
12.811700 0.784200
12.840900 0.810600
12.870100 0.842600
12.899200 0.882100
12.928400 0.922600
12.957500 0.807600
12.986700 0.718400
13.015800 0.870600
13.045000 1.223400
13.074200 1.090200
13.103300 0.980700
13.132500 0.896900
13.161600 0.794900
13.190800 0.793000
13.220000 0.816600
13.249100 0.845100
13.278300 0.873600
13.307400 0.926100
13.336600 0.921700
13.365800 1.033500
13.394900 0.956100
13.424100 0.955500
13.453200 0.969000
13.482400 0.974600
13.511600 0.987100
13.540700 1.251800
13.569900 0.960800
13.599000 0.946200
13.628200 0.937700
13.657300 0.928300
13.686500 0.917700
13.715700 0.906900
13.744800 0.900400
13.774000 0.897600
13.803100 0.949100
13.832300 0.912300
13.861500 0.915500
13.890600 0.920300
13.919800 0.943300
13.948900 0.952700
13.978100 0.963300
14.007300 0.979800
14.036400 0.958000
14.065600 0.976500
14.094700 0.979900
14.123900 0.989300
14.153100 0.998200
14.182200 1.006600
14.211400 1.015700
14.240500 1.028700
14.269700 1.035600
14.298800 1.045900
14.328000 1.043400
14.357200 1.061700
14.386300 1.057400
14.415500 1.059100
14.444600 1.058100
14.473800 1.076100
14.503000 1.071500
14.532100 1.065100
14.561300 1.341000
14.590400 1.224100
14.619600 1.246700
14.648800 1.286100
14.677900 1.307000
14.707100 1.328500
14.736200 1.354600
14.765400 1.366900
14.794600 1.381600
14.823700 1.416700
14.852900 1.437900
14.882000 1.462600
14.911200 1.489600
14.940300 1.516000
14.969500 1.640600
14.998700 1.565200
15.027800 1.598800
15.057000 1.616100
15.086100 1.693000
15.115300 1.744900
15.144500 1.788400
15.173600 1.818300
15.202800 1.877300
15.231900 1.913000
15.261100 2.186300
15.290300 2.072400
15.319400 2.051400
15.348600 2.038000
15.377700 1.971400
15.406900 2.063600
15.436100 2.121700
15.465200 2.167000
15.494400 2.246200
15.523500 2.249900
15.552700 2.243000
15.581800 2.253900
15.611000 2.417400
15.640200 2.368100
15.669300 2.347200
15.698500 2.342500
15.727600 2.251000
15.756800 2.166500
15.786000 2.070300
15.815100 2.331200
15.844300 1.815000
15.873400 1.646200
15.902600 1.598100
15.931800 1.263800
15.960900 1.118900
15.990100 0.983200
16.019200 0.807400
16.048400 0.627100
16.077600 0.515400
16.106700 0.463600
16.135900 0.419100
16.165000 0.376500
16.194200 0.335700
16.223300 0.306900
16.252500 0.278100
16.281700 0.246400
16.310800 0.187600
16.340000 0.143300
16.369100 0.102000
16.398300 0.072700
16.427500 0.047900
16.456600 0.132500
16.485800 0.167800
16.514900 0.167300
16.544100 0.179700
16.573300 0.208000
16.602400 0.225400
16.631600 0.243300
16.660700 0.263400
16.689900 0.371700
16.719100 0.403600
16.748200 0.434800
16.777400 0.470100
16.806500 0.458300
16.835700 0.513400
16.864900 0.548500
16.894000 0.558200
16.923200 0.575900
16.952300 0.612200
16.981500 0.655200
17.010600 0.696300
17.039800 0.704700
17.069000 0.709500
17.098100 0.684600
17.127300 0.703000
17.156400 0.720200
17.185600 0.744100
17.214800 0.792000
17.243900 0.778400
17.273100 0.772100
17.302200 0.734500
17.331400 0.701900
17.360600 0.647800
17.389700 0.618200
17.418900 0.593900
17.448000 0.571900
17.477200 0.568000
17.506400 0.566200
17.535500 0.568000
17.564700 0.571800
17.593800 0.576800
17.623000 0.582200
17.652100 0.589400
17.681300 0.598400
17.710500 0.608200
17.739600 0.618800
17.768800 0.629900
17.797900 0.641500
17.827100 0.653500
17.856300 0.695900
17.885400 0.763900
17.914600 0.816800
17.943700 0.793600
17.972900 0.759600
18.002100 0.771300
18.031200 0.731200
18.060400 0.727700
18.089500 0.724300
18.118700 0.707500
18.147900 0.699700
18.177000 0.721600
18.206200 0.732400
18.235300 0.737000
18.264500 0.739900
18.293600 0.744800
18.322800 0.744800
18.352000 0.760100
18.381100 0.778700
18.410300 0.798400
18.439400 0.819000
18.468600 1.112500
18.497800 0.905900
18.526900 0.920200
