set title 'mp-8639 - Density of States'
set xlabel 'Energy (eV)'
set ylabel 'DOS (states/eV)'
set grid
set xrange [-10:10]
set yrange [0:2.705]
set xzeroaxis lt -1
set terminal png size 800,600
set output 'mp-8639_dos_gnuplot.png'
plot '-' using 1:2 with lines title 'DOS'
-42.783200 0.000000
-42.700100 0.000000
-42.617000 0.000000
-42.533900 0.000000
-42.450800 0.000000
-42.367600 0.000000
-42.284500 0.000000
-42.201400 0.000000
-42.118300 0.000000
-42.035200 0.000000
-41.952100 0.000000
-41.868900 0.000000
-41.785800 0.000000
-41.702700 0.000000
-41.619600 0.000000
-41.536500 0.000000
-41.453400 0.000000
-41.370200 0.000000
-41.287100 0.000000
-41.204000 0.000000
-41.120900 0.000000
-41.037800 0.000000
-40.954700 0.000000
-40.871500 0.000000
-40.788400 0.000000
-40.705300 0.000000
-40.622200 0.000000
-40.539100 0.000000
-40.456000 0.000000
-40.372800 0.000000
-40.289700 0.000000
-40.206600 0.000000
-40.123500 0.000000
-40.040400 0.000000
-39.957300 0.000000
-39.874100 0.000000
-39.791000 0.000000
-39.707900 0.000000
-39.624800 0.000000
-39.541700 0.000000
-39.458600 0.000000
-39.375400 0.000000
-39.292300 0.000000
-39.209200 0.000000
-39.126100 0.000000
-39.043000 0.000000
-38.959900 0.000000
-38.876700 0.000000
-38.793600 0.000000
-38.710500 0.000000
-38.627400 0.000000
-38.544300 0.000000
-38.461200 0.000000
-38.378000 0.000000
-38.294900 0.000000
-38.211800 0.000000
-38.128700 0.000000
-38.045600 0.000000
-37.962500 0.000000
-37.879300 0.000000
-37.796200 0.000000
-37.713100 0.000000
-37.630000 0.000000
-37.546900 0.000000
-37.463800 0.000000
-37.380600 0.000000
-37.297500 0.000000
-37.214400 0.000000
-37.131300 0.000000
-37.048200 0.000000
-36.965100 0.000000
-36.881900 0.000000
-36.798800 0.000000
-36.715700 0.000000
-36.632600 0.000000
-36.549500 0.000000
-36.466400 0.000000
-36.383200 0.000000
-36.300100 0.000000
-36.217000 0.000000
-36.133900 0.000000
-36.050800 0.000000
-35.967700 0.000000
-35.884500 0.000000
-35.801400 0.000000
-35.718300 0.000000
-35.635200 0.000000
-35.552100 0.000000
-35.469000 0.000000
-35.385800 0.000000
-35.302700 0.000000
-35.219600 0.613900
-35.136500 3.363200
-35.053400 9.795200
-34.970200 6.321400
-34.887100 1.994500
-34.804000 3.982500
-34.720900 4.744100
-34.637800 5.366500
-34.554700 10.530400
-34.471500 11.405200
-34.388400 10.230000
-34.305300 4.125100
-34.222200 0.000000
-34.139100 0.000000
-34.056000 0.000000
-33.972800 0.000000
-33.889700 0.000000
-33.806600 0.000000
-33.723500 0.000000
-33.640400 0.000000
-33.557300 0.000000
-33.474100 0.000000
-33.391000 0.000000
-33.307900 0.000000
-33.224800 0.000000
-33.141700 0.000000
-33.058600 0.000000
-32.975400 0.000000
-32.892300 0.000000
-32.809200 0.000000
-32.726100 0.000000
-32.643000 0.000000
-32.559900 0.000000
-32.476700 0.000000
-32.393600 0.000000
-32.310500 0.000000
-32.227400 0.000000
-32.144300 0.000000
-32.061200 0.000000
-31.978000 0.000000
-31.894900 0.000000
-31.811800 0.000000
-31.728700 0.000000
-31.645600 0.000000
-31.562500 0.000000
-31.479300 0.000000
-31.396200 0.000000
-31.313100 0.000000
-31.230000 0.000000
-31.146900 0.000000
-31.063800 0.000000
-30.980600 0.000000
-30.897500 0.000000
-30.814400 0.000000
-30.731300 0.000000
-30.648200 0.000000
-30.565100 0.000000
-30.481900 0.000000
-30.398800 0.000000
-30.315700 0.000000
-30.232600 0.000000
-30.149500 0.000000
-30.066400 0.000000
-29.983200 0.000000
-29.900100 0.000000
-29.817000 0.000000
-29.733900 0.000000
-29.650800 0.000000
-29.567700 0.000000
-29.484500 0.000000
-29.401400 0.000000
-29.318300 0.000000
-29.235200 0.000000
-29.152100 0.000000
-29.069000 0.000000
-28.985800 0.000000
-28.902700 0.000000
-28.819600 0.000000
-28.736500 0.000000
-28.653400 0.000000
-28.570300 0.000000
-28.487100 0.000000
-28.404000 0.000000
-28.320900 0.000000
-28.237800 0.000000
-28.154700 0.000000
-28.071600 0.000000
-27.988400 0.000000
-27.905300 0.000000
-27.822200 0.000000
-27.739100 0.000000
-27.656000 0.000000
-27.572900 0.000000
-27.489700 0.000000
-27.406600 0.000000
-27.323500 0.000000
-27.240400 0.000000
-27.157300 0.000000
-27.074200 0.000000
-26.991000 0.000000
-26.907900 0.000000
-26.824800 0.000000
-26.741700 0.000000
-26.658600 0.000000
-26.575500 0.000000
-26.492300 0.000000
-26.409200 0.000000
-26.326100 0.000000
-26.243000 0.000000
-26.159900 0.000000
-26.076800 0.000000
-25.993600 0.000000
-25.910500 0.000000
-25.827400 0.000000
-25.744300 0.000000
-25.661200 0.000000
-25.578100 0.000000
-25.494900 0.000000
-25.411800 0.000000
-25.328700 0.000000
-25.245600 0.000000
-25.162500 0.000000
-25.079400 0.000000
-24.996200 0.000000
-24.913100 0.000000
-24.830000 0.000000
-24.746900 0.000000
-24.663800 0.000000
-24.580700 0.000000
-24.497500 0.000000
-24.414400 0.000000
-24.331300 0.000000
-24.248200 0.000000
-24.165100 0.000000
-24.082000 0.000000
-23.998800 0.000000
-23.915700 0.000000
-23.832600 0.000000
-23.749500 0.000000
-23.666400 0.000000
-23.583300 0.000000
-23.500100 0.000000
-23.417000 0.000000
-23.333900 0.000000
-23.250800 0.000000
-23.167700 0.000000
-23.084600 0.000000
-23.001400 0.000000
-22.918300 0.000000
-22.835200 0.000000
-22.752100 0.000000
-22.669000 0.000000
-22.585900 0.000000
-22.502700 0.000000
-22.419600 0.000000
-22.336500 0.000000
-22.253400 0.000000
-22.170300 0.000000
-22.087200 0.000000
-22.004000 0.000000
-21.920900 0.000000
-21.837800 0.000000
-21.754700 0.000000
-21.671600 0.000000
-21.588500 0.000000
-21.505300 0.000000
-21.422200 0.000000
-21.339100 0.000000
-21.256000 0.000000
-21.172900 0.000000
-21.089700 0.000000
-21.006600 0.000000
-20.923500 0.000000
-20.840400 0.000000
-20.757300 0.000000
-20.674200 0.000000
-20.591000 0.000000
-20.507900 0.000000
-20.424800 0.000000
-20.341700 0.000000
-20.258600 0.000000
-20.175500 0.000000
-20.092300 0.000000
-20.009200 0.000000
-19.926100 0.000000
-19.843000 0.000000
-19.759900 0.000000
-19.676800 0.000000
-19.593600 0.000000
-19.510500 0.000000
-19.427400 0.000000
-19.344300 0.000000
-19.261200 0.000000
-19.178100 0.000000
-19.094900 0.000000
-19.011800 0.000000
-18.928700 0.000000
-18.845600 0.000000
-18.762500 0.000000
-18.679400 0.000000
-18.596200 0.000000
-18.513100 0.000000
-18.430000 0.000000
-18.346900 0.000000
-18.263800 0.000000
-18.180700 0.000000
-18.097500 0.000000
-18.014400 0.000000
-17.931300 0.000000
-17.848200 0.000000
-17.765100 0.000000
-17.682000 0.000000
-17.598800 0.000000
-17.515700 0.000000
-17.432600 0.000000
-17.349500 0.000000
-17.266400 0.000000
-17.183300 0.000000
-17.100100 0.000000
-17.017000 0.000000
-16.933900 0.000000
-16.850800 0.000000
-16.767700 0.000000
-16.684600 0.000000
-16.601400 0.000000
-16.518300 0.000000
-16.435200 0.000000
-16.352100 0.000000
-16.269000 0.000000
-16.185900 0.000000
-16.102700 0.000000
-16.019600 0.000000
-15.936500 0.000000
-15.853400 0.000000
-15.770300 0.000000
-15.687200 0.000000
-15.604000 0.000000
-15.520900 0.000000
-15.437800 0.000000
-15.354700 0.000000
-15.271600 0.000000
-15.188500 0.000000
-15.105300 0.000000
-15.022200 0.000000
-14.939100 0.000000
-14.856000 0.000000
-14.772900 0.000000
-14.689800 0.000000
-14.606600 0.000000
-14.523500 0.000000
-14.440400 0.000000
-14.357300 0.000000
-14.274200 0.000000
-14.191100 0.000000
-14.107900 0.000000
-14.024800 0.000000
-13.941700 0.000000
-13.858600 0.000000
-13.775500 0.000000
-13.692400 0.000000
-13.609200 0.000000
-13.526100 0.000000
-13.443000 0.000000
-13.359900 0.000000
-13.276800 0.000000
-13.193700 0.000000
-13.110500 0.000000
-13.027400 0.000000
-12.944300 0.000000
-12.861200 0.000000
-12.778100 0.000000
-12.695000 0.000000
-12.611800 0.000000
-12.528700 0.000000
-12.445600 0.000000
-12.362500 0.000000
-12.279400 0.000000
-12.196300 0.000000
-12.113100 0.000000
-12.030000 0.000000
-11.946900 0.000000
-11.863800 0.000000
-11.780700 0.000000
-11.697600 0.000000
-11.614400 0.000000
-11.531300 0.000000
-11.448200 0.000000
-11.365100 0.000000
-11.282000 0.000000
-11.198900 0.000000
-11.115700 0.000000
-11.032600 0.000000
-10.949500 0.000000
-10.866400 0.000000
-10.783300 0.000000
-10.700200 0.000000
-10.617000 0.000000
-10.533900 0.000000
-10.450800 0.000000
-10.367700 0.000000
-10.284600 0.000000
-10.201500 0.000000
-10.118300 0.000000
-10.035200 0.000000
-9.952100 0.000000
-9.869000 0.000000
-9.785900 0.000000
-9.702800 0.000000
-9.619600 0.000000
-9.536500 0.000000
-9.453400 0.000000
-9.370300 0.000000
-9.287200 0.000000
-9.204100 0.000000
-9.120900 0.000000
-9.037800 0.000000
-8.954700 0.000000
-8.871600 0.000000
-8.788500 0.000000
-8.705400 0.000000
-8.622200 0.000000
-8.539100 0.000000
-8.456000 0.000000
-8.372900 0.000000
-8.289800 0.000000
-8.206700 0.000000
-8.123500 0.000000
-8.040400 0.000000
-7.957300 0.000000
-7.874200 0.000000
-7.791100 0.000000
-7.708000 0.000000
-7.624800 0.000000
-7.541700 0.000000
-7.458600 0.000000
-7.375500 0.000000
-7.292400 0.000000
-7.209300 0.000000
-7.126100 0.000000
-7.043000 0.000000
-6.959900 0.000000
-6.876800 0.000000
-6.793700 0.000000
-6.710500 0.000000
-6.627400 0.000000
-6.544300 0.000000
-6.461200 0.000000
-6.378100 0.000000
-6.295000 0.000000
-6.211800 0.000000
-6.128700 0.000000
-6.045600 0.000000
-5.962500 0.000000
-5.879400 0.000000
-5.796300 0.000000
-5.713100 0.000000
-5.630000 0.000000
-5.546900 0.000000
-5.463800 0.000000
-5.380700 0.000000
-5.297600 0.000000
-5.214400 0.000000
-5.131300 0.000000
-5.048200 0.000000
-4.965100 0.000000
-4.882000 0.000000
-4.798900 0.000000
-4.715700 0.000000
-4.632600 0.000000
-4.549500 0.000000
-4.466400 0.000000
-4.383300 0.000000
-4.300200 0.000000
-4.217000 0.000000
-4.133900 0.000000
-4.050800 0.000000
-3.967700 0.000000
-3.884600 0.000000
-3.801500 0.000000
-3.718300 0.000000
-3.635200 0.000000
-3.552100 0.000000
-3.469000 0.000000
-3.385900 0.000000
-3.302800 0.000000
-3.219600 0.000000
-3.136500 0.000000
-3.053400 0.000000
-2.970300 0.000000
-2.887200 0.000000
-2.804100 0.000000
-2.720900 0.000000
-2.637800 0.000000
-2.554700 0.000000
-2.471600 0.000000
-2.388500 0.000000
-2.305400 0.000000
-2.222200 0.000000
-2.139100 0.000000
-2.056000 0.000000
-1.972900 0.000000
-1.889800 0.000000
-1.806700 0.000000
-1.723500 0.000000
-1.640400 0.000000
-1.557300 0.000000
-1.474200 0.000000
-1.391100 0.000000
-1.308000 0.000000
-1.224800 0.000000
-1.141700 0.000000
-1.058600 0.000000
-0.975500 0.000000
-0.892400 0.000000
-0.809300 0.000000
-0.726100 0.000000
-0.643000 0.000000
-0.559900 0.000000
-0.476800 0.000000
-0.393700 0.000000
-0.310600 0.000000
-0.227400 0.000000
-0.144300 0.000000
-0.061200 0.000000
0.021900 0.000000
0.105000 0.000000
0.188100 0.000000
0.271300 0.000000
0.354400 0.000000
0.437500 0.007600
0.520600 0.019900
0.603700 0.027400
0.686800 0.033000
0.770000 0.038500
0.853100 0.044000
0.936200 0.048400
1.019300 0.053200
1.102400 0.058700
1.185500 0.062900
1.268700 0.067800
1.351800 0.073200
1.434900 0.078400
1.518000 0.083800
1.601100 0.089700
1.684200 0.095900
1.767400 0.103100
1.850500 0.110600
1.933600 0.118600
2.016700 0.204700
2.099800 0.263800
2.182900 0.316800
2.266100 0.429500
2.349200 0.630600
2.432300 0.883700
2.515400 1.046100
2.598500 1.150700
2.681600 1.253400
2.764800 1.379300
2.847900 1.556900
2.931000 1.681700
3.014100 1.853700
3.097200 2.284000
3.180300 1.833900
3.263500 1.687000
3.346600 1.643100
3.429700 1.574300
3.512800 1.470600
3.595900 1.363300
3.679000 1.272100
3.762200 1.189900
3.845300 1.060300
3.928400 0.968400
4.011500 0.947100
4.094600 1.107900
4.177700 1.335700
4.260900 1.210900
4.344000 1.225700
4.427100 1.236400
4.510200 1.250100
4.593300 1.124600
4.676400 1.083600
4.759600 1.079300
4.842700 1.026000
4.925800 1.105200
5.008900 1.298300
5.092000 1.260900
5.175100 1.309800
5.258300 1.270200
5.341400 1.281400
5.424500 1.332900
5.507600 1.381500
5.590700 1.535500
5.673800 1.701000
5.757000 1.820000
5.840100 2.017000
5.923200 2.147400
6.006300 2.459100
6.089400 2.160100
6.172500 1.652500
6.255700 1.399800
6.338800 1.096600
6.421900 1.101000
6.505000 1.430600
6.588100 1.330800
6.671200 1.183000
6.754400 1.122000
6.837500 1.092500
6.920600 1.042000
7.003700 1.017500
7.086800 1.073100
7.169900 1.148400
7.253100 1.320700
7.336200 1.336900
7.419300 1.345300
7.502400 1.368800
7.585500 1.403000
7.668700 1.575300
7.751800 1.294600
7.834900 1.107800
7.918000 1.143900
8.001100 1.200100
8.084200 1.131400
8.167400 1.095700
8.250500 1.061200
8.333600 1.041900
8.416700 1.025900
8.499800 1.017000
8.582900 1.012400
8.666100 1.012700
8.749200 1.020400
8.832300 1.034700
8.915400 1.050000
8.998500 1.080100
9.081600 1.127000
9.164800 1.176900
9.247900 1.247500
9.331000 1.340700
9.414100 1.517200
9.497200 1.892800
9.580300 1.944700
9.663500 1.952900
9.746600 1.618900
9.829700 1.315300
9.912800 1.068400
9.995900 0.874000
10.079000 0.772000
10.162200 0.657700
10.245300 0.234200
10.328400 0.234200
10.411500 0.234900
10.494600 0.235300
10.577700 0.236000
10.660900 0.236400
10.744000 0.235900
10.827100 0.236800
10.910200 0.238000
10.993300 0.238900
11.076400 0.239700
11.159600 0.240100
11.242700 0.239800
11.325800 0.240500
11.408900 0.241400
11.492000 0.242300
11.575100 0.243200
11.658300 0.244800
11.741400 0.245900
11.824500 0.246700
11.907600 0.247800
11.990700 0.248300
12.073800 0.248700
12.157000 0.249000
12.240100 0.249000
12.323200 0.248800
12.406300 0.248200
12.489400 0.247600
12.572500 0.247200
12.655700 0.246700
12.738800 0.246100
12.821900 0.245100
12.905000 0.244300
12.988100 0.243400
13.071200 0.242200
13.154400 0.241000
13.237500 0.239800
13.320600 0.238500
13.403700 0.237400
13.486800 0.236000
13.569900 0.234500
13.653100 0.232900
13.736200 0.231000
13.819300 0.228600
13.902400 0.226600
13.985500 0.224800
14.068600 0.222900
14.151800 0.221000
14.234900 0.219100
14.318000 0.216700
14.401100 0.213800
14.484200 0.211200
14.567300 0.208500
14.650500 0.205800
14.733600 0.202900
14.816700 0.199800
14.899800 0.196900
14.982900 0.194300
15.066000 0.191500
15.149200 0.188400
15.232300 0.185000
15.315400 0.181000
15.398500 0.176800
15.481600 0.173100
15.564700 0.169600
15.647900 0.166300
15.731000 0.162600
15.814100 0.158900
15.897200 0.154200
15.980300 0.150100
16.063400 0.145300
16.146600 0.140000
16.229700 0.135900
16.312800 0.131800
16.395900 0.127700
16.479000 0.123300
16.562100 0.117200
16.645300 0.110800
16.728400 0.103800
16.811500 0.098400
16.894600 0.083200
16.977700 0.071100
17.060800 0.064200
17.144000 0.058000
17.227100 0.050200
17.310200 0.043800
17.393300 0.047100
17.476400 0.208000
17.559500 0.510000
17.642700 0.552300
17.725800 0.553800
17.808900 0.549000
17.892000 0.472000
17.975100 0.424900
18.058200 0.396200
18.141400 0.365900
18.224500 0.353900
18.307600 0.343300
18.390700 0.336100
18.473800 0.331500
18.556900 0.322400
18.640100 0.315500
18.723200 0.310800
18.806300 0.310000
18.889400 0.301700
18.972500 0.297200
19.055600 0.293800
19.138800 0.290600
19.221900 0.287900
19.305000 0.285400
19.388100 0.283800
19.471200 0.281800
19.554300 0.279700
19.637500 0.277800
19.720600 0.276100
19.803700 0.275500
19.886800 0.274500
19.969900 0.273200
20.053000 0.271900
20.136200 0.271400
20.219300 0.270100
20.302400 0.285600
20.385500 0.289200
20.468600 0.296600
20.551700 0.301800
20.634900 0.309700
20.718000 0.319600
20.801100 0.332100
20.884200 0.357300
20.967300 0.397500
21.050400 0.536200
21.133600 0.519100
21.216700 0.522600
21.299800 0.528200
21.382900 0.536500
21.466000 0.526600
21.549200 0.525400
21.632300 0.501900
21.715400 0.485100
21.798500 0.510200
21.881600 0.516800
21.964700 0.525900
22.047900 0.533600
22.131000 0.564200
22.214100 0.569100
22.297200 0.553900
22.380300 0.544800
22.463400 0.543600
22.546600 0.548300
22.629700 0.544100
22.712800 0.543500
22.795900 0.540400
22.879000 0.540200
22.962100 0.542200
23.045300 0.544500
23.128400 0.546400
23.211500 0.546000
23.294600 0.545100
23.377700 0.544300
23.460800 0.548100
23.544000 0.551600
23.627100 0.552500
23.710200 0.555400
23.793300 0.576900
23.876400 0.614700
23.959500 0.630600
24.042700 0.654700
24.125800 0.675500
24.208900 0.695200
24.292000 0.723100
24.375100 0.754500
24.458200 0.804700
24.541400 0.866000
24.624500 0.994500
24.707600 1.032800
24.790700 1.027800
24.873800 0.860200
24.956900 0.800900
25.040100 0.758900
25.123200 0.732900
25.206300 0.707900
25.289400 0.689400
25.372500 0.673500
25.455600 0.662400
25.538800 0.655100
25.621900 0.651800
25.705000 0.652800
25.788100 0.652000
25.871200 0.625000
25.954300 0.611300
26.037500 0.620200
26.120600 0.626600
26.203700 0.696300
26.286800 0.712900
26.369900 0.706400
26.453000 0.711700
26.536200 0.625100
26.619300 0.558500
26.702400 0.517200
26.785500 0.482300
26.868600 0.464900
26.951700 0.459600
27.034900 0.427500
27.118000 0.417700
27.201100 0.413800
27.284200 0.416500
27.367300 0.417600
27.450400 0.448600
27.533600 0.462500
27.616700 0.424000
27.699800 0.396900
27.782900 0.370000
27.866000 0.315900
27.949100 0.279200
28.032300 0.260400
28.115400 0.247200
28.198500 0.235300
28.281600 0.228300
28.364700 0.226400
28.447800 0.227800
28.531000 0.234300
28.614100 0.244300
28.697200 0.268800
28.780300 0.289600
28.863400 0.312000
28.946500 0.328500
29.029700 0.339900
29.112800 0.351500
29.195900 0.370800
29.279000 0.393400
29.362100 0.423600
29.445200 0.452600
29.528400 0.485900
29.611500 0.527900
29.694600 0.576300
29.777700 0.659300
29.860800 0.723800
29.943900 0.779300
30.027100 0.836000
30.110200 1.011400
30.193300 1.142000
30.276400 0.905700
30.359500 0.884500
30.442600 0.872500
30.525800 0.824800
30.608900 0.792400
30.692000 0.787900
30.775100 0.780200
30.858200 0.765200
30.941300 0.755700
31.024500 0.744500
31.107600 0.735900
31.190700 0.719700
31.273800 0.724700
31.356900 0.732000
31.440000 0.731000
31.523200 0.728900
31.606300 0.674500
31.689400 0.641000
31.772500 0.620200
31.855600 0.600800
31.938700 0.586700
32.021900 0.577300
32.105000 0.529400
32.188100 0.508500
32.271200 0.479700
32.354300 0.448500
32.437400 0.411700
32.520600 0.356700
32.603700 0.328400
32.686800 0.302000
32.769900 0.288900
32.853000 0.258200
32.936100 0.244200
33.019300 0.230700
33.102400 0.227000
33.185500 0.220800
33.268600 0.218000
33.351700 0.223500
33.434800 0.228400
33.518000 0.239500
33.601100 0.241300
33.684200 0.248300
33.767300 0.258300
33.850400 0.268700
33.933500 0.285200
34.016700 0.304600
34.099800 0.324900
34.182900 0.359400
34.266000 0.394300
34.349100 0.443400
34.432200 0.503300
34.515400 0.533600
34.598500 0.558600
34.681600 0.576600
34.764700 0.570200
34.847800 0.589400
34.930900 0.607000
35.014100 0.593300
35.097200 0.608600
35.180300 0.635600
35.263400 0.651900
35.346500 0.667300
35.429600 0.687200
35.512800 0.704500
35.595900 0.730200
35.679000 0.768200
35.762100 0.834700
35.845200 0.920200
35.928400 1.111100
36.011500 0.998400
36.094600 1.137900
36.177700 1.599300
36.260800 4.637900
36.343900 3.621600
36.427100 1.585500
36.510200 1.251700
36.593300 1.343800
36.676400 1.902500
36.759500 1.274100
36.842600 1.066100
36.925800 0.990700
37.008900 0.991400
37.092000 0.831100
37.175100 0.747000
37.258200 0.636300
37.341300 0.627000
37.424500 0.625200
37.507600 0.670200
37.590700 0.722200
37.673800 0.752500
37.756900 0.708800
37.840000 0.698000
37.923200 0.696600
38.006300 0.737100
38.089400 0.779600
38.172500 0.861500
38.255600 0.900400
38.338700 0.871800
38.421900 0.882500
38.505000 0.882100
38.588100 0.908600
38.671200 0.957000
38.754300 0.920500
38.837400 0.978400
38.920600 1.103900
39.003700 1.072800
39.086800 0.892700
39.169900 0.824500
39.253000 0.789800
39.336100 0.770900
39.419300 0.758900
39.502400 0.755500
39.585500 0.747900
39.668600 0.749500
39.751700 0.712200
39.834800 0.688800
39.918000 0.662800
40.001100 0.650300
40.084200 0.653100
40.167300 0.652500
40.250400 0.666100
40.333500 0.666500
40.416700 0.669600
40.499800 0.644300
40.582900 0.619300
40.666000 0.585200
40.749100 0.549400
40.832200 0.518400
40.915400 0.500000
40.998500 0.497400
41.081600 0.497500
41.164700 0.498100
41.247800 0.500300
41.330900 0.486400
41.414100 0.486900
41.497200 0.479300
41.580300 0.532100
41.663400 0.507400
41.746500 0.513100
41.829600 0.516100
41.912800 0.516000
41.995900 0.531600
42.079000 0.536500
42.162100 0.547700
