set title 'mp-569358 - Density of States'
set xlabel 'Energy (eV)'
set ylabel 'DOS (states/eV)'
set grid
set xrange [-10:10]
set yrange [0:3.236]
set xzeroaxis lt -1
set terminal png size 800,600
set output 'mp-569358_dos_gnuplot.png'
plot '-' using 1:2 with lines title 'DOS'
-12.946900 0.000000
-12.925300 0.000000
-12.903800 0.000000
-12.882300 0.000000
-12.860700 0.000000
-12.839200 0.000000
-12.817600 0.000000
-12.796100 0.000000
-12.774500 0.000000
-12.753000 0.000000
-12.731500 0.000000
-12.709900 0.000000
-12.688400 0.000000
-12.666800 0.000000
-12.645300 0.000000
-12.623800 0.000000
-12.602200 0.000000
-12.580700 0.000000
-12.559100 0.000000
-12.537600 0.000000
-12.516100 0.000000
-12.494500 0.000000
-12.473000 0.000000
-12.451400 0.000000
-12.429900 0.000000
-12.408300 0.000000
-12.386800 0.000000
-12.365300 0.000000
-12.343700 0.000000
-12.322200 0.000000
-12.300600 0.000000
-12.279100 0.000000
-12.257600 0.000000
-12.236000 0.000000
-12.214500 0.000000
-12.192900 0.000000
-12.171400 0.000000
-12.149900 0.000000
-12.128300 0.000000
-12.106800 0.000000
-12.085200 0.000000
-12.063700 0.000000
-12.042100 0.000000
-12.020600 0.000000
-11.999100 0.000000
-11.977500 0.000000
-11.956000 0.000000
-11.934400 0.000000
-11.912900 0.000000
-11.891400 0.000000
-11.869800 0.000000
-11.848300 0.000000
-11.826700 0.000000
-11.805200 0.000000
-11.783700 0.000000
-11.762100 0.000000
-11.740600 0.000000
-11.719000 0.000000
-11.697500 0.000000
-11.676000 0.000000
-11.654400 0.000000
-11.632900 0.000000
-11.611300 0.000000
-11.589800 0.000000
-11.568200 0.000000
-11.546700 0.000000
-11.525200 0.000000
-11.503600 0.000000
-11.482100 0.000000
-11.460500 0.000000
-11.439000 0.000000
-11.417500 0.000000
-11.395900 0.000000
-11.374400 0.000000
-11.352800 0.000000
-11.331300 0.000000
-11.309800 0.000000
-11.288200 0.000000
-11.266700 0.000000
-11.245100 0.000000
-11.223600 0.000000
-11.202000 0.000000
-11.180500 0.000000
-11.159000 0.000000
-11.137400 0.000000
-11.115900 0.000000
-11.094300 0.000000
-11.072800 0.000000
-11.051300 0.000000
-11.029700 0.000000
-11.008200 0.000000
-10.986600 0.004700
-10.965100 0.302900
-10.943600 0.676100
-10.922000 1.018800
-10.900500 0.962500
-10.878900 0.839800
-10.857400 0.735200
-10.835800 0.767400
-10.814300 0.809600
-10.792800 0.851900
-10.771200 0.894100
-10.749700 0.934900
-10.728100 0.935500
-10.706600 0.889300
-10.685100 0.834700
-10.663500 0.811000
-10.642000 0.818800
-10.620400 0.828200
-10.598900 0.837600
-10.577400 0.847000
-10.555800 0.856500
-10.534300 0.865900
-10.512700 0.875300
-10.491200 0.885000
-10.469700 0.900300
-10.448100 0.905600
-10.426600 0.902100
-10.405000 0.896200
-10.383500 0.880800
-10.361900 0.869800
-10.340400 0.863300
-10.318900 0.865800
-10.297300 0.868200
-10.275800 0.870700
-10.254200 0.873200
-10.232700 0.875600
-10.211200 0.878100
-10.189600 0.882700
-10.168100 0.888900
-10.146500 0.896700
-10.125000 0.904500
-10.103500 0.912400
-10.081900 0.920200
-10.060400 0.921500
-10.038800 0.920900
-10.017300 0.920400
-9.995700 0.924300
-9.974200 0.928500
-9.952700 0.924400
-9.931100 0.919300
-9.909600 0.916200
-9.888000 0.918000
-9.866500 0.921000
-9.845000 0.924100
-9.823400 0.927300
-9.801900 0.931300
-9.780300 0.935200
-9.758800 0.939200
-9.737300 0.943500
-9.715700 0.948700
-9.694200 0.953900
-9.672600 0.959100
-9.651100 0.964300
-9.629500 0.969500
-9.608000 0.975300
-9.586500 0.981200
-9.564900 0.986900
-9.543400 0.992300
-9.521800 0.997700
-9.500300 1.003900
-9.478800 1.010600
-9.457200 1.017300
-9.435700 1.021800
-9.414100 1.025300
-9.392600 1.028900
-9.371100 1.034300
-9.349500 1.039700
-9.328000 1.045100
-9.306400 1.050600
-9.284900 1.056000
-9.263400 1.061400
-9.241800 1.066900
-9.220300 1.072400
-9.198700 1.078200
-9.177200 1.098300
-9.155600 1.129000
-9.134100 1.159700
-9.112600 1.178200
-9.091000 1.192900
-9.069500 1.209300
-9.047900 1.224400
-9.026400 1.239500
-9.004900 1.254600
-8.983300 1.269700
-8.961800 1.284800
-8.940200 1.298900
-8.918700 1.310900
-8.897200 1.323000
-8.875600 1.850000
-8.854100 1.789200
-8.832500 1.635500
-8.811000 1.336300
-8.789400 1.323100
-8.767900 1.309900
-8.746400 1.296800
-8.724800 1.283600
-8.703300 1.270400
-8.681700 1.257200
-8.660200 1.245700
-8.638700 1.171500
-8.617100 1.167200
-8.595600 1.162900
-8.574000 1.158400
-8.552500 1.153700
-8.531000 1.149100
-8.509400 1.144500
-8.487900 1.139800
-8.466300 1.135200
-8.444800 1.130500
-8.423200 1.125900
-8.401700 1.131200
-8.380200 1.199900
-8.358600 1.244600
-8.337100 1.289800
-8.315500 1.315900
-8.294000 1.342000
-8.272500 1.368000
-8.250900 1.394000
-8.229400 1.419900
-8.207800 1.445700
-8.186300 1.387000
-8.164800 1.269600
-8.143200 1.168000
-8.121700 1.136900
-8.100100 1.106400
-8.078600 1.075800
-8.057100 1.045300
-8.035500 1.014600
-8.014000 0.984000
-7.992400 0.950500
-7.970900 0.933000
-7.949300 0.923700
-7.927800 0.910900
-7.906300 0.895500
-7.884700 0.880100
-7.863200 0.864600
-7.841600 0.849200
-7.820100 0.833800
-7.798600 0.818500
-7.777000 0.803700
-7.755500 0.789000
-7.733900 0.778500
-7.712400 0.771000
-7.690900 0.763500
-7.669300 0.756600
-7.647800 0.750500
-7.626200 0.744300
-7.604700 0.735900
-7.583100 0.725700
-7.561600 0.716300
-7.540100 0.707900
-7.518500 0.698400
-7.497000 0.688900
-7.475400 0.679400
-7.453900 0.669800
-7.432400 0.660500
-7.410800 0.653200
-7.389300 0.646000
-7.367700 0.638800
-7.346200 0.631600
-7.324700 0.627800
-7.303100 0.625700
-7.281600 0.623500
-7.260000 0.620700
-7.238500 0.616700
-7.216900 0.612700
-7.195400 0.608700
-7.173900 0.604700
-7.152300 0.600700
-7.130800 0.622200
-7.109200 0.615300
-7.087700 0.606100
-7.066200 0.595600
-7.044600 0.585100
-7.023100 0.574600
-7.001500 0.564100
-6.980000 0.553700
-6.958500 0.555900
-6.936900 0.560800
-6.915400 0.565600
-6.893800 0.570400
-6.872300 0.575300
-6.850800 0.580100
-6.829200 0.659000
-6.807700 0.709500
-6.786100 0.616000
-6.764600 0.522600
-6.743000 0.429100
-6.721500 0.335600
-6.700000 0.000000
-6.678400 0.000000
-6.656900 0.000000
-6.635300 0.000000
-6.613800 0.000000
-6.592300 0.000000
-6.570700 0.000000
-6.549200 0.000000
-6.527600 0.000000
-6.506100 0.000000
-6.484600 0.000000
-6.463000 0.000000
-6.441500 0.000000
-6.419900 0.000000
-6.398400 0.000000
-6.376800 0.000000
-6.355300 0.000000
-6.333800 0.000000
-6.312200 0.000000
-6.290700 0.000000
-6.269100 0.000000
-6.247600 0.000000
-6.226100 0.000000
-6.204500 0.000000
-6.183000 0.000000
-6.161400 0.000000
-6.139900 0.000000
-6.118400 0.000000
-6.096800 0.000000
-6.075300 0.000000
-6.053700 0.000000
-6.032200 0.000000
-6.010600 0.000000
-5.989100 0.000000
-5.967600 0.000000
-5.946000 0.000000
-5.924500 0.000000
-5.902900 0.000000
-5.881400 0.000000
-5.859900 0.000000
-5.838300 0.000000
-5.816800 0.000000
-5.795200 0.000000
-5.773700 0.000000
-5.752200 0.000000
-5.730600 0.000000
-5.709100 0.000000
-5.687500 0.000000
-5.666000 0.000000
-5.644500 0.000000
-5.622900 0.000000
-5.601400 0.000000
-5.579800 0.000000
-5.558300 0.000000
-5.536700 0.000000
-5.515200 0.000000
-5.493700 0.000000
-5.472100 0.000000
-5.450600 0.000000
-5.429000 0.000000
-5.407500 0.000000
-5.386000 0.000000
-5.364400 0.000000
-5.342900 0.000000
-5.321300 0.000000
-5.299800 0.000000
-5.278300 0.000000
-5.256700 0.000000
-5.235200 0.000000
-5.213600 0.000000
-5.192100 0.000000
-5.170500 0.000000
-5.149000 0.000000
-5.127500 0.000000
-5.105900 0.000000
-5.084400 0.000000
-5.062800 0.000000
-5.041300 0.000000
-5.019800 0.000000
-4.998200 0.000000
-4.976700 0.000000
-4.955100 0.000000
-4.933600 0.000000
-4.912100 0.000000
-4.890500 0.000000
-4.869000 0.000000
-4.847400 0.000000
-4.825900 0.000000
-4.804300 0.000000
-4.782800 0.000000
-4.761300 0.000000
-4.739700 0.000000
-4.718200 0.000000
-4.696600 0.000000
-4.675100 0.000000
-4.653600 0.000000
-4.632000 0.000000
-4.610500 0.000000
-4.588900 0.000000
-4.567400 0.000000
-4.545900 0.000000
-4.524300 0.000000
-4.502800 0.000000
-4.481200 0.000000
-4.459700 0.000000
-4.438200 0.000000
-4.416600 0.000000
-4.395100 0.000000
-4.373500 0.000000
-4.352000 0.000000
-4.330400 0.000000
-4.308900 0.000000
-4.287400 0.000000
-4.265800 0.000000
-4.244300 0.000000
-4.222700 0.000000
-4.201200 0.000000
-4.179700 0.000000
-4.158100 0.000000
-4.136600 0.000000
-4.115000 0.000000
-4.093500 0.000000
-4.072000 0.000000
-4.050400 0.000000
-4.028900 0.000000
-4.007300 0.000000
-3.985800 0.000000
-3.964200 0.000000
-3.942700 0.000000
-3.921200 0.000000
-3.899600 0.000000
-3.878100 0.000000
-3.856500 0.000000
-3.835000 0.000000
-3.813500 0.000000
-3.791900 0.000000
-3.770400 0.000000
-3.748800 0.000000
-3.727300 0.000000
-3.705800 0.000000
-3.684200 0.000000
-3.662700 0.000000
-3.641100 0.000000
-3.619600 0.000000
-3.598000 0.000000
-3.576500 0.000000
-3.555000 0.000000
-3.533400 0.000000
-3.511900 0.000000
-3.490300 0.000000
-3.468800 0.000000
-3.447300 0.000000
-3.425700 0.000000
-3.404200 0.000000
-3.382600 0.000000
-3.361100 0.000000
-3.339600 0.000000
-3.318000 0.000000
-3.296500 0.000000
-3.274900 0.000000
-3.253400 0.000000
-3.231900 0.000000
-3.210300 0.000000
-3.188800 0.000000
-3.167200 0.000000
-3.145700 0.000000
-3.124100 0.000000
-3.102600 0.000000
-3.081100 0.000000
-3.059500 0.000000
-3.038000 0.000000
-3.016400 0.000000
-2.994900 0.000000
-2.973400 0.000000
-2.951800 0.000000
-2.930300 0.000000
-2.908700 0.000000
-2.887200 0.000000
-2.865700 0.000000
-2.844100 0.000000
-2.822600 0.000000
-2.801000 0.019500
-2.779500 0.075000
-2.757900 0.134800
-2.736400 0.183700
-2.714900 0.208000
-2.693300 0.228500
-2.671800 0.249000
-2.650200 0.269500
-2.628700 0.290000
-2.607200 0.310500
-2.585600 0.330900
-2.564100 0.351400
-2.542500 0.370200
-2.521000 0.384400
-2.499500 0.795900
-2.477900 1.055300
-2.456400 1.123600
-2.434800 1.176100
-2.413300 1.207300
-2.391700 1.127700
-2.370200 1.008400
-2.348700 1.039800
-2.327100 1.071800
-2.305600 1.103800
-2.284000 1.135800
-2.262500 1.167800
-2.241000 1.088400
-2.219400 0.986400
-2.197900 0.994700
-2.176300 1.004100
-2.154800 1.014100
-2.133300 1.024200
-2.111700 1.034300
-2.090200 1.044300
-2.068600 1.044400
-2.047100 1.019300
-2.025600 0.999700
-2.004000 0.979100
-1.982500 0.966400
-1.960900 0.960900
-1.939400 0.955600
-1.917800 0.950200
-1.896300 0.945700
-1.874800 0.946200
-1.853200 0.950400
-1.831700 0.956700
-1.810100 0.965800
-1.788600 0.975200
-1.767100 0.984500
-1.745500 0.993800
-1.724000 1.003100
-1.702400 1.012400
-1.680900 1.021700
-1.659400 1.031100
-1.637800 1.040400
-1.616300 1.049700
-1.594700 1.056300
-1.573200 1.058800
-1.551600 1.066500
-1.530100 1.090800
-1.508600 1.138700
-1.487000 1.187600
-1.465500 1.234700
-1.443900 1.281600
-1.422400 1.329500
-1.400900 1.277300
-1.379300 1.107400
-1.357800 0.937800
-1.336200 0.853700
-1.314700 0.823200
-1.293200 0.801400
-1.271600 0.795900
-1.250100 0.793100
-1.228500 0.790200
-1.207000 0.787200
-1.185400 0.784300
-1.163900 0.785400
-1.142400 0.812700
-1.120800 0.869700
-1.099300 0.946800
-1.077700 1.003400
-1.056200 1.035000
-1.034700 1.049400
-1.013100 1.062900
-0.991600 1.083900
-0.970000 1.126800
-0.948500 1.190800
-0.927000 1.256400
-0.905400 1.320600
-0.883900 1.366200
-0.862300 1.396200
-0.840800 1.425100
-0.819300 1.457600
-0.797700 1.494500
-0.776200 1.541500
-0.754600 1.602000
-0.733100 1.674500
-0.711500 1.750300
-0.690000 1.803500
-0.668500 1.830700
-0.646900 1.835700
-0.625400 1.843100
-0.603800 2.501700
-0.582300 2.781400
-0.560800 1.838600
-0.539200 1.826700
-0.517700 1.837900
-0.496100 1.870700
-0.474600 1.900900
-0.453100 1.928100
-0.431500 1.894900
-0.410000 1.715100
-0.388400 1.519600
-0.366900 1.575600
-0.345300 1.600500
-0.323800 1.623500
-0.302300 1.647400
-0.280700 1.672200
-0.259200 1.697700
-0.237600 1.723800
-0.216100 1.750600
-0.194600 1.777500
-0.173000 1.803300
-0.151500 1.825600
-0.129900 1.917700
-0.108400 2.056700
-0.086900 2.090500
-0.065300 2.051500
-0.043800 2.003500
-0.022200 1.968200
-0.000700 1.948600
0.020900 1.939900
0.042400 1.937100
0.063900 1.933900
0.085500 1.924500
0.107000 1.914900
0.128600 1.902400
0.150100 1.885700
0.171600 1.855700
0.193200 1.802900
0.214700 1.761000
0.236300 1.719600
0.257800 1.728800
0.279300 1.784400
0.300900 1.853800
0.322400 1.890600
0.344000 1.891900
0.365500 1.871300
0.387100 1.756500
0.408600 1.615800
0.430100 1.516600
0.451700 1.458300
0.473200 1.420000
0.494800 1.383500
0.516300 1.346900
0.537800 1.313400
0.559400 1.281900
0.580900 1.253900
0.602500 1.209100
0.624000 1.132200
0.645500 1.106400
0.667100 1.102500
0.688600 1.143800
0.710200 1.158000
0.731700 1.028000
0.753200 0.969500
0.774800 0.917700
0.796300 0.872400
0.817900 0.892100
0.839400 0.935800
0.861000 1.009900
0.882500 1.109000
0.904000 1.209400
0.925600 1.299100
0.947100 1.387000
0.968700 1.479800
0.990200 1.578000
1.011700 1.678300
1.033300 1.772000
1.054800 1.869600
1.076400 1.962900
1.097900 2.048000
1.119400 2.124600
1.141000 2.220000
1.162500 2.369500
1.184100 2.448600
1.205600 2.536800
1.227200 2.628500
1.248700 2.713700
1.270200 2.647100
1.291800 2.547800
1.313300 2.489800
1.334900 2.438300
1.356400 2.381000
1.377900 2.313200
1.399500 2.250300
1.421000 2.175700
1.442600 2.099300
1.464100 2.033700
1.485600 2.002900
1.507200 1.972600
1.528700 1.910100
1.550300 1.842000
1.571800 1.805000
1.593400 1.802400
1.614900 1.812400
1.636400 1.825100
1.658000 1.863100
1.679500 1.913700
1.701100 1.936700
1.722600 1.959100
1.744100 2.086100
1.765700 2.184000
1.787200 2.200200
1.808800 2.067300
1.830300 2.023800
1.851800 1.981700
1.873400 1.939800
1.894900 1.897400
1.916500 1.850800
1.938000 1.805900
1.959500 1.783600
1.981100 1.782600
2.002600 1.793100
2.024200 1.808900
2.045700 1.797000
2.067300 1.729500
2.088800 1.680800
2.110300 1.635900
2.131900 1.596500
2.153400 1.561700
2.175000 1.530000
2.196500 1.501300
2.218000 1.475800
2.239600 1.463700
2.261100 1.453300
2.282700 1.444700
2.304200 1.438400
2.325700 1.432200
2.347300 1.618900
2.368800 1.251800
2.390400 1.165100
2.411900 1.154200
2.433500 1.171100
2.455000 1.186300
2.476500 1.214100
2.498100 1.241000
2.519600 1.250000
2.541200 1.248600
2.562700 1.252000
2.584200 1.255600
2.605800 1.261000
2.627300 1.269300
2.648900 1.279400
2.670400 1.290800
2.691900 1.304400
2.713500 1.320600
2.735000 1.338900
2.756600 1.367300
2.778100 1.407800
2.799700 1.440000
2.821200 1.442600
2.842700 1.447700
2.864300 1.450100
2.885800 1.445800
2.907400 1.437800
2.928900 1.429300
2.950400 1.421800
2.972000 1.415300
2.993500 1.409200
3.015100 1.406100
3.036600 1.410600
3.058100 1.421000
3.079700 1.449600
3.101200 1.485600
3.122800 1.514600
3.144300 1.521400
3.165800 1.450000
3.187400 1.359700
3.208900 1.300100
3.230500 1.257500
3.252000 1.216100
3.273600 1.176000
3.295100 1.138300
3.316600 1.103000
3.338200 1.068600
3.359700 1.034200
3.381300 1.010900
3.402800 0.985000
3.424300 0.933000
3.445900 0.855800
3.467400 0.770400
3.489000 0.705300
3.510500 0.670200
3.532000 0.667000
3.553600 0.664100
3.575100 0.661600
3.596700 0.660000
3.618200 0.659700
3.639800 0.660200
3.661300 0.660600
3.682800 0.661100
3.704400 0.661600
3.725900 0.662100
3.747500 0.662600
3.769000 0.663100
3.790500 0.665100
3.812100 0.666300
3.833600 0.667100
3.855200 0.667800
3.876700 0.668500
3.898200 0.669200
3.919800 0.670300
3.941300 0.671500
3.962900 0.672600
3.984400 0.673600
4.006000 0.674700
4.027500 0.677600
4.049000 0.681500
4.070600 0.685600
4.092100 0.689600
4.113700 0.722200
4.135200 0.775800
4.156700 0.842100
4.178300 0.918700
4.199800 0.950200
4.221400 0.975800
4.242900 1.001100
4.264400 1.026100
4.286000 1.050400
4.307500 1.073500
4.329100 1.090100
4.350600 1.102900
4.372100 1.095200
4.393700 1.089300
4.415200 1.061400
4.436800 1.055700
4.458300 1.053700
4.479900 1.054000
4.501400 1.054200
4.522900 1.054900
4.544500 1.056400
4.566000 1.064100
4.587600 1.073300
4.609100 1.081200
4.630600 1.087800
4.652200 1.093400
4.673700 1.101300
4.695300 1.111500
4.716800 1.122700
4.738300 1.134800
4.759900 1.154100
4.781400 1.177600
4.803000 1.203400
4.824500 1.285100
4.846100 1.638200
4.867600 2.326700
4.889100 2.021100
4.910700 1.479600
4.932200 1.525100
4.953800 1.574200
4.975300 1.626800
4.996800 1.649600
5.018400 1.610300
5.039900 1.561400
5.061500 1.479700
5.083000 1.398300
5.104500 1.351600
5.126100 1.325600
5.147600 1.306200
5.169200 1.293500
5.190700 1.285800
5.212300 1.283500
5.233800 1.289200
5.255300 1.301200
5.276900 1.313600
5.298400 1.324800
5.320000 1.332300
5.341500 1.336600
5.363000 1.338400
5.384600 1.373300
5.406100 1.395000
5.427700 1.377500
5.449200 1.367900
5.470700 1.364200
5.492300 1.361600
5.513800 1.360400
5.535400 1.365100
5.556900 1.374900
5.578400 1.380300
5.600000 1.257100
5.621500 1.269800
5.643100 1.264500
5.664600 1.262200
5.686200 1.255800
5.707700 1.250200
5.729200 1.260700
5.750800 1.288600
5.772300 1.312300
5.793900 1.320600
5.815400 1.335300
5.836900 1.346000
5.858500 1.353500
5.880000 1.361400
5.901600 1.373800
5.923100 1.393500
5.944600 1.417600
5.966200 1.461400
5.987700 1.520400
6.009300 1.587000
6.030800 1.660100
6.052400 1.733500
6.073900 1.782100
6.095400 1.830100
6.117000 1.881300
6.138500 1.924600
6.160100 1.967400
6.181600 2.015300
6.203100 2.050100
6.224700 2.072500
6.246200 2.104300
6.267800 2.179700
6.289300 2.265100
6.310800 2.384800
6.332400 2.537200
6.353900 2.556000
6.375500 2.577100
6.397000 2.566600
6.418600 2.769900
6.440100 2.877600
6.461600 2.675100
6.483200 2.678600
6.504700 2.736300
6.526300 2.792800
6.547800 2.817400
6.569300 2.850700
6.590900 2.833500
6.612400 2.747700
6.634000 2.619100
6.655500 2.522100
6.677000 2.450900
6.698600 2.417000
6.720100 2.424000
6.741700 2.412600
6.763200 2.380300
6.784700 2.348500
6.806300 2.340400
6.827800 2.349800
6.849400 2.348600
6.870900 2.381900
6.892500 2.477200
6.914000 2.565500
6.935500 2.573100
6.957100 2.545700
6.978600 2.494200
7.000200 2.420400
7.021700 2.361700
7.043200 2.311100
7.064800 2.267600
7.086300 2.205500
7.107900 2.092900
7.129400 1.988200
7.150900 1.926500
7.172500 1.911700
7.194000 1.904500
7.215600 1.922800
7.237100 1.947300
7.258700 1.970100
7.280200 1.998600
7.301700 2.034600
7.323300 2.078900
7.344800 2.137500
7.366400 2.241300
7.387900 2.331600
7.409400 2.420300
7.431000 2.500200
7.452500 2.565500
7.474100 2.615100
7.495600 2.612000
7.517100 2.535200
7.538700 2.456000
7.560200 2.393800
7.581800 2.318100
7.603300 2.248600
7.624900 2.114500
7.646400 1.885700
7.667900 1.699600
7.689500 1.616000
7.711000 1.549500
7.732600 1.486600
7.754100 1.426700
7.775600 1.370000
7.797200 1.316600
7.818700 1.266800
7.840300 1.219900
7.861800 1.180600
7.883300 1.226000
7.904900 1.267300
7.926400 1.282800
7.948000 1.255300
7.969500 1.220900
7.991000 1.191300
8.012600 1.170500
8.034100 1.111500
8.055700 1.087900
8.077200 1.113700
8.098800 1.039300
8.120300 1.063800
8.141800 1.090000
8.163400 1.116900
8.184900 1.164000
8.206500 1.225100
8.228000 1.307000
8.249500 1.406000
8.271100 1.489200
8.292600 1.576200
8.314200 1.676000
8.335700 1.755400
8.357200 1.820700
8.378800 1.865600
8.400300 1.905600
8.421900 1.940100
8.443400 1.967000
8.465000 1.997600
8.486500 2.034700
8.508000 2.081500
8.529600 2.130000
8.551100 2.166200
8.572700 2.245500
8.594200 2.271900
8.615700 2.332700
8.637300 2.406400
8.658800 2.409400
8.680400 2.390700
8.701900 2.423500
8.723400 2.447600
8.745000 2.452300
8.766500 2.476400
8.788100 2.550100
8.809600 2.601600
8.831200 2.584200
8.852700 2.518900
8.874200 2.476200
8.895800 2.436600
8.917300 2.335900
8.938900 2.417700
8.960400 2.278800
8.981900 2.209700
9.003500 2.155100
9.025000 2.131800
9.046600 2.152500
9.068100 2.181100
9.089600 2.219000
9.111200 2.264400
9.132700 2.336700
9.154300 2.400800
9.175800 2.428400
9.197300 2.450500
9.218900 2.491100
9.240400 2.471800
9.262000 2.404000
9.283500 2.380800
9.305100 2.379600
9.326600 2.388300
9.348100 2.379800
9.369700 2.372500
9.391200 2.368300
9.412800 2.374200
9.434300 2.435300
9.455800 2.509200
9.477400 2.590200
9.498900 2.658000
9.520500 2.707800
9.542000 2.748900
9.563500 2.790300
9.585100 2.822500
9.606600 2.894100
9.628200 2.942100
9.649700 2.886200
9.671300 2.867400
9.692800 2.876200
9.714300 2.884600
9.735900 2.877700
