set title 'mp-28229 - Density of States'
set xlabel 'Energy (eV)'
set ylabel 'DOS (states/eV)'
set grid
set xrange [-10:10]
set yrange [0:12.202]
set xzeroaxis lt -1
set terminal png size 800,600
set output 'mp-28229_dos_gnuplot.png'
plot '-' using 1:2 with lines title 'DOS'
-9.248700 0.000000
-9.235100 0.000000
-9.221500 0.000000
-9.207900 0.000000
-9.194200 0.000000
-9.180600 0.000000
-9.167000 0.000000
-9.153400 0.000000
-9.139800 0.000000
-9.126100 0.000000
-9.112500 0.000000
-9.098900 0.000000
-9.085300 0.000000
-9.071600 0.000000
-9.058000 0.000000
-9.044400 0.000000
-9.030800 0.000000
-9.017200 0.000000
-9.003500 0.000000
-8.989900 0.000000
-8.976300 0.000000
-8.962700 0.000000
-8.949100 0.000000
-8.935400 0.000000
-8.921800 0.000000
-8.908200 0.000000
-8.894600 0.000000
-8.881000 0.000000
-8.867300 0.000000
-8.853700 0.000000
-8.840100 0.000000
-8.826500 0.000000
-8.812900 0.000000
-8.799200 0.000000
-8.785600 0.000000
-8.772000 0.000000
-8.758400 0.000000
-8.744800 0.000000
-8.731100 0.000000
-8.717500 0.000000
-8.703900 0.000000
-8.690300 0.000000
-8.676700 0.000000
-8.663000 0.000000
-8.649400 0.000000
-8.635800 0.000000
-8.622200 0.000000
-8.608500 0.000000
-8.594900 0.000000
-8.581300 0.000000
-8.567700 0.000000
-8.554100 0.000000
-8.540400 0.000000
-8.526800 0.000000
-8.513200 0.000000
-8.499600 0.000000
-8.486000 0.000000
-8.472300 0.000000
-8.458700 0.000000
-8.445100 0.000000
-8.431500 0.000000
-8.417900 0.000000
-8.404200 0.000000
-8.390600 0.000000
-8.377000 0.000000
-8.363400 0.000000
-8.349800 0.000000
-8.336100 0.000000
-8.322500 0.000000
-8.308900 0.000000
-8.295300 0.000000
-8.281700 0.000000
-8.268000 0.000000
-8.254400 0.000000
-8.240800 0.000000
-8.227200 0.000000
-8.213600 0.000000
-8.199900 0.000000
-8.186300 0.000000
-8.172700 0.000000
-8.159100 0.000000
-8.145400 0.000000
-8.131800 0.000000
-8.118200 0.000000
-8.104600 0.000000
-8.091000 0.000000
-8.077300 0.000000
-8.063700 0.000000
-8.050100 0.000000
-8.036500 0.000000
-8.022900 0.000000
-8.009200 0.000600
-7.995600 0.053500
-7.982000 0.168200
-7.968400 0.296000
-7.954800 0.423800
-7.941100 0.551600
-7.927500 0.679400
-7.913900 0.807200
-7.900300 0.935100
-7.886700 1.062900
-7.873000 1.190700
-7.859400 1.318500
-7.845800 1.278400
-7.832200 0.986800
-7.818600 0.794900
-7.804900 0.806600
-7.791300 0.818400
-7.777700 0.830200
-7.764100 0.842000
-7.750500 0.853800
-7.736800 0.865600
-7.723200 0.877400
-7.709600 0.889200
-7.696000 0.901000
-7.682400 0.912700
-7.668700 0.924500
-7.655100 0.936300
-7.641500 0.948100
-7.627900 0.959900
-7.614200 0.976100
-7.600600 1.024400
-7.587000 1.094700
-7.573400 1.182800
-7.559800 1.287300
-7.546100 1.414000
-7.532500 1.569000
-7.518900 1.718200
-7.505300 1.855800
-7.491700 1.992100
-7.478000 2.128500
-7.464400 2.199300
-7.450800 2.134200
-7.437200 2.121700
-7.423600 2.097900
-7.409900 2.043800
-7.396300 1.891800
-7.382700 1.849900
-7.369100 1.859700
-7.355500 1.879100
-7.341800 1.900100
-7.328200 1.921000
-7.314600 1.942000
-7.301000 1.962900
-7.287400 1.983900
-7.273700 2.004800
-7.260100 2.025700
-7.246500 2.046700
-7.232900 2.067600
-7.219300 2.088600
-7.205600 2.109500
-7.192000 2.130500
-7.178400 2.151400
-7.164800 2.170300
-7.151100 2.184000
-7.137500 2.193900
-7.123900 2.200600
-7.110300 2.202100
-7.096700 2.201000
-7.083000 2.199900
-7.069400 2.198800
-7.055800 2.197700
-7.042200 2.196600
-7.028600 2.196800
-7.014900 2.201800
-7.001300 2.210000
-6.987700 2.221800
-6.974100 2.246800
-6.960500 2.293700
-6.946800 2.356700
-6.933200 2.405000
-6.919600 2.475600
-6.906000 2.570900
-6.892400 2.675300
-6.878700 2.790000
-6.865100 2.915100
-6.851500 3.050700
-6.837900 3.210300
-6.824300 3.313000
-6.810600 3.348500
-6.797000 3.414500
-6.783400 3.479300
-6.769800 3.539700
-6.756200 3.593800
-6.742500 3.638700
-6.728900 3.674000
-6.715300 3.684700
-6.701700 3.645100
-6.688000 4.217600
-6.674400 4.201100
-6.660800 4.184700
-6.647200 4.169600
-6.633600 4.174100
-6.619900 4.196800
-6.606300 4.243800
-6.592700 4.292600
-6.579100 4.341500
-6.565500 4.390400
-6.551800 4.439300
-6.538200 4.488300
-6.524600 4.536800
-6.511000 4.582100
-6.497400 4.624400
-6.483700 5.072500
-6.470100 5.949500
-6.456500 5.706700
-6.442900 5.462400
-6.429300 5.216600
-6.415600 4.969200
-6.402000 4.718800
-6.388400 4.468200
-6.374800 4.219900
-6.361200 3.973500
-6.347500 3.728700
-6.333900 3.485400
-6.320300 3.243600
-6.306700 4.669600
-6.293100 8.221300
-6.279400 2.294300
-6.265800 2.322800
-6.252200 2.351200
-6.238600 2.379700
-6.224900 2.408300
-6.211300 2.436800
-6.197700 2.465300
-6.184100 2.493900
-6.170500 2.522400
-6.156800 2.551000
-6.143200 2.579500
-6.129600 2.608100
-6.116000 2.717300
-6.102400 1.339000
-6.088700 1.354000
-6.075100 1.369100
-6.061500 1.384200
-6.047900 1.399300
-6.034300 1.414400
-6.020600 1.429500
-6.007000 1.496600
-5.993400 1.710200
-5.979800 1.978600
-5.966200 2.308300
-5.952500 2.718200
-5.938900 3.202900
-5.925300 3.650600
-5.911700 4.349600
-5.898100 5.196700
-5.884400 6.106500
-5.870800 7.124700
-5.857200 9.127400
-5.843600 8.369500
-5.830000 5.395100
-5.816300 4.665600
-5.802700 4.342500
-5.789100 4.208300
-5.775500 4.223200
-5.761800 4.252800
-5.748200 4.510500
-5.734600 4.874800
-5.721000 5.451200
-5.707400 6.132500
-5.693700 7.155900
-5.680100 8.385500
-5.666500 9.095200
-5.652900 9.677400
-5.639300 9.984200
-5.625600 10.174100
-5.612000 10.329200
-5.598400 7.390900
-5.584800 6.728400
-5.571200 6.272500
-5.557500 6.360800
-5.543900 6.814000
-5.530300 7.491100
-5.516700 8.302200
-5.503100 0.358500
-5.489400 0.000000
-5.475800 0.000000
-5.462200 0.000000
-5.448600 0.000000
-5.435000 0.000000
-5.421300 0.265800
-5.407700 0.816100
-5.394100 1.598800
-5.380500 4.638400
-5.366900 5.254800
-5.353200 2.985800
-5.339600 2.094200
-5.326000 2.193500
-5.312400 8.749300
-5.298800 3.797300
-5.285100 4.183700
-5.271500 4.578600
-5.257900 4.201100
-5.244300 3.984600
-5.230600 3.870300
-5.217000 3.754300
-5.203400 3.625000
-5.189800 3.482100
-5.176200 3.216400
-5.162500 3.166800
-5.148900 3.117700
-5.135300 3.069300
-5.121700 3.021600
-5.108100 2.974400
-5.094400 2.927900
-5.080800 2.882000
-5.067200 2.836500
-5.053600 2.784900
-5.040000 2.740400
-5.026300 2.704800
-5.012700 2.704200
-4.999100 2.756500
-4.985500 2.844500
-4.971900 2.939400
-4.958200 3.034500
-4.944600 3.130000
-4.931000 3.225700
-4.917400 3.321800
-4.903800 3.418100
-4.890100 3.514800
-4.876500 3.611700
-4.862900 3.708900
-4.849300 3.806500
-4.835700 3.904300
-4.822000 4.002400
-4.808400 4.100800
-4.794800 4.003600
-4.781200 3.829800
-4.767500 3.716500
-4.753900 3.596200
-4.740300 3.407000
-4.726700 3.241900
-4.713100 3.176300
-4.699400 3.119900
-4.685800 3.077700
-4.672200 3.055000
-4.658600 3.063900
-4.645000 4.503300
-4.631300 4.463100
-4.617700 4.407600
-4.604100 4.618400
-4.590500 4.830900
-4.576900 4.325900
-4.563200 4.094200
-4.549600 3.854100
-4.536000 3.612700
-4.522400 3.428800
-4.508800 3.272000
-4.495100 3.136300
-4.481500 3.107500
-4.467900 3.132000
-4.454300 3.156300
-4.440700 3.180400
-4.427000 3.204300
-4.413400 3.226600
-4.399800 3.245000
-4.386200 3.266900
-4.372600 3.299800
-4.358900 3.347400
-4.345300 3.429700
-4.331700 3.524000
-4.318100 3.476000
-4.304400 3.432100
-4.290800 3.392200
-4.277200 3.356400
-4.263600 3.359400
-4.250000 3.439600
-4.236300 3.492700
-4.222700 2.967200
-4.209100 2.594300
-4.195500 2.543300
-4.181900 2.494500
-4.168200 2.448100
-4.154600 2.404400
-4.141000 2.364400
-4.127400 2.325700
-4.113800 2.286600
-4.100100 2.247300
-4.086500 2.201400
-4.072900 2.141800
-4.059300 2.121300
-4.045700 2.107600
-4.032000 2.092000
-4.018400 2.075700
-4.004800 2.058600
-3.991200 2.040900
-3.977600 2.022500
-3.963900 2.003500
-3.950300 1.984100
-3.936700 1.964600
-3.923100 1.945000
-3.909500 1.925500
-3.895800 1.906000
-3.882200 1.886500
-3.868600 1.867000
-3.855000 1.847500
-3.841300 1.828000
-3.827700 1.808600
-3.814100 1.789100
-3.800500 1.878100
-3.786900 1.923700
-3.773200 1.909800
-3.759600 1.881900
-3.746000 1.844100
-3.732400 1.796300
-3.718800 1.738600
-3.705100 1.671400
-3.691500 1.605700
-3.677900 1.547000
-3.664300 1.516500
-3.650700 1.485500
-3.637000 1.454000
-3.623400 1.423100
-3.609800 1.393700
-3.596200 1.365700
-3.582600 1.337100
-3.568900 1.308100
-3.555300 1.282000
-3.541700 1.261700
-3.528100 1.247100
-3.514500 1.237800
-3.500800 1.231200
-3.487200 1.226600
-3.473600 1.190400
-3.460000 1.148300
-3.446400 1.107200
-3.432700 1.068300
-3.419100 1.031200
-3.405500 0.995800
-3.391900 0.962200
-3.378300 0.930200
-3.364600 0.899900
-3.351000 0.871300
-3.337400 0.844300
-3.323800 0.819200
-3.310100 0.796100
-3.296500 0.775100
-3.282900 0.756300
-3.269300 0.739600
-3.255700 0.725000
-3.242000 0.712500
-3.228400 0.702200
-3.214800 0.693600
-3.201200 0.685100
-3.187600 0.676700
-3.173900 0.668200
-3.160300 0.659800
-3.146700 0.651300
-3.133100 0.642900
-3.119500 0.648500
-3.105800 0.705000
-3.092200 0.730500
-3.078600 0.735200
-3.065000 0.730200
-3.051400 0.720500
-3.037700 0.706400
-3.024100 0.688800
-3.010500 0.674900
-2.996900 0.661600
-2.983300 0.661600
-2.969600 0.634200
-2.956000 0.578500
-2.942400 0.523200
-2.928800 0.468900
-2.915200 0.418000
-2.901500 0.370900
-2.887900 0.327700
-2.874300 0.288300
-2.860700 0.252700
-2.847000 0.220200
-2.833400 0.189700
-2.819800 0.161100
-2.806200 0.134600
-2.792600 0.110000
-2.778900 0.087300
-2.765300 0.066700
-2.751700 0.048100
-2.738100 0.032000
-2.724500 0.018700
-2.710800 0.008300
-2.697200 0.000700
-2.683600 0.000000
-2.670000 0.000000
-2.656400 0.000000
-2.642700 0.000000
-2.629100 0.000000
-2.615500 0.000000
-2.601900 0.000000
-2.588300 0.000000
-2.574600 0.000000
-2.561000 0.000000
-2.547400 0.000000
-2.533800 0.000000
-2.520200 0.000000
-2.506500 0.000000
-2.492900 0.000000
-2.479300 0.000000
-2.465700 0.000000
-2.452100 0.000000
-2.438400 0.000000
-2.424800 0.000000
-2.411200 0.000000
-2.397600 0.000000
-2.383900 0.000000
-2.370300 0.000000
-2.356700 0.000000
-2.343100 0.000000
-2.329500 0.000000
-2.315800 0.000000
-2.302200 0.000000
-2.288600 0.000000
-2.275000 0.000000
-2.261400 0.000000
-2.247700 0.000000
-2.234100 0.000000
-2.220500 0.000000
-2.206900 0.000000
-2.193300 0.000000
-2.179600 0.000000
-2.166000 0.000000
-2.152400 0.000000
-2.138800 0.000000
-2.125200 0.000000
-2.111500 0.000000
-2.097900 0.000000
-2.084300 0.000000
-2.070700 0.000000
-2.057100 0.000000
-2.043400 0.000000
-2.029800 0.000000
-2.016200 0.000000
-2.002600 0.000000
-1.989000 0.000000
-1.975300 0.000000
-1.961700 0.000000
-1.948100 0.000000
-1.934500 0.000000
-1.920800 0.000000
-1.907200 0.000000
-1.893600 0.000000
-1.880000 0.000000
-1.866400 0.000000
-1.852700 0.000000
-1.839100 0.000000
-1.825500 0.000000
-1.811900 0.000000
-1.798300 0.000000
-1.784600 0.000000
-1.771000 0.000000
-1.757400 0.000000
-1.743800 0.000000
-1.730200 0.000000
-1.716500 0.000000
-1.702900 0.000000
-1.689300 0.000000
-1.675700 0.000000
-1.662100 0.000000
-1.648400 0.000000
-1.634800 0.000000
-1.621200 0.000000
-1.607600 0.000000
-1.594000 0.000000
-1.580300 0.000000
-1.566700 0.000000
-1.553100 0.000000
-1.539500 0.000000
-1.525900 0.000000
-1.512200 0.000000
-1.498600 0.000000
-1.485000 0.000000
-1.471400 0.000000
-1.457700 0.000000
-1.444100 0.000000
-1.430500 0.000000
-1.416900 0.000000
-1.403300 0.000000
-1.389600 0.000000
-1.376000 0.000000
-1.362400 0.000000
-1.348800 0.000000
-1.335200 0.000000
-1.321500 0.000000
-1.307900 0.000000
-1.294300 0.000000
-1.280700 0.000000
-1.267100 0.000000
-1.253400 0.000000
-1.239800 0.000000
-1.226200 0.000000
-1.212600 0.000000
-1.199000 0.000000
-1.185300 0.000000
-1.171700 0.000000
-1.158100 0.000000
-1.144500 0.000000
-1.130900 0.000000
-1.117200 0.000000
-1.103600 0.000000
-1.090000 0.000000
-1.076400 0.000000
-1.062800 0.000000
-1.049100 0.000000
-1.035500 0.000000
-1.021900 0.000000
-1.008300 0.000000
-0.994700 0.000000
-0.981000 0.000000
-0.967400 0.000000
-0.953800 0.000000
-0.940200 0.000000
-0.926500 0.000000
-0.912900 0.000000
-0.899300 0.000000
-0.885700 0.000000
-0.872100 0.000000
-0.858400 0.000000
-0.844800 0.000000
-0.831200 0.000000
-0.817600 0.000000
-0.804000 0.000000
-0.790300 0.000000
-0.776700 0.000000
-0.763100 0.000000
-0.749500 0.000000
-0.735900 0.000000
-0.722200 0.000000
-0.708600 0.000000
-0.695000 0.000000
-0.681400 0.000000
-0.667800 0.000000
-0.654100 0.000000
-0.640500 0.000000
-0.626900 0.000000
-0.613300 0.000000
-0.599700 0.000000
-0.586000 0.000000
-0.572400 0.000000
-0.558800 0.000000
-0.545200 0.000000
-0.531600 0.000000
-0.517900 0.000000
-0.504300 0.000000
-0.490700 0.000000
-0.477100 0.000000
-0.463400 0.000000
-0.449800 0.000000
-0.436200 0.000000
-0.422600 0.000000
-0.409000 0.000000
-0.395300 0.000000
-0.381700 0.000000
-0.368100 0.000000
-0.354500 0.000000
-0.340900 0.000000
-0.327200 0.000000
-0.313600 0.000000
-0.300000 0.000000
-0.286400 0.000000
-0.272800 0.000000
-0.259100 0.000000
-0.245500 0.000000
-0.231900 0.000000
-0.218300 0.000000
-0.204700 0.000000
-0.191000 0.000000
-0.177400 0.000000
-0.163800 0.000000
-0.150200 0.000000
-0.136600 0.000000
-0.122900 0.000000
-0.109300 0.000000
-0.095700 0.000000
-0.082100 0.000000
-0.068500 0.000000
-0.054800 0.000000
-0.041200 0.000000
-0.027600 0.000000
-0.014000 0.000000
-0.000300 0.000000
0.013300 0.000000
0.026900 0.000000
0.040500 0.000000
0.054100 0.000000
0.067800 0.000000
0.081400 0.000000
0.095000 0.000000
0.108600 0.000000
0.122200 0.000000
0.135900 0.000000
0.149500 0.000000
0.163100 0.000000
0.176700 0.000000
0.190300 0.125700
0.204000 0.977300
0.217600 2.626900
0.231200 2.106200
0.244800 2.438100
0.258400 2.526900
0.272100 2.239600
0.285700 1.856700
0.299300 1.816700
0.312900 1.871800
0.326500 1.956000
0.340200 2.040100
0.353800 2.124200
0.367400 2.208200
0.381000 2.292300
0.394600 2.376400
0.408300 2.460400
0.421900 2.544400
0.435500 2.628500
0.449100 2.712500
0.462800 2.796400
0.476400 2.880400
0.490000 2.964400
0.503600 3.048300
0.517200 4.698600
0.530900 4.786200
0.544500 4.553900
0.558100 4.887300
0.571700 3.083300
0.585300 3.197500
0.599000 1.729400
0.612600 1.088200
0.626200 1.072900
0.639800 1.057600
0.653400 1.042200
0.667100 1.026900
0.680700 1.306800
0.694300 2.144500
0.707900 2.571800
0.721500 2.198800
0.735200 1.657600
0.748800 1.650400
0.762400 1.664100
0.776000 1.678000
0.789600 1.693000
0.803300 1.710000
0.816900 1.728200
0.830500 1.746900
0.844100 1.765900
0.857700 1.785100
0.871400 1.804100
0.885000 1.823200
0.898600 1.842300
0.912200 1.861700
0.925800 1.881300
0.939500 1.920000
0.953100 1.995000
0.966700 2.115200
0.980300 2.401000
0.994000 2.866100
1.007600 3.132300
1.021200 3.244700
1.034800 3.297600
1.048400 3.352100
1.062100 3.408100
1.075700 3.465800
1.089300 3.525100
1.102900 3.587900
1.116500 3.711800
1.130200 3.929900
1.143800 4.474300
1.157400 5.217000
1.171000 5.723700
1.184600 5.993100
1.198300 6.009600
1.211900 6.011500
1.225500 6.011100
1.239100 6.024200
1.252700 6.217100
1.266400 6.560100
1.280000 5.876700
1.293600 5.033600
1.307200 4.600000
1.320800 4.657100
1.334500 4.902400
1.348100 5.118000
1.361700 5.304400
1.375300 5.460200
1.388900 5.585200
1.402600 5.780900
1.416200 5.923600
1.429800 5.952700
1.443400 5.658900
1.457100 5.414200
1.470700 5.242300
1.484300 5.115800
1.497900 5.046300
1.511500 5.021200
1.525200 5.016100
1.538800 5.038300
1.552400 5.101200
1.566000 5.178000
1.579600 5.288400
1.593300 5.504900
1.606900 5.701800
1.620500 5.857700
1.634100 5.855100
1.647700 5.891900
1.661400 5.915500
1.675000 5.916200
1.688600 5.873100
1.702200 5.844600
1.715800 5.947100
1.729500 6.083400
1.743100 6.225600
1.756700 6.374600
1.770300 6.527100
1.783900 6.475900
1.797600 6.390900
1.811200 6.330700
1.824800 6.459700
1.838400 6.574000
1.852000 6.680200
1.865700 6.721400
1.879300 6.390300
1.892900 6.372800
1.906500 6.331700
1.920200 6.264200
1.933800 6.322600
1.947400 6.939500
1.961000 6.241900
1.974600 6.167300
1.988300 6.150100
2.001900 6.279400
2.015500 6.386200
2.029100 6.435400
2.042700 6.442000
2.056400 6.347200
2.070000 6.047600
2.083600 5.795500
2.097200 5.613200
2.110800 5.542400
2.124500 5.449900
2.138100 5.362200
2.151700 5.511700
2.165300 5.752900
2.178900 5.972300
2.192600 6.150500
2.206200 6.285100
2.219800 6.209900
2.233400 6.158500
2.247000 6.156500
2.260700 6.189900
2.274300 6.258900
2.287900 6.688400
2.301500 6.810800
2.315100 6.093400
2.328800 6.410300
2.342400 5.705800
2.356000 5.604100
2.369600 5.569200
2.383300 5.556000
2.396900 5.579300
2.410500 5.603500
2.424100 5.627400
2.437700 5.681800
2.451400 5.759600
2.465000 5.847700
2.478600 5.946300
2.492200 6.055500
2.505800 6.170400
2.519500 6.279400
2.533100 6.375700
2.546700 6.523700
2.560300 6.712000
2.573900 7.046300
2.587600 7.347200
2.601200 7.576300
2.614800 7.745800
2.628400 7.661100
2.642000 7.410200
2.655700 7.327800
2.669300 7.265600
2.682900 7.189800
2.696500 7.094700
2.710100 6.854900
2.723800 6.654500
2.737400 6.464400
2.751000 6.315200
2.764600 6.184100
2.778200 6.058100
2.791900 5.935300
2.805500 5.803600
2.819100 5.661400
2.832700 5.553800
2.846400 5.492500
2.860000 6.420000
2.873600 5.552100
2.887200 5.338700
2.900800 5.169800
2.914500 5.752200
2.928100 6.249000
2.941700 6.135200
2.955300 6.029400
2.968900 6.213000
2.982600 6.502800
2.996200 6.862800
3.009800 7.227000
3.023400 7.559900
3.037000 7.853900
3.050700 7.809300
3.064300 7.309400
3.077900 6.776700
3.091500 7.142900
3.105100 6.913000
3.118800 6.190000
3.132400 5.774200
3.146000 5.395000
3.159600 5.029200
3.173200 4.673500
3.186900 4.324700
3.200500 4.106400
3.214100 4.064900
3.227700 4.023800
3.241300 3.996200
3.255000 4.108100
3.268600 4.550900
3.282200 4.940900
3.295800 4.730800
3.309400 5.081100
3.323100 5.453300
3.336700 5.801800
3.350300 6.036300
3.363900 6.119700
3.377600 5.903100
3.391200 5.571500
3.404800 5.273700
3.418400 5.019400
3.432000 4.803300
3.445700 4.636200
3.459300 4.509600
3.472900 4.425800
3.486500 4.388600
3.500100 4.378700
3.513800 4.502500
3.527400 4.540900
3.541000 4.589200
3.554600 4.643300
3.568200 4.736900
3.581900 4.948900
3.595500 5.334600
3.609100 5.619400
3.622700 5.690400
3.636300 5.781400
3.650000 5.889200
3.663600 6.001300
3.677200 6.086700
3.690800 6.141300
3.704400 6.200700
3.718100 6.424000
3.731700 6.645800
3.745300 6.646200
3.758900 6.624700
3.772500 6.655200
3.786200 6.817900
3.799800 7.110400
3.813400 7.563000
3.827000 8.474100
3.840700 8.442100
3.854300 9.887000
3.867900 11.092400
3.881500 9.179100
3.895100 7.814300
3.908800 7.029400
3.922400 6.237200
3.936000 5.114900
3.949600 4.918700
3.963200 4.870100
3.976900 4.848500
3.990500 4.730400
4.004100 4.611100
4.017700 4.596200
4.031300 4.662600
4.045000 4.819000
4.058600 4.929000
4.072200 4.976400
4.085800 4.967800
4.099400 5.006500
4.113100 5.226500
4.126700 5.470400
4.140300 5.728700
4.153900 6.012400
4.167500 6.196200
4.181200 6.580700
4.194800 7.011800
4.208400 7.458600
4.222000 7.878300
4.235600 8.176900
4.249300 8.356000
4.262900 8.305200
4.276500 8.086300
4.290100 7.733200
4.303800 7.255400
4.317400 6.649300
4.331000 6.105700
4.344600 5.638200
4.358200 5.587300
4.371900 5.732800
4.385500 5.884600
4.399100 6.008000
4.412700 6.077400
4.426300 6.069900
4.440000 5.985400
4.453600 5.824200
4.467200 5.587000
4.480800 5.285300
4.494400 4.967000
4.508100 4.701900
4.521700 4.491100
4.535300 4.305900
4.548900 4.167600
4.562500 4.067200
4.576200 3.915300
4.589800 3.754700
4.603400 3.691000
4.617000 3.650000
4.630600 3.608000
4.644300 3.562800
4.657900 3.520200
4.671500 3.501300
4.685100 3.466100
4.698700 3.424700
4.712400 3.471200
4.726000 3.359300
4.739600 3.097900
4.753200 2.700600
4.766900 2.235500
4.780500 1.809000
4.794100 1.512600
4.807700 1.351500
4.821300 1.269000
4.835000 1.223600
4.848600 1.184300
4.862200 1.151800
4.875800 1.198700
4.889400 1.376200
4.903100 1.607400
4.916700 1.608500
4.930300 1.530000
4.943900 1.775500
4.957500 2.385000
4.971200 3.430400
4.984800 3.307800
4.998400 2.651100
5.012000 1.966400
5.025600 1.427300
5.039300 1.167700
5.052900 0.985000
5.066500 0.838400
5.080100 0.728700
5.093700 0.655000
5.107400 0.590800
5.121000 0.525200
5.134600 0.458000
