set title 'mp-66 - Density of States'
set xlabel 'Energy (eV)'
set ylabel 'DOS (states/eV)'
set grid
set xrange [-10:10]
set yrange [0:0.901]
set xzeroaxis lt -1
set terminal png size 800,600
set output 'mp-66_dos_gnuplot.png'
plot '-' using 1:2 with lines title 'DOS'
-14.521300 0.000000
-14.490600 0.000000
-14.459800 0.000000
-14.429000 0.000000
-14.398300 0.000000
-14.367500 0.000000
-14.336700 0.000000
-14.306000 0.000000
-14.275200 0.000000
-14.244400 0.000000
-14.213700 0.000000
-14.182900 0.000000
-14.152100 0.000000
-14.121400 0.000000
-14.090600 0.000000
-14.059800 0.000000
-14.029100 0.000000
-13.998300 0.000000
-13.967500 0.000000
-13.936800 0.000000
-13.906000 0.000000
-13.875200 0.000000
-13.844500 0.000000
-13.813700 0.000000
-13.782900 0.000000
-13.752200 0.000000
-13.721400 0.000000
-13.690600 0.000000
-13.659900 0.000000
-13.629100 0.000000
-13.598300 0.000000
-13.567600 0.000000
-13.536800 0.000000
-13.506000 0.000000
-13.475300 0.000000
-13.444500 0.000000
-13.413700 0.000000
-13.383000 0.000000
-13.352200 0.000000
-13.321400 0.000000
-13.290700 0.000000
-13.259900 0.000000
-13.229100 0.000000
-13.198400 0.000000
-13.167600 0.000000
-13.136800 0.000000
-13.106100 0.000000
-13.075300 0.000000
-13.044500 0.000000
-13.013800 0.000000
-12.983000 0.000000
-12.952300 0.000000
-12.921500 0.000000
-12.890700 0.000000
-12.860000 0.000000
-12.829200 0.000000
-12.798400 0.000000
-12.767700 0.000000
-12.736900 0.000000
-12.706100 0.000000
-12.675400 0.000000
-12.644600 0.000000
-12.613800 0.000000
-12.583100 0.000000
-12.552300 0.000000
-12.521500 0.000000
-12.490800 0.000000
-12.460000 0.000000
-12.429200 0.000000
-12.398500 0.000000
-12.367700 0.000000
-12.336900 0.000000
-12.306200 0.000000
-12.275400 0.000000
-12.244600 0.000000
-12.213900 0.000000
-12.183100 0.000000
-12.152300 0.000000
-12.121600 0.000000
-12.090800 0.000000
-12.060000 0.000000
-12.029300 0.000000
-11.998500 0.000000
-11.967700 0.000000
-11.937000 0.000000
-11.906200 0.000000
-11.875400 0.000000
-11.844700 0.000000
-11.813900 0.000000
-11.783100 0.000000
-11.752400 0.000000
-11.721600 0.000100
-11.690800 0.019000
-11.660100 0.024200
-11.629300 0.032600
-11.598500 0.039100
-11.567800 0.041800
-11.537000 0.046600
-11.506200 0.051600
-11.475500 0.055400
-11.444700 0.058300
-11.413900 0.061000
-11.383200 0.064100
-11.352400 0.067700
-11.321600 0.071400
-11.290900 0.074000
-11.260100 0.075900
-11.229300 0.078300
-11.198600 0.080700
-11.167800 0.083200
-11.137000 0.085900
-11.106300 0.088700
-11.075500 0.091100
-11.044700 0.092900
-11.014000 0.094700
-10.983200 0.096500
-10.952400 0.098700
-10.921700 0.100800
-10.890900 0.102900
-10.860100 0.105100
-10.829400 0.107400
-10.798600 0.109500
-10.767900 0.110900
-10.737100 0.112500
-10.706300 0.114200
-10.675600 0.115800
-10.644800 0.117600
-10.614000 0.119400
-10.583300 0.121200
-10.552500 0.123100
-10.521700 0.125000
-10.491000 0.127000
-10.460200 0.128400
-10.429400 0.129800
-10.398700 0.131200
-10.367900 0.132700
-10.337100 0.134300
-10.306400 0.135800
-10.275600 0.137300
-10.244800 0.138900
-10.214100 0.140600
-10.183300 0.142200
-10.152500 0.143900
-10.121800 0.145600
-10.091000 0.147000
-10.060200 0.148200
-10.029500 0.149600
-9.998700 0.150900
-9.967900 0.152200
-9.937200 0.153600
-9.906400 0.155000
-9.875600 0.156500
-9.844900 0.157900
-9.814100 0.159300
-9.783300 0.160800
-9.752600 0.162300
-9.721800 0.163900
-9.691000 0.165400
-9.660300 0.166600
-9.629500 0.167800
-9.598700 0.169000
-9.568000 0.170200
-9.537200 0.171500
-9.506400 0.172700
-9.475700 0.174000
-9.444900 0.175300
-9.414100 0.176700
-9.383400 0.178000
-9.352600 0.179400
-9.321800 0.180800
-9.291100 0.182100
-9.260300 0.183500
-9.229500 0.184900
-9.198800 0.186100
-9.168000 0.187200
-9.137200 0.188400
-9.106500 0.189600
-9.075700 0.190800
-9.044900 0.192000
-9.014200 0.193200
-8.983400 0.194400
-8.952600 0.195700
-8.921900 0.196900
-8.891100 0.198200
-8.860300 0.199500
-8.829600 0.200800
-8.798800 0.202100
-8.768000 0.203400
-8.737300 0.204700
-8.706500 0.205900
-8.675800 0.207100
-8.645000 0.208200
-8.614200 0.209400
-8.583500 0.210500
-8.552700 0.211700
-8.521900 0.212900
-8.491200 0.214100
-8.460400 0.215300
-8.429600 0.216500
-8.398900 0.217700
-8.368100 0.219000
-8.337300 0.220200
-8.306600 0.221400
-8.275800 0.222700
-8.245000 0.224000
-8.214300 0.225300
-8.183500 0.226600
-8.152700 0.227800
-8.122000 0.229000
-8.091200 0.230100
-8.060400 0.231300
-8.029700 0.232500
-7.998900 0.233700
-7.968100 0.234900
-7.937400 0.236100
-7.906600 0.237300
-7.875800 0.238600
-7.845100 0.239800
-7.814300 0.241100
-7.783500 0.242400
-7.752800 0.243600
-7.722000 0.244900
-7.691200 0.246200
-7.660500 0.247500
-7.629700 0.248900
-7.598900 0.250200
-7.568200 0.251500
-7.537400 0.252800
-7.506600 0.254100
-7.475900 0.255300
-7.445100 0.256700
-7.414300 0.258000
-7.383600 0.259300
-7.352800 0.260600
-7.322000 0.262000
-7.291300 0.263400
-7.260500 0.264800
-7.229700 0.266200
-7.199000 0.267600
-7.168200 0.269000
-7.137400 0.270500
-7.106700 0.272000
-7.075900 0.273500
-7.045100 0.275000
-7.014400 0.276600
-6.983600 0.278100
-6.952800 0.279700
-6.922100 0.281300
-6.891300 0.282900
-6.860500 0.284600
-6.829800 0.286200
-6.799000 0.287900
-6.768200 0.289700
-6.737500 0.291500
-6.706700 0.293300
-6.675900 0.295100
-6.645200 0.297100
-6.614400 0.299100
-6.583600 0.301200
-6.552900 0.303300
-6.522100 0.305500
-6.491400 0.307800
-6.460600 0.310200
-6.429800 0.312700
-6.399100 0.315300
-6.368300 0.318000
-6.337500 0.320800
-6.306800 0.323800
-6.276000 0.327100
-6.245200 0.330700
-6.214500 0.334600
-6.183700 0.338900
-6.152900 0.343900
-6.122200 0.349800
-6.091400 0.356700
-6.060600 0.367000
-6.029900 0.377600
-5.999100 0.384400
-5.968300 0.426200
-5.937600 0.390200
-5.906800 0.384200
-5.876000 0.380500
-5.845300 0.380600
-5.814500 0.388500
-5.783700 0.378900
-5.753000 0.383800
-5.722200 0.380700
-5.691400 0.373200
-5.660700 0.368000
-5.629900 0.364600
-5.599100 0.361600
-5.568400 0.359500
-5.537600 0.359000
-5.506800 0.359800
-5.476100 0.360500
-5.445300 0.357600
-5.414500 0.352800
-5.383800 0.352300
-5.353000 0.350500
-5.322200 0.348400
-5.291500 0.346000
-5.260700 0.342300
-5.229900 0.337600
-5.199200 0.333900
-5.168400 0.331100
-5.137600 0.329200
-5.106900 0.327500
-5.076100 0.326400
-5.045300 0.324900
-5.014600 0.322500
-4.983800 0.321000
-4.953000 0.320400
-4.922300 0.318100
-4.891500 0.313200
-4.860700 0.311400
-4.830000 0.309600
-4.799200 0.307700
-4.768400 0.305700
-4.737700 0.303700
-4.706900 0.301200
-4.676100 0.298500
-4.645400 0.295200
-4.614600 0.291700
-4.583800 0.288800
-4.553100 0.286400
-4.522300 0.284300
-4.491500 0.282600
-4.460800 0.281000
-4.430000 0.278900
-4.399300 0.276600
-4.368500 0.274900
-4.337700 0.273400
-4.307000 0.271500
-4.276200 0.269100
-4.245400 0.266200
-4.214700 0.261600
-4.183900 0.259400
-4.153100 0.257200
-4.122400 0.255100
-4.091600 0.252900
-4.060800 0.250800
-4.030100 0.248500
-3.999300 0.246000
-3.968500 0.243500
-3.937800 0.241100
-3.907000 0.238800
-3.876200 0.236100
-3.845500 0.233300
-3.814700 0.230700
-3.783900 0.228500
-3.753200 0.226200
-3.722400 0.224200
-3.691600 0.221800
-3.660900 0.219400
-3.630100 0.217200
-3.599300 0.215200
-3.568600 0.231900
-3.537800 0.240300
-3.507000 0.243800
-3.476300 0.255400
-3.445500 0.271200
-3.414700 0.281100
-3.384000 0.267100
-3.353200 0.272000
-3.322400 0.278100
-3.291700 0.287400
-3.260900 0.294800
-3.230100 0.307200
-3.199400 0.305500
-3.168600 0.297200
-3.137800 0.288300
-3.107100 0.282100
-3.076300 0.273300
-3.045500 0.261300
-3.014800 0.251400
-2.984000 0.246300
-2.953200 0.240500
-2.922500 0.229200
-2.891700 0.225000
-2.860900 0.224200
-2.830200 0.224300
-2.799400 0.223300
-2.768600 0.221700
-2.737900 0.224200
-2.707100 0.228600
-2.676300 0.234800
-2.645600 0.243800
-2.614800 0.249000
-2.584000 0.252200
-2.553300 0.242800
-2.522500 0.250200
-2.491700 0.261400
-2.461000 0.271300
-2.430200 0.279700
-2.399400 0.289300
-2.368700 0.300000
-2.337900 0.309100
-2.307100 0.318700
-2.276400 0.329000
-2.245600 0.339200
-2.214900 0.351500
-2.184100 0.365700
-2.153300 0.379600
-2.122600 0.398000
-2.091800 0.415800
-2.061000 0.436600
-2.030300 0.458300
-1.999500 0.492200
-1.968700 0.509100
-1.938000 0.523500
-1.907200 0.544400
-1.876400 0.583300
-1.845700 0.643300
-1.814900 0.695000
-1.784100 0.700900
-1.753400 0.688400
-1.722600 0.696400
-1.691800 0.708800
-1.661100 0.709100
-1.630300 0.635500
-1.599500 0.590900
-1.568800 0.557100
-1.538000 0.534600
-1.507200 0.517000
-1.476500 0.503500
-1.445700 0.491700
-1.414900 0.480700
-1.384200 0.470300
-1.353400 0.460400
-1.322600 0.449000
-1.291900 0.438500
-1.261100 0.426500
-1.230300 0.417600
-1.199600 0.411000
-1.168800 0.406000
-1.138000 0.401600
-1.107300 0.397200
-1.076500 0.392800
-1.045700 0.388400
-1.015000 0.384000
-0.984200 0.379400
-0.953400 0.374000
-0.922700 0.367600
-0.891900 0.361200
-0.861100 0.354300
-0.830400 0.348200
-0.799600 0.343900
-0.768800 0.341000
-0.738100 0.338500
-0.707300 0.335900
-0.676500 0.333200
-0.645800 0.330600
-0.615000 0.327800
-0.584200 0.325100
-0.553500 0.322300
-0.522700 0.319400
-0.491900 0.315100
-0.461200 0.310700
-0.430400 0.303800
-0.399600 0.299200
-0.368900 0.295500
-0.338100 0.292700
-0.307300 0.290600
-0.276600 0.288800
-0.245800 0.287100
-0.215000 0.285400
-0.184300 0.283500
-0.153500 0.281600
-0.122800 0.279600
-0.092000 0.277400
-0.061200 0.275100
-0.030500 0.272600
0.000300 0.269400
0.031100 0.265400
0.061800 0.261100
0.092600 0.256800
0.123400 0.253400
0.154100 0.251000
0.184900 0.249400
0.215700 0.248100
0.246400 0.246800
0.277200 0.245400
0.308000 0.250600
0.338700 0.271000
0.369500 0.298600
0.400300 0.297000
0.431000 0.311000
0.461800 0.388600
0.492600 0.338500
0.523300 0.348400
0.554100 0.355700
0.584900 0.358800
0.615600 0.367100
0.646400 0.378200
0.677200 0.389400
0.707900 0.409500
0.738700 0.411000
0.769500 0.416900
0.800200 0.425800
0.831000 0.436700
0.861800 0.449400
0.892500 0.460900
0.923300 0.474200
0.954100 0.496900
0.984800 0.540100
1.015600 0.549700
1.046400 0.546300
1.077100 0.546100
1.107900 0.544800
1.138700 0.543500
1.169400 0.545600
1.200200 0.538900
1.231000 0.535800
1.261700 0.531400
1.292500 0.518500
1.323300 0.515500
1.354000 0.512500
1.384800 0.509800
1.415600 0.507100
1.446300 0.505600
1.477100 0.505600
1.507900 0.506100
1.538600 0.510100
1.569400 0.518800
1.600200 0.510900
1.630900 0.505700
1.661700 0.504400
1.692500 0.502600
1.723200 0.522300
1.754000 0.509900
1.784800 0.508400
1.815500 0.510100
1.846300 0.510400
1.877100 0.511700
1.907800 0.518300
1.938600 0.521000
1.969400 0.517200
2.000100 0.523900
2.030900 0.526900
2.061600 0.525800
2.092400 0.529000
2.123200 0.532000
2.153900 0.535800
2.184700 0.538900
2.215500 0.539600
2.246200 0.544300
2.277000 0.547700
2.307800 0.546300
2.338500 0.546400
2.369300 0.548900
2.400100 0.550600
2.430800 0.555200
2.461600 0.559800
2.492400 0.564000
2.523100 0.564300
2.553900 0.571300
2.584700 0.565600
2.615400 0.570100
2.646200 0.577300
2.677000 0.585900
2.707700 0.591200
2.738500 0.588000
2.769300 0.595100
2.800000 0.602000
2.830800 0.602400
2.861600 0.603000
2.892300 0.606800
2.923100 0.611200
2.953900 0.625800
2.984600 0.629100
3.015400 0.639300
3.046200 0.641400
3.076900 0.648900
3.107700 0.654700
3.138500 0.666200
3.169200 0.670900
3.200000 0.666000
3.230800 0.671400
3.261500 0.679700
3.292300 0.706800
3.323100 0.729600
3.353800 0.759300
3.384600 0.772500
3.415400 0.809000
3.446100 0.803100
3.476900 0.818900
3.507700 0.798400
3.538400 0.797600
3.569200 0.803700
3.600000 0.797800
3.630700 0.794100
3.661500 0.795500
3.692300 0.792500
3.723000 0.791900
3.753800 0.787900
3.784600 0.786900
3.815300 0.783700
3.846100 0.781400
3.876900 0.780900
3.907600 0.780800
3.938400 0.778300
3.969200 0.776200
3.999900 0.774500
4.030700 0.773300
4.061500 0.771500
4.092200 0.769400
4.123000 0.767100
4.153700 0.764800
4.184500 0.762300
4.215300 0.759900
4.246000 0.757500
4.276800 0.755200
4.307600 0.753000
4.338300 0.751800
4.369100 0.750700
4.399900 0.751000
4.430600 0.753400
4.461400 0.753400
4.492200 0.752100
4.522900 0.749600
4.553700 0.747100
4.584500 0.743700
4.615200 0.740300
4.646000 0.737000
4.676800 0.733900
4.707500 0.731500
4.738300 0.729300
4.769100 0.727400
4.799800 0.725500
4.830600 0.723800
4.861400 0.722600
4.892100 0.722500
4.922900 0.722500
4.953700 0.721800
4.984400 0.720900
5.015200 0.720100
5.046000 0.719200
5.076700 0.718300
5.107500 0.716800
5.138300 0.715100
5.169000 0.713500
5.199800 0.711900
5.230600 0.710000
5.261300 0.708000
5.292100 0.705500
5.322900 0.702800
5.353600 0.700000
5.384400 0.697600
5.415200 0.696000
5.445900 0.693900
5.476700 0.692300
5.507500 0.691600
5.538200 0.690600
5.569000 0.689000
5.599800 0.687600
5.630500 0.686600
5.661300 0.685700
5.692100 0.685200
5.722800 0.684100
5.753600 0.683300
5.784400 0.682100
5.815100 0.680600
5.845900 0.679300
5.876700 0.677900
5.907400 0.676800
5.938200 0.675500
5.969000 0.673100
5.999700 0.671000
6.030500 0.668700
6.061300 0.666400
6.092000 0.663800
6.122800 0.661000
6.153600 0.658400
6.184300 0.657300
6.215100 0.655900
6.245900 0.653600
6.276600 0.651600
6.307400 0.650100
6.338100 0.648800
6.368900 0.648000
6.399700 0.647600
6.430400 0.647100
6.461200 0.648300
6.492000 0.648000
6.522700 0.647900
6.553500 0.646500
6.584300 0.644400
6.615000 0.641200
6.645800 0.637400
6.676600 0.633700
6.707300 0.630300
6.738100 0.633400
6.768900 0.638900
6.799600 0.637300
6.830400 0.629500
6.861200 0.614000
6.891900 0.576600
6.922700 0.546400
6.953500 0.521700
6.984200 0.505800
7.015000 0.489700
7.045800 0.474300
7.076500 0.463000
7.107300 0.454100
7.138100 0.444200
7.168800 0.433700
7.199600 0.423000
7.230400 0.413300
7.261100 0.404900
7.291900 0.397100
7.322700 0.389300
7.353400 0.381100
7.384200 0.372800
7.415000 0.364700
7.445700 0.357100
7.476500 0.350300
7.507300 0.343400
7.538000 0.337300
7.568800 0.331100
7.599600 0.324700
7.630300 0.319300
7.661100 0.312400
7.691900 0.305800
7.722600 0.299700
7.753400 0.294300
7.784200 0.289300
7.814900 0.284300
7.845700 0.279100
7.876500 0.273900
7.907200 0.268900
7.938000 0.263800
7.968800 0.258700
7.999500 0.253600
8.030300 0.248500
8.061100 0.243600
8.091800 0.239000
8.122600 0.234500
8.153400 0.230000
8.184100 0.225500
8.214900 0.221200
8.245700 0.216700
8.276400 0.211900
8.307200 0.208100
8.338000 0.204500
8.368700 0.199800
8.399500 0.195300
8.430200 0.190900
8.461000 0.186600
8.491800 0.182500
8.522500 0.178500
8.553300 0.174400
8.584100 0.170400
8.614800 0.166600
8.645600 0.162900
8.676400 0.159200
8.707100 0.155300
8.737900 0.151300
8.768700 0.147100
8.799400 0.143200
8.830200 0.139600
8.861000 0.136200
8.891700 0.133100
8.922500 0.130000
8.953300 0.125500
8.984000 0.121600
9.014800 0.117400
9.045600 0.112800
9.076300 0.108200
9.107100 0.104200
9.137900 0.100300
9.168600 0.096500
9.199400 0.092500
9.230200 0.089000
9.260900 0.088700
9.291700 0.083200
9.322500 0.077400
9.353200 0.071900
9.384000 0.067100
9.414800 0.063500
9.445500 0.061300
9.476300 0.055200
9.507100 0.046100
9.537800 0.038900
9.568600 0.034500
9.599400 0.036500
9.630100 0.006900
9.660900 0.000700
9.691700 0.000000
9.722400 0.000000
9.753200 0.000000
9.784000 0.000000
9.814700 0.000000
9.845500 0.000000
9.876300 0.000000
9.907000 0.000000
9.937800 0.000000
9.968600 0.000000
9.999300 0.000000
10.030100 0.000000
10.060900 0.000000
10.091600 0.000000
10.122400 0.000000
10.153200 0.000000
10.183900 0.000000
10.214700 0.000000
10.245500 0.000000
10.276200 0.000000
10.307000 0.000000
10.337800 0.000000
10.368500 0.000000
10.399300 0.000000
10.430100 0.000000
10.460800 0.000000
10.491600 0.000000
10.522300 0.000000
10.553100 0.000000
10.583900 0.000000
10.614600 0.000000
10.645400 0.000000
10.676200 0.000000
10.706900 0.000000
10.737700 0.000000
10.768500 0.000000
10.799200 0.000000
10.830000 0.000000
10.860800 0.000000
10.891500 0.000000
10.922300 0.000000
10.953100 0.000000
10.983800 0.000000
11.014600 0.000000
11.045400 0.000000
11.076100 0.000000
11.106900 0.000000
11.137700 0.000000
11.168400 0.000000
11.199200 0.000000
11.230000 0.000000
11.260700 0.000000
11.291500 0.000000
11.322300 0.000000
11.353000 0.000000
11.383800 0.000000
11.414600 0.000000
11.445300 0.000000
11.476100 0.000000
11.506900 0.000000
11.537600 0.000000
11.568400 0.000000
11.599200 0.000000
11.629900 0.000000
11.660700 0.000000
11.691500 0.000000
11.722200 0.000000
11.753000 0.000000
11.783800 0.000000
11.814500 0.000000
11.845300 0.000000
11.876100 0.000000
11.906800 0.000000
11.937600 0.000000
11.968400 0.000000
11.999100 0.000000
12.029900 0.000000
12.060700 0.000000
12.091400 0.000000
12.122200 0.000000
12.153000 0.000000
12.183700 0.000000
12.214500 0.000000
12.245300 0.000000
12.276000 0.000000
12.306800 0.000000
12.337600 0.000000
12.368300 0.000000
12.399100 0.000000
12.429900 0.000000
12.460600 0.000000
12.491400 0.000000
12.522200 0.000000
12.552900 0.000000
12.583700 0.000000
12.614500 0.000000
12.645200 0.000000
12.676000 0.000000
12.706700 0.000000
12.737500 0.000000
12.768300 0.000000
12.799000 0.000000
12.829800 0.000000
12.860600 0.000000
12.891300 0.000000
12.922100 0.000000
12.952900 0.000000
12.983600 0.000000
13.014400 0.000000
13.045200 0.000000
13.075900 0.000000
13.106700 0.000000
13.137500 0.000000
13.168200 0.000000
13.199000 0.000000
13.229800 0.000000
13.260500 0.000000
13.291300 0.000000
13.322100 0.000000
13.352800 0.000000
13.383600 0.000000
13.414400 0.000000
13.445100 0.000000
13.475900 0.000000
13.506700 0.000000
13.537400 0.000000
13.568200 0.000000
13.599000 0.000000
13.629700 0.000000
13.660500 0.000000
13.691300 0.000000
13.722000 0.000000
13.752800 0.000000
13.783600 0.000000
13.814300 0.003900
13.845100 0.016900
13.875900 0.033900
13.906600 0.052300
13.937400 0.064000
13.968200 0.071800
13.998900 0.078600
14.029700 0.083100
14.060500 0.090100
14.091200 0.097400
14.122000 0.105000
14.152800 0.113500
14.183500 0.122100
14.214300 0.129100
14.245100 0.135800
14.275800 0.143600
14.306600 0.151600
14.337400 0.159600
14.368100 0.167800
14.398900 0.175900
14.429700 0.183900
14.460400 0.197700
14.491200 0.202300
14.522000 0.208800
14.552700 0.215800
14.583500 0.223500
14.614300 0.265100
14.645000 0.244100
14.675800 0.252100
14.706600 0.260300
14.737300 0.267700
14.768100 0.274100
14.798800 0.280300
14.829600 0.287200
14.860400 0.294300
14.891100 0.301600
14.921900 0.309700
14.952700 0.317800
14.983400 0.325800
15.014200 0.333700
15.045000 0.341700
15.075700 0.349800
15.106500 0.358300
15.137300 0.368800
15.168000 0.378200
15.198800 0.387000
15.229600 0.397800
15.260300 0.415600
15.291100 0.432700
15.321900 0.436600
15.352600 0.430600
15.383400 0.437500
15.414200 0.445100
15.444900 0.450200
15.475700 0.455100
15.506500 0.458200
15.537200 0.460100
15.568000 0.462900
15.598800 0.467000
15.629500 0.471500
15.660300 0.476400
15.691100 0.481700
15.721800 0.486900
15.752600 0.491900
15.783400 0.496800
15.814100 0.501500
15.844900 0.504700
15.875700 0.508600
15.906400 0.513300
15.937200 0.518500
15.968000 0.523600
15.998700 0.528800
16.029500 0.533600
16.060300 0.538600
16.091000 0.543500
16.121800 0.548200
16.152600 0.552900
16.183300 0.557500
16.214100 0.562000
16.244900 0.566400
16.275600 0.571100
16.306400 0.575600
16.337200 0.580300
16.367900 0.585100
16.398700 0.589800
16.429500 0.594500
16.460200 0.599300
16.491000 0.604200
16.521800 0.609200
16.552500 0.614400
16.583300 0.619700
16.614100 0.625100
16.644800 0.630900
16.675600 0.636900
16.706400 0.642900
16.737100 0.649000
16.767900 0.655100
16.798700 0.661200
16.829400 0.667400
16.860200 0.673700
16.891000 0.680000
16.921700 0.686500
16.952500 0.693200
16.983200 0.700000
17.014000 0.707000
17.044800 0.714700
17.075500 0.722000
17.106300 0.729400
17.137100 0.737400
17.167800 0.745700
17.198600 0.754200
17.229400 0.763100
17.260100 0.771800
17.290900 0.780800
17.321700 0.790400
17.352400 0.800900
17.383200 0.811900
17.414000 0.823000
17.444700 0.834700
17.475500 0.847000
17.506300 0.860400
17.537000 0.875900
17.567800 0.894200
17.598600 0.915600
17.629300 0.940400
17.660100 0.969100
