set title 'mp-623 - Density of States'
set xlabel 'Energy (eV)'
set ylabel 'DOS (states/eV)'
set grid
set xrange [-10:10]
set yrange [0:10.257]
set xzeroaxis lt -1
set terminal png size 800,600
set output 'mp-623_dos_gnuplot.png'
plot '-' using 1:2 with lines title 'DOS'
-6.390000 0.000000
-6.372200 0.000000
-6.354400 0.000000
-6.336600 0.000000
-6.318800 0.000000
-6.301000 0.000000
-6.283200 0.000000
-6.265400 0.000000
-6.247600 0.000000
-6.229800 0.000000
-6.212000 0.000000
-6.194200 0.000000
-6.176400 0.000000
-6.158600 0.000000
-6.140800 0.000000
-6.123000 0.000000
-6.105200 0.000000
-6.087400 0.000000
-6.069600 0.000000
-6.051800 0.000000
-6.034000 0.000000
-6.016200 0.000000
-5.998400 0.000000
-5.980600 0.000000
-5.962800 0.000000
-5.945000 0.000000
-5.927200 0.000000
-5.909400 0.000000
-5.891600 0.000000
-5.873800 0.000000
-5.856000 0.000000
-5.838200 0.000000
-5.820400 0.000000
-5.802600 0.000000
-5.784800 0.000000
-5.767000 0.000000
-5.749200 0.000000
-5.731400 0.000000
-5.713600 0.000000
-5.695800 0.000000
-5.678000 0.000000
-5.660200 0.000000
-5.642400 0.000000
-5.624600 0.000000
-5.606800 0.000000
-5.589000 0.000000
-5.571200 0.000000
-5.553400 0.000000
-5.535600 0.000000
-5.517800 0.000000
-5.500000 0.000000
-5.482200 0.000000
-5.464400 0.000000
-5.446600 0.000000
-5.428800 0.000000
-5.411000 0.000000
-5.393200 0.000000
-5.375400 0.000000
-5.357600 0.000000
-5.339800 0.000000
-5.322000 0.000000
-5.304200 0.000000
-5.286400 0.000000
-5.268600 0.000000
-5.250800 0.000000
-5.233000 0.000000
-5.215200 0.000000
-5.197400 0.000000
-5.179600 0.000000
-5.161800 0.000000
-5.144000 0.000000
-5.126200 0.000000
-5.108400 0.000000
-5.090600 0.000000
-5.072800 0.000000
-5.055000 0.000000
-5.037200 0.000000
-5.019400 0.000000
-5.001600 0.000000
-4.983800 0.000000
-4.966000 0.000000
-4.948200 0.000000
-4.930400 0.000000
-4.912600 0.000000
-4.894800 0.000000
-4.877000 0.000000
-4.859200 0.000000
-4.841400 0.000000
-4.823600 0.000000
-4.805800 0.000000
-4.788000 0.000000
-4.770200 0.000000
-4.752400 0.003600
-4.734600 0.013300
-4.716800 0.028900
-4.699000 0.042700
-4.681200 0.050500
-4.663400 0.052500
-4.645600 0.054400
-4.627800 0.058400
-4.610000 0.064300
-4.592200 0.070800
-4.574400 0.077600
-4.556600 0.084100
-4.538800 0.088600
-4.521000 0.091000
-4.503200 0.092400
-4.485400 0.094700
-4.467600 0.098000
-4.449800 0.101700
-4.432000 0.105500
-4.414200 0.109200
-4.396400 0.112900
-4.378600 0.116600
-4.360800 0.120300
-4.343000 0.124300
-4.325200 0.128600
-4.307400 0.132900
-4.289600 0.136400
-4.271800 0.139300
-4.254000 0.141900
-4.236200 0.144700
-4.218400 0.147800
-4.200600 0.151100
-4.182800 0.154200
-4.165000 0.157400
-4.147200 0.160600
-4.129400 0.164100
-4.111600 0.168000
-4.093800 0.171900
-4.076000 0.175900
-4.058200 0.180000
-4.040400 0.184200
-4.022600 0.188400
-4.004800 0.192600
-3.987000 0.196800
-3.969200 0.200900
-3.951400 0.204800
-3.933600 0.208700
-3.915800 0.213000
-3.898000 0.217700
-3.880200 0.222800
-3.862400 0.228000
-3.844600 0.233200
-3.826800 0.238500
-3.809000 0.243800
-3.791200 0.249200
-3.773400 0.254700
-3.755600 0.260300
-3.737800 0.266000
-3.720000 0.271900
-3.702200 0.278300
-3.684400 0.286200
-3.666600 0.294900
-3.648800 0.304000
-3.631000 0.313000
-3.613200 0.322800
-3.595400 0.333200
-3.577600 0.344100
-3.559800 0.355000
-3.542000 0.366300
-3.524200 0.378000
-3.506400 0.390500
-3.488600 0.405500
-3.470800 0.432000
-3.453000 0.518100
-3.435200 0.588700
-3.417400 0.625500
-3.399600 0.681400
-3.381800 0.734700
-3.364000 0.789400
-3.346200 0.857500
-3.328400 0.931100
-3.310600 0.996000
-3.292800 1.066300
-3.275000 1.335300
-3.257200 1.679100
-3.239400 1.958200
-3.221600 2.272600
-3.203800 2.914400
-3.186000 3.374100
-3.168200 3.405800
-3.150400 3.358600
-3.132600 3.301500
-3.114800 3.447100
-3.097000 3.605200
-3.079200 3.592000
-3.061400 3.661100
-3.043600 3.768300
-3.025800 3.895400
-3.008000 4.146200
-2.990200 4.272600
-2.972400 4.311100
-2.954600 4.499300
-2.936800 4.745500
-2.919000 5.049600
-2.901200 4.958000
-2.883400 4.935700
-2.865600 4.960000
-2.847800 4.979700
-2.830000 5.281400
-2.812200 5.498500
-2.794400 5.785600
-2.776600 5.794300
-2.758800 5.991800
-2.741000 5.887800
-2.723200 5.452100
-2.705400 5.301500
-2.687600 5.246000
-2.669800 5.296700
-2.652000 5.453500
-2.634200 5.718000
-2.616400 6.034300
-2.598600 5.837700
-2.580800 5.705200
-2.563000 5.677700
-2.545200 5.419900
-2.527400 5.455900
-2.509600 5.433100
-2.491800 5.163600
-2.474000 5.174600
-2.456200 5.026100
-2.438400 5.018200
-2.420600 5.087300
-2.402800 4.904700
-2.385000 4.193900
-2.367200 4.230500
-2.349400 4.694900
-2.331600 5.152700
-2.313800 5.380100
-2.296000 5.520200
-2.278200 6.859300
-2.260400 6.073000
-2.242600 5.421100
-2.224800 5.599200
-2.207000 5.104800
-2.189200 5.466000
-2.171400 5.237900
-2.153600 5.084700
-2.135800 5.149100
-2.118000 4.769600
-2.100200 4.987400
-2.082400 5.084400
-2.064600 5.265500
-2.046800 5.655500
-2.029000 6.362800
-2.011200 7.136700
-1.993400 6.773600
-1.975600 6.173200
-1.957800 5.939400
-1.940000 5.872700
-1.922200 5.792900
-1.904400 5.705700
-1.886600 5.723400
-1.868800 5.753000
-1.851000 5.776000
-1.833200 5.670000
-1.815400 5.668100
-1.797600 6.053900
-1.779800 6.365500
-1.762000 6.342800
-1.744200 6.675400
-1.726400 8.186200
-1.708600 8.081000
-1.690800 7.434300
-1.673000 7.653700
-1.655200 9.324400
-1.637400 7.939400
-1.619600 7.099100
-1.601800 5.502800
-1.584000 4.721500
-1.566200 4.766400
-1.548400 4.765600
-1.530600 4.753900
-1.512800 4.802100
-1.495000 4.013300
-1.477200 3.802100
-1.459400 3.576600
-1.441600 3.158500
-1.423800 2.806200
-1.406000 2.563900
-1.388200 2.436700
-1.370400 2.347100
-1.352600 2.317800
-1.334800 2.171100
-1.317000 2.109500
-1.299200 1.912900
-1.281400 1.876300
-1.263600 1.907900
-1.245800 1.786700
-1.228000 1.779600
-1.210200 1.686400
-1.192400 1.601900
-1.174600 1.371400
-1.156800 1.097600
-1.139000 1.092800
-1.121200 1.128500
-1.103400 1.300200
-1.085600 1.074700
-1.067800 0.997300
-1.050000 0.967900
-1.032200 0.947000
-1.014400 0.875200
-0.996600 0.838700
-0.978800 0.822000
-0.961000 0.807700
-0.943200 0.800800
-0.925400 0.795900
-0.907600 0.790600
-0.889800 0.784300
-0.872000 0.777600
-0.854200 0.769000
-0.836400 0.766400
-0.818600 0.765400
-0.800800 0.762300
-0.783000 0.756500
-0.765200 0.759800
-0.747400 0.768000
-0.729600 0.756800
-0.711800 0.737900
-0.694000 0.719700
-0.676200 0.708200
-0.658400 0.703000
-0.640600 0.713200
-0.622800 0.749500
-0.605000 0.787500
-0.587200 0.779200
-0.569400 0.693200
-0.551600 0.606500
-0.533800 0.519900
-0.516000 0.487700
-0.498200 0.490400
-0.480400 0.493500
-0.462600 0.497000
-0.444800 0.500700
-0.427000 0.504100
-0.409200 0.507300
-0.391400 0.510100
-0.373600 0.512800
-0.355800 0.514000
-0.338000 0.516200
-0.320200 0.519200
-0.302400 0.522400
-0.284600 0.525300
-0.266800 0.527200
-0.249000 0.528700
-0.231200 0.529800
-0.213400 0.530900
-0.195600 0.533500
-0.177800 0.534800
-0.160000 0.536100
-0.142200 0.537800
-0.124400 0.539700
-0.106600 0.542000
-0.088800 0.545500
-0.071000 0.548200
-0.053200 0.550800
-0.035400 0.553200
-0.017600 0.555500
0.000200 0.557800
0.018000 0.560300
0.035800 0.562900
0.053600 0.565700
0.071400 0.568500
0.089200 0.571300
0.107000 0.574800
0.124800 0.579900
0.142600 0.587000
0.160400 0.592200
0.178200 0.596700
0.196000 0.600900
0.213800 0.605500
0.231600 0.610100
0.249400 0.614500
0.267200 0.618600
0.285000 0.622700
0.302800 0.626800
0.320600 0.630500
0.338400 0.633900
0.356200 0.637400
0.374000 0.640900
0.391800 0.644500
0.409600 0.648100
0.427400 0.651600
0.445200 0.655400
0.463000 0.665300
0.480800 0.672100
0.498600 0.679000
0.516400 0.686600
0.534200 0.695100
0.552000 0.756800
0.569800 0.799400
0.587600 0.830600
0.605400 0.857300
0.623200 0.880900
0.641000 0.901900
0.658800 0.924100
0.676600 0.946100
0.694400 0.983700
0.712200 1.009400
0.730000 0.995000
0.747800 0.981600
0.765600 0.975700
0.783400 0.973400
0.801200 1.005800
0.819000 1.017800
0.836800 0.970600
0.854600 0.909500
0.872400 0.879100
0.890200 0.857800
0.908000 0.839400
0.925800 0.868700
0.943600 0.861600
0.961400 0.849400
0.979200 0.850500
0.997000 0.870100
1.014800 0.902700
1.032600 0.932700
1.050400 0.954800
1.068200 0.981000
1.086000 1.015500
1.103800 1.047800
1.121600 1.080300
1.139400 1.125700
1.157200 1.133000
1.175000 1.195600
1.192800 1.259800
1.210600 1.349700
1.228400 1.414500
1.246200 1.473300
1.264000 1.540200
1.281800 1.597500
1.299600 1.654500
1.317400 1.779700
1.335200 1.985800
1.353000 2.166100
1.370800 2.219700
1.388600 2.199900
1.406400 2.229200
1.424200 2.255600
1.442000 2.258100
1.459800 2.311800
1.477600 2.384100
1.495400 2.456200
1.513200 2.553500
1.531000 2.671800
1.548800 2.726500
1.566600 2.792200
1.584400 2.858300
1.602200 2.938800
1.620000 3.049700
1.637800 3.198000
1.655600 3.314500
1.673400 3.430100
1.691200 3.380500
1.709000 3.300000
1.726800 3.131900
1.744600 2.992600
1.762400 2.911000
1.780200 2.836000
1.798000 2.791200
1.815800 2.771900
1.833600 2.726200
1.851400 2.661600
1.869200 2.644600
1.887000 2.642000
1.904800 2.663100
1.922600 2.691300
1.940400 2.722300
1.958200 2.763000
1.976000 2.795800
1.993800 2.822300
2.011600 2.871600
2.029400 2.899300
2.047200 2.937800
2.065000 3.005000
2.082800 3.066300
2.100600 3.090500
2.118400 3.086000
2.136200 3.094600
2.154000 3.118700
2.171800 3.149100
2.189600 3.243100
2.207400 3.309100
2.225200 3.258400
2.243000 3.205400
2.260800 3.169800
2.278600 3.144700
2.296400 3.124900
2.314200 3.113100
2.332000 3.115200
2.349800 3.107100
2.367600 3.115300
2.385400 3.117300
2.403200 3.066000
2.421000 2.891000
2.438800 2.847700
2.456600 2.865000
2.474400 2.755800
2.492200 2.630000
2.510100 2.455700
2.527900 2.208300
2.545700 1.996700
2.563500 1.934500
2.581300 1.959700
2.599100 2.050900
2.616900 3.481200
2.634700 3.675500
2.652500 3.433000
2.670300 3.796000
2.688100 3.966200
2.705900 4.104600
2.723700 4.202800
2.741500 3.912200
2.759300 3.661500
2.777100 3.411200
2.794900 3.177300
2.812700 3.076800
2.830500 2.991700
2.848300 2.911900
2.866100 2.853500
2.883900 2.918500
2.901700 3.026600
2.919500 2.974700
2.937300 2.686900
2.955100 2.387200
2.972900 2.182400
2.990700 2.017900
3.008500 1.795900
3.026300 1.611900
3.044100 1.580000
3.061900 1.592300
3.079700 1.676300
3.097500 1.815300
3.115300 2.032600
3.133100 2.319200
3.150900 2.325100
3.168700 2.318000
3.186500 2.472800
3.204300 2.502200
3.222100 2.573700
3.239900 2.655700
3.257700 2.785500
3.275500 3.008800
3.293300 3.245000
3.311100 3.470700
3.328900 3.557700
3.346700 3.563400
3.364500 3.556700
3.382300 3.541400
3.400100 3.581700
3.417900 3.684900
3.435700 3.799800
3.453500 4.057900
3.471300 4.323900
3.489100 4.702200
3.506900 4.514800
3.524700 4.888200
3.542500 4.483000
3.560300 4.642000
3.578100 4.430600
3.595900 4.565400
3.613700 4.617200
3.631500 4.829300
3.649300 5.089800
3.667100 5.222700
3.684900 5.043000
3.702700 4.799300
3.720500 4.788000
3.738300 4.689400
3.756100 4.637500
3.773900 4.729300
3.791700 4.807500
3.809500 4.728900
3.827300 4.643200
3.845100 4.501600
3.862900 4.333300
3.880700 3.928300
3.898500 3.604300
3.916300 3.395200
3.934100 3.210800
3.951900 2.975800
3.969700 2.789300
3.987500 2.727000
4.005300 2.604500
4.023100 2.349400
4.040900 1.953000
4.058700 1.984400
4.076500 1.947600
4.094300 1.909900
4.112100 1.873100
4.129900 1.866900
4.147700 1.818200
4.165500 1.828300
4.183300 1.627200
4.201100 1.416300
4.218900 1.334900
4.236700 1.280600
4.254500 1.217500
4.272300 1.080000
4.290100 1.001200
4.307900 0.978800
4.325700 0.959600
4.343500 0.942400
4.361300 0.926000
4.379100 0.910600
4.396900 0.896000
4.414700 0.882000
4.432500 0.868000
4.450300 0.854000
4.468100 0.839000
4.485900 0.828300
4.503700 0.818900
4.521500 0.810000
4.539300 0.801400
4.557100 0.792700
4.574900 0.783300
4.592700 0.775200
4.610500 0.768700
4.628300 0.762300
4.646100 0.756400
4.663900 0.751100
4.681700 0.746200
4.699500 0.741300
4.717300 0.735200
4.735100 0.729200
4.752900 0.723100
4.770700 0.718500
4.788500 0.714900
4.806300 0.710500
4.824100 0.705000
4.841900 0.697300
4.859700 0.689300
4.877500 0.682200
4.895300 0.675300
4.913100 0.668700
4.930900 0.662400
4.948700 0.657000
4.966500 0.652700
4.984300 0.649500
5.002100 0.651300
5.019900 0.654700
5.037700 0.656500
5.055500 0.655000
5.073300 0.645000
5.091100 0.617400
5.108900 0.590100
5.126700 0.562700
5.144500 0.534900
5.162300 0.507700
5.180100 0.504800
5.197900 0.503200
5.215700 0.501500
5.233500 0.499500
5.251300 0.497800
5.269100 0.496000
5.286900 0.494300
5.304700 0.492600
5.322500 0.490700
5.340300 0.489700
5.358100 0.489000
5.375900 0.488500
5.393700 0.488100
5.411500 0.487800
5.429300 0.487700
5.447100 0.487400
5.464900 0.487600
5.482700 0.488000
5.500500 0.488600
5.518300 0.489300
5.536100 0.490600
5.553900 0.491900
5.571700 0.493300
5.589500 0.494800
5.607300 0.497000
5.625100 0.499900
5.642900 0.503800
5.660700 0.508200
5.678500 0.513200
5.696300 0.518500
5.714100 0.524300
5.731900 0.530400
5.749700 0.537000
5.767500 0.544500
5.785300 0.555400
5.803100 0.572100
5.820900 0.590100
5.838700 0.609300
5.856500 0.630900
5.874300 0.660100
5.892100 0.732700
5.909900 0.819500
5.927700 1.092800
5.945500 1.226100
5.963300 1.115700
5.981100 1.088000
5.998900 1.046900
6.016700 1.027300
6.034500 1.005600
6.052300 0.990300
6.070100 0.976500
6.087900 0.963800
6.105700 0.952800
6.123500 0.935000
6.141300 0.914900
6.159100 0.898700
6.176900 0.883400
6.194700 0.869300
6.212500 0.855800
6.230300 0.844500
6.248100 0.833600
6.265900 0.822100
6.283700 0.810400
6.301500 0.800200
6.319300 0.791800
6.337100 0.785000
6.354900 0.779200
6.372700 0.774800
6.390500 0.771300
6.408300 0.770100
6.426100 0.767600
6.443900 0.765400
6.461700 0.763500
6.479500 0.762000
6.497300 0.760400
6.515100 0.758600
6.532900 0.756700
6.550700 0.755400
6.568500 0.755100
6.586300 0.756100
6.604100 0.759400
6.621900 0.763400
6.639700 0.767100
6.657500 0.770500
6.675300 0.773700
6.693100 0.779800
6.710900 0.790500
6.728700 0.852600
6.746500 0.887100
6.764300 0.940500
6.782100 0.836200
6.799900 0.781100
6.817700 0.730900
6.835500 0.701300
6.853300 0.682900
6.871100 0.658600
6.888900 0.641700
6.906700 0.625600
6.924500 0.619900
6.942300 0.614700
6.960100 0.609700
6.977900 0.605500
6.995700 0.601900
7.013500 0.598800
7.031300 0.596100
7.049100 0.593500
7.066900 0.590900
7.084700 0.589400
7.102500 0.586900
7.120300 0.583300
7.138100 0.580400
7.155900 0.578500
7.173700 0.577800
7.191500 0.577800
7.209300 0.578000
7.227100 0.578500
7.244900 0.579300
7.262700 0.580500
7.280500 0.581200
7.298300 0.596100
7.316100 0.603800
7.333900 0.612300
7.351700 0.621600
7.369500 0.634200
7.387300 0.648200
7.405100 0.672900
7.422900 0.693000
7.440700 0.705100
7.458500 0.713800
7.476300 0.720600
7.494100 0.729700
7.511900 0.730000
7.529700 0.740500
7.547500 0.776900
7.565300 0.811000
7.583100 0.817900
7.600900 0.820900
7.618700 0.821200
7.636500 0.818500
7.654300 0.815300
7.672100 0.810100
7.689900 0.806000
7.707700 0.803500
7.725500 0.803100
7.743300 0.803500
7.761100 0.803700
7.778900 0.799700
7.796700 0.792700
7.814500 0.785100
7.832300 0.776500
7.850100 0.770800
7.867900 0.756400
7.885700 0.726000
7.903500 0.705000
7.921300 0.685300
7.939100 0.666600
7.956900 0.667600
7.974700 0.661300
7.992500 0.656000
8.010300 0.653400
8.028100 0.650600
8.045900 0.647600
8.063700 0.644700
8.081500 0.639300
8.099300 0.637300
8.117100 0.631200
8.134900 0.622000
8.152700 0.614900
8.170500 0.609800
8.188300 0.606100
8.206100 0.602500
8.223900 0.598600
8.241700 0.595000
8.259500 0.591800
8.277300 0.589100
8.295100 0.587500
8.312900 0.583900
8.330700 0.584400
8.348500 0.578800
8.366300 0.575600
8.384100 0.569300
8.401900 0.566300
8.419700 0.564700
8.437500 0.563600
8.455300 0.568100
8.473100 0.566600
8.490900 0.565500
8.508700 0.565000
8.526500 0.565200
8.544300 0.565900
8.562100 0.566900
8.579900 0.568400
8.597700 0.570300
8.615500 0.572900
8.633300 0.576100
8.651100 0.580200
8.668900 0.585300
8.686700 0.595200
8.704500 0.606200
8.722300 0.613700
8.740100 0.620600
8.757900 0.626700
8.775700 0.632600
8.793500 0.640600
8.811300 0.649800
8.829100 0.658900
8.846900 0.668200
8.864700 0.676400
8.882500 0.686300
8.900300 0.691000
8.918100 0.696600
8.935900 0.706000
8.953700 0.716100
8.971500 0.729900
8.989300 0.744800
9.007100 0.757200
9.024900 0.764800
9.042700 0.769600
9.060500 0.774300
9.078300 0.776900
9.096100 0.777000
9.113900 0.770000
9.131700 0.766100
9.149500 0.765600
9.167300 0.767300
9.185100 0.771500
9.202900 0.766600
9.220700 0.762800
9.238500 0.760100
9.256300 0.758100
9.274100 0.756000
9.291900 0.753800
9.309700 0.751600
9.327500 0.748900
9.345300 0.745600
9.363100 0.740700
9.380900 0.734700
9.398700 0.727700
9.416500 0.722000
9.434300 0.718500
9.452100 0.716000
9.469900 0.713600
9.487700 0.716700
9.505500 0.717600
9.523300 0.719300
9.541100 0.721100
9.558900 0.722700
9.576700 0.723400
9.594500 0.723200
9.612300 0.726800
9.630100 0.732400
9.647900 0.732100
9.665700 0.727100
9.683500 0.726300
9.701300 0.721000
9.719100 0.714700
9.736900 0.709000
9.754700 0.704200
9.772500 0.700300
9.790300 0.696900
9.808100 0.693800
9.825900 0.691400
9.843700 0.691900
9.861500 0.696900
9.879300 0.700500
9.897100 0.691400
9.914900 0.684300
9.932700 0.682900
9.950500 0.683200
9.968300 0.676100
9.986100 0.674000
10.003900 0.672700
10.021700 0.673300
10.039500 0.675700
10.057300 0.681100
10.075100 0.687500
10.092900 0.693600
10.110700 0.699400
10.128500 0.704800
10.146300 0.710000
10.164100 0.715200
10.181900 0.720100
10.199700 0.724000
10.217500 0.727200
10.235300 0.730800
10.253100 0.726600
10.270900 0.728000
10.288700 0.738500
10.306500 0.753700
10.324300 0.766800
10.342100 0.784100
10.359900 0.766100
10.377700 0.747300
10.395500 0.735300
10.413300 0.726100
10.431100 0.717100
10.448900 0.708400
10.466700 0.700400
10.484500 0.693000
10.502300 0.685800
10.520100 0.678900
10.537900 0.679800
10.555700 0.659700
10.573500 0.650500
10.591300 0.642100
10.609100 0.635700
10.626900 0.628300
10.644700 0.626000
10.662500 0.623800
10.680300 0.621500
10.698100 0.619100
10.715900 0.616600
10.733700 0.613900
10.751500 0.611300
10.769300 0.609200
10.787100 0.607400
10.804900 0.604200
10.822700 0.597300
10.840500 0.593900
10.858300 0.591100
10.876100 0.588900
10.893900 0.587000
10.911700 0.585600
10.929500 0.584800
10.947300 0.584300
10.965100 0.584200
10.982900 0.584100
11.000700 0.584300
11.018500 0.585000
11.036300 0.587000
11.054100 0.589100
11.071900 0.591500
11.089700 0.593700
11.107500 0.587600
11.125300 0.588200
11.143100 0.588400
11.160900 0.588300
11.178700 0.588200
11.196500 0.588000
11.214300 0.587800
11.232100 0.586900
11.249900 0.598900
11.267700 0.600400
11.285500 0.601600
11.303300 0.602200
11.321100 0.601100
11.338900 0.600400
11.356700 0.600200
11.374500 0.601100
11.392300 0.602700
11.410100 0.604800
11.427900 0.607200
11.445700 0.619500
11.463500 0.638100
11.481300 0.622200
11.499100 0.619000
11.516900 0.618600
11.534700 0.619100
11.552500 0.619500
11.570300 0.619700
11.588100 0.620200
11.605900 0.614600
11.623700 0.612700
11.641500 0.613900
11.659300 0.616900
11.677100 0.620000
11.694900 0.622600
11.712700 0.624900
11.730500 0.626700
11.748300 0.627600
11.766100 0.623700
11.783900 0.626300
11.801700 0.629900
11.819500 0.634200
11.837300 0.639200
11.855100 0.645000
11.872900 0.694800
11.890700 0.692900
11.908500 0.676200
11.926300 0.676400
11.944100 0.677000
11.961900 0.677900
11.979700 0.679100
11.997500 0.680400
12.015300 0.681900
12.033100 0.683400
12.050900 0.684900
12.068700 0.686100
12.086500 0.687200
12.104300 0.687800
12.122100 0.688400
12.139900 0.689600
12.157700 0.691400
12.175500 0.692900
12.193300 0.694200
12.211100 0.695200
12.228900 0.696700
12.246700 0.699000
12.264500 0.701700
12.282300 0.704800
12.300100 0.708400
12.317900 0.712800
12.335700 0.718700
12.353500 0.726200
12.371300 0.735100
12.389100 0.744600
12.406900 0.754300
12.424700 0.759300
12.442500 0.770100
12.460300 0.787200
12.478100 0.769400
12.495900 0.769800
12.513700 0.770700
12.531500 0.772200
12.549300 0.774000
12.567100 0.776100
12.584900 0.776700
