set title 'mp-27628 - Density of States'
set xlabel 'Energy (eV)'
set ylabel 'DOS (states/eV)'
set grid
set xrange [-10:10]
set yrange [0:112.584]
set xzeroaxis lt -1
set terminal png size 800,600
set output 'mp-27628_dos_gnuplot.png'
plot '-' using 1:2 with lines title 'DOS'
-13.409500 0.000000
-13.395300 0.000000
-13.381100 0.000000
-13.366800 0.000000
-13.352600 0.000000
-13.338400 0.000000
-13.324100 0.000000
-13.309900 0.000000
-13.295700 0.000000
-13.281400 0.000000
-13.267200 0.000000
-13.252900 0.000000
-13.238700 0.000000
-13.224500 0.000000
-13.210200 0.000000
-13.196000 0.000000
-13.181800 0.000000
-13.167500 0.000000
-13.153300 0.000000
-13.139100 0.000000
-13.124800 0.000000
-13.110600 0.000000
-13.096300 0.000000
-13.082100 0.000000
-13.067900 0.000000
-13.053600 0.000000
-13.039400 0.000000
-13.025200 0.000000
-13.010900 0.000000
-12.996700 0.000000
-12.982500 0.000000
-12.968200 0.000000
-12.954000 0.000000
-12.939700 0.000000
-12.925500 0.000000
-12.911300 0.000000
-12.897000 0.000000
-12.882800 0.000000
-12.868600 0.000000
-12.854300 0.000000
-12.840100 0.000000
-12.825900 0.000000
-12.811600 0.000000
-12.797400 0.000000
-12.783100 0.000000
-12.768900 0.000000
-12.754700 0.000000
-12.740400 0.000000
-12.726200 0.000000
-12.712000 0.000000
-12.697700 0.000000
-12.683500 0.000000
-12.669300 0.000000
-12.655000 0.000000
-12.640800 0.000000
-12.626600 0.000000
-12.612300 0.000000
-12.598100 0.000000
-12.583800 0.000000
-12.569600 0.000000
-12.555400 0.000000
-12.541100 0.000000
-12.526900 0.000000
-12.512700 0.000000
-12.498400 0.000000
-12.484200 0.000000
-12.470000 0.000000
-12.455700 0.000000
-12.441500 0.000000
-12.427200 0.000000
-12.413000 0.000000
-12.398800 0.000000
-12.384500 0.000000
-12.370300 0.000000
-12.356100 0.000000
-12.341800 0.000000
-12.327600 0.000000
-12.313400 0.000000
-12.299100 0.000000
-12.284900 0.000000
-12.270600 0.000000
-12.256400 0.000000
-12.242200 0.000000
-12.227900 0.000000
-12.213700 0.000000
-12.199500 0.000000
-12.185200 0.000000
-12.171000 0.000000
-12.156800 0.000000
-12.142500 0.000000
-12.128300 0.000000
-12.114100 0.008000
-12.099800 1.150000
-12.085600 4.254700
-12.071300 10.315300
-12.057100 18.983200
-12.042900 27.493400
-12.028600 33.346900
-12.014400 42.407300
-12.000200 30.491800
-11.985900 27.481900
-11.971700 41.988900
-11.957500 32.986100
-11.943200 11.589400
-11.929000 0.000000
-11.914700 0.000000
-11.900500 18.841600
-11.886300 49.869800
-11.872000 77.970500
-11.857800 30.140200
-11.843600 25.940500
-11.829300 21.723000
-11.815100 17.487400
-11.800900 13.563600
-11.786600 9.871900
-11.772400 5.267700
-11.758100 0.637900
-11.743900 0.000000
-11.729700 0.000000
-11.715400 0.000000
-11.701200 0.545700
-11.687000 4.775000
-11.672700 16.655300
-11.658500 23.135000
-11.644300 34.443100
-11.630000 51.377700
-11.615800 159.348600
-11.601500 6.453800
-11.587300 44.013700
-11.573100 69.163300
-11.558800 43.370100
-11.544600 85.253300
-11.530400 40.733500
-11.516100 0.000000
-11.501900 0.000000
-11.487700 0.000000
-11.473400 0.000000
-11.459200 0.000000
-11.445000 0.000000
-11.430700 0.000000
-11.416500 0.000000
-11.402200 0.000000
-11.388000 0.000000
-11.373800 0.000000
-11.359500 0.000000
-11.345300 0.000000
-11.331100 0.000000
-11.316800 0.000000
-11.302600 0.000000
-11.288400 0.000000
-11.274100 0.000000
-11.259900 0.000000
-11.245600 0.000000
-11.231400 0.000000
-11.217200 0.000000
-11.202900 0.000000
-11.188700 0.000000
-11.174500 0.000000
-11.160200 0.000000
-11.146000 0.000000
-11.131800 0.000000
-11.117500 0.000000
-11.103300 0.000000
-11.089000 0.000000
-11.074800 0.000000
-11.060600 0.000000
-11.046300 0.000000
-11.032100 0.000000
-11.017900 0.000000
-11.003600 0.000000
-10.989400 0.000000
-10.975200 0.000000
-10.960900 0.000000
-10.946700 0.000000
-10.932400 0.000000
-10.918200 0.000000
-10.904000 0.000000
-10.889700 0.000000
-10.875500 0.000000
-10.861300 0.000000
-10.847000 0.000000
-10.832800 0.000000
-10.818600 0.000000
-10.804300 0.000000
-10.790100 0.000000
-10.775900 0.000000
-10.761600 0.000000
-10.747400 0.000000
-10.733100 0.000000
-10.718900 0.000000
-10.704700 0.000000
-10.690400 0.000000
-10.676200 0.000000
-10.662000 0.000000
-10.647700 0.000000
-10.633500 0.000000
-10.619300 0.000000
-10.605000 0.000000
-10.590800 0.000000
-10.576500 0.000000
-10.562300 0.000000
-10.548100 0.000000
-10.533800 0.000000
-10.519600 0.000000
-10.505400 0.000000
-10.491100 0.000000
-10.476900 0.000000
-10.462700 0.000000
-10.448400 0.000000
-10.434200 0.000000
-10.419900 0.000000
-10.405700 0.000000
-10.391500 0.000000
-10.377200 0.000000
-10.363000 0.000000
-10.348800 0.000000
-10.334500 0.000000
-10.320300 0.000000
-10.306100 0.000000
-10.291800 0.000000
-10.277600 0.000000
-10.263300 0.000000
-10.249100 0.000000
-10.234900 0.000000
-10.220600 0.000000
-10.206400 0.000000
-10.192200 0.000000
-10.177900 0.000000
-10.163700 0.000000
-10.149500 0.000000
-10.135200 0.000000
-10.121000 0.000000
-10.106800 0.000000
-10.092500 0.000000
-10.078300 0.000000
-10.064000 0.000000
-10.049800 0.000000
-10.035600 0.000000
-10.021300 0.000000
-10.007100 0.000000
-9.992900 0.000000
-9.978600 0.000000
-9.964400 0.000000
-9.950200 0.000000
-9.935900 0.000000
-9.921700 0.000000
-9.907400 0.000000
-9.893200 0.000000
-9.879000 0.000000
-9.864700 0.000000
-9.850500 0.000000
-9.836300 0.000000
-9.822000 0.000000
-9.807800 0.000000
-9.793600 0.000000
-9.779300 0.000000
-9.765100 0.000000
-9.750800 0.000000
-9.736600 0.000000
-9.722400 0.000000
-9.708100 0.000000
-9.693900 0.000000
-9.679700 0.000000
-9.665400 0.000000
-9.651200 0.000000
-9.637000 0.000000
-9.622700 0.000000
-9.608500 0.000000
-9.594200 0.001200
-9.580000 0.755200
-9.565800 2.921500
-9.551500 8.492500
-9.537300 14.748600
-9.523100 23.257900
-9.508800 33.943500
-9.494600 28.041500
-9.480400 21.069700
-9.466100 13.963600
-9.451900 21.132300
-9.437700 23.126400
-9.423400 23.710000
-9.409200 11.063300
-9.394900 9.371000
-9.380700 8.191600
-9.366500 7.070800
-9.352200 6.008600
-9.338000 5.004900
-9.323800 4.059900
-9.309500 3.173500
-9.295300 2.345600
-9.281100 1.576400
-9.266800 0.865700
-9.252600 0.213600
-9.238300 0.000200
-9.224100 0.135600
-9.209900 0.721100
-9.195600 2.108400
-9.181400 7.672100
-9.167200 18.333600
-9.152900 17.170000
-9.138700 16.455800
-9.124500 16.191100
-9.110200 16.291100
-9.096000 11.564700
-9.081700 12.527600
-9.067500 18.044800
-9.053300 18.619000
-9.039000 17.046800
-9.024800 14.742000
-9.010600 12.400200
-8.996300 10.060500
-8.982100 8.311400
-8.967900 7.806700
-8.953600 7.344600
-8.939400 6.925300
-8.925100 6.548700
-8.910900 6.214800
-8.896700 5.625600
-8.882400 4.944700
-8.868200 4.288400
-8.854000 3.656600
-8.839700 3.049200
-8.825500 2.466300
-8.811300 1.908000
-8.797000 1.377600
-8.782800 0.915700
-8.768600 0.533600
-8.754300 0.231400
-8.740100 0.013200
-8.725800 0.028800
-8.711600 0.228900
-8.697400 0.619700
-8.683100 1.199400
-8.668900 1.892100
-8.654700 2.641500
-8.640400 3.443600
-8.626200 3.720800
-8.612000 3.834000
-8.597700 4.125600
-8.583500 4.587000
-8.569200 5.092200
-8.555000 5.599600
-8.540800 6.109300
-8.526500 6.582100
-8.512300 6.867700
-8.498100 7.029900
-8.483800 7.120300
-8.469600 7.142300
-8.455400 7.148100
-8.441100 7.155500
-8.426900 7.164400
-8.412600 7.175000
-8.398400 7.756800
-8.384200 8.419500
-8.369900 9.011700
-8.355700 9.533300
-8.341500 10.336100
-8.327200 11.289700
-8.313000 12.154500
-8.298800 12.930400
-8.284500 12.531500
-8.270300 9.064700
-8.256000 6.347500
-8.241800 4.943300
-8.227600 5.876800
-8.213300 7.764500
-8.199100 9.476300
-8.184900 9.167400
-8.170600 8.727100
-8.156400 8.215100
-8.142200 5.553800
-8.127900 3.083300
-8.113700 1.870600
-8.099500 0.731800
-8.085200 0.000000
-8.071000 0.000000
-8.056700 0.000000
-8.042500 0.000000
-8.028300 0.000000
-8.014000 0.000000
-7.999800 0.000000
-7.985600 0.000000
-7.971300 0.000000
-7.957100 0.000000
-7.942900 0.000000
-7.928600 0.486700
-7.914400 1.822300
-7.900100 3.435900
-7.885900 6.411100
-7.871700 8.676400
-7.857400 9.564900
-7.843200 10.474300
-7.829000 11.404800
-7.814700 11.307000
-7.800500 9.937600
-7.786300 8.209000
-7.772000 8.841200
-7.757800 9.804400
-7.743500 13.038700
-7.729300 16.229700
-7.715100 16.053800
-7.700800 15.592100
-7.686600 14.877300
-7.672400 13.593300
-7.658100 12.077300
-7.643900 10.770500
-7.629700 9.434500
-7.615400 8.057800
-7.601200 6.746200
-7.587000 6.240800
-7.572700 5.765600
-7.558500 5.327100
-7.544200 4.927300
-7.530000 4.513100
-7.515800 4.026500
-7.501500 3.467500
-7.487300 2.836200
-7.473100 2.132400
-7.458800 1.448300
-7.444600 1.101400
-7.430400 0.802000
-7.416100 0.550000
-7.401900 0.345300
-7.387600 0.188100
-7.373400 0.078200
-7.359200 0.015800
-7.344900 0.000000
-7.330700 0.000000
-7.316500 0.000000
-7.302200 0.000000
-7.288000 0.000000
-7.273800 0.000000
-7.259500 0.000000
-7.245300 0.000000
-7.231000 0.000000
-7.216800 0.000000
-7.202600 0.000000
-7.188300 0.000000
-7.174100 0.000000
-7.159900 0.000000
-7.145600 0.000000
-7.131400 0.000000
-7.117200 0.000000
-7.102900 0.000000
-7.088700 0.000000
-7.074400 0.000000
-7.060200 0.000000
-7.046000 0.000000
-7.031700 0.000000
-7.017500 0.000000
-7.003300 0.015600
-6.989000 0.163300
-6.974800 0.467800
-6.960600 0.931400
-6.946300 1.487500
-6.932100 2.059100
-6.917900 2.646300
-6.903600 3.248900
-6.889400 3.867100
-6.875100 4.500800
-6.860900 5.150000
-6.846700 5.814700
-6.832400 6.494900
-6.818200 7.458600
-6.804000 9.290200
-6.789700 10.628000
-6.775500 11.829100
-6.761300 12.296900
-6.747000 11.918700
-6.732800 11.518000
-6.718500 11.094800
-6.704300 10.649100
-6.690100 10.180900
-6.675800 9.690100
-6.661600 5.891800
-6.647400 6.078200
-6.633100 8.286100
-6.618900 8.236600
-6.604700 8.199200
-6.590400 8.173700
-6.576200 8.160300
-6.561900 8.158800
-6.547700 8.169300
-6.533500 8.191800
-6.519200 8.226300
-6.505000 8.272800
-6.490800 8.331300
-6.476500 8.401700
-6.462300 8.484200
-6.448100 5.076300
-6.433800 2.444100
-6.419600 0.851500
-6.405300 0.042200
-6.391100 0.000000
-6.376900 0.000000
-6.362600 0.000000
-6.348400 0.000000
-6.334200 0.000000
-6.319900 0.000000
-6.305700 0.000000
-6.291500 0.000000
-6.277200 0.645200
-6.263000 3.064800
-6.248800 7.240500
-6.234500 9.364900
-6.220300 9.284800
-6.206000 9.218500
-6.191800 9.166100
-6.177600 9.127700
-6.163300 9.103100
-6.149100 9.092400
-6.134900 9.095700
-6.120600 9.112800
-6.106400 9.143800
-6.092200 9.188700
-6.077900 9.069800
-6.063700 5.499200
-6.049400 10.529200
-6.035200 12.667900
-6.021000 13.502600
-6.006700 14.300400
-5.992500 15.061200
-5.978300 15.402100
-5.964000 13.673800
-5.949800 12.113200
-5.935600 10.054700
-5.921300 8.394200
-5.907100 7.235800
-5.892800 6.109200
-5.878600 5.014600
-5.864400 3.951900
-5.850100 2.921200
-5.835900 1.922400
-5.821700 1.032900
-5.807400 0.433400
-5.793200 0.102000
-5.779000 0.000000
-5.764700 0.000000
-5.750500 0.000000
-5.736200 0.000000
-5.722000 0.000000
-5.707800 0.000000
-5.693500 0.000000
-5.679300 0.000000
-5.665100 0.000000
-5.650800 0.000000
-5.636600 0.000000
-5.622400 0.000000
-5.608100 0.000000
-5.593900 0.000000
-5.579700 0.000000
-5.565400 0.000000
-5.551200 0.000000
-5.536900 0.000000
-5.522700 0.000000
-5.508500 0.000000
-5.494200 0.000000
-5.480000 0.000000
-5.465800 0.000000
-5.451500 0.000000
-5.437300 0.000000
-5.423100 0.000000
-5.408800 0.000000
-5.394600 0.000000
-5.380300 0.000000
-5.366100 0.000000
-5.351900 0.000000
-5.337600 0.000000
-5.323400 0.000000
-5.309200 0.000000
-5.294900 0.000000
-5.280700 0.000000
-5.266500 0.000000
-5.252200 0.000000
-5.238000 0.000000
-5.223700 0.000000
-5.209500 0.000000
-5.195300 0.000000
-5.181000 0.000000
-5.166800 0.000000
-5.152600 0.000000
-5.138300 0.000000
-5.124100 0.000000
-5.109900 0.000000
-5.095600 0.000000
-5.081400 0.000000
-5.067100 0.000000
-5.052900 0.000000
-5.038700 0.000000
-5.024400 0.000000
-5.010200 0.000000
-4.996000 0.000000
-4.981700 0.000000
-4.967500 0.000000
-4.953300 0.000000
-4.939000 0.000000
-4.924800 0.000000
-4.910600 0.000000
-4.896300 0.000000
-4.882100 0.000000
-4.867800 0.000000
-4.853600 0.000000
-4.839400 0.000000
-4.825100 0.000000
-4.810900 0.000000
-4.796700 0.000000
-4.782400 0.000000
-4.768200 0.000000
-4.754000 0.000000
-4.739700 0.000000
-4.725500 0.000000
-4.711200 0.000000
-4.697000 0.000000
-4.682800 0.000000
-4.668500 0.000000
-4.654300 0.000000
-4.640100 0.000000
-4.625800 0.000000
-4.611600 0.000000
-4.597400 0.000000
-4.583100 0.000000
-4.568900 0.000000
-4.554600 0.000000
-4.540400 0.000000
-4.526200 0.000000
-4.511900 0.000000
-4.497700 0.000000
-4.483500 0.000000
-4.469200 0.000000
-4.455000 0.000000
-4.440800 0.000000
-4.426500 0.000000
-4.412300 0.000000
-4.398000 0.000000
-4.383800 0.000000
-4.369600 0.000000
-4.355300 0.000000
-4.341100 0.000000
-4.326900 0.000000
-4.312600 0.000000
-4.298400 0.000000
-4.284200 0.000000
-4.269900 0.000000
-4.255700 0.000000
-4.241500 0.000000
-4.227200 0.000000
-4.213000 0.000000
-4.198700 0.000000
-4.184500 0.000000
-4.170300 0.000000
-4.156000 0.000000
-4.141800 0.000000
-4.127600 0.000000
-4.113300 0.000000
-4.099100 0.000000
-4.084900 0.000000
-4.070600 0.000000
-4.056400 0.000000
-4.042100 0.000000
-4.027900 0.000000
-4.013700 0.000000
-3.999400 0.000000
-3.985200 0.000000
-3.971000 0.000000
-3.956700 0.000000
-3.942500 0.000000
-3.928300 0.000000
-3.914000 0.000000
-3.899800 0.000000
-3.885500 0.000000
-3.871300 0.000000
-3.857100 0.000000
-3.842800 0.000000
-3.828600 0.000000
-3.814400 0.000000
-3.800100 0.000000
-3.785900 0.000000
-3.771700 0.000000
-3.757400 0.000000
-3.743200 0.000000
-3.729000 0.000000
-3.714700 0.000000
-3.700500 0.000000
-3.686200 0.000000
-3.672000 0.000000
-3.657800 0.000000
-3.643500 0.000000
-3.629300 0.000000
-3.615100 0.000000
-3.600800 0.000000
-3.586600 0.000000
-3.572400 0.000000
-3.558100 0.000000
-3.543900 0.000000
-3.529600 0.000000
-3.515400 0.000000
-3.501200 0.000000
-3.486900 0.000000
-3.472700 0.000000
-3.458500 0.000000
-3.444200 0.000000
-3.430000 0.000000
-3.415800 0.000000
-3.401500 0.000000
-3.387300 0.000000
-3.373000 0.000000
-3.358800 0.000000
-3.344600 0.000000
-3.330300 0.000000
-3.316100 0.000000
-3.301900 0.000000
-3.287600 0.000000
-3.273400 0.000000
-3.259200 0.000000
-3.244900 0.000000
-3.230700 0.000000
-3.216400 0.000000
-3.202200 0.000000
-3.188000 0.000000
-3.173700 0.000000
-3.159500 0.000000
-3.145300 0.000000
-3.131000 0.000000
-3.116800 0.000000
-3.102600 0.000000
-3.088300 0.000000
-3.074100 0.000000
-3.059900 0.000000
-3.045600 0.000000
-3.031400 0.000000
-3.017100 0.000000
-3.002900 0.000000
-2.988700 0.000000
-2.974400 0.000000
-2.960200 0.000000
-2.946000 0.000000
-2.931700 0.000000
-2.917500 0.000000
-2.903300 0.000000
-2.889000 0.000000
-2.874800 0.000000
-2.860500 0.000000
-2.846300 0.000000
-2.832100 0.000000
-2.817800 0.000000
-2.803600 0.000000
-2.789400 0.000000
-2.775100 0.000000
-2.760900 0.000000
-2.746700 0.000000
-2.732400 0.000000
-2.718200 0.000000
-2.703900 0.000000
-2.689700 0.000000
-2.675500 0.000000
-2.661200 0.000000
-2.647000 0.000000
-2.632800 0.000000
-2.618500 0.000000
-2.604300 0.000000
-2.590100 0.000000
-2.575800 0.000000
-2.561600 0.000000
-2.547300 0.000000
-2.533100 0.000000
-2.518900 0.000000
-2.504600 0.000000
-2.490400 0.000000
-2.476200 0.000000
-2.461900 0.000000
-2.447700 0.000000
-2.433500 0.000000
-2.419200 0.000000
-2.405000 0.000000
-2.390800 0.000000
-2.376500 0.000000
-2.362300 0.000000
-2.348000 0.000000
-2.333800 0.000000
-2.319600 0.000000
-2.305300 0.000000
-2.291100 0.000000
-2.276900 0.000000
-2.262600 0.000000
-2.248400 0.000000
-2.234200 0.000000
-2.219900 4.371800
-2.205700 9.992700
-2.191400 17.545900
-2.177200 18.356600
-2.163000 34.512600
-2.148700 47.697300
-2.134500 21.533100
-2.120300 102.349200
-2.106000 50.372200
-2.091800 38.905800
-2.077600 59.549100
-2.063300 52.830900
-2.049100 33.984500
-2.034800 31.777000
-2.020600 26.886500
-2.006400 22.725400
-1.992100 20.799100
-1.977900 12.751600
-1.963700 6.387600
-1.949400 0.000000
-1.935200 0.000000
-1.921000 0.000000
-1.906700 0.000000
-1.892500 0.000000
-1.878200 0.000000
-1.864000 0.000000
-1.849800 0.000000
-1.835500 0.000000
-1.821300 0.000000
-1.807100 0.000000
-1.792800 0.000000
-1.778600 0.000000
-1.764400 0.000000
-1.750100 0.000000
-1.735900 0.000000
-1.721700 0.000000
-1.707400 0.089500
-1.693200 0.541000
-1.678900 1.373200
-1.664700 2.724700
-1.650500 5.100900
-1.636200 8.254200
-1.622000 9.046500
-1.607800 9.798500
-1.593500 10.671700
-1.579300 11.666100
-1.565100 28.543800
-1.550800 19.841500
-1.536600 17.493200
-1.522300 15.895300
-1.508100 15.391800
-1.493900 16.219800
-1.479600 18.518500
-1.465400 19.407600
-1.451200 20.570800
-1.436900 20.031300
-1.422700 21.007200
-1.408500 21.484300
-1.394200 20.000300
-1.380000 15.652800
-1.365700 11.612100
-1.351500 12.722200
-1.337300 15.596000
-1.323000 13.233100
-1.308800 12.344200
-1.294600 12.393900
-1.280300 12.831700
-1.266100 13.874900
-1.251900 15.610500
-1.237600 16.459300
-1.223400 15.953400
-1.209100 18.541100
-1.194900 14.855600
-1.180700 11.628900
-1.166400 10.825800
-1.152200 11.230900
-1.138000 12.111800
-1.123700 12.618700
-1.109500 12.838100
-1.095300 12.219600
-1.081000 12.197400
-1.066800 12.788200
-1.052600 12.570200
-1.038300 12.673500
-1.024100 12.728400
-1.009800 12.616700
-0.995600 12.354900
-0.981400 12.065400
-0.967100 12.915700
-0.952900 13.852100
-0.938700 12.302900
-0.924400 13.593400
-0.910200 14.097300
-0.896000 13.851100
-0.881700 13.422400
-0.867500 12.974600
-0.853200 12.777400
-0.839000 11.901700
-0.824800 7.748400
-0.810500 9.457200
-0.796300 11.447900
-0.782100 13.650100
-0.767800 16.351900
-0.753600 21.034700
-0.739400 23.348600
-0.725100 22.839300
-0.710900 22.257500
-0.696600 15.964800
-0.682400 17.255000
-0.668200 17.630600
-0.653900 17.722500
-0.639700 15.351000
-0.625500 12.014600
-0.611200 15.064400
-0.597000 12.890400
-0.582800 9.836400
-0.568500 8.167100
-0.554300 7.234200
-0.540000 6.716800
-0.525800 6.577600
-0.511600 10.438500
-0.497300 14.868200
-0.483100 17.023400
-0.468900 19.735100
-0.454600 27.769200
-0.440400 27.952000
-0.426200 26.794700
-0.411900 23.633500
-0.397700 19.016000
-0.383500 13.383500
-0.369200 11.598600
-0.355000 12.185800
-0.340700 13.152300
-0.326500 13.999900
-0.312300 13.078000
-0.298000 9.996600
-0.283800 8.482500
-0.269600 8.010100
-0.255300 8.621800
-0.241100 9.915200
-0.226900 10.741000
-0.212600 11.359100
-0.198400 11.769700
-0.184100 11.696800
-0.169900 11.360500
-0.155700 10.988600
-0.141400 10.649100
-0.127200 10.362200
-0.113000 10.127800
-0.098700 9.946000
-0.084500 8.501600
-0.070300 9.212800
-0.056000 9.783900
-0.041800 10.136600
-0.027500 10.458700
-0.013300 10.707400
0.000900 10.767500
0.015200 11.184600
0.029400 11.680400
0.043600 12.030100
0.057900 11.455400
0.072100 12.159000
0.086300 12.642400
0.100600 12.673400
0.114800 12.660500
0.129100 12.203900
0.143300 11.976000
0.157500 12.229000
0.171800 12.701000
0.186000 13.073000
0.200200 13.852400
0.214500 15.347400
0.228700 17.055800
0.242900 20.097400
0.257200 33.549200
0.271400 37.109800
0.285600 27.861900
0.299900 9.756400
0.314100 4.835500
0.328400 2.346300
0.342600 5.663100
0.356800 14.757400
0.371100 41.676200
0.385300 58.756400
0.399500 38.796800
0.413800 25.727300
0.428000 24.704300
0.442200 23.991900
0.456500 27.453100
0.470700 25.778200
0.485000 24.585300
0.499200 23.351900
0.513400 25.209100
0.527700 25.880500
0.541900 24.529800
0.556100 34.149300
0.570400 41.704000
0.584600 36.815800
0.598800 34.863700
0.613100 46.630800
0.627300 46.032800
0.641600 50.907000
0.655800 34.210400
0.670000 35.757500
0.684300 40.358500
0.698500 39.129200
0.712700 33.394100
0.727000 33.100200
0.741200 33.644700
0.755400 32.020600
0.769700 41.529000
0.783900 44.666200
0.798100 46.491800
0.812400 47.713900
0.826600 42.725900
0.840900 33.730200
0.855100 26.824100
0.869300 26.520400
0.883600 42.099300
0.897800 41.261600
0.912000 41.950400
0.926300 41.124700
0.940500 39.421400
0.954700 40.518300
0.969000 43.651000
0.983200 41.218300
0.997500 30.487500
1.011700 28.138100
1.025900 26.528100
