set title 'mp-21042 - Density of States'
set xlabel 'Energy (eV)'
set ylabel 'DOS (states/eV)'
set grid
set xrange [-10:10]
set yrange [0:20.469]
set xzeroaxis lt -1
set terminal png size 800,600
set output 'mp-21042_dos_gnuplot.png'
plot '-' using 1:2 with lines title 'DOS'
-11.385000 0.000000
-11.367600 0.000000
-11.350200 0.000000
-11.332800 0.000000
-11.315400 0.000000
-11.298000 0.000000
-11.280600 0.000000
-11.263200 0.000000
-11.245800 0.000000
-11.228400 0.000000
-11.211000 0.000000
-11.193600 0.000000
-11.176200 0.000000
-11.158800 0.000000
-11.141400 0.000000
-11.124000 0.000000
-11.106600 0.000000
-11.089200 0.000000
-11.071800 0.000000
-11.054400 0.000000
-11.037000 0.000000
-11.019600 0.000000
-11.002200 0.000000
-10.984800 0.000000
-10.967400 0.000000
-10.950000 0.000000
-10.932600 0.000000
-10.915200 0.000000
-10.897800 0.000000
-10.880400 0.000000
-10.863000 0.000000
-10.845600 0.000000
-10.828200 0.000000
-10.810800 0.000000
-10.793400 0.000000
-10.776000 0.000000
-10.758600 0.000000
-10.741200 0.000000
-10.723800 0.000000
-10.706400 0.000000
-10.689000 0.000000
-10.671600 0.000000
-10.654200 0.000000
-10.636800 0.000000
-10.619400 0.000000
-10.602000 0.000000
-10.584600 0.000000
-10.567200 0.000000
-10.549800 0.000000
-10.532400 0.000000
-10.515000 0.000000
-10.497600 0.000000
-10.480200 0.000000
-10.462800 0.000000
-10.445400 0.000000
-10.428000 0.000000
-10.410600 0.000000
-10.393200 0.000000
-10.375800 0.000000
-10.358400 0.000000
-10.341000 0.000000
-10.323600 0.000000
-10.306200 0.000000
-10.288800 0.000000
-10.271400 0.000000
-10.254000 0.000000
-10.236600 0.000000
-10.219200 0.000000
-10.201800 0.000000
-10.184400 0.000000
-10.167000 0.000000
-10.149600 0.000000
-10.132200 0.000000
-10.114800 0.000000
-10.097400 0.000000
-10.080000 0.000000
-10.062600 0.000000
-10.045200 0.000000
-10.027800 0.000000
-10.010400 0.000000
-9.993000 0.000000
-9.975600 0.000000
-9.958200 0.000000
-9.940800 0.000000
-9.923400 0.000000
-9.906000 0.000000
-9.888600 0.000000
-9.871200 0.000000
-9.853800 0.000000
-9.836400 0.000000
-9.819000 0.000000
-9.801600 0.001400
-9.784200 0.200100
-9.766800 0.582600
-9.749400 0.872100
-9.732000 1.179400
-9.714600 1.360600
-9.697200 1.560300
-9.679800 1.734000
-9.662400 1.929100
-9.645000 2.222600
-9.627600 2.638700
-9.610200 2.893300
-9.592800 3.208100
-9.575400 3.311700
-9.558000 3.200400
-9.540600 3.143900
-9.523200 3.076900
-9.505800 3.025600
-9.488400 2.943400
-9.471000 2.887900
-9.453600 2.859300
-9.436200 2.815200
-9.418800 2.755200
-9.401400 2.708800
-9.384000 2.589100
-9.366600 2.737400
-9.349200 2.186800
-9.331800 2.135700
-9.314400 2.099400
-9.297000 2.072600
-9.279600 2.049200
-9.262200 2.090200
-9.244800 2.360100
-9.227400 3.043500
-9.210000 3.708800
-9.192600 3.928300
-9.175200 4.148100
-9.157800 4.203800
-9.140400 4.312000
-9.123000 4.470700
-9.105600 4.662000
-9.088200 4.911500
-9.070800 5.259100
-9.053400 5.689900
-9.036000 6.175200
-9.018600 6.799500
-9.001200 7.031500
-8.983800 3.744200
-8.966400 2.960400
-8.949000 3.124800
-8.931600 3.319400
-8.914200 3.574900
-8.896800 3.930000
-8.879400 4.592900
-8.862000 4.491800
-8.844600 4.065100
-8.827200 3.633900
-8.809800 3.334800
-8.792400 3.200100
-8.775000 3.125900
-8.757600 3.043900
-8.740200 2.986500
-8.722800 2.950000
-8.705400 2.911300
-8.688000 2.915200
-8.670600 3.024700
-8.653200 3.190100
-8.635800 3.936700
-8.618400 3.484700
-8.601000 3.535500
-8.583600 3.319600
-8.566200 2.278000
-8.548800 1.351500
-8.531400 0.681900
-8.514000 0.121200
-8.496600 0.000000
-8.479200 0.000000
-8.461800 0.000000
-8.444400 0.000000
-8.427000 0.000000
-8.409600 0.000000
-8.392200 0.000000
-8.374800 0.000000
-8.357400 0.000000
-8.340000 0.180100
-8.322600 0.490000
-8.305200 0.709300
-8.287800 0.926100
-8.270400 1.167500
-8.253100 1.515600
-8.235700 2.035400
-8.218300 2.239900
-8.200900 2.232200
-8.183500 2.219200
-8.166100 1.830000
-8.148700 1.690200
-8.131300 1.630000
-8.113900 1.569600
-8.096500 1.509100
-8.079100 1.448400
-8.061700 1.393700
-8.044300 1.355300
-8.026900 1.334600
-8.009500 1.316500
-7.992100 1.298400
-7.974700 1.280200
-7.957300 1.262100
-7.939900 1.244100
-7.922500 1.228700
-7.905100 1.216000
-7.887700 1.204100
-7.870300 1.192200
-7.852900 1.178600
-7.835500 1.160000
-7.818100 1.159400
-7.800700 1.163500
-7.783300 1.190900
-7.765900 1.241300
-7.748500 1.291900
-7.731100 1.338600
-7.713700 1.370800
-7.696300 1.385900
-7.678900 1.400900
-7.661500 1.415900
-7.644100 1.430800
-7.626700 1.445800
-7.609300 1.460700
-7.591900 1.475700
-7.574500 1.490100
-7.557100 1.504600
-7.539700 2.179700
-7.522300 2.104400
-7.504900 2.206300
-7.487500 2.346100
-7.470100 2.332200
-7.452700 2.320500
-7.435300 2.303800
-7.417900 2.280400
-7.400500 2.275100
-7.383100 2.295200
-7.365700 2.342100
-7.348300 2.324800
-7.330900 2.393500
-7.313500 2.583300
-7.296100 2.615300
-7.278700 2.388000
-7.261300 1.856900
-7.243900 1.686500
-7.226500 1.530300
-7.209100 1.761600
-7.191700 2.660600
-7.174300 3.649200
-7.156900 4.136400
-7.139500 3.874400
-7.122100 4.445400
-7.104700 5.012200
-7.087300 5.739500
-7.069900 5.887800
-7.052500 6.372900
-7.035100 6.072900
-7.017700 5.507500
-7.000300 7.402700
-6.982900 5.432600
-6.965500 5.158300
-6.948100 4.926000
-6.930700 4.704800
-6.913300 4.686500
-6.895900 4.760300
-6.878500 4.816700
-6.861100 5.038700
-6.843700 5.614100
-6.826300 9.674000
-6.808900 5.444600
-6.791500 3.883300
-6.774100 0.000000
-6.756700 0.000000
-6.739300 0.000000
-6.721900 0.000000
-6.704500 0.000000
-6.687100 0.000000
-6.669700 0.000000
-6.652300 0.000000
-6.634900 0.000000
-6.617500 0.000000
-6.600100 0.000000
-6.582700 0.000000
-6.565300 0.000000
-6.547900 0.000000
-6.530500 0.000000
-6.513100 0.000000
-6.495700 0.000000
-6.478300 0.000000
-6.460900 0.000000
-6.443500 0.000000
-6.426100 0.000000
-6.408700 0.000000
-6.391300 0.000000
-6.373900 0.000000
-6.356500 0.000000
-6.339100 0.000000
-6.321700 0.000000
-6.304300 0.000000
-6.286900 0.000000
-6.269500 0.000000
-6.252100 0.000000
-6.234700 0.000000
-6.217300 0.000000
-6.199900 0.000000
-6.182500 0.000000
-6.165100 0.000000
-6.147700 0.000000
-6.130300 0.000000
-6.112900 0.000000
-6.095500 0.000000
-6.078100 0.000000
-6.060700 0.000000
-6.043300 0.000000
-6.025900 0.000000
-6.008500 0.000000
-5.991100 0.000000
-5.973700 0.000000
-5.956300 0.000000
-5.938900 0.000000
-5.921500 0.000000
-5.904100 0.000000
-5.886700 0.000000
-5.869300 0.000000
-5.851900 0.000000
-5.834500 0.000000
-5.817100 0.000000
-5.799700 0.000000
-5.782300 0.000000
-5.764900 0.000000
-5.747500 0.000000
-5.730100 0.000000
-5.712700 0.000000
-5.695300 0.000000
-5.677900 0.000000
-5.660500 0.000000
-5.643100 0.000000
-5.625700 0.000000
-5.608300 0.000000
-5.590900 0.000000
-5.573500 0.000000
-5.556100 0.000000
-5.538700 0.000000
-5.521300 0.000000
-5.503900 0.000000
-5.486500 0.000000
-5.469100 0.000000
-5.451700 0.000000
-5.434300 0.000000
-5.416900 0.000000
-5.399500 0.000000
-5.382100 0.000000
-5.364700 0.000000
-5.347300 0.000000
-5.329900 0.000000
-5.312500 0.000000
-5.295100 0.000000
-5.277700 0.000000
-5.260300 0.000000
-5.242900 0.000000
-5.225500 0.000000
-5.208100 0.000000
-5.190700 0.000000
-5.173300 0.000000
-5.155900 0.000000
-5.138500 0.000000
-5.121100 0.000000
-5.103700 0.000000
-5.086300 0.000000
-5.068900 0.000000
-5.051500 0.000000
-5.034100 0.000000
-5.016700 0.000000
-4.999300 0.000000
-4.981900 0.000000
-4.964500 0.000000
-4.947100 0.000000
-4.929700 0.000000
-4.912300 0.000000
-4.894900 0.000000
-4.877500 0.000000
-4.860100 0.000000
-4.842700 0.000000
-4.825300 0.000000
-4.807900 0.000000
-4.790500 0.000000
-4.773100 0.000000
-4.755700 0.000000
-4.738300 0.000000
-4.720900 0.000000
-4.703500 0.000000
-4.686100 0.000000
-4.668700 0.000000
-4.651300 0.000000
-4.633900 0.000000
-4.616500 0.000000
-4.599100 0.000000
-4.581700 0.000000
-4.564300 0.000000
-4.546900 0.000000
-4.529500 0.000000
-4.512100 0.000000
-4.494700 0.000000
-4.477300 0.000000
-4.459900 0.000000
-4.442500 0.000000
-4.425100 0.000000
-4.407700 0.000000
-4.390300 0.000000
-4.372900 0.000000
-4.355500 0.000000
-4.338100 0.000000
-4.320700 0.000000
-4.303300 0.000000
-4.285900 0.000000
-4.268500 0.000000
-4.251100 0.000000
-4.233700 0.000000
-4.216300 0.000000
-4.198900 0.000000
-4.181500 0.000000
-4.164100 0.000000
-4.146700 0.000000
-4.129300 0.000000
-4.111900 0.000000
-4.094500 0.000000
-4.077100 0.000000
-4.059700 0.000000
-4.042300 0.000000
-4.024900 0.000000
-4.007500 0.000000
-3.990100 0.000000
-3.972700 0.000000
-3.955300 0.000000
-3.937900 0.000000
-3.920500 0.000000
-3.903100 0.000000
-3.885700 0.000000
-3.868300 0.000000
-3.850900 0.000000
-3.833500 0.000000
-3.816100 0.000000
-3.798700 0.000000
-3.781300 0.000000
-3.763900 0.000000
-3.746500 0.000000
-3.729100 0.000000
-3.711700 0.000000
-3.694300 0.000000
-3.676900 0.000000
-3.659500 0.000000
-3.642100 0.000000
-3.624700 0.000000
-3.607300 0.000000
-3.589900 0.000000
-3.572500 0.000000
-3.555100 0.000000
-3.537700 0.000000
-3.520300 0.000000
-3.502900 0.000000
-3.485500 0.000000
-3.468100 0.000000
-3.450700 0.000000
-3.433300 0.000000
-3.415900 0.000000
-3.398500 0.000000
-3.381100 0.000000
-3.363700 0.000000
-3.346300 0.000000
-3.328900 0.000000
-3.311500 0.000000
-3.294100 0.000000
-3.276700 0.000000
-3.259300 0.000000
-3.241900 0.001200
-3.224500 0.081200
-3.207100 0.268200
-3.189700 0.482900
-3.172300 0.703000
-3.154900 0.945300
-3.137500 1.218100
-3.120100 1.441000
-3.102700 1.608100
-3.085300 1.768500
-3.067900 1.875400
-3.050500 1.962100
-3.033100 2.047800
-3.015700 2.134100
-2.998300 2.319400
-2.980900 2.393400
-2.963500 2.363400
-2.946100 2.279400
-2.928700 2.202000
-2.911300 2.137400
-2.893900 2.079000
-2.876500 2.025200
-2.859100 1.973000
-2.841700 1.917700
-2.824300 1.861100
-2.806900 1.804500
-2.789500 1.880100
-2.772100 1.958500
-2.754700 2.017200
-2.737300 2.109100
-2.719900 2.219200
-2.702500 2.332600
-2.685100 2.436500
-2.667700 2.522700
-2.650300 2.568100
-2.632900 2.664200
-2.615500 2.787800
-2.598100 2.928000
-2.580700 3.111200
-2.563300 3.325000
-2.545900 3.404300
-2.528500 3.650400
-2.511100 3.856900
-2.493700 4.218600
-2.476300 4.523200
-2.458900 4.586100
-2.441500 4.494300
-2.424100 4.520700
-2.406700 4.631500
-2.389300 4.677900
-2.371900 4.457400
-2.354500 4.227000
-2.337100 4.019100
-2.319800 3.792500
-2.302400 3.553700
-2.285000 3.307300
-2.267600 3.032900
-2.250200 2.776300
-2.232800 2.562200
-2.215400 2.466000
-2.198000 2.389500
-2.180600 2.402600
-2.163200 2.499300
-2.145800 2.697300
-2.128400 2.914300
-2.111000 3.119600
-2.093600 3.245400
-2.076200 3.293700
-2.058800 3.334400
-2.041400 3.390100
-2.024000 3.462400
-2.006600 3.548600
-1.989200 3.659900
-1.971800 3.792700
-1.954400 3.968900
-1.937000 4.193400
-1.919600 4.491800
-1.902200 4.918600
-1.884800 5.562600
-1.867400 6.177100
-1.850000 6.919900
-1.832600 5.708300
-1.815200 5.586500
-1.797800 5.374900
-1.780400 5.234000
-1.763000 5.090900
-1.745600 5.348000
-1.728200 5.675600
-1.710800 7.126700
-1.693400 7.434500
-1.676000 6.697700
-1.658600 5.852200
-1.641200 4.901500
-1.623800 4.406500
-1.606400 3.934700
-1.589000 3.988200
-1.571600 3.882100
-1.554200 3.986100
-1.536800 4.062000
-1.519400 4.125100
-1.502000 4.190800
-1.484600 4.354000
-1.467200 4.526000
-1.449800 4.587900
-1.432400 4.510300
-1.415000 4.565200
-1.397600 4.302800
-1.380200 3.976100
-1.362800 4.078400
-1.345400 4.246000
-1.328000 4.221400
-1.310600 4.142200
-1.293200 4.188600
-1.275800 4.067700
-1.258400 4.132500
-1.241000 4.600800
-1.223600 4.631100
-1.206200 4.693700
-1.188800 4.967900
-1.171400 5.606900
-1.154000 6.952300
-1.136600 6.783100
-1.119200 6.484800
-1.101800 6.562400
-1.084400 6.636200
-1.067000 9.057600
-1.049600 6.131000
-1.032200 5.846500
-1.014800 6.065900
-0.997400 6.287600
-0.980000 6.628800
-0.962600 6.490100
-0.945200 6.841200
-0.927800 7.543500
-0.910400 9.396700
-0.893000 8.933700
-0.875600 8.219200
-0.858200 7.963400
-0.840800 7.793400
-0.823400 8.041100
-0.806000 8.936200
-0.788600 8.450000
-0.771200 7.712800
-0.753800 7.001900
-0.736400 6.852000
-0.719000 6.891000
-0.701600 6.954600
-0.684200 7.520200
-0.666800 7.878300
-0.649400 8.098600
-0.632000 7.787400
-0.614600 6.387500
-0.597200 6.545400
-0.579800 7.407100
-0.562400 10.442100
-0.545000 10.784700
-0.527600 10.098300
-0.510200 9.474300
-0.492800 9.840000
-0.475400 10.149900
-0.458000 10.444800
-0.440600 11.522900
-0.423200 10.643900
-0.405800 10.488700
-0.388400 9.910600
-0.371000 8.559600
-0.353600 7.521600
-0.336200 7.345000
-0.318800 6.908500
-0.301400 6.211600
-0.284000 6.533000
-0.266600 5.799100
-0.249200 5.114300
-0.231800 4.942000
-0.214400 5.103800
-0.197000 5.116700
-0.179600 5.400300
-0.162200 6.144700
-0.144800 7.157400
-0.127400 8.149900
-0.110000 8.787600
-0.092600 8.843800
-0.075200 7.894000
-0.057800 8.116800
-0.040400 9.255900
-0.023000 8.378000
-0.005600 8.044100
0.011800 7.928700
0.029200 8.523800
0.046600 8.277200
0.064000 7.747500
0.081400 7.551100
0.098800 7.049300
0.116200 6.494300
0.133600 5.299300
0.151000 5.045800
0.168400 5.417900
0.185800 5.605700
0.203200 6.494800
0.220600 7.047800
0.238000 8.906800
0.255400 10.308000
0.272800 12.873300
0.290200 14.276400
0.307600 12.693200
0.325000 11.053600
0.342400 9.314700
0.359800 7.456900
0.377200 5.832600
0.394600 5.907300
0.412000 5.993600
0.429400 5.903900
0.446800 6.243900
0.464200 7.281800
0.481600 9.476800
0.499000 10.780700
0.516400 10.261400
0.533800 9.885300
0.551200 10.234200
0.568600 9.967700
0.586000 9.800100
0.603400 11.223800
0.620800 14.892400
0.638200 15.402800
0.655600 13.399700
0.673000 11.562500
0.690400 9.969000
0.707800 8.017500
0.725200 7.640100
0.742600 7.629600
0.760000 7.947700
0.777400 8.552600
0.794800 9.281200
0.812200 10.349300
0.829600 10.207200
0.847000 9.202900
0.864400 9.420900
0.881800 8.944000
0.899200 8.668800
0.916600 8.648400
0.934000 7.779300
0.951400 7.289100
0.968800 7.044800
0.986200 8.114700
1.003600 9.202900
1.021000 15.596900
1.038400 18.608300
1.055800 15.355500
1.073200 16.357500
1.090600 16.121300
1.108000 14.112800
1.125400 11.609000
1.142800 11.028800
1.160200 10.466700
1.177600 9.594900
1.195000 9.062700
1.212400 9.084700
1.229800 8.749700
1.247200 9.094700
1.264600 10.929300
1.282000 11.721900
1.299400 12.208400
1.316800 10.762000
1.334200 9.913100
1.351600 9.296700
1.369000 9.522700
1.386400 10.508000
1.403800 9.531200
1.421200 8.593900
1.438600 8.308900
1.456000 8.726900
1.473400 8.971600
1.490800 7.905200
1.508200 6.884500
1.525600 6.588800
1.543000 6.594500
1.560400 6.992000
1.577800 8.022300
1.595200 11.299800
1.612600 10.684300
1.630000 11.798000
1.647400 12.350600
1.664800 11.767900
1.682200 9.828100
1.699600 9.051400
1.717000 10.580500
1.734400 10.255200
1.751800 10.654400
1.769200 10.837000
1.786600 10.020900
1.804000 9.549100
1.821400 9.787400
1.838800 10.677400
1.856200 10.455600
1.873600 10.170700
1.891000 11.191600
1.908400 10.713800
1.925800 10.351300
1.943200 10.213400
1.960600 9.539400
1.978000 10.473000
1.995400 10.273000
2.012800 10.963200
2.030200 11.567500
2.047600 8.605100
2.065000 9.251500
2.082400 9.321800
2.099800 8.843100
2.117200 8.436700
2.134600 8.726000
2.152000 8.877200
2.169400 9.613400
2.186800 8.823600
2.204200 9.051700
2.221600 9.733100
2.239000 9.578300
2.256400 9.392800
2.273800 10.307800
2.291200 11.226600
2.308600 11.788800
2.326000 10.546700
2.343400 11.195000
2.360800 11.740700
2.378200 11.967200
2.395600 8.711800
2.413000 8.628600
2.430400 9.965200
2.447800 10.402500
2.465200 8.910500
2.482600 8.995300
2.500000 10.779900
2.517400 10.764800
2.534800 9.296600
2.552200 8.076300
2.569600 7.752600
2.587000 7.568300
2.604400 8.545800
2.621800 8.431200
2.639200 7.834300
2.656600 7.406100
2.674000 7.218000
2.691400 7.499900
2.708800 7.634900
2.726200 7.283400
2.743600 7.362200
2.761000 7.281800
2.778400 6.679400
2.795800 6.304700
2.813200 6.099900
2.830600 6.015500
2.848000 7.213900
2.865400 6.456200
2.882800 6.312000
2.900200 6.229600
2.917600 6.153000
2.935000 6.155700
2.952400 6.907700
2.969800 7.290100
2.987200 6.793000
3.004600 6.489100
3.022000 6.381800
3.039400 6.072200
3.056800 5.663600
3.074200 4.615300
3.091600 3.644700
3.109000 3.319200
3.126400 3.292000
3.143800 3.271700
3.161200 3.271200
3.178600 3.303700
3.196000 3.386300
3.213400 3.524400
3.230800 3.714700
3.248200 3.967300
3.265600 4.284200
3.283000 4.577100
3.300400 4.996700
3.317800 5.261500
3.335200 5.208300
3.352600 5.430900
3.370000 5.828600
3.387400 6.039300
3.404800 6.065600
3.422200 6.146100
3.439600 5.947700
3.457000 5.704600
3.474400 5.537200
3.491800 5.397100
3.509200 5.325700
3.526600 5.277000
3.544000 5.178100
3.561400 5.061900
3.578800 4.948300
3.596200 4.789500
3.613500 4.618100
3.630900 4.565000
3.648300 4.610800
3.665700 4.832400
3.683100 5.300200
3.700500 5.503100
3.717900 5.887400
3.735300 6.029200
3.752700 6.083500
3.770100 5.884100
3.787500 5.457700
3.804900 5.080600
3.822300 4.357100
3.839700 3.758100
3.857100 3.523700
3.874500 3.368900
3.891900 3.262200
3.909300 3.181300
3.926700 3.115200
3.944100 3.058200
3.961500 3.040600
3.978900 3.042400
3.996300 3.072700
4.013700 2.994600
4.031100 2.864700
4.048500 2.797500
4.065900 2.856800
4.083300 2.986000
4.100700 3.030100
4.118100 3.057500
4.135500 3.278200
4.152900 3.300800
4.170300 3.160300
4.187700 3.089700
4.205100 3.086900
4.222500 2.994600
4.239900 2.960100
4.257300 2.997400
4.274700 3.057700
4.292100 3.083900
4.309500 2.810500
4.326900 2.745600
4.344300 2.760900
4.361700 2.708700
4.379100 2.674700
4.396500 2.680100
4.413900 2.778100
4.431300 2.734600
4.448700 2.663500
4.466100 2.633100
4.483500 2.540400
4.500900 2.451500
4.518300 2.375600
4.535700 2.337000
4.553100 2.314500
4.570500 2.318000
4.587900 2.347800
4.605300 2.385800
4.622700 2.430200
4.640100 2.469000
4.657500 2.495600
4.674900 2.518400
4.692300 2.536100
4.709700 2.637200
4.727100 2.894000
4.744500 2.598000
4.761900 2.514600
4.779300 2.488800
4.796700 2.489800
4.814100 2.536300
4.831500 2.632300
4.848900 2.711200
4.866300 2.771700
4.883700 2.982100
4.901100 5.837400
4.918500 4.443800
4.935900 4.079900
4.953300 4.152300
4.970700 4.279900
4.988100 4.392800
5.005500 4.496900
5.022900 4.595400
5.040300 4.648800
5.057700 4.678200
5.075100 4.670300
5.092500 4.625600
5.109900 4.707600
5.127300 4.801300
5.144700 4.792400
5.162100 4.930400
5.179500 5.214000
5.196900 5.172100
5.214300 4.359000
5.231700 3.971500
5.249100 3.616300
5.266500 3.443700
5.283900 3.128400
5.301300 2.943700
5.318700 2.780800
5.336100 2.714200
5.353500 2.807700
5.370900 2.937900
5.388300 3.049500
5.405700 3.187700
5.423100 3.340200
5.440500 3.462700
5.457900 3.573800
5.475300 3.621700
5.492700 3.513200
5.510100 3.384400
5.527500 3.469300
5.544900 3.598800
5.562300 3.733500
5.579700 3.862300
5.597100 3.993600
5.614500 4.579200
5.631900 4.035800
5.649300 3.948200
5.666700 3.858200
5.684100 3.824000
5.701500 3.804300
5.718900 4.101400
5.736300 3.520300
5.753700 3.622000
5.771100 3.752600
5.788500 3.814300
5.805900 3.792000
5.823300 3.870700
5.840700 3.496500
5.858100 3.093900
5.875500 2.783000
5.892900 2.535800
5.910300 2.332400
5.927700 2.162000
5.945100 2.006400
5.962500 1.867400
5.979900 1.686800
5.997300 1.624700
6.014700 1.405400
6.032100 1.151000
6.049500 0.989600
6.066900 0.879200
6.084300 0.791100
6.101700 0.750300
6.119100 0.733600
6.136500 0.717800
6.153900 0.702900
6.171300 0.689000
6.188700 0.693200
6.206100 0.731300
6.223500 0.804300
6.240900 0.913100
6.258300 1.023300
6.275700 1.116900
6.293100 1.193400
6.310500 1.253000
6.327900 1.307600
6.345300 1.365600
6.362700 1.434800
6.380100 1.568600
6.397500 1.732200
6.414900 1.867900
6.432300 1.980300
6.449700 2.067900
6.467100 2.131300
6.484500 2.181900
6.501900 2.206100
6.519300 2.272000
6.536700 2.355100
6.554100 2.462300
6.571500 2.590600
6.588900 2.733200
6.606300 2.891700
6.623700 3.048200
6.641100 3.215600
6.658500 3.379100
6.675900 3.540600
6.693300 3.713800
6.710700 3.802900
6.728100 4.007200
6.745500 4.374400
6.762900 3.881700
6.780300 3.832700
6.797700 3.857000
6.815100 4.015200
6.832500 4.118600
6.849900 4.172500
6.867300 4.279300
6.884700 4.367100
