set title 'mp-23933 - Density of States'
set xlabel 'Energy (eV)'
set ylabel 'DOS (states/eV)'
set grid
set xrange [-10:10]
set yrange [0:5.230]
set xzeroaxis lt -1
set terminal png size 800,600
set output 'mp-23933_dos_gnuplot.png'
plot '-' using 1:2 with lines title 'DOS'
-9.077700 0.000000
-9.063400 0.000000
-9.049000 0.000000
-9.034600 0.000000
-9.020200 0.000000
-9.005900 0.000000
-8.991500 0.000000
-8.977100 0.000000
-8.962700 0.000000
-8.948400 0.000000
-8.934000 0.000000
-8.919600 0.000000
-8.905200 0.000000
-8.890900 0.000000
-8.876500 0.000000
-8.862100 0.000000
-8.847700 0.000000
-8.833400 0.000000
-8.819000 0.000000
-8.804600 0.000000
-8.790200 0.000000
-8.775900 0.000000
-8.761500 0.000000
-8.747100 0.000000
-8.732700 0.000000
-8.718400 0.000000
-8.704000 0.000000
-8.689600 0.000000
-8.675200 0.000000
-8.660900 0.000000
-8.646500 0.000000
-8.632100 0.000000
-8.617700 0.000000
-8.603400 0.000000
-8.589000 0.000000
-8.574600 0.000000
-8.560200 0.000000
-8.545900 0.000000
-8.531500 0.000000
-8.517100 0.000000
-8.502800 0.000000
-8.488400 0.000000
-8.474000 0.000000
-8.459600 0.000000
-8.445300 0.000000
-8.430900 0.000000
-8.416500 0.000000
-8.402100 0.000000
-8.387800 0.000000
-8.373400 0.000000
-8.359000 0.000000
-8.344600 0.000000
-8.330300 0.000000
-8.315900 0.000000
-8.301500 0.000000
-8.287100 0.000000
-8.272800 0.000000
-8.258400 0.000000
-8.244000 0.000000
-8.229600 0.000000
-8.215300 0.000000
-8.200900 0.000000
-8.186500 0.000000
-8.172100 0.000000
-8.157800 0.000000
-8.143400 0.000000
-8.129000 0.000000
-8.114600 0.000000
-8.100300 0.000000
-8.085900 0.000000
-8.071500 0.000000
-8.057100 0.000000
-8.042800 0.000000
-8.028400 0.000000
-8.014000 0.000000
-7.999600 0.000000
-7.985300 0.000000
-7.970900 0.000000
-7.956500 0.000000
-7.942100 0.000000
-7.927800 0.000000
-7.913400 0.000000
-7.899000 0.000000
-7.884700 0.000000
-7.870300 0.000000
-7.855900 0.000000
-7.841500 0.000000
-7.827200 0.000000
-7.812800 0.000000
-7.798400 0.000000
-7.784000 0.000000
-7.769700 0.000100
-7.755300 0.017000
-7.740900 0.062400
-7.726500 0.128200
-7.712200 0.114200
-7.697800 0.130900
-7.683400 0.148600
-7.669000 0.167300
-7.654700 0.186900
-7.640300 0.203500
-7.625900 0.213200
-7.611500 0.216900
-7.597200 0.223500
-7.582800 0.234000
-7.568400 0.244800
-7.554000 0.255700
-7.539700 0.266900
-7.525300 0.278200
-7.510900 0.289800
-7.496500 0.299900
-7.482200 0.304800
-7.467800 0.311000
-7.453400 0.317700
-7.439000 0.324200
-7.424700 0.330500
-7.410300 0.336900
-7.395900 0.343900
-7.381500 0.351400
-7.367200 0.359400
-7.352800 0.367700
-7.338400 0.376000
-7.324000 0.384300
-7.309700 0.392500
-7.295300 0.399700
-7.280900 0.405200
-7.266600 0.409400
-7.252200 0.414100
-7.237800 0.419300
-7.223400 0.424900
-7.209100 0.430600
-7.194700 0.436300
-7.180300 0.442000
-7.165900 0.447800
-7.151600 0.453600
-7.137200 0.459700
-7.122800 0.466000
-7.108400 0.472400
-7.094100 0.478900
-7.079700 0.485400
-7.065300 0.492000
-7.050900 0.498300
-7.036600 0.503900
-7.022200 0.508500
-7.007800 0.513500
-6.993400 0.517800
-6.979100 0.522300
-6.964700 0.526700
-6.950300 0.531300
-6.935900 0.536100
-6.921600 0.541100
-6.907200 0.546200
-6.892800 0.551400
-6.878400 0.556600
-6.864100 0.561900
-6.849700 0.567200
-6.835300 0.572400
-6.820900 0.577800
-6.806600 0.583100
-6.792200 0.588600
-6.777800 0.594200
-6.763400 0.599900
-6.749100 0.605400
-6.734700 0.610700
-6.720300 0.615400
-6.705900 0.619700
-6.691600 0.624200
-6.677200 0.628700
-6.662800 0.633100
-6.648500 0.637400
-6.634100 0.641900
-6.619700 0.646300
-6.605300 0.650800
-6.591000 0.655400
-6.576600 0.660000
-6.562200 0.664800
-6.547800 0.669600
-6.533500 0.674500
-6.519100 0.679400
-6.504700 0.684400
-6.490300 0.689500
-6.476000 0.694600
-6.461600 0.699700
-6.447200 0.704800
-6.432800 0.710000
-6.418500 0.715200
-6.404100 0.720400
-6.389700 0.725500
-6.375300 0.730500
-6.361000 0.735100
-6.346600 0.739700
-6.332200 0.744300
-6.317800 0.748900
-6.303500 0.753500
-6.289100 0.758000
-6.274700 0.762600
-6.260300 0.767300
-6.246000 0.772100
-6.231600 0.776900
-6.217200 0.781700
-6.202800 0.786600
-6.188500 0.791500
-6.174100 0.796500
-6.159700 0.801500
-6.145300 0.806600
-6.131000 0.811800
-6.116600 0.817000
-6.102200 0.822400
-6.087800 0.827800
-6.073500 0.833300
-6.059100 0.838800
-6.044700 0.844500
-6.030400 0.850300
-6.016000 0.856200
-6.001600 0.862400
-5.987200 0.868700
-5.972900 0.875100
-5.958500 0.881800
-5.944100 0.888700
-5.929700 0.895900
-5.915400 0.903600
-5.901000 0.911700
-5.886600 0.920500
-5.872200 0.930000
-5.857900 0.939500
-5.843500 0.947900
-5.829100 0.954800
-5.814700 0.960300
-5.800400 0.966000
-5.786000 0.971900
-5.771600 0.978300
-5.757200 0.985100
-5.742900 0.993700
-5.728500 1.005200
-5.714100 1.020900
-5.699700 1.037800
-5.685400 1.044500
-5.671000 1.049400
-5.656600 1.054900
-5.642200 1.061500
-5.627900 1.068500
-5.613500 1.085600
-5.599100 1.111100
-5.584700 1.135500
-5.570400 1.157000
-5.556000 1.173900
-5.541600 1.184900
-5.527200 1.189700
-5.512900 1.191400
-5.498500 1.194500
-5.484100 1.210600
-5.469700 1.234500
-5.455400 1.266800
-5.441000 1.304100
-5.426600 1.303100
-5.412200 1.305600
-5.397900 1.305000
-5.383500 1.265700
-5.369100 1.258400
-5.354800 1.257600
-5.340400 1.243100
-5.326000 1.249000
-5.311600 1.221500
-5.297300 1.157000
-5.282900 1.154300
-5.268500 1.148600
-5.254100 1.150400
-5.239800 1.146600
-5.225400 1.146200
-5.211000 1.144300
-5.196600 1.141900
-5.182300 1.121100
-5.167900 1.111200
-5.153500 1.119800
-5.139100 1.136400
-5.124800 1.154200
-5.110400 1.179100
-5.096000 1.209300
-5.081600 1.236200
-5.067300 1.247100
-5.052900 1.189400
-5.038500 1.167900
-5.024100 1.193200
-5.009800 1.213700
-4.995400 1.080300
-4.981000 1.091300
-4.966600 1.100400
-4.952300 1.152900
-4.937900 1.019900
-4.923500 0.939200
-4.909100 0.976200
-4.894800 0.921900
-4.880400 0.929500
-4.866000 0.963700
-4.851600 1.015100
-4.837300 1.036700
-4.822900 1.042700
-4.808500 1.029600
-4.794100 1.003300
-4.779800 0.998500
-4.765400 1.006200
-4.751000 1.011900
-4.736700 1.009000
-4.722300 1.011600
-4.707900 1.017400
-4.693500 1.025700
-4.679200 1.036600
-4.664800 1.049600
-4.650400 1.066600
-4.636000 1.086800
-4.621700 1.110300
-4.607300 1.153300
-4.592900 1.198400
-4.578500 1.221900
-4.564200 1.225800
-4.549800 1.201000
-4.535400 1.133700
-4.521000 1.060600
-4.506700 1.023500
-4.492300 1.003800
-4.477900 0.989800
-4.463500 0.980500
-4.449200 0.972300
-4.434800 0.965100
-4.420400 0.958700
-4.406000 0.953100
-4.391700 0.948200
-4.377300 0.941000
-4.362900 0.935600
-4.348500 0.929700
-4.334200 0.922900
-4.319800 0.917100
-4.305400 0.911900
-4.291000 0.907200
-4.276700 0.902800
-4.262300 0.897700
-4.247900 0.892200
-4.233500 0.888500
-4.219200 0.883600
-4.204800 0.879300
-4.190400 0.875700
-4.176000 0.872300
-4.161700 0.868900
-4.147300 0.865300
-4.132900 0.861500
-4.118600 0.857400
-4.104200 0.852200
-4.089800 0.845600
-4.075400 0.839100
-4.061100 0.833400
-4.046700 0.828500
-4.032300 0.823800
-4.017900 0.819500
-4.003600 0.816200
-3.989200 0.813600
-3.974800 0.810600
-3.960400 0.806800
-3.946100 0.802300
-3.931700 0.797000
-3.917300 0.791500
-3.902900 0.786200
-3.888600 0.780900
-3.874200 0.776100
-3.859800 0.771500
-3.845400 0.767300
-3.831100 0.763600
-3.816700 0.760100
-3.802300 0.756400
-3.787900 0.751800
-3.773600 0.748100
-3.759200 0.747000
-3.744800 0.744700
-3.730400 0.741400
-3.716100 0.737200
-3.701700 0.732600
-3.687300 0.728100
-3.672900 0.723500
-3.658600 0.719300
-3.644200 0.715900
-3.629800 0.713100
-3.615400 0.709700
-3.601100 0.708700
-3.586700 0.709700
-3.572300 0.731000
-3.557900 0.817700
-3.543600 0.882400
-3.529200 0.907700
-3.514800 0.866900
-3.500500 0.812800
-3.486100 0.767100
-3.471700 0.751500
-3.457300 0.786700
-3.443000 0.869500
-3.428600 0.942800
-3.414200 0.967200
-3.399800 0.960900
-3.385500 0.971100
-3.371100 0.986200
-3.356700 1.007900
-3.342300 1.034100
-3.328000 1.072600
-3.313600 1.065600
-3.299200 1.083800
-3.284800 1.106600
-3.270500 1.113300
-3.256100 1.113700
-3.241700 1.114400
-3.227300 1.115100
-3.213000 1.119400
-3.198600 1.129100
-3.184200 1.141100
-3.169800 1.154300
-3.155500 1.166200
-3.141100 1.179900
-3.126700 1.195900
-3.112300 1.234800
-3.098000 1.305900
-3.083600 1.330300
-3.069200 1.306000
-3.054800 1.312400
-3.040500 1.316200
-3.026100 1.312600
-3.011700 1.299600
-2.997300 1.303000
-2.983000 1.284500
-2.968600 1.277100
-2.954200 1.278800
-2.939800 1.283700
-2.925500 1.289800
-2.911100 1.292400
-2.896700 1.292700
-2.882400 1.298200
-2.868000 1.307700
-2.853600 1.322500
-2.839200 1.346100
-2.824900 1.369200
-2.810500 1.380800
-2.796100 1.389800
-2.781700 1.397100
-2.767400 1.408300
-2.753000 1.418000
-2.738600 1.420600
-2.724200 1.429300
-2.709900 1.440000
-2.695500 1.450400
-2.681100 1.459900
-2.666700 1.468500
-2.652400 1.478300
-2.638000 1.486900
-2.623600 1.496800
-2.609200 1.507500
-2.594900 1.519200
-2.580500 1.532900
-2.566100 1.549300
-2.551700 1.568400
-2.537400 1.592500
-2.523000 1.612200
-2.508600 1.635600
-2.494200 1.651500
-2.479900 1.674600
-2.465500 1.689000
-2.451100 1.704900
-2.436700 1.722900
-2.422400 1.742600
-2.408000 1.766300
-2.393600 1.793000
-2.379200 1.820500
-2.364900 1.849100
-2.350500 1.878600
-2.336100 1.911900
-2.321700 1.949500
-2.307400 1.992700
-2.293000 2.049500
-2.278600 2.275300
-2.264200 2.365100
-2.249900 2.385500
-2.235500 2.389200
-2.221100 2.395300
-2.206800 2.428800
-2.192400 2.438000
-2.178000 2.448500
-2.163600 2.451800
-2.149300 2.444600
-2.134900 2.426500
-2.120500 2.400100
-2.106100 2.371800
-2.091800 2.350200
-2.077400 2.339400
-2.063000 2.338100
-2.048600 2.344000
-2.034300 2.344000
-2.019900 2.341500
-2.005500 2.338400
-1.991100 2.332100
-1.976800 2.325300
-1.962400 2.319200
-1.948000 2.315300
-1.933600 2.316200
-1.919300 2.321800
-1.904900 2.330900
-1.890500 2.339000
-1.876100 2.343500
-1.861800 2.344000
-1.847400 2.338500
-1.833000 2.333200
-1.818600 2.336300
-1.804300 2.345000
-1.789900 2.347300
-1.775500 2.332300
-1.761100 2.312200
-1.746800 2.295100
-1.732400 2.282500
-1.718000 2.277300
-1.703600 2.275400
-1.689300 2.277700
-1.674900 2.282200
-1.660500 2.287800
-1.646100 2.293400
-1.631800 2.296700
-1.617400 2.304300
-1.603000 2.322300
-1.588700 2.351700
-1.574300 2.372200
-1.559900 2.369700
-1.545500 2.300400
-1.531200 2.241600
-1.516800 2.197600
-1.502400 2.178400
-1.488000 2.178800
-1.473700 2.185400
-1.459300 2.195800
-1.444900 2.205700
-1.430500 2.213600
-1.416200 2.217800
-1.401800 2.223400
-1.387400 2.213600
-1.373000 2.179200
-1.358700 2.126500
-1.344300 2.067700
-1.329900 2.029900
-1.315500 2.013600
-1.301200 2.003600
-1.286800 1.996500
-1.272400 1.991700
-1.258000 1.963100
-1.243700 1.960600
-1.229300 1.960200
-1.214900 1.961200
-1.200500 1.963100
-1.186200 1.967300
-1.171800 1.978000
-1.157400 1.995000
-1.143000 2.021700
-1.128700 2.060400
-1.114300 2.107500
-1.099900 2.163600
-1.085500 2.229800
-1.071200 2.304800
-1.056800 2.380200
-1.042400 2.399100
-1.028000 2.396700
-1.013700 2.429300
-0.999300 2.449500
-0.984900 2.505700
-0.970600 2.502200
-0.956200 2.517900
-0.941800 2.531200
-0.927400 2.436800
-0.913100 2.451200
-0.898700 2.414200
-0.884300 2.376800
-0.869900 2.381300
-0.855600 2.284200
-0.841200 2.192200
-0.826800 2.134500
-0.812400 2.077800
-0.798100 2.003200
-0.783700 1.956400
-0.769300 1.929900
-0.754900 1.906600
-0.740600 1.896900
-0.726200 1.894600
-0.711800 1.898800
-0.697400 1.916600
-0.683100 1.958400
-0.668700 2.030400
-0.654300 2.160500
-0.639900 2.279600
-0.625600 2.402000
-0.611200 2.484300
-0.596800 2.548700
-0.582400 2.620300
-0.568100 2.701800
-0.553700 2.712800
-0.539300 2.675800
-0.524900 2.692900
-0.510600 2.732900
-0.496200 2.608400
-0.481800 2.308300
-0.467400 2.090400
-0.453100 1.993600
-0.438700 1.951100
-0.424300 1.919600
-0.409900 1.877500
-0.395600 1.843100
-0.381200 1.827700
-0.366800 1.828900
-0.352500 1.815100
-0.338100 1.787400
-0.323700 1.777400
-0.309300 1.759200
-0.295000 1.726700
-0.280600 1.679800
-0.266200 1.635900
-0.251800 1.642800
-0.237500 1.619600
-0.223100 1.562100
-0.208700 1.525000
-0.194300 1.522300
-0.180000 1.499200
-0.165600 1.489600
-0.151200 1.488100
-0.136800 1.482300
-0.122500 1.479400
-0.108100 1.473400
-0.093700 1.476400
-0.079300 1.456000
-0.065000 1.439300
-0.050600 1.455500
-0.036200 1.479200
-0.021800 1.527300
-0.007500 1.511600
0.006900 1.454100
0.021300 1.389100
0.035700 1.360000
0.050000 1.340100
0.064400 1.337300
0.078800 1.321600
0.093200 1.310800
0.107500 1.303600
0.121900 1.299600
0.136300 1.303100
0.150700 1.328800
0.165000 1.368100
0.179400 1.400600
0.193800 1.435000
0.208200 1.475300
0.222500 1.500600
0.236900 1.542300
0.251300 1.580300
0.265700 1.638400
0.280000 1.699200
0.294400 1.756100
0.308800 1.806500
0.323100 1.859100
0.337500 1.924400
0.351900 2.001400
0.366300 2.083300
0.380600 2.174900
0.395000 2.268000
0.409400 2.365600
0.423800 2.457500
0.438100 2.562600
0.452500 2.658600
0.466900 2.731400
0.481300 2.796200
0.495600 2.911100
0.510000 3.145500
0.524400 3.204000
0.538800 3.016700
0.553100 2.893200
0.567500 2.841100
0.581900 2.846700
0.596300 2.858700
0.610600 2.869100
0.625000 2.884100
0.639400 2.909500
0.653800 2.950500
0.668100 3.033900
0.682500 3.159400
0.696900 3.263600
0.711300 3.393300
0.725600 3.527000
0.740000 3.696400
0.754400 3.802300
0.768800 3.551600
0.783100 3.709600
0.797500 4.135100
0.811900 4.754100
0.826300 4.462400
0.840600 2.238300
0.855000 0.000000
0.869400 0.000000
0.883800 0.000000
0.898100 0.000000
0.912500 0.000000
0.926900 0.000000
0.941200 0.000000
0.955600 0.000000
0.970000 0.000000
0.984400 0.000000
0.998700 0.000000
1.013100 0.000000
1.027500 0.000000
1.041900 0.000000
1.056200 0.000000
1.070600 0.000000
1.085000 0.000000
1.099400 0.000000
1.113700 0.000000
1.128100 0.000000
1.142500 0.000000
1.156900 0.000000
1.171200 0.000000
1.185600 0.000000
1.200000 0.000000
1.214400 0.000000
1.228700 0.000000
1.243100 0.000000
1.257500 0.000000
1.271900 0.000000
1.286200 0.000000
1.300600 0.000000
1.315000 0.000000
1.329400 0.000000
1.343700 0.000000
1.358100 0.000000
1.372500 0.000000
1.386900 0.000000
1.401200 0.000000
1.415600 0.000000
1.430000 0.000000
1.444400 0.000000
1.458700 0.000000
1.473100 0.000000
1.487500 0.000000
1.501900 0.000000
1.516200 0.000000
1.530600 0.000000
1.545000 0.000000
1.559300 0.000000
1.573700 0.000000
1.588100 0.000000
1.602500 0.000000
1.616800 0.000000
1.631200 0.000000
1.645600 0.000000
1.660000 0.000000
1.674300 0.000000
1.688700 0.000000
1.703100 0.000000
1.717500 0.000000
1.731800 0.000000
1.746200 0.000000
1.760600 0.000000
1.775000 0.000000
1.789300 0.000000
1.803700 0.000000
1.818100 0.000000
1.832500 0.000000
1.846800 0.000000
1.861200 0.000000
1.875600 0.000000
1.890000 0.000000
1.904300 0.000000
1.918700 0.000000
1.933100 0.000000
1.947500 0.000000
1.961800 0.000000
1.976200 0.000000
1.990600 0.000000
2.005000 0.000000
2.019300 0.000000
2.033700 0.000000
2.048100 0.000000
2.062500 0.000000
2.076800 0.000000
2.091200 0.000000
2.105600 0.000000
2.120000 0.000000
2.134300 0.000000
2.148700 0.000000
2.163100 0.000000
2.177400 0.000000
2.191800 0.000000
2.206200 0.000000
2.220600 0.000000
2.234900 0.000000
2.249300 0.000000
2.263700 0.000000
2.278100 0.000000
2.292400 0.000000
2.306800 0.000000
2.321200 0.000000
2.335600 0.000000
2.349900 0.000000
2.364300 0.000000
2.378700 0.000000
2.393100 0.000000
2.407400 0.000000
2.421800 0.000000
2.436200 0.000000
2.450600 0.000000
2.464900 0.000000
2.479300 0.000000
2.493700 0.000000
2.508100 0.000000
2.522400 0.000000
2.536800 0.000000
2.551200 0.000000
2.565600 0.000000
2.579900 0.000000
2.594300 0.000000
2.608700 0.000000
2.623100 0.000000
2.637400 0.000000
2.651800 0.000000
2.666200 0.000000
2.680600 0.000000
2.694900 0.000000
2.709300 0.000000
2.723700 0.000000
2.738100 0.000000
2.752400 0.000000
2.766800 0.000000
2.781200 0.000000
2.795500 0.000000
2.809900 0.000000
2.824300 0.000000
2.838700 0.000000
2.853000 0.000000
2.867400 0.000000
2.881800 0.000000
2.896200 0.000000
2.910500 0.000000
2.924900 0.000000
2.939300 0.000000
2.953700 0.000000
2.968000 0.000000
2.982400 0.000000
2.996800 0.000000
3.011200 0.000000
3.025500 0.000000
3.039900 0.000000
3.054300 0.000600
3.068700 0.001800
3.083000 0.003700
3.097400 0.006300
3.111800 0.009500
3.126200 0.013500
3.140500 0.018100
3.154900 0.023400
3.169300 0.029200
3.183700 0.033000
3.198000 0.035800
3.212400 0.037900
3.226800 0.039200
3.241200 0.039900
3.255500 0.041000
3.269900 0.043000
3.284300 0.044900
3.298700 0.047000
3.313000 0.049100
3.327400 0.051200
3.341800 0.053400
3.356200 0.055700
3.370500 0.058000
3.384900 0.060300
3.399300 0.062700
3.413700 0.065100
3.428000 0.067600
3.442400 0.070100
3.456800 0.072700
3.471100 0.075300
3.485500 0.077900
3.499900 0.080000
3.514300 0.082200
3.528600 0.084300
3.543000 0.086400
3.557400 0.088600
3.571800 0.090900
3.586100 0.093100
3.600500 0.095400
3.614900 0.097700
3.629300 0.100000
3.643600 0.102400
3.658000 0.104700
3.672400 0.107100
3.686800 0.109600
3.701100 0.112200
3.715500 0.114900
3.729900 0.117600
3.744300 0.120400
3.758600 0.123300
3.773000 0.126200
3.787400 0.129100
3.801800 0.132000
3.816100 0.135000
3.830500 0.138100
3.844900 0.141300
3.859300 0.144500
3.873600 0.147700
3.888000 0.151000
3.902400 0.154300
3.916800 0.157600
3.931100 0.161000
3.945500 0.164400
3.959900 0.167800
3.974300 0.171200
3.988600 0.174600
4.003000 0.178100
4.017400 0.181700
4.031800 0.185200
4.046100 0.188900
4.060500 0.193000
4.074900 0.197200
4.089200 0.201400
4.103600 0.205600
4.118000 0.209800
4.132400 0.214200
4.146700 0.218800
4.161100 0.223400
4.175500 0.228300
4.189900 0.233300
4.204200 0.238500
4.218600 0.243900
4.233000 0.249400
4.247400 0.254900
4.261700 0.260500
4.276100 0.266200
4.290500 0.272000
4.304900 0.277800
4.319200 0.283700
4.333600 0.290700
4.348000 0.297500
4.362400 0.304300
4.376700 0.311400
4.391100 0.318700
4.405500 0.326100
4.419900 0.333700
4.434200 0.341500
4.448600 0.349400
4.463000 0.357500
4.477400 0.365700
4.491700 0.373900
4.506100 0.382500
4.520500 0.392100
4.534900 0.402100
4.549200 0.412200
4.563600 0.422100
4.578000 0.431900
4.592400 0.441600
4.606700 0.451200
4.621100 0.460800
4.635500 0.470400
4.649900 0.480000
4.664200 0.489800
4.678600 0.499800
4.693000 0.509800
4.707300 0.519600
4.721700 0.531900
4.736100 0.549300
4.750500 0.564300
4.764800 0.577000
4.779200 0.587500
4.793600 0.595800
4.808000 0.602700
4.822300 0.609800
4.836700 0.616400
4.851100 0.620200
4.865500 0.621600
4.879800 0.623700
4.894200 0.627000
4.908600 0.630900
4.923000 0.636400
4.937300 0.644500
4.951700 0.653200
4.966100 0.663400
4.980500 0.675200
4.994800 0.688300
5.009200 0.702700
5.023600 0.716900
5.038000 0.729100
5.052300 0.739500
5.066700 0.748200
5.081100 0.755500
5.095500 0.761300
5.109800 0.767500
5.124200 0.775400
5.138600 0.783900
5.153000 0.792300
5.167300 0.800600
5.181700 0.808800
5.196100 0.816900
5.210500 0.824800
5.224800 0.831800
5.239200 0.839300
5.253600 0.847300
5.268000 0.855300
5.282300 0.863900
5.296700 0.873900
5.311100 0.884700
5.325400 0.895300
5.339800 0.904500
5.354200 0.913300
5.368600 0.922300
5.382900 0.931600
5.397300 0.941300
5.411700 0.951400
5.426100 0.961400
5.440400 0.971400
5.454800 0.981400
5.469200 0.991400
5.483600 1.001700
5.497900 1.012100
5.512300 1.022600
5.526700 1.033100
5.541100 1.043200
5.555400 1.052900
5.569800 1.062800
5.584200 1.073500
5.598600 1.084500
5.612900 1.095400
5.627300 1.107300
5.641700 1.121900
5.656100 1.140100
5.670400 1.162000
5.684800 1.187200
5.699200 1.179800
5.713600 1.178200
5.727900 1.190500
5.742300 1.202900
5.756700 1.214800
5.771100 1.227400
5.785400 1.240200
5.799800 1.253800
5.814200 1.268200
5.828600 1.283800
5.842900 1.300400
5.857300 1.317000
5.871700 1.333800
5.886100 1.351500
5.900400 1.372300
5.914800 1.395400
5.929200 1.417600
5.943600 1.438800
5.957900 1.459400
5.972300 1.479600
5.986700 1.499800
6.001000 1.520900
6.015400 1.542900
6.029800 1.566300
6.044200 1.591100
6.058500 1.617900
6.072900 1.646600
6.087300 1.678400
6.101700 1.714800
6.116000 1.757400
6.130400 1.807800
6.144800 1.871100
