set title 'mp-1187951 - Density of States'
set xlabel 'Energy (eV)'
set ylabel 'DOS (states/eV)'
set grid
set xrange [-10:10]
set yrange [0:23.426]
set xzeroaxis lt -1
set terminal png size 800,600
set output 'mp-1187951_dos_gnuplot.png'
plot '-' using 1:2 with lines title 'DOS'
-7.138500 0.000000
-7.111700 0.000000
-7.084900 0.000000
-7.058100 0.000000
-7.031300 0.000000
-7.004500 0.000000
-6.977700 0.000000
-6.950900 0.000000
-6.924100 0.000000
-6.897300 0.000000
-6.870500 0.000000
-6.843800 0.000000
-6.817000 0.000000
-6.790200 0.000000
-6.763400 0.000000
-6.736600 0.000000
-6.709800 0.000000
-6.683000 0.000000
-6.656200 0.000000
-6.629400 0.000000
-6.602600 0.000000
-6.575800 0.000000
-6.549000 0.000000
-6.522200 0.000000
-6.495400 0.000000
-6.468600 0.000000
-6.441900 0.000000
-6.415100 0.000000
-6.388300 0.000000
-6.361500 0.000000
-6.334700 0.000000
-6.307900 0.000000
-6.281100 0.000000
-6.254300 0.000000
-6.227500 0.000000
-6.200700 0.000000
-6.173900 0.000000
-6.147100 0.000000
-6.120300 0.000000
-6.093500 0.000000
-6.066700 0.000000
-6.040000 0.000000
-6.013200 0.000000
-5.986400 0.000000
-5.959600 0.000000
-5.932800 0.000000
-5.906000 0.000000
-5.879200 0.000000
-5.852400 0.000000
-5.825600 0.000000
-5.798800 0.000000
-5.772000 0.000000
-5.745200 0.000000
-5.718400 0.000000
-5.691600 0.000000
-5.664900 0.000000
-5.638100 0.000000
-5.611300 0.000000
-5.584500 0.000000
-5.557700 0.000000
-5.530900 0.000000
-5.504100 0.000000
-5.477300 0.000000
-5.450500 0.000000
-5.423700 0.000000
-5.396900 0.000000
-5.370100 0.000000
-5.343300 0.000000
-5.316500 0.000000
-5.289700 0.000000
-5.263000 0.000000
-5.236200 0.000000
-5.209400 0.000000
-5.182600 0.000000
-5.155800 0.000000
-5.129000 0.000000
-5.102200 0.000000
-5.075400 0.000000
-5.048600 0.000000
-5.021800 0.000000
-4.995000 0.000000
-4.968200 0.000000
-4.941400 0.000000
-4.914600 0.000000
-4.887800 0.000000
-4.861100 0.000000
-4.834300 0.000000
-4.807500 0.000000
-4.780700 0.000000
-4.753900 0.000000
-4.727100 0.000000
-4.700300 0.000000
-4.673500 0.004300
-4.646700 0.016000
-4.619900 0.033000
-4.593100 0.043100
-4.566300 0.045600
-4.539500 0.049800
-4.512700 0.055100
-4.485900 0.061100
-4.459200 0.065100
-4.432400 0.070500
-4.405600 0.076300
-4.378800 0.081100
-4.352000 0.084000
-4.325200 0.085300
-4.298400 0.089100
-4.271600 0.092900
-4.244800 0.096600
-4.218000 0.099900
-4.191200 0.102800
-4.164400 0.105500
-4.137600 0.108600
-4.110800 0.111900
-4.084000 0.115500
-4.057300 0.119400
-4.030500 0.123600
-4.003700 0.126600
-3.976900 0.129500
-3.950100 0.132300
-3.923300 0.135100
-3.896500 0.137600
-3.869700 0.140200
-3.842900 0.142900
-3.816100 0.145700
-3.789300 0.148500
-3.762500 0.151400
-3.735700 0.154800
-3.708900 0.158100
-3.682100 0.161500
-3.655400 0.165000
-3.628600 0.168700
-3.601800 0.172400
-3.575000 0.176200
-3.548200 0.180000
-3.521400 0.183600
-3.494600 0.187000
-3.467800 0.190700
-3.441000 0.194500
-3.414200 0.198400
-3.387400 0.202700
-3.360600 0.207200
-3.333800 0.212000
-3.307000 0.217100
-3.280200 0.222300
-3.253500 0.227900
-3.226700 0.233600
-3.199900 0.239600
-3.173100 0.245700
-3.146300 0.252100
-3.119500 0.258800
-3.092700 0.265900
-3.065900 0.274700
-3.039100 0.285200
-3.012300 0.296800
-2.985500 0.311300
-2.958700 0.327400
-2.931900 0.345400
-2.905100 0.365400
-2.878400 0.387500
-2.851600 0.415100
-2.824800 0.446900
-2.798000 0.487900
-2.771200 0.522400
-2.744400 0.565100
-2.717600 0.596700
-2.690800 0.675600
-2.664000 0.752600
-2.637200 0.854200
-2.610400 1.203500
-2.583600 1.555400
-2.556800 2.169600
-2.530000 6.274300
-2.503200 7.113500
-2.476500 7.000700
-2.449700 6.166500
-2.422900 7.238000
-2.396100 11.799400
-2.369300 12.244100
-2.342500 12.411000
-2.315700 12.976900
-2.288900 15.571200
-2.262100 21.296200
-2.235300 17.551000
-2.208500 11.682900
-2.181700 9.715400
-2.154900 3.948200
-2.128100 2.624600
-2.101300 2.325900
-2.074600 2.047300
-2.047800 1.951700
-2.021000 1.700700
-1.994200 0.579000
-1.967400 0.550400
-1.940600 0.530100
-1.913800 0.519600
-1.887000 0.518200
-1.860200 0.512000
-1.833400 0.498000
-1.806600 0.487300
-1.779800 0.481000
-1.753000 0.476000
-1.726200 0.472300
-1.699400 0.481600
-1.672700 0.471800
-1.645900 0.460400
-1.619100 0.451800
-1.592300 0.449600
-1.565500 0.450000
-1.538700 0.451600
-1.511900 0.454100
-1.485100 0.458400
-1.458300 0.468300
-1.431500 0.480700
-1.404700 0.491100
-1.377900 0.505200
-1.351100 0.520200
-1.324300 0.536000
-1.297500 0.552100
-1.270800 0.573000
-1.244000 0.582700
-1.217200 0.592200
-1.190400 0.604800
-1.163600 0.632300
-1.136800 0.680500
-1.110000 0.731900
-1.083200 0.730300
-1.056400 0.706800
-1.029600 0.587400
-1.002800 0.568400
-0.976000 0.543500
-0.949200 0.529100
-0.922400 0.518800
-0.895600 0.507300
-0.868900 0.511700
-0.842100 0.517800
-0.815300 0.507800
-0.788500 0.495800
-0.761700 0.534600
-0.734900 0.636500
-0.708100 0.359200
-0.681300 0.159300
-0.654500 0.184700
-0.627700 0.200500
-0.600900 0.212600
-0.574100 0.226900
-0.547300 0.241300
-0.520500 0.255900
-0.493700 0.272000
-0.467000 0.290200
-0.440200 0.310600
-0.413400 0.328900
-0.386600 0.343800
-0.359800 0.377400
-0.333000 0.415200
-0.306200 0.459100
-0.279400 0.509600
-0.252600 0.589500
-0.225800 0.631500
-0.199000 0.660100
-0.172200 0.674300
-0.145400 0.690600
-0.118600 0.675300
-0.091800 0.674800
-0.065100 0.691900
-0.038300 0.717800
-0.011500 0.742000
0.015300 0.769900
0.042100 0.805000
0.068900 0.843000
0.095700 0.898800
0.122500 1.172000
0.149300 1.275500
0.176100 1.260400
0.202900 1.268100
0.229700 1.269800
0.256500 1.277400
0.283300 1.258400
0.310000 1.230300
0.336800 1.199900
0.363600 1.182800
0.390400 1.218900
0.417200 1.220100
0.444000 0.998300
0.470800 0.959700
0.497600 0.928600
0.524400 0.889200
0.551200 0.857300
0.578000 0.842100
0.604800 0.825200
0.631600 0.832400
0.658400 0.907000
0.685200 1.174900
0.711900 1.171300
0.738700 1.186500
0.765500 1.203200
0.792300 1.321400
0.819100 1.343400
0.845900 1.572600
0.872700 1.654600
0.899500 1.663300
0.926300 1.634400
0.953100 1.669500
0.979900 1.737300
1.006700 1.826900
1.033500 2.093700
1.060300 2.442300
1.087100 2.675500
1.113800 2.249400
1.140600 2.415300
1.167400 2.339000
1.194200 3.376400
1.221000 4.193100
1.247800 4.313100
1.274600 4.713000
1.301400 5.308700
1.328200 4.326700
1.355000 4.097300
1.381800 4.448000
1.408600 4.930700
1.435400 7.144800
1.462200 6.771400
1.489000 5.479100
1.515700 4.413600
1.542500 3.935400
1.569300 5.809400
1.596100 5.985500
1.622900 4.499800
1.649700 4.195100
1.676500 4.841900
1.703300 4.385300
1.730100 4.301500
1.756900 4.010100
1.783700 3.348300
1.810500 3.484200
1.837300 4.478600
1.864100 4.737100
1.890900 4.728300
1.917600 4.359600
1.944400 3.161800
1.971200 3.079500
1.998000 3.530200
2.024800 3.195500
2.051600 2.679700
2.078400 2.474000
2.105200 2.488600
2.132000 2.645000
2.158800 2.641000
2.185600 3.669500
2.212400 3.971000
2.239200 3.630500
2.266000 3.611100
2.292800 3.194600
2.319500 4.215200
2.346300 5.648600
2.373100 5.638700
2.399900 5.175700
2.426700 4.595700
2.453500 4.304200
2.480300 4.152200
2.507100 4.119100
2.533900 4.487000
2.560700 3.836900
2.587500 3.660900
2.614300 3.279300
2.641100 3.003400
2.667900 3.525400
2.694700 4.260000
2.721400 4.284600
2.748200 4.041100
2.775000 3.641100
2.801800 3.364600
2.828600 3.216800
2.855400 3.246900
2.882200 3.228400
2.909000 3.122800
2.935800 3.474900
2.962600 3.271500
2.989400 2.873100
3.016200 2.859300
3.043000 3.507800
3.069800 4.968400
3.096500 5.387300
3.123300 7.434300
3.150100 6.381200
3.176900 5.869200
3.203700 5.833100
3.230500 7.621600
3.257300 6.752700
3.284100 6.946600
3.310900 7.217600
3.337700 9.586400
3.364500 5.975700
3.391300 4.620300
3.418100 4.888800
3.444900 5.589600
3.471700 4.987600
3.498400 4.505000
3.525200 4.411500
3.552000 4.242100
3.578800 4.677400
3.605600 4.800100
3.632400 4.492000
3.659200 3.979900
3.686000 3.539800
3.712800 2.662100
3.739600 2.805200
3.766400 2.867900
3.793200 2.863800
3.820000 3.249000
3.846800 3.179200
3.873600 3.129900
3.900300 2.968400
3.927100 2.558200
3.953900 2.555800
3.980700 6.518300
4.007500 4.241100
4.034300 5.052200
4.061100 4.946500
4.087900 4.605300
4.114700 4.217800
4.141500 3.328100
4.168300 2.500000
4.195100 1.857100
4.221900 1.616000
4.248700 1.670200
4.275500 1.842400
4.302200 1.746700
4.329000 1.605400
4.355800 1.481700
4.382600 1.482500
4.409400 1.495000
4.436200 1.503600
4.463000 1.357600
4.489800 1.155400
4.516600 0.882000
4.543400 0.837600
4.570200 0.818500
4.597000 0.796500
4.623800 0.784900
4.650600 0.775900
4.677400 0.764700
4.704100 0.750400
4.730900 0.736800
4.757700 0.722400
4.784500 0.707100
4.811300 0.695300
4.838100 0.686200
4.864900 0.672100
4.891700 0.657200
4.918500 0.643000
4.945300 0.629400
4.972100 0.619500
4.998900 0.610300
5.025700 0.602400
5.052500 0.596000
5.079300 0.591700
5.106000 0.587900
5.132800 0.583800
5.159600 0.579700
5.186400 0.575500
5.213200 0.570300
5.240000 0.565800
5.266800 0.559600
5.293600 0.559900
5.320400 0.574600
5.347200 0.560000
5.374000 0.546400
5.400800 0.539500
5.427600 0.535700
5.454400 0.533000
5.481200 0.530800
5.507900 0.529200
5.534700 0.531300
5.561500 0.534000
5.588300 0.537700
5.615100 0.542400
5.641900 0.548400
5.668700 0.557600
5.695500 0.554600
5.722300 0.566100
5.749100 0.573100
5.775900 0.577500
5.802700 0.580800
5.829500 0.585600
5.856300 0.593800
5.883000 0.600800
5.909800 0.607100
5.936600 0.611100
5.963400 0.604900
5.990200 0.601800
6.017000 0.598000
6.043800 0.604800
6.070600 0.611200
6.097400 0.617800
6.124200 0.621900
6.151000 0.635800
6.177800 0.621000
6.204600 0.608300
6.231400 0.582000
6.258200 0.581400
6.284900 0.581100
6.311700 0.579300
6.338500 0.578000
6.365300 0.576900
6.392100 0.576000
6.418900 0.571800
6.445700 0.568500
6.472500 0.570700
6.499300 0.573700
6.526100 0.573600
6.552900 0.573000
6.579700 0.571300
6.606500 0.570300
6.633300 0.568200
6.660100 0.568000
6.686800 0.567800
6.713600 0.566700
6.740400 0.564900
6.767200 0.563400
6.794000 0.561700
6.820800 0.560800
6.847600 0.560100
6.874400 0.560100
6.901200 0.560000
6.928000 0.559600
6.954800 0.560300
6.981600 0.561700
7.008400 0.563400
7.035200 0.564900
7.062000 0.564800
7.088700 0.570200
7.115500 0.573700
7.142300 0.574400
7.169100 0.571600
7.195900 0.566500
7.222700 0.560900
7.249500 0.555600
7.276300 0.550000
7.303100 0.543400
7.329900 0.535700
7.356700 0.526100
7.383500 0.514500
7.410300 0.501000
7.437100 0.487500
7.463900 0.474400
7.490600 0.463000
7.517400 0.452600
7.544200 0.442400
7.571000 0.433200
7.597800 0.426500
7.624600 0.417800
7.651400 0.404300
7.678200 0.395700
7.705000 0.384500
7.731800 0.372700
7.758600 0.361600
7.785400 0.346100
7.812200 0.331900
7.839000 0.319500
7.865800 0.309100
7.892500 0.303100
7.919300 0.299700
7.946100 0.297400
7.972900 0.295900
7.999700 0.294700
8.026500 0.294900
8.053300 0.296300
8.080100 0.297400
8.106900 0.299200
8.133700 0.302400
8.160500 0.307200
8.187300 0.313000
8.214100 0.315700
8.240900 0.319300
8.267700 0.326100
8.294400 0.334200
8.321200 0.342900
8.348000 0.352900
8.374800 0.364000
8.401600 0.374600
8.428400 0.391500
8.455200 0.414400
8.482000 0.421500
8.508800 0.425300
8.535600 0.425700
8.562400 0.423500
8.589200 0.419800
8.616000 0.414500
8.642800 0.409100
8.669500 0.403300
8.696300 0.397100
8.723100 0.390600
8.749900 0.384000
8.776700 0.377200
8.803500 0.369800
8.830300 0.361700
8.857100 0.353000
8.883900 0.340800
8.910700 0.334000
8.937500 0.319500
8.964300 0.313700
8.991100 0.308800
9.017900 0.304300
9.044700 0.300200
9.071400 0.296300
9.098200 0.292500
9.125000 0.288700
9.151800 0.288800
9.178600 0.291400
9.205400 0.296500
9.232200 0.304200
9.259000 0.314700
9.285800 0.329000
9.312600 0.336900
9.339400 0.339500
9.366200 0.347700
9.393000 0.352800
9.419800 0.356500
9.446600 0.361800
9.473300 0.376900
9.500100 0.415300
9.526900 0.456400
9.553700 0.534900
9.580500 0.604200
9.607300 0.633500
9.634100 0.654800
9.660900 0.660400
9.687700 0.660500
9.714500 0.670600
9.741300 0.608600
9.768100 0.578100
9.794900 0.545800
9.821700 0.510400
9.848500 0.479500
9.875200 0.450800
9.902000 0.410600
9.928800 0.404000
9.955600 0.403900
9.982400 0.413300
10.009200 0.410500
10.036000 0.417400
10.062800 0.420900
10.089600 0.425400
10.116400 0.423800
10.143200 0.423100
10.170000 0.419100
10.196800 0.417200
10.223600 0.416400
10.250400 0.418400
10.277100 0.419200
10.303900 0.424700
10.330700 0.423500
10.357500 0.437600
10.384300 0.456800
10.411100 0.476100
10.437900 0.495700
10.464700 0.519600
10.491500 0.544500
10.518300 0.570200
10.545100 0.601900
10.571900 0.622800
10.598700 0.626900
10.625500 0.628900
10.652300 0.636200
10.679000 0.635900
10.705800 0.623000
10.732600 0.611300
10.759400 0.608100
10.786200 0.610200
10.813000 0.612600
10.839800 0.609000
10.866600 0.608600
10.893400 0.606400
10.920200 0.603500
10.947000 0.593700
10.973800 0.585900
11.000600 0.579100
11.027400 0.574000
11.054200 0.571200
11.080900 0.562800
11.107700 0.564300
11.134500 0.558900
11.161300 0.553800
11.188100 0.549500
11.214900 0.546000
11.241700 0.544900
11.268500 0.546100
11.295300 0.543900
11.322100 0.542100
11.348900 0.538400
11.375700 0.534200
11.402500 0.529700
11.429300 0.526800
11.456100 0.525400
11.482800 0.523500
11.509600 0.520300
11.536400 0.517300
11.563200 0.514900
11.590000 0.512900
11.616800 0.511200
11.643600 0.510400
11.670400 0.510000
11.697200 0.510100
11.724000 0.510400
11.750800 0.511000
11.777600 0.507700
11.804400 0.507500
11.831200 0.507300
11.857900 0.505800
11.884700 0.503700
11.911500 0.501000
11.938300 0.497700
11.965100 0.493800
11.991900 0.490300
12.018700 0.487300
12.045500 0.486100
12.072300 0.484400
12.099100 0.481200
12.125900 0.477500
12.152700 0.474500
12.179500 0.472800
12.206300 0.471600
12.233100 0.468500
12.259800 0.461300
12.286600 0.458500
12.313400 0.455200
12.340200 0.451800
12.367000 0.451500
12.393800 0.458000
12.420600 0.466600
12.447400 0.476700
12.474200 0.457200
12.501000 0.457500
12.527800 0.457400
12.554600 0.457000
12.581400 0.459300
12.608200 0.464300
12.635000 0.471500
12.661700 0.479800
12.688500 0.518400
12.715300 0.507100
12.742100 0.513000
12.768900 0.523100
12.795700 0.531400
12.822500 0.543400
12.849300 0.556900
12.876100 0.595600
12.902900 0.615500
12.929700 0.639100
12.956500 0.664600
12.983300 0.675300
13.010100 0.657800
13.036900 0.643800
13.063600 0.640600
13.090400 0.638000
13.117200 0.634300
13.144000 0.632900
13.170800 0.627700
13.197600 0.625800
13.224400 0.624600
13.251200 0.622800
13.278000 0.620500
13.304800 0.629400
13.331600 0.625500
13.358400 0.625200
13.385200 0.632200
13.412000 0.644600
13.438800 0.664400
13.465500 0.682200
13.492300 0.695900
13.519100 0.704300
13.545900 0.702300
13.572700 0.708500
13.599500 0.719900
13.626300 0.739700
13.653100 0.745100
13.679900 0.749700
13.706700 0.744200
13.733500 0.728900
13.760300 0.711200
13.787100 0.695500
13.813900 0.677900
13.840700 0.673100
13.867400 0.672400
13.894200 0.672600
13.921000 0.682500
13.947800 0.676400
13.974600 0.672500
14.001400 0.675400
14.028200 0.693800
14.055000 0.675200
14.081800 0.660700
14.108600 0.658900
14.135400 0.657800
14.162200 0.658800
14.189000 0.662200
14.215800 0.665800
14.242600 0.667200
14.269300 0.664100
14.296100 0.667600
14.322900 0.671500
14.349700 0.676300
14.376500 0.685100
14.403300 0.691300
14.430100 0.696800
14.456900 0.701200
14.483700 0.705200
14.510500 0.707700
14.537300 0.711700
14.564100 0.724100
14.590900 0.734700
14.617700 0.749100
14.644400 0.768500
14.671200 0.780700
14.698000 0.877000
14.724800 0.741600
14.751600 0.715400
14.778400 0.701500
14.805200 0.699800
14.832000 0.699400
14.858800 0.697000
14.885600 0.699500
14.912400 0.698500
14.939200 0.693300
14.966000 0.686900
14.992800 0.682100
15.019600 0.679300
15.046300 0.678800
15.073100 0.681800
15.099900 0.681100
15.126700 0.679500
15.153500 0.681100
15.180300 0.684100
15.207100 0.687500
15.233900 0.690200
15.260700 0.692000
15.287500 0.694200
15.314300 0.696000
15.341100 0.693200
15.367900 0.701100
15.394700 0.716500
15.421500 0.731200
15.448200 0.737000
15.475000 0.739400
15.501800 0.742200
15.528600 0.739600
15.555400 0.724800
15.582200 0.718400
15.609000 0.714300
15.635800 0.714800
15.662600 0.712900
15.689400 0.705100
15.716200 0.693200
15.743000 0.682100
15.769800 0.674900
15.796600 0.672700
15.823400 0.673700
15.850100 0.681200
15.876900 0.695800
15.903700 0.721000
15.930500 0.754400
15.957300 0.741200
15.984100 0.733000
16.010900 0.735700
16.037700 0.733000
16.064500 0.729600
16.091300 0.728000
16.118100 0.727700
16.144900 0.726700
16.171700 0.723300
16.198500 0.717300
16.225300 0.708600
16.252000 0.705200
16.278800 0.702700
16.305600 0.709300
16.332400 0.717500
16.359200 0.726000
16.386000 0.735600
16.412800 0.739600
16.439600 0.741600
16.466400 0.742400
16.493200 0.742300
16.520000 0.744100
16.546800 0.732000
16.573600 0.713100
16.600400 0.705900
16.627200 0.706200
16.653900 0.705300
16.680700 0.703000
16.707500 0.709300
16.734300 0.731000
16.761100 0.740000
16.787900 0.747300
16.814700 0.757200
16.841500 0.767800
16.868300 0.780600
16.895100 0.799300
16.921900 0.821100
16.948700 0.827700
16.975500 0.814100
17.002300 0.809000
17.029100 0.804100
17.055800 0.798000
17.082600 0.794200
17.109400 0.791900
17.136200 0.793300
17.163000 0.767800
17.189800 0.841400
17.216600 0.759300
17.243400 0.756300
17.270200 0.754700
17.297000 0.754300
17.323800 0.751700
17.350600 0.757700
17.377400 0.755500
17.404200 0.748800
17.430900 0.741800
17.457700 0.738800
17.484500 0.750200
17.511300 0.752000
17.538100 0.759000
17.564900 0.764700
17.591700 0.772000
17.618500 0.779600
17.645300 0.786800
17.672100 0.794300
17.698900 0.807800
17.725700 0.807500
17.752500 0.809600
17.779300 0.814400
17.806100 0.820200
17.832800 0.827000
17.859600 0.840300
17.886400 0.868800
17.913200 0.881000
17.940000 0.889600
17.966800 0.894800
17.993600 0.893400
18.020400 0.895200
18.047200 0.899000
18.074000 0.903400
18.100800 0.897300
18.127600 0.880300
18.154400 0.853700
18.181200 0.835700
18.208000 0.829700
18.234700 0.826500
18.261500 0.825100
18.288300 0.822100
18.315100 0.817200
18.341900 0.814400
18.368700 0.813500
18.395500 0.819700
18.422300 0.827500
18.449100 0.840800
18.475900 0.856300
18.502700 0.871100
18.529500 0.877800
18.556300 0.897200
18.583100 0.899300
18.609900 0.875300
18.636600 0.886800
18.663400 0.901100
18.690200 0.916600
18.717000 0.935200
18.743800 0.981500
18.770600 0.998800
18.797400 0.990900
18.824200 0.978300
18.851000 0.972900
18.877800 0.967500
18.904600 0.973900
18.931400 1.012400
18.958200 0.998900
18.985000 0.965200
19.011800 0.926200
19.038500 0.895100
19.065300 0.873800
19.092100 0.859000
19.118900 0.847100
19.145700 0.837400
19.172500 0.830100
19.199300 0.825900
19.226100 0.822800
19.252900 0.823900
19.279700 0.826700
19.306500 0.832600
19.333300 0.844000
19.360100 0.856500
19.386900 0.859000
19.413700 0.874000
19.440400 0.907100
19.467200 0.920400
19.494000 0.934000
19.520800 0.941500
19.547600 0.947900
19.574400 0.925200
19.601200 0.827500
19.628000 0.759900
19.654800 0.738700
19.681600 0.729100
19.708400 0.719400
19.735200 0.711200
19.762000 0.706100
19.788800 0.704800
19.815600 0.704000
19.842300 0.703800
19.869100 0.703300
19.895900 0.708800
19.922700 0.733100
19.949500 0.736500
19.976300 0.739000
20.003100 0.743000
20.029900 0.745800
20.056700 0.751200
20.083500 0.758600
20.110300 0.760700
20.137100 0.757000
20.163900 0.764600
20.190700 0.778600
20.217500 0.790500
20.244200 0.799500
20.271000 0.805200
20.297800 0.807200
20.324600 0.805800
20.351400 0.805100
20.378200 0.807100
20.405000 0.812300
20.431800 0.820200
20.458600 0.828700
20.485400 0.832200
20.512200 0.832700
20.539000 0.837000
20.565800 0.846900
20.592600 0.857400
20.619300 0.867700
20.646100 0.868800
20.672900 0.869100
20.699700 0.842300
20.726500 0.836800
20.753300 0.829100
20.780100 0.817700
20.806900 0.803900
20.833700 0.790000
20.860500 0.784200
20.887300 0.772600
20.914100 0.767800
20.940900 0.769900
20.967700 0.777000
20.994500 0.779600
21.021200 0.781000
21.048000 0.783000
21.074800 0.788700
21.101600 0.780600
21.128400 0.770300
21.155200 0.772300
