set title 'mp-1187946 - Density of States'
set xlabel 'Energy (eV)'
set ylabel 'DOS (states/eV)'
set grid
set xrange [-10:10]
set yrange [0:52.739]
set xzeroaxis lt -1
set terminal png size 800,600
set output 'mp-1187946_dos_gnuplot.png'
plot '-' using 1:2 with lines title 'DOS'
-6.949100 0.000000
-6.928300 0.000000
-6.907600 0.000000
-6.886800 0.000000
-6.866000 0.000000
-6.845200 0.000000
-6.824500 0.000000
-6.803700 0.000000
-6.782900 0.000000
-6.762100 0.000000
-6.741300 0.000000
-6.720600 0.000000
-6.699800 0.000000
-6.679000 0.000000
-6.658200 0.000000
-6.637500 0.000000
-6.616700 0.000000
-6.595900 0.000000
-6.575100 0.000000
-6.554400 0.000000
-6.533600 0.000000
-6.512800 0.000000
-6.492000 0.000000
-6.471300 0.000000
-6.450500 0.000000
-6.429700 0.000000
-6.408900 0.000000
-6.388200 0.000000
-6.367400 0.000000
-6.346600 0.000000
-6.325800 0.000000
-6.305100 0.000000
-6.284300 0.000000
-6.263500 0.000000
-6.242700 0.000000
-6.222000 0.000000
-6.201200 0.000000
-6.180400 0.000000
-6.159600 0.000000
-6.138900 0.000000
-6.118100 0.000000
-6.097300 0.000000
-6.076500 0.000000
-6.055800 0.000000
-6.035000 0.000000
-6.014200 0.000000
-5.993400 0.000000
-5.972700 0.000000
-5.951900 0.000000
-5.931100 0.000000
-5.910300 0.000000
-5.889600 0.000000
-5.868800 0.000000
-5.848000 0.000000
-5.827200 0.000000
-5.806500 0.000000
-5.785700 0.000000
-5.764900 0.000000
-5.744100 0.000000
-5.723400 0.000000
-5.702600 0.000000
-5.681800 0.000000
-5.661000 0.000000
-5.640300 0.000000
-5.619500 0.000000
-5.598700 0.000000
-5.577900 0.000000
-5.557200 0.000000
-5.536400 0.000000
-5.515600 0.000000
-5.494800 0.000000
-5.474100 0.000000
-5.453300 0.000000
-5.432500 0.000000
-5.411700 0.000000
-5.391000 0.000000
-5.370200 0.000000
-5.349400 0.000000
-5.328600 0.000000
-5.307900 0.000000
-5.287100 0.000000
-5.266300 0.000000
-5.245500 0.000000
-5.224800 0.000000
-5.204000 0.000000
-5.183200 0.000000
-5.162400 0.000200
-5.141700 0.001000
-5.120900 0.003800
-5.100100 0.010400
-5.079300 0.021600
-5.058600 0.035700
-5.037800 0.050800
-5.017000 0.067500
-4.996200 0.089700
-4.975500 0.125600
-4.954700 0.177200
-4.933900 0.221100
-4.913100 0.220200
-4.892400 0.167700
-4.871600 0.102000
-4.850800 0.070300
-4.830000 0.096800
-4.809300 0.174200
-4.788500 0.266100
-4.767700 0.325900
-4.746900 0.334900
-4.726200 0.318800
-4.705400 0.320700
-4.684600 0.350900
-4.663800 0.365700
-4.643100 0.316800
-4.622300 0.222300
-4.601500 0.150600
-4.580700 0.144400
-4.559900 0.196400
-4.539200 0.283300
-4.518400 0.380400
-4.497600 0.452500
-4.476800 0.478200
-4.456100 0.480700
-4.435300 0.496500
-4.414500 0.519000
-4.393700 0.500600
-4.373000 0.418200
-4.352200 0.327600
-4.331400 0.335300
-4.310600 0.510200
-4.289900 0.830400
-4.269100 1.230600
-4.248300 1.741300
-4.227500 2.639400
-4.206800 4.483600
-4.186000 7.918600
-4.165200 13.272400
-4.144400 20.240900
-4.123700 27.962300
-4.102900 35.326900
-4.082100 41.268800
-4.061300 45.186300
-4.040600 47.271900
-4.019800 47.944500
-3.999000 46.778500
-3.978200 42.640000
-3.957500 35.241000
-3.936700 26.089800
-3.915900 17.518700
-3.895100 10.991100
-3.874400 6.604000
-3.853600 3.853000
-3.832800 2.281900
-3.812000 1.478900
-3.791300 1.052400
-3.770500 0.824300
-3.749700 0.822500
-3.728900 1.010800
-3.708200 1.177900
-3.687400 1.143000
-3.666600 0.950300
-3.645800 0.760500
-3.625100 0.645700
-3.604300 0.589400
-3.583500 0.604300
-3.562700 0.742900
-3.542000 0.999000
-3.521200 1.254100
-3.500400 1.373800
-3.479600 1.352400
-3.458900 1.306300
-3.438100 1.363700
-3.417300 1.636300
-3.396500 2.184600
-3.375800 2.894100
-3.355000 3.519600
-3.334200 3.920900
-3.313400 4.102200
-3.292700 4.055700
-3.271900 3.764400
-3.251100 3.329900
-3.230300 2.936600
-3.209600 2.673500
-3.188800 2.489100
-3.168000 2.335800
-3.147200 2.240700
-3.126500 2.211700
-3.105700 2.213600
-3.084900 2.245800
-3.064100 2.310000
-3.043400 2.345500
-3.022600 2.313900
-3.001800 2.266900
-2.981000 2.241500
-2.960300 2.193800
-2.939500 2.104700
-2.918700 2.054000
-2.897900 2.150300
-2.877200 2.419400
-2.856400 2.721300
-2.835600 2.820900
-2.814800 2.677800
-2.794100 2.584400
-2.773300 2.830700
-2.752500 3.320000
-2.731700 3.682200
-2.711000 3.726200
-2.690200 3.667100
-2.669400 3.879000
-2.648600 4.524900
-2.627900 5.452700
-2.607100 6.331800
-2.586300 6.900700
-2.565500 7.204300
-2.544800 7.546800
-2.524000 8.136800
-2.503200 8.874200
-2.482400 9.528400
-2.461600 10.012600
-2.440900 10.468600
-2.420100 11.163800
-2.399300 12.262400
-2.378500 13.600300
-2.357800 14.715700
-2.337000 15.248600
-2.316200 15.298200
-2.295400 15.210600
-2.274700 15.096100
-2.253900 14.814400
-2.233100 14.405200
-2.212300 14.240100
-2.191600 14.543300
-2.170800 14.950600
-2.150000 14.940200
-2.129200 14.592700
-2.108500 14.389300
-2.087700 14.346800
-2.066900 13.949900
-2.046100 12.904000
-2.025400 11.507900
-2.004600 10.298600
-1.983800 9.556800
-1.963000 9.158200
-1.942300 8.817900
-1.921500 8.402000
-1.900700 7.989800
-1.879900 7.704400
-1.859200 7.578200
-1.838400 7.634100
-1.817600 7.968000
-1.796800 8.593800
-1.776100 9.326600
-1.755300 9.958400
-1.734500 10.397300
-1.713700 10.558700
-1.693000 10.351900
-1.672200 9.912900
-1.651400 9.646300
-1.630600 9.792900
-1.609900 10.108400
-1.589100 10.247100
-1.568300 10.258000
-1.547500 10.435300
-1.526800 10.888900
-1.506000 11.474800
-1.485200 12.015500
-1.464400 12.366000
-1.443700 12.292800
-1.422900 11.614200
-1.402100 10.557100
-1.381300 9.683200
-1.360600 9.401300
-1.339800 9.672000
-1.319000 10.118000
-1.298200 10.356300
-1.277500 10.294700
-1.256700 10.148000
-1.235900 10.151900
-1.215100 10.323200
-1.194400 10.522300
-1.173600 10.592100
-1.152800 10.453500
-1.132000 10.214600
-1.111300 10.115600
-1.090500 10.282100
-1.069700 10.570200
-1.048900 10.800700
-1.028200 11.202500
-1.007400 12.308700
-0.986600 14.185400
-0.965800 15.994600
-0.945100 16.633200
-0.924300 15.859700
-0.903500 14.579800
-0.882700 13.904400
-0.862000 14.115900
-0.841200 14.624900
-0.820400 14.680200
-0.799600 13.970600
-0.778900 12.737300
-0.758100 11.541100
-0.737300 10.852400
-0.716500 10.659900
-0.695800 10.557600
-0.675000 10.325000
-0.654200 10.153600
-0.633400 10.244200
-0.612700 10.532400
-0.591900 10.773400
-0.571100 10.681800
-0.550300 10.211800
-0.529600 9.721200
-0.508800 9.594000
-0.488000 9.792700
-0.467200 9.932500
-0.446500 9.711400
-0.425700 9.233100
-0.404900 8.876600
-0.384100 8.827400
-0.363400 8.883300
-0.342600 8.777200
-0.321800 8.508400
-0.301000 8.284800
-0.280200 8.290300
-0.259500 8.591200
-0.238700 9.127800
-0.217900 9.662300
-0.197100 9.808100
-0.176400 9.330000
-0.155600 8.444700
-0.134800 7.602700
-0.114000 7.026000
-0.093300 6.693400
-0.072500 6.576300
-0.051700 6.583500
-0.030900 6.410500
-0.010200 5.731100
0.010600 4.579800
0.031400 3.408500
0.052200 2.681200
0.072900 2.464600
0.093700 2.466000
0.114500 2.384100
0.135300 2.143600
0.156000 1.867400
0.176800 1.709300
0.197600 1.698300
0.218400 1.718100
0.239100 1.636700
0.259900 1.446200
0.280700 1.246500
0.301500 1.107800
0.322200 1.010400
0.343000 0.909900
0.363800 0.799700
0.384600 0.724200
0.405300 0.763400
0.426100 0.958100
0.446900 1.225300
0.467700 1.410100
0.488400 1.450500
0.509200 1.417700
0.530000 1.393800
0.550800 1.415800
0.571500 1.504200
0.592300 1.604600
0.613100 1.562800
0.633900 1.299900
0.654600 0.948300
0.675400 0.709900
0.696200 0.667800
0.717000 0.775600
0.737700 0.933400
0.758500 1.071100
0.779300 1.192400
0.800100 1.315400
0.820800 1.412100
0.841600 1.429400
0.862400 1.331700
0.883200 1.142500
0.903900 0.940300
0.924700 0.788900
0.945500 0.722100
0.966300 0.773600
0.987000 0.936500
1.007800 1.113800
1.028600 1.192200
1.049400 1.155200
1.070100 1.074000
1.090900 1.005400
1.111700 0.966500
1.132500 0.982600
1.153200 1.063500
1.174000 1.144700
1.194800 1.141100
1.215600 1.048800
1.236300 0.945800
1.257100 0.922300
1.277900 1.030400
1.298700 1.250700
1.319400 1.487600
1.340200 1.616800
1.361000 1.553200
1.381800 1.308500
1.402500 0.982900
1.423300 0.688800
1.444100 0.510300
1.464900 0.501300
1.485600 0.645400
1.506400 0.847300
1.527200 1.026500
1.548000 1.178700
1.568700 1.317000
1.589500 1.412400
1.610300 1.418100
1.631100 1.317600
1.651800 1.138400
1.672600 0.942400
1.693400 0.826400
1.714200 0.891200
1.734900 1.133100
1.755700 1.379900
1.776500 1.423900
1.797300 1.243700
1.818000 1.037500
1.838800 0.992000
1.859600 1.064700
1.880400 1.062800
1.901200 0.900300
1.921900 0.681700
1.942700 0.540000
1.963500 0.500400
1.984300 0.531800
2.005000 0.639100
2.025800 0.841300
2.046600 1.096900
2.067400 1.296200
2.088100 1.348900
2.108900 1.276000
2.129700 1.165300
2.150500 1.053600
2.171200 0.939600
2.192000 0.867800
2.212800 0.885600
2.233600 0.948500
2.254300 0.972800
2.275100 0.957900
2.295900 0.985800
2.316700 1.129200
2.337400 1.374600
2.358200 1.602600
2.379000 1.678100
2.399800 1.574700
2.420500 1.359700
2.441300 1.100600
2.462100 0.866800
2.482900 0.755200
2.503600 0.820800
2.524400 1.016400
2.545200 1.234700
2.566000 1.363900
2.586700 1.329600
2.607500 1.156200
2.628300 0.958700
2.649100 0.836400
2.669800 0.808800
2.690600 0.853100
2.711400 0.944000
2.732200 1.049700
2.752900 1.129000
2.773700 1.152100
2.794500 1.143400
2.815300 1.182900
2.836000 1.298000
2.856800 1.389500
2.877600 1.359100
2.898400 1.253000
2.919100 1.189100
2.939900 1.197800
2.960700 1.211000
2.981500 1.186600
3.002200 1.178300
3.023000 1.262400
3.043800 1.424100
3.064600 1.537200
3.085300 1.494700
3.106100 1.356300
3.126900 1.276500
3.147700 1.296400
3.168400 1.314900
3.189200 1.252600
3.210000 1.134200
3.230800 1.009400
3.251500 0.892400
3.272300 0.801000
3.293100 0.774700
3.313900 0.839400
3.334600 0.985300
3.355400 1.171600
3.376200 1.335400
3.397000 1.397700
3.417700 1.310700
3.438500 1.122400
3.459300 0.931600
3.480100 0.782900
3.500800 0.669700
3.521600 0.593000
3.542400 0.581300
3.563200 0.685000
3.583900 0.930700
3.604700 1.258800
3.625500 1.532500
3.646300 1.633300
3.667000 1.549900
3.687800 1.365000
3.708600 1.180500
3.729400 1.074700
3.750100 1.079200
3.770900 1.151000
3.791700 1.208000
3.812500 1.216800
3.833200 1.207400
3.854000 1.221400
3.874800 1.284200
3.895600 1.378000
3.916300 1.429200
3.937100 1.378400
3.957900 1.260900
3.978700 1.167900
3.999400 1.141400
4.020200 1.154300
4.041000 1.165700
4.061800 1.137900
4.082600 1.047800
4.103300 0.936400
4.124100 0.890100
4.144900 0.932000
4.165700 0.980900
4.186400 0.951800
4.207200 0.854500
4.228000 0.766800
4.248800 0.754300
4.269500 0.834900
4.290300 0.960700
4.311100 1.027000
4.331900 0.972500
4.352600 0.858000
4.373400 0.778400
4.394200 0.732800
4.415000 0.657400
4.435700 0.551400
4.456500 0.505000
4.477300 0.605300
4.498100 0.844100
4.518800 1.120400
4.539600 1.328100
4.560400 1.424300
4.581200 1.411600
4.601900 1.299000
4.622700 1.111700
4.643500 0.906300
4.664300 0.746800
4.685000 0.663700
4.705800 0.638300
4.726600 0.639800
4.747400 0.689700
4.768100 0.837600
4.788900 1.041800
4.809700 1.170800
4.830500 1.165900
4.851200 1.098700
4.872000 1.052500
4.892800 1.035300
4.913600 1.010600
4.934300 0.971200
4.955100 0.958100
4.975900 0.997800
4.996700 1.069000
5.017400 1.147000
5.038200 1.206400
5.059000 1.181500
5.079800 1.031700
5.100500 0.840900
5.121300 0.760400
5.142100 0.849300
5.162900 1.028700
5.183600 1.188100
5.204400 1.283700
5.225200 1.328600
5.246000 1.335100
5.266700 1.313700
5.287500 1.323400
5.308300 1.445900
5.329100 1.658300
5.349800 1.806300
5.370600 1.760600
5.391400 1.555000
5.412200 1.357500
5.432900 1.332400
5.453700 1.518700
5.474500 1.785000
5.495300 1.888400
5.516000 1.673000
5.536800 1.235900
5.557600 0.827900
5.578400 0.624600
5.599100 0.618700
5.619900 0.666800
5.640700 0.634700
5.661500 0.533200
5.682200 0.491700
5.703000 0.612400
5.723800 0.872500
5.744600 1.145000
5.765300 1.323600
5.786100 1.430500
5.806900 1.551600
5.827700 1.674400
5.848400 1.671200
5.869200 1.466100
5.890000 1.138500
5.910800 0.827700
5.931500 0.618700
5.952300 0.558900
5.973100 0.693800
5.993900 0.994300
6.014600 1.307100
6.035400 1.493300
6.056200 1.576000
6.077000 1.630300
6.097700 1.603100
6.118500 1.394900
6.139300 1.053100
6.160100 0.757700
6.180800 0.650900
6.201600 0.735000
6.222400 0.904700
6.243200 1.059800
6.264000 1.188500
6.284700 1.333100
6.305500 1.489000
6.326300 1.567400
6.347100 1.483400
6.367800 1.271700
6.388600 1.069000
6.409400 0.988100
6.430200 1.047600
6.450900 1.195700
6.471700 1.382300
6.492500 1.602300
6.513300 1.836600
6.534000 1.996700
6.554800 2.000400
6.575600 1.855500
6.596400 1.638800
6.617100 1.457600
6.637900 1.417800
6.658700 1.526200
6.679500 1.614300
6.700200 1.479900
6.721000 1.126400
6.741800 0.766700
6.762600 0.584900
6.783300 0.568900
6.804100 0.597700
6.824900 0.636100
6.845700 0.755000
6.866400 0.956200
6.887200 1.098900
6.908000 1.068100
6.928800 0.932100
6.949500 0.872700
6.970300 0.989500
6.991100 1.209400
7.011900 1.387800
7.032600 1.450800
7.053400 1.410800
7.074200 1.307200
7.095000 1.172100
7.115700 1.039000
7.136500 0.959400
7.157300 0.953700
7.178100 0.954900
7.198800 0.896600
7.219600 0.822000
7.240400 0.797000
7.261200 0.801400
7.281900 0.817600
7.302700 0.923400
7.323500 1.193400
7.344300 1.585900
7.365000 1.965900
7.385800 2.177300
7.406600 2.132400
7.427400 1.910900
7.448100 1.696700
7.468900 1.565400
7.489700 1.448900
7.510500 1.305100
7.531200 1.176400
7.552000 1.096100
7.572800 1.076800
7.593600 1.176300
7.614300 1.444900
7.635100 1.798400
7.655900 2.031400
7.676700 2.000100
7.697400 1.757000
7.718200 1.466300
7.739000 1.239400
7.759800 1.094100
7.780500 0.994600
7.801300 0.887900
7.822100 0.762000
7.842900 0.667700
7.863600 0.654600
7.884400 0.743500
7.905200 0.957000
7.926000 1.260000
7.946700 1.483100
7.967500 1.447300
7.988300 1.169900
8.009100 0.859300
8.029800 0.734000
8.050600 0.889400
8.071400 1.242100
8.092200 1.552600
8.112900 1.621700
8.133700 1.501300
8.154500 1.382800
8.175300 1.327300
8.196000 1.266300
8.216800 1.167600
8.237600 1.058500
8.258400 0.983400
8.279100 1.009200
8.299900 1.173100
8.320700 1.383700
8.341500 1.457600
8.362200 1.308000
8.383000 1.049100
8.403800 0.865800
8.424600 0.834200
8.445400 0.909800
8.466100 1.028900
8.486900 1.162700
8.507700 1.284600
8.528500 1.354500
8.549200 1.383900
8.570000 1.474600
8.590800 1.733800
8.611600 2.131200
8.632300 2.476800
8.653100 2.614900
8.673900 2.579200
8.694700 2.457900
8.715400 2.242800
8.736200 1.921500
8.757000 1.583000
8.777800 1.368800
8.798500 1.347800
8.819300 1.421600
8.840100 1.414500
8.860900 1.288800
8.881600 1.156700
8.902400 1.076200
8.923200 0.989200
8.944000 0.876700
8.964700 0.820800
8.985500 0.895400
9.006300 1.103800
9.027100 1.415500
9.047800 1.782300
9.068600 2.121400
9.089400 2.314900
9.110200 2.262400
9.130900 1.988500
9.151700 1.661600
9.172500 1.445300
9.193300 1.379100
9.214000 1.418300
9.234800 1.504800
9.255600 1.584100
9.276400 1.612200
9.297100 1.561200
9.317900 1.444700
9.338700 1.332200
9.359500 1.294800
9.380200 1.341000
9.401000 1.411700
9.421800 1.429400
9.442600 1.376400
9.463300 1.337700
9.484100 1.419200
9.504900 1.613100
9.525700 1.790600
9.546400 1.841200
9.567200 1.786400
9.588000 1.724400
9.608800 1.686100
9.629500 1.616000
9.650300 1.477300
9.671100 1.318300
9.691900 1.227300
9.712600 1.222900
9.733400 1.243200
9.754200 1.296300
9.775000 1.498200
9.795700 1.860800
9.816500 2.200000
9.837300 2.349000
9.858100 2.310500
9.878800 2.152100
9.899600 1.910800
9.920400 1.659000
9.941200 1.505100
9.961900 1.450200
9.982700 1.373500
10.003500 1.226000
10.024300 1.131900
10.045000 1.242500
10.065800 1.543800
10.086600 1.841400
10.107400 1.928800
10.128100 1.772200
10.148900 1.522100
10.169700 1.346300
10.190500 1.291200
10.211200 1.306000
10.232000 1.333500
10.252800 1.344400
10.273600 1.334400
10.294300 1.326000
10.315100 1.346300
10.335900 1.384600
10.356700 1.391300
10.377400 1.332400
10.398200 1.248900
10.419000 1.257800
10.439800 1.472300
10.460500 1.890500
10.481300 2.366500
10.502100 2.711600
10.522900 2.797200
10.543700 2.579200
10.564400 2.150000
10.585200 1.755700
10.606000 1.598400
10.626800 1.649400
10.647500 1.756600
10.668300 1.835200
10.689100 1.872800
10.709900 1.866600
10.730600 1.823000
10.751400 1.747400
10.772200 1.629200
10.793000 1.486100
10.813700 1.392100
10.834500 1.426300
10.855300 1.604300
10.876100 1.850200
10.896800 2.045400
10.917600 2.120900
10.938400 2.060100
10.959200 1.865600
10.979900 1.626300
11.000700 1.526400
11.021500 1.652800
11.042300 1.848300
11.063000 1.857000
11.083800 1.621300
11.104600 1.356300
11.125400 1.273400
11.146100 1.330300
11.166900 1.351000
11.187700 1.285700
11.208500 1.236700
11.229200 1.301100
11.250000 1.480800
11.270800 1.718900
11.291600 1.960400
11.312300 2.146500
11.333100 2.191600
11.353900 2.057400
11.374700 1.837200
11.395400 1.701300
11.416200 1.757100
11.437000 1.960200
11.457800 2.155500
11.478500 2.215300
11.499300 2.124000
11.520100 1.952000
11.540900 1.779200
11.561600 1.640000
11.582400 1.541200
11.603200 1.486500
11.624000 1.448600
11.644700 1.387800
11.665500 1.329600
11.686300 1.359600
11.707100 1.523500
11.727800 1.776900
11.748600 2.025400
11.769400 2.172000
11.790200 2.144400
11.810900 1.939000
11.831700 1.662500
11.852500 1.510200
11.873300 1.641000
11.894000 2.022900
11.914800 2.432700
11.935600 2.650200
11.956400 2.634900
11.977100 2.513400
11.997900 2.442100
12.018700 2.469500
12.039500 2.500800
12.060200 2.419200
12.081000 2.249100
12.101800 2.156100
12.122600 2.242600
12.143300 2.385000
12.164100 2.365000
12.184900 2.130300
12.205700 1.837400
12.226400 1.650700
12.247200 1.573600
12.268000 1.516600
12.288800 1.461000
12.309500 1.443100
12.330300 1.437200
12.351100 1.403900
12.371900 1.421800
12.392600 1.621500
12.413400 1.972000
12.434200 2.264000
12.455000 2.350300
12.475700 2.283400
12.496500 2.206500
12.517300 2.211000
12.538100 2.282900
12.558800 2.330200
12.579600 2.274800
12.600400 2.129900
12.621200 1.974300
12.641900 1.860600
12.662700 1.787800
12.683500 1.747600
12.704300 1.743800
12.725100 1.771500
12.745800 1.824100
12.766600 1.911700
12.787400 2.013500
12.808200 2.023600
12.828900 1.829500
12.849700 1.468900
12.870500 1.150400
12.891300 1.078400
12.912000 1.261900
12.932800 1.531500
12.953600 1.737900
12.974400 1.856700
12.995100 1.906500
13.015900 1.899600
13.036700 1.890900
13.057500 1.949500
13.078200 2.070200
13.099000 2.191900
13.119800 2.297900
13.140600 2.415400
13.161300 2.524800
13.182100 2.545200
13.202900 2.407100
13.223700 2.135100
13.244400 1.859300
13.265200 1.707800
13.286000 1.699300
13.306800 1.780300
13.327500 1.915600
13.348300 2.079500
13.369100 2.187500
13.389900 2.143200
13.410600 1.982200
13.431400 1.868700
13.452200 1.904200
13.473000 2.040300
13.493700 2.195100
13.514500 2.322200
13.535300 2.368300
13.556100 2.308400
13.576800 2.201000
13.597600 2.104400
13.618400 2.024400
13.639200 2.003100
13.659900 2.106200
13.680700 2.263200
13.701500 2.295900
13.722300 2.164400
13.743000 2.016300
13.763800 1.953400
13.784600 1.920800
13.805400 1.859000
13.826100 1.812200
13.846900 1.842400
13.867700 1.939200
13.888500 2.062400
13.909200 2.208500
13.930000 2.370200
13.950800 2.486200
13.971600 2.524100
13.992300 2.537500
14.013100 2.549700
14.033900 2.505000
14.054700 2.408400
14.075400 2.353400
14.096200 2.385600
14.117000 2.465600
14.137800 2.510300
14.158500 2.412700
14.179300 2.133400
14.200100 1.793300
14.220900 1.595500
14.241600 1.640200
14.262400 1.830800
14.283200 1.983500
14.304000 2.016200
14.324700 1.982200
14.345500 1.946900
14.366300 1.908600
14.387100 1.827000
14.407800 1.679000
14.428600 1.482000
14.449400 1.287800
14.470200 1.148800
14.490900 1.082100
14.511700 1.077200
14.532500 1.135900
14.553300 1.277200
14.574000 1.485400
14.594800 1.699100
14.615600 1.906000
14.636400 2.187100
14.657100 2.576000
14.677900 2.930100
14.698700 3.057200
14.719500 2.943300
14.740200 2.720000
14.761000 2.446500
14.781800 2.105700
14.802600 1.757100
14.823300 1.516800
14.844100 1.430100
14.864900 1.453700
14.885700 1.496900
14.906500 1.451100
14.927200 1.271500
14.948000 1.049200
14.968800 0.942600
14.989600 1.043300
15.010300 1.338200
