set title 'mp-1079661 - Density of States'
set xlabel 'Energy (eV)'
set ylabel 'DOS (states/eV)'
set grid
set xrange [-10:10]
set yrange [0:3.601]
set xzeroaxis lt -1
set terminal png size 800,600
set output 'mp-1079661_dos_gnuplot.png'
plot '-' using 1:2 with lines title 'DOS'
-14.857800 0.000000
-14.827500 0.000000
-14.797300 0.000000
-14.767000 0.000000
-14.736800 0.000000
-14.706500 0.000000
-14.676300 0.000000
-14.646000 0.000000
-14.615800 0.000000
-14.585500 0.000000
-14.555300 0.000000
-14.525000 0.000000
-14.494800 0.000000
-14.464500 0.000000
-14.434300 0.000000
-14.404000 0.000000
-14.373800 0.000000
-14.343500 0.000000
-14.313300 0.000000
-14.283000 0.000000
-14.252800 0.000000
-14.222500 0.000000
-14.192300 0.000000
-14.162000 0.000000
-14.131800 0.000000
-14.101500 0.000000
-14.071300 0.000000
-14.041000 0.000000
-14.010800 0.000000
-13.980500 0.000000
-13.950300 0.000000
-13.920000 0.000000
-13.889800 0.000000
-13.859500 0.000000
-13.829300 0.000000
-13.799000 0.000000
-13.768800 0.000000
-13.738500 0.000000
-13.708300 0.000000
-13.678000 0.000000
-13.647800 0.000000
-13.617500 0.000000
-13.587300 0.000000
-13.557000 0.000000
-13.526800 0.000000
-13.496500 0.000000
-13.466300 0.000000
-13.436000 0.000000
-13.405800 0.000000
-13.375500 0.000000
-13.345300 0.000000
-13.315000 0.000000
-13.284800 0.000000
-13.254500 0.000000
-13.224300 0.000000
-13.194000 0.000000
-13.163800 0.000000
-13.133500 0.000000
-13.103300 0.000000
-13.073000 0.000000
-13.042800 0.000000
-13.012500 0.000000
-12.982300 0.000000
-12.952000 0.000000
-12.921800 0.000000
-12.891500 0.000000
-12.861300 0.000000
-12.831000 0.000000
-12.800800 0.000000
-12.770500 0.000000
-12.740300 0.000000
-12.710000 0.000000
-12.679800 0.000000
-12.649500 0.000000
-12.619300 0.000000
-12.589000 0.000000
-12.558800 0.000000
-12.528500 0.000000
-12.498300 0.000000
-12.468000 0.000000
-12.437800 0.000000
-12.407500 0.000000
-12.377300 0.000000
-12.347000 0.000000
-12.316800 0.000000
-12.286500 0.000000
-12.256300 0.000000
-12.226000 0.000000
-12.195800 0.000000
-12.165500 0.000000
-12.135300 0.000000
-12.105000 0.000700
-12.074800 0.042500
-12.044500 0.130100
-12.014300 0.234700
-11.984000 0.339300
-11.953800 0.362000
-11.923500 0.319800
-11.893300 0.261900
-11.863000 0.270700
-11.832800 0.279600
-11.802500 0.288400
-11.772300 0.297200
-11.742000 0.306000
-11.711800 0.314800
-11.681500 0.323600
-11.651300 0.326500
-11.621000 0.320400
-11.590800 0.309700
-11.560500 0.299000
-11.530300 0.288700
-11.500000 0.284100
-11.469800 0.285700
-11.439500 0.288800
-11.409300 0.292000
-11.379000 0.295100
-11.348800 0.298200
-11.318500 0.301400
-11.288300 0.304500
-11.258000 0.307700
-11.227800 0.310800
-11.197500 0.314000
-11.167300 0.317100
-11.137000 0.320300
-11.106800 0.319200
-11.076500 0.310100
-11.046300 0.300900
-11.016000 0.300300
-10.985800 0.299800
-10.955500 0.299300
-10.925300 0.298700
-10.895000 0.298200
-10.864800 0.297600
-10.834500 0.297100
-10.804300 0.305200
-10.774000 0.333100
-10.743800 0.371900
-10.713500 0.419000
-10.683300 0.473300
-10.653000 0.467100
-10.622800 0.483900
-10.592500 0.506100
-10.562300 0.532100
-10.532000 0.568600
-10.501800 0.601200
-10.471500 0.625500
-10.441300 0.639000
-10.411000 0.618000
-10.380800 0.619400
-10.350500 0.621200
-10.320300 0.619700
-10.290000 0.616700
-10.259800 0.612400
-10.229500 0.610400
-10.199300 0.610700
-10.169000 0.611000
-10.138800 0.610500
-10.108500 0.607800
-10.078300 0.605800
-10.048000 0.604700
-10.017800 0.604800
-9.987500 0.606700
-9.957300 0.610400
-9.927000 0.614200
-9.896800 0.617900
-9.866500 0.621600
-9.836300 0.624300
-9.806000 0.623200
-9.775800 0.623900
-9.745500 0.624900
-9.715300 0.625700
-9.685000 0.626300
-9.654700 0.626500
-9.624500 0.626400
-9.594200 0.625300
-9.564000 0.622000
-9.533700 0.622900
-9.503500 0.624100
-9.473200 0.625400
-9.443000 0.627000
-9.412700 0.624600
-9.382500 0.621700
-9.352200 0.622300
-9.322000 0.623100
-9.291700 0.624200
-9.261500 0.625600
-9.231200 0.626900
-9.201000 0.628300
-9.170700 0.629700
-9.140500 0.631900
-9.110200 0.645300
-9.080000 0.667100
-9.049700 0.692500
-9.019500 0.721600
-8.989200 0.726900
-8.959000 0.734100
-8.928700 0.741300
-8.898500 0.751000
-8.868200 0.761100
-8.838000 0.770900
-8.807700 0.780500
-8.777500 0.791100
-8.747200 0.802800
-8.717000 0.815000
-8.686700 0.825300
-8.656500 0.834800
-8.626200 0.843900
-8.596000 0.852600
-8.565700 0.862000
-8.535500 0.872600
-8.505200 0.886200
-8.475000 0.901500
-8.444700 0.917900
-8.414500 0.940000
-8.384200 0.959900
-8.354000 0.976100
-8.323700 0.978000
-8.293500 0.962100
-8.263200 0.966700
-8.233000 0.971000
-8.202700 0.975500
-8.172500 0.977900
-8.142200 0.979300
-8.112000 0.980800
-8.081700 0.981800
-8.051500 0.982200
-8.021200 0.981100
-7.991000 0.979400
-7.960700 0.977700
-7.930500 0.975900
-7.900200 0.976600
-7.870000 0.978800
-7.839700 0.981500
-7.809500 0.985200
-7.779200 0.990000
-7.749000 0.994900
-7.718700 0.999900
-7.688500 1.004900
-7.658200 1.010100
-7.628000 1.015100
-7.597700 1.020000
-7.567500 1.024800
-7.537200 1.029300
-7.507000 1.032700
-7.476700 1.035800
-7.446500 1.040200
-7.416200 1.044300
-7.386000 1.048500
-7.355700 1.052600
-7.325500 1.057100
-7.295200 1.061900
-7.265000 1.068200
-7.234700 1.181800
-7.204500 1.190200
-7.174200 1.179800
-7.144000 1.169500
-7.113700 1.159100
-7.083500 1.148700
-7.053200 1.140000
-7.023000 1.133700
-6.992700 1.128000
-6.962500 1.122600
-6.932200 1.118000
-6.902000 1.126000
-6.871700 1.217900
-6.841500 1.624000
-6.811200 1.499900
-6.781000 1.358100
-6.750700 1.215600
-6.720500 1.088900
-6.690200 1.067600
-6.660000 1.078100
-6.629700 1.090700
-6.599500 1.105300
-6.569200 1.120600
-6.539000 1.137700
-6.508700 1.156800
-6.478500 1.178700
-6.448200 1.206400
-6.418000 1.234500
-6.387700 1.262400
-6.357500 1.291000
-6.327200 1.320100
-6.297000 1.355500
-6.266700 1.425600
-6.236500 1.601200
-6.206200 1.671300
-6.176000 1.542800
-6.145700 1.407900
-6.115500 1.195500
-6.085200 1.139600
-6.055000 1.142600
-6.024700 1.151000
-5.994500 1.158600
-5.964200 1.181900
-5.934000 1.280800
-5.903700 1.366700
-5.873500 1.436400
-5.843200 1.494700
-5.813000 1.922500
-5.782700 1.156200
-5.752500 1.207600
-5.722200 1.205100
-5.692000 1.188000
-5.661700 1.144300
-5.631500 1.119000
-5.601200 1.095600
-5.571000 1.072400
-5.540700 1.050200
-5.510500 1.028700
-5.480200 1.013200
-5.450000 1.007900
-5.419700 1.008700
-5.389500 1.014800
-5.359200 1.027800
-5.329000 1.044600
-5.298700 1.064800
-5.268500 1.098400
-5.238200 1.226700
-5.208000 1.446800
-5.177700 1.573300
-5.147500 1.543900
-5.117200 1.514900
-5.087000 1.531900
-5.056700 1.561900
-5.026500 1.650600
-4.996200 1.684600
-4.966000 1.670600
-4.935700 1.502500
-4.905500 1.326900
-4.875200 1.256600
-4.845000 1.209100
-4.814700 1.119600
-4.784500 1.039700
-4.754200 0.981100
-4.724000 0.937900
-4.693700 0.915500
-4.663500 0.913900
-4.633200 1.109400
-4.603000 1.350200
-4.572700 1.695200
-4.542500 1.878700
-4.512200 1.334900
-4.482000 1.084300
-4.451700 0.920700
-4.421500 0.752500
-4.391200 0.656200
-4.361000 0.592100
-4.330700 0.535400
-4.300500 0.484500
-4.270200 0.421700
-4.240000 0.384600
-4.209700 0.388700
-4.179500 0.393500
-4.149200 0.399600
-4.119000 0.406500
-4.088700 0.414300
-4.058500 0.422800
-4.028200 0.432100
-3.998000 0.442300
-3.967700 0.460300
-3.937500 0.497400
-3.907200 0.550000
-3.877000 0.623800
-3.846700 0.741900
-3.816500 1.486100
-3.786200 1.529500
-3.756000 1.532200
-3.725700 1.416900
-3.695500 1.338300
-3.665200 1.245100
-3.635000 1.132800
-3.604700 1.157900
-3.574500 1.213600
-3.544200 1.304700
-3.514000 1.511700
-3.483700 1.500500
-3.453500 1.553000
-3.423200 1.673200
-3.393000 2.405300
-3.362700 2.319300
-3.332500 2.167700
-3.302200 2.093100
-3.272000 2.208100
-3.241700 2.326800
-3.211500 2.381100
-3.181200 2.324300
-3.151000 1.852600
-3.120700 1.396900
-3.090500 1.265300
-3.060200 1.293000
-3.030000 1.430700
-2.999700 1.422400
-2.969500 1.081300
-2.939200 0.902500
-2.909000 0.828300
-2.878700 0.793100
-2.848500 0.768400
-2.818200 0.758600
-2.788000 0.761400
-2.757700 0.773600
-2.727500 0.796100
-2.697200 0.823100
-2.667000 0.853600
-2.636700 0.890300
-2.606400 0.934000
-2.576200 0.987500
-2.545900 1.065300
-2.515700 1.195200
-2.485400 1.499000
-2.455200 1.880200
-2.424900 1.746100
-2.394700 1.198200
-2.364400 1.141000
-2.334200 1.148400
-2.303900 1.249400
-2.273700 1.454300
-2.243400 1.520300
-2.213200 1.590300
-2.182900 1.838300
-2.152700 1.820200
-2.122400 1.856600
-2.092200 1.972900
-2.061900 2.088500
-2.031700 2.169900
-2.001400 2.178400
-1.971200 2.118200
-1.940900 2.117800
-1.910700 2.131200
-1.880400 2.151100
-1.850200 2.163400
-1.819900 2.080300
-1.789700 1.914000
-1.759400 1.756300
-1.729200 1.648500
-1.698900 1.579100
-1.668700 1.527900
-1.638400 1.520100
-1.608200 1.488500
-1.577900 1.491200
-1.547700 1.448400
-1.517400 1.332000
-1.487200 1.320700
-1.456900 1.341600
-1.426700 1.388300
-1.396400 1.440800
-1.366200 1.545900
-1.335900 1.487500
-1.305700 1.537800
-1.275400 1.733000
-1.245200 1.823800
-1.214900 1.924300
-1.184700 1.992200
-1.154400 2.023500
-1.124200 2.033200
-1.093900 2.146500
-1.063700 2.234800
-1.033400 2.082500
-1.003200 2.189300
-0.972900 1.850600
-0.942700 1.508500
-0.912400 1.313600
-0.882200 1.159900
-0.851900 1.061400
-0.821700 1.037700
-0.791400 1.017300
-0.761200 1.018200
-0.730900 0.996100
-0.700700 0.965700
-0.670400 0.935900
-0.640200 0.906800
-0.609900 0.878300
-0.579700 0.848700
-0.549400 0.816900
-0.519200 0.769800
-0.488900 0.771100
-0.458700 0.771200
-0.428400 0.770100
-0.398200 0.769400
-0.367900 0.769400
-0.337700 0.769500
-0.307400 0.770000
-0.277200 0.771400
-0.246900 0.919800
-0.216700 1.213500
-0.186400 1.098400
-0.156200 1.091400
-0.125900 1.088900
-0.095700 1.090900
-0.065400 1.102600
-0.035200 1.121900
-0.004900 1.144800
0.025300 1.168600
0.055600 1.193000
0.085800 1.216700
0.116100 1.241700
0.146300 1.275400
0.176600 1.302800
0.206800 1.330700
0.237100 1.359700
0.267300 1.388300
0.297600 1.396800
0.327800 1.386400
0.358100 1.382300
0.388300 1.478500
0.418600 1.848100
0.448800 2.102100
0.479100 2.268800
0.509300 2.461400
0.539600 2.420800
0.569800 2.357900
0.600100 2.424400
0.630300 2.623300
0.660600 2.662800
0.690800 2.534000
0.721100 2.396800
0.751300 2.320100
0.781600 2.270000
0.811800 2.271900
0.842100 2.237400
0.872300 2.203200
0.902600 2.167900
0.932800 2.138300
0.963100 2.108700
0.993300 2.054300
1.023600 1.990200
1.053800 1.896000
1.084100 1.887700
1.114300 1.886000
1.144600 1.892800
1.174800 1.914400
1.205100 1.960500
1.235300 2.053300
1.265600 2.200600
1.295800 2.298600
1.326100 2.418500
1.356300 2.552800
1.386600 2.364100
1.416800 2.242400
1.447100 2.189000
1.477300 2.155000
1.507600 2.161100
1.537800 2.186300
1.568100 2.215400
1.598300 2.151000
1.628600 2.130300
1.658800 2.226000
1.689100 2.103500
1.719300 1.980400
1.749600 1.979400
1.779800 2.120700
1.810100 2.295900
1.840300 2.432300
1.870600 2.512800
1.900800 2.474100
1.931100 2.350600
1.961300 2.307800
1.991600 2.270000
2.021800 2.255100
2.052100 2.261900
2.082300 2.272800
2.112600 2.273000
2.142800 2.227200
2.173100 2.152900
2.203300 2.051100
2.233600 2.033500
2.263800 2.007000
2.294100 2.013600
2.324300 2.042000
2.354600 2.109600
2.384800 2.298800
2.415100 2.333400
2.445300 2.411800
2.475600 2.491600
2.505800 2.596200
2.536100 2.809300
2.566300 2.838400
2.596600 2.831400
2.626800 2.946100
2.657100 2.961700
2.687300 3.014900
2.717600 3.015200
2.747800 2.976200
2.778100 2.983500
2.808300 3.058400
2.838600 3.123400
2.868800 3.116600
2.899100 3.076800
2.929300 2.813900
2.959600 2.621900
2.989800 2.546300
3.020100 2.520900
3.050300 2.453800
3.080600 2.425100
3.110800 2.410700
3.141100 2.408400
3.171300 2.446900
3.201600 2.494700
3.231800 2.417100
3.262100 2.392000
3.292300 2.391800
3.322600 2.421200
3.352800 2.469900
3.383100 2.520300
3.413300 2.573000
3.443600 2.619400
3.473800 2.658600
3.504100 2.692200
3.534300 2.663500
3.564600 2.628700
3.594800 2.626300
3.625100 2.639200
3.655300 2.689300
3.685600 2.740900
3.715800 2.853500
3.746100 2.928700
3.776300 2.991200
3.806600 3.080000
3.836800 3.115700
3.867100 3.169600
3.897300 3.211700
3.927600 3.228900
3.957800 3.191400
3.988100 3.061600
4.018300 3.020500
4.048600 2.992600
4.078800 2.983800
4.109100 2.967600
4.139300 2.961100
4.169600 2.967900
4.199800 2.935500
4.230100 2.860500
4.260300 2.840000
4.290600 2.832200
4.320800 2.835100
4.351100 2.825900
4.381300 2.791600
4.411600 2.821500
4.441800 2.923900
4.472100 3.035000
4.502400 3.084400
4.532600 3.035900
4.562900 2.942900
4.593100 2.850400
4.623400 2.803300
4.653600 2.766900
4.683900 2.736800
4.714100 2.724500
4.744400 2.707600
4.774600 2.687700
4.804900 2.674100
4.835100 2.662500
4.865400 2.652400
4.895600 2.649200
4.925900 2.653100
4.956100 2.665300
4.986400 2.694300
5.016600 2.708200
5.046900 2.713100
5.077100 2.709200
5.107400 2.704400
5.137600 2.691300
5.167900 2.684800
5.198100 2.689100
5.228400 2.690900
5.258600 2.689500
5.288900 2.683000
5.319100 2.647000
5.349400 2.612000
5.379600 2.579900
5.409900 2.546600
5.440100 2.530000
5.470400 2.553700
5.500600 2.611900
5.530900 2.816300
5.561100 2.970200
5.591400 3.273800
5.621600 2.975400
5.651900 2.973700
5.682100 2.998900
5.712400 3.051600
5.742600 3.008800
5.772900 2.984400
5.803100 2.978600
5.833400 2.965900
5.863600 2.963900
5.893900 2.947200
5.924100 3.095300
5.954400 3.217800
5.984600 3.090600
6.014900 2.931300
6.045100 2.714100
6.075400 2.604300
6.105600 2.510600
6.135900 2.433500
6.166100 2.366900
6.196400 2.294900
6.226600 2.228000
6.256900 2.176600
6.287100 2.140500
6.317400 2.104200
6.347600 2.067600
6.377900 2.030100
6.408100 1.990500
6.438400 1.948200
6.468600 1.915000
6.498900 1.890300
6.529100 1.873800
6.559400 1.868500
6.589600 1.863400
6.619900 1.848900
6.650100 1.828900
6.680400 1.805900
6.710600 1.782000
6.740900 1.757800
6.771100 1.733100
6.801400 1.709400
6.831600 1.686400
6.861900 1.664100
6.892100 1.661300
6.922400 1.684000
6.952600 1.683800
6.982900 1.691400
7.013100 1.678300
7.043400 1.631500
7.073600 1.580800
7.103900 1.528600
7.134100 1.524800
7.164400 1.465400
7.194600 1.424700
7.224900 1.392700
7.255100 1.367500
7.285400 1.359800
7.315600 1.373400
7.345900 1.397700
7.376100 1.440700
7.406400 1.485900
7.436600 1.517600
7.466900 1.541200
7.497100 1.558000
7.527400 1.559700
7.557600 1.557600
7.587900 1.557000
7.618100 1.542200
7.648400 1.526600
7.678600 1.511500
7.708900 1.492000
7.739100 1.463300
7.769400 1.437700
7.799600 1.378200
7.829900 1.331500
7.860100 1.284000
7.890400 1.231000
7.920600 1.154100
7.950900 1.109300
7.981100 1.063500
8.011400 1.033800
8.041600 1.052100
8.071900 1.045700
8.102100 1.020500
8.132400 0.987300
8.162600 0.965900
8.192900 0.933000
8.223100 0.881000
8.253400 0.829700
8.283600 0.784400
8.313900 0.737900
8.344100 0.701100
8.374400 0.670800
8.404600 0.645800
8.434900 0.628600
8.465100 0.610900
8.495400 0.592200
8.525600 0.574900
8.555900 0.557000
8.586100 0.539400
8.616400 0.526000
8.646600 0.500300
8.676900 0.476900
8.707100 0.454900
8.737400 0.436600
8.767600 0.425400
8.797900 0.419200
8.828100 0.413100
8.858400 0.407100
8.888600 0.401000
8.918900 0.394900
8.949100 0.388900
8.979400 0.382800
9.009600 0.376700
9.039900 0.370600
9.070100 0.364500
9.100400 0.358500
9.130600 0.352400
9.160900 0.352500
9.191100 0.359200
9.221400 0.365600
9.251600 0.365300
9.281900 0.362200
9.312100 0.357700
9.342400 0.352900
9.372600 0.348200
9.402900 0.343400
9.433100 0.338600
9.463400 0.333800
9.493600 0.329000
9.523900 0.324300
9.554100 0.319500
9.584400 0.314700
9.614600 0.309900
9.644900 0.305200
9.675100 0.300400
9.705400 0.295600
9.735600 0.290800
9.765900 0.286000
9.796100 0.281300
9.826400 0.276500
9.856600 0.271700
9.886900 0.267500
9.917100 0.267700
9.947400 0.271900
9.977600 0.282100
10.007900 0.293400
10.038100 0.304700
10.068400 0.301600
10.098600 0.300200
10.128900 0.299800
10.159100 0.296700
10.189400 0.293200
10.219600 0.291100
10.249900 0.287100
10.280100 0.275900
10.310400 0.264700
10.340600 0.253500
10.370900 0.242300
10.401100 0.231100
10.431400 0.219900
10.461600 0.208700
10.491900 0.205600
10.522100 0.236900
10.552400 0.239800
10.582600 0.235500
10.612900 0.238900
10.643100 0.207600
10.673400 0.164700
10.703600 0.121900
10.733900 0.082400
10.764100 0.053300
10.794400 0.030700
10.824600 0.013600
10.854900 0.002300
10.885100 0.000000
10.915400 0.000000
10.945600 0.000000
10.975900 0.000000
11.006100 0.000000
11.036400 0.000000
11.066600 0.000000
11.096900 0.000000
11.127100 0.000000
11.157400 0.000000
11.187600 0.000000
11.217900 0.000000
11.248100 0.000000
11.278400 0.000000
11.308600 0.000000
11.338900 0.000000
11.369100 0.000000
11.399400 0.000000
11.429600 0.000000
11.459900 0.000000
11.490100 0.000000
11.520400 0.000000
11.550700 0.000000
11.580900 0.000000
11.611200 0.000000
11.641400 0.000000
11.671700 0.000000
11.701900 0.000000
11.732200 0.000000
11.762400 0.000000
11.792700 0.000000
11.822900 0.000000
11.853200 0.000000
11.883400 0.000000
11.913700 0.000000
11.943900 0.000000
11.974200 0.000000
12.004400 0.000000
12.034700 0.000000
12.064900 0.000000
12.095200 0.000000
12.125400 0.000000
12.155700 0.000000
12.185900 0.000000
12.216200 0.000000
12.246400 0.000000
12.276700 0.000000
12.306900 0.000000
12.337200 0.000000
12.367400 0.000000
12.397700 0.000000
12.427900 0.000000
12.458200 0.000000
12.488400 0.000000
12.518700 0.000000
12.548900 0.000000
12.579200 0.000000
12.609400 0.000000
12.639700 0.000000
12.669900 0.000000
12.700200 0.000000
12.730400 0.000000
12.760700 0.000000
12.790900 0.000000
12.821200 0.000000
12.851400 0.000000
12.881700 0.000000
12.911900 0.000000
12.942200 0.000000
12.972400 0.000000
13.002700 0.000000
13.032900 0.000000
13.063200 0.000000
13.093400 0.000000
13.123700 0.000000
13.153900 0.000000
13.184200 0.000000
13.214400 0.000000
13.244700 0.000000
13.274900 0.000000
13.305200 0.000000
13.335400 0.000000
13.365700 0.000000
13.395900 0.000000
13.426200 0.000000
13.456400 0.000000
13.486700 0.000000
13.516900 0.000000
13.547200 0.000000
13.577400 0.000000
13.607700 0.000100
13.637900 0.060700
13.668200 0.424600
13.698400 0.565000
13.728700 0.717700
13.758900 0.921500
13.789200 1.000800
13.819400 1.028100
13.849700 1.069800
13.879900 1.110600
13.910200 1.150900
13.940400 1.192100
13.970700 1.229800
14.000900 1.260600
14.031200 1.284000
14.061400 1.310600
14.091700 1.338000
14.121900 1.366100
14.152200 1.393400
14.182400 1.457900
14.212700 1.580500
14.242900 1.686800
14.273200 1.722700
14.303400 1.744000
14.333700 1.747300
14.363900 1.736800
14.394200 1.717100
14.424400 1.685100
14.454700 1.641800
14.484900 1.582300
14.515200 1.591800
14.545400 1.488500
14.575700 1.512500
14.605900 1.545300
14.636200 1.721400
14.666400 1.893800
14.696700 2.203000
14.726900 2.264900
14.757200 2.280200
14.787400 2.330000
14.817700 2.377600
14.847900 2.370700
14.878200 2.274900
14.908400 2.095100
14.938700 1.954000
14.968900 1.835200
14.999200 1.686400
15.029400 1.650900
15.059700 1.723300
15.089900 1.778600
15.120200 1.777000
15.150400 1.720900
15.180700 1.715900
15.210900 1.863200
15.241200 1.927100
15.271400 1.998200
15.301700 2.025500
15.331900 2.078400
15.362200 2.124900
15.392400 2.161700
15.422700 2.178200
15.452900 2.200800
15.483200 2.205600
15.513400 2.227200
15.543700 2.269300
15.573900 2.363300
15.604200 2.606600
15.634400 2.647400
15.664700 2.564700
15.694900 2.538400
15.725200 2.511100
15.755400 2.560900
15.785700 2.631300
15.815900 2.722600
15.846200 2.657300
15.876400 2.614400
15.906700 2.605700
15.936900 2.580700
15.967200 2.572800
15.997400 2.546600
16.027700 2.594500
16.057900 2.735300
16.088200 2.827400
16.118400 2.946300
16.148700 3.117100
16.178900 3.142100
16.209200 3.038300
16.239400 2.800200
16.269700 2.851500
16.299900 2.937400
16.330200 2.777100
16.360400 2.635800
16.390700 2.638300
16.420900 2.725100
16.451200 2.721500
16.481400 2.633000
16.511700 2.608900
16.541900 2.685900
16.572200 2.769100
16.602400 2.843300
16.632700 2.861500
16.662900 2.929000
16.693200 3.010100
16.723400 3.068600
16.753700 3.127100
