set title 'mp-1224802 - Density of States'
set xlabel 'Energy (eV)'
set ylabel 'DOS (states/eV)'
set grid
set xrange [-10:10]
set yrange [0:72.650]
set xzeroaxis lt -1
set terminal png size 800,600
set output 'mp-1224802_dos_gnuplot.png'
plot '-' using 1:2 with lines title 'DOS'
-13.819000 0.000000
-13.778800 0.000000
-13.738600 0.000000
-13.698400 0.000000
-13.658200 0.000000
-13.618000 0.000000
-13.577800 0.000000
-13.537600 0.000000
-13.497400 0.000000
-13.457200 0.000000
-13.417000 0.000000
-13.376800 0.000000
-13.336600 0.000000
-13.296400 0.000000
-13.256200 0.000000
-13.216000 0.000000
-13.175800 0.000000
-13.135600 0.000000
-13.095400 0.000000
-13.055200 0.000000
-13.015000 0.000000
-12.974800 0.000000
-12.934700 0.000000
-12.894500 0.000000
-12.854300 0.000000
-12.814100 0.000000
-12.773900 0.000000
-12.733700 0.000000
-12.693500 0.000000
-12.653300 0.000000
-12.613100 0.000000
-12.572900 0.000000
-12.532700 0.000000
-12.492500 0.000000
-12.452300 0.000000
-12.412100 0.000000
-12.371900 0.000000
-12.331700 0.000000
-12.291500 0.000000
-12.251300 0.000000
-12.211100 0.000000
-12.170900 0.000000
-12.130700 0.000000
-12.090500 0.000000
-12.050300 0.000000
-12.010100 0.000000
-11.969900 0.000000
-11.929700 0.000000
-11.889600 0.000000
-11.849400 0.000000
-11.809200 0.000000
-11.769000 0.000000
-11.728800 0.000000
-11.688600 0.000000
-11.648400 0.000000
-11.608200 0.000000
-11.568000 0.000000
-11.527800 0.000000
-11.487600 0.000000
-11.447400 0.000000
-11.407200 0.000000
-11.367000 0.000000
-11.326800 0.000000
-11.286600 0.000000
-11.246400 0.000000
-11.206200 0.000000
-11.166000 0.000000
-11.125800 0.000000
-11.085600 0.000000
-11.045400 0.000000
-11.005200 0.000000
-10.965000 0.000000
-10.924800 0.000000
-10.884600 0.000000
-10.844400 0.000000
-10.804300 0.000000
-10.764100 0.000000
-10.723900 0.000000
-10.683700 0.000000
-10.643500 0.000000
-10.603300 0.000000
-10.563100 0.000000
-10.522900 0.000000
-10.482700 0.000000
-10.442500 0.000000
-10.402300 0.000000
-10.362100 0.000000
-10.321900 0.000000
-10.281700 0.000000
-10.241500 0.000000
-10.201300 0.000000
-10.161100 2.172000
-10.120900 13.545200
-10.080700 23.912700
-10.040500 8.190300
-10.000300 38.837300
-9.960100 22.484800
-9.919900 42.792700
-9.879700 51.566900
-9.839500 66.045200
-9.799300 0.000000
-9.759200 0.000000
-9.719000 0.000000
-9.678800 0.000000
-9.638600 0.000000
-9.598400 0.000000
-9.558200 0.000000
-9.518000 0.000000
-9.477800 0.000000
-9.437600 0.000000
-9.397400 0.000000
-9.357200 0.000000
-9.317000 0.000000
-9.276800 0.000000
-9.236600 0.000000
-9.196400 0.000000
-9.156200 0.000000
-9.116000 0.000000
-9.075800 0.000000
-9.035600 0.000000
-8.995400 0.000000
-8.955200 0.000000
-8.915000 0.000000
-8.874800 0.000000
-8.834600 0.000000
-8.794400 0.000000
-8.754200 0.000000
-8.714100 0.000000
-8.673900 0.000000
-8.633700 0.000000
-8.593500 0.000000
-8.553300 0.000000
-8.513100 0.000000
-8.472900 0.000000
-8.432700 0.000000
-8.392500 0.000000
-8.352300 0.000000
-8.312100 0.000000
-8.271900 0.000000
-8.231700 0.000000
-8.191500 0.000000
-8.151300 0.000000
-8.111100 0.000000
-8.070900 0.000000
-8.030700 0.000000
-7.990500 0.000000
-7.950300 0.000000
-7.910100 0.000000
-7.869900 0.000000
-7.829700 0.000000
-7.789500 0.000000
-7.749300 0.000000
-7.709100 0.000000
-7.669000 0.000000
-7.628800 0.000000
-7.588600 0.000000
-7.548400 0.000000
-7.508200 0.000000
-7.468000 0.000000
-7.427800 0.000000
-7.387600 0.000000
-7.347400 0.000000
-7.307200 0.000000
-7.267000 0.000000
-7.226800 0.000000
-7.186600 0.000000
-7.146400 0.000000
-7.106200 0.000000
-7.066000 0.000000
-7.025800 0.000000
-6.985600 0.000000
-6.945400 0.000000
-6.905200 0.000000
-6.865000 0.000000
-6.824800 0.000000
-6.784600 0.000000
-6.744400 0.000000
-6.704200 0.000000
-6.664000 0.000000
-6.623900 0.000000
-6.583700 0.000000
-6.543500 0.000000
-6.503300 0.000000
-6.463100 0.000000
-6.422900 0.000000
-6.382700 0.000000
-6.342500 0.000000
-6.302300 0.000000
-6.262100 0.000000
-6.221900 0.000000
-6.181700 0.000000
-6.141500 0.000000
-6.101300 0.000000
-6.061100 0.000000
-6.020900 0.000000
-5.980700 0.000000
-5.940500 0.000000
-5.900300 0.000000
-5.860100 0.000000
-5.819900 0.000000
-5.779700 0.000000
-5.739500 0.000000
-5.699300 0.000000
-5.659100 0.000000
-5.618900 0.005800
-5.578800 0.033900
-5.538600 0.067300
-5.498400 0.068800
-5.458200 0.079100
-5.418000 0.088500
-5.377800 0.099700
-5.337600 0.111400
-5.297400 0.121400
-5.257200 0.126600
-5.217000 0.131700
-5.176800 0.137900
-5.136600 0.144900
-5.096400 0.152500
-5.056200 0.160000
-5.016000 0.167100
-4.975800 0.174500
-4.935600 0.182200
-4.895400 0.187800
-4.855200 0.193400
-4.815000 0.199200
-4.774800 0.205100
-4.734600 0.211200
-4.694400 0.217400
-4.654200 0.224000
-4.614000 0.230900
-4.573800 0.238000
-4.533700 0.245100
-4.493500 0.252700
-4.453300 0.261700
-4.413100 0.271300
-4.372900 0.280400
-4.332700 0.288900
-4.292500 0.297500
-4.252300 0.306700
-4.212100 0.321200
-4.171900 0.354700
-4.131700 0.365700
-4.091500 0.357000
-4.051300 0.362000
-4.011100 0.366000
-3.970900 0.366700
-3.930700 0.362900
-3.890500 0.363200
-3.850300 0.366300
-3.810100 0.369200
-3.769900 0.371900
-3.729700 0.373300
-3.689500 0.372100
-3.649300 0.371000
-3.609100 0.371700
-3.568900 0.372500
-3.528700 0.373800
-3.488600 0.375700
-3.448400 0.377600
-3.408200 0.379100
-3.368000 0.380200
-3.327800 0.381000
-3.287600 0.380500
-3.247400 0.381200
-3.207200 0.383100
-3.167000 0.385000
-3.126800 0.387000
-3.086600 0.389100
-3.046400 0.391500
-3.006200 0.394000
-2.966000 0.396400
-2.925800 0.398700
-2.885600 0.400800
-2.845400 0.401500
-2.805200 0.402400
-2.765000 0.404100
-2.724800 0.406200
-2.684600 0.408700
-2.644400 0.411500
-2.604200 0.414400
-2.564000 0.417400
-2.523800 0.420700
-2.483600 0.424200
-2.443400 0.427900
-2.403300 0.431800
-2.363100 0.435900
-2.322900 0.439800
-2.282700 0.443500
-2.242500 0.447700
-2.202300 0.452300
-2.162100 0.456900
-2.121900 0.462000
-2.081700 0.467400
-2.041500 0.473200
-2.001300 0.479300
-1.961100 0.485800
-1.920900 0.493700
-1.880700 0.503800
-1.840500 0.516600
-1.800300 0.531400
-1.760100 0.548800
-1.719900 0.573800
-1.679700 0.602600
-1.639500 0.653900
-1.599300 0.694100
-1.559100 0.688000
-1.518900 0.662500
-1.478700 0.655900
-1.438500 0.661200
-1.398300 0.635600
-1.358200 0.634800
-1.318000 0.635800
-1.277800 0.633400
-1.237600 0.630600
-1.197400 0.627900
-1.157200 0.622000
-1.117000 0.612200
-1.076800 0.601900
-1.036600 0.597000
-0.996400 0.594500
-0.956200 0.597700
-0.916000 0.602400
-0.875800 0.583700
-0.835600 0.568400
-0.795400 0.555000
-0.755200 0.533900
-0.715000 0.591900
-0.674800 0.534000
-0.634600 0.454800
-0.594400 0.419400
-0.554200 0.398600
-0.514000 0.390300
-0.473800 0.384900
-0.433600 0.381700
-0.393400 0.381900
-0.353200 0.422800
-0.313100 0.526900
-0.272900 0.475200
-0.232700 0.426300
-0.192500 0.386100
-0.152300 0.405700
-0.112100 0.455200
-0.071900 0.521800
-0.031700 0.622100
0.008500 0.776500
0.048700 0.888600
0.088900 1.017400
0.129100 1.154700
0.169300 1.309200
0.209500 1.466000
0.249700 1.523300
0.289900 1.572100
0.330100 1.617500
0.370300 1.721400
0.410500 1.880200
0.450700 2.051000
0.490900 2.149900
0.531100 2.385400
0.571300 2.512900
0.611500 2.685400
0.651700 2.681900
0.691900 2.714300
0.732000 2.861000
0.772200 3.103400
0.812400 3.311200
0.852600 3.076400
0.892800 2.895700
0.933000 2.789700
0.973200 2.664700
1.013400 2.859900
1.053600 2.169100
1.093800 2.098100
1.134000 2.144100
1.174200 2.382700
1.214400 2.334600
1.254600 2.571300
1.294800 3.257600
1.335000 3.207700
1.375200 3.401300
1.415400 3.946700
1.455600 4.082800
1.495800 4.284100
1.536000 4.882000
1.576200 4.689200
1.616400 3.766200
1.656600 3.387400
1.696800 4.116900
1.737000 4.185300
1.777100 3.749300
1.817300 3.399600
1.857500 3.407900
1.897700 3.144900
1.937900 2.967700
1.978100 2.838500
2.018300 3.169100
2.058500 3.872500
2.098700 4.483200
2.138900 3.811300
2.179100 3.748100
2.219300 3.743800
2.259500 3.992600
2.299700 4.167400
2.339900 4.109000
2.380100 4.312300
2.420300 4.506000
2.460500 3.965900
2.500700 2.961300
2.540900 1.852600
2.581100 1.229600
2.621300 1.292600
2.661500 2.967300
2.701700 3.771300
2.741900 3.449300
2.782100 1.986900
2.822200 1.674100
2.862400 1.445800
2.902600 1.320700
2.942800 1.256700
2.983000 1.203400
3.023200 1.169200
3.063400 1.148000
3.103600 1.135500
3.143800 1.135500
3.184000 1.150500
3.224200 1.176100
3.264400 1.208600
3.304600 1.239100
3.344800 1.243300
3.385000 1.267800
3.425200 1.297400
3.465400 1.341500
3.505600 1.404300
3.545800 1.498200
3.586000 1.612400
3.626200 1.723300
3.666400 1.835300
3.706600 1.939900
3.746800 2.064200
3.787000 2.436900
3.827200 2.407600
3.867300 2.385700
3.907500 1.581700
3.947700 1.317900
3.987900 1.209100
4.028100 1.117900
4.068300 1.052300
4.108500 0.979400
4.148700 0.911300
4.188900 0.847800
4.229100 0.810400
4.269300 0.781700
4.309500 0.754100
4.349700 0.722900
4.389900 0.688700
4.430100 0.615900
4.470300 0.576000
4.510500 0.535100
4.550700 0.498700
4.590900 0.500900
4.631100 0.512700
4.671300 0.527400
4.711500 0.544400
4.751700 0.556300
4.791900 0.551300
4.832100 0.556100
4.872300 0.567300
4.912400 0.577200
4.952600 0.586400
4.992800 0.603500
5.033000 0.619200
5.073200 0.635000
5.113400 0.654000
5.153600 0.673600
5.193800 0.695900
5.234000 0.723000
5.274200 0.745100
5.314400 0.777600
5.354600 0.810700
5.394800 0.849300
5.435000 0.911200
5.475200 0.987200
5.515400 1.198500
5.555600 1.021600
5.595800 0.981400
5.636000 0.974100
5.676200 0.825200
5.716400 0.771500
5.756600 0.724600
5.796800 0.683700
5.837000 0.658500
5.877200 0.643200
5.917400 0.632000
5.957600 0.608500
5.997700 0.628900
6.037900 0.615000
6.078100 0.613900
6.118300 0.624200
6.158500 0.683200
6.198700 0.755000
6.238900 0.858600
6.279100 0.904400
6.319300 0.896000
6.359500 0.900600
6.399700 0.891000
6.439900 0.861400
6.480100 0.847800
6.520300 0.837900
6.560500 0.840400
6.600700 0.842700
6.640900 0.813400
6.681100 0.800700
6.721300 0.794700
6.761500 0.782400
6.801700 0.733300
6.841900 0.699300
6.882100 0.675300
6.922300 0.649300
6.962500 0.628300
7.002700 0.610600
7.042800 0.578800
7.083000 0.561400
7.123200 0.548200
7.163400 0.536400
7.203600 0.525200
7.243800 0.518700
7.284000 0.519800
7.324200 0.526800
7.364400 0.539800
7.404600 0.563400
7.444800 0.581000
7.485000 0.590400
7.525200 0.589000
7.565400 0.590300
7.605600 0.558900
7.645800 0.552900
7.686000 0.552600
7.726200 0.555200
7.766400 0.558400
7.806600 0.561100
7.846800 0.556400
7.887000 0.558200
7.927200 0.559500
7.967400 0.560700
8.007600 0.561600
8.047800 0.563200
8.087900 0.565600
8.128100 0.568400
8.168300 0.572600
8.208500 0.580900
8.248700 0.584200
8.288900 0.580700
8.329100 0.577700
8.369300 0.577100
8.409500 0.578700
8.449700 0.583300
8.489900 0.587300
8.530100 0.589700
8.570300 0.591400
8.610500 0.592500
8.650700 0.595500
8.690900 0.599500
8.731100 0.603600
8.771300 0.607600
8.811500 0.610700
8.851700 0.614400
8.891900 0.618400
8.932100 0.621600
8.972300 0.624500
9.012500 0.629400
9.052700 0.634900
9.092900 0.644800
9.133000 0.686100
9.173200 0.710500
9.213400 0.710600
9.253600 0.715000
9.293800 0.728600
9.334000 0.745400
9.374200 0.765200
9.414400 0.764300
9.454600 0.745300
9.494800 0.710500
9.535000 0.689000
9.575200 0.669600
9.615400 0.648900
9.655600 0.627400
9.695800 0.604300
9.736000 0.579600
9.776200 0.563300
9.816400 0.560600
9.856600 0.562700
9.896800 0.562600
9.937000 0.553800
9.977200 0.565000
10.017400 0.596300
10.057600 0.628600
10.097800 0.660200
10.138000 0.685000
10.178100 0.707200
10.218300 0.740600
10.258500 0.762900
10.298700 0.778400
10.338900 0.772500
10.379100 0.759300
10.419300 0.744400
10.459500 0.762100
10.499700 0.760500
10.539900 0.756800
10.580100 0.805200
10.620300 0.800600
10.660500 0.798700
10.700700 0.805600
10.740900 0.814400
10.781100 0.830500
10.821300 0.860600
10.861500 0.870100
10.901700 0.861800
10.941900 0.849800
10.982100 0.839400
11.022300 0.836900
11.062500 0.839900
11.102700 0.844200
11.142900 0.854800
11.183100 0.876700
11.223200 0.873800
11.263400 0.905000
11.303600 0.984700
11.343800 0.996500
11.384000 1.015400
11.424200 1.034600
11.464400 1.049500
11.504600 1.054300
11.544800 1.052400
11.585000 1.046500
11.625200 1.039100
11.665400 1.037500
11.705600 1.036100
11.745800 1.036900
11.786000 1.034000
11.826200 1.016100
11.866400 0.986900
11.906600 0.952900
11.946800 0.919600
11.987000 0.889800
12.027200 0.865800
12.067400 0.845200
12.107600 0.869600
12.147800 0.862500
12.188000 0.866600
12.228200 0.870700
12.268300 0.868800
12.308500 0.867000
12.348700 0.866400
12.388900 0.880600
12.429100 0.864400
12.469300 0.884500
12.509500 0.895000
12.549700 0.898700
12.589900 0.900200
12.630100 0.900500
12.670300 0.898900
12.710500 0.892900
12.750700 0.887100
12.790900 0.884900
12.831100 0.883400
12.871300 0.884600
12.911500 0.886100
12.951700 0.886000
12.991900 0.884400
13.032100 0.880500
13.072300 0.875200
13.112500 0.867100
13.152700 0.855800
13.192900 0.851600
13.233100 0.851000
13.273300 0.852800
13.313400 0.853500
13.353600 0.845900
13.393800 0.832000
13.434000 0.820500
13.474200 0.813600
13.514400 0.808700
13.554600 0.803100
13.594800 0.797800
13.635000 0.793500
13.675200 0.790000
13.715400 0.788200
13.755600 0.788300
13.795800 0.790300
13.836000 0.791100
13.876200 0.790400
13.916400 0.788100
13.956600 0.783700
13.996800 0.781200
14.037000 0.781500
14.077200 0.782100
14.117400 0.774400
14.157600 0.769400
14.197800 0.768100
14.238000 0.768900
14.278200 0.767800
14.318400 0.764200
14.358600 0.759300
14.398700 0.756500
14.438900 0.758800
14.479100 0.763400
14.519300 0.768900
14.559500 0.777400
14.599700 0.790900
14.639900 0.801400
14.680100 0.808000
14.720300 0.810600
14.760500 0.805500
14.800700 0.796300
14.840900 0.787800
14.881100 0.784000
14.921300 0.787800
14.961500 0.790300
15.001700 0.791800
15.041900 0.793000
15.082100 0.794100
15.122300 0.795000
15.162500 0.796600
15.202700 0.798300
15.242900 0.800700
15.283100 0.807200
15.323300 0.817200
15.363500 0.827900
15.403700 0.840800
15.443800 0.847400
15.484000 0.851100
15.524200 0.853100
15.564400 0.853700
15.604600 0.853900
15.644800 0.857300
15.685000 0.856500
15.725200 0.864100
15.765400 0.874000
15.805600 0.885200
15.845800 0.895000
15.886000 0.904900
15.926200 0.915000
15.966400 0.926000
16.006600 0.938900
16.046800 0.952500
16.087000 0.963100
16.127200 0.970100
16.167400 0.988200
16.207600 1.001200
16.247800 1.001100
16.288000 0.993400
16.328200 0.991500
16.368400 0.997500
16.408600 1.005500
16.448800 1.007400
16.488900 1.009100
16.529100 1.021700
16.569300 1.040300
16.609500 1.037600
16.649700 1.026600
16.689900 1.015800
16.730100 1.001000
16.770300 0.988600
16.810500 0.984600
16.850700 0.984900
16.890900 0.986500
16.931100 0.987100
16.971300 0.983400
17.011500 0.980200
17.051700 0.977400
17.091900 0.984300
17.132100 0.981600
17.172300 0.962200
17.212500 0.947800
17.252700 0.936300
17.292900 0.924800
17.333100 0.915800
17.373300 0.910500
17.413500 0.903000
17.453700 0.894000
17.493900 0.886800
17.534000 0.880400
17.574200 0.871100
17.614400 0.862600
17.654600 0.859100
17.694800 0.860200
17.735000 0.868300
17.775200 0.886100
17.815400 0.900600
17.855600 0.924900
17.895800 0.927400
17.936000 0.934400
17.976200 0.948000
18.016400 0.959500
18.056600 0.974600
18.096800 0.989300
18.137000 0.999600
18.177200 1.007300
18.217400 1.013100
18.257600 1.012100
18.297800 1.014000
18.338000 1.014600
18.378200 1.014200
18.418400 1.023400
18.458600 1.049700
18.498800 1.045200
18.539000 1.036100
18.579100 1.039400
18.619300 1.026500
18.659500 1.023600
18.699700 1.020000
18.739900 1.012800
18.780100 1.007900
18.820300 1.012700
18.860500 1.030900
18.900700 1.035400
18.940900 1.045500
18.981100 1.048200
19.021300 1.035800
19.061500 1.008400
19.101700 0.994200
19.141900 0.986200
19.182100 0.990500
19.222300 1.040600
19.262500 1.064900
19.302700 1.088900
19.342900 1.121000
19.383100 1.119000
19.423300 1.125800
19.463500 1.118000
19.503700 1.090000
19.543900 1.074300
19.584100 1.064300
19.624200 1.077000
19.664400 1.083700
19.704600 1.101600
19.744800 1.130500
19.785000 1.133500
19.825200 1.118300
19.865400 1.093300
19.905600 1.071200
19.945800 1.040100
19.986000 0.978000
20.026200 0.935900
20.066400 0.911600
20.106600 0.892500
20.146800 0.868300
20.187000 0.852900
20.227200 0.857500
20.267400 0.834500
20.307600 0.842300
20.347800 0.837800
20.388000 0.837000
20.428200 0.846200
20.468400 0.856100
20.508600 0.864900
20.548800 0.871200
20.589000 0.869200
20.629200 0.866300
20.669300 0.863500
20.709500 0.855700
20.749700 0.851900
20.789900 0.851600
20.830100 0.856600
20.870300 0.857400
20.910500 0.852700
20.950700 0.869500
20.990900 0.846300
21.031100 0.851900
21.071300 0.853400
21.111500 0.868800
21.151700 0.868600
21.191900 0.879100
21.232100 0.898300
21.272300 0.937200
21.312500 1.023300
21.352700 1.134500
21.392900 1.122500
21.433100 1.135400
21.473300 1.078800
21.513500 1.028800
21.553700 1.003600
21.593900 1.009100
21.634100 1.011100
21.674300 1.008800
21.714400 0.991500
21.754600 0.975800
21.794800 0.993100
21.835000 1.046200
21.875200 1.068200
21.915400 1.087200
21.955600 1.097500
21.995800 1.104600
22.036000 1.110200
22.076200 1.118600
22.116400 1.131000
22.156600 1.144300
22.196800 1.150700
22.237000 1.155600
22.277200 1.171300
22.317400 1.186900
22.357600 1.212500
22.397800 1.237200
22.438000 1.251500
22.478200 1.249100
22.518400 1.235300
22.558600 1.191900
22.598800 1.161900
22.639000 1.143800
22.679200 1.142500
22.719400 1.142000
22.759600 1.182000
22.799700 1.254100
22.839900 1.312100
22.880100 1.301900
22.920300 1.237400
22.960500 1.161500
23.000700 1.095500
23.040900 1.041300
23.081100 1.007100
23.121300 0.991100
23.161500 0.986600
23.201700 0.983500
23.241900 0.980100
23.282100 0.991800
23.322300 1.008000
23.362500 1.017300
23.402700 0.973000
23.442900 0.926400
23.483100 0.894200
23.523300 0.874300
23.563500 0.870100
23.603700 0.873300
23.643900 0.877600
23.684100 0.887300
23.724300 0.909200
23.764500 0.921500
23.804700 0.945900
23.844800 0.993100
23.885000 1.056200
23.925200 1.126200
23.965400 1.305300
24.005600 1.411800
24.045800 1.402600
24.086000 1.391600
24.126200 1.380600
24.166400 1.376500
24.206600 1.377600
24.246800 1.344800
24.287000 1.305000
24.327200 1.251400
24.367400 1.218100
24.407600 1.200800
24.447800 1.184300
24.488000 1.194600
24.528200 1.197700
24.568400 1.175700
24.608600 1.142300
24.648800 1.116900
24.689000 1.076900
24.729200 1.011500
24.769400 0.977000
24.809600 0.942400
24.849800 0.908900
24.889900 0.880700
24.930100 0.858900
24.970300 0.854700
25.010500 0.841500
25.050700 0.824600
25.090900 0.810600
25.131100 0.799900
25.171300 0.803000
25.211500 0.813100
25.251700 0.831500
25.291900 0.849900
25.332100 0.875900
25.372300 0.907900
25.412500 0.941200
25.452700 0.974500
25.492900 1.011100
25.533100 1.064300
25.573300 1.050800
25.613500 1.067600
25.653700 1.077800
25.693900 1.106000
25.734100 1.144200
25.774300 1.191800
25.814500 1.248400
25.854700 1.316400
25.894900 1.400400
25.935000 1.499800
25.975200 1.611700
26.015400 1.713000
26.055600 1.821200
26.095800 2.001100
26.136000 2.244300
26.176200 2.659900
26.216400 3.175600
26.256600 4.200300
26.296800 42.363800
26.337000 5.965000
26.377200 5.542100
26.417400 5.543500
26.457600 5.852400
26.497800 6.950900
26.538000 133.372500
26.578200 4.724300
26.618400 3.180400
26.658600 2.761600
26.698800 2.447000
26.739000 2.186700
26.779200 1.979900
26.819400 1.792100
26.859600 1.680000
26.899800 1.533400
26.940000 1.448900
26.980100 1.363200
27.020300 1.295000
27.060500 1.230300
27.100700 1.187000
27.140900 1.167200
27.181100 1.157500
27.221300 1.148400
27.261500 1.150500
27.301700 1.177900
27.341900 1.245100
27.382100 1.243300
27.422300 1.269400
27.462500 1.292300
27.502700 1.324000
27.542900 1.331600
27.583100 1.334600
27.623300 1.330400
27.663500 1.307600
27.703700 1.281400
27.743900 1.271000
27.784100 1.264500
27.824300 1.250900
27.864500 1.262200
27.904700 1.290300
27.944900 1.269500
27.985100 1.245000
28.025200 1.232500
28.065400 1.236200
28.105600 1.229600
28.145800 1.217700
