set title 'mp-27127 - Density of States'
set xlabel 'Energy (eV)'
set ylabel 'DOS (states/eV)'
set grid
set xrange [-10:10]
set yrange [0:328.535]
set xzeroaxis lt -1
set terminal png size 800,600
set output 'mp-27127_dos_gnuplot.png'
plot '-' using 1:2 with lines title 'DOS'
-18.141300 0.000000
-18.121500 0.000000
-18.101600 0.000000
-18.081800 0.000000
-18.061900 0.000000
-18.042000 0.000000
-18.022200 0.000000
-18.002300 0.000000
-17.982500 0.000000
-17.962600 0.000000
-17.942800 0.000000
-17.922900 0.000000
-17.903100 0.000000
-17.883200 0.000000
-17.863300 0.000000
-17.843500 0.000000
-17.823600 0.000000
-17.803800 0.000000
-17.783900 0.000000
-17.764100 0.000000
-17.744200 0.000000
-17.724400 0.000000
-17.704500 0.000000
-17.684600 0.000000
-17.664800 0.000000
-17.644900 0.000000
-17.625100 0.000000
-17.605200 0.000000
-17.585400 0.000000
-17.565500 0.000000
-17.545700 0.000000
-17.525800 0.000000
-17.505900 0.000000
-17.486100 0.000000
-17.466200 0.000000
-17.446400 0.000000
-17.426500 0.000000
-17.406700 0.000000
-17.386800 0.000000
-17.366900 0.000000
-17.347100 0.000000
-17.327200 0.000000
-17.307400 0.000000
-17.287500 0.000000
-17.267700 0.000000
-17.247800 0.000000
-17.228000 0.000000
-17.208100 0.000000
-17.188200 0.000000
-17.168400 0.000000
-17.148500 0.000000
-17.128700 0.000000
-17.108800 0.000000
-17.089000 0.000000
-17.069100 0.000000
-17.049300 0.000000
-17.029400 0.000000
-17.009500 0.000000
-16.989700 0.000000
-16.969800 0.000000
-16.950000 0.000000
-16.930100 0.000000
-16.910300 0.000000
-16.890400 0.000000
-16.870600 0.000000
-16.850700 0.000000
-16.830800 0.000000
-16.811000 0.000000
-16.791100 0.000000
-16.771300 0.000000
-16.751400 0.000000
-16.731600 0.000000
-16.711700 0.000000
-16.691900 0.000000
-16.672000 0.000000
-16.652100 0.000000
-16.632300 0.000000
-16.612400 0.000000
-16.592600 0.000000
-16.572700 0.000000
-16.552900 0.000000
-16.533000 0.000000
-16.513200 0.000000
-16.493300 0.000000
-16.473400 0.000000
-16.453600 0.000000
-16.433700 0.000000
-16.413900 0.000000
-16.394000 0.000000
-16.374200 0.000000
-16.354300 0.000000
-16.334400 0.002300
-16.314600 0.326200
-16.294700 1.198400
-16.274900 2.800400
-16.255000 4.921000
-16.235200 7.055300
-16.215300 9.203300
-16.195500 11.852100
-16.175600 15.401700
-16.155700 13.751500
-16.135900 11.481500
-16.116000 9.173600
-16.096200 6.827800
-16.076300 4.444300
-16.056500 2.022900
-16.036600 0.000000
-16.016800 0.000000
-15.996900 1.451400
-15.977000 3.432200
-15.957200 5.409000
-15.937300 7.381700
-15.917500 9.350200
-15.897600 11.314700
-15.877800 13.275000
-15.857900 14.743100
-15.838100 7.493700
-15.818200 5.852400
-15.798300 5.146500
-15.778500 4.439900
-15.758600 3.732900
-15.738800 3.025200
-15.718900 2.317000
-15.699100 1.608200
-15.679200 0.898800
-15.659400 0.188900
-15.639500 0.000000
-15.619600 0.000000
-15.599800 0.000000
-15.579900 0.000000
-15.560100 0.000000
-15.540200 0.781100
-15.520400 2.180700
-15.500500 3.579100
-15.480700 4.976400
-15.460800 6.372600
-15.440900 7.767600
-15.421100 9.161400
-15.401200 10.554100
-15.381400 11.945600
-15.361500 12.211900
-15.341700 6.446100
-15.321800 5.719100
-15.302000 4.992100
-15.282100 4.265100
-15.262200 8.207900
-15.242400 17.931200
-15.222500 21.784700
-15.202700 16.593200
-15.182800 11.326700
-15.163000 6.994500
-15.143100 5.927900
-15.123200 5.239500
-15.103400 4.550500
-15.083500 3.861000
-15.063700 3.170800
-15.043800 2.480100
-15.024000 1.788800
-15.004100 1.096800
-14.984300 0.404300
-14.964400 0.000000
-14.944500 0.623200
-14.924700 1.656800
-14.904800 2.689900
-14.885000 3.722500
-14.865100 4.754600
-14.845300 5.786200
-14.825400 7.900600
-14.805600 12.006900
-14.785700 16.448600
-14.765800 20.916300
-14.746000 25.597600
-14.726100 13.931300
-14.706300 5.877600
-14.686400 7.082900
-14.666600 8.289300
-14.646700 12.207400
-14.626900 14.143100
-14.607000 13.595200
-14.587100 13.214800
-14.567300 12.898400
-14.547400 12.581700
-14.527600 12.264700
-14.507700 14.829300
-14.487900 24.842600
-14.468000 22.816500
-14.448200 18.061800
-14.428300 13.911200
-14.408400 10.282300
-14.388600 41.835000
-14.368700 51.585400
-14.348900 0.000000
-14.329000 0.000000
-14.309200 0.000000
-14.289300 0.000000
-14.269500 0.000000
-14.249600 0.000000
-14.229700 0.000000
-14.209900 0.000000
-14.190000 0.000000
-14.170200 0.000000
-14.150300 0.000000
-14.130500 0.000000
-14.110600 0.000000
-14.090700 0.000000
-14.070900 0.000000
-14.051000 0.000000
-14.031200 7.664900
-14.011300 61.019500
-13.991500 30.784700
-13.971600 5.625500
-13.951800 53.938300
-13.931900 8.975000
-13.912000 66.055000
-13.892200 20.780100
-13.872300 13.360700
-13.852500 8.693100
-13.832600 3.991700
-13.812800 0.322700
-13.792900 0.000000
-13.773100 7.591000
-13.753200 49.856000
-13.733300 18.375200
-13.713500 9.854500
-13.693600 11.197600
-13.673800 13.839200
-13.653900 16.541300
-13.634100 19.243900
-13.614200 21.947200
-13.594400 26.257600
-13.574500 27.735500
-13.554600 14.919600
-13.534800 10.766000
-13.514900 12.114700
-13.495100 16.730300
-13.475200 14.352400
-13.455400 8.350700
-13.435500 2.031700
-13.415700 18.378800
-13.395800 20.052700
-13.375900 16.283000
-13.356100 15.390700
-13.336200 11.844600
-13.316400 8.260300
-13.296500 4.637900
-13.276700 57.244000
-13.256800 35.866500
-13.237000 8.512900
-13.217100 6.077500
-13.197200 81.109800
-13.177400 21.047000
-13.157500 8.797700
-13.137700 11.509000
-13.117800 88.323100
-13.098000 0.000000
-13.078100 0.000000
-13.058300 0.000000
-13.038400 0.000000
-13.018500 0.000000
-12.998700 0.000000
-12.978800 0.000000
-12.959000 0.000000
-12.939100 0.000000
-12.919300 0.000000
-12.899400 0.000000
-12.879500 0.000000
-12.859700 0.000000
-12.839800 0.000000
-12.820000 0.000000
-12.800100 0.000000
-12.780300 0.000000
-12.760400 0.000000
-12.740600 0.000000
-12.720700 0.000000
-12.700800 0.000000
-12.681000 0.000000
-12.661100 0.000000
-12.641300 0.000000
-12.621400 0.000000
-12.601600 0.000000
-12.581700 0.000000
-12.561900 0.000000
-12.542000 0.000000
-12.522100 0.000000
-12.502300 0.000000
-12.482400 0.000000
-12.462600 0.000000
-12.442700 0.000000
-12.422900 0.000000
-12.403000 0.000000
-12.383200 0.000000
-12.363300 0.000000
-12.343400 0.000000
-12.323600 0.000000
-12.303700 0.000000
-12.283900 0.000000
-12.264000 0.000000
-12.244200 0.000000
-12.224300 0.000000
-12.204500 0.000000
-12.184600 0.000000
-12.164700 0.000000
-12.144900 0.000000
-12.125000 0.000000
-12.105200 0.000000
-12.085300 0.000000
-12.065500 0.000000
-12.045600 0.000000
-12.025800 0.000000
-12.005900 0.000000
-11.986000 0.000000
-11.966200 0.000000
-11.946300 0.000000
-11.926500 0.000000
-11.906600 0.000000
-11.886800 0.000000
-11.866900 0.000000
-11.847000 0.000000
-11.827200 0.000000
-11.807300 0.000000
-11.787500 0.000000
-11.767600 0.000000
-11.747800 0.000000
-11.727900 0.000000
-11.708100 0.000000
-11.688200 0.000000
-11.668300 0.000000
-11.648500 0.000000
-11.628600 0.000000
-11.608800 0.000000
-11.588900 0.000000
-11.569100 0.000000
-11.549200 0.000000
-11.529400 0.000000
-11.509500 0.000000
-11.489600 0.000000
-11.469800 0.000000
-11.449900 0.000000
-11.430100 0.000000
-11.410200 0.000000
-11.390400 0.000000
-11.370500 0.000000
-11.350700 0.000000
-11.330800 0.000000
-11.310900 0.000000
-11.291100 0.000000
-11.271200 0.000000
-11.251400 0.000000
-11.231500 0.000000
-11.211700 0.000000
-11.191800 0.000000
-11.172000 0.000000
-11.152100 0.000000
-11.132200 0.000000
-11.112400 0.000000
-11.092500 0.000000
-11.072700 0.000000
-11.052800 0.000000
-11.033000 0.000000
-11.013100 0.000000
-10.993300 0.000000
-10.973400 0.000000
-10.953500 0.000000
-10.933700 0.000000
-10.913800 0.000000
-10.894000 0.000000
-10.874100 0.000000
-10.854300 0.000000
-10.834400 0.000000
-10.814600 0.000000
-10.794700 0.000000
-10.774800 0.000000
-10.755000 0.000000
-10.735100 0.000000
-10.715300 0.000000
-10.695400 0.000000
-10.675600 0.000000
-10.655700 0.000000
-10.635800 0.000000
-10.616000 0.000000
-10.596100 0.000000
-10.576300 0.000000
-10.556400 0.000000
-10.536600 0.000000
-10.516700 0.000000
-10.496900 0.000000
-10.477000 0.000000
-10.457100 0.000000
-10.437300 0.000000
-10.417400 0.000000
-10.397600 0.000000
-10.377700 0.000000
-10.357900 0.000000
-10.338000 0.000000
-10.318200 0.000000
-10.298300 0.000000
-10.278400 0.000000
-10.258600 0.000000
-10.238700 0.000000
-10.218900 0.000000
-10.199000 0.000000
-10.179200 0.000000
-10.159300 0.000000
-10.139500 0.000000
-10.119600 0.000000
-10.099700 0.000000
-10.079900 0.000000
-10.060000 0.000000
-10.040200 0.000000
-10.020300 0.000000
-10.000500 0.000000
-9.980600 0.000000
-9.960800 0.000000
-9.940900 0.000000
-9.921000 0.000000
-9.901200 0.000000
-9.881300 0.000000
-9.861500 0.000000
-9.841600 0.000000
-9.821800 0.000000
-9.801900 0.000000
-9.782100 0.000000
-9.762200 0.000000
-9.742300 0.000000
-9.722500 0.000000
-9.702600 0.000000
-9.682800 0.000000
-9.662900 0.000000
-9.643100 0.000000
-9.623200 0.000000
-9.603300 0.000000
-9.583500 0.000000
-9.563600 0.000000
-9.543800 0.000000
-9.523900 0.000000
-9.504100 0.000000
-9.484200 0.000000
-9.464400 0.000000
-9.444500 0.000000
-9.424600 0.000000
-9.404800 0.000000
-9.384900 0.000000
-9.365100 0.000000
-9.345200 0.000000
-9.325400 0.000000
-9.305500 0.000000
-9.285700 0.000000
-9.265800 0.000000
-9.245900 0.000000
-9.226100 0.000000
-9.206200 0.000000
-9.186400 0.000000
-9.166500 0.000000
-9.146700 0.000000
-9.126800 0.000000
-9.107000 0.000000
-9.087100 0.000000
-9.067200 0.000000
-9.047400 0.000000
-9.027500 0.000000
-9.007700 0.000000
-8.987800 0.000000
-8.968000 0.000000
-8.948100 0.000000
-8.928300 0.000000
-8.908400 0.000000
-8.888500 0.000000
-8.868700 0.000000
-8.848800 0.000000
-8.829000 0.000000
-8.809100 0.000000
-8.789300 0.000000
-8.769400 0.000000
-8.749600 0.000000
-8.729700 0.000000
-8.709800 0.000000
-8.690000 0.000000
-8.670100 0.000000
-8.650300 0.000000
-8.630400 0.000000
-8.610600 0.000000
-8.590700 0.000000
-8.570800 0.000000
-8.551000 0.000000
-8.531100 0.000000
-8.511300 0.000000
-8.491400 0.000000
-8.471600 0.000000
-8.451700 0.000000
-8.431900 0.000000
-8.412000 0.000000
-8.392100 0.000000
-8.372300 0.000000
-8.352400 0.000000
-8.332600 0.000000
-8.312700 0.000000
-8.292900 0.000000
-8.273000 0.000000
-8.253200 0.000000
-8.233300 0.000000
-8.213400 0.000000
-8.193600 0.000000
-8.173700 0.000000
-8.153900 0.000000
-8.134000 0.000000
-8.114200 0.000000
-8.094300 0.000000
-8.074500 0.000000
-8.054600 0.000000
-8.034700 0.134300
-8.014900 0.576900
-7.995000 1.483600
-7.975200 2.499300
-7.955300 3.520000
-7.935500 4.545600
-7.915600 5.576100
-7.895800 6.611500
-7.875900 7.750900
-7.856000 11.712200
-7.836200 11.158500
-7.816300 9.937400
-7.796500 8.713400
-7.776600 7.486700
-7.756800 6.257000
-7.736900 5.024500
-7.717100 3.789200
-7.697200 2.551000
-7.677300 1.309900
-7.657500 0.066000
-7.637600 0.708800
-7.617800 1.699800
-7.597900 2.688800
-7.578100 3.675900
-7.558200 4.660900
-7.538400 5.644000
-7.518500 6.625100
-7.498600 7.703200
-7.478800 11.060000
-7.458900 17.801000
-7.439100 24.838900
-7.419200 13.142600
-7.399400 1.518300
-7.379500 0.000000
-7.359600 0.000000
-7.339800 0.000000
-7.319900 0.000000
-7.300100 0.000000
-7.280200 0.000000
-7.260400 0.000000
-7.240500 0.000000
-7.220700 0.000000
-7.200800 0.000000
-7.180900 0.000000
-7.161100 3.046800
-7.141200 9.330700
-7.121400 15.947800
-7.101500 19.653700
-7.081700 15.829500
-7.061800 11.855600
-7.042000 7.731800
-7.022100 3.458200
-7.002200 2.387500
-6.982400 2.152700
-6.962500 1.918200
-6.942700 1.683800
-6.922800 1.449700
-6.903000 1.215700
-6.883100 0.982000
-6.863300 3.819400
-6.843400 24.884400
-6.823500 22.610400
-6.803700 14.281800
-6.783800 8.844800
-6.764000 7.508200
-6.744100 6.169300
-6.724300 4.828000
-6.704400 3.484300
-6.684600 2.138300
-6.664700 0.789900
-6.644800 0.000000
-6.625000 0.018900
-6.605100 0.123500
-6.585300 0.228100
-6.565400 0.332700
-6.545600 0.437300
-6.525700 0.541900
-6.505900 0.646400
-6.486000 0.750900
-6.466100 0.855500
-6.446300 0.960000
-6.426400 1.064500
-6.406600 1.169000
-6.386700 1.273400
-6.366900 1.377900
-6.347000 1.501400
-6.327100 1.666000
-6.307300 1.850200
-6.287400 2.054000
-6.267600 2.277200
-6.247700 2.520000
-6.227900 2.781900
-6.208000 3.051600
-6.188200 3.324000
-6.168300 3.599200
-6.148400 3.877000
-6.128600 4.157600
-6.108700 4.440900
-6.088900 4.726900
-6.069000 5.015600
-6.049200 5.307000
-6.029300 5.601200
-6.009500 5.898000
-5.989600 6.197600
-5.969700 6.499900
-5.949900 6.142900
-5.930000 4.674000
-5.910200 3.238000
-5.890300 0.983200
-5.870500 4.989200
-5.850600 7.774900
-5.830800 8.181000
-5.810900 7.724200
-5.791000 7.267000
-5.771200 6.809400
-5.751300 6.351600
-5.731500 5.893300
-5.711600 5.434800
-5.691800 4.975900
-5.671900 4.516600
-5.652100 4.057000
-5.632200 3.597100
-5.612300 3.136800
-5.592500 2.703000
-5.572600 2.421700
-5.552800 2.333800
-5.532900 2.432800
-5.513100 2.531600
-5.493200 2.630200
-5.473400 2.728500
-5.453500 2.826700
-5.433600 2.924600
-5.413800 3.022300
-5.393900 3.119800
-5.374100 3.217100
-5.354200 3.314200
-5.334400 3.411000
-5.314500 3.610600
-5.294700 4.016500
-5.274800 4.424600
-5.254900 4.725100
-5.235100 4.918000
-5.215200 6.015800
-5.195400 5.726100
-5.175500 5.398700
-5.155700 5.070700
-5.135800 4.742400
-5.115900 4.413600
-5.096100 4.084400
-5.076200 3.754800
-5.056400 3.424800
-5.036500 3.094300
-5.016700 2.763400
-4.996800 2.432100
-4.977000 2.100400
-4.957100 1.768200
-4.937200 1.435600
-4.917400 1.102600
-4.897500 0.769200
-4.877700 0.435300
-4.857800 0.101000
-4.838000 0.000000
-4.818100 0.000000
-4.798300 0.000000
-4.778400 0.000000
-4.758500 0.048800
-4.738700 0.135800
-4.718800 0.222600
-4.699000 0.309300
-4.679100 0.395900
-4.659300 0.482400
-4.639400 0.568700
-4.619600 0.655000
-4.599700 0.741100
-4.579800 0.827100
-4.560000 0.912900
-4.540100 0.998600
-4.520300 1.084300
-4.500400 1.169700
-4.480600 1.255100
-4.460700 1.340300
-4.440900 1.425500
-4.421000 1.510400
-4.401100 1.595300
-4.381300 1.680100
-4.361400 1.764700
-4.341600 1.849200
-4.321700 1.933600
-4.301900 2.017800
-4.282000 2.101900
-4.262200 2.186000
-4.242300 2.269800
-4.222400 2.353600
-4.202600 2.437200
-4.182700 2.520700
-4.162900 2.604100
-4.143000 2.687400
-4.123200 2.770500
-4.103300 2.853600
-4.083400 2.926900
-4.063600 2.912700
-4.043700 2.832500
-4.023900 2.686200
-4.004000 2.473800
-3.984200 2.195400
-3.964300 1.894900
-3.944500 1.724300
-3.924600 1.560800
-3.904700 1.404400
-3.884900 1.255100
-3.865000 1.198400
-3.845200 1.171600
-3.825300 1.144700
-3.805500 1.117800
-3.785600 1.090900
-3.765800 1.064000
-3.745900 1.037100
-3.726000 1.010200
-3.706200 0.983200
-3.686300 0.956300
-3.666500 0.929300
-3.646600 0.902300
-3.626800 0.875300
-3.606900 0.848300
-3.587100 0.821200
-3.567200 0.794200
-3.547300 0.767100
-3.527500 0.740000
-3.507600 0.712900
-3.487800 0.685800
-3.467900 0.658700
-3.448100 0.631500
-3.428200 0.604400
-3.408400 0.577200
-3.388500 0.550000
-3.368600 0.522800
-3.348800 0.495600
-3.328900 0.468300
-3.309100 0.441100
-3.289200 0.413800
-3.269400 0.386500
-3.249500 0.359300
-3.229700 0.331900
-3.209800 0.304600
-3.189900 0.277300
-3.170100 0.249900
-3.150200 0.222500
-3.130400 0.195200
-3.110500 0.167800
-3.090700 0.140300
-3.070800 0.112900
-3.051000 0.085500
-3.031100 0.058000
-3.011200 0.031100
-2.991400 0.014700
-2.971500 0.004400
-2.951700 0.000100
-2.931800 1.031400
-2.912000 21.478700
-2.892100 26.015200
-2.872200 17.000200
-2.852400 12.858800
-2.832500 9.631900
-2.812700 7.130500
-2.792800 4.675600
-2.773000 2.206100
-2.753100 0.000000
-2.733300 0.000000
-2.713400 0.000000
-2.693500 4.160800
-2.673700 67.863800
-2.653800 26.062900
-2.634000 0.365800
-2.614100 0.000000
-2.594300 0.000000
-2.574400 0.000000
-2.554600 0.794000
-2.534700 1.992800
-2.514800 3.300700
-2.495000 4.717700
-2.475100 6.243800
-2.455300 23.967000
-2.435400 29.704200
-2.415600 26.368300
-2.395700 17.984900
-2.375900 5.180400
-2.356000 6.697100
-2.336100 9.637600
-2.316300 19.709800
-2.296400 30.891300
-2.276600 27.380600
-2.256700 11.717500
-2.236900 6.355700
-2.217000 11.593300
-2.197200 14.403300
-2.177300 16.523600
-2.157400 15.708600
-2.137600 11.962700
-2.117700 8.062900
-2.097900 4.009000
-2.078000 1.549400
-2.058200 1.642900
-2.038300 1.736400
-2.018500 3.569500
-1.998600 5.794100
-1.978700 8.010200
-1.958900 10.217800
-1.939000 12.416800
-1.919200 14.607200
-1.899300 16.789200
-1.879500 8.630400
-1.859600 3.292700
-1.839700 0.000000
-1.819900 0.000000
-1.800000 0.000000
-1.780200 0.024700
-1.760300 0.414900
-1.740500 1.279100
-1.720600 2.617500
-1.700800 4.448800
-1.680900 7.113600
-1.661000 10.623800
-1.641200 17.438200
-1.621300 21.150300
-1.601500 16.238400
-1.581600 8.897100
-1.561800 2.467200
-1.541900 3.942000
-1.522100 5.281500
-1.502200 6.485500
-1.482300 7.554100
-1.462500 8.487300
-1.442600 9.760500
-1.422800 11.388400
-1.402900 12.377100
-1.383100 12.726500
-1.363200 12.561000
-1.343400 11.930800
-1.323500 6.638000
-1.303600 16.625600
-1.283800 14.344400
-1.263900 13.771300
-1.244100 12.848300
-1.224200 11.163800
-1.204400 11.012400
-1.184500 22.383400
-1.164700 25.268200
-1.144800 22.176100
-1.124900 17.599600
-1.105100 14.655800
-1.085200 12.818600
-1.065400 1.541400
-1.045500 1.995300
-1.025700 2.460700
-1.005800 2.954700
-0.986000 3.450300
-0.966100 3.944800
-0.946200 4.438200
-0.926400 4.930700
-0.906500 6.390100
-0.886700 8.127500
-0.866800 9.612300
-0.847000 11.490100
-0.827100 10.441300
-0.807300 9.389200
-0.787400 8.334000
-0.767500 7.275500
-0.747700 6.213800
-0.727800 5.148800
-0.708000 4.080700
-0.688100 3.009300
-0.668300 1.934700
-0.648400 1.823000
-0.628500 1.909500
-0.608700 1.995900
-0.588800 16.065300
-0.569000 14.651700
-0.549100 12.206500
-0.529300 10.868400
-0.509400 8.641200
-0.489600 6.244500
-0.469700 5.331600
-0.449800 22.118900
-0.430000 20.139700
-0.410100 15.881300
-0.390300 10.306000
-0.370400 6.057800
-0.350600 3.462600
-0.330700 3.215300
-0.310900 15.794800
-0.291000 58.124800
-0.271100 8.215300
-0.251300 10.068200
-0.231400 11.971000
-0.211600 13.856700
-0.191700 15.725100
-0.171900 17.576300
-0.152000 19.410300
-0.132200 16.071800
-0.112300 12.140700
-0.092400 10.564400
-0.072600 9.526900
-0.052700 9.223600
-0.032900 9.176900
-0.013000 9.362500
0.006800 9.779300
0.026700 10.427300
0.046500 10.996200
0.066400 9.723600
0.086300 9.666800
0.106100 8.344400
0.126000 6.330000
0.145800 4.450300
0.165700 2.406900
0.185500 20.399200
0.205400 122.670000
0.225200 13.866200
0.245100 0.000000
0.265000 0.000000
0.284800 2.176900
0.304700 18.861700
0.324500 39.807500
0.344400 28.555100
0.364200 6.028300
0.384100 4.289200
0.404000 2.651700
0.423800 3.583500
0.443700 5.372200
0.463500 16.916100
0.483400 20.848200
0.503200 21.292100
0.523100 18.247700
0.542900 18.180700
0.562800 12.567700
0.582700 16.636100
0.602500 17.705000
0.622400 14.907400
0.642200 10.705300
0.662100 6.025200
0.681900 4.184300
0.701800 3.476700
0.721600 2.763800
0.741500 33.498700
0.761400 21.457300
0.781200 15.956600
0.801100 6.998000
0.820900 5.316700
0.840800 6.057900
0.860600 7.176300
0.880500 8.473000
0.900300 9.917200
0.920200 11.492200
0.940100 13.198100
0.959900 9.114500
0.979800 7.872000
0.999600 6.682000
1.019500 5.544400
1.039300 4.459300
1.059200 3.426600
1.079000 2.464300
1.098900 3.768600
1.118800 5.720300
1.138600 7.120400
1.158500 10.463300
1.178300 16.107000
1.198200 16.520000
1.218000 15.772000
1.237900 20.263800
1.257700 19.069800
1.277600 9.632000
1.297500 11.533600
1.317300 14.516700
1.337200 17.491100
1.357000 25.356400
1.376900 7.211700
1.396700 7.360300
1.416600 11.769500
1.436500 34.241500
1.456300 31.516000
1.476200 18.173600
1.496000 5.896200
1.515900 6.645700
1.535700 63.238600
1.555600 7.545300
1.575400 6.651300
1.595300 14.622200
1.615200 25.353700
1.635000 104.057000
1.654900 8.255300
1.674700 5.366200
1.694600 4.531700
1.714400 35.968200
1.734300 33.413000
1.754100 20.160600
1.774000 9.566700
1.793900 4.647700
1.813700 12.442000
1.833600 23.438900
1.853400 52.497800
1.873300 58.587800
1.893100 32.266500
1.913000 10.483000
