set title 'mp-999498 - Density of States'
set xlabel 'Energy (eV)'
set ylabel 'DOS (states/eV)'
set grid
set xrange [-10:10]
set yrange [0:5.863]
set xzeroaxis lt -1
set terminal png size 800,600
set output 'mp-999498_dos_gnuplot.png'
plot '-' using 1:2 with lines title 'DOS'
-23.681400 0.000000
-23.632100 0.000000
-23.582800 0.000000
-23.533600 0.000000
-23.484300 0.000000
-23.435000 0.000000
-23.385700 0.000000
-23.336500 0.000000
-23.287200 0.000000
-23.237900 0.000000
-23.188600 0.000000
-23.139300 0.000000
-23.090100 0.000000
-23.040800 0.000000
-22.991500 0.000000
-22.942200 0.000000
-22.893000 0.000000
-22.843700 0.000000
-22.794400 0.000000
-22.745100 0.000000
-22.695900 0.000000
-22.646600 0.000000
-22.597300 0.000000
-22.548000 0.000000
-22.498800 0.000000
-22.449500 0.000000
-22.400200 0.000000
-22.350900 0.000000
-22.301700 0.000000
-22.252400 0.000000
-22.203100 0.000000
-22.153800 0.000000
-22.104600 0.000000
-22.055300 0.000000
-22.006000 0.000000
-21.956700 0.000000
-21.907500 0.000000
-21.858200 0.000000
-21.808900 0.000000
-21.759600 0.000000
-21.710400 0.000000
-21.661100 0.000000
-21.611800 0.000000
-21.562500 0.000000
-21.513200 0.000000
-21.464000 0.000000
-21.414700 0.000000
-21.365400 0.000000
-21.316100 0.000000
-21.266900 0.000000
-21.217600 0.000000
-21.168300 0.000000
-21.119000 0.000000
-21.069800 0.000000
-21.020500 0.000000
-20.971200 0.000000
-20.921900 0.000000
-20.872700 0.000000
-20.823400 0.000000
-20.774100 0.000000
-20.724800 0.000000
-20.675600 0.000000
-20.626300 0.000000
-20.577000 0.000000
-20.527700 0.000000
-20.478500 0.000000
-20.429200 0.000000
-20.379900 0.000000
-20.330600 0.000000
-20.281400 0.000000
-20.232100 0.000000
-20.182800 0.000000
-20.133500 0.000000
-20.084200 0.000000
-20.035000 0.000000
-19.985700 0.000000
-19.936400 0.000000
-19.887100 0.000000
-19.837900 0.000000
-19.788600 0.000000
-19.739300 0.000000
-19.690000 0.000000
-19.640800 0.000000
-19.591500 0.000000
-19.542200 0.000000
-19.492900 0.000000
-19.443700 0.000000
-19.394400 0.000000
-19.345100 0.000000
-19.295800 0.000000
-19.246600 0.000000
-19.197300 0.000100
-19.148000 0.017200
-19.098700 0.063300
-19.049500 0.133100
-19.000200 0.153600
-18.950900 0.179500
-18.901600 0.210900
-18.852400 0.241600
-18.803100 0.267400
-18.753800 0.296100
-18.704500 0.303400
-18.655200 0.315400
-18.606000 0.332100
-18.556700 0.352100
-18.507400 0.375100
-18.458100 0.389600
-18.408900 0.411000
-18.359600 0.432900
-18.310300 0.452300
-18.261000 0.464100
-18.211800 0.480300
-18.162500 0.498800
-18.113200 0.518200
-18.063900 0.538600
-18.014700 0.558700
-17.965400 0.576900
-17.916100 0.594600
-17.866800 0.615800
-17.817600 0.641700
-17.768300 0.670200
-17.719000 0.697600
-17.669700 0.726500
-17.620500 0.753900
-17.571200 0.781200
-17.521900 0.815300
-17.472600 0.880400
-17.423400 0.940900
-17.374100 1.006600
-17.324800 1.083100
-17.275500 1.187600
-17.226200 1.284800
-17.177000 1.395400
-17.127700 1.400000
-17.078400 1.358600
-17.029100 1.430500
-16.979900 1.326100
-16.930600 1.276200
-16.881300 1.218600
-16.832000 1.157800
-16.782800 1.134800
-16.733500 1.058500
-16.684200 0.972600
-16.634900 0.777300
-16.585700 0.626500
-16.536400 0.540800
-16.487100 0.458300
-16.437800 0.378900
-16.388600 0.282100
-16.339300 0.252400
-16.290000 0.236600
-16.240700 0.219300
-16.191500 0.202300
-16.142200 0.185500
-16.092900 0.168900
-16.043600 0.140600
-15.994400 0.129100
-15.945100 0.118000
-15.895800 0.107400
-15.846500 0.097200
-15.797200 0.087500
-15.748000 0.078300
-15.698700 0.069400
-15.649400 0.061100
-15.600100 0.056800
-15.550900 0.053300
-15.501600 0.113800
-15.452300 0.134700
-15.403000 0.154600
-15.353800 0.173300
-15.304500 0.191000
-15.255200 0.191600
-15.205900 0.202700
-15.156700 0.233300
-15.107400 0.263700
-15.058100 0.299600
-15.008800 0.341400
-14.959600 0.389100
-14.910300 0.442800
-14.861000 0.502500
-14.811700 0.568100
-14.762500 0.639600
-14.713200 1.045200
-14.663900 1.016800
-14.614600 1.139200
-14.565400 1.332600
-14.516100 1.510100
-14.466800 1.671400
-14.417500 1.811600
-14.368300 1.876100
-14.319000 1.352500
-14.269700 1.205500
-14.220400 1.077000
-14.171100 0.966900
-14.121900 0.875800
-14.072600 0.796600
-14.023300 0.717000
-13.974000 0.681300
-13.924800 0.648600
-13.875500 0.618900
-13.826200 0.591100
-13.776900 0.564100
-13.727700 0.542600
-13.678400 0.522100
-13.629100 0.517800
-13.579800 0.501900
-13.530600 0.486800
-13.481300 0.472700
-13.432000 0.459600
-13.382700 0.438500
-13.333500 0.427000
-13.284200 0.417800
-13.234900 0.409300
-13.185600 0.400700
-13.136400 0.392000
-13.087100 0.383300
-13.037800 0.374500
-12.988500 0.365600
-12.939300 0.358700
-12.890000 0.353900
-12.840700 0.348900
-12.791400 0.343600
-12.742100 0.334700
-12.692900 0.332200
-12.643600 0.329300
-12.594300 0.326000
-12.545000 0.323100
-12.495800 0.320500
-12.446500 0.318300
-12.397200 0.316400
-12.347900 0.315000
-12.298700 0.313900
-12.249400 0.313100
-12.200100 0.312700
-12.150800 0.312700
-12.101600 0.313100
-12.052300 0.313700
-12.003000 0.314500
-11.953700 0.313300
-11.904500 0.313800
-11.855200 0.315200
-11.805900 0.316900
-11.756600 0.323100
-11.707400 0.329300
-11.658100 0.335400
-11.608800 0.339400
-11.559500 0.343400
-11.510300 0.347300
-11.461000 0.351000
-11.411700 0.354700
-11.362400 0.352000
-11.313100 0.356900
-11.263900 0.362900
-11.214600 0.369600
-11.165300 0.377100
-11.116000 0.386200
-11.066800 0.393700
-11.017500 0.401500
-10.968200 0.409600
-10.918900 0.418000
-10.869700 0.426700
-10.820400 0.437400
-10.771100 0.448500
-10.721800 0.460000
-10.672600 0.471800
-10.623300 0.485900
-10.574000 0.504700
-10.524700 0.524100
-10.475500 0.541700
-10.426200 0.560000
-10.376900 0.579100
-10.327600 0.599000
-10.278400 0.619600
-10.229100 0.627700
-10.179800 0.651200
-10.130500 0.676200
-10.081300 0.708700
-10.032000 0.748300
-9.982700 0.796100
-9.933400 0.856000
-9.884100 0.922000
-9.834900 0.998400
-9.785600 1.085100
-9.736300 1.182100
-9.687000 1.398800
-9.637800 1.592600
-9.588500 1.634900
-9.539200 1.499500
-9.489900 1.432900
-9.440700 1.377400
-9.391400 1.529100
-9.342100 1.423800
-9.292800 1.179100
-9.243600 0.933800
-9.194300 0.707600
-9.145000 0.606600
-9.095700 0.526800
-9.046500 0.534100
-8.997200 0.297100
-8.947900 0.206600
-8.898600 0.153500
-8.849400 0.111000
-8.800100 0.062800
-8.750800 0.008700
-8.701500 0.000000
-8.652300 0.000100
-8.603000 0.000200
-8.553700 0.000300
-8.504400 0.000600
-8.455100 0.000900
-8.405900 0.001200
-8.356600 0.001600
-8.307300 0.002100
-8.258000 0.002600
-8.208800 0.003200
-8.159500 0.025400
-8.110200 0.032200
-8.060900 0.039600
-8.011700 0.047700
-7.962400 0.056400
-7.913100 0.065700
-7.863800 0.075600
-7.814600 0.086100
-7.765300 0.097300
-7.716000 0.109000
-7.666700 0.121400
-7.617500 0.134500
-7.568200 0.148100
-7.518900 0.188200
-7.469600 0.207500
-7.420400 0.250600
-7.371100 0.252800
-7.321800 0.276100
-7.272500 0.300600
-7.223300 0.326400
-7.174000 0.353400
-7.124700 0.381700
-7.075400 0.411300
-7.026100 0.442200
-6.976900 0.472600
-6.927600 0.530800
-6.878300 0.595600
-6.829000 0.773200
-6.779800 0.813700
-6.730500 0.842300
-6.681200 0.875900
-6.631900 0.914000
-6.582700 0.952200
-6.533400 0.988500
-6.484100 1.019800
-6.434800 1.041400
-6.385600 1.087500
-6.336300 1.114400
-6.287000 1.336000
-6.237700 1.184100
-6.188500 1.077200
-6.139200 0.997200
-6.089900 0.946900
-6.040600 0.899500
-5.991400 0.855300
-5.942100 0.814300
-5.892800 0.776600
-5.843500 0.742100
-5.794300 0.710800
-5.745000 0.686900
-5.695700 0.679300
-5.646400 0.681300
-5.597200 0.699600
-5.547900 0.731400
-5.498600 0.809400
-5.449300 0.797400
-5.400000 0.787400
-5.350800 0.780200
-5.301500 0.775800
-5.252200 0.774400
-5.202900 0.775900
-5.153700 5.330100
-5.104400 0.750000
-5.055100 0.218400
-5.005800 0.180300
-4.956600 0.520000
-4.907300 1.279000
-4.858000 2.362100
-4.808700 3.429700
-4.759500 1.943600
-4.710200 1.630300
-4.660900 1.520900
-4.611600 1.779400
-4.562400 1.675300
-4.513100 1.211800
-4.463800 1.297600
-4.414500 1.406200
-4.365300 1.534300
-4.316000 1.708100
-4.266700 1.998900
-4.217400 2.059700
-4.168200 2.071100
-4.118900 1.613900
-4.069600 0.889600
-4.020300 0.864200
-3.971000 0.858300
-3.921800 0.861000
-3.872500 0.856400
-3.823200 0.864700
-3.773900 0.886000
-3.724700 0.920300
-3.675400 1.053500
-3.626100 0.993700
-3.576800 1.061600
-3.527600 1.131900
-3.478300 1.201400
-3.429000 1.315900
-3.379700 1.716800
-3.330500 1.902000
-3.281200 2.207000
-3.231900 2.417800
-3.182600 2.596800
-3.133400 2.846900
-3.084100 3.520400
-3.034800 3.861400
-2.985500 2.929000
-2.936300 2.268300
-2.887000 1.745200
-2.837700 1.480600
-2.788400 1.303900
-2.739200 1.144000
-2.689900 1.053300
-2.640600 0.870400
-2.591300 0.747000
-2.542000 0.655500
-2.492800 0.576300
-2.443500 0.924700
-2.394200 0.000200
-2.344900 0.000000
-2.295700 0.000000
-2.246400 0.000000
-2.197100 0.000000
-2.147800 0.000000
-2.098600 0.000000
-2.049300 0.000000
-2.000000 0.000000
-1.950700 0.000000
-1.901500 0.000000
-1.852200 0.000000
-1.802900 0.000000
-1.753600 0.000000
-1.704400 0.000000
-1.655100 0.000000
-1.605800 0.000000
-1.556500 0.000000
-1.507300 0.000000
-1.458000 0.000000
-1.408700 0.000000
-1.359400 0.000000
-1.310200 0.000000
-1.260900 0.000000
-1.211600 0.000000
-1.162300 0.000000
-1.113000 0.000000
-1.063800 0.000000
-1.014500 0.000000
-0.965200 0.000000
-0.915900 0.000000
-0.866700 0.000000
-0.817400 0.000000
-0.768100 0.000000
-0.718800 0.000000
-0.669600 0.000000
-0.620300 0.000000
-0.571000 0.000000
-0.521700 0.000000
-0.472500 0.000000
-0.423200 0.000000
-0.373900 0.000000
-0.324600 0.000000
-0.275400 0.000000
-0.226100 0.000000
-0.176800 0.000000
-0.127500 0.000000
-0.078300 0.000000
-0.029000 0.000000
0.020300 0.000000
0.069600 0.000000
0.118800 0.000000
0.168100 0.000000
0.217400 0.000000
0.266700 0.000000
0.316000 0.000000
0.365200 0.000000
0.414500 0.000000
0.463800 0.000000
0.513100 0.000000
0.562300 0.000000
0.611600 0.000000
0.660900 0.000000
0.710200 0.000000
0.759400 0.000000
0.808700 0.000000
0.858000 0.000000
0.907300 0.000000
0.956500 0.000000
1.005800 0.002300
1.055100 0.069500
1.104400 0.230100
1.153600 0.531200
1.202900 0.788100
1.252200 1.360400
1.301500 1.525200
1.350700 1.710200
1.400000 1.834200
1.449300 1.914700
1.498600 2.062400
1.547800 2.266200
1.597100 2.278800
1.646400 2.418400
1.695700 2.650300
1.744900 2.394700
1.794200 2.378700
1.843500 1.696900
1.892800 1.505800
1.942100 1.414900
1.991300 1.392100
2.040600 1.377000
2.089900 1.347500
2.139200 1.339500
2.188400 1.306200
2.237700 1.246700
2.287000 1.166000
2.336300 1.119500
2.385500 1.075800
2.434800 1.040800
2.484100 1.060400
2.533400 1.133100
2.582600 1.200000
2.631900 1.368000
2.681200 1.509800
2.730500 1.649400
2.779700 1.808100
2.829000 1.925400
2.878300 2.089100
2.927600 2.295500
2.976800 3.379300
3.026100 3.132700
3.075400 3.146000
3.124700 3.075300
3.173900 3.190600
3.223200 2.726200
3.272500 2.173400
3.321800 1.820800
3.371100 1.601700
3.420300 1.408500
3.469600 1.242500
3.518900 1.127100
3.568200 0.994800
3.617400 0.967100
3.666700 0.987200
3.716000 1.009600
3.765300 1.052000
3.814500 1.114100
3.863800 1.190700
3.913100 1.298100
3.962400 1.477800
4.011600 1.765600
4.060900 1.791800
4.110200 1.651400
4.159500 1.641700
4.208700 1.635600
4.258000 1.635800
4.307300 1.680400
4.356600 1.661900
4.405800 1.484700
4.455100 1.264700
4.504400 1.114100
4.553700 1.016200
4.602900 0.866100
4.652200 0.852300
4.701500 0.761800
4.750800 0.664100
4.800100 0.632500
4.849300 0.559500
4.898600 0.486700
4.947900 0.491800
4.997200 0.054200
5.046400 0.083800
5.095700 0.113000
5.145000 0.141900
5.194300 0.179600
5.243500 0.241600
5.292800 0.303500
5.342100 0.452000
5.391400 0.610300
5.440600 0.754800
5.489900 0.906400
5.539200 1.192700
5.588500 1.547300
5.637700 2.046800
5.687000 2.936000
5.736300 4.123100
5.785600 4.133400
5.834800 2.761600
5.884100 2.238800
5.933400 1.989900
5.982700 1.878400
6.031900 1.831400
6.081200 1.972800
6.130500 2.065600
6.179800 2.333700
6.229100 3.560600
6.278300 0.527400
6.327600 0.000000
6.376900 0.000000
6.426200 0.000000
6.475400 0.000000
6.524700 0.000000
6.574000 0.000000
6.623300 0.000000
6.672500 0.000000
6.721800 0.000000
6.771100 0.000000
6.820400 0.000000
6.869600 0.000000
6.918900 0.000000
6.968200 0.000000
7.017500 0.000000
7.066700 0.000000
7.116000 0.000000
7.165300 0.000000
7.214600 0.000000
7.263800 0.000000
7.313100 0.000000
7.362400 0.000000
7.411700 0.000000
7.460900 0.000000
7.510200 0.000000
7.559500 0.000000
7.608800 0.000000
7.658100 0.000000
7.707300 0.000000
7.756600 0.000000
7.805900 0.000000
7.855200 0.000000
7.904400 0.000000
7.953700 0.000000
8.003000 0.000000
8.052300 0.000000
8.101500 0.000000
8.150800 0.000000
8.200100 0.000000
8.249400 0.000000
8.298600 0.000000
8.347900 0.000000
8.397200 0.000000
8.446500 0.000000
8.495700 0.000000
8.545000 0.000000
8.594300 0.000000
8.643600 0.000000
8.692800 0.000000
8.742100 0.000000
8.791400 0.000000
8.840700 0.000000
8.889900 0.000000
8.939200 0.000000
8.988500 0.000000
9.037800 0.000000
9.087100 0.000000
9.136300 0.000000
9.185600 0.000000
9.234900 0.000000
9.284200 0.000000
9.333400 0.000000
9.382700 0.000000
9.432000 0.000000
9.481300 0.000000
9.530500 0.000000
9.579800 0.000000
9.629100 0.000000
9.678400 0.000000
9.727600 0.000000
9.776900 0.000000
9.826200 0.000000
9.875500 0.000000
9.924700 0.000000
9.974000 0.000000
10.023300 0.000000
10.072600 0.000000
10.121800 0.000000
10.171100 0.000000
10.220400 0.000000
10.269700 0.000000
10.318900 0.000000
10.368200 0.627500
10.417500 1.861300
10.466800 1.823300
10.516000 1.479200
10.565300 1.214800
10.614600 1.101200
10.663900 1.026700
10.713200 0.984000
10.762400 1.043800
10.811700 1.111900
10.861000 1.210600
10.910300 1.360900
10.959500 1.594400
11.008800 2.027800
11.058100 1.965400
11.107400 1.879500
11.156600 1.688400
11.205900 1.617800
11.255200 1.577200
11.304500 1.527100
11.353700 1.468500
11.403000 1.358600
11.452300 1.242500
11.501600 1.118100
11.550800 0.990400
11.600100 1.022300
11.649400 0.661300
11.698700 0.571400
11.747900 0.536700
11.797200 0.493400
11.846500 0.455600
11.895800 0.423400
11.945000 0.396800
11.994300 0.375300
12.043600 0.365600
12.092900 0.354500
12.142200 0.347100
12.191400 0.334400
12.240700 0.324700
12.290000 0.317900
12.339300 0.314100
12.388500 0.292100
12.437800 0.311500
12.487100 0.333300
12.536400 0.357100
12.585600 0.378100
12.634900 0.402300
12.684200 0.427700
12.733500 0.468000
12.782700 0.511700
12.832000 0.571600
12.881300 0.633000
12.930600 0.703700
12.979800 1.355100
13.029100 1.697500
13.078400 2.061700
13.127700 2.314900
13.176900 2.749200
13.226200 3.167000
13.275500 3.404900
13.324800 3.429800
13.374000 2.701400
13.423300 2.290800
13.472600 2.619700
13.521900 2.561500
13.571200 1.928300
13.620400 1.068800
13.669700 0.616900
13.719000 0.442800
13.768300 0.347700
13.817500 0.313800
13.866800 0.325000
13.916100 0.351600
13.965400 0.380200
14.014600 0.416000
14.063900 0.471900
14.113200 0.556800
14.162500 0.670800
14.211700 0.920700
14.261000 1.068700
14.310300 1.112100
14.359600 1.236900
14.408800 1.650600
14.458100 2.042300
14.507400 2.182000
14.556700 2.462900
14.605900 3.010900
14.655200 3.919300
14.704500 4.917400
14.753800 4.567100
14.803000 3.382400
14.852300 1.950100
14.901600 1.153200
14.950900 0.676300
15.000200 0.741500
15.049400 0.888700
15.098700 0.565200
15.148000 0.593400
15.197300 0.622500
15.246500 0.652500
15.295800 0.683300
15.345100 0.715000
15.394400 0.747700
15.443600 0.781200
15.492900 0.849200
15.542200 0.854000
15.591500 0.878300
15.640700 0.920900
15.690000 1.032600
15.739300 1.152300
15.788600 1.191000
15.837800 1.246200
15.887100 1.409400
15.936400 1.581100
15.985700 1.732400
16.034900 1.891600
16.084200 3.074800
16.133500 1.388200
16.182800 1.076800
16.232000 0.838900
16.281300 0.706700
16.330600 0.640400
16.379900 0.581500
16.429200 0.532100
16.478400 0.495800
16.527700 0.468400
16.577000 0.425600
16.626300 0.380100
16.675500 0.320000
16.724800 0.287000
16.774100 0.276700
16.823400 0.331600
16.872600 0.729700
16.921900 1.371300
16.971200 2.590000
17.020500 2.476500
17.069700 1.998500
17.119000 1.829900
17.168300 1.767000
17.217600 1.764300
17.266800 1.776400
17.316100 1.787800
17.365400 1.856400
17.414700 2.050300
17.463900 3.464900
17.513200 1.633800
17.562500 1.479000
17.611800 1.455700
17.661000 2.389200
17.710300 2.724400
17.759600 3.613200
17.808900 3.001400
17.858100 2.696400
17.907400 2.638300
17.956700 2.499200
18.006000 2.293500
18.055300 2.134400
18.104500 2.019000
18.153800 2.600700
18.203100 1.724800
18.252400 1.478800
18.301600 1.405000
18.350900 1.403400
18.400200 1.389900
18.449500 1.345600
18.498700 1.278600
18.548000 1.182600
18.597300 1.069000
18.646600 0.995100
18.695800 0.944800
18.745100 0.912500
18.794400 0.895900
18.843700 1.046900
18.892900 1.177300
18.942200 1.224200
18.991500 1.117500
19.040800 0.974600
19.090000 0.841100
19.139300 0.712400
19.188600 0.590700
19.237900 0.524300
19.287100 0.448200
19.336400 0.402700
19.385700 0.371700
19.435000 0.320300
19.484300 0.305100
19.533500 0.591500
19.582800 1.255700
19.632100 1.712200
19.681400 2.005500
19.730600 2.578100
19.779900 5.593600
19.829200 5.850500
19.878500 4.777500
19.927700 2.755800
19.977000 1.829300
20.026300 1.509500
20.075600 1.126600
20.124800 0.854100
20.174100 0.803000
20.223400 0.756000
20.272700 0.701300
20.321900 0.451400
20.371200 0.421600
20.420500 0.394600
20.469800 0.561900
20.519000 0.763800
20.568300 1.009400
20.617600 1.295200
20.666900 1.577800
20.716100 2.127000
20.765400 3.061100
20.814700 4.084100
20.864000 4.388700
20.913300 3.917000
20.962500 2.841300
21.011800 2.069300
21.061100 1.786400
21.110400 1.539100
21.159600 1.350000
21.208900 1.213000
21.258200 1.081500
21.307500 0.955800
21.356700 0.850900
21.406000 0.775700
21.455300 0.707700
21.504600 0.645400
21.553800 0.588100
21.603100 0.534600
21.652400 0.490600
21.701700 0.462800
21.750900 0.436200
21.800200 0.410600
21.849500 0.385900
21.898800 0.362300
21.948000 0.339200
21.997300 0.314700
22.046600 0.294200
22.095900 0.264100
22.145100 0.246600
22.194400 0.215100
22.243700 0.181500
22.293000 0.168100
22.342300 0.154300
22.391500 0.120200
22.440800 0.112700
22.490100 0.105600
22.539400 0.098900
22.588600 0.092400
22.637900 0.086200
22.687200 0.080200
22.736500 0.074400
22.785700 0.068700
22.835000 0.063300
22.884300 0.058000
22.933600 0.053000
22.982800 0.105500
23.032100 0.161300
23.081400 0.239000
23.130700 0.394700
23.179900 0.694000
23.229200 0.909000
23.278500 1.055900
23.327800 0.981600
23.377000 0.929500
23.426300 0.919500
23.475600 0.940500
23.524900 0.968100
23.574100 1.010100
23.623400 0.989600
23.672700 0.956200
23.722000 0.938600
23.771300 0.948900
23.820500 0.959300
23.869800 0.969600
23.919100 0.980000
23.968400 0.994100
24.017600 1.030300
24.066900 1.072400
24.116200 1.118300
24.165500 1.158300
24.214700 1.194400
24.264000 1.249000
24.313300 1.426800
24.362600 1.742400
24.411800 1.963800
24.461100 1.582000
24.510400 1.387900
24.559700 1.149700
24.608900 1.012100
24.658200 0.905600
24.707500 0.808400
24.756800 0.720300
24.806000 0.641400
24.855300 0.571600
24.904600 0.499800
24.953900 0.503600
25.003100 0.631000
25.052400 0.587000
25.101700 0.189600
25.151000 0.164900
25.200300 0.160800
25.249500 0.161800
25.298800 0.167900
25.348100 0.179100
25.397400 0.197500
25.446600 0.232200
25.495900 0.276700
25.545200 0.335600
25.594500 0.409900
25.643700 0.494300
25.693000 0.552900
25.742300 0.588700
25.791600 0.629000
25.840800 0.688400
25.890100 0.768900
25.939400 0.909400
25.988700 1.107700
26.037900 1.247600
26.087200 1.376600
26.136500 1.493100
26.185800 1.541800
26.235000 1.525800
26.284300 1.164700
26.333600 0.994300
26.382900 0.911700
26.432100 0.871400
26.481400 0.835800
26.530700 0.801500
26.580000 0.892800
26.629200 0.886900
26.678500 0.884100
26.727800 0.883800
26.777100 0.884800
26.826400 0.883000
26.875600 0.883800
26.924900 0.897700
26.974200 0.911900
27.023500 0.923300
27.072700 0.934600
27.122000 0.967800
27.171300 0.972600
27.220600 0.974800
