set title 'mp-1186450 - Density of States'
set xlabel 'Energy (eV)'
set ylabel 'DOS (states/eV)'
set grid
set xrange [-10:10]
set yrange [0:6.552]
set xzeroaxis lt -1
set terminal png size 800,600
set output 'mp-1186450_dos_gnuplot.png'
plot '-' using 1:2 with lines title 'DOS'
-4.303900 0.000000
-4.283200 0.000000
-4.262500 0.000000
-4.241800 0.000000
-4.221100 0.000000
-4.200400 0.000000
-4.179700 0.000000
-4.159000 0.000000
-4.138300 0.000000
-4.117600 0.000000
-4.096800 0.000000
-4.076100 0.000000
-4.055400 0.000000
-4.034700 0.000000
-4.014000 0.000000
-3.993300 0.000000
-3.972600 0.000000
-3.951900 0.000000
-3.931200 0.000000
-3.910500 0.000000
-3.889800 0.000000
-3.869100 0.000000
-3.848400 0.000000
-3.827700 0.000000
-3.807000 0.000000
-3.786200 0.000000
-3.765500 0.000000
-3.744800 0.000000
-3.724100 0.000000
-3.703400 0.000000
-3.682700 0.000000
-3.662000 0.000000
-3.641300 0.000000
-3.620600 0.000000
-3.599900 0.000000
-3.579200 0.000000
-3.558500 0.000000
-3.537800 0.000000
-3.517100 0.000000
-3.496300 0.000000
-3.475600 0.000000
-3.454900 0.000000
-3.434200 0.000000
-3.413500 0.000000
-3.392800 0.000000
-3.372100 0.000000
-3.351400 0.000000
-3.330700 0.000000
-3.310000 0.000000
-3.289300 0.000000
-3.268600 0.000000
-3.247900 0.000000
-3.227200 0.000000
-3.206500 0.000000
-3.185700 0.000000
-3.165000 0.000000
-3.144300 0.000000
-3.123600 0.000000
-3.102900 0.000000
-3.082200 0.000000
-3.061500 0.000000
-3.040800 0.000000
-3.020100 0.000000
-2.999400 0.000000
-2.978700 0.000000
-2.958000 0.000000
-2.937300 0.000000
-2.916600 0.000000
-2.895900 0.000000
-2.875100 0.000000
-2.854400 0.000000
-2.833700 0.000000
-2.813000 0.000000
-2.792300 0.000000
-2.771600 0.000000
-2.750900 0.000000
-2.730200 0.000000
-2.709500 0.000000
-2.688800 0.000000
-2.668100 0.000000
-2.647400 0.000000
-2.626700 0.000000
-2.606000 0.000000
-2.585300 0.000000
-2.564500 0.000000
-2.543800 0.000000
-2.523100 0.000100
-2.502400 0.000500
-2.481700 0.001900
-2.461000 0.005000
-2.440300 0.010000
-2.419600 0.015600
-2.398900 0.020700
-2.378200 0.025700
-2.357500 0.030200
-2.336800 0.033600
-2.316100 0.041100
-2.295400 0.061200
-2.274700 0.091000
-2.253900 0.110600
-2.233200 0.101900
-2.212500 0.069600
-2.191800 0.035300
-2.171100 0.014900
-2.150400 0.012300
-2.129700 0.027700
-2.109000 0.060400
-2.088300 0.100200
-2.067600 0.129800
-2.046900 0.142100
-2.026200 0.142000
-2.005500 0.132700
-1.984800 0.121500
-1.964100 0.126400
-1.943300 0.150800
-1.922600 0.166900
-1.901900 0.146200
-1.881200 0.096000
-1.860500 0.047200
-1.839800 0.020700
-1.819100 0.019600
-1.798400 0.041600
-1.777700 0.080700
-1.757000 0.122300
-1.736300 0.152300
-1.715600 0.166900
-1.694900 0.167400
-1.674200 0.159700
-1.653400 0.167400
-1.632700 0.213300
-1.612000 0.275800
-1.591300 0.295800
-1.570600 0.242400
-1.549900 0.148600
-1.529200 0.070700
-1.508500 0.037600
-1.487800 0.047600
-1.467100 0.084900
-1.446400 0.125700
-1.425700 0.151000
-1.405000 0.163800
-1.384300 0.183600
-1.363600 0.225900
-1.342800 0.286300
-1.322100 0.327600
-1.301400 0.302700
-1.280700 0.212600
-1.260000 0.112000
-1.239300 0.051200
-1.218600 0.045100
-1.197900 0.090500
-1.177200 0.175000
-1.156500 0.266800
-1.135800 0.321500
-1.115100 0.313900
-1.094400 0.260300
-1.073700 0.207500
-1.053000 0.195900
-1.032200 0.226400
-1.011500 0.257900
-0.990800 0.247500
-0.970100 0.199600
-0.949400 0.158800
-0.928700 0.155900
-0.908000 0.188200
-0.887300 0.247200
-0.866600 0.326300
-0.845900 0.397600
-0.825200 0.424900
-0.804500 0.411100
-0.783800 0.391500
-0.763100 0.375100
-0.742400 0.335000
-0.721600 0.258500
-0.700900 0.169500
-0.680200 0.102600
-0.659500 0.075700
-0.638800 0.086700
-0.618100 0.133200
-0.597400 0.219900
-0.576700 0.333000
-0.556000 0.425000
-0.535300 0.456600
-0.514600 0.446500
-0.493900 0.452600
-0.473200 0.489000
-0.452500 0.493500
-0.431800 0.416200
-0.411000 0.304700
-0.390300 0.255900
-0.369600 0.313800
-0.348900 0.447100
-0.328200 0.586000
-0.307500 0.653500
-0.286800 0.601200
-0.266100 0.454900
-0.245400 0.307700
-0.224700 0.256400
-0.204000 0.342400
-0.183300 0.516400
-0.162600 0.652200
-0.141900 0.652600
-0.121200 0.557900
-0.100400 0.509800
-0.079700 0.607000
-0.059000 0.813700
-0.038300 1.006100
-0.017600 1.100200
0.003100 1.117400
0.023800 1.120600
0.044500 1.134400
0.065200 1.162200
0.085900 1.219600
0.106600 1.295800
0.127300 1.337700
0.148000 1.337800
0.168700 1.375800
0.189500 1.503000
0.210200 1.646100
0.230900 1.692800
0.251600 1.608400
0.272300 1.437700
0.293000 1.267400
0.313700 1.180200
0.334400 1.188400
0.355100 1.235000
0.375800 1.269700
0.396500 1.288900
0.417200 1.310000
0.437900 1.330100
0.458600 1.331600
0.479300 1.329700
0.500100 1.366500
0.520800 1.444400
0.541500 1.520900
0.562200 1.574200
0.582900 1.629900
0.603600 1.727700
0.624300 1.874800
0.645000 2.021800
0.665700 2.104300
0.686400 2.114000
0.707100 2.100700
0.727800 2.136200
0.748500 2.299800
0.769200 2.619300
0.789900 2.994200
0.810700 3.261100
0.831400 3.339400
0.852100 3.264600
0.872800 3.127300
0.893500 3.012400
0.914200 2.952100
0.934900 2.921600
0.955600 2.901600
0.976300 2.932400
0.997000 3.065000
1.017700 3.269300
1.038400 3.457900
1.059100 3.587800
1.079800 3.662200
1.100500 3.651000
1.121300 3.522200
1.142000 3.342800
1.162700 3.210100
1.183400 3.104300
1.204100 2.967200
1.224800 2.886400
1.245500 3.017600
1.266200 3.314200
1.286900 3.507100
1.307600 3.440900
1.328300 3.277000
1.349000 3.244400
1.369700 3.341000
1.390400 3.401500
1.411100 3.334800
1.431900 3.185100
1.452600 3.039800
1.473300 2.974800
1.494000 3.040300
1.514700 3.199700
1.535400 3.294700
1.556100 3.174800
1.576800 2.904500
1.597500 2.729300
1.618200 2.769800
1.638900 2.875600
1.659600 2.850100
1.680300 2.694800
1.701000 2.545000
1.721700 2.466200
1.742500 2.414500
1.763200 2.315500
1.783900 2.141300
1.804600 1.962800
1.825300 1.878700
1.846000 1.886000
1.866700 1.935000
1.887400 2.075300
1.908100 2.404700
1.928800 2.880400
1.949500 3.302800
1.970200 3.503400
1.990900 3.454300
2.011600 3.205000
2.032400 2.851300
2.053100 2.561600
2.073800 2.478600
2.094500 2.567400
2.115200 2.673600
2.135900 2.741200
2.156600 2.856700
2.177300 3.073800
2.198000 3.304600
2.218700 3.407300
2.239400 3.321300
2.260100 3.100700
2.280800 2.858300
2.301500 2.688800
2.322200 2.628000
2.343000 2.702100
2.363700 2.969000
2.384400 3.409400
2.405100 3.814700
2.425800 3.919800
2.446500 3.660600
2.467200 3.221800
2.487900 2.854700
2.508600 2.725700
2.529300 2.871600
2.550000 3.186700
2.570700 3.481000
2.591400 3.615600
2.612100 3.570300
2.632800 3.398400
2.653600 3.178300
2.674300 2.993100
2.695000 2.897200
2.715700 2.911700
2.736400 3.038000
2.757100 3.227300
2.777800 3.381600
2.798500 3.440500
2.819200 3.420000
2.839900 3.357700
2.860600 3.279100
2.881300 3.214900
2.902000 3.200000
2.922700 3.250200
2.943400 3.377600
2.964200 3.612000
2.984900 3.941200
3.005600 4.269500
3.026300 4.504000
3.047000 4.620200
3.067700 4.605300
3.088400 4.466600
3.109100 4.303000
3.129800 4.199500
3.150500 4.092300
3.171200 3.909700
3.191900 3.768100
3.212600 3.872900
3.233300 4.266200
3.254000 4.752700
3.274800 5.088900
3.295500 5.214000
3.316200 5.255300
3.336900 5.336800
3.357600 5.473600
3.378300 5.638200
3.399000 5.817400
3.419700 5.956500
3.440400 5.927400
3.461100 5.652200
3.481800 5.230100
3.502500 4.819100
3.523200 4.444000
3.543900 4.054600
3.564600 3.688700
3.585400 3.448500
3.606100 3.385300
3.626800 3.467200
3.647500 3.577900
3.668200 3.555100
3.688900 3.334100
3.709600 3.047900
3.730300 2.906800
3.751000 2.981400
3.771700 3.144100
3.792400 3.200600
3.813100 3.061600
3.833800 2.818800
3.854500 2.655000
3.875300 2.681800
3.896000 2.874700
3.916700 3.120200
3.937400 3.279900
3.958100 3.248100
3.978800 3.035700
3.999500 2.800100
4.020200 2.702300
4.040900 2.747900
4.061600 2.851500
4.082300 2.992900
4.103000 3.184700
4.123700 3.338500
4.144400 3.314800
4.165100 3.096600
4.185900 2.803700
4.206600 2.565800
4.227300 2.467600
4.248000 2.557900
4.268700 2.827300
4.289400 3.166700
4.310100 3.399700
4.330800 3.433100
4.351500 3.342300
4.372200 3.245500
4.392900 3.174500
4.413600 3.124500
4.434300 3.133700
4.455000 3.234500
4.475700 3.362000
4.496500 3.380200
4.517200 3.214400
4.537900 2.932800
4.558600 2.678500
4.579300 2.531700
4.600000 2.465600
4.620700 2.446000
4.641400 2.505400
4.662100 2.659400
4.682800 2.830000
4.703500 2.958100
4.724200 3.103400
4.744900 3.296200
4.765600 3.402000
4.786300 3.285600
4.807100 3.016200
4.827800 2.808800
4.848500 2.833600
4.869200 3.097100
4.889900 3.433100
4.910600 3.618800
4.931300 3.535600
4.952000 3.232800
4.972700 2.881100
4.993400 2.660800
5.014100 2.640500
5.034800 2.746400
5.055500 2.849800
5.076200 2.883700
5.096900 2.879900
5.117700 2.912900
5.138400 3.024000
5.159100 3.160700
5.179800 3.181800
5.200500 2.993300
5.221200 2.684100
5.241900 2.462100
5.262600 2.464300
5.283300 2.667600
5.304000 2.942900
5.324700 3.139900
5.345400 3.151400
5.366100 2.981500
5.386800 2.757500
5.407500 2.634600
5.428300 2.673400
5.449000 2.798200
5.469700 2.868600
5.490400 2.800800
5.511100 2.627700
5.531800 2.469600
5.552500 2.468300
5.573200 2.700200
5.593900 3.082000
5.614600 3.388200
5.635300 3.433600
5.656000 3.234600
5.676700 2.964300
5.697400 2.784200
5.718200 2.740500
5.738900 2.777200
5.759600 2.813500
5.780300 2.821400
5.801000 2.829400
5.821700 2.854600
5.842400 2.884600
5.863100 2.911500
5.883800 2.906300
5.904500 2.809000
5.925200 2.630000
5.945900 2.515300
5.966600 2.637800
5.987300 2.999500
6.008000 3.375300
6.028800 3.512400
6.049500 3.382100
6.070200 3.192500
6.090900 3.149700
6.111600 3.253000
6.132300 3.336900
6.153000 3.262500
6.173700 3.048900
6.194400 2.847800
6.215100 2.800800
6.235800 2.932800
6.256500 3.162600
6.277200 3.372400
6.297900 3.507700
6.318600 3.626500
6.339400 3.804000
6.360100 4.028500
6.380800 4.227700
6.401500 4.346400
6.422200 4.374500
6.442900 4.315900
6.463600 4.149500
6.484300 3.845000
6.505000 3.424200
6.525700 2.974800
6.546400 2.588100
6.567100 2.306800
6.587800 2.127700
6.608500 2.027100
6.629200 2.005200
6.650000 2.102300
6.670700 2.320200
6.691400 2.534900
6.712100 2.564500
6.732800 2.345300
6.753500 1.990900
6.774200 1.654200
6.794900 1.389400
6.815600 1.174600
6.836300 1.000600
6.857000 0.880500
6.877700 0.821400
6.898400 0.821700
6.919100 0.875400
6.939800 0.976200
6.960600 1.121200
6.981300 1.276300
7.002000 1.349700
7.022700 1.268500
7.043400 1.070100
7.064100 0.859800
7.084800 0.701300
7.105500 0.586100
7.126200 0.487200
7.146900 0.405900
7.167600 0.361200
7.188300 0.351700
7.209000 0.348700
7.229700 0.328600
7.250400 0.303800
7.271200 0.318500
7.291900 0.412600
7.312600 0.575100
7.333300 0.719400
7.354000 0.742000
7.374700 0.627700
7.395400 0.460900
7.416100 0.329900
7.436800 0.258700
7.457500 0.229100
7.478200 0.230300
7.498900 0.268800
7.519600 0.343400
7.540300 0.448000
7.561000 0.587200
7.581800 0.740400
7.602500 0.824500
7.623200 0.763900
7.643900 0.593600
7.664600 0.439400
7.685300 0.402600
7.706000 0.484900
7.726700 0.595400
7.747400 0.633700
7.768100 0.586600
7.788800 0.527000
7.809500 0.519600
7.830200 0.566600
7.850900 0.631700
7.871700 0.679700
7.892400 0.695400
7.913100 0.686900
7.933800 0.664900
7.954500 0.622400
7.975200 0.565700
7.995900 0.552300
8.016600 0.623900
8.037300 0.715500
8.058000 0.718100
8.078700 0.619800
8.099400 0.512900
8.120100 0.479500
8.140800 0.512300
8.161500 0.542000
8.182300 0.529900
8.203000 0.505700
8.223700 0.497900
8.244400 0.478300
8.265100 0.412600
8.285800 0.328000
8.306500 0.293500
8.327200 0.334600
8.347900 0.399600
8.368600 0.430600
8.389300 0.429300
8.410000 0.424200
8.430700 0.420100
8.451400 0.413300
8.472100 0.412600
8.492900 0.433900
8.513600 0.489800
8.534300 0.568400
8.555000 0.618700
8.575700 0.593300
8.596400 0.510500
8.617100 0.441700
8.637800 0.430600
8.658500 0.453900
8.679200 0.467900
8.699900 0.462300
8.720600 0.458400
8.741300 0.479500
8.762000 0.533600
8.782700 0.602500
8.803500 0.644700
8.824200 0.629700
8.844900 0.574100
8.865600 0.523600
8.886300 0.498500
8.907000 0.481000
8.927700 0.462100
8.948400 0.479500
8.969100 0.591100
8.989800 0.798000
9.010500 0.993200
9.031200 1.039900
9.051900 0.914000
9.072600 0.708700
9.093300 0.510700
9.114100 0.349000
9.134800 0.236500
9.155500 0.194900
9.176200 0.235400
9.196900 0.335900
9.217600 0.452200
9.238300 0.551400
9.259000 0.629500
9.279700 0.693800
9.300400 0.731300
9.321100 0.718100
9.341800 0.663100
9.362500 0.608200
9.383200 0.576900
9.403900 0.552200
9.424700 0.518900
9.445400 0.498300
9.466100 0.510100
9.486800 0.521300
9.507500 0.477000
9.528200 0.380500
9.548900 0.303000
9.569600 0.310600
9.590300 0.398900
9.611000 0.495200
9.631700 0.525200
9.652400 0.484600
9.673100 0.436700
9.693800 0.435400
9.714600 0.470200
9.735300 0.491300
9.756000 0.474900
9.776700 0.449900
9.797400 0.458300
9.818100 0.500400
9.838800 0.544100
9.859500 0.581400
9.880200 0.631000
9.900900 0.695200
9.921600 0.753400
9.942300 0.784100
9.963000 0.766100
9.983700 0.684000
10.004400 0.552800
10.025200 0.421200
10.045900 0.334100
10.066600 0.299100
10.087300 0.294100
10.108000 0.295800
10.128700 0.296200
10.149400 0.299400
10.170100 0.309300
10.190800 0.326500
10.211500 0.354100
10.232200 0.390300
10.252900 0.417700
10.273600 0.414800
10.294300 0.381100
10.315000 0.339900
10.335800 0.326900
10.356500 0.383300
10.377200 0.525400
10.397900 0.704000
10.418600 0.831100
10.439300 0.861800
10.460000 0.816200
10.480700 0.725200
10.501400 0.603800
10.522100 0.481700
10.542800 0.411000
10.563500 0.412000
10.584200 0.440800
10.604900 0.445000
10.625600 0.434900
10.646400 0.465800
10.667100 0.555400
10.687800 0.648000
10.708500 0.667700
10.729200 0.595800
10.749900 0.480100
10.770600 0.382700
10.791300 0.338600
10.812000 0.344000
10.832700 0.359900
10.853400 0.345900
10.874100 0.310500
10.894800 0.305800
10.915500 0.367600
10.936200 0.480400
10.957000 0.592900
10.977700 0.648200
10.998400 0.616700
11.019100 0.524200
11.039800 0.430900
11.060500 0.378700
11.081200 0.379700
11.101900 0.421300
11.122600 0.454200
11.143300 0.417500
11.164000 0.303500
11.184700 0.168100
11.205400 0.069900
11.226100 0.023300
11.246800 0.013600
11.267600 0.029200
11.288300 0.071600
11.309000 0.141200
11.329700 0.221800
11.350400 0.288100
11.371100 0.342400
11.391800 0.430800
11.412500 0.586800
11.433200 0.759800
11.453900 0.840300
11.474600 0.773700
11.495300 0.609000
11.516000 0.437900
11.536700 0.322600
11.557500 0.275900
11.578200 0.276100
11.598900 0.302200
11.619600 0.345300
11.640300 0.387600
11.661000 0.409700
11.681700 0.421900
11.702400 0.453800
11.723100 0.508100
11.743800 0.553800
11.764500 0.577600
11.785200 0.617700
11.805900 0.728000
11.826600 0.900900
11.847300 1.040000
11.868100 1.035000
11.888800 0.865100
11.909500 0.605800
11.930200 0.355300
11.950900 0.182200
11.971600 0.115000
11.992300 0.146300
12.013000 0.242200
12.033700 0.358000
12.054400 0.457100
12.075100 0.513300
12.095800 0.512800
12.116500 0.479500
12.137200 0.465200
12.157900 0.491300
12.178700 0.541800
12.199400 0.597500
12.220100 0.632000
12.240800 0.612600
12.261500 0.549300
12.282200 0.507200
12.302900 0.537000
12.323600 0.612500
12.344300 0.668800
12.365000 0.679800
12.385700 0.660500
12.406400 0.624600
12.427100 0.583600
12.447800 0.558700
12.468500 0.567000
12.489300 0.611600
12.510000 0.684700
12.530700 0.763000
12.551400 0.804200
12.572100 0.771200
12.592800 0.675100
12.613500 0.577400
12.634200 0.537900
12.654900 0.566700
12.675600 0.625000
12.696300 0.664500
12.717000 0.671300
12.737700 0.667400
12.758400 0.674000
12.779100 0.686300
12.799900 0.679200
12.820600 0.636900
12.841300 0.573900
12.862000 0.508700
12.882700 0.433300
12.903400 0.346700
12.924100 0.297200
12.944800 0.344600
12.965500 0.484100
12.986200 0.634900
13.006900 0.701500
13.027600 0.644800
13.048300 0.504100
13.069000 0.359500
13.089700 0.273400
13.110500 0.265000
13.131200 0.317100
13.151900 0.397400
13.172600 0.475200
13.193300 0.523000
13.214000 0.534500
13.234700 0.546000
13.255400 0.597900
13.276100 0.675200
13.296800 0.721200
13.317500 0.698300
13.338200 0.612300
13.358900 0.501100
13.379600 0.430500
13.400400 0.465800
13.421100 0.601800
13.441800 0.751300
13.462500 0.840700
13.483200 0.873900
13.503900 0.874600
13.524600 0.836600
13.545300 0.764600
13.566000 0.700400
13.586700 0.676500
13.607400 0.677400
13.628100 0.671300
13.648800 0.651900
13.669500 0.621500
13.690200 0.572000
13.711000 0.521500
13.731700 0.516100
13.752400 0.555100
13.773100 0.578300
13.793800 0.555900
13.814500 0.519100
13.835200 0.492700
13.855900 0.463700
13.876600 0.422200
13.897300 0.389800
13.918000 0.397700
13.938700 0.450900
13.959400 0.519500
13.980100 0.567800
14.000800 0.588500
14.021600 0.604900
14.042300 0.641600
14.063000 0.698700
14.083700 0.757200
14.104400 0.796600
14.125100 0.799000
14.145800 0.748200
14.166500 0.642000
14.187200 0.506000
14.207900 0.383700
14.228600 0.308200
14.249300 0.299100
14.270000 0.371100
14.290700 0.510800
14.311400 0.655500
14.332200 0.721300
14.352900 0.666200
14.373600 0.536700
14.394300 0.439900
14.415000 0.452500
14.435700 0.551100
14.456400 0.645200
14.477100 0.687100
14.497800 0.713800
14.518500 0.762200
14.539200 0.800200
14.559900 0.787700
14.580600 0.749600
14.601300 0.731400
14.622000 0.728300
14.642800 0.715300
14.663500 0.703000
14.684200 0.708500
14.704900 0.711000
14.725600 0.687800
14.746300 0.657900
14.767000 0.650900
14.787700 0.667200
14.808400 0.694500
14.829100 0.729000
14.849800 0.764400
14.870500 0.782200
14.891200 0.761700
14.911900 0.702800
14.932600 0.633600
14.953400 0.576500
14.974100 0.525600
14.994800 0.480800
15.015500 0.466900
15.036200 0.503700
15.056900 0.581000
15.077600 0.668500
15.098300 0.741200
15.119000 0.791500
15.139700 0.809900
15.160400 0.769000
15.181100 0.653300
15.201800 0.496600
15.222500 0.365700
15.243300 0.313200
15.264000 0.343400
15.284700 0.412600
15.305400 0.466900
15.326100 0.487700
15.346800 0.496700
15.367500 0.513000
15.388200 0.528300
15.408900 0.536200
15.429600 0.551200
15.450300 0.570700
15.471000 0.560400
15.491700 0.507700
15.512400 0.453700
15.533100 0.441800
15.553900 0.457400
15.574600 0.454700
15.595300 0.431700
15.616000 0.432300
15.636700 0.480500
15.657400 0.545000
15.678100 0.567000
15.698800 0.519200
15.719500 0.451300
15.740200 0.459300
15.760900 0.583700
15.781600 0.754500
15.802300 0.858400
15.823000 0.843400
15.843700 0.741900
15.864500 0.620800
15.885200 0.536400
15.905900 0.517900
15.926600 0.566000
15.947300 0.653900
15.968000 0.726200
15.988700 0.722200
16.009400 0.625000
16.030100 0.487500
16.050800 0.396600
16.071500 0.411300
16.092200 0.537100
16.112900 0.735400
16.133600 0.936300
16.154300 1.067700
16.175100 1.092000
16.195800 1.008900
16.216500 0.843500
16.237200 0.649500
16.257900 0.486100
16.278600 0.378500
16.299300 0.325600
16.320000 0.335600
16.340700 0.419400
16.361400 0.553100
16.382100 0.679500
16.402800 0.754100
16.423500 0.763800
16.444200 0.717200
16.464900 0.649200
16.485700 0.607200
16.506400 0.608900
16.527100 0.638800
16.547800 0.683400
16.568500 0.736300
16.589200 0.771200
16.609900 0.749000
16.630600 0.673800
16.651300 0.600200
16.672000 0.574100
16.692700 0.600900
16.713400 0.656400
16.734100 0.693500
16.754800 0.669700
16.775500 0.598900
16.796300 0.555400
16.817000 0.602300
16.837700 0.721900
16.858400 0.827300
16.879100 0.841400
16.899800 0.763000
16.920500 0.664600
16.941200 0.632100
16.961900 0.695800
16.982600 0.809300
17.003300 0.898200
17.024000 0.938100
17.044700 0.969600
17.065400 1.019000
17.086200 1.048200
17.106900 1.011500
17.127600 0.914000
17.148300 0.801800
17.169000 0.726100
17.189700 0.729400
17.210400 0.840100
17.231100 1.046000
17.251800 1.270900
17.272500 1.408700
17.293200 1.397400
17.313900 1.246900
17.334600 1.010100
17.355300 0.769100
17.376000 0.616000
17.396800 0.589200
17.417500 0.639200
17.438200 0.684900
17.458900 0.683300
17.479600 0.630100
17.500300 0.540500
17.521000 0.453800
17.541700 0.409200
17.562400 0.400200
17.583100 0.392300
17.603800 0.373400
17.624500 0.358900
17.645200 0.370300
17.665900 0.426800
17.686600 0.522500
