set title 'mp-1184646 - Density of States'
set xlabel 'Energy (eV)'
set ylabel 'DOS (states/eV)'
set grid
set xrange [-10:10]
set yrange [0:14.682]
set xzeroaxis lt -1
set terminal png size 800,600
set output 'mp-1184646_dos_gnuplot.png'
plot '-' using 1:2 with lines title 'DOS'
-20.529500 0.000000
-20.503400 0.000000
-20.477300 0.000000
-20.451200 0.000000
-20.425100 0.000000
-20.399000 0.000000
-20.372900 0.000000
-20.346800 0.000000
-20.320700 0.000000
-20.294600 0.000000
-20.268500 0.000000
-20.242400 0.000000
-20.216300 0.000000
-20.190200 0.000000
-20.164100 0.000000
-20.138000 0.000000
-20.111900 0.000000
-20.085800 0.000000
-20.059700 0.000000
-20.033600 0.000000
-20.007500 0.000000
-19.981400 0.000000
-19.955300 0.000000
-19.929200 0.000000
-19.903100 0.000000
-19.877000 0.000000
-19.850900 0.000000
-19.824800 0.000000
-19.798700 0.000000
-19.772600 0.000000
-19.746500 0.000000
-19.720400 0.000000
-19.694300 0.000000
-19.668200 0.000000
-19.642100 0.000000
-19.616000 0.000000
-19.589900 0.000000
-19.563800 0.000000
-19.537700 0.000000
-19.511600 0.000000
-19.485500 0.000000
-19.459400 0.000000
-19.433300 0.000000
-19.407200 0.000000
-19.381100 0.000000
-19.355000 0.000000
-19.328900 0.000000
-19.302800 0.000000
-19.276700 0.000000
-19.250600 0.000000
-19.224500 0.000000
-19.198400 0.000000
-19.172300 0.000000
-19.146200 0.000000
-19.120100 0.000000
-19.094000 0.000000
-19.067900 0.000000
-19.041800 0.000000
-19.015700 0.000000
-18.989600 0.000000
-18.963500 0.000000
-18.937400 0.000000
-18.911300 0.000000
-18.885200 0.000000
-18.859100 0.000000
-18.833000 0.000000
-18.806900 0.000000
-18.780900 0.000000
-18.754800 0.000000
-18.728700 0.000000
-18.702600 0.000000
-18.676500 0.000000
-18.650400 0.000000
-18.624300 0.000000
-18.598200 0.000000
-18.572100 0.000000
-18.546000 0.000000
-18.519900 0.000000
-18.493800 0.000000
-18.467700 0.000000
-18.441600 0.000000
-18.415500 0.000000
-18.389400 0.000000
-18.363300 0.000000
-18.337200 0.000000
-18.311100 0.000000
-18.285000 0.000000
-18.258900 0.000000
-18.232800 0.000000
-18.206700 0.000000
-18.180600 0.000000
-18.154500 7.285500
-18.128400 180.734900
-18.102300 206.784800
-18.076200 128.188900
-18.050100 355.279200
-18.024000 79.288100
-17.997900 15.186800
-17.971800 0.000000
-17.945700 0.000000
-17.919600 0.000000
-17.893500 0.000000
-17.867400 0.000000
-17.841300 0.000000
-17.815200 0.000000
-17.789100 0.000000
-17.763000 0.000000
-17.736900 0.000000
-17.710800 0.000000
-17.684700 0.000000
-17.658600 0.000000
-17.632500 0.000000
-17.606400 0.000000
-17.580300 0.000000
-17.554200 0.000000
-17.528100 0.000000
-17.502000 0.000000
-17.475900 0.000000
-17.449800 0.000000
-17.423700 0.000000
-17.397600 0.000000
-17.371500 0.000000
-17.345400 0.000000
-17.319300 0.000000
-17.293200 0.000000
-17.267100 0.000000
-17.241000 0.000000
-17.214900 0.000000
-17.188800 0.000000
-17.162700 0.000000
-17.136600 0.000000
-17.110500 0.000000
-17.084400 0.000000
-17.058300 0.000000
-17.032200 0.000000
-17.006100 0.000000
-16.980000 0.000000
-16.953900 0.000000
-16.927800 0.000000
-16.901700 0.000000
-16.875600 0.000000
-16.849500 0.000000
-16.823400 0.000000
-16.797300 0.000000
-16.771200 0.000000
-16.745100 0.000000
-16.719000 0.000000
-16.692900 0.000000
-16.666800 0.000000
-16.640700 0.000000
-16.614600 0.000000
-16.588500 0.000000
-16.562400 0.000000
-16.536300 0.000000
-16.510200 0.000000
-16.484100 0.000000
-16.458000 0.000000
-16.431900 0.000000
-16.405800 0.000000
-16.379700 0.000000
-16.353600 0.000000
-16.327500 0.000000
-16.301400 0.000000
-16.275300 0.000000
-16.249200 0.000000
-16.223100 0.000000
-16.197000 0.000000
-16.171000 0.000000
-16.144900 0.000000
-16.118800 0.000000
-16.092700 0.000000
-16.066600 0.000000
-16.040500 0.000000
-16.014400 0.000000
-15.988300 0.000000
-15.962200 0.000000
-15.936100 0.000000
-15.910000 0.000000
-15.883900 0.000000
-15.857800 0.000000
-15.831700 0.000000
-15.805600 0.000000
-15.779500 0.000000
-15.753400 0.000000
-15.727300 0.000000
-15.701200 0.000000
-15.675100 0.000000
-15.649000 0.000000
-15.622900 0.000000
-15.596800 0.000000
-15.570700 0.000000
-15.544600 0.000000
-15.518500 0.000000
-15.492400 0.000000
-15.466300 0.000000
-15.440200 0.000000
-15.414100 0.000000
-15.388000 0.000000
-15.361900 0.000000
-15.335800 0.000000
-15.309700 0.000000
-15.283600 0.000000
-15.257500 0.000000
-15.231400 0.000000
-15.205300 0.000000
-15.179200 0.000000
-15.153100 0.000000
-15.127000 0.000000
-15.100900 0.000000
-15.074800 0.000000
-15.048700 0.000000
-15.022600 0.000000
-14.996500 0.000000
-14.970400 0.000000
-14.944300 0.000000
-14.918200 0.000000
-14.892100 0.000000
-14.866000 0.000000
-14.839900 0.000000
-14.813800 0.000000
-14.787700 0.000000
-14.761600 0.000000
-14.735500 0.000000
-14.709400 0.000000
-14.683300 0.000000
-14.657200 0.000000
-14.631100 0.000000
-14.605000 0.000000
-14.578900 0.000000
-14.552800 0.000000
-14.526700 0.000000
-14.500600 0.000000
-14.474500 0.000000
-14.448400 0.000000
-14.422300 0.000000
-14.396200 0.000000
-14.370100 0.000000
-14.344000 0.000000
-14.317900 0.000000
-14.291800 0.000000
-14.265700 0.000000
-14.239600 0.000000
-14.213500 0.000000
-14.187400 0.000000
-14.161300 0.000000
-14.135200 0.000000
-14.109100 0.000000
-14.083000 0.000000
-14.056900 0.000000
-14.030800 0.000000
-14.004700 0.000000
-13.978600 0.000000
-13.952500 0.000000
-13.926400 0.000000
-13.900300 0.000000
-13.874200 0.000000
-13.848100 0.000000
-13.822000 0.000000
-13.795900 0.000000
-13.769800 0.000000
-13.743700 0.000000
-13.717600 0.000000
-13.691500 0.000000
-13.665400 0.000000
-13.639300 0.000000
-13.613200 0.000000
-13.587100 0.000000
-13.561100 0.000000
-13.535000 0.000000
-13.508900 0.000000
-13.482800 0.000000
-13.456700 0.000000
-13.430600 0.000000
-13.404500 0.000000
-13.378400 0.000000
-13.352300 0.000000
-13.326200 0.000000
-13.300100 0.000000
-13.274000 0.000000
-13.247900 0.000000
-13.221800 0.000000
-13.195700 0.000000
-13.169600 0.000000
-13.143500 0.000000
-13.117400 0.000000
-13.091300 0.000000
-13.065200 0.000000
-13.039100 0.000000
-13.013000 0.000000
-12.986900 0.000000
-12.960800 0.000000
-12.934700 0.000000
-12.908600 0.000000
-12.882500 0.000000
-12.856400 0.000000
-12.830300 0.000000
-12.804200 0.000000
-12.778100 0.000000
-12.752000 0.000000
-12.725900 0.000000
-12.699800 0.000000
-12.673700 0.000000
-12.647600 0.000000
-12.621500 0.000000
-12.595400 0.000000
-12.569300 0.000000
-12.543200 0.000000
-12.517100 0.000000
-12.491000 0.000000
-12.464900 0.000000
-12.438800 0.000000
-12.412700 0.000000
-12.386600 0.000000
-12.360500 0.000000
-12.334400 0.000000
-12.308300 0.000000
-12.282200 0.000000
-12.256100 0.000000
-12.230000 0.000000
-12.203900 0.000000
-12.177800 0.000000
-12.151700 0.000000
-12.125600 0.000000
-12.099500 0.000000
-12.073400 0.000000
-12.047300 0.000000
-12.021200 0.000000
-11.995100 0.000000
-11.969000 0.000000
-11.942900 0.000000
-11.916800 0.000000
-11.890700 0.000000
-11.864600 0.000000
-11.838500 0.000000
-11.812400 0.000000
-11.786300 0.000000
-11.760200 0.000000
-11.734100 0.000000
-11.708000 0.000000
-11.681900 0.000000
-11.655800 0.000000
-11.629700 0.000000
-11.603600 0.000000
-11.577500 0.000000
-11.551400 0.000000
-11.525300 0.000000
-11.499200 0.000000
-11.473100 0.000000
-11.447000 0.000000
-11.420900 0.000000
-11.394800 0.000000
-11.368700 0.000000
-11.342600 0.000000
-11.316500 0.000000
-11.290400 0.000000
-11.264300 0.000000
-11.238200 0.000000
-11.212100 0.000000
-11.186000 0.000000
-11.159900 0.000000
-11.133800 0.000000
-11.107700 0.000000
-11.081600 0.000000
-11.055500 0.000000
-11.029400 0.000000
-11.003300 0.000000
-10.977200 0.000000
-10.951200 0.000000
-10.925100 0.000000
-10.899000 0.000000
-10.872900 0.000000
-10.846800 0.000000
-10.820700 0.000000
-10.794600 0.000000
-10.768500 0.000000
-10.742400 0.000000
-10.716300 0.000000
-10.690200 0.000000
-10.664100 0.000000
-10.638000 0.000000
-10.611900 0.000000
-10.585800 0.000000
-10.559700 0.000000
-10.533600 0.000000
-10.507500 0.000000
-10.481400 0.000000
-10.455300 0.000000
-10.429200 0.000000
-10.403100 0.000000
-10.377000 0.000000
-10.350900 0.000000
-10.324800 0.000000
-10.298700 0.000000
-10.272600 0.000000
-10.246500 0.000000
-10.220400 0.000000
-10.194300 0.000000
-10.168200 0.000000
-10.142100 0.000000
-10.116000 0.000000
-10.089900 0.000000
-10.063800 0.000000
-10.037700 0.000000
-10.011600 0.000000
-9.985500 0.000000
-9.959400 0.000000
-9.933300 0.000000
-9.907200 0.000000
-9.881100 0.000000
-9.855000 0.000000
-9.828900 0.000000
-9.802800 0.000000
-9.776700 0.000000
-9.750600 0.000000
-9.724500 0.000000
-9.698400 0.000000
-9.672300 0.000000
-9.646200 0.000000
-9.620100 0.000000
-9.594000 0.000000
-9.567900 0.000000
-9.541800 0.000000
-9.515700 0.000000
-9.489600 0.000000
-9.463500 0.000000
-9.437400 0.000000
-9.411300 0.000000
-9.385200 0.000000
-9.359100 0.000000
-9.333000 0.000000
-9.306900 0.000000
-9.280800 0.000000
-9.254700 0.000000
-9.228600 0.000000
-9.202500 0.000000
-9.176400 0.000000
-9.150300 0.000000
-9.124200 0.000000
-9.098100 0.000000
-9.072000 0.000000
-9.045900 0.000000
-9.019800 0.000000
-8.993700 0.000000
-8.967600 0.000000
-8.941500 0.000000
-8.915400 0.000000
-8.889300 0.000000
-8.863200 0.000000
-8.837100 0.000000
-8.811000 0.000000
-8.784900 0.000000
-8.758800 0.000000
-8.732700 0.000000
-8.706600 0.000000
-8.680500 0.000000
-8.654400 0.000000
-8.628300 0.000000
-8.602200 0.000000
-8.576100 0.000000
-8.550000 0.000000
-8.523900 0.000000
-8.497800 0.000000
-8.471700 0.000000
-8.445600 0.000000
-8.419500 0.000000
-8.393400 0.000000
-8.367300 0.000000
-8.341300 0.000000
-8.315200 0.000000
-8.289100 0.000000
-8.263000 0.000000
-8.236900 0.000000
-8.210800 0.000000
-8.184700 0.000000
-8.158600 0.000000
-8.132500 0.000000
-8.106400 0.000000
-8.080300 0.000000
-8.054200 0.000000
-8.028100 0.000000
-8.002000 0.000000
-7.975900 0.000000
-7.949800 0.000000
-7.923700 0.000000
-7.897600 0.000000
-7.871500 0.000000
-7.845400 0.000000
-7.819300 0.000000
-7.793200 0.000000
-7.767100 0.000000
-7.741000 0.000000
-7.714900 0.000000
-7.688800 0.000000
-7.662700 0.000000
-7.636600 0.000000
-7.610500 0.000000
-7.584400 0.000000
-7.558300 0.000000
-7.532200 0.000000
-7.506100 0.000000
-7.480000 0.000000
-7.453900 0.000000
-7.427800 0.000000
-7.401700 0.000000
-7.375600 0.000000
-7.349500 0.000000
-7.323400 0.000000
-7.297300 0.000000
-7.271200 0.000000
-7.245100 0.000000
-7.219000 0.000000
-7.192900 0.000000
-7.166800 0.000000
-7.140700 0.000000
-7.114600 0.000000
-7.088500 0.000000
-7.062400 0.000000
-7.036300 0.000000
-7.010200 0.000000
-6.984100 0.000000
-6.958000 0.000000
-6.931900 0.000000
-6.905800 0.000000
-6.879700 0.000000
-6.853600 0.000000
-6.827500 0.000000
-6.801400 0.000000
-6.775300 0.000000
-6.749200 0.000000
-6.723100 0.000000
-6.697000 0.000000
-6.670900 0.000000
-6.644800 0.000000
-6.618700 0.000000
-6.592600 0.000000
-6.566500 0.000000
-6.540400 0.000000
-6.514300 0.000000
-6.488200 0.000000
-6.462100 0.000000
-6.436000 0.000000
-6.409900 0.000000
-6.383800 0.000000
-6.357700 0.000000
-6.331600 0.000000
-6.305500 0.000000
-6.279400 0.007800
-6.253300 0.045200
-6.227200 0.107200
-6.201100 0.155800
-6.175000 0.168800
-6.148900 0.184700
-6.122800 0.204000
-6.096700 0.226600
-6.070600 0.237000
-6.044500 0.258200
-6.018400 0.280300
-5.992300 0.300000
-5.966200 0.311800
-5.940100 0.317800
-5.914000 0.331300
-5.887900 0.343500
-5.861800 0.353800
-5.835700 0.364200
-5.809600 0.374400
-5.783500 0.385400
-5.757400 0.397700
-5.731400 0.410300
-5.705300 0.423500
-5.679200 0.437800
-5.653100 0.452800
-5.627000 0.463900
-5.600900 0.472700
-5.574800 0.479800
-5.548700 0.486700
-5.522600 0.494400
-5.496500 0.503600
-5.470400 0.513000
-5.444300 0.522300
-5.418200 0.531500
-5.392100 0.540700
-5.366000 0.551100
-5.339900 0.561500
-5.313800 0.572500
-5.287700 0.584000
-5.261600 0.595900
-5.235500 0.606700
-5.209400 0.618300
-5.183300 0.630200
-5.157200 0.641500
-5.131100 0.650900
-5.105000 0.659600
-5.078900 0.671000
-5.052800 0.682800
-5.026700 0.695100
-5.000600 0.708000
-4.974500 0.723900
-4.948400 0.745800
-4.922300 0.763300
-4.896200 0.776300
-4.870100 0.785000
-4.844000 0.826800
-4.817900 0.803200
-4.791800 0.808900
-4.765700 0.812300
-4.739600 0.813400
-4.713500 0.812700
-4.687400 0.812600
-4.661300 0.813200
-4.635200 0.814600
-4.609100 0.816900
-4.583000 0.819900
-4.556900 0.828000
-4.530800 0.834900
-4.504700 0.840700
-4.478600 0.845500
-4.452500 0.850900
-4.426400 0.858500
-4.400300 0.867300
-4.374200 0.877400
-4.348100 0.886800
-4.322000 0.895100
-4.295900 0.922200
-4.269800 0.960300
-4.243700 0.985400
-4.217600 1.007000
-4.191500 1.024000
-4.165400 1.036100
-4.139300 1.043300
-4.113200 1.045900
-4.087100 1.021400
-4.061000 1.015300
-4.034900 1.022300
-4.008800 1.024500
-3.982700 1.032700
-3.956600 1.069800
-3.930500 1.125300
-3.904400 1.079300
-3.878300 0.973200
-3.852200 0.893000
-3.826100 0.867300
-3.800000 0.847800
-3.773900 0.833000
-3.747800 0.822500
-3.721700 0.793900
-3.695600 0.761600
-3.669500 0.734500
-3.643400 0.718600
-3.617300 0.710100
-3.591200 0.701600
-3.565100 0.693900
-3.539000 0.687000
-3.512900 0.682200
-3.486800 0.692400
-3.460700 0.768700
-3.434600 0.861500
-3.408500 0.991300
-3.382400 1.142000
-3.356300 1.677300
-3.330200 1.362600
-3.304100 1.368600
-3.278000 1.390500
-3.251900 1.401800
-3.225800 1.403100
-3.199700 1.404200
-3.173600 1.406300
-3.147500 1.388600
-3.121500 1.476800
-3.095400 1.396100
-3.069300 1.379200
-3.043200 1.383200
-3.017100 1.414300
-2.991000 1.360700
-2.964900 1.267200
-2.938800 1.232300
-2.912700 1.206000
-2.886600 1.174700
-2.860500 1.140200
-2.834400 1.110800
-2.808300 1.102200
-2.782200 1.095200
-2.756100 1.096500
-2.730000 1.105900
-2.703900 1.115100
-2.677800 1.124800
-2.651700 1.135200
-2.625600 1.157800
-2.599500 1.166100
-2.573400 1.173300
-2.547300 1.175200
-2.521200 1.172100
-2.495100 1.163600
-2.469000 1.154300
-2.442900 1.150700
-2.416800 1.149000
-2.390700 1.160800
-2.364600 1.196300
-2.338500 1.311100
-2.312400 1.459800
-2.286300 1.377000
-2.260200 1.371000
-2.234100 1.344400
-2.208000 1.172900
-2.181900 1.158200
-2.155800 1.124800
-2.129700 1.231000
-2.103600 1.293800
-2.077500 1.326200
-2.051400 1.348000
-2.025300 1.392500
-1.999200 1.477900
-1.973100 1.606300
-1.947000 1.679000
-1.920900 1.707500
-1.894800 1.712900
-1.868700 1.680100
-1.842600 1.655400
-1.816500 1.687300
-1.790400 1.647500
-1.764300 1.653100
-1.738200 1.657700
-1.712100 1.653300
-1.686000 1.648700
-1.659900 1.650200
-1.633800 1.653600
-1.607700 1.652300
-1.581600 1.651200
-1.555500 1.641300
-1.529400 1.649500
-1.503300 1.652100
-1.477200 1.615500
-1.451100 1.589800
-1.425000 1.576800
-1.398900 1.563500
-1.372800 1.552400
-1.346700 1.535700
-1.320600 1.514700
-1.294500 1.495500
-1.268400 1.466800
-1.242300 1.458500
-1.216200 1.452300
-1.190100 1.441000
-1.164000 1.430400
-1.137900 1.425800
-1.111800 1.424100
-1.085700 1.425900
-1.059600 1.426400
-1.033500 1.412600
-1.007400 1.416200
-0.981300 1.429600
-0.955200 1.446300
-0.929100 1.436400
-0.903000 1.421700
-0.876900 1.482000
-0.850800 1.401700
-0.824700 1.367100
-0.798600 1.319500
-0.772500 1.292400
-0.746400 1.160400
-0.720300 1.063200
-0.694200 0.870400
-0.668100 0.737000
-0.642000 0.618300
-0.615900 0.565100
-0.589800 0.544500
-0.563700 0.523700
-0.537600 0.502500
-0.511500 0.481000
-0.485500 0.459300
-0.459400 0.437100
-0.433300 0.408300
-0.407200 0.368700
-0.381100 0.341300
-0.355000 0.323700
-0.328900 0.320100
-0.302800 0.325800
-0.276700 0.326300
-0.250600 0.314900
-0.224500 0.302700
-0.198400 0.288800
-0.172300 0.271900
-0.146200 0.251600
-0.120100 0.229900
-0.094000 0.209700
-0.067900 0.194600
-0.041800 0.181700
-0.015700 0.170800
0.010400 0.171300
0.036500 0.185300
0.062600 0.202900
0.088700 0.225200
0.114800 0.252300
0.140900 0.307800
0.167000 0.357400
0.193100 0.394000
0.219200 0.546400
0.245300 0.609300
0.271400 0.681600
0.297500 0.823300
0.323600 0.945300
0.349700 1.063500
0.375800 1.207700
0.401900 1.357100
0.428000 1.521600
0.454100 1.695700
0.480200 1.891200
0.506300 2.158400
0.532400 2.454200
0.558500 2.586400
0.584600 2.883800
0.610700 2.964500
0.636800 3.164400
0.662900 3.268300
0.689000 3.401300
0.715100 3.644100
0.741200 4.296200
0.767300 4.227400
0.793400 3.356500
0.819500 2.548000
0.845600 2.023900
0.871700 1.628300
0.897800 1.494700
0.923900 1.444100
0.950000 1.894700
0.976100 1.975400
1.002200 2.366300
1.028300 3.594800
1.054400 5.131500
1.080500 6.588500
1.106600 7.677300
1.132700 8.933300
1.158800 8.999900
1.184900 8.706600
1.211000 8.486000
1.237100 8.064200
1.263200 8.533300
1.289300 11.170600
1.315400 11.434700
1.341500 9.682100
1.367600 8.178700
1.393700 8.366700
1.419800 7.716500
1.445900 8.082900
1.472000 6.626700
1.498100 4.811000
1.524200 3.546000
1.550300 3.425700
1.576400 5.721200
1.602500 6.727000
1.628600 8.211700
1.654700 8.366600
1.680800 6.745700
1.706900 5.031800
1.733000 4.809100
1.759100 5.262200
1.785200 4.358300
1.811300 3.611400
1.837400 3.201700
1.863500 2.809400
1.889600 2.342800
1.915700 2.018100
1.941800 1.790800
1.967900 3.019500
1.994000 7.821800
2.020100 13.347000
2.046200 9.340600
2.072300 6.109400
2.098400 5.687400
2.124400 5.615000
2.150500 5.287600
2.176600 4.193300
2.202700 3.270600
2.228800 2.925800
2.254900 2.949600
2.281000 3.011700
2.307100 3.090900
2.333200 3.006900
2.359300 2.818300
2.385400 2.486900
2.411500 2.365300
2.437600 4.342100
2.463700 4.187800
2.489800 3.151500
2.515900 2.814800
2.542000 2.613000
2.568100 2.563900
2.594200 2.635900
2.620300 2.838800
2.646400 2.412400
2.672500 1.938400
2.698600 1.908200
2.724700 2.135100
2.750800 2.516200
2.776900 2.633800
2.803000 2.748600
2.829100 2.805500
2.855200 2.807900
2.881300 2.865600
2.907400 2.955000
2.933500 3.087300
2.959600 3.344300
2.985700 3.513500
3.011800 2.938200
3.037900 2.802600
3.064000 2.695900
3.090100 2.561500
3.116200 2.486100
3.142300 2.443000
3.168400 2.455200
3.194500 2.382500
3.220600 2.341300
3.246700 1.488300
3.272800 1.223200
3.298900 1.154600
3.325000 1.050500
3.351100 0.975200
3.377200 0.943900
3.403300 0.915100
3.429400 0.904200
3.455500 0.880100
3.481600 0.902600
3.507700 0.929400
3.533800 0.971900
3.559900 1.039700
3.586000 1.224400
3.612100 1.310700
3.638200 1.495700
3.664300 1.452600
3.690400 1.480700
3.716500 1.490700
3.742600 1.448800
3.768700 1.442600
3.794800 1.485100
3.820900 1.559900
3.847000 1.628400
3.873100 1.679300
3.899200 1.712900
3.925300 1.742400
3.951400 1.739400
3.977500 1.762200
4.003600 1.770800
4.029700 1.805400
4.055800 1.856800
4.081900 1.893400
4.108000 1.931400
4.134100 1.982600
4.160200 2.045500
4.186300 2.139500
4.212400 2.154700
4.238500 2.208100
4.264600 2.295200
4.290700 2.360900
4.316800 2.422500
4.342900 2.406600
4.369000 2.376400
4.395100 2.326700
4.421200 2.250300
4.447300 2.199100
4.473400 2.127900
4.499500 2.087700
4.525600 2.069200
4.551700 2.094000
4.577800 2.140400
4.603900 2.168200
4.630000 2.230000
4.656100 2.201000
4.682200 2.189500
4.708300 2.169000
4.734300 2.142200
4.760400 2.109300
4.786500 2.077500
4.812600 2.044000
4.838700 1.990400
4.864800 1.934600
4.890900 1.898400
4.917000 1.857700
4.943100 1.827000
4.969200 1.820400
4.995300 1.818200
5.021400 1.798700
5.047500 1.802200
5.073600 1.762300
5.099700 1.723600
5.125800 1.690800
5.151900 1.670800
5.178000 1.634700
5.204100 1.592600
5.230200 1.567300
5.256300 1.562500
5.282400 1.579300
5.308500 1.618200
5.334600 1.658300
5.360700 1.674400
5.386800 1.692000
5.412900 1.660300
5.439000 1.617700
5.465100 1.598600
5.491200 1.587600
5.517300 1.593100
5.543400 1.631500
5.569500 1.676300
5.595600 1.597400
5.621700 1.579300
5.647800 1.573700
5.673900 1.571300
5.700000 1.547600
5.726100 1.514400
5.752200 1.507700
5.778300 1.503100
5.804400 1.500500
5.830500 1.889600
5.856600 1.507500
5.882700 1.519700
5.908800 1.540000
5.934900 1.527800
5.961000 1.546400
5.987100 1.566800
6.013200 1.580500
6.039300 1.602900
6.065400 1.622000
6.091500 1.646500
6.117600 1.668100
6.143700 1.684400
6.169800 1.700900
6.195900 1.690300
6.222000 1.666400
6.248100 1.636100
6.274200 1.629000
