set title 'mp-1183990 - Density of States'
set xlabel 'Energy (eV)'
set ylabel 'DOS (states/eV)'
set grid
set xrange [-10:10]
set yrange [0:8.513]
set xzeroaxis lt -1
set terminal png size 800,600
set output 'mp-1183990_dos_gnuplot.png'
plot '-' using 1:2 with lines title 'DOS'
-19.292300 0.000000
-19.262400 0.000000
-19.232400 0.000000
-19.202500 0.000000
-19.172500 0.000000
-19.142500 0.000000
-19.112600 0.000000
-19.082600 0.000000
-19.052700 0.000000
-19.022700 0.000000
-18.992800 0.000000
-18.962800 0.000000
-18.932900 0.000000
-18.902900 0.000000
-18.873000 0.000000
-18.843000 0.000000
-18.813100 0.000000
-18.783100 0.000000
-18.753200 0.000000
-18.723200 0.000000
-18.693200 0.000000
-18.663300 0.000000
-18.633300 0.000000
-18.603400 0.000000
-18.573400 0.000000
-18.543500 0.000000
-18.513500 0.000000
-18.483600 0.000000
-18.453600 0.000000
-18.423700 0.000000
-18.393700 0.000000
-18.363800 0.000000
-18.333800 0.000000
-18.303900 0.000000
-18.273900 0.000000
-18.244000 0.000000
-18.214000 0.000000
-18.184000 0.000000
-18.154100 0.000000
-18.124100 0.000000
-18.094200 0.000000
-18.064200 0.000000
-18.034300 0.000000
-18.004300 0.000000
-17.974400 0.000000
-17.944400 0.000000
-17.914500 0.000000
-17.884500 0.000000
-17.854600 0.000000
-17.824600 0.000000
-17.794700 0.000000
-17.764700 0.000000
-17.734700 0.000000
-17.704800 0.000000
-17.674800 0.000000
-17.644900 0.000000
-17.614900 0.000000
-17.585000 0.000000
-17.555000 0.000000
-17.525100 0.000000
-17.495100 0.000000
-17.465200 0.000000
-17.435200 0.000000
-17.405300 0.000000
-17.375300 0.000000
-17.345400 0.000000
-17.315400 0.000000
-17.285500 0.000000
-17.255500 0.000000
-17.225500 0.000000
-17.195600 0.000000
-17.165600 0.000000
-17.135700 0.000000
-17.105700 0.000000
-17.075800 0.000000
-17.045800 0.000000
-17.015900 0.000000
-16.985900 0.000000
-16.956000 0.000000
-16.926000 0.000000
-16.896100 0.000000
-16.866100 0.000000
-16.836200 0.000000
-16.806200 0.000000
-16.776200 0.000000
-16.746300 0.000000
-16.716300 0.000000
-16.686400 0.000000
-16.656400 0.000000
-16.626500 0.000000
-16.596500 0.000000
-16.566600 0.008600
-16.536600 0.544200
-16.506700 0.905300
-16.476700 1.135600
-16.446800 1.424600
-16.416800 1.697900
-16.386900 1.989400
-16.356900 2.329900
-16.327000 2.702500
-16.297000 3.133600
-16.267000 3.647000
-16.237100 4.315800
-16.207100 5.095800
-16.177200 6.282800
-16.147200 8.111500
-16.117300 9.583200
-16.087300 13.621400
-16.057400 15.146200
-16.027400 16.515500
-15.997500 18.740300
-15.967500 34.433100
-15.937600 0.000000
-15.907600 0.000000
-15.877700 0.000000
-15.847700 0.000000
-15.817700 0.000000
-15.787800 0.000000
-15.757800 0.000000
-15.727900 0.000000
-15.697900 0.000000
-15.668000 0.000000
-15.638000 0.000000
-15.608100 0.000000
-15.578100 0.000000
-15.548200 0.000000
-15.518200 0.000000
-15.488300 0.000000
-15.458300 0.000000
-15.428400 0.000000
-15.398400 0.000000
-15.368400 0.000000
-15.338500 0.000000
-15.308500 0.000000
-15.278600 0.000000
-15.248600 0.000000
-15.218700 0.000000
-15.188700 0.000000
-15.158800 0.000000
-15.128800 0.000000
-15.098900 0.000000
-15.068900 0.000000
-15.039000 0.000000
-15.009000 0.000000
-14.979100 0.000000
-14.949100 0.000000
-14.919200 0.000000
-14.889200 0.000000
-14.859200 0.000000
-14.829300 0.000000
-14.799300 0.000000
-14.769400 0.000000
-14.739400 0.000000
-14.709500 0.000000
-14.679500 0.000000
-14.649600 0.000000
-14.619600 0.000000
-14.589700 0.000000
-14.559700 0.000000
-14.529800 0.000000
-14.499800 0.000000
-14.469900 0.000000
-14.439900 0.000000
-14.409900 0.000000
-14.380000 0.000000
-14.350000 0.000000
-14.320100 0.000000
-14.290100 0.000000
-14.260200 0.000000
-14.230200 0.000000
-14.200300 0.000000
-14.170300 0.000000
-14.140400 0.000000
-14.110400 0.000000
-14.080500 0.000000
-14.050500 0.000000
-14.020600 0.000000
-13.990600 0.000000
-13.960700 0.000000
-13.930700 0.000000
-13.900700 0.000000
-13.870800 0.000000
-13.840800 0.000000
-13.810900 0.000000
-13.780900 0.000000
-13.751000 0.000000
-13.721000 0.000000
-13.691100 0.000000
-13.661100 0.000000
-13.631200 0.000000
-13.601200 0.000000
-13.571300 0.000000
-13.541300 0.000000
-13.511400 0.000000
-13.481400 0.000000
-13.451400 0.000000
-13.421500 0.000000
-13.391500 0.000000
-13.361600 0.000000
-13.331600 0.000000
-13.301700 0.000000
-13.271700 0.000000
-13.241800 0.000000
-13.211800 0.000000
-13.181900 0.000000
-13.151900 0.000000
-13.122000 0.000000
-13.092000 0.000000
-13.062100 0.000000
-13.032100 0.000000
-13.002200 0.000000
-12.972200 0.000000
-12.942200 0.000000
-12.912300 0.000000
-12.882300 0.000000
-12.852400 0.000000
-12.822400 0.000000
-12.792500 0.000000
-12.762500 0.000000
-12.732600 0.000000
-12.702600 0.000000
-12.672700 0.000000
-12.642700 0.000000
-12.612800 0.000000
-12.582800 0.000000
-12.552900 0.000000
-12.522900 0.000000
-12.492900 0.000000
-12.463000 0.000000
-12.433000 0.000000
-12.403100 0.000000
-12.373100 0.000000
-12.343200 0.000000
-12.313200 0.000000
-12.283300 0.000000
-12.253300 0.000000
-12.223400 0.000000
-12.193400 0.000000
-12.163500 0.000000
-12.133500 0.000000
-12.103600 0.000000
-12.073600 0.000000
-12.043600 0.000000
-12.013700 0.000000
-11.983700 0.000000
-11.953800 0.000000
-11.923800 0.000000
-11.893900 0.000000
-11.863900 0.000000
-11.834000 0.000000
-11.804000 0.000000
-11.774100 0.000000
-11.744100 2.162300
-11.714200 49.599100
-11.684200 112.561900
-11.654300 80.446000
-11.624300 73.451600
-11.594400 99.094900
-11.564400 137.495300
-11.534400 6.544400
-11.504500 5.627300
-11.474500 6.069600
-11.444600 6.855200
-11.414600 8.216500
-11.384700 9.691900
-11.354700 11.698600
-11.324800 15.692300
-11.294800 16.446800
-11.264900 19.542600
-11.234900 12.775500
-11.205000 0.000000
-11.175000 0.000000
-11.145100 0.000000
-11.115100 0.000000
-11.085100 0.000000
-11.055200 0.000000
-11.025200 0.000000
-10.995300 0.000000
-10.965300 0.000000
-10.935400 0.000000
-10.905400 0.000000
-10.875500 0.000000
-10.845500 0.000000
-10.815600 0.000000
-10.785600 0.000000
-10.755700 0.000000
-10.725700 0.000000
-10.695800 0.000000
-10.665800 0.000000
-10.635900 0.000000
-10.605900 0.000000
-10.575900 0.000000
-10.546000 0.000000
-10.516000 0.000000
-10.486100 0.000000
-10.456100 0.000000
-10.426200 0.000000
-10.396200 0.000000
-10.366300 0.000000
-10.336300 0.000000
-10.306400 0.000000
-10.276400 0.000000
-10.246500 0.000000
-10.216500 0.000000
-10.186600 0.000000
-10.156600 0.000000
-10.126600 0.000000
-10.096700 0.000000
-10.066700 0.000000
-10.036800 0.000000
-10.006800 0.000000
-9.976900 0.000000
-9.946900 0.000000
-9.917000 0.000000
-9.887000 0.000000
-9.857100 0.000000
-9.827100 0.000000
-9.797200 0.000000
-9.767200 0.000000
-9.737300 0.000000
-9.707300 0.000000
-9.677400 0.000000
-9.647400 0.000000
-9.617400 0.000000
-9.587500 0.000000
-9.557500 0.000000
-9.527600 0.000000
-9.497600 0.000000
-9.467700 0.000000
-9.437700 0.000000
-9.407800 0.000000
-9.377800 0.000000
-9.347900 0.000000
-9.317900 0.000000
-9.288000 0.000000
-9.258000 0.000000
-9.228100 0.000000
-9.198100 0.000000
-9.168100 0.000000
-9.138200 0.000000
-9.108200 0.000000
-9.078300 0.000000
-9.048300 0.000000
-9.018400 0.000000
-8.988400 0.000000
-8.958500 0.000000
-8.928500 0.000000
-8.898600 0.000000
-8.868600 0.000000
-8.838700 0.000000
-8.808700 0.000000
-8.778800 0.000000
-8.748800 0.000000
-8.718800 0.000000
-8.688900 0.000000
-8.658900 0.000000
-8.629000 0.000000
-8.599000 0.000000
-8.569100 0.000000
-8.539100 0.000000
-8.509200 0.000000
-8.479200 0.000000
-8.449300 0.000000
-8.419300 0.000000
-8.389400 0.000000
-8.359400 0.000000
-8.329500 0.000000
-8.299500 0.000000
-8.269600 0.000000
-8.239600 0.000000
-8.209600 0.000000
-8.179700 0.000000
-8.149700 0.000000
-8.119800 0.000000
-8.089800 0.000000
-8.059900 0.000000
-8.029900 0.000000
-8.000000 0.000000
-7.970000 0.000000
-7.940100 0.000000
-7.910100 0.000000
-7.880200 0.000000
-7.850200 0.000000
-7.820300 0.000000
-7.790300 0.000000
-7.760300 0.000000
-7.730400 0.000000
-7.700400 0.000000
-7.670500 0.000000
-7.640500 0.000000
-7.610600 0.000000
-7.580600 0.000000
-7.550700 0.000000
-7.520700 0.000000
-7.490800 0.000000
-7.460800 0.000000
-7.430900 0.000000
-7.400900 0.000000
-7.371000 0.000000
-7.341000 0.000000
-7.311100 0.000000
-7.281100 0.000000
-7.251100 0.000000
-7.221200 0.000000
-7.191200 0.000000
-7.161300 0.000000
-7.131300 0.000000
-7.101400 0.000000
-7.071400 0.000000
-7.041500 0.000000
-7.011500 0.000000
-6.981600 0.000000
-6.951600 0.000000
-6.921700 0.000000
-6.891700 0.000000
-6.861800 0.000000
-6.831800 0.000000
-6.801800 0.000000
-6.771900 0.000000
-6.741900 0.000000
-6.712000 0.000000
-6.682000 0.000000
-6.652100 0.000000
-6.622100 0.000000
-6.592200 0.000000
-6.562200 0.000000
-6.532300 0.000000
-6.502300 0.000000
-6.472400 0.000000
-6.442400 0.000000
-6.412500 0.000000
-6.382500 0.000000
-6.352600 0.000000
-6.322600 0.000000
-6.292600 0.000000
-6.262700 0.000000
-6.232700 0.000000
-6.202800 0.000000
-6.172800 0.000000
-6.142900 0.000000
-6.112900 0.000000
-6.083000 0.000000
-6.053000 0.000000
-6.023100 0.000000
-5.993100 0.000000
-5.963200 0.000000
-5.933200 0.000000
-5.903300 0.000000
-5.873300 0.000000
-5.843300 0.000000
-5.813400 0.000000
-5.783400 0.000000
-5.753500 0.000000
-5.723500 0.000000
-5.693600 0.000000
-5.663600 0.000000
-5.633700 0.000000
-5.603700 0.000000
-5.573800 0.000000
-5.543800 0.000000
-5.513900 0.000000
-5.483900 0.000000
-5.454000 0.000000
-5.424000 0.000000
-5.394000 0.000000
-5.364100 0.000000
-5.334100 0.000000
-5.304200 0.000000
-5.274200 0.000000
-5.244300 0.000000
-5.214300 0.000000
-5.184400 0.000000
-5.154400 0.000000
-5.124500 0.000000
-5.094500 0.000000
-5.064600 0.000000
-5.034600 0.000000
-5.004700 0.000000
-4.974700 0.000000
-4.944800 0.000000
-4.914800 0.000000
-4.884800 0.003600
-4.854900 0.052700
-4.824900 0.106700
-4.795000 0.160400
-4.765000 0.200600
-4.735100 0.224700
-4.705100 0.249000
-4.675200 0.270200
-4.645200 0.293100
-4.615300 0.324900
-4.585300 0.358400
-4.555400 0.389300
-4.525400 0.420200
-4.495500 1.320100
-4.465500 1.627900
-4.435500 2.278600
-4.405600 2.545300
-4.375600 2.801800
-4.345700 3.043500
-4.315700 3.341700
-4.285800 3.717100
-4.255800 4.203300
-4.225900 4.939800
-4.195900 6.153700
-4.166000 7.024400
-4.136000 7.329200
-4.106100 6.842500
-4.076100 5.441800
-4.046200 4.577200
-4.016200 3.974200
-3.986300 3.672800
-3.956300 3.281900
-3.926300 3.323100
-3.896400 3.492100
-3.866400 3.903900
-3.836500 4.033000
-3.806500 2.613500
-3.776600 2.035600
-3.746600 1.746300
-3.716700 1.608200
-3.686700 1.483600
-3.656800 1.369300
-3.626800 1.259700
-3.596900 1.158100
-3.566900 1.074900
-3.537000 1.013300
-3.507000 0.963200
-3.477000 0.912100
-3.447100 0.863900
-3.417100 0.820500
-3.387200 0.778000
-3.357200 0.738000
-3.327300 0.702700
-3.297300 0.671200
-3.267400 0.640800
-3.237400 0.608400
-3.207500 0.582000
-3.177500 0.561200
-3.147600 0.540400
-3.117600 0.519500
-3.087700 0.504200
-3.057700 0.503800
-3.027800 0.514900
-2.997800 0.533800
-2.967800 0.559200
-2.937900 0.591200
-2.907900 0.615500
-2.878000 0.619500
-2.848000 0.632600
-2.818100 0.644300
-2.788100 0.821300
-2.758200 1.067700
-2.728200 1.347700
-2.698300 1.707200
-2.668300 2.103000
-2.638400 2.598300
-2.608400 2.983000
-2.578500 2.655500
-2.548500 2.269100
-2.518500 2.039500
-2.488600 1.920500
-2.458600 1.883800
-2.428700 1.879500
-2.398700 1.877800
-2.368800 1.863300
-2.338800 1.864700
-2.308900 1.872500
-2.278900 1.905900
-2.249000 2.003000
-2.219000 2.143700
-2.189100 2.276900
-2.159100 2.326000
-2.129200 2.477700
-2.099200 2.560500
-2.069200 2.638400
-2.039300 2.789000
-2.009300 2.971900
-1.979400 3.120100
-1.949400 2.885700
-1.919500 2.754300
-1.889500 2.668900
-1.859600 2.650900
-1.829600 2.668400
-1.799700 2.853000
-1.769700 3.294500
-1.739800 3.290200
-1.709800 3.427000
-1.679900 3.684200
-1.649900 3.936000
-1.620000 4.418400
-1.590000 4.660200
-1.560000 4.705800
-1.530100 4.812000
-1.500100 4.822100
-1.470200 5.034000
-1.440200 5.343000
-1.410300 5.694800
-1.380300 5.958800
-1.350400 6.799600
-1.320400 7.739200
-1.290500 7.052900
-1.260500 6.710300
-1.230600 6.182200
-1.200600 5.899900
-1.170700 5.780300
-1.140700 5.456100
-1.110700 5.261600
-1.080800 5.076200
-1.050800 4.908100
-1.020900 4.831900
-0.990900 4.791600
-0.961000 4.785500
-0.931000 4.703800
-0.901100 4.559600
-0.871100 4.381000
-0.841200 4.073600
-0.811200 3.845000
-0.781300 3.640600
-0.751300 3.477100
-0.721400 3.127900
-0.691400 2.776600
-0.661500 2.543700
-0.631500 2.385900
-0.601500 2.067900
-0.571600 1.859700
-0.541600 1.678200
-0.511700 1.450400
-0.481700 1.281900
-0.451800 1.076400
-0.421800 0.887400
-0.391900 0.780500
-0.361900 0.571700
-0.332000 0.410500
-0.302000 0.000500
-0.272100 0.000000
-0.242100 0.000200
-0.212200 0.000400
-0.182200 0.000700
-0.152200 0.001100
-0.122300 0.001600
-0.092300 0.002200
-0.062400 0.002800
-0.032400 0.003600
-0.002500 0.004400
0.027500 0.005300
0.057400 0.006400
0.087400 0.007500
0.117300 0.008700
0.147300 0.010000
0.177200 0.011300
0.207200 0.012900
0.237100 0.015300
0.267100 0.019000
0.297100 0.022000
0.327000 0.024600
0.357000 0.027100
0.386900 0.029500
0.416900 0.031900
0.446800 0.034200
0.476800 0.036400
0.506700 0.038600
0.536700 0.040600
0.566600 0.042800
0.596600 0.045400
0.626500 0.048100
0.656500 0.050900
0.686400 0.053700
0.716400 0.056600
0.746300 0.059500
0.776300 0.062500
0.806300 0.065600
0.836200 0.068800
0.866200 0.072100
0.896100 0.075600
0.926100 0.079100
0.956000 0.082800
0.986000 0.086500
1.015900 0.090200
1.045900 0.094200
1.075800 0.098300
1.105800 0.102600
1.135700 0.107100
1.165700 0.111700
1.195600 0.115800
1.225600 0.119900
1.255600 0.124100
1.285500 0.128400
1.315500 0.132700
1.345400 0.137000
1.375400 0.141400
1.405300 0.145900
1.435300 0.150500
1.465200 0.155300
1.495200 0.160200
1.525100 0.165400
1.555100 0.171500
1.585000 0.177600
1.615000 0.183400
1.644900 0.189200
1.674900 0.195100
1.704800 0.201000
1.734800 0.206900
1.764800 0.212900
1.794700 0.219000
1.824700 0.225100
1.854600 0.231200
1.884600 0.237300
1.914500 0.243500
1.944500 0.249700
1.974400 0.256100
2.004400 0.263200
2.034300 0.270600
2.064300 0.278300
2.094200 0.286300
2.124200 0.294500
2.154100 0.302600
2.184100 0.310500
2.214100 0.318400
2.244000 0.326300
2.274000 0.334200
2.303900 0.342300
2.333900 0.350500
2.363800 0.358900
2.393800 0.367600
2.423700 0.376400
2.453700 0.385600
2.483600 0.395900
2.513600 0.406700
2.543500 0.417300
2.573500 0.428000
2.603400 0.439000
2.633400 0.450300
2.663300 0.461600
2.693300 0.473100
2.723300 0.484600
2.753200 0.496100
2.783200 0.507700
2.813100 0.519400
2.843100 0.531300
2.873000 0.543500
2.903000 0.556200
2.932900 0.571600
2.962900 0.589900
2.992800 0.606400
3.022800 0.623100
3.052700 0.640400
3.082700 0.658100
3.112600 0.675700
3.142600 0.693500
3.172600 0.711800
3.202500 0.730400
3.232500 0.749500
3.262400 0.769600
3.292400 0.790500
3.322300 0.814300
3.352300 0.844200
3.382200 0.879600
3.412200 0.918900
3.442100 0.955700
3.472100 0.992800
3.502000 1.033900
3.532000 1.079200
3.561900 1.127600
3.591900 1.177800
3.621900 1.239100
3.651800 1.324400
3.681800 1.479400
3.711700 1.547300
3.741700 1.574800
3.771600 1.575500
3.801600 1.556300
3.831500 1.572300
3.861500 1.563300
3.891400 1.528300
3.921400 1.499500
3.951300 1.474600
3.981300 1.448000
4.011200 1.427400
4.041200 1.415300
4.071100 1.405400
4.101100 1.391500
4.131100 1.383300
4.161000 1.376700
4.191000 1.370700
4.220900 1.362400
4.250900 1.353500
4.280800 1.348100
4.310800 1.350800
4.340700 1.354500
4.370700 1.359000
4.400600 1.363100
4.430600 1.364400
4.460500 1.362000
4.490500 1.356700
4.520400 1.350300
4.550400 1.344300
4.580400 1.339700
4.610300 1.333900
4.640300 1.328200
4.670200 1.324600
4.700200 1.323700
4.730100 1.325100
4.760100 1.327200
4.790000 1.328900
4.820000 1.330100
4.849900 1.330700
4.879900 1.331200
4.909800 1.336100
4.939800 1.337300
4.969700 1.336300
4.999700 1.345800
5.029600 1.343000
5.059600 1.322600
5.089600 1.297700
5.119500 1.266400
5.149500 1.237200
5.179400 1.222000
5.209400 1.178200
5.239300 1.170900
5.269300 1.169500
5.299200 1.172200
5.329200 1.177600
5.359100 1.172800
5.389100 1.164600
5.419000 1.161500
5.449000 1.175400
5.478900 1.192100
5.508900 1.197900
5.538900 1.196000
5.568800 1.166300
5.598800 1.128500
5.628700 1.086100
5.658700 1.057500
5.688600 1.056300
5.718600 0.988600
5.748500 0.849100
5.778500 0.519800
5.808400 0.364800
5.838400 0.240800
5.868300 0.103500
5.898300 0.008000
5.928200 0.000000
5.958200 0.048700
5.988100 0.089400
6.018100 0.133400
6.048100 0.184800
6.078000 0.243600
6.108000 0.284700
6.137900 0.349700
6.167900 0.439000
6.197800 0.588500
6.227800 0.722400
6.257700 0.890800
6.287700 0.983800
6.317600 1.028400
6.347600 1.048200
6.377500 1.125400
6.407500 1.214200
6.437400 1.305900
6.467400 1.402900
6.497400 1.509400
6.527300 1.594700
6.557300 1.667700
6.587200 1.841800
6.617200 2.002700
6.647100 2.178700
6.677100 2.367000
6.707000 2.749300
6.737000 2.866000
6.766900 2.941600
6.796900 2.910300
6.826800 2.884800
6.856800 2.934200
6.886700 3.224900
6.916700 3.526900
6.946700 3.738300
6.976600 3.999400
7.006600 4.214800
7.036500 4.151800
7.066500 3.970000
7.096400 3.905900
7.126400 3.816800
7.156300 3.719700
7.186300 3.934500
7.216200 2.887900
7.246200 2.632700
7.276100 2.605600
7.306100 2.438700
7.336000 1.820000
7.366000 1.656500
7.395900 1.518000
7.425900 1.419500
7.455900 1.298700
7.485800 1.199700
7.515800 1.123700
7.545700 1.061000
7.575700 1.004800
7.605600 0.957600
7.635600 0.924900
7.665500 0.893800
7.695500 0.862400
7.725400 0.827500
7.755400 0.794600
7.785300 0.768000
7.815300 0.750100
7.845200 0.744200
7.875200 0.751000
7.905200 0.762600
7.935100 0.769800
7.965100 0.801000
7.995000 0.809800
8.025000 0.789500
8.054900 0.797700
8.084900 0.806800
8.114800 0.816300
8.144800 0.830000
8.174700 0.842200
8.204700 0.852300
8.234600 0.861200
8.264600 0.872400
8.294500 0.884700
8.324500 0.898400
8.354400 0.913600
8.384400 0.931800
8.414400 0.951200
8.444300 0.972200
8.474300 0.992900
8.504200 1.015000
8.534200 1.039300
8.564100 1.069100
8.594100 1.104100
8.624000 1.154600
8.654000 1.216700
8.683900 1.285800
8.713900 1.362700
8.743800 1.440000
8.773800 1.524700
8.803700 1.602600
8.833700 1.674500
8.863700 1.839800
8.893600 2.696300
8.923600 4.012700
8.953500 4.758200
8.983500 5.533300
9.013400 3.943000
9.043400 2.935000
9.073300 2.447400
9.103300 2.178800
9.133200 2.085800
9.163200 2.019900
9.193100 1.958400
9.223100 1.900700
9.253000 1.844500
9.283000 1.789600
9.312900 1.743100
9.342900 1.708300
9.372900 1.680300
9.402800 1.659700
9.432800 1.641300
9.462700 1.625700
9.492700 1.613600
9.522600 1.597600
9.552600 1.581400
9.582500 1.565700
9.612500 1.551900
9.642400 1.537700
9.672400 1.522000
9.702300 1.506200
9.732300 1.491200
9.762200 1.472000
9.792200 1.472400
9.822200 1.470200
9.852100 1.459900
9.882100 1.447500
9.912000 1.452300
9.942000 1.456000
9.971900 1.458900
10.001900 1.469900
10.031800 1.449700
10.061800 1.446400
10.091700 1.443300
10.121700 1.442600
10.151600 1.451700
10.181600 1.482000
10.211500 1.506000
10.241500 1.512700
10.271500 1.501800
10.301400 1.474800
10.331400 1.459700
10.361300 1.451900
10.391300 1.444000
10.421200 1.451800
10.451200 1.463400
10.481100 1.478500
10.511100 1.507600
10.541000 1.553500
10.571000 1.586800
10.600900 1.614400
10.630900 1.638600
10.660800 1.670900
10.690800 1.696000
10.720700 1.717600
10.750700 1.743400
10.780700 1.753300
10.810600 1.752500
10.840600 1.745800
10.870500 1.717600
10.900500 1.646700
10.930400 1.568800
10.960400 1.561400
10.990300 1.626700
11.020300 1.765000
11.050200 1.917600
11.080200 2.147400
11.110100 2.721900
11.140100 3.333500
11.170000 3.484800
11.200000 3.372500
11.230000 2.928100
11.259900 2.842000
11.289900 2.793500
11.319800 2.908800
11.349800 2.802500
11.379700 2.734700
11.409700 2.755700
11.439600 2.765300
11.469600 2.631600
11.499500 2.454000
11.529500 2.381600
11.559400 2.409300
11.589400 2.418900
11.619300 2.446200
11.649300 2.516700
11.679200 2.605800
11.709200 2.708600
11.739200 2.809100
11.769100 2.951600
