set title 'mp-9947 - Density of States'
set xlabel 'Energy (eV)'
set ylabel 'DOS (states/eV)'
set grid
set xrange [-10:10]
set yrange [0:14.206]
set xzeroaxis lt -1
set terminal png size 800,600
set output 'mp-9947_dos_gnuplot.png'
plot '-' using 1:2 with lines title 'DOS'
-8.878100 0.000000
-8.861100 0.000000
-8.844200 0.000000
-8.827300 0.000000
-8.810300 0.000000
-8.793400 0.000000
-8.776500 0.000000
-8.759500 0.000000
-8.742600 0.000000
-8.725700 0.000000
-8.708700 0.000000
-8.691800 0.000000
-8.674900 0.000000
-8.657900 0.000000
-8.641000 0.000000
-8.624100 0.000000
-8.607100 0.000000
-8.590200 0.000000
-8.573300 0.000000
-8.556300 0.000000
-8.539400 0.000000
-8.522500 0.000000
-8.505500 0.000000
-8.488600 0.000000
-8.471700 0.000000
-8.454700 0.000000
-8.437800 0.000000
-8.420900 0.000000
-8.403900 0.000000
-8.387000 0.000000
-8.370100 0.000000
-8.353100 0.000000
-8.336200 0.000000
-8.319300 0.000000
-8.302300 0.000000
-8.285400 0.000000
-8.268500 0.000000
-8.251500 0.000000
-8.234600 0.000000
-8.217700 0.000000
-8.200700 0.000000
-8.183800 0.000000
-8.166900 0.000000
-8.149900 0.000000
-8.133000 0.000000
-8.116100 0.000000
-8.099100 0.000000
-8.082200 0.000000
-8.065300 0.000000
-8.048300 0.000000
-8.031400 0.000000
-8.014500 0.000000
-7.997500 0.000000
-7.980600 0.000000
-7.963700 0.000000
-7.946700 0.000000
-7.929800 0.000000
-7.912900 0.000000
-7.895900 0.000000
-7.879000 0.000000
-7.862100 0.000000
-7.845100 0.000000
-7.828200 0.000000
-7.811300 0.000000
-7.794300 0.000000
-7.777400 0.000000
-7.760500 0.000000
-7.743500 0.000000
-7.726600 0.000000
-7.709700 0.000000
-7.692700 0.000000
-7.675800 0.000000
-7.658900 0.000000
-7.641900 0.000000
-7.625000 0.000000
-7.608100 0.000000
-7.591100 0.000000
-7.574200 0.000000
-7.557300 0.000000
-7.540300 0.000000
-7.523400 0.000000
-7.506500 0.000000
-7.489500 0.000000
-7.472600 0.000000
-7.455700 0.000000
-7.438700 0.000000
-7.421800 0.000000
-7.404900 0.000000
-7.387900 0.000000
-7.371000 0.000000
-7.354100 0.000000
-7.337100 0.000000
-7.320200 0.004500
-7.303300 0.013300
-7.286300 0.024600
-7.269400 0.039600
-7.252500 0.057100
-7.235500 0.074600
-7.218600 0.092100
-7.201700 0.109600
-7.184700 0.130100
-7.167800 0.152800
-7.150900 0.176500
-7.133900 0.201400
-7.117000 0.227400
-7.100100 0.254500
-7.083100 0.282600
-7.066200 0.311800
-7.049300 0.342000
-7.032300 0.373100
-7.015400 0.405300
-6.998500 0.438400
-6.981500 0.472500
-6.964600 0.507500
-6.947700 0.542900
-6.930700 0.578200
-6.913800 0.613700
-6.896900 0.649900
-6.879900 0.686900
-6.863000 0.724700
-6.846100 0.763400
-6.829100 0.802900
-6.812200 0.843300
-6.795300 0.884400
-6.778300 0.926400
-6.761400 0.969200
-6.744500 1.012600
-6.727500 1.056600
-6.710600 1.101200
-6.693700 1.146400
-6.676700 1.192200
-6.659800 1.238600
-6.642900 1.159100
-6.625900 1.133100
-6.609000 1.125900
-6.592100 1.116100
-6.575100 1.098900
-6.558200 1.135700
-6.541300 1.159300
-6.524300 1.161300
-6.507400 1.165800
-6.490400 1.172900
-6.473500 1.182000
-6.456600 1.192000
-6.439600 1.202500
-6.422700 1.212500
-6.405800 1.221900
-6.388800 1.230600
-6.371900 1.238800
-6.355000 1.238900
-6.338000 1.223600
-6.321100 1.215100
-6.304200 1.241800
-6.287200 1.268900
-6.270300 1.296600
-6.253400 1.324600
-6.236400 1.353100
-6.219500 1.382100
-6.202600 1.386200
-6.185600 1.387200
-6.168700 1.394800
-6.151800 1.408300
-6.134800 1.422400
-6.117900 1.436500
-6.101000 1.450600
-6.084000 1.464700
-6.067100 1.478800
-6.050200 1.492800
-6.033200 1.506800
-6.016300 1.521000
-5.999400 1.535300
-5.982400 1.549800
-5.965500 1.564200
-5.948600 1.577800
-5.931600 1.590500
-5.914700 1.602200
-5.897800 1.613100
-5.880800 1.623000
-5.863900 1.632100
-5.847000 1.640200
-5.830000 1.656000
-5.813100 1.680000
-5.796200 1.704200
-5.779200 1.728900
-5.762300 1.753900
-5.745400 1.767400
-5.728400 1.779200
-5.711500 1.791600
-5.694600 1.804500
-5.677600 1.817800
-5.660700 1.831700
-5.643800 1.846100
-5.626800 1.861000
-5.609900 1.876400
-5.593000 1.892200
-5.576000 1.908200
-5.559100 1.924400
-5.542200 1.940800
-5.525200 1.957300
-5.508300 1.974100
-5.491400 1.990900
-5.474400 2.007800
-5.457500 2.024800
-5.440600 2.041900
-5.423600 2.059000
-5.406700 2.076200
-5.389800 2.093500
-5.372800 2.110900
-5.355900 2.128400
-5.339000 2.145200
-5.322000 2.157100
-5.305100 2.163500
-5.288200 2.164400
-5.271200 2.159700
-5.254300 2.151600
-5.237400 2.174100
-5.220400 2.197100
-5.203500 2.220800
-5.186600 2.245400
-5.169600 2.272800
-5.152700 2.300300
-5.135800 2.328000
-5.118800 2.355800
-5.101900 2.383700
-5.085000 2.411900
-5.068000 2.440000
-5.051100 2.454200
-5.034200 2.469400
-5.017200 2.485300
-5.000300 2.501900
-4.983400 2.519200
-4.966400 2.537200
-4.949500 2.555300
-4.932600 2.573200
-4.915600 2.590900
-4.898700 2.608500
-4.881800 2.625800
-4.864800 2.642900
-4.847900 2.664000
-4.831000 2.687400
-4.814000 2.710800
-4.797100 2.734500
-4.780200 2.758400
-4.763200 2.883200
-4.746300 3.028900
-4.729400 3.135700
-4.712400 3.198100
-4.695500 3.219500
-4.678600 3.234000
-4.661600 3.260000
-4.644700 3.300000
-4.627800 3.352800
-4.610800 3.419000
-4.593900 3.473100
-4.577000 3.520000
-4.560000 3.569500
-4.543100 3.621500
-4.526200 3.676100
-4.509200 3.698600
-4.492300 3.695300
-4.475400 3.690200
-4.458400 3.686100
-4.441500 3.692500
-4.424600 3.700000
-4.407600 3.708300
-4.390700 3.717200
-4.373800 3.727300
-4.356800 3.747500
-4.339900 3.789200
-4.323000 3.824700
-4.306000 3.857700
-4.289100 3.888200
-4.272200 3.916200
-4.255200 3.941800
-4.238300 3.964900
-4.221400 3.996700
-4.204400 4.028800
-4.187500 4.055700
-4.170600 4.078300
-4.153600 4.096700
-4.136700 4.110800
-4.119800 4.120500
-4.102800 4.125600
-4.085900 4.126100
-4.069000 4.122100
-4.052000 4.115900
-4.035100 4.110300
-4.018200 4.105600
-4.001200 4.103600
-3.984300 4.105400
-3.967400 4.111200
-3.950400 4.121200
-3.933500 4.135800
-3.916600 4.154700
-3.899600 4.178100
-3.882700 4.205900
-3.865800 4.238200
-3.848800 4.275400
-3.831900 4.313700
-3.815000 4.334600
-3.798000 4.350200
-3.781100 4.360400
-3.764200 4.365300
-3.747200 4.364800
-3.730300 4.374300
-3.713400 4.403100
-3.696400 4.432800
-3.679500 4.463600
-3.662600 4.495400
-3.645600 4.512000
-3.628700 4.502700
-3.611800 4.486000
-3.594800 4.470100
-3.577900 4.455100
-3.560900 4.438800
-3.544000 4.410300
-3.527100 4.382900
-3.510100 4.356600
-3.493200 4.331400
-3.476300 12.914300
-3.459300 4.034300
-3.442400 4.022100
-3.425500 7.139100
-3.408500 5.884000
-3.391600 3.813400
-3.374700 3.856600
-3.357700 3.893700
-3.340800 3.922100
-3.323900 3.940200
-3.306900 3.947600
-3.290000 3.939900
-3.273100 3.916100
-3.256100 3.912900
-3.239200 5.330300
-3.222300 5.771200
-3.205300 4.667600
-3.188400 3.787900
-3.171500 3.682600
-3.154500 3.713300
-3.137600 3.737000
-3.120700 3.753600
-3.103700 3.763200
-3.086800 3.805300
-3.069900 4.036900
-3.052900 4.474300
-3.036000 4.672500
-3.019100 4.569800
-3.002100 4.309400
-2.985200 3.891900
-2.968300 3.323700
-2.951300 3.275500
-2.934400 3.273700
-2.917500 3.277800
-2.900500 3.291600
-2.883600 3.318600
-2.866700 3.358700
-2.849700 3.586000
-2.832800 3.928900
-2.815900 4.193800
-2.798900 4.380800
-2.782000 4.489700
-2.765100 4.393100
-2.748100 3.963400
-2.731200 3.694100
-2.714300 3.585200
-2.697300 3.627100
-2.680400 3.708800
-2.663500 3.814700
-2.646500 3.952700
-2.629600 4.122700
-2.612700 4.349900
-2.595700 4.742400
-2.578800 4.861300
-2.561900 4.889300
-2.544900 4.518500
-2.528000 3.990800
-2.511100 3.314900
-2.494100 2.696900
-2.477200 3.250800
-2.460300 4.350400
-2.443300 7.143100
-2.426400 7.396600
-2.409500 11.505900
-2.392500 12.188600
-2.375600 5.685800
-2.358700 4.677200
-2.341700 2.371400
-2.324800 0.198800
-2.307900 0.000000
-2.290900 0.000000
-2.274000 0.000000
-2.257100 0.000000
-2.240100 0.000000
-2.223200 0.000000
-2.206300 0.000000
-2.189300 0.000000
-2.172400 0.000000
-2.155500 0.000000
-2.138500 0.000000
-2.121600 0.000000
-2.104700 0.000000
-2.087700 0.000000
-2.070800 0.000000
-2.053900 0.000000
-2.036900 0.000000
-2.020000 0.000000
-2.003100 0.000000
-1.986100 0.000000
-1.969200 0.000000
-1.952300 0.000000
-1.935300 0.000000
-1.918400 0.000000
-1.901500 0.000000
-1.884500 0.000000
-1.867600 0.000000
-1.850700 0.000000
-1.833700 0.000000
-1.816800 0.000000
-1.799900 0.000000
-1.782900 0.000000
-1.766000 0.000000
-1.749100 0.000000
-1.732100 0.000000
-1.715200 0.000000
-1.698300 0.000000
-1.681300 0.000000
-1.664400 0.000000
-1.647500 0.000000
-1.630500 0.000000
-1.613600 0.000000
-1.596700 0.000000
-1.579700 0.000000
-1.562800 0.000000
-1.545900 0.000000
-1.528900 0.000000
-1.512000 0.000000
-1.495100 0.000000
-1.478100 0.000000
-1.461200 0.000000
-1.444300 0.000000
-1.427300 0.000000
-1.410400 0.000000
-1.393500 0.000000
-1.376500 0.000000
-1.359600 0.000000
-1.342700 0.000000
-1.325700 0.000000
-1.308800 0.000000
-1.291900 0.000000
-1.274900 0.000000
-1.258000 0.000000
-1.241100 0.000000
-1.224100 0.000000
-1.207200 0.000000
-1.190300 0.000000
-1.173300 0.000000
-1.156400 0.000000
-1.139500 0.000000
-1.122500 0.000000
-1.105600 0.000000
-1.088700 0.000000
-1.071700 0.000000
-1.054800 0.000000
-1.037900 0.000000
-1.020900 0.000000
-1.004000 0.000000
-0.987100 0.000000
-0.970100 0.000000
-0.953200 0.000000
-0.936300 0.000000
-0.919300 0.000000
-0.902400 0.000000
-0.885500 0.000000
-0.868500 0.000000
-0.851600 0.000000
-0.834700 0.000000
-0.817700 0.000000
-0.800800 0.000000
-0.783900 0.000000
-0.766900 0.000000
-0.750000 0.000000
-0.733100 0.000000
-0.716100 0.000000
-0.699200 0.000000
-0.682300 0.000000
-0.665300 0.000000
-0.648400 0.000000
-0.631400 0.000000
-0.614500 0.000000
-0.597600 0.000000
-0.580600 0.000000
-0.563700 0.000000
-0.546800 0.000000
-0.529800 0.000000
-0.512900 0.000000
-0.496000 0.000000
-0.479000 0.000000
-0.462100 0.003700
-0.445200 0.009600
-0.428200 0.016300
-0.411300 0.023900
-0.394400 0.032200
-0.377400 0.041400
-0.360500 0.051500
-0.343600 0.062300
-0.326600 0.074000
-0.309700 0.086500
-0.292800 0.099800
-0.275800 0.114000
-0.258900 0.128700
-0.242000 0.143900
-0.225000 0.159500
-0.208100 0.175500
-0.191200 0.192000
-0.174200 0.208900
-0.157300 0.226300
-0.140400 0.244100
-0.123400 0.262400
-0.106500 0.281100
-0.089600 0.300200
-0.072600 0.319800
-0.055700 0.339800
-0.038800 0.360300
-0.021800 0.381200
-0.004900 0.402600
0.012000 0.424400
0.029000 0.446600
0.045900 5.747600
0.062800 1.711400
0.079800 2.541000
0.096700 3.369400
0.113600 4.205200
0.130600 5.102500
0.147500 4.279300
0.164400 5.310500
0.181400 6.632200
0.198300 5.986100
0.215200 5.410800
0.232200 6.387700
0.249100 5.965200
0.266000 5.990200
0.283000 5.767800
0.299900 5.255900
0.316800 4.581400
0.333800 4.092200
0.350700 4.078900
0.367600 4.060100
0.384600 4.035700
0.401500 4.004300
0.418400 3.963900
0.435400 3.914400
0.452300 3.855800
0.469200 3.788100
0.486200 4.146100
0.503100 4.815400
0.520000 5.928400
0.537000 7.867100
0.553900 9.582700
0.570800 9.471700
0.587800 5.601600
0.604700 4.630700
0.621600 4.493600
0.638600 4.411100
0.655500 4.328800
0.672400 5.440300
0.689400 6.280300
0.706300 6.829700
0.723200 7.766100
0.740200 8.229000
0.757100 7.438500
0.774000 6.738400
0.791000 6.008400
0.807900 5.417300
0.824800 4.965100
0.841800 4.651800
0.858700 4.472700
0.875600 4.351300
0.892600 4.223300
0.909500 4.092400
0.926400 3.976600
0.943400 4.852100
0.960300 5.195800
0.977200 5.315000
0.994200 5.353500
1.011100 5.271300
1.028000 5.014700
1.045000 5.107900
1.061900 5.171200
1.078800 5.123500
1.095800 5.678000
1.112700 5.961200
1.129600 5.914500
1.146600 5.638400
1.163500 5.314300
1.180400 4.833900
1.197400 4.584900
1.214300 4.581600
1.231200 4.543700
1.248200 4.471200
1.265100 4.364000
1.282000 4.222100
1.299000 4.045600
1.315900 3.861200
1.332800 3.762200
1.349800 3.738800
1.366700 3.721000
1.383600 3.707100
1.400600 3.690300
1.417500 5.002400
1.434400 5.946700
1.451400 5.606000
1.468300 3.956400
1.485200 3.939500
1.502200 3.928500
1.519100 3.914700
1.536000 3.897800
1.553000 3.877700
1.569900 3.854500
1.586800 3.827800
1.603800 3.792300
1.620700 3.746400
1.637600 3.709200
1.654600 3.702000
1.671500 3.714600
1.688400 3.724000
1.705400 3.730200
1.722300 3.732200
1.739200 3.730200
1.756200 3.724100
1.773100 3.713900
1.790000 3.699600
1.807000 3.681200
1.823900 3.658000
1.840800 3.614500
1.857800 3.563200
1.874700 3.509700
1.891600 3.460100
1.908600 3.414200
1.925500 3.371800
1.942400 3.332100
1.959400 3.294900
1.976300 3.260300
1.993200 3.228200
2.010200 3.198700
2.027100 3.171700
2.044000 3.147800
2.061000 3.127300
2.077900 3.108800
2.094800 3.092400
2.111800 3.077600
2.128700 3.063400
2.145600 3.049600
2.162600 3.036300
2.179500 3.023900
2.196400 3.008800
2.213400 2.990200
2.230300 2.968300
2.247200 2.945100
2.264200 2.917300
2.281100 2.884000
2.298100 2.845200
2.315000 2.800100
2.331900 2.747200
2.348900 2.686700
2.365800 2.618800
2.382700 2.551000
2.399700 2.490000
2.416600 2.425800
2.433500 2.358300
2.450500 2.300100
2.467400 2.260500
2.484300 2.228800
2.501300 2.200100
2.518200 2.171400
2.535100 2.142700
2.552100 2.113800
2.569000 2.084800
2.585900 2.076100
2.602900 2.134400
2.619800 2.240300
2.636700 2.384100
2.653700 2.565800
2.670600 2.785600
2.687500 3.049800
2.704500 3.361600
2.721400 3.601100
2.738300 3.731100
2.755300 3.876200
2.772200 4.036600
2.789100 4.212100
2.806100 4.402900
2.823000 8.725800
2.839900 7.682900
2.856900 9.807100
2.873800 8.327800
2.890700 6.518800
2.907700 6.343500
2.924600 6.133600
2.941500 5.889100
2.958500 5.608500
2.975400 5.294000
2.992300 5.006200
3.009300 4.772500
3.026200 4.570600
3.043100 4.387800
3.060100 4.224200
3.077000 4.102200
3.093900 4.041000
3.110900 4.118900
3.127800 4.551700
3.144700 4.926400
3.161700 5.179900
3.178600 5.245900
3.195500 5.209800
3.212500 4.894800
3.229400 4.521600
3.246300 4.273900
3.263300 4.148300
3.280200 4.067700
3.297100 4.008400
3.314100 3.969300
3.331000 3.944100
3.347900 3.915800
3.364900 3.887300
3.381800 3.858400
3.398700 10.011000
3.415700 4.389500
3.432600 4.363500
3.449500 4.337100
3.466500 4.310500
3.483400 4.282500
3.500300 4.254600
3.517300 4.229300
3.534200 4.198900
3.551100 4.157900
3.568100 4.107000
3.585000 4.046100
3.601900 3.986800
3.618900 3.941800
3.635800 3.911100
3.652700 5.352500
3.669700 5.499200
3.686600 5.439300
3.703500 5.172800
3.720500 4.699900
3.737400 4.488500
3.754300 4.488300
3.771300 4.489500
3.788200 4.492000
3.805100 4.496000
3.822100 4.501300
3.839000 4.506000
3.855900 4.509100
3.872900 4.513200
3.889800 4.516100
3.906700 4.503600
3.923700 4.491500
3.940600 4.479000
3.957500 4.466000
3.974500 4.467000
3.991400 4.469600
4.008300 4.470800
4.025300 4.970900
4.042200 5.423600
4.059100 5.741400
4.076100 5.924200
4.093000 5.971400
4.109900 5.649200
4.126900 5.426600
4.143800 5.336300
4.160700 5.332700
4.177700 5.321700
4.194600 5.294600
4.211500 5.284800
4.228500 5.332700
4.245400 5.491700
4.262300 5.761900
4.279300 6.143300
4.296200 6.638700
4.313100 6.951000
4.330100 6.695100
4.347000 5.940700
4.363900 5.941200
4.380900 5.939800
4.397800 5.936800
4.414700 6.019900
4.431700 6.165100
4.448600 6.302900
4.465500 6.431800
4.482500 6.551400
4.499400 6.656700
4.516300 6.751200
4.533300 6.840300
4.550200 6.923900
4.567100 7.002100
4.584100 7.024600
4.601000 6.911400
4.617900 6.707800
4.634900 6.743400
4.651800 6.792700
4.668700 6.855600
4.685700 6.932700
4.702600 7.024200
4.719500 7.128200
4.736500 7.244600
4.753400 7.373800
4.770300 7.515700
4.787300 7.670500
4.804200 7.838900
4.821100 8.053600
4.838100 8.190200
4.855000 8.180700
4.871900 8.026800
4.888900 7.935600
4.905800 7.962100
4.922700 7.989300
4.939700 8.205100
4.956600 8.371500
4.973500 8.536200
4.990500 8.664700
5.007400 8.735400
5.024300 8.759200
5.041300 8.615000
5.058200 8.476100
5.075100 8.344700
5.092100 8.249100
5.109000 8.169400
5.125900 8.100000
5.142900 8.040300
5.159800 7.992100
5.176700 7.928800
5.193700 7.854400
5.210600 7.845600
5.227600 7.837900
5.244500 7.829800
5.261400 7.820300
5.278400 7.809600
5.295300 7.734700
5.312200 7.672800
5.329200 7.629500
5.346100 7.585500
5.363000 7.540200
5.380000 7.493700
5.396900 7.596300
5.413800 7.916900
5.430800 8.184100
5.447700 8.399500
5.464600 8.556400
5.481600 8.625100
5.498500 8.606600
5.515400 8.503800
5.532400 8.335900
5.549300 8.194700
5.566200 8.120400
5.583200 8.058700
5.600100 7.979400
5.617000 7.865400
5.634000 7.723500
5.650900 7.582300
5.667800 7.442000
5.684800 7.302700
5.701700 7.192300
5.718600 7.099400
5.735600 7.063400
5.752500 7.090000
5.769400 7.185600
5.786400 7.348400
5.803300 7.572600
5.820200 7.850500
5.837200 7.941000
5.854100 7.980500
5.871000 7.982300
5.888000 7.946500
5.904900 7.873100
5.921800 7.761400
5.938800 7.646400
5.955700 7.601300
5.972600 7.562200
5.989600 7.525100
6.006500 7.698600
6.023400 8.320500
6.040400 8.726000
6.057300 8.914800
6.074200 8.839500
6.091200 8.400900
6.108100 8.073000
6.125000 7.922100
6.142000 7.883500
6.158900 7.832400
6.175800 7.770800
6.192800 7.702600
6.209700 7.635900
6.226600 7.583800
6.243600 7.546700
6.260500 7.563300
6.277400 7.990300
6.294400 8.901700
6.311300 9.501300
6.328200 9.132700
6.345200 8.041300
6.362100 7.991000
6.379000 7.890000
6.396000 7.796500
6.412900 7.774800
6.429800 7.763300
6.446800 7.741700
6.463700 7.729100
6.480600 7.732500
6.497600 7.736500
6.514500 7.739100
6.531400 7.712800
6.548400 7.596000
6.565300 7.483200
6.582200 7.397800
6.599200 7.306800
6.616100 7.210000
6.633000 7.107400
6.650000 7.092400
6.666900 7.090700
6.683800 7.016600
6.700800 6.736700
6.717700 6.667700
6.734600 6.612800
6.751600 6.554800
6.768500 6.492400
6.785400 6.425600
6.802400 6.330000
6.819300 6.190200
6.836200 6.134900
6.853200 6.090300
6.870100 6.042300
6.887000 6.004300
6.904000 5.968600
6.920900 5.791300
6.937800 5.686100
6.954800 5.591000
6.971700 5.491700
6.988600 5.375300
7.005600 5.143500
7.022500 4.927000
7.039400 4.823100
7.056400 4.726000
7.073300 4.636500
7.090200 4.554500
7.107200 4.480400
7.124100 4.415400
7.141000 4.360300
7.158000 4.312200
7.174900 4.259300
7.191800 4.189200
7.208800 4.111300
7.225700 4.027800
7.242600 3.928300
7.259600 3.828700
7.276500 3.729200
7.293400 3.630100
7.310400 3.549100
7.327300 3.480000
7.344200 3.434700
7.361200 3.453300
7.378100 3.462000
7.395000 3.442100
7.412000 3.393400
7.428900 3.297200
7.445800 3.191400
7.462800 3.104700
7.479700 3.028100
7.496600 2.954900
7.513600 2.906200
7.530500 2.860500
7.547400 2.811300
7.564400 2.709800
7.581300 2.627100
7.598200 2.583600
7.615200 2.542800
7.632100 2.495100
7.649000 2.536300
7.666000 2.442800
7.682900 2.290300
7.699800 2.139400
7.716800 1.990000
7.733700 1.841200
7.750600 1.692900
7.767600 1.544900
7.784500 1.398900
7.801400 1.256000
7.818400 1.116300
7.835300 0.979700
7.852200 0.844800
7.869200 0.711400
7.886100 0.580300
7.903000 0.465000
7.920000 0.359200
7.936900 0.255000
7.953800 0.152600
7.970800 0.073000
7.987700 0.019200
8.004600 0.000000
8.021600 0.000000
8.038500 0.000000
8.055400 0.000000
8.072400 0.000000
8.089300 0.000000
8.106200 0.000000
8.123200 0.000000
8.140100 0.000000
8.157000 0.000000
8.174000 0.000000
8.190900 0.000000
8.207900 0.000000
8.224800 0.000000
8.241700 0.000000
8.258700 0.000000
8.275600 0.000000
8.292500 0.000000
8.309500 0.000000
8.326400 0.000000
8.343300 0.000000
8.360300 0.000000
8.377200 0.000000
8.394100 0.000000
8.411100 0.000000
8.428000 0.000000
8.444900 0.000000
8.461900 0.000000
8.478800 0.000000
8.495700 0.000000
8.512700 0.000000
8.529600 0.000000
8.546500 0.000000
8.563500 0.000000
8.580400 0.000000
8.597300 0.000000
8.614300 0.000000
8.631200 0.000000
8.648100 0.000000
8.665100 0.000000
8.682000 0.000000
8.698900 0.000000
8.715900 0.000000
8.732800 0.000000
8.749700 0.000000
8.766700 0.000000
8.783600 0.000000
8.800500 0.000000
8.817500 0.000000
8.834400 0.000000
8.851300 0.000000
8.868300 0.000000
8.885200 0.000000
8.902100 0.000000
8.919100 0.000000
8.936000 0.000000
8.952900 0.000000
8.969900 0.000000
8.986800 0.000000
9.003700 0.000000
9.020700 0.000000
9.037600 0.000000
9.054500 0.000000
9.071500 0.000000
9.088400 0.000000
9.105300 0.000000
9.122300 0.000000
9.139200 0.000000
9.156100 0.000000
