set title 'mp-1194 - Density of States'
set xlabel 'Energy (eV)'
set ylabel 'DOS (states/eV)'
set grid
set xrange [-10:10]
set yrange [0:15.841]
set xzeroaxis lt -1
set terminal png size 800,600
set output 'mp-1194_dos_gnuplot.png'
plot '-' using 1:2 with lines title 'DOS'
-6.267600 0.000000
-6.250200 0.000000
-6.232700 0.000000
-6.215200 0.000000
-6.197700 0.000000
-6.180200 0.000000
-6.162700 0.000000
-6.145200 0.000000
-6.127700 0.000000
-6.110200 0.000000
-6.092700 0.000000
-6.075200 0.000000
-6.057800 0.000000
-6.040300 0.000000
-6.022800 0.000000
-6.005300 0.000000
-5.987800 0.000000
-5.970300 0.000000
-5.952800 0.000000
-5.935300 0.000000
-5.917800 0.000000
-5.900300 0.000000
-5.882800 0.000000
-5.865400 0.000000
-5.847900 0.000000
-5.830400 0.000000
-5.812900 0.000000
-5.795400 0.000000
-5.777900 0.000000
-5.760400 0.000000
-5.742900 0.000000
-5.725400 0.000000
-5.707900 0.000000
-5.690400 0.000000
-5.673000 0.000000
-5.655500 0.000000
-5.638000 0.000000
-5.620500 0.000000
-5.603000 0.000000
-5.585500 0.000000
-5.568000 0.000000
-5.550500 0.000000
-5.533000 0.000000
-5.515500 0.000000
-5.498000 0.000000
-5.480600 0.000000
-5.463100 0.000000
-5.445600 0.000000
-5.428100 0.000000
-5.410600 0.000000
-5.393100 0.000000
-5.375600 0.000000
-5.358100 0.000000
-5.340600 0.000000
-5.323100 0.000000
-5.305700 0.000000
-5.288200 0.000000
-5.270700 0.000000
-5.253200 0.000000
-5.235700 0.000000
-5.218200 0.000000
-5.200700 0.000000
-5.183200 0.000000
-5.165700 0.000000
-5.148200 0.000000
-5.130700 0.000000
-5.113300 0.000000
-5.095800 0.000000
-5.078300 0.000000
-5.060800 0.000000
-5.043300 0.000000
-5.025800 0.000000
-5.008300 0.000000
-4.990800 0.000000
-4.973300 0.000000
-4.955800 0.000000
-4.938300 0.000000
-4.920900 0.000000
-4.903400 0.000000
-4.885900 0.000000
-4.868400 0.000000
-4.850900 0.000000
-4.833400 0.000000
-4.815900 0.000000
-4.798400 0.000000
-4.780900 0.000000
-4.763400 0.000000
-4.745900 0.000000
-4.728500 0.000000
-4.711000 0.000000
-4.693500 0.000000
-4.676000 0.068600
-4.658500 0.154000
-4.641000 0.229500
-4.623500 0.259000
-4.606000 0.299900
-4.588500 0.345400
-4.571000 0.680200
-4.553500 0.884300
-4.536100 1.057400
-4.518600 1.270200
-4.501100 1.499200
-4.483600 2.163300
-4.466100 2.523800
-4.448600 2.752500
-4.431100 3.052200
-4.413600 3.381900
-4.396100 3.746400
-4.378600 4.161000
-4.361100 4.560300
-4.343700 5.006800
-4.326200 5.587900
-4.308700 5.726900
-4.291200 7.249700
-4.273700 7.558900
-4.256200 7.636800
-4.238700 7.747100
-4.221200 7.652800
-4.203700 7.375500
-4.186200 7.264700
-4.168800 7.371600
-4.151300 7.522500
-4.133800 8.237100
-4.116300 9.003400
-4.098800 10.357100
-4.081300 10.795300
-4.063800 11.138600
-4.046300 10.180400
-4.028800 9.428300
-4.011300 9.347600
-3.993800 9.788500
-3.976400 10.498400
-3.958900 10.089000
-3.941400 7.610600
-3.923900 7.130800
-3.906400 7.196400
-3.888900 6.715800
-3.871400 5.754900
-3.853900 9.253000
-3.836400 11.362900
-3.818900 10.406200
-3.801400 9.635700
-3.784000 8.609700
-3.766500 11.297300
-3.749000 10.781000
-3.731500 9.795600
-3.714000 8.916400
-3.696500 9.073800
-3.679000 8.894200
-3.661500 8.893300
-3.644000 9.009300
-3.626500 8.452600
-3.609000 8.047600
-3.591600 9.535100
-3.574100 10.565600
-3.556600 11.461600
-3.539100 12.890100
-3.521600 14.400800
-3.504100 13.726100
-3.486600 11.514500
-3.469100 9.483900
-3.451600 7.673500
-3.434100 7.997000
-3.416600 6.918700
-3.399200 5.869700
-3.381700 5.192400
-3.364200 4.689700
-3.346700 4.424000
-3.329200 4.543500
-3.311700 4.890200
-3.294200 4.313300
-3.276700 3.944800
-3.259200 2.957000
-3.241700 2.322700
-3.224300 1.450600
-3.206800 1.311200
-3.189300 1.190700
-3.171800 1.115200
-3.154300 1.035300
-3.136800 0.965800
-3.119300 0.940100
-3.101800 0.914800
-3.084300 0.889400
-3.066800 0.870600
-3.049300 0.859800
-3.031900 0.853100
-3.014400 0.851300
-2.996900 0.818200
-2.979400 0.786100
-2.961900 0.771600
-2.944400 0.764400
-2.926900 0.757300
-2.909400 0.852600
-2.891900 0.757500
-2.874400 0.662000
-2.856900 4.291400
-2.839500 0.236800
-2.822000 0.237800
-2.804500 0.238800
-2.787000 0.239800
-2.769500 0.240900
-2.752000 0.241900
-2.734500 0.243000
-2.717000 0.244200
-2.699500 0.245500
-2.682000 0.246800
-2.664500 0.248200
-2.647100 0.249500
-2.629600 0.250900
-2.612100 0.252200
-2.594600 0.253600
-2.577100 0.255100
-2.559600 0.256600
-2.542100 0.258100
-2.524600 0.259700
-2.507100 0.261300
-2.489600 0.262900
-2.472100 0.264600
-2.454700 0.266300
-2.437200 0.268100
-2.419700 0.270000
-2.402200 0.271800
-2.384700 0.273700
-2.367200 0.275700
-2.349700 0.277600
-2.332200 0.279600
-2.314700 0.281300
-2.297200 0.283200
-2.279700 0.285000
-2.262300 0.286900
-2.244800 0.288700
-2.227300 0.290700
-2.209800 0.292600
-2.192300 0.294500
-2.174800 0.296500
-2.157300 0.298500
-2.139800 0.300600
-2.122300 0.302700
-2.104800 0.304700
-2.087400 0.306800
-2.069900 0.309000
-2.052400 0.311100
-2.034900 0.313300
-2.017400 0.315400
-1.999900 0.317600
-1.982400 0.319800
-1.964900 0.322000
-1.947400 0.324200
-1.929900 0.326300
-1.912400 0.328500
-1.895000 0.330800
-1.877500 0.333000
-1.860000 0.335200
-1.842500 0.344700
-1.825000 0.347500
-1.807500 0.350300
-1.790000 0.353100
-1.772500 0.355800
-1.755000 0.358500
-1.737500 0.361300
-1.720000 0.364000
-1.702600 0.363800
-1.685100 0.365900
-1.667600 0.368000
-1.650100 0.370100
-1.632600 0.372200
-1.615100 0.374400
-1.597600 0.376500
-1.580100 0.378700
-1.562600 0.381000
-1.545100 0.383600
-1.527600 0.386100
-1.510200 0.388700
-1.492700 0.391200
-1.475200 0.393700
-1.457700 0.396300
-1.440200 0.398400
-1.422700 0.400700
-1.405200 0.403500
-1.387700 0.406400
-1.370200 0.409600
-1.352700 0.412700
-1.335200 0.417000
-1.317800 0.420400
-1.300300 0.423800
-1.282800 0.427300
-1.265300 0.430900
-1.247800 0.434500
-1.230300 0.438200
-1.212800 0.441800
-1.195300 0.445500
-1.177800 0.450400
-1.160300 0.455200
-1.142900 0.462200
-1.125400 0.467800
-1.107900 0.473300
-1.090400 0.478200
-1.072900 0.482700
-1.055400 0.487100
-1.037900 0.491800
-1.020400 0.497300
-1.002900 0.505700
-0.985400 0.512300
-0.967900 0.518800
-0.950500 0.525300
-0.933000 0.533300
-0.915500 0.539800
-0.898000 0.544900
-0.880500 0.550100
-0.863000 0.555000
-0.845500 0.558900
-0.828000 0.637500
-0.810500 0.651600
-0.793000 0.662300
-0.775500 0.667600
-0.758100 0.675900
-0.740600 0.664200
-0.723100 0.666800
-0.705600 0.667800
-0.688100 0.673900
-0.670600 0.679400
-0.653100 0.680800
-0.635600 0.681900
-0.618100 0.685600
-0.600600 0.689200
-0.583100 0.686800
-0.565700 0.688000
-0.548200 0.689400
-0.530700 0.691500
-0.513200 0.695300
-0.495700 0.700000
-0.478200 0.704900
-0.460700 0.709800
-0.443200 0.714900
-0.425700 0.719800
-0.408200 0.724900
-0.390700 0.730200
-0.373300 0.734900
-0.355800 0.741400
-0.338300 0.747500
-0.320800 0.754100
-0.303300 0.760800
-0.285800 0.767600
-0.268300 0.773700
-0.250800 0.781400
-0.233300 0.789400
-0.215800 0.797200
-0.198400 0.805700
-0.180900 0.814700
-0.163400 0.852400
-0.145900 0.884400
-0.128400 0.904800
-0.110900 0.924300
-0.093400 0.942500
-0.075900 0.957400
-0.058400 1.049700
-0.040900 1.085000
-0.023400 1.048200
-0.006000 1.031800
0.011500 1.019200
0.029000 1.001700
0.046500 0.994800
0.064000 0.989800
0.081500 0.984900
0.099000 0.973400
0.116500 0.935800
0.134000 0.909800
0.151500 0.886400
0.169000 0.881500
0.186400 0.873700
0.203900 0.864300
0.221400 0.852200
0.238900 0.896700
0.256400 0.939800
0.273900 0.982300
0.291400 1.037900
0.308900 1.090600
0.326400 1.161400
0.343900 1.256100
0.361400 1.407700
0.378800 1.447600
0.396300 1.450600
0.413800 1.435400
0.431300 1.205500
0.448800 1.202300
0.466300 1.207200
0.483800 1.229000
0.501300 1.337100
0.518800 1.477600
0.536300 1.684500
0.553800 1.337600
0.571200 1.104900
0.588700 1.055300
0.606200 1.020100
0.623700 0.987700
0.641200 0.878100
0.658700 0.922800
0.676200 0.947800
0.693700 0.995700
0.711200 1.086900
0.728700 1.169100
0.746200 1.262800
0.763600 1.493600
0.781100 1.600000
0.798600 1.709600
0.816100 1.815200
0.833600 1.878200
0.851100 1.906600
0.868600 1.966000
0.886100 2.054000
0.903600 2.150400
0.921100 2.261200
0.938500 2.365600
0.956000 2.527600
0.973500 2.640400
0.991000 2.886800
1.008500 2.839200
1.026000 2.892600
1.043500 2.985500
1.061000 3.051300
1.078500 3.172400
1.096000 3.269400
1.113500 3.376100
1.130900 3.511600
1.148400 3.710500
1.165900 3.315200
1.183400 3.216200
1.200900 2.955700
1.218400 2.937200
1.235900 2.822800
1.253400 2.808800
1.270900 2.790200
1.288400 2.794300
1.305900 2.802600
1.323300 2.784100
1.340800 2.760000
1.358300 2.803800
1.375800 2.836700
1.393300 2.885500
1.410800 2.899900
1.428300 2.859800
1.445800 2.865200
1.463300 2.903700
1.480800 2.938600
1.498300 2.959100
1.515700 3.184300
1.533200 3.135100
1.550700 3.141900
1.568200 3.125200
1.585700 3.075900
1.603200 3.065300
1.620700 3.060100
1.638200 3.081400
1.655700 3.137100
1.673200 3.166100
1.690700 3.258500
1.708100 3.206100
1.725600 3.202000
1.743100 3.185900
1.760600 3.226700
1.778100 3.283800
1.795600 3.232100
1.813100 3.041100
1.830600 2.974200
1.848100 2.865600
1.865600 2.859500
1.883000 2.697800
1.900500 2.719400
1.918000 2.777300
1.935500 2.865100
1.953000 2.973900
1.970500 2.964400
1.988000 3.041400
2.005500 4.088000
2.023000 4.218800
2.040500 3.745300
2.058000 3.564600
2.075400 3.330600
2.092900 3.249600
2.110400 3.125900
2.127900 3.084500
2.145400 3.019600
2.162900 2.965000
2.180400 2.917400
2.197900 2.860600
2.215400 2.802600
2.232900 2.746700
2.250400 2.687000
2.267800 2.592600
2.285300 2.526900
2.302800 2.442900
2.320300 2.363400
2.337800 2.256300
2.355300 2.196900
2.372800 2.130500
2.390300 2.060300
2.407800 2.004100
2.425300 1.956600
2.442800 1.922300
2.460200 1.903400
2.477700 1.842500
2.495200 1.790800
2.512700 1.778400
2.530200 1.776000
2.547700 1.815800
2.565200 1.776900
2.582700 1.870700
2.600200 1.986200
2.617700 1.927000
2.635200 1.923100
2.652600 2.219700
2.670100 2.529000
2.687600 2.721300
2.705100 2.930800
2.722600 2.852600
2.740100 2.834900
2.757600 3.074100
2.775100 3.266300
2.792600 3.254700
2.810100 3.391300
2.827600 3.654800
2.845000 3.863700
2.862500 4.133500
2.880000 4.534900
2.897500 4.663700
2.915000 4.726100
2.932500 4.790200
2.950000 4.688600
2.967500 4.770000
2.985000 4.839900
3.002500 4.926400
3.019900 5.103100
3.037400 5.149000
3.054900 4.898700
3.072400 4.577800
3.089900 4.402300
3.107400 4.326000
3.124900 4.347900
3.142400 4.392000
3.159900 4.481000
3.177400 4.497200
3.194900 4.748900
3.212300 4.809900
3.229800 5.332600
3.247300 5.315200
3.264800 5.200500
3.282300 5.120500
3.299800 5.276700
3.317300 4.318700
3.334800 3.817000
3.352300 3.548900
3.369800 3.348500
3.387300 2.961200
3.404700 2.753400
3.422200 2.544200
3.439700 1.991900
3.457200 1.834200
3.474700 1.756200
3.492200 1.683500
3.509700 1.623200
3.527200 1.562100
3.544700 1.562900
3.562200 1.558000
3.579700 1.559300
3.597100 1.570700
3.614600 1.577000
3.632100 1.522700
3.649600 1.496200
3.667100 1.491500
3.684600 1.516900
3.702100 1.493800
3.719600 1.466200
3.737100 1.520300
3.754600 1.473400
3.772100 1.411800
3.789500 1.384300
3.807000 1.249400
3.824500 1.128600
3.842000 1.055700
3.859500 0.862500
3.877000 0.848600
3.894500 0.834800
3.912000 0.821400
3.929500 0.804800
3.947000 0.797500
3.964400 0.790400
3.981900 0.783700
3.999400 0.777400
4.016900 0.771500
4.034400 0.765700
4.051900 0.755200
4.069400 0.748100
4.086900 0.740900
4.104400 0.734900
4.121900 0.728900
4.139400 0.722600
4.156800 0.716000
4.174300 0.709300
4.191800 0.703300
4.209300 0.698200
4.226800 0.692400
4.244300 0.686800
4.261800 0.681400
4.279300 0.676100
4.296800 0.670700
4.314300 0.665800
4.331800 0.660500
4.349200 0.656100
4.366700 0.651900
4.384200 0.648000
4.401700 0.644500
4.419200 0.643200
4.436700 0.640300
4.454200 0.638300
4.471700 0.635400
4.489200 0.632400
4.506700 0.629100
4.524200 0.626300
4.541600 0.623300
4.559100 0.625200
4.576600 0.623800
4.594100 0.615400
4.611600 0.607100
4.629100 0.599000
4.646600 0.594300
4.664100 0.588500
4.681600 0.579900
4.699100 0.571200
4.716600 0.573400
4.734000 0.562400
4.751500 0.569200
4.769000 0.478900
4.786500 0.477100
4.804000 0.475200
4.821500 0.473600
4.839000 0.471900
4.856500 0.465100
4.874000 0.463200
4.891500 0.461300
4.909000 0.459500
4.926400 0.457700
4.943900 0.455900
4.961400 0.455900
4.978900 0.454700
4.996400 0.453600
5.013900 0.452400
5.031400 0.451300
5.048900 0.450200
5.066400 0.449200
5.083900 0.448200
5.101300 0.447500
5.118800 0.447600
5.136300 0.447900
5.153800 0.447700
5.171300 0.447300
5.188800 0.446900
5.206300 0.446100
5.223800 0.446000
5.241300 0.445900
5.258800 0.452900
5.276300 0.453100
5.293700 0.457000
5.311200 0.459600
5.328700 0.462300
5.346200 0.465300
5.363700 0.468400
5.381200 0.475400
5.398700 0.479200
5.416200 0.483100
5.433700 0.487300
5.451200 0.491600
5.468700 0.496100
5.486100 0.513600
5.503600 0.525600
5.521100 0.541200
5.538600 0.564300
5.556100 0.580200
5.573600 0.629600
5.591100 0.683200
5.608600 0.813500
5.626100 1.065200
5.643600 0.965500
5.661100 0.936700
5.678500 0.977600
5.696000 1.007700
5.713500 0.975800
5.731000 0.942400
5.748500 0.925500
5.766000 0.905500
5.783500 0.883000
5.801000 0.851300
5.818500 0.811600
5.836000 0.794700
5.853500 0.780600
5.870900 0.765600
5.888400 0.752000
5.905900 0.744700
5.923400 0.738100
5.940900 0.731600
5.958400 0.725600
5.975900 0.719400
5.993400 0.713500
6.010900 0.708100
6.028400 0.701900
6.045800 0.695700
6.063300 0.690700
6.080800 0.686600
6.098300 0.682200
6.115800 0.677700
6.133300 0.673200
6.150800 0.669600
6.168300 0.666000
6.185800 0.661100
6.203300 0.656500
6.220800 0.651500
6.238200 0.646200
6.255700 0.640900
6.273200 0.634500
6.290700 0.628700
6.308200 0.622900
6.325700 0.617900
6.343200 0.613400
6.360700 0.609000
6.378200 0.604600
6.395700 0.600200
6.413200 0.596300
6.430600 0.592600
6.448100 0.589000
6.465600 0.585600
6.483100 0.582400
6.500600 0.579400
6.518100 0.579200
6.535600 0.576200
6.553100 0.573600
6.570600 0.570600
6.588100 0.567400
6.605600 0.564200
6.623000 0.560900
6.640500 0.558200
6.658000 0.555500
6.675500 0.552100
6.693000 0.548900
6.710500 0.546500
6.728000 0.544200
6.745500 0.541800
6.763000 0.539500
6.780500 0.537100
6.798000 0.534800
6.815400 0.532500
6.832900 0.528900
6.850400 0.526100
6.867900 0.523700
6.885400 0.521200
6.902900 0.518700
6.920400 0.516200
6.937900 0.513500
6.955400 0.510600
6.972900 0.507800
6.990400 0.505000
7.007800 0.502200
7.025300 0.499400
7.042800 0.496300
7.060300 0.493100
7.077800 0.490200
7.095300 0.485300
7.112800 0.481700
7.130300 0.478200
7.147800 0.475100
7.165300 0.472200
7.182700 0.469500
7.200200 0.466900
7.217700 0.464300
7.235200 0.461700
7.252700 0.459200
7.270200 0.456800
7.287700 0.454400
7.305200 0.452100
7.322700 0.539900
7.340200 0.517400
7.357700 0.525300
7.375100 0.522100
7.392600 0.527600
7.410100 0.533300
7.427600 0.539200
7.445100 0.536700
7.462600 0.535200
7.480100 0.530600
7.497600 0.532700
7.515100 0.535000
7.532600 0.539000
7.550100 0.543300
7.567500 0.547900
7.585000 0.552600
7.602500 0.558200
7.620000 0.562100
7.637500 0.572700
7.655000 0.591700
7.672500 0.615600
7.690000 0.638200
7.707500 0.654800
7.725000 0.666800
7.742500 0.677700
7.759900 0.688600
7.777400 0.698500
7.794900 0.706900
7.812400 0.712900
7.829900 0.720100
7.847400 0.727400
7.864900 0.735600
7.882400 0.738800
7.899900 0.740100
7.917400 0.738900
7.934900 0.737400
7.952300 0.731800
7.969800 0.728600
7.987300 0.726200
8.004800 0.723700
8.022300 0.720700
8.039800 0.718100
8.057300 0.715500
8.074800 0.712900
8.092300 0.712200
8.109800 0.701100
8.127200 0.695200
8.144700 0.689200
8.162200 0.686000
8.179700 0.681200
8.197200 0.677500
8.214700 0.672000
8.232200 0.666600
8.249700 0.661300
8.267200 0.656200
8.284700 0.651300
8.302200 0.646600
8.319600 0.642000
8.337100 0.640200
8.354600 0.637200
8.372100 0.633100
8.389600 0.866400
8.407100 0.800500
8.424600 0.685400
8.442100 0.681900
8.459600 0.678800
8.477100 0.665200
8.494600 0.648500
8.512000 0.636100
8.529500 0.631900
8.547000 0.628200
8.564500 0.625200
8.582000 0.623100
8.599500 0.621400
8.617000 0.619400
8.634500 0.619300
8.652000 0.619700
8.669500 0.621500
8.687000 0.620200
8.704400 0.619600
8.721900 0.621600
8.739400 0.616400
8.756900 0.633700
8.774400 0.628100
8.791900 0.625100
8.809400 0.626300
8.826900 0.630800
8.844400 0.637000
8.861900 0.642900
8.879400 0.646000
8.896800 0.650600
8.914300 0.654600
8.931800 0.658600
8.949300 0.662900
8.966800 0.691900
8.984300 0.703200
9.001800 0.693800
9.019300 0.699800
9.036800 0.700600
9.054300 0.707600
9.071800 0.713000
9.089200 0.717900
9.106700 0.722300
9.124200 0.726500
9.141700 0.730400
9.159200 0.733700
9.176700 0.732000
9.194200 0.729900
9.211700 0.726400
9.229200 0.727000
9.246700 0.727600
9.264100 0.729400
9.281600 0.729100
9.299100 0.771000
9.316600 0.759200
9.334100 0.765500
9.351600 0.782200
9.369100 0.786200
9.386600 0.767200
9.404100 0.766200
9.421600 0.765600
9.439100 0.765700
9.456500 0.766800
9.474000 0.768900
9.491500 0.771800
9.509000 0.775600
9.526500 0.780500
9.544000 0.788100
9.561500 0.805100
9.579000 0.823100
9.596500 0.840600
9.614000 0.851600
9.631500 0.852800
9.648900 0.844200
9.666400 0.828400
9.683900 0.805900
9.701400 0.802800
9.718900 0.799800
9.736400 0.792800
9.753900 0.790600
9.771400 0.788500
9.788900 0.796600
9.806400 0.782900
9.823900 0.776200
9.841300 0.771200
9.858800 0.764200
9.876300 0.770600
9.893800 0.758900
9.911300 0.755400
9.928800 0.753400
9.946300 0.751600
9.963800 0.750000
9.981300 0.745100
9.998800 0.743000
10.016300 0.740700
10.033700 0.738300
10.051200 0.735600
10.068700 0.732700
10.086200 0.738600
10.103700 0.732500
10.121200 0.727800
10.138700 0.710900
10.156200 0.711600
10.173700 0.718500
10.191200 0.696000
10.208600 0.692800
10.226100 0.689700
10.243600 0.682800
10.261100 0.681000
10.278600 0.677600
10.296100 0.673500
10.313600 0.670100
10.331100 0.667500
10.348600 0.665900
10.366100 0.664800
10.383600 0.659100
10.401000 0.647000
10.418500 0.641700
10.436000 0.639600
10.453500 0.637600
10.471000 0.641000
10.488500 0.641800
10.506000 0.641200
10.523500 0.641100
10.541000 0.640900
10.558500 0.640800
10.576000 0.656600
10.593400 0.640000
10.610900 0.641900
10.628400 0.644500
10.645900 0.648100
10.663400 0.652200
10.680900 0.656600
10.698400 0.659400
10.715900 0.664200
10.733400 0.668800
10.750900 0.673100
10.768400 0.677200
10.785800 0.681000
10.803300 0.683900
10.820800 0.692300
10.838300 0.696900
10.855800 0.696000
10.873300 0.701400
10.890800 0.705000
10.908300 0.706400
10.925800 0.711300
10.943300 0.713700
10.960800 0.714300
10.978200 0.717900
10.995700 0.724100
11.013200 0.731200
11.030700 0.731600
11.048200 0.729100
11.065700 0.720600
11.083200 0.720200
11.100700 0.719400
11.118200 0.718700
11.135700 0.742400
11.153100 0.716700
11.170600 0.715200
11.188100 0.713800
11.205600 0.712700
11.223100 0.713300
11.240600 0.713000
11.258100 0.712500
11.275600 0.712200
11.293100 0.712100
11.310600 0.712200
11.328100 0.712400
11.345500 0.712700
11.363000 0.713400
11.380500 0.714500
11.398000 0.715800
11.415500 0.720000
11.433000 0.727400
11.450500 0.722000
11.468000 0.727400
11.485500 0.733100
11.503000 0.721000
11.520500 0.723300
11.537900 0.723200
11.555400 0.735800
11.572900 0.755800
11.590400 0.743800
11.607900 0.737300
11.625400 0.732100
11.642900 0.732600
11.660400 0.733500
11.677900 0.734400
11.695400 0.735500
11.712900 0.736500
11.730300 0.737400
11.747800 0.738600
11.765300 0.733300
11.782800 0.729700
11.800300 0.731000
11.817800 0.732800
11.835300 0.732000
11.852800 0.733100
11.870300 0.734800
11.887800 0.736900
11.905300 0.737700
11.922700 0.737500
11.940200 0.740000
11.957700 0.742800
11.975200 0.744500
11.992700 0.745300
12.010200 0.746200
12.027700 0.747100
12.045200 0.748400
12.062700 0.749300
12.080200 0.750200
12.097700 0.750800
12.115100 0.751500
12.132600 0.751900
12.150100 0.752800
12.167600 0.753800
12.185100 0.754700
12.202600 0.755400
12.220100 0.756300
12.237600 0.757300
12.255100 0.758600
12.272600 0.760000
12.290000 0.762900
12.307500 0.767100
12.325000 0.772900
12.342500 0.780600
12.360000 0.789400
12.377500 0.799700
