set title 'mp-1218964 - Density of States'
set xlabel 'Energy (eV)'
set ylabel 'DOS (states/eV)'
set grid
set xrange [-10:10]
set yrange [0:3.354]
set xzeroaxis lt -1
set terminal png size 800,600
set output 'mp-1218964_dos_gnuplot.png'
plot '-' using 1:2 with lines title 'DOS'
-18.109100 0.000000
-18.078400 0.000000
-18.047600 0.000000
-18.016800 0.000000
-17.986000 0.000000
-17.955300 0.000000
-17.924500 0.000000
-17.893700 0.000000
-17.862900 0.000000
-17.832200 0.000000
-17.801400 0.000000
-17.770600 0.000000
-17.739800 0.000000
-17.709100 0.000000
-17.678300 0.000000
-17.647500 0.000000
-17.616700 0.000000
-17.586000 0.000000
-17.555200 0.000000
-17.524400 0.000000
-17.493600 0.000000
-17.462900 0.000000
-17.432100 0.000000
-17.401300 0.000000
-17.370500 0.000000
-17.339800 0.000000
-17.309000 0.000000
-17.278200 0.000000
-17.247400 0.000000
-17.216600 0.000000
-17.185900 0.000000
-17.155100 0.000000
-17.124300 0.000000
-17.093500 0.000000
-17.062800 0.000000
-17.032000 0.000000
-17.001200 0.000000
-16.970400 0.000000
-16.939700 0.000000
-16.908900 0.000000
-16.878100 0.000000
-16.847300 0.000000
-16.816600 0.000000
-16.785800 0.000000
-16.755000 0.000000
-16.724200 0.000000
-16.693500 0.000000
-16.662700 0.000000
-16.631900 0.000000
-16.601100 0.000000
-16.570400 0.000000
-16.539600 0.000000
-16.508800 0.000000
-16.478000 0.000000
-16.447300 0.000000
-16.416500 0.000000
-16.385700 0.000000
-16.354900 0.000000
-16.324200 0.000000
-16.293400 0.000000
-16.262600 0.000000
-16.231800 0.000000
-16.201100 0.000000
-16.170300 0.000000
-16.139500 0.000000
-16.108700 0.000000
-16.077900 0.000000
-16.047200 0.000000
-16.016400 0.000000
-15.985600 0.000000
-15.954800 0.000000
-15.924100 0.000000
-15.893300 0.000000
-15.862500 0.000000
-15.831700 0.000000
-15.801000 0.000000
-15.770200 0.000000
-15.739400 0.000000
-15.708600 0.000000
-15.677900 0.000000
-15.647100 0.000000
-15.616300 0.000000
-15.585500 0.000000
-15.554800 0.000000
-15.524000 0.000000
-15.493200 0.000000
-15.462400 0.000100
-15.431700 0.002400
-15.400900 0.046600
-15.370100 0.447900
-15.339300 2.267500
-15.308600 6.940200
-15.277800 17.419800
-15.247000 41.952400
-15.216200 76.177100
-15.185500 86.204200
-15.154700 58.727400
-15.123900 25.300400
-15.093100 7.580100
-15.062300 1.624600
-15.031600 0.222700
-15.000800 0.017100
-14.970000 0.000700
-14.939200 0.000000
-14.908500 0.000000
-14.877700 0.000000
-14.846900 0.000000
-14.816100 0.000000
-14.785400 0.000000
-14.754600 0.000000
-14.723800 0.000000
-14.693000 0.000000
-14.662300 0.000000
-14.631500 0.000000
-14.600700 0.000000
-14.569900 0.000000
-14.539200 0.000000
-14.508400 0.000000
-14.477600 0.000000
-14.446800 0.000000
-14.416100 0.000000
-14.385300 0.000000
-14.354500 0.000000
-14.323700 0.000000
-14.293000 0.000000
-14.262200 0.000000
-14.231400 0.000000
-14.200600 0.000000
-14.169900 0.000000
-14.139100 0.000000
-14.108300 0.000000
-14.077500 0.000000
-14.046700 0.000000
-14.016000 0.000000
-13.985200 0.000000
-13.954400 0.000000
-13.923600 0.000000
-13.892900 0.000000
-13.862100 0.000000
-13.831300 0.000000
-13.800500 0.000000
-13.769800 0.000000
-13.739000 0.000000
-13.708200 0.000000
-13.677400 0.000000
-13.646700 0.000000
-13.615900 0.000000
-13.585100 0.000000
-13.554300 0.000000
-13.523600 0.000000
-13.492800 0.000000
-13.462000 0.000000
-13.431200 0.000000
-13.400500 0.000000
-13.369700 0.000000
-13.338900 0.000000
-13.308100 0.000000
-13.277400 0.000000
-13.246600 0.000000
-13.215800 0.000000
-13.185000 0.000000
-13.154300 0.000000
-13.123500 0.000000
-13.092700 0.000000
-13.061900 0.000000
-13.031100 0.000000
-13.000400 0.000000
-12.969600 0.000000
-12.938800 0.000000
-12.908000 0.000000
-12.877300 0.000000
-12.846500 0.000000
-12.815700 0.000000
-12.784900 0.000000
-12.754200 0.000000
-12.723400 0.000000
-12.692600 0.000000
-12.661800 0.000000
-12.631100 0.000000
-12.600300 0.000000
-12.569500 0.000000
-12.538700 0.000000
-12.508000 0.000000
-12.477200 0.000000
-12.446400 0.000000
-12.415600 0.000000
-12.384900 0.000000
-12.354100 0.000000
-12.323300 0.000000
-12.292500 0.000000
-12.261800 0.000000
-12.231000 0.000000
-12.200200 0.000000
-12.169400 0.000000
-12.138700 0.000000
-12.107900 0.000000
-12.077100 0.000000
-12.046300 0.000000
-12.015600 0.000000
-11.984800 0.000000
-11.954000 0.000000
-11.923200 0.000000
-11.892400 0.000000
-11.861700 0.000000
-11.830900 0.000000
-11.800100 0.000000
-11.769300 0.000000
-11.738600 0.000000
-11.707800 0.000000
-11.677000 0.000000
-11.646200 0.000000
-11.615500 0.000000
-11.584700 0.000000
-11.553900 0.000000
-11.523100 0.000000
-11.492400 0.000000
-11.461600 0.000000
-11.430800 0.000000
-11.400000 0.000000
-11.369300 0.000000
-11.338500 0.000000
-11.307700 0.000000
-11.276900 0.000000
-11.246200 0.000000
-11.215400 0.000000
-11.184600 0.000000
-11.153800 0.000000
-11.123100 0.000000
-11.092300 0.000000
-11.061500 0.000000
-11.030700 0.000000
-11.000000 0.000000
-10.969200 0.000000
-10.938400 0.000000
-10.907600 0.000000
-10.876800 0.000000
-10.846100 0.000000
-10.815300 0.000000
-10.784500 0.000000
-10.753700 0.000000
-10.723000 0.000000
-10.692200 0.000000
-10.661400 0.000000
-10.630600 0.000000
-10.599900 0.000000
-10.569100 0.000000
-10.538300 0.000000
-10.507500 0.000000
-10.476800 0.000000
-10.446000 0.000000
-10.415200 0.000000
-10.384400 0.000000
-10.353700 0.000000
-10.322900 0.000000
-10.292100 0.000000
-10.261300 0.000000
-10.230600 0.000000
-10.199800 0.000000
-10.169000 0.000000
-10.138200 0.000000
-10.107500 0.000000
-10.076700 0.000000
-10.045900 0.000000
-10.015100 0.000000
-9.984400 0.000000
-9.953600 0.000000
-9.922800 0.000000
-9.892000 0.000000
-9.861200 0.000000
-9.830500 0.000000
-9.799700 0.000000
-9.768900 0.000000
-9.738100 0.000000
-9.707400 0.000000
-9.676600 0.000000
-9.645800 0.000000
-9.615000 0.000000
-9.584300 0.000000
-9.553500 0.000000
-9.522700 0.000000
-9.491900 0.000000
-9.461200 0.000000
-9.430400 0.000000
-9.399600 0.000000
-9.368800 0.000000
-9.338100 0.000000
-9.307300 0.000000
-9.276500 0.000000
-9.245700 0.000000
-9.215000 0.000000
-9.184200 0.000000
-9.153400 0.000000
-9.122600 0.000000
-9.091900 0.000000
-9.061100 0.000000
-9.030300 0.000000
-8.999500 0.000000
-8.968800 0.000000
-8.938000 0.000000
-8.907200 0.000000
-8.876400 0.000000
-8.845700 0.000000
-8.814900 0.000000
-8.784100 0.000000
-8.753300 0.000000
-8.722500 0.000000
-8.691800 0.000000
-8.661000 0.000000
-8.630200 0.000000
-8.599400 0.000000
-8.568700 0.000000
-8.537900 0.000000
-8.507100 0.000000
-8.476300 0.000000
-8.445600 0.000000
-8.414800 0.000000
-8.384000 0.000000
-8.353200 0.000000
-8.322500 0.000000
-8.291700 0.000000
-8.260900 0.000000
-8.230100 0.000000
-8.199400 0.000000
-8.168600 0.000000
-8.137800 0.000000
-8.107000 0.000000
-8.076300 0.000000
-8.045500 0.000000
-8.014700 0.000000
-7.983900 0.000000
-7.953200 0.000000
-7.922400 0.000000
-7.891600 0.000000
-7.860800 0.000000
-7.830100 0.000000
-7.799300 0.000000
-7.768500 0.000000
-7.737700 0.000000
-7.706900 0.000000
-7.676200 0.000000
-7.645400 0.000000
-7.614600 0.000000
-7.583800 0.000000
-7.553100 0.000000
-7.522300 0.000000
-7.491500 0.000000
-7.460700 0.000000
-7.430000 0.000000
-7.399200 0.000000
-7.368400 0.000000
-7.337600 0.000000
-7.306900 0.000000
-7.276100 0.000000
-7.245300 0.000000
-7.214500 0.000000
-7.183800 0.000000
-7.153000 0.000000
-7.122200 0.000000
-7.091400 0.000000
-7.060700 0.000000
-7.029900 0.000000
-6.999100 0.000000
-6.968300 0.000000
-6.937600 0.000000
-6.906800 0.000000
-6.876000 0.000000
-6.845200 0.000000
-6.814500 0.000000
-6.783700 0.000000
-6.752900 0.000000
-6.722100 0.000000
-6.691300 0.000000
-6.660600 0.000000
-6.629800 0.000000
-6.599000 0.000000
-6.568200 0.000000
-6.537500 0.000000
-6.506700 0.000000
-6.475900 0.000000
-6.445100 0.000000
-6.414400 0.000000
-6.383600 0.000000
-6.352800 0.000000
-6.322000 0.000000
-6.291300 0.000000
-6.260500 0.000000
-6.229700 0.000000
-6.198900 0.000000
-6.168200 0.000000
-6.137400 0.000000
-6.106600 0.000400
-6.075800 0.003600
-6.045100 0.017800
-6.014300 0.045600
-5.983500 0.075000
-5.952700 0.122900
-5.922000 0.203200
-5.891200 0.262400
-5.860400 0.268800
-5.829600 0.246300
-5.798900 0.273500
-5.768100 0.366000
-5.737300 0.398200
-5.706500 0.321800
-5.675700 0.255600
-5.645000 0.324900
-5.614200 0.506000
-5.583400 0.679800
-5.552600 0.672200
-5.521900 0.516200
-5.491100 0.446900
-5.460300 0.481100
-5.429500 0.577300
-5.398800 0.729000
-5.368000 0.800200
-5.337200 0.707700
-5.306400 0.590100
-5.275700 0.641600
-5.244900 0.890500
-5.214100 1.136600
-5.183300 1.189600
-5.152600 1.106400
-5.121800 1.014600
-5.091000 1.005200
-5.060200 1.093400
-5.029500 1.105200
-4.998700 1.014300
-4.967900 0.945100
-4.937100 0.975400
-4.906400 1.157200
-4.875600 1.256700
-4.844800 1.045400
-4.814000 0.807400
-4.783300 0.829200
-4.752500 0.907200
-4.721700 0.829700
-4.690900 0.712200
-4.660200 0.733000
-4.629400 0.797000
-4.598600 0.792800
-4.567800 0.843700
-4.537000 0.938000
-4.506300 0.997800
-4.475500 0.975000
-4.444700 0.804000
-4.413900 0.661000
-4.383200 0.640000
-4.352400 0.575800
-4.321600 0.527800
-4.290800 0.621300
-4.260100 0.694700
-4.229300 0.605000
-4.198500 0.481800
-4.167700 0.538800
-4.137000 0.670200
-4.106200 0.632000
-4.075400 0.548500
-4.044600 0.677100
-4.013900 0.895100
-3.983100 0.882300
-3.952300 0.791600
-3.921500 0.808300
-3.890800 0.732800
-3.860000 0.677000
-3.829200 0.754500
-3.798400 0.762400
-3.767700 0.699400
-3.736900 0.646300
-3.706100 0.631000
-3.675300 0.634600
-3.644600 0.641400
-3.613800 0.803800
-3.583000 1.150200
-3.552200 1.484700
-3.521400 1.698900
-3.490700 1.774600
-3.459900 1.616700
-3.429100 1.207100
-3.398300 0.759100
-3.367600 0.409800
-3.336800 0.165600
-3.306000 0.042000
-3.275200 0.006000
-3.244500 0.000500
-3.213700 0.000000
-3.182900 0.000000
-3.152100 0.000000
-3.121400 0.000000
-3.090600 0.000000
-3.059800 0.000000
-3.029000 0.000000
-2.998300 0.000000
-2.967500 0.000000
-2.936700 0.000000
-2.905900 0.000000
-2.875200 0.000000
-2.844400 0.000000
-2.813600 0.000000
-2.782800 0.000000
-2.752100 0.000000
-2.721300 0.000000
-2.690500 0.000000
-2.659700 0.000000
-2.629000 0.000000
-2.598200 0.000000
-2.567400 0.000000
-2.536600 0.000000
-2.505800 0.000000
-2.475100 0.000000
-2.444300 0.000000
-2.413500 0.000000
-2.382700 0.000000
-2.352000 0.000000
-2.321200 0.000000
-2.290400 0.000000
-2.259600 0.000400
-2.228900 0.004500
-2.198100 0.026700
-2.167300 0.080400
-2.136500 0.135700
-2.105800 0.169400
-2.075000 0.214900
-2.044200 0.228400
-2.013400 0.159000
-1.982700 0.127600
-1.951900 0.235300
-1.921100 0.405000
-1.890300 0.470400
-1.859600 0.393600
-1.828800 0.350400
-1.798000 0.454400
-1.767200 0.504900
-1.736500 0.397700
-1.705700 0.386500
-1.674900 0.489400
-1.644100 0.492900
-1.613400 0.419400
-1.582600 0.389700
-1.551800 0.515100
-1.521000 0.746600
-1.490300 0.868300
-1.459500 0.902900
-1.428700 1.051500
-1.397900 1.184100
-1.367100 1.046100
-1.336400 0.772100
-1.305600 0.604100
-1.274800 0.532000
-1.244000 0.537700
-1.213300 0.696500
-1.182500 0.850600
-1.151700 0.710200
-1.120900 0.491500
-1.090200 0.648500
-1.059400 1.083300
-1.028600 1.400400
-0.997800 1.275800
-0.967100 0.755700
-0.936300 0.370500
-0.905500 0.350100
-0.874700 0.487300
-0.844000 0.588400
-0.813200 0.611700
-0.782400 0.588300
-0.751600 0.667500
-0.720900 0.899100
-0.690100 0.959200
-0.659300 0.656000
-0.628500 0.371900
-0.597800 0.330000
-0.567000 0.423800
-0.536200 0.584800
-0.505400 0.790000
-0.474700 1.033300
-0.443900 1.119900
-0.413100 0.958200
-0.382300 0.722400
-0.351500 0.595600
-0.320800 0.549800
-0.290000 0.471900
-0.259200 0.421700
-0.228400 0.418000
-0.197700 0.412100
-0.166900 0.407800
-0.136100 0.505400
-0.105300 0.808500
-0.074600 1.046400
-0.043800 0.916200
-0.013000 0.672700
0.017800 0.632200
0.048500 0.758500
0.079300 0.802500
0.110100 0.785600
0.140900 0.734600
0.171600 0.535000
0.202400 0.477700
0.233200 0.785800
0.264000 1.103600
0.294700 1.048100
0.325500 0.843400
0.356300 0.854800
0.387100 1.044300
0.417800 1.128900
0.448600 1.065800
0.479400 1.019600
0.510200 0.983300
0.540900 0.851800
0.571700 0.692900
0.602500 0.619800
0.633300 0.615100
0.664100 0.543200
0.694800 0.358500
0.725600 0.211100
0.756400 0.224000
0.787200 0.448000
0.817900 0.650600
0.848700 0.538400
0.879500 0.298200
0.910300 0.173000
0.941000 0.129900
0.971800 0.091900
1.002600 0.090900
1.033400 0.147200
1.064100 0.192700
1.094900 0.190600
1.125700 0.156400
1.156500 0.097300
1.187200 0.046100
1.218000 0.030100
1.248800 0.023200
1.279600 0.010600
1.310300 0.002400
1.341100 0.000300
1.371900 0.000000
1.402700 0.000000
1.433400 0.000000
1.464200 0.000000
1.495000 0.000000
1.525800 0.000000
1.556500 0.000400
1.587300 0.003600
1.618100 0.017800
1.648900 0.043500
1.679700 0.058800
1.710400 0.061000
1.741200 0.069500
1.772000 0.085400
1.802800 0.126600
1.833500 0.212900
1.864300 0.305900
1.895100 0.306600
1.925900 0.213100
1.956600 0.144100
1.987400 0.106600
2.018200 0.082100
2.049000 0.121000
2.079700 0.217200
2.110500 0.315300
2.141300 0.348400
2.172100 0.324900
2.202800 0.308400
2.233600 0.358200
2.264400 0.512900
2.295200 0.605500
2.325900 0.591700
2.356700 0.614600
2.387500 0.654500
2.418300 0.718800
2.449000 0.792400
2.479800 0.821900
2.510600 0.890300
2.541400 0.985200
2.572100 1.112900
2.602900 1.307000
2.633700 1.383400
2.664500 1.250200
2.695200 1.046300
2.726000 0.961200
2.756800 1.021900
2.787600 1.096700
2.818400 1.121600
2.849100 1.109300
2.879900 0.987800
2.910700 0.773000
2.941500 0.681600
2.972200 0.921800
3.003000 1.279300
3.033800 1.325800
3.064600 0.993100
3.095300 0.650900
3.126100 0.718400
3.156900 1.283400
3.187700 1.814200
3.218400 1.644800
3.249200 1.019700
3.280000 0.566400
3.310800 0.574800
3.341500 0.941500
3.372300 1.151400
3.403100 0.915900
3.433900 0.673300
3.464600 0.875100
3.495400 1.226100
3.526200 1.161400
3.557000 0.961900
3.587700 1.102000
3.618500 1.252900
3.649300 1.089900
3.680100 0.913800
3.710800 1.041300
3.741600 1.268000
3.772400 1.426900
3.803200 1.687100
3.834000 1.785600
3.864700 1.489900
3.895500 1.145300
3.926300 0.979100
3.957100 0.988100
3.987800 1.136100
4.018600 1.333300
4.049400 1.527000
4.080200 1.616000
4.110900 1.507600
4.141700 1.295800
4.172500 1.142600
4.203300 1.135700
4.234000 1.373700
4.264800 1.724100
4.295600 1.781600
4.326400 1.576800
4.357100 1.439500
4.387900 1.290600
4.418700 1.050900
4.449500 0.953800
4.480200 1.257400
4.511000 1.629300
4.541800 1.687100
4.572600 1.584000
4.603300 1.389800
4.634100 1.270000
4.664900 1.456300
4.695700 1.662500
4.726400 1.636500
4.757200 1.625600
4.788000 1.774500
4.818800 1.966400
4.849600 1.931900
4.880300 1.626700
4.911100 1.359600
4.941900 1.380900
4.972700 1.647800
5.003400 1.823700
5.034200 1.719300
5.065000 1.404600
5.095800 1.081500
5.126500 1.069500
5.157300 1.359700
5.188100 1.565700
5.218900 1.449800
5.249600 1.123800
5.280400 0.880300
5.311200 0.758800
5.342000 0.689600
5.372700 0.796000
5.403500 1.073400
5.434300 1.312800
5.465100 1.438600
5.495800 1.372200
5.526600 1.186000
5.557400 1.244800
5.588200 1.571000
5.618900 1.712000
5.649700 1.507300
5.680500 1.351300
5.711300 1.465900
5.742000 1.542200
5.772800 1.365200
5.803600 1.145300
5.834400 0.965800
5.865100 0.831900
5.895900 0.879000
5.926700 1.011600
5.957500 0.984000
5.988300 0.836300
6.019000 0.680700
6.049800 0.609500
6.080600 0.797300
6.111400 1.167200
6.142100 1.397700
6.172900 1.412300
6.203700 1.373700
6.234500 1.367100
6.265200 1.379700
6.296000 1.331200
6.326800 1.150600
6.357600 0.914800
6.388300 0.823100
6.419100 0.931100
6.449900 1.022600
6.480700 0.993300
6.511400 1.040500
6.542200 1.211300
6.573000 1.268200
6.603800 1.112400
6.634500 0.980500
6.665300 0.909600
6.696100 0.902300
6.726900 1.175600
6.757600 1.445400
6.788400 1.245400
6.819200 1.012100
6.850000 1.152100
6.880700 1.203300
6.911500 1.026500
6.942300 1.013100
6.973100 1.092200
7.003900 0.951900
7.034600 0.749300
7.065400 0.659800
7.096200 0.632900
7.127000 0.711600
7.157700 0.838500
7.188500 0.950700
7.219300 1.106700
7.250100 1.202000
7.280800 1.070500
7.311600 0.917600
7.342400 1.260300
7.373200 2.002500
7.403900 2.104400
7.434700 1.285200
7.465500 0.570700
7.496300 0.464300
7.527000 0.668400
7.557800 0.941100
7.588600 1.117500
7.619400 1.120700
7.650100 1.115000
7.680900 1.142700
7.711700 1.238100
7.742500 1.508300
7.773200 1.580200
7.804000 1.268800
7.834800 0.991600
7.865600 0.968300
7.896300 1.129000
7.927100 1.306700
7.957900 1.314200
7.988700 1.230200
8.019500 1.263700
8.050200 1.350700
8.081000 1.194300
8.111800 0.796200
8.142600 0.479500
8.173300 0.454300
8.204100 0.696600
8.234900 0.815600
8.265700 0.541300
8.296400 0.253300
8.327200 0.302400
8.358000 0.669600
8.388800 1.167600
8.419500 1.378500
8.450300 1.148600
8.481100 0.913200
8.511900 0.923700
8.542600 0.995300
8.573400 1.045600
8.604200 1.183700
8.635000 1.319600
8.665700 1.431700
8.696500 1.541200
8.727300 1.430500
8.758100 1.194700
8.788800 1.111400
8.819600 1.155900
8.850400 1.264400
8.881200 1.460300
8.911900 1.604900
8.942700 1.626200
8.973500 1.663400
9.004300 1.683200
9.035100 1.611000
9.065800 1.539100
9.096600 1.560000
9.127400 1.545900
9.158200 1.475700
9.188900 1.534100
9.219700 1.593300
9.250500 1.583600
9.281300 1.712300
9.312000 1.981400
9.342800 2.331100
9.373600 2.772000
9.404400 3.049200
9.435100 2.774700
9.465900 2.187600
9.496700 1.913700
9.527500 1.737300
9.558200 1.550600
9.589000 1.663200
9.619800 1.919000
9.650600 1.998000
9.681300 1.770400
9.712100 1.461600
9.742900 1.415600
9.773700 1.633300
9.804400 1.771000
9.835200 1.545700
9.866000 1.281900
9.896800 1.380100
9.927500 1.697700
9.958300 1.967200
9.989100 2.063700
10.019900 1.960300
10.050600 1.685900
10.081400 1.540500
10.112200 1.728000
10.143000 1.912600
10.173800 1.748800
10.204500 1.430900
10.235300 1.250500
10.266100 1.040600
10.296900 0.782300
10.327600 0.713700
10.358400 0.877800
10.389200 1.074300
10.420000 1.136100
10.450700 1.095400
10.481500 1.075200
10.512300 1.084900
10.543100 1.064900
10.573800 1.107000
10.604600 1.231900
10.635400 1.301600
10.666200 1.367200
10.696900 1.496000
10.727700 1.528900
10.758500 1.378100
10.789300 1.324800
10.820000 1.485600
10.850800 1.606600
10.881600 1.475600
10.912400 1.280000
10.943100 1.214400
10.973900 1.125800
11.004700 0.967400
11.035500 0.989600
11.066200 1.320000
11.097000 1.544500
11.127800 1.397400
11.158600 1.270400
11.189400 1.262800
11.220100 1.104800
11.250900 1.076900
11.281700 1.495500
11.312500 1.909800
11.343200 1.838500
11.374000 1.531300
11.404800 1.311400
11.435600 1.176800
11.466300 0.983800
11.497100 0.720400
11.527900 0.515000
11.558700 0.441000
11.589400 0.499300
11.620200 0.567600
11.651000 0.619000
11.681800 0.768500
11.712500 1.048600
11.743300 1.289200
11.774100 1.407900
11.804900 1.533900
11.835600 1.617200
11.866400 1.450400
11.897200 1.113000
11.928000 0.936400
11.958700 1.047200
11.989500 1.251700
12.020300 1.165800
12.051100 0.946500
12.081800 0.926400
12.112600 0.951200
12.143400 1.036200
12.174200 1.307900
12.205000 1.564600
12.235700 1.542100
12.266500 1.221500
12.297300 0.853200
12.328100 0.731300
12.358800 1.103400
12.389600 1.738200
12.420400 1.960300
12.451200 1.647900
12.481900 1.260500
12.512700 1.080900
12.543500 1.084500
12.574300 1.113300
12.605000 1.106200
12.635800 1.087600
12.666600 1.021800
12.697400 0.974900
12.728100 0.972700
12.758900 0.932800
12.789700 0.968400
12.820500 1.241400
12.851200 1.465100
12.882000 1.480200
12.912800 1.454700
12.943600 1.388900
12.974300 1.387500
13.005100 1.268000
13.035900 0.927600
13.066700 0.840300
13.097400 1.106700
13.128200 1.314300
13.159000 1.336900
13.189800 1.204100
13.220600 0.922300
13.251300 0.672300
13.282100 0.623100
13.312900 0.790100
13.343700 1.046300
13.374400 1.107500
13.405200 1.028800
13.436000 1.038700
13.466800 1.032300
13.497500 1.112200
13.528300 1.476800
13.559100 1.783500
13.589900 1.623900
13.620600 1.151700
13.651400 0.886200
13.682200 1.111200
13.713000 1.644000
13.743700 2.008300
13.774500 2.119600
13.805300 2.355300
13.836100 2.346700
13.866800 1.739900
