set title 'mp-10190 - Density of States'
set xlabel 'Energy (eV)'
set ylabel 'DOS (states/eV)'
set grid
set xrange [-10:10]
set yrange [0:2.322]
set xzeroaxis lt -1
set terminal png size 800,600
set output 'mp-10190_dos_gnuplot.png'
plot '-' using 1:2 with lines title 'DOS'
-33.085900 0.000000
-32.989100 0.000000
-32.892400 0.000000
-32.795700 0.000000
-32.698900 0.000000
-32.602200 0.000000
-32.505400 0.000000
-32.408700 0.000000
-32.312000 0.000000
-32.215200 0.000000
-32.118500 0.000000
-32.021800 0.000000
-31.925000 0.000000
-31.828300 0.000000
-31.731600 0.000000
-31.634800 0.000000
-31.538100 0.000000
-31.441400 0.000000
-31.344600 0.000000
-31.247900 0.000000
-31.151200 0.000000
-31.054400 0.000000
-30.957700 0.000000
-30.861000 0.000000
-30.764200 0.000000
-30.667500 0.000000
-30.570800 0.000000
-30.474000 0.000000
-30.377300 0.000000
-30.280600 0.000000
-30.183800 0.000000
-30.087100 0.000000
-29.990400 0.000000
-29.893600 0.000000
-29.796900 0.000000
-29.700200 0.000000
-29.603400 0.000000
-29.506700 0.000000
-29.409900 0.000000
-29.313200 0.000000
-29.216500 0.000000
-29.119700 0.000000
-29.023000 0.000000
-28.926300 0.000000
-28.829500 0.000000
-28.732800 0.000000
-28.636100 0.000000
-28.539300 0.000000
-28.442600 0.000000
-28.345900 0.000000
-28.249100 0.000000
-28.152400 0.000000
-28.055700 0.000000
-27.958900 0.000000
-27.862200 0.000000
-27.765500 0.000000
-27.668700 0.000000
-27.572000 0.000000
-27.475300 0.000000
-27.378500 0.000000
-27.281800 0.000000
-27.185100 0.000000
-27.088300 0.000000
-26.991600 0.000000
-26.894900 0.000000
-26.798100 0.000000
-26.701400 0.000000
-26.604700 0.000000
-26.507900 0.000000
-26.411200 0.000000
-26.314400 0.000000
-26.217700 0.000000
-26.121000 0.000000
-26.024200 0.000000
-25.927500 0.000000
-25.830800 0.000000
-25.734000 0.000000
-25.637300 0.000000
-25.540600 0.000000
-25.443800 0.000000
-25.347100 0.000000
-25.250400 0.000000
-25.153600 0.000000
-25.056900 0.000000
-24.960200 0.000000
-24.863400 0.000000
-24.766700 0.000000
-24.670000 0.000000
-24.573200 0.000000
-24.476500 0.000000
-24.379800 0.000000
-24.283000 1.416000
-24.186300 7.134700
-24.089600 4.737500
-23.992800 8.618300
-23.896100 9.591900
-23.799400 0.000000
-23.702600 0.000000
-23.605900 0.000000
-23.509200 0.000000
-23.412400 0.000000
-23.315700 0.000000
-23.218900 0.000000
-23.122200 0.000000
-23.025500 0.000000
-22.928700 0.000000
-22.832000 0.000000
-22.735300 0.000000
-22.638500 0.000000
-22.541800 0.000000
-22.445100 0.000000
-22.348300 0.000000
-22.251600 0.000000
-22.154900 0.000000
-22.058100 0.000000
-21.961400 0.000000
-21.864700 0.000000
-21.767900 0.000000
-21.671200 0.000000
-21.574500 0.000000
-21.477700 0.000000
-21.381000 0.000000
-21.284300 0.000000
-21.187500 0.000000
-21.090800 0.000000
-20.994100 0.000000
-20.897300 0.000000
-20.800600 0.000000
-20.703900 0.000000
-20.607100 0.000000
-20.510400 0.000000
-20.413700 0.000000
-20.316900 0.000000
-20.220200 0.000000
-20.123400 0.000000
-20.026700 0.000000
-19.930000 0.000000
-19.833200 0.000000
-19.736500 0.000000
-19.639800 0.000000
-19.543000 0.000000
-19.446300 0.000000
-19.349600 0.000000
-19.252800 0.000000
-19.156100 0.000000
-19.059400 0.000000
-18.962600 0.000000
-18.865900 0.000000
-18.769200 0.000000
-18.672400 0.000000
-18.575700 0.000000
-18.479000 0.000000
-18.382200 0.000000
-18.285500 0.000000
-18.188800 0.000000
-18.092000 0.000000
-17.995300 0.000000
-17.898600 0.000000
-17.801800 0.000000
-17.705100 0.000000
-17.608400 0.000000
-17.511600 0.000000
-17.414900 0.000000
-17.318200 0.000000
-17.221400 0.000000
-17.124700 0.000000
-17.027900 0.000000
-16.931200 0.000000
-16.834500 0.000000
-16.737700 0.000000
-16.641000 0.000000
-16.544300 0.000000
-16.447500 0.000000
-16.350800 0.000000
-16.254100 0.000000
-16.157300 0.000000
-16.060600 0.000000
-15.963900 0.000000
-15.867100 0.000000
-15.770400 0.000000
-15.673700 0.000000
-15.576900 0.000000
-15.480200 0.000000
-15.383500 0.000000
-15.286700 0.000000
-15.190000 0.000000
-15.093300 0.000000
-14.996500 0.000000
-14.899800 0.000000
-14.803100 0.000000
-14.706300 0.000000
-14.609600 0.000000
-14.512900 0.000000
-14.416100 0.000000
-14.319400 0.000000
-14.222700 0.000000
-14.125900 0.000000
-14.029200 0.000000
-13.932500 0.000000
-13.835700 0.000000
-13.739000 0.000000
-13.642200 0.000000
-13.545500 0.000000
-13.448800 0.000000
-13.352000 0.000000
-13.255300 0.000000
-13.158600 0.000000
-13.061800 0.000000
-12.965100 0.000000
-12.868400 0.000000
-12.771600 0.000000
-12.674900 0.000000
-12.578200 0.000000
-12.481400 0.000000
-12.384700 0.000000
-12.288000 0.000000
-12.191200 0.000000
-12.094500 0.000000
-11.997800 0.000000
-11.901000 0.000000
-11.804300 0.000000
-11.707600 0.000000
-11.610800 0.000000
-11.514100 0.000000
-11.417400 0.000000
-11.320600 0.000000
-11.223900 0.000000
-11.127200 0.000000
-11.030400 0.000000
-10.933700 0.000000
-10.837000 0.000000
-10.740200 0.000000
-10.643500 0.000000
-10.546700 0.000000
-10.450000 0.000000
-10.353300 0.000000
-10.256500 0.000000
-10.159800 0.000000
-10.063100 0.000000
-9.966300 0.000000
-9.869600 0.000000
-9.772900 0.000000
-9.676100 0.000000
-9.579400 0.000000
-9.482700 0.000000
-9.385900 0.000000
-9.289200 0.000000
-9.192500 0.000000
-9.095700 0.000000
-8.999000 0.000000
-8.902300 0.000000
-8.805500 0.000000
-8.708800 0.000000
-8.612100 0.000000
-8.515300 0.000000
-8.418600 0.000000
-8.321900 0.000000
-8.225100 0.000000
-8.128400 0.000000
-8.031700 0.000000
-7.934900 0.000000
-7.838200 0.000000
-7.741500 0.000000
-7.644700 0.000000
-7.548000 0.000000
-7.451200 0.000000
-7.354500 0.000000
-7.257800 0.000000
-7.161000 0.000000
-7.064300 0.000000
-6.967600 0.000000
-6.870800 0.000000
-6.774100 0.000000
-6.677400 0.000000
-6.580600 0.000000
-6.483900 0.000000
-6.387200 0.000000
-6.290400 0.000000
-6.193700 0.000000
-6.097000 0.000000
-6.000200 0.000000
-5.903500 0.000000
-5.806800 0.000000
-5.710000 0.000000
-5.613300 0.000000
-5.516600 0.000000
-5.419800 0.000000
-5.323100 0.000000
-5.226400 0.000000
-5.129600 0.000000
-5.032900 0.000000
-4.936200 0.000000
-4.839400 0.000000
-4.742700 0.000000
-4.646000 0.000000
-4.549200 0.000000
-4.452500 0.000000
-4.355700 0.000000
-4.259000 0.000000
-4.162300 0.000000
-4.065500 0.000000
-3.968800 0.000000
-3.872100 0.000000
-3.775300 0.000000
-3.678600 0.000000
-3.581900 0.000000
-3.485100 0.000000
-3.388400 0.000000
-3.291700 0.000000
-3.194900 0.000000
-3.098200 0.017100
-3.001500 0.028000
-2.904700 0.031000
-2.808000 0.037800
-2.711300 0.043700
-2.614500 0.047500
-2.517800 0.051000
-2.421100 0.056700
-2.324300 0.062600
-2.227600 0.065000
-2.130900 0.069100
-2.034100 0.073300
-1.937400 0.077900
-1.840700 0.083300
-1.743900 0.087200
-1.647200 0.091300
-1.550500 0.095300
-1.453700 0.100600
-1.357000 0.105900
-1.260200 0.111000
-1.163500 0.116300
-1.066800 0.121600
-0.970000 0.127400
-0.873300 0.132900
-0.776600 0.139900
-0.679800 0.147100
-0.583100 0.154600
-0.486400 0.162500
-0.389600 0.171400
-0.292900 0.181400
-0.196200 0.191600
-0.099400 0.205300
-0.002700 0.219800
0.094000 0.237500
0.190800 0.259700
0.287500 0.294300
0.384200 0.363300
0.481000 0.365500
0.577700 0.360400
0.674400 0.353800
0.771200 0.350600
0.867900 0.340400
0.964600 0.337200
1.061400 0.336500
1.158100 0.335600
1.254800 0.327900
1.351600 0.326200
1.448300 0.405300
1.545000 0.554600
1.641800 0.568200
1.738500 0.447800
1.835300 0.345000
1.932000 0.295400
2.028700 0.261900
2.125500 0.214500
2.222200 0.234500
2.318900 0.258400
2.415700 0.297600
2.512400 0.349800
2.609100 0.488400
2.705900 1.164800
2.802600 1.205700
2.899300 1.188600
2.996100 1.222000
3.092800 1.237500
3.189500 1.292900
3.286300 1.128300
3.383000 0.956300
3.479700 0.860100
3.576500 0.788900
3.673200 0.728000
3.769900 0.680500
3.866700 0.630800
3.963400 0.594800
4.060100 0.549300
4.156900 0.514000
4.253600 0.489000
4.350300 0.465400
4.447100 0.427700
4.543800 0.391600
4.640500 0.373700
4.737300 0.281700
4.834000 0.201700
4.930800 0.136800
5.027500 0.115000
5.124200 0.171200
5.221000 0.225800
5.317700 0.317800
5.414400 0.370500
5.511200 0.428700
5.607900 0.420100
5.704600 0.412200
5.801400 0.430000
5.898100 0.452500
5.994800 0.482800
6.091600 0.503700
6.188300 0.516100
6.285000 0.535500
6.381800 0.564700
6.478500 0.610200
6.575200 0.671800
6.672000 0.744100
6.768700 0.777900
6.865400 0.768600
6.962200 0.778500
7.058900 0.675200
7.155600 0.793900
7.252400 0.864400
7.349100 0.996500
7.445800 1.231100
7.542600 1.399500
7.639300 1.628000
7.736000 2.013000
7.832800 2.110800
7.929500 1.630200
8.026200 0.691600
8.123000 0.459300
8.219700 0.405200
8.316500 0.314000
8.413200 0.250700
8.509900 0.253000
8.606700 0.260300
8.703400 0.270300
8.800100 0.283000
8.896900 0.299000
8.993600 0.318600
9.090300 0.342100
9.187100 0.418700
9.283800 0.460000
9.380500 0.485700
9.477300 0.480500
9.574000 0.470700
9.670700 0.466000
9.767500 0.486900
9.864200 0.472800
9.960900 0.390300
10.057700 0.202400
10.154400 0.098400
10.251100 0.040600
10.347900 0.094900
10.444600 0.285100
10.541300 0.584400
10.638100 0.570500
10.734800 0.544100
10.831500 0.523500
10.928300 0.507700
11.025000 0.497600
11.121700 0.484100
11.218500 0.451500
11.315200 0.355200
11.412000 0.333800
11.508700 0.317400
11.605400 0.304600
11.702200 0.267400
11.798900 0.272300
11.895600 0.283100
11.992400 0.289300
12.089100 0.307000
12.185800 0.315700
12.282600 0.352200
12.379300 0.400300
12.476000 0.425900
12.572800 0.457300
12.669500 0.522800
12.766200 0.617900
12.863000 0.641000
12.959700 0.584300
13.056400 0.573500
13.153200 0.558500
13.249900 0.562400
13.346600 0.531800
13.443400 0.493600
13.540100 0.463200
13.636800 0.447600
13.733600 0.432200
13.830300 0.421900
13.927000 0.421500
14.023800 0.436800
14.120500 0.471300
14.217200 0.545200
14.314000 0.614900
14.410700 0.612400
14.507500 0.603900
14.604200 0.612800
14.700900 0.641600
14.797700 0.656900
14.894400 0.546300
14.991100 0.530600
15.087900 0.527200
15.184600 0.546800
15.281300 0.589000
15.378100 0.650100
15.474800 0.671400
15.571500 0.553600
15.668300 0.467500
15.765000 0.432200
15.861700 0.411800
15.958500 0.378900
16.055200 0.325600
16.151900 0.297300
16.248700 0.276000
16.345400 0.260600
16.442100 0.249600
16.538900 0.244300
16.635600 0.246900
16.732300 0.236900
16.829100 0.236300
16.925800 0.235400
17.022500 0.233300
17.119300 0.229000
17.216000 0.237900
17.312700 0.258500
17.409500 0.229500
17.506200 0.258100
17.603000 0.268700
17.699700 0.292700
17.796400 0.339200
17.893200 0.383300
17.989900 0.427500
18.086600 0.499400
18.183400 0.743900
18.280100 1.048100
18.376800 0.659700
18.473600 0.545100
18.570300 0.478100
18.667000 0.503600
18.763800 0.512200
18.860500 0.548700
18.957200 0.591100
19.054000 0.591600
19.150700 0.659000
19.247400 0.583600
19.344200 0.545700
19.440900 0.543600
19.537600 0.516500
19.634400 0.480300
19.731100 0.373600
19.827800 0.350300
19.924600 0.369100
20.021300 0.405600
20.118000 0.450000
20.214800 0.507600
20.311500 0.581100
20.408200 0.645300
20.505000 0.753900
20.601700 0.824800
20.698500 0.716700
20.795200 0.640900
20.891900 0.590300
20.988700 0.549800
21.085400 0.514600
21.182100 0.479800
21.278900 0.454300
21.375600 0.440400
21.472300 0.426900
21.569100 0.398000
21.665800 0.387200
21.762500 0.425600
21.859300 0.404900
21.956000 0.386300
22.052700 0.399400
22.149500 0.604300
22.246200 0.696400
22.342900 0.672100
22.439700 0.654100
22.536400 0.637700
22.633100 0.598100
22.729900 0.571400
22.826600 0.564200
22.923300 0.578600
23.020100 0.616200
23.116800 0.562800
23.213500 0.535800
23.310300 0.567000
23.407000 0.621800
23.503700 0.659500
23.600500 0.677900
23.697200 0.684800
23.794000 0.702400
23.890700 0.644600
23.987400 0.689300
24.084200 0.562900
24.180900 0.487700
24.277600 0.429800
24.374400 0.401400
24.471100 0.370900
24.567800 0.347800
24.664600 0.339400
24.761300 0.328200
24.858000 0.329400
24.954800 0.328200
25.051500 0.353900
25.148200 0.390900
25.245000 0.442600
25.341700 0.467400
25.438400 0.510900
25.535200 0.607000
25.631900 0.678600
25.728600 0.686700
25.825400 0.686300
25.922100 0.682000
26.018800 0.688900
26.115600 0.693400
26.212300 0.673000
26.309000 0.637000
26.405800 0.633000
26.502500 0.630200
26.599200 0.633100
26.696000 0.634800
26.792700 0.555700
26.889500 0.539500
26.986200 0.532700
27.082900 0.516200
27.179700 0.496000
27.276400 0.503600
27.373100 0.519200
27.469900 0.564700
27.566600 0.567300
27.663300 0.611500
27.760100 0.639100
27.856800 0.674000
27.953500 0.638700
28.050300 0.590400
28.147000 0.549100
28.243700 0.485200
28.340500 0.470600
28.437200 0.487300
28.533900 0.464300
28.630700 0.491300
28.727400 0.532900
28.824100 0.628500
28.920900 0.746000
29.017600 0.810000
29.114300 0.831300
29.211100 0.846400
29.307800 0.833400
29.404500 0.738500
29.501300 0.671000
29.598000 0.518500
29.694700 0.518700
29.791500 0.522000
29.888200 0.544100
29.984900 0.590400
30.081700 0.646500
30.178400 0.708400
30.275200 0.783500
30.371900 0.784300
30.468600 0.753800
30.565400 0.729200
30.662100 0.711700
30.758800 0.699000
30.855600 0.692200
30.952300 0.684800
31.049000 0.672100
31.145800 0.634300
31.242500 0.635700
31.339200 0.693200
31.436000 0.668800
31.532700 0.740100
31.629400 0.820100
31.726200 0.812000
31.822900 0.768200
31.919600 0.760200
32.016400 0.778700
32.113100 0.662100
32.209800 0.494200
32.306600 0.426600
32.403300 0.378700
32.500000 0.357600
32.596800 0.327600
32.693500 0.316500
32.790200 0.354800
32.887000 0.359800
32.983700 0.446200
33.080400 0.492400
33.177200 0.548500
33.273900 0.623800
33.370700 0.709500
33.467400 0.786600
33.564100 0.726300
33.660900 0.691900
33.757600 0.583900
33.854300 0.536800
33.951100 0.478700
34.047800 0.441800
34.144500 0.432600
34.241300 0.432600
34.338000 0.596800
34.434700 0.697500
34.531500 0.671500
34.628200 0.632700
34.724900 0.646300
34.821700 0.682700
34.918400 0.722200
35.015100 0.664100
35.111900 0.658900
35.208600 0.746400
35.305300 0.758300
35.402100 0.756500
35.498800 0.741200
35.595500 0.701300
35.692300 0.634400
35.789000 0.590700
35.885700 0.573600
35.982500 0.576800
36.079200 0.586100
36.175900 0.620100
36.272700 0.683900
36.369400 0.719700
36.466200 0.744300
36.562900 0.803100
36.659600 0.789700
36.756400 0.708200
36.853100 0.624000
36.949800 0.633300
37.046600 0.526600
37.143300 0.474700
37.240000 0.466200
37.336800 0.487600
37.433500 0.528400
37.530200 0.604000
37.627000 0.663200
37.723700 0.738200
37.820400 0.754600
37.917200 0.748700
38.013900 0.658300
38.110600 0.620500
38.207400 0.621300
38.304100 0.628900
38.400800 0.687200
38.497600 0.682600
38.594300 0.734400
38.691000 0.800700
38.787800 0.850500
38.884500 0.882000
38.981200 0.824700
39.078000 0.752500
39.174700 0.722200
39.271400 0.687000
39.368200 0.635400
39.464900 0.615100
39.561700 0.612800
39.658400 0.625100
39.755100 0.605000
39.851900 0.583800
39.948600 0.588200
40.045300 0.602500
40.142100 0.673000
40.238800 0.723700
40.335500 0.758600
40.432300 0.794100
40.529000 0.807200
40.625700 0.839000
40.722500 0.890600
40.819200 0.781300
40.915900 0.743700
41.012700 0.740100
41.109400 0.767200
41.206100 0.776700
41.302900 0.809400
41.399600 0.843100
41.496300 0.762700
41.593100 0.686900
41.689800 0.663100
41.786500 0.658700
41.883300 0.651500
41.980000 0.661400
42.076700 0.720600
42.173500 0.759800
42.270200 0.783700
42.366900 0.831200
42.463700 0.786300
42.560400 0.747100
42.657200 0.742700
42.753900 0.715800
42.850600 0.688300
42.947400 0.707600
43.044100 0.818000
43.140800 0.766900
43.237600 0.744100
43.334300 0.692700
43.431000 0.638900
43.527800 0.580400
43.624500 0.627400
43.721200 0.718800
43.818000 0.797500
43.914700 0.765900
44.011400 0.761600
44.108200 0.744000
44.204900 0.777300
44.301600 0.844900
44.398400 0.850500
44.495100 0.820300
44.591800 0.766500
44.688600 0.665000
44.785300 0.668300
44.882000 0.734800
44.978800 0.808300
45.075500 0.886700
45.172200 1.025100
45.269000 1.061700
45.365700 0.957800
45.462400 0.912700
45.559200 1.012500
45.655900 1.027800
45.752700 0.932400
45.849400 0.886900
45.946100 0.888700
46.042900 0.858000
46.139600 0.908500
46.236300 1.089000
46.333100 1.131600
46.429800 1.160800
46.526500 1.053200
46.623300 1.040800
46.720000 0.998200
46.816700 1.033300
46.913500 0.931100
47.010200 0.842800
47.106900 0.743400
47.203700 0.718300
47.300400 0.719200
47.397100 0.856500
47.493900 1.144600
47.590600 1.159600
47.687300 1.011600
47.784100 0.884600
47.880800 0.830500
47.977500 0.901200
48.074300 0.796900
48.171000 0.771800
48.267700 0.762000
48.364500 0.784300
48.461200 0.823600
48.557900 0.875400
48.654700 0.970700
48.751400 1.004900
48.848200 1.002900
48.944900 0.963300
49.041600 0.870200
49.138400 0.823700
49.235100 0.776400
49.331800 0.749500
49.428600 0.742500
49.525300 0.732000
49.622000 0.770200
49.718800 0.764900
49.815500 0.739300
49.912200 0.747800
50.009000 0.785200
50.105700 0.832500
50.202400 0.881400
50.299200 0.838700
50.395900 0.830400
50.492600 0.802800
50.589400 0.754500
50.686100 0.735400
50.782800 0.757000
50.879600 0.804000
50.976300 0.765700
51.073000 0.745000
51.169800 0.710900
51.266500 0.684300
51.363200 0.645700
51.460000 0.648000
51.556700 0.661900
51.653400 0.715900
51.750200 0.779400
51.846900 0.808400
51.943700 0.796800
52.040400 0.786100
52.137100 0.793200
52.233900 0.807700
52.330600 0.831800
52.427300 0.816900
52.524100 0.846800
52.620800 0.836600
52.717500 0.829100
52.814300 0.837000
52.911000 0.886500
53.007700 0.832600
53.104500 0.813500
53.201200 0.768600
53.297900 0.833900
53.394700 0.890500
53.491400 0.819500
53.588100 0.763800
53.684900 0.707900
53.781600 0.698600
53.878300 0.719500
53.975100 0.778600
54.071800 0.781200
54.168500 0.809600
54.265300 0.837700
54.362000 0.838900
54.458700 0.816100
54.555500 0.826700
54.652200 0.844900
54.748900 0.815900
54.845700 0.726800
54.942400 0.712900
55.039100 0.702300
55.135900 0.763600
55.232600 0.835800
55.329400 0.888700
55.426100 0.904900
55.522800 0.847400
55.619600 0.767800
55.716300 0.708300
55.813000 0.788900
55.909800 0.922800
56.006500 1.012300
56.103200 1.080100
56.200000 1.143600
56.296700 1.130100
56.393400 1.002600
56.490200 0.796700
56.586900 0.688400
56.683600 0.581300
56.780400 0.629300
56.877100 0.760600
56.973800 0.920900
57.070600 0.992500
57.167300 0.985100
57.264000 0.952400
57.360800 0.884700
57.457500 0.825500
57.554200 0.747200
57.651000 0.721100
57.747700 0.751100
57.844400 0.755700
57.941200 0.799200
58.037900 0.859200
58.134600 0.927500
58.231400 1.000800
58.328100 1.025900
58.424900 0.947400
58.521600 0.854300
58.618300 0.811300
58.715100 0.824800
58.811800 0.858100
58.908500 0.887000
59.005300 0.816000
59.102000 0.806500
59.198700 0.810400
59.295500 0.805500
59.392200 0.790700
59.488900 0.793200
59.585700 0.793800
59.682400 0.791500
59.779100 0.786300
59.875900 0.813800
59.972600 0.837500
60.069300 0.830200
60.166100 0.840500
60.262800 0.833600
60.359500 0.861300
60.456300 0.849300
60.553000 0.827600
60.649700 0.746500
60.746500 0.754000
60.843200 0.774600
60.939900 0.799400
61.036700 0.832300
61.133400 0.851600
61.230100 0.820500
61.326900 0.821300
61.423600 0.811300
61.520400 0.821900
61.617100 0.925200
61.713800 0.981100
61.810600 0.960400
61.907300 0.937900
62.004000 0.884100
62.100800 0.840400
62.197500 0.812500
62.294200 0.827700
62.391000 0.849000
62.487700 0.888300
62.584400 0.964100
62.681200 0.949900
62.777900 0.913800
62.874600 0.853800
62.971400 0.787500
63.068100 0.799000
63.164800 0.748300
63.261600 0.733300
63.358300 0.747800
63.455000 0.872700
63.551800 0.895300
63.648500 0.870800
63.745200 0.895200
63.842000 0.865600
63.938700 0.855800
64.035400 0.905100
64.132200 0.922400
64.228900 0.884600
64.325600 0.815700
64.422400 0.759800
64.519100 0.720700
64.615900 0.703200
64.712600 0.713100
64.809300 0.778700
64.906100 0.836200
65.002800 0.884900
65.099500 0.936700
65.196300 1.032200
65.293000 1.022500
65.389700 0.973700
65.486500 0.904300
65.583200 0.923300
65.679900 0.936400
65.776700 0.966000
65.873400 0.890400
65.970100 0.950600
66.066900 0.923300
66.163600 0.924200
66.260300 0.937500
66.357100 0.890200
66.453800 0.872500
66.550500 0.822000
