set title 'mp-999293 - Density of States'
set xlabel 'Energy (eV)'
set ylabel 'DOS (states/eV)'
set grid
set xrange [-10:10]
set yrange [0:12.390]
set xzeroaxis lt -1
set terminal png size 800,600
set output 'mp-999293_dos_gnuplot.png'
plot '-' using 1:2 with lines title 'DOS'
-13.870700 0.000000
-13.842400 0.000000
-13.814000 0.000000
-13.785700 0.000000
-13.757300 0.000000
-13.729000 0.000000
-13.700600 0.000000
-13.672300 0.000000
-13.643900 0.000000
-13.615600 0.000000
-13.587200 0.000000
-13.558900 0.000000
-13.530500 0.000000
-13.502200 0.000000
-13.473800 0.000000
-13.445500 0.000000
-13.417100 0.000000
-13.388800 0.000000
-13.360400 0.000000
-13.332100 0.000000
-13.303700 0.000000
-13.275400 0.000000
-13.247000 0.000000
-13.218700 0.000000
-13.190300 0.000000
-13.162000 0.000000
-13.133600 0.000000
-13.105300 0.000000
-13.076900 0.000000
-13.048600 0.000000
-13.020200 0.000000
-12.991900 0.000000
-12.963500 0.000000
-12.935200 0.000000
-12.906800 0.000000
-12.878500 0.000000
-12.850200 0.000000
-12.821800 0.000000
-12.793500 0.000000
-12.765100 0.000000
-12.736800 0.000000
-12.708400 0.000000
-12.680100 0.000000
-12.651700 0.000000
-12.623400 0.000000
-12.595000 0.000000
-12.566700 0.000000
-12.538300 0.000000
-12.510000 0.000000
-12.481600 0.000000
-12.453300 0.000000
-12.424900 0.000000
-12.396600 0.000000
-12.368200 0.000000
-12.339900 0.000000
-12.311500 0.000000
-12.283200 0.000000
-12.254800 0.000000
-12.226500 0.000000
-12.198100 0.000000
-12.169800 0.000000
-12.141400 0.000000
-12.113100 0.000000
-12.084700 0.000000
-12.056400 0.000000
-12.028000 0.000000
-11.999700 0.000000
-11.971300 0.000000
-11.943000 0.000000
-11.914600 0.000000
-11.886300 0.000000
-11.857900 0.000000
-11.829600 0.000000
-11.801200 0.000000
-11.772900 0.000000
-11.744500 0.000000
-11.716200 0.000000
-11.687800 0.000000
-11.659500 0.000000
-11.631100 0.000000
-11.602800 0.000000
-11.574400 0.000000
-11.546100 0.000000
-11.517700 0.000000
-11.489400 0.000000
-11.461000 0.000000
-11.432700 0.000000
-11.404300 0.000000
-11.376000 0.000000
-11.347700 0.000000
-11.319300 0.000000
-11.291000 0.078900
-11.262600 0.139100
-11.234300 0.211900
-11.205900 0.250900
-11.177600 0.285100
-11.149200 0.315500
-11.120900 0.347600
-11.092500 0.390900
-11.064200 0.420100
-11.035800 0.453700
-11.007500 0.485700
-10.979100 0.517900
-10.950800 0.554400
-10.922400 0.593700
-10.894100 0.630400
-10.865700 0.665400
-10.837400 0.709900
-10.809000 0.761700
-10.780700 0.818600
-10.752300 0.877700
-10.724000 0.938100
-10.695600 1.157600
-10.667300 1.272500
-10.638900 1.413500
-10.610600 2.827300
-10.582200 2.876700
-10.553900 2.810900
-10.525500 2.350400
-10.497200 2.259900
-10.468800 2.222800
-10.440500 2.191200
-10.412100 2.089600
-10.383800 2.093300
-10.355400 2.105700
-10.327100 2.079100
-10.298700 2.103900
-10.270400 2.129400
-10.242000 2.023200
-10.213700 1.992000
-10.185300 1.922200
-10.157000 1.965000
-10.128600 2.619100
-10.100300 3.099000
-10.071900 4.058200
-10.043600 4.871700
-10.015200 3.879700
-9.986900 2.385300
-9.958500 2.296200
-9.930200 2.360800
-9.901800 3.121700
-9.873500 6.475300
-9.845200 5.097400
-9.816800 5.301800
-9.788500 5.430800
-9.760100 4.094200
-9.731800 3.609300
-9.703400 3.154500
-9.675100 2.964200
-9.646700 2.923900
-9.618400 2.908600
-9.590000 2.901600
-9.561700 2.599300
-9.533300 2.398800
-9.505000 1.911200
-9.476600 1.612100
-9.448300 1.341300
-9.419900 1.094400
-9.391600 0.847500
-9.363200 0.689600
-9.334900 0.374600
-9.306500 0.330500
-9.278200 0.292400
-9.249800 0.264600
-9.221500 0.238600
-9.193100 0.210100
-9.164800 0.183300
-9.136400 0.135200
-9.108100 0.093300
-9.079700 0.057700
-9.051400 0.000000
-9.023000 0.000000
-8.994700 0.000000
-8.966300 0.000000
-8.938000 0.000000
-8.909600 0.000000
-8.881300 0.000000
-8.852900 0.000000
-8.824600 0.000000
-8.796200 0.000000
-8.767900 0.000000
-8.739500 0.000000
-8.711200 0.000000
-8.682800 0.000000
-8.654500 0.000000
-8.626100 0.000000
-8.597800 0.000000
-8.569400 0.000000
-8.541100 0.000000
-8.512700 0.000000
-8.484400 0.000000
-8.456000 0.000000
-8.427700 0.000000
-8.399300 0.000000
-8.371000 0.000000
-8.342700 0.000000
-8.314300 0.000000
-8.286000 0.000000
-8.257600 0.000000
-8.229300 0.000000
-8.200900 0.000000
-8.172600 0.000000
-8.144200 0.000000
-8.115900 0.000000
-8.087500 0.000000
-8.059200 0.000000
-8.030800 0.000000
-8.002500 0.000000
-7.974100 0.000000
-7.945800 0.000000
-7.917400 0.000000
-7.889100 0.000000
-7.860700 0.000000
-7.832400 0.000000
-7.804000 0.000000
-7.775700 0.000000
-7.747300 0.000000
-7.719000 0.000000
-7.690600 0.000000
-7.662300 0.000000
-7.633900 0.000000
-7.605600 0.000000
-7.577200 0.000000
-7.548900 0.000000
-7.520500 0.000000
-7.492200 0.000000
-7.463800 0.000000
-7.435500 0.000000
-7.407100 0.000000
-7.378800 0.000000
-7.350400 0.000000
-7.322100 0.000000
-7.293700 0.000000
-7.265400 0.000000
-7.237000 0.000000
-7.208700 0.000000
-7.180300 0.000000
-7.152000 0.000000
-7.123600 0.000000
-7.095300 0.000000
-7.066900 0.000000
-7.038600 0.000000
-7.010200 0.000000
-6.981900 0.000000
-6.953500 0.000000
-6.925200 0.000000
-6.896800 0.000000
-6.868500 0.000000
-6.840200 0.000000
-6.811800 0.000000
-6.783500 0.000000
-6.755100 0.000000
-6.726800 0.000000
-6.698400 0.000000
-6.670100 0.000000
-6.641700 0.000000
-6.613400 0.000000
-6.585000 0.000000
-6.556700 0.000000
-6.528300 0.000000
-6.500000 0.000000
-6.471600 0.000000
-6.443300 0.000000
-6.414900 0.000000
-6.386600 0.000000
-6.358200 0.000000
-6.329900 0.000000
-6.301500 0.000000
-6.273200 0.000000
-6.244800 0.000000
-6.216500 0.000000
-6.188100 0.000000
-6.159800 0.000000
-6.131400 0.000000
-6.103100 0.000000
-6.074700 0.000000
-6.046400 0.000000
-6.018000 0.000000
-5.989700 0.000000
-5.961300 0.000000
-5.933000 0.000000
-5.904600 0.000000
-5.876300 0.000000
-5.847900 0.000000
-5.819600 0.000000
-5.791200 0.000000
-5.762900 0.000000
-5.734500 0.000000
-5.706200 0.000000
-5.677800 0.000000
-5.649500 0.000000
-5.621100 0.000000
-5.592800 0.000000
-5.564400 0.000000
-5.536100 0.000000
-5.507700 0.000000
-5.479400 0.000000
-5.451000 0.000000
-5.422700 0.000000
-5.394400 0.000000
-5.366000 0.000000
-5.337700 0.000000
-5.309300 0.000000
-5.281000 0.000000
-5.252600 0.000000
-5.224300 0.000000
-5.195900 0.000000
-5.167600 0.000000
-5.139200 0.000000
-5.110900 0.000000
-5.082500 0.000000
-5.054200 0.000000
-5.025800 0.000000
-4.997500 0.000000
-4.969100 0.000000
-4.940800 0.000000
-4.912400 0.000000
-4.884100 0.000000
-4.855700 0.000000
-4.827400 0.000000
-4.799000 0.000000
-4.770700 0.000000
-4.742300 0.000000
-4.714000 0.000000
-4.685600 0.000000
-4.657300 0.000000
-4.628900 0.000000
-4.600600 0.000000
-4.572200 0.000000
-4.543900 0.000000
-4.515500 0.000000
-4.487200 0.000000
-4.458800 0.000000
-4.430500 0.000000
-4.402100 0.000000
-4.373800 0.000000
-4.345400 0.000000
-4.317100 0.000000
-4.288700 0.000000
-4.260400 0.000000
-4.232000 0.000000
-4.203700 0.000000
-4.175300 0.000000
-4.147000 0.000000
-4.118600 0.000000
-4.090300 0.000000
-4.061900 0.000000
-4.033600 0.000000
-4.005200 0.000000
-3.976900 0.000000
-3.948500 0.000000
-3.920200 0.000000
-3.891900 0.000000
-3.863500 0.000000
-3.835200 0.000000
-3.806800 0.000000
-3.778500 0.000000
-3.750100 0.000000
-3.721800 0.000000
-3.693400 0.000000
-3.665100 0.000000
-3.636700 0.000000
-3.608400 0.051500
-3.580000 0.072900
-3.551700 0.096900
-3.523300 0.123400
-3.495000 0.123600
-3.466600 0.139700
-3.438300 0.156500
-3.409900 0.174200
-3.381600 0.194400
-3.353200 0.215600
-3.324900 0.225100
-3.296500 0.241700
-3.268200 0.258300
-3.239800 0.274500
-3.211500 0.290700
-3.183100 0.306600
-3.154800 0.322200
-3.126400 0.348600
-3.098100 0.381600
-3.069700 0.413100
-3.041400 0.444000
-3.013000 0.475200
-2.984700 1.246200
-2.956300 1.210400
-2.928000 1.524600
-2.899600 1.975400
-2.871300 1.927700
-2.842900 1.933100
-2.814600 1.894300
-2.786200 1.803500
-2.757900 1.760300
-2.729500 1.740800
-2.701200 1.738900
-2.672800 1.733800
-2.644500 1.711700
-2.616100 1.681300
-2.587800 1.663500
-2.559400 1.831900
-2.531100 2.292300
-2.502700 2.461400
-2.474400 2.725200
-2.446000 3.408500
-2.417700 4.499900
-2.389400 4.832200
-2.361000 6.218600
-2.332700 5.592700
-2.304300 4.901300
-2.276000 4.394100
-2.247600 4.559500
-2.219300 3.821900
-2.190900 3.640300
-2.162600 3.709900
-2.134200 4.006100
-2.105900 4.120600
-2.077500 4.311200
-2.049200 4.402000
-2.020800 4.407000
-1.992500 4.265100
-1.964100 3.958500
-1.935800 4.085000
-1.907400 4.124800
-1.879100 4.115900
-1.850700 4.543300
-1.822400 5.051800
-1.794000 4.769000
-1.765700 4.939500
-1.737300 4.399700
-1.709000 4.302100
-1.680600 4.293600
-1.652300 4.376400
-1.623900 5.606500
-1.595600 5.479400
-1.567200 5.363200
-1.538900 4.836500
-1.510500 4.092800
-1.482200 3.366400
-1.453800 2.436500
-1.425500 2.127100
-1.397100 2.272800
-1.368800 2.567300
-1.340400 2.119100
-1.312100 2.133400
-1.283700 2.401600
-1.255400 2.671300
-1.227000 2.717500
-1.198700 2.980300
-1.170300 3.264600
-1.142000 3.257900
-1.113600 3.337000
-1.085300 3.560500
-1.056900 3.622900
-1.028600 3.531800
-1.000200 3.411700
-0.971900 3.403500
-0.943500 3.467500
-0.915200 3.759700
-0.886900 4.405900
-0.858500 4.841500
-0.830200 4.946000
-0.801800 4.870400
-0.773500 4.606300
-0.745100 4.604000
-0.716800 3.958200
-0.688400 2.898300
-0.660100 2.809000
-0.631700 2.834800
-0.603400 3.237000
-0.575000 6.025700
-0.546700 5.199500
-0.518300 4.267900
-0.490000 3.706700
-0.461600 3.178400
-0.433300 3.833900
-0.404900 2.360600
-0.376600 2.267900
-0.348200 2.207200
-0.319900 2.109600
-0.291500 2.178200
-0.263200 2.431500
-0.234800 2.569200
-0.206500 2.720900
-0.178100 2.915400
-0.149800 3.395800
-0.121400 3.540300
-0.093100 3.575400
-0.064700 3.724800
-0.036400 3.300600
-0.008000 3.625400
0.020300 3.537700
0.048700 3.476300
0.077000 3.691900
0.105400 3.379300
0.133700 3.869200
0.162100 4.276500
0.190400 4.973200
0.218800 5.542700
0.247100 6.077000
0.275500 6.563000
0.303800 6.610800
0.332200 7.087900
0.360500 6.797900
0.388900 6.743600
0.417200 7.282400
0.445600 7.160500
0.473900 6.807100
0.502300 6.370800
0.530600 5.838600
0.559000 5.038500
0.587300 5.201600
0.615600 6.010900
0.644000 5.916300
0.672300 5.562100
0.700700 6.286800
0.729000 7.930800
0.757400 8.267300
0.785700 9.007700
0.814100 10.925000
0.842400 11.263900
0.870800 3.133400
0.899100 1.519000
0.927500 2.920400
0.955800 5.005500
0.984200 6.245100
1.012500 8.570200
1.040900 5.212300
1.069200 4.245300
1.097600 4.129800
1.125900 4.360200
1.154300 5.106700
1.182600 7.294400
1.211000 8.533600
1.239300 10.271500
1.267700 7.579300
1.296000 5.939500
1.324400 4.970700
1.352700 4.410600
1.381100 4.045200
1.409400 3.791700
1.437800 3.572000
1.466100 3.328500
1.494500 3.231200
1.522800 2.841400
1.551200 2.313600
1.579500 2.075800
1.607900 1.618900
1.636200 1.523400
1.664600 1.433400
1.692900 1.416300
1.721300 1.461200
1.749600 1.486100
1.778000 1.500000
1.806300 1.485400
1.834700 1.499600
1.863000 1.518700
1.891400 1.516600
1.919700 1.550400
1.948100 1.667100
1.976400 1.711800
2.004800 1.716900
2.033100 1.772300
2.061500 1.886100
2.089800 1.835600
2.118100 1.468200
2.146500 1.310700
2.174800 1.180700
2.203200 1.211300
2.231500 1.346700
2.259900 1.701200
2.288200 2.040500
2.316600 2.409300
2.344900 2.823400
2.373300 3.027600
2.401600 3.310800
2.430000 3.668600
2.458300 4.111400
2.486700 4.367900
2.515000 4.425200
2.543400 3.474300
2.571700 3.059300
2.600100 2.869800
2.628400 2.693200
2.656800 2.523500
2.685100 2.978500
2.713500 2.446900
2.741800 2.470700
2.770200 2.514000
2.798500 2.600000
2.826900 2.834700
2.855200 3.101900
2.883600 3.780400
2.911900 4.372500
2.940300 4.974000
2.968600 6.188700
2.997000 6.635400
3.025300 6.388700
3.053700 5.271200
3.082000 4.685000
3.110400 4.283600
3.138700 4.455300
3.167100 4.403400
3.195400 3.138900
3.223800 2.883300
3.252100 2.243200
3.280500 1.834600
3.308800 1.989200
3.337200 2.342500
3.365500 2.848600
3.393900 3.452900
3.422200 4.687200
3.450600 3.647600
3.478900 3.516800
3.507300 3.240000
3.535600 3.283800
3.563900 3.355300
3.592300 3.576500
3.620600 4.137700
3.649000 3.583200
3.677300 3.285800
3.705700 3.190700
3.734000 3.029000
3.762400 3.115800
3.790700 2.700800
3.819100 2.583000
3.847400 2.610800
3.875800 2.614200
3.904100 2.744600
3.932500 2.833200
3.960800 2.972800
3.989200 3.088200
4.017500 3.306900
4.045900 3.592800
4.074200 4.094000
4.102600 4.213100
4.130900 4.629900
4.159300 5.138000
4.187600 3.790100
4.216000 3.472200
4.244300 3.060900
4.272700 2.794600
4.301000 2.572700
4.329400 2.503900
4.357700 2.296800
4.386100 1.715000
4.414400 1.527800
4.442800 1.486300
4.471100 1.395000
4.499500 1.299300
4.527800 1.180000
4.556200 1.018700
4.584500 0.925100
4.612900 0.873800
4.641200 0.897000
4.669600 0.894700
4.697900 0.716800
4.726300 0.492800
4.754600 0.340800
4.783000 0.126800
4.811300 0.000000
4.839700 0.000000
4.868000 0.145300
4.896400 0.399700
4.924700 0.253700
4.953100 0.266100
4.981400 0.225300
5.009800 0.219700
5.038100 0.211000
5.066400 0.207600
5.094800 0.205900
5.123100 0.205600
5.151500 0.209900
5.179800 0.215300
5.208200 0.221800
5.236500 0.229600
5.264900 0.238500
5.293200 0.247500
5.321600 0.256600
5.349900 0.264100
5.378300 0.273900
5.406600 0.284700
5.435000 0.295700
5.463300 0.307500
5.491700 0.320000
5.520000 0.332200
5.548400 0.347700
5.576700 0.627900
5.605100 0.491200
5.633400 0.525900
5.661800 0.561800
5.690100 0.603300
5.718500 0.632400
5.746800 0.678100
5.775200 0.730200
5.803500 0.787800
5.831900 0.848900
5.860200 0.907700
5.888600 0.968300
5.916900 1.103700
5.945300 1.238800
5.973600 1.388600
6.002000 1.571700
6.030300 1.687400
6.058700 1.656600
6.087000 1.570400
6.115400 1.524400
6.143700 1.511500
6.172100 1.493300
6.200400 1.473600
6.228800 1.464700
6.257100 1.415900
6.285500 1.407100
6.313800 1.457000
6.342200 1.620000
6.370500 1.682500
6.398900 1.593000
6.427200 1.511500
6.455600 1.508100
6.483900 1.482900
6.512300 1.463100
6.540600 1.488500
6.568900 1.531300
6.597300 1.575900
6.625600 1.620400
6.654000 1.638800
6.682300 1.668700
6.710700 1.752700
6.739000 1.798300
6.767400 1.887600
6.795700 1.882300
6.824100 1.916700
6.852400 1.944900
6.880800 1.972600
6.909100 2.125800
6.937500 1.974500
6.965800 1.985100
6.994200 2.027600
7.022500 2.067600
7.050900 2.123900
7.079200 2.199000
7.107600 2.439000
7.135900 2.259300
7.164300 2.315000
7.192600 2.573300
7.221000 2.242900
7.249300 2.439400
7.277700 3.200700
7.306000 4.615200
7.334400 3.457700
7.362700 2.932900
7.391100 2.648100
7.419400 2.441700
7.447800 2.140400
7.476100 1.847300
7.504500 1.528000
7.532800 1.354700
7.561200 1.014800
7.589500 0.886100
7.617900 0.715500
7.646200 0.676400
7.674600 0.637300
7.702900 0.604200
7.731300 0.569600
7.759600 0.538000
7.788000 0.516700
7.816300 0.495700
7.844700 0.475300
7.873000 0.452900
7.901400 0.430800
7.929700 0.410800
7.958100 0.385600
7.986400 0.370700
8.014800 0.356200
8.043100 0.341900
8.071400 0.327700
8.099800 0.313700
8.128100 0.299700
8.156500 0.286300
8.184800 0.291200
8.213200 0.290200
8.241500 0.289900
8.269900 0.288000
8.298200 0.284500
8.326600 0.279300
8.354900 0.260900
8.383300 0.242300
8.411600 0.211700
8.440000 0.195200
8.468300 0.193300
8.496700 0.178900
8.525000 0.164600
8.553400 0.147600
8.581700 0.130000
8.610100 0.114600
8.638400 0.101500
8.666800 0.050800
8.695100 0.057800
8.723500 0.164700
8.751800 0.169900
8.780200 0.103900
8.808500 0.098900
8.836900 0.094200
8.865200 0.089900
8.893600 0.086000
8.921900 0.086800
8.950300 0.088200
8.978600 0.090300
9.007000 0.092300
9.035300 0.144900
9.063700 0.185800
9.092000 0.205800
9.120400 0.226900
9.148700 0.249200
9.177100 0.272900
9.205400 0.284200
9.233800 0.307400
9.262100 0.331500
9.290500 0.342400
9.318800 0.362300
9.347200 0.382500
9.375500 0.400500
9.403900 0.424200
9.432200 0.450200
9.460600 0.475100
9.488900 0.500000
9.517300 0.523600
9.545600 0.548600
9.573900 0.573900
9.602300 0.615200
9.630600 0.650900
9.659000 0.685800
9.687300 0.722400
9.715700 0.758200
9.744000 0.793700
9.772400 0.872500
9.800700 0.949800
9.829100 1.029300
9.857400 1.078900
9.885800 1.162700
9.914100 1.129600
9.942500 1.143300
9.970800 1.158500
9.999200 1.200000
10.027500 1.269500
10.055900 1.315100
10.084200 1.012900
10.112600 1.011100
10.140900 1.010000
10.169300 1.024300
10.197600 1.029200
10.226000 1.037900
10.254300 1.048800
10.282700 1.060500
10.311000 1.071900
10.339400 1.084200
10.367700 1.066300
10.396100 1.092300
10.424400 1.094900
10.452800 1.096100
10.481100 1.096200
10.509500 1.108400
10.537800 1.101500
10.566200 1.100700
10.594500 1.098600
10.622900 1.095200
10.651200 1.093800
10.679600 1.108700
10.707900 1.105800
10.736300 1.106100
10.764600 1.107100
10.793000 1.106600
10.821300 1.104100
10.849700 1.101600
10.878000 1.096000
10.906400 1.093500
10.934700 1.092200
10.963100 1.048900
10.991400 1.023300
11.019800 1.016600
11.048100 1.001800
11.076400 1.011400
11.104800 0.996800
11.133100 0.978400
11.161500 0.970200
11.189800 0.965700
11.218200 0.963500
11.246500 0.959800
11.274900 0.961200
11.303200 1.037800
11.331600 1.066900
11.359900 0.990200
11.388300 0.986600
11.416600 0.945600
11.445000 0.926400
11.473300 0.970400
11.501700 1.248800
11.530000 1.632100
11.558400 1.646000
11.586700 1.553500
11.615100 1.425500
11.643400 1.327400
11.671800 1.277600
11.700100 1.333900
11.728500 1.400200
11.756800 1.534900
11.785200 1.705200
11.813500 1.811100
11.841900 1.927600
11.870200 2.045500
11.898600 2.209200
11.926900 2.347000
11.955300 2.345400
11.983600 2.373500
12.012000 2.587100
12.040300 2.655700
12.068700 2.206500
12.097000 1.890600
12.125400 1.710600
12.153700 1.590400
12.182100 1.488800
12.210400 1.397200
12.238800 1.313100
12.267100 1.236100
12.295500 1.160900
12.323800 1.105300
12.352200 1.073200
12.380500 1.032900
12.408900 0.980400
12.437200 0.910000
12.465600 0.848900
12.493900 0.793600
12.522200 0.836400
12.550600 0.944600
12.578900 0.651300
12.607300 0.587500
12.635600 0.526400
12.664000 0.454800
12.692300 0.380800
12.720700 0.375800
12.749000 0.302600
12.777400 0.242500
12.805700 0.187200
12.834100 0.118300
12.862400 0.000000
12.890800 0.000000
12.919100 0.000000
12.947500 0.000000
12.975800 0.000000
13.004200 0.000000
13.032500 0.000000
13.060900 0.000000
13.089200 0.000000
13.117600 0.000000
13.145900 0.000000
13.174300 0.000000
13.202600 0.000000
13.231000 0.356500
13.259300 0.177300
13.287700 0.187200
13.316000 0.197100
13.344400 0.207100
13.372700 0.257200
13.401100 0.353800
13.429400 0.386700
13.457800 0.382600
13.486100 0.387100
13.514500 0.400900
13.542800 0.406500
13.571200 0.410400
13.599500 0.413700
13.627900 0.415000
13.656200 0.424600
13.684600 0.433900
13.712900 0.442800
13.741300 0.451800
13.769600 0.456500
13.798000 0.469000
13.826300 0.482000
13.854700 0.495700
13.883000 0.509700
13.911400 0.524100
13.939700 0.538900
13.968100 0.556900
13.996400 0.568400
14.024700 0.577800
14.053100 0.581900
14.081400 0.587300
14.109800 0.592100
14.138100 0.596600
14.166500 0.600700
14.194800 0.606300
14.223200 0.606800
14.251500 0.614100
14.279900 0.621100
14.308200 0.625000
14.336600 0.627600
14.364900 0.632000
14.393300 0.638300
14.421600 0.645700
14.450000 0.649600
14.478300 0.661300
14.506700 0.673600
14.535000 0.686400
14.563400 0.699700
14.591700 0.713500
14.620100 0.728100
14.648400 0.744400
14.676800 0.762000
14.705100 0.780900
14.733500 0.790200
14.761800 0.787000
14.790200 0.775600
14.818500 0.776100
14.846900 0.760600
14.875200 0.743100
14.903600 0.723800
14.931900 0.717600
14.960300 0.708700
14.988600 0.703100
15.017000 0.701100
15.045300 0.702000
15.073700 0.705500
15.102000 0.711300
15.130400 0.718200
15.158700 0.726100
15.187100 0.735300
15.215400 0.745000
15.243800 0.759400
15.272100 0.772300
15.300500 0.785800
15.328800 0.799700
15.357200 0.814400
15.385500 0.829400
15.413900 0.844600
15.442200 0.860000
15.470600 0.878600
15.498900 0.898400
15.527200 0.919500
15.555600 0.965600
15.583900 0.992300
15.612300 1.036600
15.640600 1.067000
15.669000 1.097300
15.697300 1.128700
15.725700 1.199400
15.754000 1.236000
15.782400 1.298100
15.810700 1.353900
15.839100 1.402600
