set title 'mp-1184257 - Density of States'
set xlabel 'Energy (eV)'
set ylabel 'DOS (states/eV)'
set grid
set xrange [-10:10]
set yrange [0:24.429]
set xzeroaxis lt -1
set terminal png size 800,600
set output 'mp-1184257_dos_gnuplot.png'
plot '-' using 1:2 with lines title 'DOS'
-13.559200 0.000000
-13.536900 0.000000
-13.514500 0.000000
-13.492100 0.000000
-13.469800 0.000000
-13.447400 0.000000
-13.425000 0.000000
-13.402700 0.000000
-13.380300 0.000000
-13.357900 0.000000
-13.335600 0.000000
-13.313200 0.000000
-13.290800 0.000000
-13.268500 0.000000
-13.246100 0.000000
-13.223700 0.000000
-13.201400 0.000000
-13.179000 0.000000
-13.156600 0.000000
-13.134300 0.000000
-13.111900 0.000000
-13.089500 0.000000
-13.067200 0.000000
-13.044800 0.000000
-13.022400 0.000000
-13.000100 0.000000
-12.977700 0.000000
-12.955300 0.000000
-12.933000 0.000000
-12.910600 0.000000
-12.888200 0.000000
-12.865900 0.000000
-12.843500 0.000000
-12.821100 0.000000
-12.798800 0.000000
-12.776400 0.000000
-12.754000 0.000000
-12.731700 0.000000
-12.709300 0.000000
-12.686900 0.000000
-12.664600 0.000000
-12.642200 0.000000
-12.619800 0.000000
-12.597500 0.000000
-12.575100 0.000000
-12.552700 0.000000
-12.530400 0.000000
-12.508000 0.000000
-12.485600 0.000000
-12.463300 0.000000
-12.440900 0.000000
-12.418500 0.000000
-12.396200 0.000000
-12.373800 0.000000
-12.351400 0.000000
-12.329100 0.000000
-12.306700 0.000000
-12.284300 0.000000
-12.262000 0.000000
-12.239600 0.000000
-12.217200 0.000000
-12.194900 0.000000
-12.172500 0.000000
-12.150100 0.000000
-12.127700 0.000000
-12.105400 0.000000
-12.083000 0.000000
-12.060600 0.000000
-12.038300 0.000000
-12.015900 0.000000
-11.993500 0.000000
-11.971200 0.000000
-11.948800 0.000000
-11.926400 0.000000
-11.904100 0.000000
-11.881700 0.000000
-11.859300 0.000000
-11.837000 0.000000
-11.814600 0.000000
-11.792200 0.000000
-11.769900 0.000000
-11.747500 0.000000
-11.725100 0.000000
-11.702800 0.000000
-11.680400 0.000000
-11.658000 0.000000
-11.635700 0.000000
-11.613300 0.000000
-11.590900 0.000000
-11.568600 0.000000
-11.546200 0.000000
-11.523800 0.436700
-11.501500 20.898200
-11.479100 46.060400
-11.456700 111.524800
-11.434400 92.310400
-11.412000 114.666400
-11.389600 105.426100
-11.367300 72.327700
-11.344900 92.299600
-11.322500 92.075800
-11.300200 137.217800
-11.277800 125.013200
-11.255400 72.272800
-11.233100 94.272200
-11.210700 83.172800
-11.188300 22.480300
-11.166000 10.504000
-11.143600 0.000000
-11.121200 0.000000
-11.098900 0.000000
-11.076500 0.000000
-11.054100 0.000000
-11.031800 0.000000
-11.009400 0.000000
-10.987000 0.000000
-10.964700 0.000000
-10.942300 0.000000
-10.919900 0.000000
-10.897600 0.000000
-10.875200 0.000000
-10.852800 0.000000
-10.830500 0.000000
-10.808100 0.000000
-10.785700 0.000000
-10.763400 0.000000
-10.741000 0.000000
-10.718600 0.000000
-10.696300 0.000000
-10.673900 0.000000
-10.651500 0.000000
-10.629200 0.000000
-10.606800 0.000000
-10.584400 0.000000
-10.562100 0.000000
-10.539700 0.000000
-10.517300 0.000000
-10.495000 0.000000
-10.472600 0.000000
-10.450200 0.000000
-10.427900 0.000000
-10.405500 0.000000
-10.383100 0.000000
-10.360800 0.000000
-10.338400 0.000000
-10.316000 0.000000
-10.293700 0.000000
-10.271300 0.000000
-10.248900 0.000000
-10.226600 0.000000
-10.204200 0.000000
-10.181800 0.000000
-10.159500 0.000000
-10.137100 0.000000
-10.114700 0.000000
-10.092400 0.000000
-10.070000 0.000000
-10.047600 0.000000
-10.025300 0.000000
-10.002900 0.000000
-9.980500 0.000000
-9.958200 0.000000
-9.935800 0.000000
-9.913400 0.000000
-9.891100 0.000000
-9.868700 0.000000
-9.846300 0.000000
-9.824000 0.000000
-9.801600 0.000000
-9.779200 0.000000
-9.756900 0.000000
-9.734500 0.000000
-9.712100 0.000000
-9.689800 0.000000
-9.667400 0.000000
-9.645000 0.000000
-9.622700 0.000000
-9.600300 0.000000
-9.577900 0.000000
-9.555600 0.000000
-9.533200 0.000000
-9.510800 0.000000
-9.488500 0.000000
-9.466100 0.000000
-9.443700 0.000000
-9.421400 0.000000
-9.399000 0.000000
-9.376600 0.000000
-9.354300 0.000000
-9.331900 0.000000
-9.309500 0.000000
-9.287200 0.000000
-9.264800 0.000000
-9.242400 0.000000
-9.220100 0.000000
-9.197700 0.000000
-9.175300 0.000000
-9.153000 0.000000
-9.130600 0.000000
-9.108200 0.000000
-9.085900 0.000000
-9.063500 0.000000
-9.041100 0.000000
-9.018800 0.000000
-8.996400 0.000000
-8.974000 0.000000
-8.951700 0.000000
-8.929300 0.000000
-8.906900 0.000000
-8.884600 0.000000
-8.862200 0.000000
-8.839800 0.000000
-8.817500 0.000000
-8.795100 0.000000
-8.772700 0.000000
-8.750400 0.000000
-8.728000 0.000000
-8.705600 0.000000
-8.683300 0.000000
-8.660900 0.000000
-8.638500 0.000000
-8.616200 0.000000
-8.593800 0.000000
-8.571400 0.000000
-8.549100 0.000000
-8.526700 0.000000
-8.504300 0.000000
-8.482000 0.000000
-8.459600 0.000000
-8.437200 0.000000
-8.414900 0.000000
-8.392500 0.000000
-8.370100 0.000000
-8.347800 0.000000
-8.325400 0.000000
-8.303000 0.000000
-8.280700 0.000000
-8.258300 0.000000
-8.235900 0.000000
-8.213600 0.000000
-8.191200 0.000000
-8.168800 0.000000
-8.146500 0.000000
-8.124100 0.000000
-8.101700 0.000000
-8.079400 0.000000
-8.057000 0.000000
-8.034600 0.000000
-8.012300 0.000000
-7.989900 0.000000
-7.967500 0.000000
-7.945200 0.000000
-7.922800 0.000000
-7.900400 0.000000
-7.878100 0.000000
-7.855700 0.000000
-7.833300 0.000000
-7.811000 0.000000
-7.788600 0.000000
-7.766200 0.000000
-7.743900 0.000000
-7.721500 0.000000
-7.699100 0.000000
-7.676800 0.000000
-7.654400 0.000000
-7.632000 0.000000
-7.609700 0.000000
-7.587300 0.000000
-7.564900 0.000000
-7.542600 0.000000
-7.520200 0.000000
-7.497800 0.000000
-7.475500 0.000000
-7.453100 0.000000
-7.430700 0.000000
-7.408400 0.000000
-7.386000 0.000000
-7.363600 0.000000
-7.341300 0.000000
-7.318900 0.000000
-7.296500 0.000000
-7.274200 0.000000
-7.251800 0.000000
-7.229400 0.000000
-7.207100 0.000000
-7.184700 0.000000
-7.162300 0.000000
-7.140000 0.000000
-7.117600 0.000000
-7.095200 0.000000
-7.072900 0.000000
-7.050500 0.000000
-7.028100 0.000000
-7.005800 0.000000
-6.983400 0.000000
-6.961000 0.000400
-6.938600 0.013700
-6.916300 0.045900
-6.893900 0.096900
-6.871500 0.145600
-6.849200 0.149800
-6.826800 0.159000
-6.804400 0.172100
-6.782100 0.187400
-6.759700 0.204800
-6.737300 0.216800
-6.715000 0.231000
-6.692600 0.246800
-6.670200 0.263100
-6.647900 0.275500
-6.625500 0.283000
-6.603100 0.286000
-6.580800 0.295200
-6.558400 0.305500
-6.536000 0.316000
-6.513700 0.325700
-6.491300 0.334200
-6.468900 0.341600
-6.446600 0.348400
-6.424200 0.355800
-6.401800 0.364200
-6.379500 0.373400
-6.357100 0.383100
-6.334700 0.393500
-6.312400 0.404400
-6.290000 0.412700
-6.267600 0.419600
-6.245300 0.426500
-6.222900 0.433300
-6.200500 0.440000
-6.178200 0.445200
-6.155800 0.450600
-6.133400 0.456400
-6.111100 0.462600
-6.088700 0.468700
-6.066300 0.474800
-6.044000 0.480900
-6.021600 0.488300
-5.999200 0.495300
-5.976900 0.502500
-5.954500 0.509800
-5.932100 0.517400
-5.909800 0.525300
-5.887400 0.533500
-5.865000 0.541700
-5.842700 0.549900
-5.820300 0.558200
-5.797900 0.565600
-5.775600 0.571500
-5.753200 0.575600
-5.730800 0.581000
-5.708500 0.586800
-5.686100 0.592400
-5.663700 0.598200
-5.641400 0.604100
-5.619000 0.610400
-5.596600 0.616800
-5.574300 0.623600
-5.551900 0.630500
-5.529500 0.637600
-5.507200 0.645400
-5.484800 0.653400
-5.462400 0.661600
-5.440100 0.669900
-5.417700 0.678400
-5.395300 0.687000
-5.373000 0.695800
-5.350600 0.704600
-5.328200 0.713600
-5.305900 0.727800
-5.283500 0.741800
-5.261100 0.754700
-5.238800 0.767400
-5.216400 0.778400
-5.194000 0.792100
-5.171700 0.812900
-5.149300 0.822600
-5.126900 0.821400
-5.104600 0.816800
-5.082200 0.814700
-5.059800 0.813200
-5.037500 0.815100
-5.015100 0.817600
-4.992700 0.820600
-4.970400 0.824200
-4.948000 0.828800
-4.925600 0.834100
-4.903300 0.840100
-4.880900 0.849000
-4.858500 0.876700
-4.836200 0.902200
-4.813800 0.917800
-4.791400 0.933100
-4.769100 0.947500
-4.746700 0.960200
-4.724300 0.970300
-4.702000 0.977500
-4.679600 0.982200
-4.657200 0.987200
-4.634900 0.992700
-4.612500 0.986200
-4.590100 0.981200
-4.567800 0.974500
-4.545400 0.968900
-4.523000 0.970200
-4.500700 1.014600
-4.478300 1.059400
-4.455900 1.073300
-4.433600 1.039700
-4.411200 0.990300
-4.388800 0.943900
-4.366500 0.912100
-4.344100 0.885200
-4.321700 0.856100
-4.299400 0.825600
-4.277000 0.798900
-4.254600 0.781200
-4.232300 0.771100
-4.209900 0.757400
-4.187500 0.779600
-4.165200 0.741800
-4.142800 0.704600
-4.120400 0.689000
-4.098100 0.693300
-4.075700 0.710200
-4.053300 0.743900
-4.031000 0.783400
-4.008600 0.823200
-3.986200 0.867300
-3.963900 0.923300
-3.941500 0.968300
-3.919100 1.007500
-3.896800 1.055200
-3.874400 1.116300
-3.852000 1.198800
-3.829700 1.388000
-3.807300 1.473000
-3.784900 1.525200
-3.762600 1.471200
-3.740200 1.472100
-3.717800 1.494800
-3.695500 1.513800
-3.673100 1.562400
-3.650700 1.513800
-3.628400 1.474300
-3.606000 1.441000
-3.583600 1.403700
-3.561300 1.365600
-3.538900 1.332200
-3.516500 1.237700
-3.494200 1.186000
-3.471800 1.177000
-3.449400 1.187200
-3.427100 1.199000
-3.404700 1.203500
-3.382300 1.197100
-3.360000 1.186500
-3.337600 1.175800
-3.315200 1.164400
-3.292900 1.162500
-3.270500 1.172700
-3.248100 1.183200
-3.225800 1.193800
-3.203400 1.204400
-3.181000 1.214700
-3.158700 1.269400
-3.136300 1.302700
-3.113900 1.293600
-3.091600 1.284000
-3.069200 1.275600
-3.046800 1.269600
-3.024500 1.269900
-3.002100 1.272400
-2.979700 1.274200
-2.957400 1.274700
-2.935000 1.274000
-2.912600 1.272000
-2.890300 1.281100
-2.867900 1.420700
-2.845500 1.459900
-2.823200 1.557400
-2.800800 1.542500
-2.778400 1.325500
-2.756100 1.510000
-2.733700 1.435000
-2.711300 1.490200
-2.689000 1.543600
-2.666600 1.592100
-2.644200 1.656600
-2.621900 1.693900
-2.599500 1.961700
-2.577100 2.179800
-2.554800 2.169300
-2.532400 2.254800
-2.510000 2.308200
-2.487700 2.343100
-2.465300 2.331500
-2.442900 2.308600
-2.420600 2.311400
-2.398200 2.338400
-2.375800 2.367500
-2.353500 2.489700
-2.331100 2.448400
-2.308700 2.441500
-2.286400 2.404100
-2.264000 2.417900
-2.241600 2.397600
-2.219300 2.377600
-2.196900 2.338700
-2.174500 2.348100
-2.152200 2.348700
-2.129800 2.350400
-2.107400 2.352900
-2.085100 2.423200
-2.062700 2.560000
-2.040300 2.629900
-2.018000 2.676100
-1.995600 2.688900
-1.973200 2.718700
-1.950900 2.776100
-1.928500 2.993700
-1.906100 3.268800
-1.883800 3.145000
-1.861400 3.221800
-1.839000 2.645200
-1.816700 2.318100
-1.794300 2.151400
-1.771900 2.092700
-1.749600 1.931300
-1.727200 1.950900
-1.704800 1.737800
-1.682400 2.329600
-1.660100 2.514500
-1.637700 2.158300
-1.615300 3.859700
-1.593000 8.184700
-1.570600 11.143900
-1.548200 14.015100
-1.525900 15.196800
-1.503500 11.846500
-1.481100 10.825900
-1.458800 10.264300
-1.436400 8.587500
-1.414000 9.589900
-1.391700 14.598800
-1.369300 22.208300
-1.346900 20.568400
-1.324600 18.811200
-1.302200 17.357200
-1.279800 15.340600
-1.257500 12.668000
-1.235100 10.515800
-1.212700 12.225500
-1.190400 6.046000
-1.168000 2.079800
-1.145600 1.832500
-1.123300 2.533000
-1.100900 2.769600
-1.078500 2.534000
-1.056200 2.342300
-1.033800 1.997000
-1.011400 1.217600
-0.989100 1.162100
-0.966700 1.241700
-0.944300 1.325600
-0.922000 1.600400
-0.899600 2.198000
-0.877200 3.543800
-0.854900 6.581500
-0.832500 6.016700
-0.810100 4.420500
-0.787800 3.899300
-0.765400 3.417200
-0.743000 3.154500
-0.720700 3.005500
-0.698300 2.870100
-0.675900 2.737100
-0.653600 2.627300
-0.631200 2.549800
-0.608800 2.490800
-0.586500 2.401300
-0.564100 2.305500
-0.541700 2.212800
-0.519400 2.124200
-0.497000 2.038300
-0.474600 2.002900
-0.452300 1.969800
-0.429900 1.938000
-0.407500 1.907700
-0.385200 1.886600
-0.362800 1.861600
-0.340400 1.842500
-0.318100 1.825100
-0.295700 1.809300
-0.273300 1.794900
-0.251000 1.781000
-0.228600 1.766700
-0.206200 1.773500
-0.183900 1.765000
-0.161500 1.759200
-0.139100 1.752600
-0.116800 1.795500
-0.094400 2.333400
-0.072000 2.142200
-0.049700 2.083100
-0.027300 2.084200
-0.004900 2.089900
0.017400 2.013100
0.039800 2.013900
0.062200 2.032500
0.084500 2.074900
0.106900 2.126800
0.129300 2.176200
0.151600 2.223800
0.174000 2.219000
0.196400 2.205600
0.218700 2.161600
0.241100 2.090000
0.263500 2.034800
0.285800 2.021900
0.308200 2.000800
0.330600 1.956500
0.352900 1.918200
0.375300 1.878800
0.397700 1.838100
0.420000 1.795800
0.442400 1.760000
0.464800 1.732100
0.487100 1.716300
0.509500 1.705900
0.531900 1.708000
0.554200 1.720900
0.576600 1.687400
0.599000 1.662800
0.621300 1.631900
0.643700 1.576300
0.666100 1.531700
0.688400 1.491200
0.710800 1.457200
0.733200 1.454700
0.755500 1.413100
0.777900 1.398700
0.800300 1.374400
0.822600 1.304300
0.845000 1.283100
0.867400 1.280000
0.889700 1.270000
0.912100 1.236200
0.934500 1.220200
0.956800 1.214800
0.979200 1.215200
1.001600 1.203700
1.023900 1.199200
1.046300 1.198100
1.068700 1.201700
1.091000 1.210800
1.113400 1.189400
1.135800 1.172500
1.158100 1.170000
1.180500 1.225400
1.202900 1.199900
1.225200 1.183000
1.247600 1.176700
1.270000 1.162400
1.292300 1.198000
1.314700 1.221100
1.337100 1.182300
1.359400 1.180100
1.381800 1.174000
1.404200 1.160800
1.426500 1.154600
1.448900 1.139900
1.471300 1.137100
1.493600 1.136500
1.516000 1.137700
1.538400 1.140700
1.560700 1.146000
1.583100 1.154900
1.605500 1.167200
1.627800 1.181900
1.650200 1.198000
1.672600 1.216200
1.694900 1.270300
1.717300 1.321000
1.739700 1.340900
1.762000 1.358000
1.784400 1.369500
1.806800 1.561200
1.829100 1.389400
1.851500 1.420300
1.873900 1.450700
1.896200 1.519800
1.918600 1.610400
1.941000 1.841400
1.963300 2.035700
1.985700 1.936100
2.008100 1.849200
2.030400 1.819000
2.052800 1.812500
2.075200 1.783300
2.097500 1.771800
2.119900 1.779800
2.142300 1.831500
2.164600 1.851500
2.187000 1.870300
2.209400 1.873500
2.231700 1.852900
2.254100 1.731300
2.276500 1.650000
2.298800 1.596600
2.321200 1.550800
2.343600 1.514000
2.365900 1.482000
2.388300 1.454300
2.410700 1.430800
2.433000 1.407000
2.455400 1.385100
2.477800 1.369800
2.500100 1.372100
2.522500 1.386800
2.544900 1.436600
2.567200 1.458500
2.589600 1.499600
2.612000 1.494700
2.634300 1.471800
2.656700 1.433500
2.679100 1.411400
2.701400 1.396800
2.723800 1.382100
2.746200 1.365400
2.768500 1.349300
2.790900 1.335400
2.813300 1.324300
2.835600 1.317400
2.858000 1.322000
2.880400 1.335300
2.902700 1.356800
2.925100 1.356200
2.947500 1.361400
2.969800 1.377700
2.992200 1.397500
3.014600 1.407700
3.036900 1.423300
3.059300 1.444700
3.081700 1.458000
3.104000 1.458400
3.126400 1.486200
3.148800 1.502800
3.171100 1.518000
3.193500 1.534400
3.215900 1.549200
3.238200 1.564100
3.260600 1.578100
3.283000 1.596800
3.305300 1.619300
3.327700 1.640500
3.350100 1.652200
3.372400 1.667900
3.394800 1.664100
3.417200 1.660000
3.439500 1.654700
3.461900 1.652400
3.484300 1.758200
3.506700 1.728600
3.529000 1.695300
3.551400 1.712500
3.573800 1.742200
3.596100 1.770700
3.618500 1.797000
3.640900 1.806900
3.663200 1.800100
3.685600 1.720400
3.708000 1.680500
3.730300 1.674300
3.752700 1.690100
3.775100 1.640800
3.797400 1.620900
3.819800 1.613200
3.842200 1.605400
3.864500 1.596700
3.886900 1.590200
3.909300 1.590200
3.931600 1.594400
3.954000 1.601700
3.976400 1.614100
3.998700 1.625400
4.021100 1.634500
4.043500 1.663600
4.065800 1.728700
4.088200 1.621300
4.110600 1.492900
4.132900 1.431100
4.155300 1.405000
4.177700 1.378200
4.200000 1.359900
4.222400 1.342300
4.244800 1.329700
4.267100 1.328700
4.289500 1.324100
4.311900 1.324800
4.334200 1.328800
4.356600 1.333700
4.379000 1.375100
4.401300 1.382300
4.423700 1.400100
4.446100 1.432600
4.468400 1.477400
4.490800 1.501300
4.513200 1.526900
4.535500 1.552900
4.557900 1.563300
4.580300 1.587800
4.602600 1.611100
4.625000 1.634700
4.647400 1.672200
4.669700 1.680900
4.692100 1.702000
4.714500 1.730200
4.736800 1.701500
4.759200 1.653200
4.781600 1.607200
4.803900 1.576200
4.826300 1.595000
4.848700 1.575500
4.871000 1.556900
4.893400 1.538200
4.915800 1.496300
4.938100 1.451900
4.960500 1.430600
4.982900 1.418500
5.005200 1.445400
5.027600 1.439100
5.050000 1.425500
5.072300 1.420700
5.094700 1.420400
5.117100 1.423200
5.139400 1.426300
5.161800 1.430100
5.184200 1.434700
5.206500 1.438700
5.228900 1.441100
5.251300 1.448300
5.273600 1.464400
5.296000 1.484000
5.318400 1.507700
5.340700 1.532600
5.363100 1.507900
5.385500 1.528500
5.407800 1.543900
5.430200 1.550200
5.452600 1.555800
5.474900 1.556600
5.497300 1.554200
5.519700 1.551600
5.542000 1.554500
5.564400 1.563500
5.586800 1.578600
5.609100 1.611700
5.631500 1.688900
5.653900 1.799800
5.676200 1.832500
5.698600 1.858400
5.721000 1.891700
5.743300 1.921700
5.765700 1.942100
5.788100 1.946600
5.810400 1.945100
5.832800 1.943800
5.855200 1.950200
5.877500 1.936500
5.899900 1.918000
5.922300 1.893100
5.944600 1.861600
5.967000 1.824500
5.989400 1.787300
6.011700 1.749800
6.034100 1.748100
6.056500 1.779100
6.078800 1.728900
6.101200 1.680800
6.123600 1.652500
6.145900 1.668600
6.168300 1.688500
6.190700 1.709200
6.213000 1.645300
6.235400 1.601100
6.257800 1.544800
6.280100 1.516000
6.302500 1.518100
6.324900 1.528300
6.347200 1.536600
6.369600 1.543400
6.392000 1.533700
6.414300 1.533200
6.436700 1.529600
6.459100 1.514300
6.481400 1.493100
6.503800 1.510100
6.526200 1.524100
6.548500 1.536800
6.570900 1.556500
6.593300 1.582000
6.615600 1.613400
6.638000 1.649700
6.660400 1.686300
6.682700 1.717400
6.705100 1.792500
6.727500 1.901900
6.749800 1.903900
6.772200 1.886300
6.794600 1.832500
6.816900 1.842700
6.839300 1.868200
6.861700 1.910700
6.884000 2.139900
6.906400 2.156300
6.928800 2.111900
6.951100 2.058300
6.973500 2.020900
6.995900 2.006000
7.018200 2.003600
7.040600 2.002400
7.063000 2.007100
7.085300 2.009800
7.107700 1.999200
7.130100 2.009800
7.152400 1.929800
7.174800 1.895000
7.197200 1.862300
7.219500 1.827100
7.241900 1.786300
7.264300 1.741500
7.286600 1.689900
7.309000 1.568200
7.331400 1.498300
7.353700 1.447100
7.376100 1.402800
7.398500 1.369900
7.420800 1.381600
7.443200 1.382200
7.465600 1.381500
7.487900 1.392100
7.510300 1.451600
7.532700 1.366300
7.555000 1.362900
7.577400 1.379800
7.599800 1.416100
7.622100 1.462100
7.644500 1.514200
7.666900 1.571100
7.689200 1.652500
7.711600 1.722400
7.734000 1.780300
7.756300 1.841300
7.778700 1.897700
7.801100 1.948200
7.823400 1.998600
7.845800 2.052800
7.868200 2.116600
7.890500 2.183600
7.912900 2.250300
7.935300 2.296100
7.957600 2.323000
7.980000 2.345000
8.002400 2.348200
8.024700 2.364100
8.047100 2.365100
8.069500 2.305600
8.091800 2.291600
8.114200 2.276800
8.136600 2.264800
8.158900 2.255200
8.181300 2.235900
8.203700 2.220800
8.226000 2.078700
8.248400 2.029900
8.270800 2.014300
8.293100 1.972300
8.315500 1.916700
8.337900 1.859800
8.360200 1.838900
8.382600 1.809200
8.405000 1.786400
8.427300 1.781200
8.449700 1.790500
8.472100 1.807200
8.494400 1.836500
8.516800 1.916300
8.539200 1.876600
8.561500 1.932500
8.583900 1.959000
8.606300 2.020900
8.628600 2.000900
8.651000 2.066800
8.673400 2.146900
8.695700 2.259700
8.718100 2.426900
8.740500 2.561400
8.762900 2.663000
8.785200 2.731600
8.807600 2.776300
8.830000 2.888000
8.852300 2.682200
8.874700 2.595300
8.897100 2.466800
8.919400 2.444800
8.941800 2.387400
8.964200 2.312600
8.986500 2.228100
9.008900 2.132100
9.031300 2.139900
9.053600 2.138100
9.076000 2.027600
9.098400 2.002300
9.120700 1.994300
9.143100 1.994300
9.165500 2.003100
9.187800 2.108700
9.210200 1.968500
9.232600 2.046500
9.254900 2.126800
9.277300 2.205900
9.299700 2.274500
9.322000 2.340100
9.344400 2.444100
9.366800 2.631700
9.389100 2.868800
9.411500 2.880400
9.433900 2.812400
9.456200 2.717800
9.478600 2.621100
9.501000 2.398400
9.523300 2.199200
9.545700 2.111500
9.568100 2.061900
9.590400 1.995200
9.612800 1.942200
9.635200 1.902200
9.657500 1.868000
9.679900 1.848300
9.702300 1.829300
9.724600 1.805100
9.747000 1.782400
9.769400 1.736400
9.791700 1.683400
9.814100 1.654300
9.836500 1.639700
9.858800 1.666600
9.881200 1.801600
9.903600 2.040500
