set title 'mp-11714 - Density of States'
set xlabel 'Energy (eV)'
set ylabel 'DOS (states/eV)'
set grid
set xrange [-10:10]
set yrange [0:7.571]
set xzeroaxis lt -1
set terminal png size 800,600
set output 'mp-11714_dos_gnuplot.png'
plot '-' using 1:2 with lines title 'DOS'
-9.271000 0.000000
-9.249800 0.000000
-9.228700 0.000000
-9.207500 0.000000
-9.186300 0.000000
-9.165100 0.000000
-9.144000 0.000000
-9.122800 0.000000
-9.101600 0.000000
-9.080400 0.000000
-9.059300 0.000000
-9.038100 0.000000
-9.016900 0.000000
-8.995700 0.000000
-8.974500 0.000000
-8.953400 0.000000
-8.932200 0.000000
-8.911000 0.000000
-8.889800 0.000000
-8.868700 0.000000
-8.847500 0.000000
-8.826300 0.000000
-8.805100 0.000000
-8.784000 0.000000
-8.762800 0.000000
-8.741600 0.000000
-8.720400 0.000000
-8.699300 0.000000
-8.678100 0.000000
-8.656900 0.000000
-8.635700 0.000000
-8.614600 0.000000
-8.593400 0.000000
-8.572200 0.000000
-8.551000 0.000000
-8.529900 0.000000
-8.508700 0.000000
-8.487500 0.000000
-8.466300 0.000000
-8.445100 0.000000
-8.424000 0.000000
-8.402800 0.000000
-8.381600 0.000000
-8.360400 0.000000
-8.339300 0.000000
-8.318100 0.000000
-8.296900 0.000000
-8.275700 0.000000
-8.254600 0.000000
-8.233400 0.000000
-8.212200 0.000000
-8.191000 0.000000
-8.169900 0.000000
-8.148700 0.000000
-8.127500 0.000000
-8.106300 0.000000
-8.085200 0.000000
-8.064000 0.000000
-8.042800 0.000000
-8.021600 0.000000
-8.000500 0.000000
-7.979300 0.000000
-7.958100 0.000000
-7.936900 0.000000
-7.915700 0.000000
-7.894600 0.000000
-7.873400 0.000000
-7.852200 0.000000
-7.831000 0.000000
-7.809900 0.000000
-7.788700 0.000000
-7.767500 0.000000
-7.746300 0.000000
-7.725200 0.000000
-7.704000 0.000000
-7.682800 0.000000
-7.661600 0.000000
-7.640500 0.000000
-7.619300 0.000000
-7.598100 0.000000
-7.576900 0.000000
-7.555800 0.000000
-7.534600 0.000000
-7.513400 0.000000
-7.492200 0.000000
-7.471100 0.000000
-7.449900 0.000000
-7.428700 0.000000
-7.407500 0.000000
-7.386300 0.000000
-7.365200 0.000000
-7.344000 0.000000
-7.322800 0.004400
-7.301600 0.016100
-7.280500 0.035300
-7.259300 0.061800
-7.238100 0.095600
-7.216900 0.136900
-7.195800 0.201100
-7.174600 0.271500
-7.153400 0.342000
-7.132200 0.408800
-7.111100 0.438500
-7.089900 0.461500
-7.068700 0.477600
-7.047500 0.486900
-7.026400 0.489400
-7.005200 0.485100
-6.984000 0.372500
-6.962800 0.378700
-6.941700 0.384800
-6.920500 0.390900
-6.899300 0.397000
-6.878100 0.403200
-6.856900 0.409300
-6.835800 0.415400
-6.814600 0.421500
-6.793400 0.450600
-6.772200 0.483000
-6.751100 0.517000
-6.729900 0.552700
-6.708700 0.589900
-6.687500 0.627600
-6.666400 0.665700
-6.645200 0.704000
-6.624000 0.742500
-6.602800 0.662800
-6.581700 0.670900
-6.560500 0.674800
-6.539300 0.678900
-6.518100 0.683100
-6.497000 0.687600
-6.475800 0.693200
-6.454600 0.699900
-6.433400 0.707700
-6.412300 0.716600
-6.391100 0.726600
-6.369900 0.738900
-6.348700 0.753300
-6.327500 0.767800
-6.306400 0.782500
-6.285200 0.797300
-6.264000 0.812300
-6.242800 0.827400
-6.221700 0.842700
-6.200500 0.858100
-6.179300 0.871000
-6.158100 0.881000
-6.137000 0.889200
-6.115800 0.896600
-6.094600 0.903500
-6.073400 0.909800
-6.052300 0.915600
-6.031100 0.920800
-6.009900 0.925600
-5.988700 0.929800
-5.967600 0.941200
-5.946400 0.956900
-5.925200 0.969600
-5.904000 0.980500
-5.882900 0.988300
-5.861700 0.995900
-5.840500 1.003200
-5.819300 1.010300
-5.798100 1.017200
-5.777000 1.024000
-5.755800 1.023600
-5.734600 1.032700
-5.713400 1.041900
-5.692300 1.051000
-5.671100 1.060200
-5.649900 1.069400
-5.628700 1.078600
-5.607600 1.087900
-5.586400 1.097100
-5.565200 1.106500
-5.544000 1.116200
-5.522900 1.126300
-5.501700 1.136600
-5.480500 1.147300
-5.459300 1.158300
-5.438200 1.169700
-5.417000 1.181500
-5.395800 1.193600
-5.374600 1.196200
-5.353500 1.207400
-5.332300 1.218600
-5.311100 1.229700
-5.289900 1.259700
-5.268700 1.295800
-5.247600 1.330500
-5.226400 1.363900
-5.205200 1.396000
-5.184000 1.426700
-5.162900 1.456100
-5.141700 1.484200
-5.120500 1.510900
-5.099300 1.408100
-5.078200 1.415100
-5.057000 1.421900
-5.035800 1.428700
-5.014600 1.435400
-4.993500 1.442500
-4.972300 1.449500
-4.951100 1.456500
-4.929900 1.463300
-4.908800 1.470100
-4.887600 1.476700
-4.866400 1.483300
-4.845200 1.489700
-4.824100 1.496000
-4.802900 1.502300
-4.781700 1.509200
-4.760500 1.516200
-4.739300 1.524600
-4.718200 1.533100
-4.697000 1.537800
-4.675800 1.543300
-4.654600 1.550000
-4.633500 1.558700
-4.612300 1.567600
-4.591100 1.576700
-4.569900 1.586000
-4.548800 1.595400
-4.527600 1.605500
-4.506400 1.618400
-4.485200 1.631400
-4.464100 1.644500
-4.442900 1.658100
-4.421700 1.671800
-4.400500 1.685600
-4.379400 1.699500
-4.358200 1.719600
-4.337000 1.765100
-4.315800 1.823200
-4.294700 1.915600
-4.273500 2.006400
-4.252300 2.095800
-4.231100 2.183700
-4.209900 2.360700
-4.188800 2.394600
-4.167600 2.291000
-4.146400 2.291500
-4.125200 2.292600
-4.104100 2.294300
-4.082900 2.296600
-4.061700 2.299400
-4.040500 2.302900
-4.019400 2.306800
-3.998200 2.311400
-3.977000 2.313100
-3.955800 2.320400
-3.934700 2.328200
-3.913500 2.467400
-3.892300 2.474400
-3.871100 2.480600
-3.850000 2.486000
-3.828800 2.529900
-3.807600 2.770000
-3.786400 2.986900
-3.765300 2.958600
-3.744100 3.102600
-3.722900 3.190000
-3.701700 3.160400
-3.680500 2.405700
-3.659400 2.390800
-3.638200 2.380100
-3.617000 2.373200
-3.595800 2.364400
-3.574700 2.353800
-3.553500 2.341400
-3.532300 2.392400
-3.511100 2.413700
-3.490000 2.449900
-3.468800 2.501100
-3.447600 2.567300
-3.426400 2.272400
-3.405300 2.234700
-3.384100 2.221500
-3.362900 2.214100
-3.341700 2.212500
-3.320600 2.216300
-3.299400 2.219100
-3.278200 2.219200
-3.257000 2.216700
-3.235900 2.211600
-3.214700 2.204000
-3.193500 2.208900
-3.172300 2.214700
-3.151100 2.224600
-3.130000 2.228700
-3.108800 2.254600
-3.087600 2.312500
-3.066400 2.380100
-3.045300 2.445000
-3.024100 2.507200
-3.002900 2.566000
-2.981700 2.592500
-2.960600 3.015000
-2.939400 2.747800
-2.918200 2.499400
-2.897000 2.270100
-2.875900 2.066400
-2.854700 1.977400
-2.833500 1.959900
-2.812300 1.937700
-2.791200 1.910700
-2.770000 1.879000
-2.748800 1.842500
-2.727600 2.060300
-2.706500 2.483000
-2.685300 2.746400
-2.664100 2.850300
-2.642900 1.282100
-2.621700 1.375900
-2.600600 1.471000
-2.579400 1.567400
-2.558200 6.882800
-2.537000 4.022000
-2.515900 4.029100
-2.494700 4.195100
-2.473500 4.315700
-2.452300 4.396100
-2.431200 4.436300
-2.410000 4.346800
-2.388800 2.931900
-2.367600 2.465600
-2.346500 1.965600
-2.325300 1.431700
-2.304100 0.931700
-2.282900 0.504000
-2.261800 0.127900
-2.240600 0.000000
-2.219400 0.000000
-2.198200 0.000000
-2.177100 0.000000
-2.155900 0.000000
-2.134700 0.000000
-2.113500 0.000000
-2.092300 0.000000
-2.071200 0.000000
-2.050000 0.000000
-2.028800 0.000000
-2.007600 0.000000
-1.986500 0.000000
-1.965300 0.000000
-1.944100 0.000000
-1.922900 0.000000
-1.901800 0.000000
-1.880600 0.000000
-1.859400 0.000000
-1.838200 0.000000
-1.817100 0.000000
-1.795900 0.000000
-1.774700 0.000000
-1.753500 0.000000
-1.732400 0.000000
-1.711200 0.000000
-1.690000 0.000000
-1.668800 0.000000
-1.647700 0.000000
-1.626500 0.000000
-1.605300 0.000000
-1.584100 0.000000
-1.562900 0.000000
-1.541800 0.000000
-1.520600 0.000000
-1.499400 0.000000
-1.478200 0.000000
-1.457100 0.000000
-1.435900 0.000000
-1.414700 0.000000
-1.393500 0.000000
-1.372400 0.000000
-1.351200 0.000000
-1.330000 0.000000
-1.308800 0.000000
-1.287700 0.000000
-1.266500 0.000000
-1.245300 0.000000
-1.224100 0.000000
-1.203000 0.000000
-1.181800 0.000000
-1.160600 0.000000
-1.139400 0.000000
-1.118300 0.000000
-1.097100 0.000000
-1.075900 0.000000
-1.054700 0.000000
-1.033500 0.000000
-1.012400 0.000000
-0.991200 0.000000
-0.970000 0.000000
-0.948800 0.000000
-0.927700 0.000000
-0.906500 0.000000
-0.885300 0.000000
-0.864100 0.000000
-0.843000 0.000000
-0.821800 0.000000
-0.800600 0.000000
-0.779400 0.000000
-0.758300 0.000000
-0.737100 0.000000
-0.715900 0.000000
-0.694700 0.000000
-0.673600 0.000000
-0.652400 0.000000
-0.631200 0.000000
-0.610000 0.000000
-0.588900 0.000000
-0.567700 0.000000
-0.546500 0.000000
-0.525300 0.000000
-0.504100 0.000000
-0.483000 0.001100
-0.461800 0.003800
-0.440600 0.008100
-0.419400 0.014000
-0.398300 0.021500
-0.377100 0.030700
-0.355900 0.041500
-0.334700 0.053900
-0.313600 0.067500
-0.292400 0.082900
-0.271200 0.136400
-0.250000 0.231300
-0.228900 0.367600
-0.207700 0.545300
-0.186500 0.670600
-0.165300 0.743600
-0.144200 0.846500
-0.123000 1.376400
-0.101800 1.081500
-0.080600 0.862500
-0.059500 0.806500
-0.038300 0.846400
-0.017100 0.886800
0.004100 0.942100
0.025300 1.024600
0.046400 1.134500
0.067600 1.271600
0.088800 1.436100
0.110000 1.627900
0.131100 1.750500
0.152300 1.877400
0.173500 2.010500
0.194700 3.008900
0.215800 2.029000
0.237000 2.100200
0.258200 2.199700
0.279400 2.500100
0.300500 2.825800
0.321700 3.076000
0.342900 3.250500
0.364100 3.349900
0.385200 3.202900
0.406400 3.146800
0.427600 2.997100
0.448800 2.992000
0.469900 2.995500
0.491100 3.001500
0.512300 3.010000
0.533500 3.021000
0.554700 3.034500
0.575800 3.302300
0.597000 3.566200
0.618200 3.807700
0.639400 4.837200
0.660500 4.424800
0.681700 4.015300
0.702900 3.593000
0.724100 3.166600
0.745200 2.959700
0.766400 2.858300
0.787600 2.808100
0.808800 3.374400
0.829900 3.404700
0.851100 3.431500
0.872300 3.791300
0.893500 3.702400
0.914600 3.622200
0.935800 3.547600
0.957000 3.520100
0.978200 3.508100
0.999300 3.503600
1.020500 3.506400
1.041700 2.964000
1.062900 2.824600
1.084100 2.702400
1.105200 2.604900
1.126400 2.174000
1.147600 2.206100
1.168800 1.970100
1.189900 1.770200
1.211100 1.747700
1.232300 1.739500
1.253500 1.738400
1.274600 1.743400
1.295800 1.754600
1.317000 1.772000
1.338200 1.795400
1.359300 1.824100
1.380500 2.010800
1.401700 2.444900
1.422900 2.924300
1.444000 3.449000
1.465200 2.054300
1.486400 2.063900
1.507600 2.071800
1.528700 2.076700
1.549900 2.078600
1.571100 2.077400
1.592300 2.073200
1.613500 2.066000
1.634600 2.055800
1.655800 2.042500
1.677000 2.026200
1.698200 2.006900
1.719300 1.984900
1.740500 1.960100
1.761700 1.932500
1.782900 1.852600
1.804000 1.744600
1.825200 1.670400
1.846400 1.673900
1.867600 1.704400
1.888700 1.875600
1.909900 1.935500
1.931100 2.007100
1.952300 2.081800
1.973400 2.012600
1.994600 2.057100
2.015800 2.105400
2.037000 2.155900
2.058100 2.208600
2.079300 2.263500
2.100500 2.320600
2.121700 2.379700
2.142900 2.441000
2.164000 1.606000
2.185200 1.594300
2.206400 1.584700
2.227600 1.585200
2.248700 1.586600
2.269900 1.588900
2.291100 1.592100
2.312300 1.596200
2.333400 1.604000
2.354600 1.617200
2.375800 1.630000
2.397000 1.642500
2.418100 1.654600
2.439300 1.667900
2.460500 1.688300
2.481700 1.715700
2.502800 1.741700
2.524000 1.759500
2.545200 1.777000
2.566400 1.794400
2.587500 1.811600
2.608700 1.828700
2.629900 1.846300
2.651100 2.032000
2.672300 2.194900
2.693400 2.319700
2.714600 2.408300
2.735800 2.461000
2.757000 2.477700
2.778100 2.445500
2.799300 2.426000
2.820500 2.435800
2.841700 2.420100
2.862800 2.445400
2.884000 2.468000
2.905200 2.488000
2.926400 2.505300
2.947500 2.520200
2.968700 2.534000
2.989900 2.543900
3.011100 2.551700
3.032200 2.557400
3.053400 2.565000
3.074600 2.564200
3.095800 2.573500
3.116900 2.648300
3.138100 2.722300
3.159300 2.795400
3.180500 2.867600
3.201700 2.930800
3.222800 2.892000
3.244000 2.850500
3.265200 2.820500
3.286400 2.796700
3.307500 2.775000
3.328700 2.755300
3.349900 2.737700
3.371100 2.722000
3.392200 2.708400
3.413400 2.696900
3.434600 2.676800
3.455800 2.671400
3.476900 2.669100
3.498100 2.670100
3.519300 2.867500
3.540500 2.835800
3.561600 2.841600
3.582800 3.129100
3.604000 3.278100
3.625200 3.092000
3.646300 2.751300
3.667500 2.515900
3.688700 2.371500
3.709900 2.282900
3.731100 2.285400
3.752200 2.327200
3.773400 2.377200
3.794600 2.406600
3.815800 2.438800
3.836900 2.475700
3.858100 2.517600
3.879300 2.560600
3.900500 2.586900
3.921600 2.616800
3.942800 2.649900
3.964000 2.686300
3.985200 2.726000
4.006300 2.768800
4.027500 2.814900
4.048700 2.864300
4.069900 2.916800
4.091000 3.004200
4.112200 3.136000
4.133400 3.914200
4.154600 5.144500
4.175700 5.123900
4.196900 4.703500
4.218100 4.257300
4.239300 4.164700
4.260500 4.070500
4.281600 3.977100
4.302800 3.883900
4.324000 4.213700
4.345200 4.108100
4.366300 4.009200
4.387500 3.915800
4.408700 3.826400
4.429900 3.601600
4.451000 3.603900
4.472200 3.605000
4.493400 3.605100
4.514600 3.604200
4.535700 3.602600
4.556900 3.593700
4.578100 3.581100
4.599300 3.567200
4.620400 3.552000
4.641600 3.535600
4.662800 3.518700
4.684000 3.502300
4.705100 3.493700
4.726300 3.490800
4.747500 3.493400
4.768700 3.488500
4.789900 3.468900
4.811000 3.435500
4.832200 3.453800
4.853400 3.460100
4.874600 3.451500
4.895700 3.439900
4.916900 3.424800
4.938100 3.406300
4.959300 3.323700
4.980400 3.320900
5.001600 3.317400
5.022800 3.335500
5.044000 3.334300
5.065100 3.330100
5.086300 3.326200
5.107500 3.324000
5.128700 3.365100
5.149800 5.077300
5.171000 5.500300
5.192200 4.885100
5.213400 4.805400
5.234500 4.737200
5.255700 4.854400
5.276900 4.876200
5.298100 4.826600
5.319300 4.772600
5.340400 4.710400
5.361600 4.645200
5.382800 4.559700
5.404000 4.469600
5.425100 4.390400
5.446300 4.325500
5.467500 4.550700
5.488700 4.236100
5.509800 4.115100
5.531000 4.022700
5.552200 3.932200
5.573400 3.830800
5.594500 3.739100
5.615700 3.693900
5.636900 3.673400
5.658100 3.661700
5.679200 3.658200
5.700400 3.664000
5.721600 3.677500
5.742800 3.713000
5.763900 3.756600
5.785100 3.804600
5.806300 3.863600
5.827500 3.939500
5.848700 4.554900
5.869800 4.763600
5.891000 4.923900
5.912200 5.699700
5.933400 5.180800
5.954500 4.982400
5.975700 4.994100
5.996900 4.998700
6.018100 4.994700
6.039200 4.983800
6.060400 4.987600
6.081600 4.981400
6.102800 4.961400
6.123900 4.849700
6.145100 4.908700
6.166300 5.229800
6.187500 5.681800
6.208600 6.233400
6.229800 6.324200
6.251000 6.200400
6.272200 5.812400
6.293300 5.637400
6.314500 5.489300
6.335700 5.367300
6.356900 5.196900
6.378100 5.082500
6.399200 4.987000
6.420400 4.886300
6.441600 4.783600
6.462800 4.720400
6.483900 4.670400
6.505100 4.625800
6.526300 4.587000
6.547500 4.595600
6.568600 4.543500
6.589800 4.489600
6.611000 4.434000
6.632200 4.405700
6.653300 4.382500
6.674500 4.328800
6.695700 4.112600
6.716900 4.016100
6.738000 3.825700
6.759200 3.741200
6.780400 3.751800
6.801600 3.656900
6.822700 3.559800
6.843900 3.468600
6.865100 3.370100
6.886300 3.271100
6.907500 3.171400
6.928600 3.069100
6.949800 2.971300
6.971000 2.881000
6.992200 2.743400
7.013300 2.669500
7.034500 2.604500
7.055700 2.561200
7.076900 2.519900
7.098000 2.522500
7.119200 2.468600
7.140400 2.411400
7.161600 2.349900
7.182700 2.303600
7.203900 2.261800
7.225100 2.227300
7.246300 2.197900
7.267400 2.149100
7.288600 2.102600
7.309800 2.058600
7.331000 2.016300
7.352100 1.975600
7.373300 1.921900
7.394500 1.848600
7.415700 1.779200
7.436900 1.686100
7.458000 1.631500
7.479200 1.580900
7.500400 1.623900
7.521600 1.549200
7.542700 1.477100
7.563900 1.407600
7.585100 1.340200
7.606300 1.262400
7.627400 1.180200
7.648600 1.099300
7.669800 1.019700
7.691000 0.952800
7.712100 0.905200
7.733300 0.858300
7.754500 0.812000
7.775700 0.766300
7.796800 0.721200
7.818000 0.950500
7.839200 0.913800
7.860400 0.855200
7.881500 0.769700
7.902700 0.657300
7.923900 0.528000
7.945100 0.334700
7.966300 0.177600
7.987400 0.070100
8.008600 0.011700
8.029800 0.000000
8.051000 0.000000
8.072100 0.000000
8.093300 0.000000
8.114500 0.000000
8.135700 0.000000
8.156800 0.000000
8.178000 0.000000
8.199200 0.000000
8.220400 0.000000
8.241500 0.000000
8.262700 0.000000
8.283900 0.000000
8.305100 0.000000
8.326200 0.000000
8.347400 0.000000
8.368600 0.000000
8.389800 0.000000
8.410900 0.000000
8.432100 0.000000
8.453300 0.000000
8.474500 0.000000
8.495700 0.000000
8.516800 0.000000
8.538000 0.000000
8.559200 0.000000
8.580400 0.000000
8.601500 0.000000
8.622700 0.000000
8.643900 0.000000
8.665100 0.000000
8.686200 0.000000
8.707400 0.000000
8.728600 0.000000
8.749800 0.000000
8.770900 0.000000
8.792100 0.000000
8.813300 0.000000
8.834500 0.000000
8.855600 0.000000
8.876800 0.000000
8.898000 0.000000
8.919200 0.000000
8.940300 0.000000
8.961500 0.000000
8.982700 0.000000
9.003900 0.000000
9.025100 0.000000
9.046200 0.000000
9.067400 0.000000
9.088600 0.000000
9.109800 0.000000
9.130900 0.000000
9.152100 0.000000
9.173300 0.000000
9.194500 0.000000
9.215600 0.000000
9.236800 0.000000
9.258000 0.000000
9.279200 0.000000
9.300300 0.000000
9.321500 0.000000
9.342700 0.000000
9.363900 0.000000
9.385000 0.000000
9.406200 0.000000
9.427400 0.000000
9.448600 0.000000
9.469700 0.000000
9.490900 0.000000
9.512100 0.000000
9.533300 0.000000
9.554500 0.000000
9.575600 0.000000
9.596800 0.000000
9.618000 0.000000
9.639200 0.000000
9.660300 0.000000
9.681500 0.000000
9.702700 0.000000
9.723900 0.000000
9.745000 0.000000
9.766200 0.000000
9.787400 0.000000
9.808600 0.000000
9.829700 0.000000
9.850900 0.000000
9.872100 0.000000
9.893300 0.000000
9.914400 0.000000
9.935600 0.000000
9.956800 0.000000
9.978000 0.000000
9.999100 0.000000
10.020300 0.000000
10.041500 0.000000
10.062700 0.000000
10.083900 0.000000
10.105000 0.000000
10.126200 0.000000
10.147400 0.000000
10.168600 0.000000
10.189700 0.000000
10.210900 0.000000
10.232100 0.000000
10.253300 0.000000
10.274400 0.000000
10.295600 0.000000
10.316800 0.000000
10.338000 0.000000
10.359100 0.006000
10.380300 0.027000
10.401500 0.048700
10.422700 0.071000
10.443800 0.094000
10.465000 0.127200
10.486200 0.163900
10.507400 0.202100
10.528500 0.241600
10.549700 0.282500
10.570900 0.324700
10.592100 0.457100
10.613300 0.487400
10.634400 0.518900
10.655600 0.551600
10.676800 0.658300
10.698000 0.685200
10.719100 0.712600
10.740300 0.740500
10.761500 0.768700
10.782700 0.797500
10.803800 0.826700
10.825000 0.856300
10.846200 0.886400
10.867400 0.916900
10.888500 0.947900
10.909700 0.979300
10.930900 1.011200
10.952100 1.043400
10.973200 1.076200
10.994400 1.109400
11.015600 1.141700
11.036800 1.171000
11.057900 1.197200
11.079100 1.220400
11.100300 1.239000
11.121500 1.254100
11.142700 1.275500
11.163800 1.310000
11.185000 1.347000
11.206200 1.383900
11.227400 1.420800
11.248500 1.457600
11.269700 1.492800
11.290900 1.522800
11.312100 1.553700
11.333200 1.590500
11.354400 1.636800
11.375600 1.701300
11.396800 1.765300
11.417900 1.900900
11.439100 2.092800
11.460300 2.316500
11.481500 2.576600
11.502600 2.873000
11.523800 3.205800
11.545000 3.441900
11.566200 3.335500
11.587300 2.688000
11.608500 2.692300
11.629700 2.683400
11.650900 2.635000
11.672100 2.571000
11.693200 2.519500
11.714400 2.480300
11.735600 2.052800
11.756800 2.009800
11.777900 1.969300
11.799100 1.931400
11.820300 1.896000
11.841500 1.863100
11.862600 1.832800
11.883800 1.805200
11.905000 1.780200
11.926200 1.758000
11.947300 1.738400
11.968500 1.721500
11.989700 1.707300
12.010900 1.694200
12.032000 1.680300
12.053200 1.665600
12.074400 1.738100
12.095600 1.748500
12.116700 1.760400
12.137900 1.773800
12.159100 1.789000
12.180300 1.818900
12.201500 1.899000
12.222600 1.984300
12.243800 2.086000
12.265000 2.169000
12.286200 2.060400
12.307300 1.590000
12.328500 1.596800
12.349700 1.603100
12.370900 1.608800
12.392000 1.781100
12.413200 2.162900
12.434400 2.660900
12.455600 2.206700
12.476700 1.823100
12.497900 1.679200
12.519100 1.643100
12.540300 1.609900
12.561400 1.579300
12.582600 1.551500
12.603800 1.526300
12.625000 1.503900
12.646100 1.484100
12.667300 1.468100
12.688500 1.456000
12.709700 1.858700
12.730900 1.996700
12.752000 2.176600
12.773200 2.355300
12.794400 2.531300
12.815600 2.702200
12.836700 2.852600
12.857900 2.950000
12.879100 3.064300
12.900300 3.158800
12.921400 3.233500
12.942600 3.674500
12.963800 3.656800
12.985000 3.551000
13.006100 3.453600
13.027300 3.394700
13.048500 3.340900
13.069700 3.292400
13.090800 3.256200
13.112000 3.224900
13.133200 3.194100
13.154400 3.164300
13.175500 3.135700
13.196700 3.108400
13.217900 3.082200
