set title 'mp-1224812 - Density of States'
set xlabel 'Energy (eV)'
set ylabel 'DOS (states/eV)'
set grid
set xrange [-10:10]
set yrange [0:23.722]
set xzeroaxis lt -1
set terminal png size 800,600
set output 'mp-1224812_dos_gnuplot.png'
plot '-' using 1:2 with lines title 'DOS'
-13.104300 0.000000
-13.073500 0.000000
-13.042700 0.000000
-13.012000 0.000000
-12.981200 0.000000
-12.950400 0.000000
-12.919700 0.000000
-12.888900 0.000000
-12.858200 0.000000
-12.827400 0.000000
-12.796600 0.000000
-12.765900 0.000000
-12.735100 0.000000
-12.704400 0.000000
-12.673600 0.000000
-12.642800 0.000000
-12.612100 0.000000
-12.581300 0.000000
-12.550600 0.000000
-12.519800 0.000000
-12.489000 0.000000
-12.458300 0.000000
-12.427500 0.000000
-12.396800 0.000000
-12.366000 0.000000
-12.335200 0.000000
-12.304500 0.000000
-12.273700 0.000000
-12.243000 0.000000
-12.212200 0.000000
-12.181400 0.000000
-12.150700 0.000000
-12.119900 0.000000
-12.089200 0.000000
-12.058400 0.000000
-12.027600 0.000000
-11.996900 0.000000
-11.966100 0.000000
-11.935400 0.000000
-11.904600 0.000000
-11.873800 0.000000
-11.843100 0.000000
-11.812300 0.000000
-11.781500 0.000000
-11.750800 0.000000
-11.720000 0.000000
-11.689300 0.000000
-11.658500 0.000000
-11.627700 0.000000
-11.597000 0.000000
-11.566200 0.000000
-11.535500 0.000000
-11.504700 0.000000
-11.473900 0.000000
-11.443200 0.000000
-11.412400 0.000000
-11.381700 0.000000
-11.350900 0.000000
-11.320100 0.000000
-11.289400 0.000000
-11.258600 0.000000
-11.227900 0.000000
-11.197100 0.000000
-11.166300 0.000000
-11.135600 0.000000
-11.104800 0.000000
-11.074100 0.000000
-11.043300 0.000000
-11.012500 0.000000
-10.981800 0.000000
-10.951000 0.000000
-10.920300 0.000000
-10.889500 0.000000
-10.858700 0.000000
-10.828000 0.000000
-10.797200 0.000000
-10.766500 0.000000
-10.735700 0.000000
-10.704900 0.000000
-10.674200 0.000000
-10.643400 0.000000
-10.612700 0.000000
-10.581900 0.000000
-10.551100 0.000000
-10.520400 0.000000
-10.489600 0.000000
-10.458800 0.000000
-10.428100 0.000000
-10.397300 0.000000
-10.366600 0.000000
-10.335800 0.000000
-10.305000 0.000000
-10.274300 2.114100
-10.243500 2.103400
-10.212800 2.356400
-10.182000 2.445700
-10.151200 2.733300
-10.120500 3.013600
-10.089700 3.690100
-10.059000 5.249300
-10.028200 4.299100
-9.997400 1.854400
-9.966700 1.206000
-9.935900 6.774000
-9.905200 7.158600
-9.874400 9.993600
-9.843600 7.120200
-9.812900 3.561900
-9.782100 2.320400
-9.751400 7.865500
-9.720600 6.950300
-9.689800 3.878300
-9.659100 8.280900
-9.628300 8.870700
-9.597600 12.805600
-9.566800 4.725300
-9.536000 21.565000
-9.505300 7.501000
-9.474500 3.807000
-9.443800 2.548300
-9.413000 2.009400
-9.382200 0.000000
-9.351500 0.000000
-9.320700 0.000000
-9.289900 0.000000
-9.259200 0.000000
-9.228400 0.000000
-9.197700 0.000000
-9.166900 0.000000
-9.136100 0.000000
-9.105400 0.000000
-9.074600 0.000000
-9.043900 0.000000
-9.013100 0.000000
-8.982300 0.000000
-8.951600 0.000000
-8.920800 0.000000
-8.890100 0.000000
-8.859300 0.000000
-8.828500 0.000000
-8.797800 0.000000
-8.767000 0.000000
-8.736300 0.000000
-8.705500 0.000000
-8.674700 0.000000
-8.644000 0.000000
-8.613200 0.000000
-8.582500 0.000000
-8.551700 0.000000
-8.520900 0.000000
-8.490200 0.000000
-8.459400 0.000000
-8.428700 0.000000
-8.397900 0.000000
-8.367100 0.000000
-8.336400 0.000000
-8.305600 0.000000
-8.274900 0.000000
-8.244100 0.000000
-8.213300 0.000000
-8.182600 0.000000
-8.151800 0.000000
-8.121100 0.000000
-8.090300 0.000000
-8.059500 0.000000
-8.028800 0.000000
-7.998000 0.000000
-7.967200 0.000000
-7.936500 0.000000
-7.905700 0.000000
-7.875000 0.000000
-7.844200 0.000000
-7.813400 0.000000
-7.782700 0.000000
-7.751900 0.000000
-7.721200 0.000000
-7.690400 0.000000
-7.659600 0.000000
-7.628900 0.000000
-7.598100 0.000000
-7.567400 0.000000
-7.536600 0.000000
-7.505800 0.000000
-7.475100 0.000000
-7.444300 0.000000
-7.413600 0.000000
-7.382800 0.000000
-7.352000 0.000000
-7.321300 0.000000
-7.290500 0.000000
-7.259800 0.000000
-7.229000 0.000000
-7.198200 0.000000
-7.167500 0.000000
-7.136700 0.000000
-7.106000 0.000000
-7.075200 0.000000
-7.044400 0.000000
-7.013700 0.000000
-6.982900 0.000000
-6.952200 0.000000
-6.921400 0.000000
-6.890600 0.000000
-6.859900 0.000000
-6.829100 0.000000
-6.798300 0.000000
-6.767600 0.000000
-6.736800 0.000000
-6.706100 0.000000
-6.675300 0.000000
-6.644500 0.000000
-6.613800 0.000000
-6.583000 0.000000
-6.552300 0.002800
-6.521500 0.038000
-6.490700 0.073400
-6.460000 0.108800
-6.429200 0.144200
-6.398500 0.179600
-6.367700 0.215000
-6.336900 0.109700
-6.306200 0.112400
-6.275400 0.115200
-6.244700 0.118000
-6.213900 0.120800
-6.183100 0.123500
-6.152400 0.126300
-6.121600 0.129100
-6.090900 0.131900
-6.060100 0.134700
-6.029300 0.137400
-5.998600 0.140200
-5.967800 0.141300
-5.937100 0.137400
-5.906300 0.133500
-5.875500 0.129500
-5.844800 0.125600
-5.814000 0.121700
-5.783300 0.117800
-5.752500 0.117900
-5.721700 0.118800
-5.691000 0.119800
-5.660200 0.120700
-5.629500 0.121600
-5.598700 0.122500
-5.567900 0.123400
-5.537200 0.124400
-5.506400 0.125300
-5.475600 0.126200
-5.444900 0.127100
-5.414100 0.128000
-5.383400 0.128900
-5.352600 0.129900
-5.321800 0.130800
-5.291100 0.131700
-5.260300 0.132600
-5.229600 0.133500
-5.198800 0.134500
-5.168000 0.123700
-5.137300 0.123500
-5.106500 0.123200
-5.075800 0.122900
-5.045000 0.122600
-5.014200 0.122300
-4.983500 0.122000
-4.952700 0.121800
-4.922000 0.121500
-4.891200 0.121200
-4.860400 0.120900
-4.829700 0.120600
-4.798900 0.120400
-4.768200 0.120200
-4.737400 0.120700
-4.706600 0.121200
-4.675900 0.121600
-4.645100 0.122100
-4.614400 0.122600
-4.583600 0.123100
-4.552800 0.123500
-4.522100 0.124000
-4.491300 0.124500
-4.460600 0.124900
-4.429800 0.125400
-4.399000 0.125900
-4.368300 0.126400
-4.337500 0.126800
-4.306700 0.127300
-4.276000 0.127800
-4.245200 0.128200
-4.214500 0.128700
-4.183700 0.129200
-4.152900 0.129500
-4.122200 0.128300
-4.091400 0.127000
-4.060700 0.125800
-4.029900 0.124600
-3.999100 0.123400
-3.968400 0.122200
-3.937600 0.121900
-3.906900 0.122000
-3.876100 0.122100
-3.845300 0.122300
-3.814600 0.122400
-3.783800 0.122500
-3.753100 0.122600
-3.722300 0.122800
-3.691500 0.122900
-3.660800 0.123000
-3.630000 0.123200
-3.599300 0.123300
-3.568500 0.123400
-3.537700 0.123500
-3.507000 0.123700
-3.476200 0.123800
-3.445500 0.123900
-3.414700 0.124000
-3.383900 0.124200
-3.353200 0.124300
-3.322400 0.124700
-3.291700 0.125000
-3.260900 0.125300
-3.230100 0.125700
-3.199400 0.126000
-3.168600 0.126400
-3.137900 0.126700
-3.107100 0.127000
-3.076300 0.127400
-3.045600 0.127700
-3.014800 0.128000
-2.984000 0.129300
-2.953300 0.134800
-2.922500 0.142700
-2.891800 0.152400
-2.861000 0.163500
-2.830200 0.175900
-2.799500 0.189400
-2.768700 0.202800
-2.738000 0.195100
-2.707200 0.197200
-2.676400 0.200700
-2.645700 0.204700
-2.614900 0.208600
-2.584200 0.213100
-2.553400 0.217700
-2.522600 0.222300
-2.491900 0.228300
-2.461100 0.234200
-2.430400 0.239600
-2.399600 0.244400
-2.368800 0.248200
-2.338100 0.250600
-2.307300 0.250500
-2.276600 0.246800
-2.245800 0.247400
-2.215000 0.250300
-2.184300 0.254500
-2.153500 0.258900
-2.122800 0.263500
-2.092000 0.268500
-2.061200 0.274200
-2.030500 0.278700
-1.999700 0.281100
-1.969000 0.283800
-1.938200 0.286700
-1.907400 0.289700
-1.876700 0.292900
-1.845900 0.295900
-1.815100 0.299100
-1.784400 0.302500
-1.753600 0.305900
-1.722900 0.309500
-1.692100 0.313400
-1.661300 0.317700
-1.630600 0.322100
-1.599800 0.326700
-1.569100 0.331400
-1.538300 0.335900
-1.507500 0.340200
-1.476800 0.344100
-1.446000 0.347400
-1.415300 0.350900
-1.384500 0.354600
-1.353700 0.358300
-1.323000 0.362100
-1.292200 0.366100
-1.261500 0.370000
-1.230700 0.374100
-1.199900 0.378100
-1.169200 0.382400
-1.138400 0.386800
-1.107700 0.391100
-1.076900 0.395800
-1.046100 0.400800
-1.015400 0.405900
-0.984600 0.412200
-0.953900 0.418900
-0.923100 0.425200
-0.892300 0.431200
-0.861600 0.436500
-0.830800 0.441000
-0.800100 0.444700
-0.769300 0.447500
-0.738500 0.449500
-0.707800 0.453300
-0.677000 0.465700
-0.646300 0.475500
-0.615500 0.482800
-0.584700 0.488600
-0.554000 0.589800
-0.523200 0.605500
-0.492400 0.601800
-0.461700 0.598600
-0.430900 0.595800
-0.400200 0.593400
-0.369400 0.591400
-0.338600 0.589800
-0.307900 0.588600
-0.277100 0.588100
-0.246400 0.588100
-0.215600 0.588300
-0.184800 0.588900
-0.154100 0.589900
-0.123300 0.591100
-0.092600 0.592600
-0.061800 0.594200
-0.031000 0.596000
-0.000300 0.603400
0.030500 0.613600
0.061200 0.625000
0.092000 0.637800
0.122800 0.652100
0.153500 0.667700
0.184300 0.684100
0.215000 0.702000
0.245800 0.725500
0.276600 0.761400
0.307300 0.808700
0.338100 0.865900
0.368800 0.923100
0.399600 0.979900
0.430400 1.032500
0.461100 1.080300
0.491900 1.647700
0.522600 1.657900
0.553400 1.595700
0.584200 1.605300
0.614900 1.702100
0.645700 1.689400
0.676500 2.068200
0.707200 2.615400
0.738000 2.729800
0.768700 2.517000
0.799500 2.242900
0.830300 2.038000
0.861000 2.070100
0.891800 2.183500
0.922500 2.344900
0.953300 2.426600
0.984100 2.445400
1.014800 2.419400
1.045600 2.399700
1.076300 2.450200
1.107100 2.501200
1.137900 2.563000
1.168600 2.792600
1.199400 3.445600
1.230100 4.044600
1.260900 3.827300
1.291700 3.941000
1.322400 4.146100
1.353200 4.727800
1.383900 4.419300
1.414700 4.073000
1.445500 4.065400
1.476200 4.168200
1.507000 4.083100
1.537700 4.042400
1.568500 4.207500
1.599300 4.473600
1.630000 4.897100
1.660800 3.574300
1.691500 4.116200
1.722300 4.521800
1.753100 4.222300
1.783800 3.597700
1.814600 3.430700
1.845300 3.582300
1.876100 3.776800
1.906900 4.075600
1.937600 3.907300
1.968400 2.944400
1.999200 4.193900
2.029900 4.616600
2.060700 4.462900
2.091400 3.699400
2.122200 3.215500
2.153000 3.341700
2.183700 3.766100
2.214500 3.912700
2.245200 4.317100
2.276000 3.792500
2.306800 3.998700
2.337500 4.646500
2.368300 4.176100
2.399000 3.901800
2.429800 4.178000
2.460600 5.115700
2.491300 4.523100
2.522100 4.249100
2.552800 4.208400
2.583600 4.150200
2.614400 4.920300
2.645100 4.866700
2.675900 5.132900
2.706600 5.636200
2.737400 7.033500
2.768200 8.716100
2.798900 6.134700
2.829700 6.158700
2.860400 8.778000
2.891200 8.853000
2.922000 7.277100
2.952700 5.076900
2.983500 4.404600
3.014200 5.340100
3.045000 8.502600
3.075800 5.905100
3.106500 8.114500
3.137300 6.301100
3.168100 4.006800
3.198800 3.749800
3.229600 4.224700
3.260300 6.553700
3.291100 7.733000
3.321900 5.557400
3.352600 5.037600
3.383400 5.288400
3.414100 5.225100
3.444900 5.234700
3.475700 4.274300
3.506400 4.427800
3.537200 4.331800
3.567900 4.234300
3.598700 3.931200
3.629500 5.079200
3.660200 5.127400
3.691000 4.608900
3.721700 5.458200
3.752500 4.419600
3.783300 4.237200
3.814000 4.708900
3.844800 4.730100
3.875500 5.956600
3.906300 7.355000
3.937100 7.196200
3.967800 6.895900
3.998600 7.459000
4.029300 6.513300
4.060100 5.838800
4.090900 5.663800
4.121600 5.539200
4.152400 5.574500
4.183100 4.844600
4.213900 4.319400
4.244700 4.248300
4.275400 6.831100
4.306200 6.486900
4.336900 5.970700
4.367700 5.558300
4.398500 4.756300
4.429200 4.807400
4.460000 8.030400
4.490800 5.570000
4.521500 5.743000
4.552300 6.785500
4.583000 7.581800
4.613800 11.338500
4.644600 3.250200
4.675300 2.268500
4.706100 2.130500
4.736800 2.289800
4.767600 2.360800
4.798400 2.338100
4.829100 2.197500
4.859900 2.114400
4.890600 2.041000
4.921400 1.995200
4.952200 1.928300
4.982900 1.835500
5.013700 1.755100
5.044400 1.690800
5.075200 1.674000
5.106000 1.709500
5.136700 1.704100
5.167500 1.577400
5.198200 1.172400
5.229000 1.129900
5.259800 1.116400
5.290500 1.183100
5.321300 1.016700
5.352000 0.931000
5.382800 0.904600
5.413600 0.892400
5.444300 0.881900
5.475100 0.873100
5.505800 0.864600
5.536600 0.856300
5.567400 0.848400
5.598100 0.840800
5.628900 0.834000
5.659700 0.827800
5.690400 0.822200
5.721200 0.816900
5.751900 0.811700
5.782700 0.812800
5.813500 0.850800
5.844200 0.898100
5.875000 0.951000
5.905700 1.008700
5.936500 1.077800
5.967300 1.168600
5.998000 1.311700
6.028800 1.695000
6.059500 0.934000
6.090300 0.760200
6.121100 0.675700
6.151800 0.655800
6.182600 0.646800
6.213300 0.580300
6.244100 0.567100
6.274900 0.566700
6.305600 0.571200
6.336400 0.579600
6.367100 0.590700
6.397900 0.605900
6.428700 0.620600
6.459400 0.634800
6.490200 0.649100
6.520900 0.663100
6.551700 0.675300
6.582500 0.683600
6.613200 0.690400
6.644000 0.696200
6.674700 0.701400
6.705500 0.707800
6.736300 0.721000
6.767000 0.732800
6.797800 0.735600
6.828500 0.737000
6.859300 0.738500
6.890100 0.737400
6.920800 0.733500
6.951600 0.722400
6.982400 0.709700
7.013100 0.695000
7.043900 0.676500
7.074600 0.643100
7.105400 0.612300
7.136200 0.596300
7.166900 0.580000
7.197700 0.581600
7.228400 0.588700
7.259200 0.599800
7.290000 0.615300
7.320700 0.632100
7.351500 0.649700
7.382200 0.671400
7.413000 0.695900
7.443800 0.723800
7.474500 0.762700
7.505300 0.799300
7.536000 0.720500
7.566800 0.684500
7.597600 0.666600
7.628300 0.656100
7.659100 0.645500
7.689800 0.643200
7.720600 0.681600
7.751400 0.700200
7.782100 0.748800
7.812900 0.854400
7.843600 0.892000
7.874400 0.738500
7.905200 0.630300
7.935900 0.577200
7.966700 0.540500
7.997400 0.514800
8.028200 0.500300
8.059000 0.503100
8.089700 0.510100
8.120500 0.517300
8.151300 0.524300
8.182000 0.531900
8.212800 0.539700
8.243500 0.547200
8.274300 0.553900
8.305100 0.649400
8.335800 0.737500
8.366600 0.793500
8.397300 0.828000
8.428100 0.829800
8.458900 0.801900
8.489600 0.772200
8.520400 0.747400
8.551100 0.722800
8.581900 0.691100
8.612700 0.667900
8.643400 0.646700
8.674200 0.637600
8.704900 0.647500
8.735700 0.672000
8.766500 0.609000
8.797200 0.587600
8.828000 0.567300
8.858700 0.544900
8.889500 0.524600
8.920300 0.496100
8.951000 0.482700
8.981800 0.483000
9.012500 0.494100
9.043300 0.533000
9.074100 0.571400
9.104800 0.472300
9.135600 0.396900
9.166300 0.383700
9.197100 0.380800
9.227900 0.381700
9.258600 0.383800
9.289400 0.384400
9.320100 0.384900
9.350900 0.409500
9.381700 0.436000
9.412400 0.453700
9.443200 0.462800
9.474000 0.467300
9.504700 0.470700
9.535500 0.478200
9.566200 0.488000
9.597000 0.495600
9.627800 0.497900
9.658500 0.497800
9.689300 0.495900
9.720000 0.493900
9.750800 0.493300
9.781600 0.492400
9.812300 0.492700
9.843100 0.493500
9.873800 0.493400
9.904600 0.490300
9.935400 0.485600
9.966100 0.477900
9.996900 0.467700
10.027600 0.461700
10.058400 0.455800
10.089200 0.449600
10.119900 0.442700
10.150700 0.433100
10.181400 0.425200
10.212200 0.418500
10.243000 0.412700
10.273700 0.408600
10.304500 0.400700
10.335200 0.490700
10.366000 0.621100
10.396800 0.761700
10.427500 0.907400
10.458300 1.025600
10.489000 1.101300
10.519800 1.156800
10.550600 1.071600
10.581300 0.733300
10.612100 0.696900
10.642900 0.668000
10.673600 0.630200
10.704400 0.587000
10.735100 0.567000
10.765900 0.551900
10.796700 0.536300
10.827400 0.520400
10.858200 0.508900
10.888900 0.477600
10.919700 0.462900
10.950500 0.463300
10.981200 0.467200
11.012000 0.476600
11.042700 0.508300
11.073500 0.532000
11.104300 0.550800
11.135000 0.571200
11.165800 0.599700
11.196500 0.637100
11.227300 0.683000
11.258100 0.755200
11.288800 0.759300
11.319600 0.775600
11.350300 0.776300
11.381100 0.789300
11.411900 0.805800
11.442600 0.792000
11.473400 0.781400
11.504100 0.792000
11.534900 0.822000
11.565700 0.834900
11.596400 0.824600
11.627200 0.799800
11.657900 0.763000
11.688700 0.725600
11.719500 0.695600
11.750200 0.669000
11.781000 0.644100
11.811700 0.625800
11.842500 0.608100
11.873300 0.594300
11.904000 0.585600
11.934800 0.590200
11.965600 0.594700
11.996300 0.608900
12.027100 0.633300
12.057800 0.663400
12.088600 0.696800
12.119400 0.727000
12.150100 0.753000
12.180900 0.771900
12.211600 0.795100
12.242400 0.818900
12.273200 0.834200
12.303900 0.838100
12.334700 0.807100
12.365400 0.796700
12.396200 0.814000
12.427000 0.864200
12.457700 0.920700
12.488500 0.935000
12.519200 0.900500
12.550000 0.859100
12.580800 0.835000
12.611500 0.817800
12.642300 0.799700
12.673000 0.784300
12.703800 0.769100
12.734600 0.754300
12.765300 0.739700
12.796100 0.729700
12.826800 0.735600
12.857600 0.742000
12.888400 0.744100
12.919100 0.747800
12.949900 0.755200
12.980600 0.764400
13.011400 0.774100
13.042200 0.782500
13.072900 0.788200
13.103700 0.791100
13.134500 0.792200
13.165200 0.796700
13.196000 0.813900
13.226700 0.854900
13.257500 0.860700
13.288300 0.802300
13.319000 0.826200
13.349800 0.859900
13.380500 0.878700
13.411300 0.904200
13.442100 0.900200
13.472800 0.878400
13.503600 0.882800
13.534300 0.858700
13.565100 0.865500
13.595900 0.874500
13.626600 0.885000
13.657400 0.890600
13.688100 0.909700
13.718900 0.914200
13.749700 0.940600
13.780400 0.980100
13.811200 0.942100
13.841900 0.897300
13.872700 0.843000
13.903500 0.783200
13.934200 0.743000
13.965000 0.727900
13.995700 0.716200
14.026500 0.704700
14.057300 0.696300
14.088000 0.687000
14.118800 0.682000
14.149500 0.680000
14.180300 0.680400
14.211100 0.684100
14.241800 0.691800
14.272600 0.727700
14.303300 0.769300
14.334100 0.744900
14.364900 0.727300
14.395600 0.722500
14.426400 0.724400
14.457200 0.761400
14.487900 0.739500
14.518700 0.712500
14.549400 0.702000
14.580200 0.695100
14.611000 0.690900
14.641700 0.691800
14.672500 0.731000
14.703200 0.760700
14.734000 0.765900
14.764800 0.756600
14.795500 0.749300
14.826300 0.741700
14.857000 0.740000
14.887800 0.741700
14.918600 0.757400
14.949300 0.779600
14.980100 0.806800
15.010800 0.827900
15.041600 0.840500
15.072400 0.850700
15.103100 0.856600
15.133900 0.867400
15.164600 0.876500
15.195400 0.874800
15.226200 0.870100
15.256900 0.860000
15.287700 0.848700
15.318400 0.839400
15.349200 0.828100
15.380000 0.824400
15.410700 0.824000
15.441500 0.827500
15.472200 0.844200
15.503000 0.868000
15.533800 0.894100
15.564500 0.944300
15.595300 0.916700
15.626100 0.915300
15.656800 0.921000
15.687600 0.921400
15.718300 0.913200
15.749100 0.906700
15.779900 0.898600
15.810600 0.892300
15.841400 0.890300
15.872100 0.891000
15.902900 0.894200
15.933700 0.905500
15.964400 0.926900
15.995200 0.948300
16.025900 0.927100
16.056700 0.950200
16.087500 0.982700
16.118200 1.002700
16.149000 0.997400
16.179700 0.992700
16.210500 0.998300
16.241300 0.994000
16.272000 0.980100
16.302800 0.984800
16.333500 0.992500
16.364300 0.975600
16.395100 0.957200
16.425800 0.940700
16.456600 0.928700
16.487300 0.938400
16.518100 0.959000
16.548900 0.970700
16.579600 0.976400
16.610400 0.976500
16.641100 0.971800
16.671900 0.978700
16.702700 0.947800
16.733400 0.939500
16.764200 0.930600
16.794900 0.922600
16.825700 0.925900
16.856500 0.928400
16.887200 0.914200
16.918000 0.883500
16.948800 0.846200
16.979500 0.838300
17.010300 0.834900
17.041000 0.832600
17.071800 0.829900
17.102600 0.826000
17.133300 0.824800
17.164100 0.822500
17.194800 0.828200
17.225600 0.848200
17.256400 0.840500
17.287100 0.847000
17.317900 0.851000
17.348600 0.849300
17.379400 0.846000
17.410200 0.839100
17.440900 0.831600
17.471700 0.831600
17.502400 0.832400
17.533200 0.832500
17.564000 0.831800
17.594700 0.832200
17.625500 0.834800
17.656200 0.841400
17.687000 0.856200
17.717800 0.862900
17.748500 0.843700
17.779300 0.869700
17.810000 0.924400
17.840800 0.975700
17.871600 0.981800
17.902300 1.013000
17.933100 0.995700
17.963800 0.975900
17.994600 0.966700
18.025400 0.963200
18.056100 0.959400
18.086900 0.956100
18.117700 0.954200
18.148400 0.953700
18.179200 0.954100
18.209900 0.956400
18.240700 0.957600
18.271500 0.960200
18.302200 1.005800
18.333000 0.975000
18.363700 0.980800
18.394500 0.955100
18.425300 0.950100
18.456000 0.949600
18.486800 0.948100
18.517500 0.954300
18.548300 0.962900
18.579100 0.971600
18.609800 0.980300
18.640600 0.990600
18.671300 1.004600
18.702100 1.019000
18.732900 1.030400
18.763600 1.039500
18.794400 1.046400
18.825100 1.049000
18.855900 1.050100
18.886700 1.054600
18.917400 1.066700
18.948200 1.071300
18.978900 1.076700
19.009700 1.083300
19.040500 1.092800
19.071200 1.097000
19.102000 1.092700
19.132700 1.092100
