set title 'mp-1057015 - Density of States'
set xlabel 'Energy (eV)'
set ylabel 'DOS (states/eV)'
set grid
set xrange [-10:10]
set yrange [0:4.585]
set xzeroaxis lt -1
set terminal png size 800,600
set output 'mp-1057015_dos_gnuplot.png'
plot '-' using 1:2 with lines title 'DOS'
-13.853400 0.000000
-13.828600 0.000000
-13.803800 0.000000
-13.779000 0.000000
-13.754200 0.000000
-13.729500 0.000000
-13.704700 0.000000
-13.679900 0.000000
-13.655100 0.000000
-13.630300 0.000000
-13.605500 0.000000
-13.580700 0.000000
-13.555900 0.000000
-13.531100 0.000000
-13.506300 0.000000
-13.481500 0.000000
-13.456700 0.000000
-13.431900 0.000000
-13.407100 0.000000
-13.382300 0.000000
-13.357500 0.000000
-13.332700 0.000000
-13.307900 0.000000
-13.283100 0.000000
-13.258400 0.000000
-13.233600 0.000000
-13.208800 0.000000
-13.184000 0.000000
-13.159200 0.000000
-13.134400 0.000000
-13.109600 0.000000
-13.084800 0.000000
-13.060000 0.000000
-13.035200 0.000000
-13.010400 0.000000
-12.985600 0.000000
-12.960800 0.000000
-12.936000 0.000000
-12.911200 0.000000
-12.886400 0.000000
-12.861600 0.000000
-12.836800 0.000000
-12.812000 0.000000
-12.787300 0.000000
-12.762500 0.000000
-12.737700 0.000000
-12.712900 0.000000
-12.688100 0.000000
-12.663300 0.000000
-12.638500 0.000000
-12.613700 0.000000
-12.588900 0.000000
-12.564100 0.000000
-12.539300 0.000000
-12.514500 0.000000
-12.489700 0.000000
-12.464900 0.000000
-12.440100 0.000000
-12.415300 0.000000
-12.390500 0.000000
-12.365700 0.000000
-12.341000 0.000000
-12.316200 0.000000
-12.291400 0.000000
-12.266600 0.000000
-12.241800 0.000000
-12.217000 0.000000
-12.192200 0.000000
-12.167400 0.000000
-12.142600 0.000000
-12.117800 0.000000
-12.093000 0.000000
-12.068200 0.000000
-12.043400 0.000000
-12.018600 0.000000
-11.993800 0.000000
-11.969000 0.000000
-11.944200 0.000000
-11.919400 0.000000
-11.894600 0.000000
-11.869900 0.000000
-11.845100 0.000000
-11.820300 0.000000
-11.795500 0.000000
-11.770700 0.000000
-11.745900 0.000000
-11.721100 0.000000
-11.696300 0.000000
-11.671500 0.000000
-11.646700 0.000000
-11.621900 0.000000
-11.597100 6.800900
-11.572300 19.553700
-11.547500 22.843900
-11.522700 30.021500
-11.497900 224.938600
-11.473100 69.509100
-11.448300 90.693500
-11.423500 0.000000
-11.398800 0.000000
-11.374000 0.000000
-11.349200 0.000000
-11.324400 0.000000
-11.299600 0.000000
-11.274800 0.000000
-11.250000 0.000000
-11.225200 0.000000
-11.200400 0.000000
-11.175600 0.000000
-11.150800 0.000000
-11.126000 0.000000
-11.101200 0.000000
-11.076400 0.000000
-11.051600 0.000000
-11.026800 0.000000
-11.002000 0.000000
-10.977200 0.000000
-10.952500 0.000000
-10.927700 0.000000
-10.902900 0.000000
-10.878100 0.000000
-10.853300 0.000000
-10.828500 0.000000
-10.803700 0.000000
-10.778900 0.000000
-10.754100 0.000000
-10.729300 0.000000
-10.704500 0.000000
-10.679700 0.000000
-10.654900 0.000000
-10.630100 0.000000
-10.605300 0.000000
-10.580500 0.000000
-10.555700 0.000000
-10.530900 0.000000
-10.506100 0.000000
-10.481400 0.000000
-10.456600 0.000000
-10.431800 0.000000
-10.407000 0.000000
-10.382200 0.000000
-10.357400 0.000000
-10.332600 0.000000
-10.307800 0.000000
-10.283000 0.000000
-10.258200 0.000000
-10.233400 0.000000
-10.208600 0.000000
-10.183800 0.000000
-10.159000 0.000000
-10.134200 0.000000
-10.109400 0.000000
-10.084600 0.000000
-10.059800 0.000000
-10.035100 0.000000
-10.010300 0.000000
-9.985500 0.000000
-9.960700 0.000000
-9.935900 0.000000
-9.911100 0.000000
-9.886300 0.000000
-9.861500 0.000000
-9.836700 0.000000
-9.811900 0.000000
-9.787100 0.000000
-9.762300 0.000000
-9.737500 0.000000
-9.712700 0.000000
-9.687900 0.000000
-9.663100 0.000000
-9.638300 0.000000
-9.613500 0.000000
-9.588700 0.000000
-9.564000 0.000000
-9.539200 0.000000
-9.514400 0.000000
-9.489600 0.000000
-9.464800 0.000000
-9.440000 0.000000
-9.415200 0.000000
-9.390400 0.000000
-9.365600 0.000000
-9.340800 0.000000
-9.316000 0.000000
-9.291200 0.000000
-9.266400 0.000000
-9.241600 0.000000
-9.216800 0.000000
-9.192000 0.000000
-9.167200 0.000000
-9.142400 0.000000
-9.117600 0.000000
-9.092900 0.000000
-9.068100 0.000000
-9.043300 0.000000
-9.018500 0.000000
-8.993700 0.000000
-8.968900 0.000000
-8.944100 0.000000
-8.919300 0.000000
-8.894500 0.000000
-8.869700 0.000000
-8.844900 0.000000
-8.820100 0.000000
-8.795300 0.000000
-8.770500 0.000000
-8.745700 0.000000
-8.720900 0.000000
-8.696100 0.000000
-8.671300 0.000000
-8.646600 0.000000
-8.621800 0.000000
-8.597000 0.000000
-8.572200 0.000000
-8.547400 0.000000
-8.522600 0.000000
-8.497800 0.000000
-8.473000 0.000000
-8.448200 0.000000
-8.423400 0.000000
-8.398600 0.000000
-8.373800 0.000000
-8.349000 0.000000
-8.324200 0.000000
-8.299400 0.000000
-8.274600 0.000000
-8.249800 0.000000
-8.225000 0.000000
-8.200200 0.000000
-8.175500 0.000000
-8.150700 0.000000
-8.125900 0.000000
-8.101100 0.000000
-8.076300 0.000000
-8.051500 0.000000
-8.026700 0.000000
-8.001900 0.000000
-7.977100 0.000000
-7.952300 0.000000
-7.927500 0.003900
-7.902700 0.022400
-7.877900 0.056200
-7.853100 0.105200
-7.828300 0.169400
-7.803500 0.248900
-7.778700 0.313800
-7.753900 0.292500
-7.729100 0.299800
-7.704400 0.323200
-7.679600 0.347400
-7.654800 0.372300
-7.630000 0.398000
-7.605200 0.424400
-7.580400 0.451600
-7.555600 0.479500
-7.530800 0.508200
-7.506000 0.536700
-7.481200 0.563800
-7.456400 0.589500
-7.431600 0.613800
-7.406800 0.636700
-7.382000 0.658400
-7.357200 0.684200
-7.332400 0.713600
-7.307600 0.744000
-7.282800 0.775200
-7.258100 0.807200
-7.233300 0.840100
-7.208500 0.873700
-7.183700 0.908200
-7.158900 0.943400
-7.134100 0.979500
-7.109300 1.016400
-7.084500 1.054000
-7.059700 1.101400
-7.034900 1.172800
-7.010100 1.254800
-6.985300 1.345900
-6.960500 1.443600
-6.935700 1.547800
-6.910900 1.682300
-6.886100 1.849600
-6.861300 2.103700
-6.836500 2.291300
-6.811700 2.411700
-6.787000 2.465000
-6.762200 2.451200
-6.737400 2.427500
-6.712600 2.455900
-6.687800 2.689200
-6.663000 2.897100
-6.638200 3.017600
-6.613400 3.073300
-6.588600 3.115100
-6.563800 3.134900
-6.539000 3.157100
-6.514200 3.336500
-6.489400 4.167800
-6.464600 4.023300
-6.439800 1.915500
-6.415000 0.000000
-6.390200 0.000000
-6.365400 0.000000
-6.340600 0.000000
-6.315900 0.000000
-6.291100 0.000000
-6.266300 0.000000
-6.241500 0.000000
-6.216700 0.000000
-6.191900 0.000000
-6.167100 0.000000
-6.142300 0.000000
-6.117500 0.000000
-6.092700 0.000000
-6.067900 0.000000
-6.043100 0.000000
-6.018300 0.000000
-5.993500 0.000000
-5.968700 0.000000
-5.943900 0.000000
-5.919100 0.000000
-5.894300 0.000000
-5.869600 0.000000
-5.844800 0.000000
-5.820000 0.000000
-5.795200 0.000000
-5.770400 0.000000
-5.745600 0.000000
-5.720800 0.000000
-5.696000 0.000000
-5.671200 0.000000
-5.646400 0.000000
-5.621600 0.000000
-5.596800 0.000000
-5.572000 0.000000
-5.547200 0.000000
-5.522400 0.000000
-5.497600 0.000000
-5.472800 0.000000
-5.448000 0.000000
-5.423200 0.000000
-5.398500 0.000000
-5.373700 0.000000
-5.348900 0.000000
-5.324100 0.000000
-5.299300 0.000000
-5.274500 0.000000
-5.249700 0.000000
-5.224900 0.000000
-5.200100 0.000000
-5.175300 0.000000
-5.150500 0.000000
-5.125700 0.000000
-5.100900 0.000000
-5.076100 0.000000
-5.051300 0.000000
-5.026500 0.000000
-5.001700 0.000000
-4.976900 0.000000
-4.952100 0.000000
-4.927400 0.000000
-4.902600 0.000000
-4.877800 0.000000
-4.853000 0.000000
-4.828200 0.000000
-4.803400 0.000000
-4.778600 0.000000
-4.753800 0.000000
-4.729000 0.000000
-4.704200 0.000000
-4.679400 0.000000
-4.654600 0.000000
-4.629800 0.000000
-4.605000 0.000000
-4.580200 0.000000
-4.555400 0.000000
-4.530600 0.000000
-4.505800 0.000000
-4.481100 0.000000
-4.456300 0.000000
-4.431500 0.000000
-4.406700 0.000000
-4.381900 0.000000
-4.357100 0.000000
-4.332300 0.000000
-4.307500 0.000000
-4.282700 0.000000
-4.257900 0.000000
-4.233100 0.000000
-4.208300 0.000000
-4.183500 0.000000
-4.158700 0.000000
-4.133900 0.000000
-4.109100 0.000000
-4.084300 0.000000
-4.059500 0.000000
-4.034700 0.000000
-4.010000 0.000000
-3.985200 0.000000
-3.960400 0.000000
-3.935600 0.000000
-3.910800 0.000000
-3.886000 0.000000
-3.861200 0.000000
-3.836400 0.000000
-3.811600 0.000000
-3.786800 0.000000
-3.762000 0.000000
-3.737200 0.000000
-3.712400 0.000000
-3.687600 0.000000
-3.662800 0.000000
-3.638000 0.000000
-3.613200 0.000000
-3.588400 0.000000
-3.563700 0.000000
-3.538900 0.000000
-3.514100 0.000000
-3.489300 0.000000
-3.464500 0.000000
-3.439700 0.000000
-3.414900 0.000000
-3.390100 0.000000
-3.365300 0.000000
-3.340500 0.000000
-3.315700 0.000000
-3.290900 0.000000
-3.266100 0.000000
-3.241300 0.000000
-3.216500 0.000000
-3.191700 0.000000
-3.166900 0.000000
-3.142100 0.000000
-3.117300 0.685500
-3.092600 0.333300
-3.067800 0.725600
-3.043000 0.572200
-3.018200 0.655700
-2.993400 0.743300
-2.968600 0.835200
-2.943800 0.931300
-2.919000 1.031600
-2.894200 1.136100
-2.869400 1.244800
-2.844600 1.357800
-2.819800 1.474900
-2.795000 1.596300
-2.770200 1.898800
-2.745400 2.367200
-2.720600 2.664400
-2.695800 2.831800
-2.671000 2.881400
-2.646200 2.752100
-2.621500 2.585300
-2.596700 2.445100
-2.571900 2.300700
-2.547100 2.164800
-2.522300 2.582300
-2.497500 2.185900
-2.472700 2.023900
-2.447900 1.880700
-2.423100 1.756300
-2.398300 1.650700
-2.373500 1.563900
-2.348700 1.511000
-2.323900 1.562400
-2.299100 1.699400
-2.274300 1.634000
-2.249500 1.441700
-2.224700 1.422800
-2.199900 1.401100
-2.175200 1.368500
-2.150400 1.325100
-2.125600 1.270800
-2.100800 1.205700
-2.076000 1.131000
-2.051200 1.050900
-2.026400 0.965500
-2.001600 0.874900
-1.976800 0.779000
-1.952000 0.673600
-1.927200 0.508300
-1.902400 0.386200
-1.877600 0.354400
-1.852800 0.333100
-1.828000 0.315700
-1.803200 0.302100
-1.778400 0.292200
-1.753600 0.283400
-1.728800 0.274600
-1.704100 0.266000
-1.679300 0.257500
-1.654500 0.249000
-1.629700 0.240700
-1.604900 0.232400
-1.580100 0.224200
-1.555300 0.216200
-1.530500 0.208200
-1.505700 0.200300
-1.480900 0.192500
-1.456100 0.184900
-1.431300 0.177300
-1.406500 0.169800
-1.381700 0.162400
-1.356900 0.155100
-1.332100 0.147900
-1.307300 0.140800
-1.282500 0.133800
-1.257700 0.128500
-1.233000 0.126800
-1.208200 0.114900
-1.183400 0.103200
-1.158600 0.092300
-1.133800 0.081900
-1.109000 0.072100
-1.084200 0.063000
-1.059400 0.054500
-1.034600 0.046600
-1.009800 0.039300
-0.985000 0.032600
-0.960200 0.026600
-0.935400 0.021200
-0.910600 0.016400
-0.885800 0.012200
-0.861000 0.008600
-0.836200 0.005700
-0.811400 0.003300
-0.786700 0.001600
-0.761900 0.000500
-0.737100 0.000000
-0.712300 0.000000
-0.687500 0.000000
-0.662700 0.000000
-0.637900 0.000000
-0.613100 0.000000
-0.588300 0.000000
-0.563500 0.000000
-0.538700 0.000000
-0.513900 0.000000
-0.489100 0.000000
-0.464300 0.000000
-0.439500 0.000000
-0.414700 0.000000
-0.389900 0.000000
-0.365100 0.000000
-0.340300 0.000000
-0.315600 0.000000
-0.290800 0.000000
-0.266000 0.000000
-0.241200 0.000000
-0.216400 0.000000
-0.191600 0.000000
-0.166800 0.000000
-0.142000 0.000000
-0.117200 0.000000
-0.092400 0.000000
-0.067600 0.000000
-0.042800 0.000000
-0.018000 0.000000
0.006800 0.000000
0.031600 0.000000
0.056400 0.000000
0.081200 0.000000
0.106000 0.000000
0.130800 0.000000
0.155500 0.000000
0.180300 0.000000
0.205100 0.000000
0.229900 0.000000
0.254700 0.000000
0.279500 0.000000
0.304300 0.000000
0.329100 0.000000
0.353900 0.000000
0.378700 0.000000
0.403500 0.000000
0.428300 0.000000
0.453100 0.000000
0.477900 0.000000
0.502700 0.000000
0.527500 0.000000
0.552300 0.000000
0.577100 0.000000
0.601800 0.000000
0.626600 0.039900
0.651400 0.088100
0.676200 0.132200
0.701000 0.172200
0.725800 0.208000
0.750600 0.239600
0.775400 0.267100
0.800200 0.290500
0.825000 0.309700
0.849800 0.324700
0.874600 0.335600
0.899400 0.346700
0.924200 0.374700
0.949000 0.405000
0.973800 0.437300
0.998600 0.471800
1.023400 0.508500
1.048200 0.547200
1.072900 4.091000
1.097700 0.642700
1.122500 0.655900
1.147300 0.672300
1.172100 0.691800
1.196900 0.714400
1.221700 0.740000
1.246500 0.768800
1.271300 0.800700
1.296100 0.834400
1.320900 0.834000
1.345700 0.827600
1.370500 0.821800
1.395300 0.816500
1.420100 0.811800
1.444900 0.807700
1.469700 0.804100
1.494500 0.801100
1.519300 0.798600
1.544000 0.796700
1.568800 0.795600
1.593600 0.795200
1.618400 0.795600
1.643200 0.796800
1.668000 0.798800
1.692800 0.801500
1.717600 0.804900
1.742400 1.647900
1.767200 1.493400
1.792000 1.324900
1.816800 1.230700
1.841600 1.258600
1.866400 1.288200
1.891200 1.308300
1.916000 1.331100
1.940800 1.357600
1.965600 1.387800
1.990300 1.421700
2.015100 1.459300
2.039900 1.500600
2.064700 1.545600
2.089500 1.594300
2.114300 1.646600
2.139100 1.702700
2.163900 1.762500
2.188700 1.889800
2.213500 2.013500
2.238300 2.047700
2.263100 1.977100
2.287900 1.858200
2.312700 1.887300
2.337500 1.917700
2.362300 1.949700
2.387100 1.982800
2.411900 2.017100
2.436700 2.052300
2.461400 2.088300
2.486200 2.120100
2.511000 2.103400
2.535800 2.095400
2.560600 2.101400
2.585400 2.116400
2.610200 2.132400
2.635000 2.148300
2.659800 2.164000
2.684600 2.179500
2.709400 2.194900
2.734200 2.210100
2.759000 2.225100
2.783800 2.238600
2.808600 2.248200
2.833400 2.266500
2.858200 2.298900
2.883000 2.346000
2.907700 2.407900
2.932500 2.484900
2.957300 2.576100
2.982100 2.514300
3.006900 2.423300
3.031700 2.319800
3.056500 2.243800
3.081300 2.214200
3.106100 2.214400
3.130900 2.224900
3.155700 2.244500
3.180500 2.273400
3.205300 2.311200
3.230100 2.357900
3.254900 2.413600
3.279700 2.478300
3.304500 2.551600
3.329300 2.623400
3.354100 2.474000
3.378800 2.207100
3.403600 2.185100
3.428400 2.156200
3.453200 2.110500
3.478000 2.045400
3.502800 1.960300
3.527600 1.849800
3.552400 1.711700
3.577200 1.546000
3.602000 1.352600
3.626800 1.142900
3.651600 0.995500
3.676400 0.884200
3.701200 0.823600
3.726000 0.849900
3.750800 0.878100
3.775600 0.908100
3.800400 0.939900
3.825200 0.973600
3.849900 1.009000
3.874700 1.046300
3.899500 1.085500
3.924300 1.126400
3.949100 1.170100
3.973900 1.220400
3.998700 1.278200
4.023500 1.348800
4.048300 1.432900
4.073100 1.530700
4.097900 1.642200
4.122700 1.767900
4.147500 1.920100
4.172300 2.091300
4.197100 2.304800
4.221900 2.421100
4.246700 2.440400
4.271500 2.362600
4.296200 2.268200
4.321000 2.086700
4.345800 1.961200
4.370600 1.931700
4.395400 1.871700
4.420200 1.739000
4.445000 1.552100
4.469800 1.311100
4.494600 1.148200
4.519400 1.050600
4.544200 0.963900
4.569000 0.880400
4.593800 0.800000
4.618600 0.722800
4.643400 0.648800
4.668200 0.577900
4.693000 0.510200
4.717800 0.445700
4.742600 0.384300
4.767300 0.326100
4.792100 0.271100
4.816900 0.219200
4.841700 0.176100
4.866500 0.142500
4.891300 0.113500
4.916100 0.087500
4.940900 0.064300
4.965700 0.044100
4.990500 0.027100
5.015300 0.015600
5.040100 0.005900
5.064900 0.000000
5.089700 0.000000
5.114500 0.000000
5.139300 0.000000
5.164100 0.000000
5.188900 0.000000
5.213700 0.000000
5.238400 0.000000
5.263200 0.000000
5.288000 0.000000
5.312800 0.000000
5.337600 0.000000
5.362400 0.000000
5.387200 0.000000
5.412000 0.000000
5.436800 0.000000
5.461600 0.000000
5.486400 0.000000
5.511200 0.000000
5.536000 0.000000
5.560800 0.000000
5.585600 0.000000
5.610400 0.000000
5.635200 0.000000
5.660000 0.000000
5.684700 0.000000
5.709500 0.000000
5.734300 0.000000
5.759100 0.000000
5.783900 0.000000
5.808700 0.000000
5.833500 0.000000
5.858300 0.000000
5.883100 0.000000
5.907900 0.000000
5.932700 0.000000
5.957500 0.000000
5.982300 0.000000
6.007100 0.000000
6.031900 0.000000
6.056700 0.000000
6.081500 0.000000
6.106300 0.004000
6.131100 0.013200
6.155800 0.022900
6.180600 0.032900
6.205400 0.047300
6.230200 0.062600
6.255000 0.078500
6.279800 0.095000
6.304600 0.112100
6.329400 0.129700
6.354200 0.148000
6.379000 0.166800
6.403800 0.186300
6.428600 0.206300
6.453400 0.226900
6.478200 0.248100
6.503000 0.269800
6.527800 0.292200
6.552600 0.315500
6.577400 0.343800
6.602200 0.379800
6.626900 0.419900
6.651700 0.475300
6.676500 0.537700
6.701300 0.596600
6.726100 0.652100
6.750900 0.704000
6.775700 0.752400
6.800500 0.797400
6.825300 0.838800
6.850100 0.876700
6.874900 0.911200
6.899700 0.942100
6.924500 0.969600
6.949300 0.993500
6.974100 1.013900
6.998900 1.030900
7.023700 1.044300
7.048500 1.054300
7.073200 1.060400
7.098000 1.061700
7.122800 1.057600
7.147600 1.048300
7.172400 1.033700
7.197200 1.114600
7.222000 1.298900
7.246800 1.301600
7.271600 1.250400
7.296400 1.247600
7.321200 1.271500
7.346000 1.287500
7.370800 1.294900
7.395600 1.293700
7.420400 1.283800
7.445200 1.265300
7.470000 1.238100
7.494800 1.202300
7.519600 1.169300
7.544300 1.156600
7.569100 1.139900
7.593900 1.131700
7.618700 1.143500
7.643500 1.164600
7.668300 2.187600
7.693100 1.268200
7.717900 1.286200
7.742700 1.308500
7.767500 1.327300
7.792300 1.337500
7.817100 1.348100
7.841900 1.363200
7.866700 1.377800
7.891500 1.391500
7.916300 1.404200
7.941100 1.415900
7.965900 1.426700
7.990700 1.436600
8.015400 1.445500
8.040200 1.453400
8.065000 1.460500
8.089800 1.467300
8.114600 1.474000
8.139400 1.480700
8.164200 1.488400
8.189000 1.497300
8.213800 1.507200
8.238600 1.518000
8.263400 1.529400
8.288200 1.541400
8.313000 1.553500
8.337800 1.564700
8.362600 1.575000
8.387400 1.584300
8.412200 1.592500
8.437000 1.600300
8.461700 1.608300
8.486500 1.616700
8.511300 1.625500
8.536100 1.634600
8.560900 1.644500
8.585700 1.655600
8.610500 1.668000
8.635300 1.681500
8.660100 1.696100
8.684900 1.713700
8.709700 1.744100
8.734500 1.784200
8.759300 1.819800
8.784100 1.863300
8.808900 1.914600
8.833700 1.963900
8.858500 1.990200
8.883300 2.006300
8.908100 2.022600
8.932800 2.044400
8.957600 2.077600
8.982400 2.137700
9.007200 2.174800
9.032000 2.195900
9.056800 2.209300
9.081600 2.219900
9.106400 2.227700
9.131200 2.232700
9.156000 2.244800
9.180800 2.301200
9.205600 2.346600
9.230400 2.331100
9.255200 2.251800
9.280000 2.269600
9.304800 2.300300
9.329600 2.322700
9.354400 2.336800
9.379100 2.342600
9.403900 2.340100
9.428700 2.329800
9.453500 2.312900
9.478300 2.290000
9.503100 2.435900
9.527900 2.973900
9.552700 2.870000
9.577500 2.855000
9.602300 2.905500
9.627100 2.942500
9.651900 2.130400
9.676700 2.067300
9.701500 2.022300
9.726300 1.995200
9.751100 1.976300
9.775900 1.956400
9.800700 1.935500
9.825500 1.913600
9.850200 1.890700
9.875000 1.866800
9.899800 1.841900
9.924600 1.808800
9.949400 1.719900
9.974200 1.611500
9.999000 1.512300
10.023800 1.422300
10.048600 1.341500
10.073400 1.804400
10.098200 1.530300
10.123000 1.292400
10.147800 1.090700
10.172600 0.925300
10.197400 0.834800
10.222200 0.771500
10.247000 0.712700
10.271800 0.658500
10.296600 0.657400
10.321300 0.767800
10.346100 0.590000
10.370900 0.399600
10.395700 0.368000
10.420500 0.338400
10.445300 0.310700
10.470100 0.285100
10.494900 0.261400
10.519700 0.239700
10.544500 0.219900
10.569300 0.202200
10.594100 0.192300
10.618900 0.191600
10.643700 0.187400
10.668500 0.179700
10.693300 0.168700
10.718100 0.154200
10.742900 0.136200
10.767600 0.114800
10.792400 0.126800
10.817200 0.155700
10.842000 0.187400
10.866800 0.222200
10.891600 0.259900
10.916400 0.303400
10.941200 0.695600
10.966000 0.464500
10.990800 0.482800
11.015600 0.489800
11.040400 0.497200
11.065200 0.504800
11.090000 0.512700
11.114800 0.520800
11.139600 0.529300
11.164400 0.538000
11.189200 0.546800
11.214000 0.553600
11.238700 0.557700
11.263500 0.559400
11.288300 0.558500
11.313100 0.559500
11.337900 0.564000
11.362700 0.570200
11.387500 0.577100
11.412300 0.584600
11.437100 0.592800
11.461900 0.601500
11.486700 0.610900
11.511500 0.620900
11.536300 0.631600
11.561100 0.642800
11.585900 0.654700
11.610700 0.667200
11.635500 0.680300
11.660300 0.694100
11.685100 0.708400
11.709800 0.723400
11.734600 0.739100
11.759400 0.755300
11.784200 0.772200
11.809000 0.789600
11.833800 0.807700
11.858600 0.826300
11.883400 0.845400
11.908200 0.864800
11.933000 0.884500
11.957800 0.904700
11.982600 0.925200
12.007400 0.945600
12.032200 0.949100
12.057000 0.945400
12.081800 0.938500
12.106600 0.929600
12.131400 0.923300
12.156100 0.920300
