set title 'mp-1223969 - Density of States'
set xlabel 'Energy (eV)'
set ylabel 'DOS (states/eV)'
set grid
set xrange [-10:10]
set yrange [0:25.191]
set xzeroaxis lt -1
set terminal png size 800,600
set output 'mp-1223969_dos_gnuplot.png'
plot '-' using 1:2 with lines title 'DOS'
-14.110000 0.000000
-14.087600 0.000000
-14.065200 0.000000
-14.042700 0.000000
-14.020300 0.000000
-13.997900 0.000000
-13.975400 0.000000
-13.953000 0.000000
-13.930600 0.000000
-13.908200 0.000000
-13.885700 0.000000
-13.863300 0.000000
-13.840900 0.000000
-13.818400 0.000000
-13.796000 0.000000
-13.773600 0.000000
-13.751200 0.000000
-13.728700 0.000000
-13.706300 0.000000
-13.683900 0.000000
-13.661400 0.000000
-13.639000 0.000000
-13.616600 0.000000
-13.594200 0.000000
-13.571700 0.000000
-13.549300 0.000000
-13.526900 0.000000
-13.504400 0.000000
-13.482000 0.000000
-13.459600 0.000000
-13.437200 0.000000
-13.414700 0.000000
-13.392300 0.000000
-13.369900 0.000000
-13.347400 0.000000
-13.325000 0.000000
-13.302600 0.000000
-13.280200 0.000000
-13.257700 0.000000
-13.235300 0.000000
-13.212900 0.000000
-13.190400 0.000000
-13.168000 0.000000
-13.145600 0.000000
-13.123200 0.000000
-13.100700 0.000000
-13.078300 0.000000
-13.055900 0.000000
-13.033400 0.000000
-13.011000 0.000000
-12.988600 0.000000
-12.966200 0.000000
-12.943700 0.000000
-12.921300 0.000000
-12.898900 0.000000
-12.876400 0.000000
-12.854000 0.000000
-12.831600 0.000000
-12.809200 0.000000
-12.786700 0.000000
-12.764300 0.000000
-12.741900 0.000000
-12.719400 0.000000
-12.697000 0.000000
-12.674600 0.000000
-12.652200 0.000000
-12.629700 0.000000
-12.607300 0.000000
-12.584900 0.000000
-12.562400 0.000000
-12.540000 0.000000
-12.517600 0.000000
-12.495200 0.000000
-12.472700 0.000000
-12.450300 0.000000
-12.427900 0.000000
-12.405500 0.000000
-12.383000 0.000000
-12.360600 0.000000
-12.338200 0.000000
-12.315700 0.000000
-12.293300 0.000000
-12.270900 0.000000
-12.248500 0.000000
-12.226000 0.000000
-12.203600 0.000000
-12.181200 0.000000
-12.158700 0.000000
-12.136300 0.000000
-12.113900 0.000000
-12.091500 0.000000
-12.069000 10.797700
-12.046600 15.301300
-12.024200 17.632600
-12.001700 39.244800
-11.979300 106.360900
-11.956900 90.539200
-11.934500 69.752900
-11.912000 64.096200
-11.889600 25.560400
-11.867200 60.241300
-11.844700 28.689500
-11.822300 49.974500
-11.799900 66.590400
-11.777500 63.894700
-11.755000 138.778800
-11.732600 39.661100
-11.710200 15.061100
-11.687700 0.000000
-11.665300 0.000000
-11.642900 0.000000
-11.620500 0.000000
-11.598000 0.000000
-11.575600 0.000000
-11.553200 0.000000
-11.530700 0.000000
-11.508300 0.000000
-11.485900 0.000000
-11.463500 0.000000
-11.441000 0.000000
-11.418600 0.000000
-11.396200 0.000000
-11.373700 0.000000
-11.351300 0.000000
-11.328900 0.000000
-11.306500 0.000000
-11.284000 0.000000
-11.261600 0.000000
-11.239200 0.000000
-11.216700 0.000000
-11.194300 0.000000
-11.171900 0.000000
-11.149500 0.000000
-11.127000 0.000000
-11.104600 0.000000
-11.082200 0.000000
-11.059700 0.000000
-11.037300 0.000000
-11.014900 0.000000
-10.992500 0.000000
-10.970000 0.000000
-10.947600 0.000000
-10.925200 0.000000
-10.902700 0.000000
-10.880300 0.000000
-10.857900 0.000000
-10.835500 0.000000
-10.813000 0.000000
-10.790600 0.000000
-10.768200 0.000000
-10.745700 0.000000
-10.723300 0.000000
-10.700900 0.000000
-10.678500 0.000000
-10.656000 0.000000
-10.633600 0.000000
-10.611200 0.000000
-10.588800 0.000000
-10.566300 0.000000
-10.543900 0.000000
-10.521500 0.000000
-10.499000 0.000000
-10.476600 0.000000
-10.454200 0.000000
-10.431800 0.000000
-10.409300 0.000000
-10.386900 0.000000
-10.364500 0.000000
-10.342000 0.000000
-10.319600 0.000000
-10.297200 0.000000
-10.274800 0.000000
-10.252300 0.000000
-10.229900 0.000000
-10.207500 0.000000
-10.185000 0.000000
-10.162600 0.000000
-10.140200 0.000000
-10.117800 0.000000
-10.095300 0.000000
-10.072900 0.000000
-10.050500 0.000000
-10.028000 0.000000
-10.005600 0.000000
-9.983200 0.000000
-9.960800 0.000000
-9.938300 0.000000
-9.915900 0.000000
-9.893500 0.000000
-9.871000 0.000000
-9.848600 0.000000
-9.826200 0.000000
-9.803800 0.000000
-9.781300 0.000000
-9.758900 0.000000
-9.736500 0.000000
-9.714000 0.000000
-9.691600 0.000000
-9.669200 0.000000
-9.646800 0.000000
-9.624300 0.000000
-9.601900 0.000000
-9.579500 0.000000
-9.557000 0.000000
-9.534600 0.000000
-9.512200 0.000000
-9.489800 0.000000
-9.467300 0.000000
-9.444900 0.000000
-9.422500 0.000000
-9.400000 0.000000
-9.377600 0.000000
-9.355200 0.000000
-9.332800 0.000000
-9.310300 0.000000
-9.287900 0.000000
-9.265500 0.000000
-9.243000 0.000000
-9.220600 0.000000
-9.198200 0.000000
-9.175800 0.000000
-9.153300 0.000000
-9.130900 0.000000
-9.108500 0.000000
-9.086000 0.000000
-9.063600 0.000000
-9.041200 0.000000
-9.018800 0.000000
-8.996300 0.000000
-8.973900 0.000000
-8.951500 0.000000
-8.929000 0.000000
-8.906600 0.000000
-8.884200 0.000000
-8.861800 0.000000
-8.839300 0.000000
-8.816900 0.000000
-8.794500 0.000000
-8.772100 0.000000
-8.749600 0.000000
-8.727200 0.000000
-8.704800 0.000000
-8.682300 0.000000
-8.659900 0.000000
-8.637500 0.000000
-8.615100 0.000000
-8.592600 0.000000
-8.570200 0.000000
-8.547800 0.000000
-8.525300 0.000000
-8.502900 0.000000
-8.480500 0.000000
-8.458100 0.000000
-8.435600 0.000000
-8.413200 0.000000
-8.390800 0.000000
-8.368300 0.000000
-8.345900 0.000000
-8.323500 0.000000
-8.301100 0.000000
-8.278600 0.000000
-8.256200 0.000000
-8.233800 0.000000
-8.211300 0.000000
-8.188900 0.000000
-8.166500 0.000000
-8.144100 0.000000
-8.121600 0.000000
-8.099200 0.000000
-8.076800 0.000000
-8.054300 0.000000
-8.031900 0.000000
-8.009500 0.000000
-7.987100 0.000000
-7.964600 0.000000
-7.942200 0.000000
-7.919800 0.000000
-7.897300 0.000000
-7.874900 0.000000
-7.852500 0.000000
-7.830100 0.000000
-7.807600 0.000000
-7.785200 0.000000
-7.762800 0.000000
-7.740300 0.000000
-7.717900 0.000000
-7.695500 0.000000
-7.673100 0.000000
-7.650600 0.000000
-7.628200 0.000000
-7.605800 0.000000
-7.583300 0.000000
-7.560900 0.000000
-7.538500 0.000000
-7.516100 0.000000
-7.493600 0.000000
-7.471200 0.000000
-7.448800 0.000000
-7.426300 0.000000
-7.403900 0.000000
-7.381500 0.000000
-7.359100 0.000000
-7.336600 0.000000
-7.314200 0.000000
-7.291800 0.000000
-7.269300 0.000000
-7.246900 0.000000
-7.224500 0.000000
-7.202100 0.000000
-7.179600 0.000000
-7.157200 0.000000
-7.134800 0.000000
-7.112300 0.000000
-7.089900 0.000000
-7.067500 0.000000
-7.045100 0.000000
-7.022600 0.000000
-7.000200 0.000000
-6.977800 0.000000
-6.955300 0.000000
-6.932900 0.000000
-6.910500 0.000000
-6.888100 0.000000
-6.865600 0.000000
-6.843200 0.000000
-6.820800 0.000000
-6.798400 0.000000
-6.775900 0.000000
-6.753500 0.000000
-6.731100 0.000000
-6.708600 0.000000
-6.686200 0.000000
-6.663800 0.000000
-6.641400 0.000000
-6.618900 0.000000
-6.596500 0.000000
-6.574100 0.000000
-6.551600 0.000000
-6.529200 0.000000
-6.506800 0.000000
-6.484400 0.000000
-6.461900 0.000000
-6.439500 0.000000
-6.417100 0.000000
-6.394600 0.000000
-6.372200 0.000000
-6.349800 0.000000
-6.327400 0.000000
-6.304900 0.000000
-6.282500 0.000000
-6.260100 0.000000
-6.237600 0.000000
-6.215200 0.000000
-6.192800 0.000000
-6.170400 0.000000
-6.147900 0.000000
-6.125500 0.000000
-6.103100 0.000000
-6.080600 0.000000
-6.058200 0.000000
-6.035800 0.000000
-6.013400 0.000000
-5.990900 0.000000
-5.968500 0.000000
-5.946100 0.000000
-5.923600 0.000000
-5.901200 0.000000
-5.878800 0.000000
-5.856400 0.143900
-5.833900 0.204000
-5.811500 0.267400
-5.789100 0.335900
-5.766600 0.456500
-5.744200 0.447600
-5.721800 0.451200
-5.699400 0.453300
-5.676900 0.456200
-5.654500 0.456900
-5.632100 0.446900
-5.609600 0.440400
-5.587200 0.442500
-5.564800 0.445900
-5.542400 0.448800
-5.519900 0.451800
-5.497500 0.459500
-5.475100 0.461700
-5.452600 0.459800
-5.430200 0.459200
-5.407800 0.457400
-5.385400 0.452000
-5.362900 0.450200
-5.340500 0.451400
-5.318100 0.451900
-5.295600 0.451700
-5.273200 0.451100
-5.250800 0.450900
-5.228400 0.451600
-5.205900 0.453300
-5.183500 0.455900
-5.161100 0.459800
-5.138600 0.463700
-5.116200 0.467000
-5.093800 0.467600
-5.071400 0.466700
-5.048900 0.465500
-5.026500 0.463000
-5.004100 0.460500
-4.981700 0.459700
-4.959200 0.460500
-4.936800 0.462000
-4.914400 0.462800
-4.891900 0.463200
-4.869500 0.463500
-4.847100 0.463600
-4.824700 0.463700
-4.802200 0.464800
-4.779800 0.466100
-4.757400 0.467600
-4.734900 0.469200
-4.712500 0.471200
-4.690100 0.473400
-4.667700 0.476000
-4.645200 0.478600
-4.622800 0.480800
-4.600400 0.480900
-4.577900 0.481200
-4.555500 0.481200
-4.533100 0.479900
-4.510700 0.480300
-4.488200 0.481100
-4.465800 0.482000
-4.443400 0.483100
-4.420900 0.542800
-4.398500 0.591100
-4.376100 0.612000
-4.353700 0.638200
-4.331200 0.666300
-4.308800 0.696400
-4.286400 0.721300
-4.263900 0.744900
-4.241500 0.769800
-4.219100 0.796900
-4.196700 0.820800
-4.174200 0.846600
-4.151800 0.874200
-4.129400 0.902500
-4.106900 0.989600
-4.084500 1.019200
-4.062100 1.021900
-4.039700 1.031700
-4.017200 1.038400
-3.994800 1.038500
-3.972400 1.035500
-3.949900 1.037400
-3.927500 1.042600
-3.905100 1.044500
-3.882700 1.052000
-3.860200 1.058700
-3.837800 1.064900
-3.815400 1.070600
-3.792900 1.074600
-3.770500 1.077200
-3.748100 1.081700
-3.725700 1.088000
-3.703200 1.093400
-3.680800 1.098500
-3.658400 1.104000
-3.635900 1.110400
-3.613500 1.118500
-3.591100 1.126700
-3.568700 1.134900
-3.546200 1.141800
-3.523800 1.149000
-3.501400 1.155600
-3.478900 1.161800
-3.456500 1.167600
-3.434100 1.174300
-3.411700 1.182700
-3.389200 1.195400
-3.366800 1.212300
-3.344400 1.228400
-3.321900 1.244000
-3.299500 1.259900
-3.277100 1.275600
-3.254700 1.291900
-3.232200 1.309000
-3.209800 1.326700
-3.187400 1.345500
-3.165000 1.367900
-3.142500 1.393000
-3.120100 1.419900
-3.097700 1.449400
-3.075200 1.484500
-3.052800 1.524700
-3.030400 1.572500
-3.008000 1.638800
-2.985500 1.732700
-2.963100 1.800600
-2.940700 1.865500
-2.918200 1.879500
-2.895800 1.850600
-2.873400 1.835200
-2.851000 1.834300
-2.828500 1.805400
-2.806100 1.813700
-2.783700 1.791200
-2.761200 1.764500
-2.738800 1.750100
-2.716400 1.786600
-2.694000 1.803500
-2.671500 1.729300
-2.649100 1.732000
-2.626700 1.757200
-2.604200 1.832400
-2.581800 1.861000
-2.559400 1.884900
-2.537000 2.003400
-2.514500 2.034400
-2.492100 2.001000
-2.469700 1.993700
-2.447200 2.027800
-2.424800 2.080100
-2.402400 2.058500
-2.380000 2.072300
-2.357500 2.049000
-2.335100 1.984400
-2.312700 1.911600
-2.290200 1.930100
-2.267800 1.951800
-2.245400 1.723900
-2.223000 1.617500
-2.200500 1.579900
-2.178100 1.569200
-2.155700 1.639700
-2.133200 1.661800
-2.110800 1.431400
-2.088400 1.395400
-2.066000 1.219700
-2.043500 1.009000
-2.021100 0.603200
-1.998700 0.440800
-1.976200 0.383500
-1.953800 0.341500
-1.931400 0.295800
-1.909000 0.250900
-1.886500 0.230300
-1.864100 0.204500
-1.841700 4.614000
-1.819200 4.114900
-1.796800 4.451700
-1.774400 6.729700
-1.752000 7.435400
-1.729500 8.267500
-1.707100 8.054900
-1.684700 7.372300
-1.662200 7.928500
-1.639800 6.184200
-1.617400 5.623900
-1.595000 6.241100
-1.572500 3.267600
-1.550100 5.441400
-1.527700 8.239800
-1.505200 16.867900
-1.482800 13.840800
-1.460400 14.026800
-1.438000 14.159100
-1.415500 17.251100
-1.393100 17.109100
-1.370700 16.752600
-1.348300 22.901000
-1.325800 18.515900
-1.303400 17.281600
-1.281000 22.030900
-1.258500 22.563200
-1.236100 22.741600
-1.213700 10.669500
-1.191300 13.555200
-1.168800 12.565700
-1.146400 7.161100
-1.124000 6.956700
-1.101500 7.846600
-1.079100 8.033400
-1.056700 8.242000
-1.034300 7.617900
-1.011800 7.109000
-0.989400 7.627800
-0.967000 7.454700
-0.944500 5.829300
-0.922100 4.492800
-0.899700 1.991600
-0.877300 1.824000
-0.854800 0.747900
-0.832400 0.600700
-0.810000 0.487300
-0.787500 0.391200
-0.765100 0.296000
-0.742700 0.124500
-0.720300 0.132800
-0.697800 0.141800
-0.675400 0.151300
-0.653000 0.161000
-0.630500 0.166600
-0.608100 0.172800
-0.585700 0.181000
-0.563300 0.189400
-0.540800 0.198200
-0.518400 0.206500
-0.496000 0.214200
-0.473500 0.221800
-0.451100 0.229100
-0.428700 0.235000
-0.406300 0.239700
-0.383800 0.244800
-0.361400 0.251100
-0.339000 0.256300
-0.316500 0.261000
-0.294100 0.266100
-0.271700 0.271600
-0.249300 0.277200
-0.226800 0.283100
-0.204400 0.289300
-0.182000 0.295800
-0.159500 0.302700
-0.137100 0.309400
-0.114700 0.315900
-0.092300 0.322100
-0.069800 0.328300
-0.047400 0.334400
-0.025000 0.340400
-0.002500 0.346500
0.019900 0.352700
0.042300 0.359400
0.064700 0.366700
0.087200 0.374300
0.109600 0.381200
0.132000 0.390400
0.154500 0.418300
0.176900 0.465300
0.199300 0.483300
0.221700 0.488800
0.244200 0.493500
0.266600 0.497400
0.289000 0.500500
0.311500 0.498500
0.333900 0.491600
0.356300 0.486900
0.378700 0.487500
0.401200 0.488000
0.423600 0.488000
0.446000 0.487300
0.468400 0.486100
0.490900 0.485700
0.513300 0.486800
0.535700 0.486900
0.558200 0.486400
0.580600 0.486700
0.603000 0.487400
0.625400 0.488300
0.647900 0.489400
0.670300 0.490400
0.692700 0.490900
0.715200 0.491200
0.737600 0.491400
0.760000 0.491400
0.782400 0.491400
0.804900 0.491400
0.827300 0.491200
0.849700 0.490900
0.872200 0.492500
0.894600 0.494900
0.917000 0.497700
0.939400 0.500900
0.961900 0.504400
0.984300 0.508200
1.006700 0.512200
1.029200 0.516400
1.051600 0.521200
1.074000 0.526300
1.096400 0.531700
1.118900 0.537300
1.141300 0.543100
1.163700 0.549000
1.186200 0.555300
1.208600 0.563300
1.231000 0.573700
1.253400 0.586000
1.275900 0.599800
1.298300 0.614900
1.320700 0.631200
1.343200 0.648900
1.365600 0.668000
1.388000 0.712100
1.410400 0.819000
1.432900 0.892500
1.455300 0.997700
1.477700 1.032500
1.500200 1.077800
1.522600 1.120300
1.545000 1.114800
1.567400 1.176000
1.589900 1.218000
1.612300 1.254500
1.634700 1.293100
1.657200 1.365000
1.679600 1.341400
1.702000 1.340800
1.724400 1.369100
1.746900 1.363800
1.769300 1.341200
1.791700 1.318800
1.814200 1.292200
1.836600 1.252400
1.859000 1.221200
1.881400 1.215200
1.903900 1.211700
1.926300 1.210200
1.948700 1.198800
1.971200 1.218100
1.993600 1.241800
2.016000 1.259400
2.038400 1.259700
2.060900 1.222800
2.083300 1.180500
2.105700 1.143300
2.128200 1.118700
2.150600 1.119100
2.173000 1.131900
2.195400 1.134900
2.217900 1.131900
2.240300 1.248000
2.262700 1.174800
2.285200 1.206700
2.307600 1.240100
2.330000 1.273500
2.352400 1.244600
2.374900 1.284600
2.397300 1.296200
2.419700 1.153000
2.442100 1.067200
2.464600 0.970500
2.487000 0.904600
2.509400 0.886000
2.531900 0.877500
2.554300 0.871400
2.576700 0.894500
2.599100 0.853300
2.621600 0.850500
2.644000 0.955400
2.666400 1.050300
2.688900 1.120200
2.711300 1.070500
2.733700 1.015400
2.756100 1.042600
2.778600 1.066500
2.801000 1.085800
2.823400 1.117600
2.845900 1.150100
2.868300 1.108400
2.890700 1.123700
2.913100 1.157600
2.935600 1.180400
2.958000 1.184100
2.980400 1.183200
3.002900 1.201700
3.025300 1.206700
3.047700 1.240000
3.070100 1.253800
3.092600 1.261600
3.115000 1.273400
3.137400 1.278300
3.159900 1.288700
3.182300 1.306300
3.204700 1.323100
3.227100 1.293700
3.249600 1.264100
3.272000 1.271000
3.294400 1.281900
3.316900 1.281400
3.339300 1.298400
3.361700 1.322100
3.384100 1.345800
3.406600 1.367800
3.429000 1.399300
3.451400 1.466500
3.473900 1.696200
3.496300 1.605600
3.518700 1.629400
3.541100 1.666600
3.563600 1.708900
3.586000 1.756700
3.608400 1.809500
3.630900 1.865900
3.653300 1.924100
3.675700 1.982600
3.698100 2.037100
3.720600 2.070400
3.743000 2.141000
3.765400 2.202700
3.787900 2.191400
3.810300 2.208700
3.832700 2.223100
3.855100 2.206000
3.877600 2.173200
3.900000 2.159300
3.922400 2.164400
3.944900 2.163000
3.967300 2.162600
3.989700 2.116700
4.012100 2.049000
4.034600 1.997600
4.057000 1.932700
4.079400 1.856700
4.101900 1.781800
4.124300 1.726300
4.146700 1.683900
4.169100 1.638700
4.191600 1.590400
4.214000 1.547700
4.236400 1.506600
4.258800 1.457900
4.281300 1.351700
4.303700 1.275300
4.326100 1.203400
4.348600 1.154200
4.371000 1.121400
4.393400 1.093100
4.415800 1.069800
4.438300 1.035200
4.460700 1.057300
4.483100 1.076000
4.505600 1.090900
4.528000 1.113400
4.550400 1.149500
4.572800 1.164400
4.595300 1.164200
4.617700 1.153100
4.640100 1.152200
4.662600 1.150700
4.685000 1.149500
4.707400 1.152900
4.729800 1.157700
4.752300 1.165800
4.774700 1.198500
4.797100 1.215600
4.819600 1.265000
4.842000 1.280100
4.864400 1.298000
4.886800 1.316600
4.909300 1.335700
4.931700 1.361500
4.954100 1.386900
4.976600 1.408800
4.999000 1.428400
5.021400 1.457100
5.043800 1.492800
5.066300 1.532300
5.088700 1.569700
5.111100 1.583500
5.133600 1.581000
5.156000 1.584100
5.178400 1.577500
5.200800 1.583400
5.223300 1.590800
5.245700 1.591500
5.268100 1.594900
5.290600 1.600300
5.313000 1.595600
5.335400 1.569100
5.357800 1.546100
5.380300 1.556100
5.402700 1.517400
5.425100 1.503700
5.447600 1.489300
5.470000 1.474500
5.492400 1.464600
5.514800 1.458300
5.537300 1.465100
5.559700 1.487300
5.582100 1.492800
5.604600 1.503200
5.627000 1.617900
5.649400 1.518900
5.671800 1.488300
5.694300 1.477500
5.716700 1.523800
5.739100 1.518900
5.761600 1.513900
5.784000 1.520400
5.806400 1.535100
5.828800 1.553800
5.851300 1.583400
5.873700 1.619400
5.896100 1.583800
5.918600 1.583800
5.941000 1.607200
5.963400 1.625100
5.985800 1.634500
6.008300 1.720100
6.030700 1.654800
6.053100 1.616300
6.075500 1.604600
6.098000 1.594500
6.120400 1.585900
6.142800 1.579000
6.165300 1.570200
6.187700 1.561000
6.210100 1.553000
6.232500 1.544400
6.255000 1.540800
6.277400 1.539600
6.299800 1.543300
6.322300 1.542600
6.344700 1.537200
6.367100 1.533800
6.389500 1.539200
6.412000 1.548200
6.434400 1.555800
6.456800 1.564500
6.479300 1.576800
6.501700 1.631900
6.524100 1.753500
6.546500 1.808400
6.569000 1.825600
6.591400 1.823100
6.613800 1.811100
6.636300 1.777000
6.658700 1.718700
6.681100 1.691700
6.703500 1.701600
6.726000 1.706900
6.748400 1.739300
6.770800 1.717500
6.793300 1.718300
6.815700 1.716800
6.838100 1.716700
6.860500 1.714800
6.883000 1.717200
6.905400 1.716800
6.927800 1.714400
6.950300 1.716100
6.972700 1.718300
6.995100 1.720200
7.017500 1.721500
7.040000 1.719500
7.062400 1.717800
7.084800 1.716300
7.107300 1.716700
7.129700 1.736300
7.152100 1.754800
7.174500 1.771700
7.197000 1.788600
7.219400 1.794600
7.241800 1.803200
7.264300 1.811400
7.286700 1.820500
7.309100 1.832800
7.331500 1.846400
7.354000 1.859700
7.376400 1.885800
7.398800 1.927400
7.421300 1.960800
7.443700 1.984400
7.466100 2.006100
7.488500 2.023800
7.511000 2.038000
7.533400 2.047200
7.555800 2.048600
7.578300 2.071200
7.600700 2.045700
7.623100 2.031700
7.645500 2.031600
7.668000 2.029400
7.690400 2.025900
7.712800 2.026400
7.735300 2.026100
7.757700 2.027000
7.780100 2.039400
7.802500 2.057300
7.825000 2.063900
7.847400 2.076400
7.869800 2.046100
7.892200 2.062000
7.914700 2.030500
7.937100 2.008300
7.959500 1.999200
7.982000 2.008900
8.004400 1.969900
8.026800 1.935400
8.049200 1.911300
8.071700 1.901000
8.094100 1.907100
8.116500 1.922400
8.139000 1.929100
8.161400 1.926000
8.183800 1.927700
8.206200 1.943800
8.228700 1.966700
8.251100 1.994500
8.273500 2.022600
8.296000 2.048000
8.318400 2.061100
8.340800 2.068700
8.363200 2.076100
8.385700 2.096600
8.408100 2.097900
8.430500 2.069000
8.453000 2.052000
8.475400 2.060300
8.497800 2.066200
8.520200 2.083000
8.542700 2.089400
8.565100 2.086600
8.587500 2.070600
8.610000 2.042400
8.632400 2.006300
8.654800 1.987100
8.677200 1.978900
8.699700 1.966800
8.722100 1.953000
8.744500 1.955600
8.767000 1.959200
8.789400 1.959100
8.811800 1.954200
8.834200 1.951000
8.856700 1.952400
8.879100 1.967600
8.901500 1.962500
8.924000 1.957100
8.946400 1.954300
8.968800 1.962800
8.991200 1.970200
9.013700 1.971700
9.036100 1.965500
9.058500 1.952600
9.081000 1.958800
9.103400 2.006200
9.125800 1.963300
9.148200 1.982400
9.170700 2.017800
9.193100 2.044700
9.215500 2.053500
9.238000 2.055200
9.260400 2.045700
9.282800 2.029000
9.305200 2.015700
9.327700 2.008400
9.350100 2.003100
9.372500 1.999900
