set title 'mp-1187004 - Density of States'
set xlabel 'Energy (eV)'
set ylabel 'DOS (states/eV)'
set grid
set xrange [-10:10]
set yrange [0:2.844]
set xzeroaxis lt -1
set terminal png size 800,600
set output 'mp-1187004_dos_gnuplot.png'
plot '-' using 1:2 with lines title 'DOS'
-19.475800 0.000000
-19.449700 0.000000
-19.423600 0.000000
-19.397600 0.000000
-19.371500 0.000000
-19.345500 0.000000
-19.319400 0.000000
-19.293400 0.000000
-19.267300 0.000000
-19.241300 0.000000
-19.215200 0.000000
-19.189100 0.000000
-19.163100 0.000000
-19.137000 0.000000
-19.111000 0.000000
-19.084900 0.000000
-19.058900 0.000000
-19.032800 0.000000
-19.006700 0.000000
-18.980700 0.000000
-18.954600 0.000000
-18.928600 0.000000
-18.902500 0.000000
-18.876500 0.000000
-18.850400 0.000000
-18.824300 0.000000
-18.798300 0.000000
-18.772200 0.000000
-18.746200 0.000000
-18.720100 0.000000
-18.694100 0.000000
-18.668000 0.000000
-18.642000 0.000000
-18.615900 0.000000
-18.589800 0.000000
-18.563800 0.000000
-18.537700 0.000000
-18.511700 0.000000
-18.485600 0.000000
-18.459600 0.000000
-18.433500 0.000000
-18.407400 0.000000
-18.381400 0.000000
-18.355300 0.000000
-18.329300 0.000000
-18.303200 0.000000
-18.277200 0.000000
-18.251100 0.000000
-18.225000 0.000000
-18.199000 0.000000
-18.172900 0.000000
-18.146900 0.000000
-18.120800 0.000000
-18.094800 0.000000
-18.068700 0.000000
-18.042700 0.000000
-18.016600 0.000000
-17.990500 0.000000
-17.964500 0.000000
-17.938400 0.000000
-17.912400 0.000000
-17.886300 0.000000
-17.860300 0.000000
-17.834200 0.000000
-17.808100 0.000000
-17.782100 0.000000
-17.756000 0.000000
-17.730000 0.000000
-17.703900 0.000000
-17.677900 0.000000
-17.651800 0.000000
-17.625700 0.000000
-17.599700 0.000000
-17.573600 0.000000
-17.547600 0.000000
-17.521500 0.000000
-17.495500 0.000000
-17.469400 0.000000
-17.443400 0.000000
-17.417300 0.000000
-17.391200 0.000000
-17.365200 0.000000
-17.339100 0.000000
-17.313100 0.000000
-17.287000 0.000000
-17.261000 0.000000
-17.234900 0.000000
-17.208800 0.000000
-17.182800 0.000000
-17.156700 0.000000
-17.130700 0.000000
-17.104600 4.927700
-17.078600 19.197800
-17.052500 291.286400
-17.026400 101.272900
-17.000400 242.963100
-16.974300 204.467200
-16.948300 104.852700
-16.922200 98.000600
-16.896200 15.048800
-16.870100 10.000900
-16.844100 0.000000
-16.818000 0.000000
-16.791900 0.000000
-16.765900 0.000000
-16.739800 0.000000
-16.713800 0.000000
-16.687700 0.000000
-16.661700 0.000000
-16.635600 0.000000
-16.609500 0.000000
-16.583500 0.000000
-16.557400 0.000000
-16.531400 0.000000
-16.505300 0.000000
-16.479300 0.000000
-16.453200 0.000000
-16.427100 0.000000
-16.401100 0.000000
-16.375000 0.000000
-16.349000 0.000000
-16.322900 0.000000
-16.296900 0.000000
-16.270800 0.000000
-16.244800 0.000000
-16.218700 0.000000
-16.192600 0.000000
-16.166600 0.000000
-16.140500 0.000000
-16.114500 0.000000
-16.088400 0.000000
-16.062400 0.000000
-16.036300 0.000000
-16.010200 0.000000
-15.984200 0.000000
-15.958100 0.000000
-15.932100 0.000000
-15.906000 0.000000
-15.880000 0.000000
-15.853900 0.000000
-15.827800 0.000000
-15.801800 0.000000
-15.775700 0.000000
-15.749700 0.000000
-15.723600 0.000000
-15.697600 0.000000
-15.671500 0.000000
-15.645500 0.000000
-15.619400 0.000000
-15.593300 0.000000
-15.567300 0.000000
-15.541200 0.000000
-15.515200 0.000000
-15.489100 0.000000
-15.463100 0.000000
-15.437000 0.000000
-15.410900 0.000000
-15.384900 0.000000
-15.358800 0.000000
-15.332800 0.000000
-15.306700 0.000000
-15.280700 0.000000
-15.254600 0.000000
-15.228500 0.000000
-15.202500 0.000000
-15.176400 0.000000
-15.150400 0.000000
-15.124300 0.000000
-15.098300 0.000000
-15.072200 0.000000
-15.046200 0.000000
-15.020100 0.000000
-14.994000 0.000000
-14.968000 0.000000
-14.941900 0.000000
-14.915900 0.000000
-14.889800 0.000000
-14.863800 0.000000
-14.837700 0.000000
-14.811600 0.000000
-14.785600 0.000000
-14.759500 0.000000
-14.733500 0.000000
-14.707400 0.000000
-14.681400 0.000000
-14.655300 0.000000
-14.629200 0.000000
-14.603200 0.000000
-14.577100 0.000000
-14.551100 0.000000
-14.525000 0.000000
-14.499000 0.000000
-14.472900 0.000000
-14.446900 0.000000
-14.420800 0.000000
-14.394700 0.000000
-14.368700 0.000000
-14.342600 0.000000
-14.316600 0.000000
-14.290500 0.000000
-14.264500 0.000000
-14.238400 0.000000
-14.212300 0.000000
-14.186300 0.000000
-14.160200 0.000000
-14.134200 0.000000
-14.108100 0.000000
-14.082100 0.000000
-14.056000 0.000000
-14.029900 0.000000
-14.003900 0.000000
-13.977800 0.000000
-13.951800 0.000000
-13.925700 0.000000
-13.899700 0.000000
-13.873600 0.000000
-13.847600 0.000000
-13.821500 0.000000
-13.795400 0.000000
-13.769400 0.000000
-13.743300 0.000000
-13.717300 0.000000
-13.691200 0.000000
-13.665200 0.000000
-13.639100 0.000000
-13.613000 0.000000
-13.587000 0.000000
-13.560900 0.000000
-13.534900 0.000000
-13.508800 0.000000
-13.482800 0.000000
-13.456700 0.000000
-13.430600 0.000000
-13.404600 0.000000
-13.378500 0.000000
-13.352500 0.000000
-13.326400 0.000000
-13.300400 0.000000
-13.274300 0.000000
-13.248300 0.000000
-13.222200 0.000000
-13.196100 0.000000
-13.170100 0.000000
-13.144000 0.000000
-13.118000 0.000000
-13.091900 0.000000
-13.065900 0.000000
-13.039800 0.000000
-13.013700 0.000000
-12.987700 0.000000
-12.961600 0.000000
-12.935600 0.000000
-12.909500 0.000000
-12.883500 0.000000
-12.857400 0.000000
-12.831300 0.000000
-12.805300 0.000000
-12.779200 0.000000
-12.753200 0.000000
-12.727100 0.000000
-12.701100 0.000000
-12.675000 0.000000
-12.649000 0.000000
-12.622900 0.000000
-12.596800 0.000000
-12.570800 0.000000
-12.544700 0.000000
-12.518700 0.000000
-12.492600 0.000000
-12.466600 0.000000
-12.440500 0.000000
-12.414400 0.000000
-12.388400 0.000000
-12.362300 0.000000
-12.336300 0.000000
-12.310200 0.000000
-12.284200 0.000000
-12.258100 0.000000
-12.232000 0.000000
-12.206000 0.000000
-12.179900 0.000000
-12.153900 0.000000
-12.127800 0.000000
-12.101800 0.000000
-12.075700 0.000000
-12.049700 0.000000
-12.023600 0.000000
-11.997500 0.000000
-11.971500 0.000000
-11.945400 0.000000
-11.919400 0.000000
-11.893300 0.000000
-11.867300 0.000000
-11.841200 0.000000
-11.815100 0.000000
-11.789100 0.000000
-11.763000 0.000000
-11.737000 0.000000
-11.710900 0.000000
-11.684900 0.000000
-11.658800 0.000000
-11.632700 0.000000
-11.606700 0.000000
-11.580600 0.000000
-11.554600 0.000000
-11.528500 0.000000
-11.502500 0.000000
-11.476400 0.000000
-11.450400 0.000000
-11.424300 0.000000
-11.398200 0.000000
-11.372200 0.000000
-11.346100 0.000000
-11.320100 0.000000
-11.294000 0.000000
-11.268000 0.000000
-11.241900 0.000000
-11.215800 0.000000
-11.189800 0.000000
-11.163700 0.000000
-11.137700 0.000000
-11.111600 0.000000
-11.085600 0.000000
-11.059500 0.000000
-11.033400 0.000000
-11.007400 0.000000
-10.981300 0.000000
-10.955300 0.000000
-10.929200 0.000000
-10.903200 0.000000
-10.877100 0.000000
-10.851100 0.000000
-10.825000 0.000000
-10.798900 0.000000
-10.772900 0.000000
-10.746800 0.000000
-10.720800 0.000000
-10.694700 0.000000
-10.668700 0.000000
-10.642600 0.000000
-10.616500 0.000000
-10.590500 0.000000
-10.564400 0.000000
-10.538400 0.000000
-10.512300 0.000000
-10.486300 0.000000
-10.460200 0.000000
-10.434100 0.000000
-10.408100 0.000000
-10.382000 0.000000
-10.356000 0.000000
-10.329900 0.000000
-10.303900 0.000000
-10.277800 0.000000
-10.251800 0.000000
-10.225700 0.000000
-10.199600 0.000000
-10.173600 0.000000
-10.147500 0.000000
-10.121500 0.000000
-10.095400 0.000000
-10.069400 0.000000
-10.043300 0.000000
-10.017200 0.000000
-9.991200 0.000000
-9.965100 0.000000
-9.939100 0.000000
-9.913000 0.000000
-9.887000 0.000000
-9.860900 0.000000
-9.834800 0.000000
-9.808800 0.000000
-9.782700 0.000000
-9.756700 0.000000
-9.730600 0.000000
-9.704600 0.000000
-9.678500 0.000000
-9.652500 0.000000
-9.626400 0.000000
-9.600300 0.000000
-9.574300 0.000000
-9.548200 0.000000
-9.522200 0.000000
-9.496100 0.000000
-9.470100 0.000000
-9.444000 0.000000
-9.417900 0.000000
-9.391900 0.000000
-9.365800 0.000000
-9.339800 0.000000
-9.313700 0.000000
-9.287700 0.000000
-9.261600 0.000000
-9.235500 0.000000
-9.209500 0.000000
-9.183400 0.000000
-9.157400 0.000000
-9.131300 0.000000
-9.105300 0.000000
-9.079200 0.000000
-9.053200 0.000000
-9.027100 0.000000
-9.001000 0.000000
-8.975000 0.000000
-8.948900 0.000000
-8.922900 0.000000
-8.896800 0.000000
-8.870800 0.000000
-8.844700 0.000000
-8.818600 0.000000
-8.792600 0.000000
-8.766500 0.000000
-8.740500 0.000000
-8.714400 0.000000
-8.688400 0.000000
-8.662300 0.000000
-8.636200 0.000000
-8.610200 0.000000
-8.584100 0.000000
-8.558100 0.000000
-8.532000 0.000000
-8.506000 0.000000
-8.479900 0.000000
-8.453900 0.000000
-8.427800 0.000000
-8.401700 0.000000
-8.375700 0.000000
-8.349600 0.000000
-8.323600 0.000000
-8.297500 0.000000
-8.271500 0.000000
-8.245400 0.000000
-8.219300 0.000000
-8.193300 0.000000
-8.167200 0.000000
-8.141200 0.000000
-8.115100 0.000000
-8.089100 0.000000
-8.063000 0.000000
-8.036900 0.000000
-8.010900 0.000000
-7.984800 0.000000
-7.958800 0.000000
-7.932700 0.000000
-7.906700 0.000000
-7.880600 0.000000
-7.854600 0.000000
-7.828500 0.000000
-7.802400 0.000000
-7.776400 0.000000
-7.750300 0.000000
-7.724300 0.000000
-7.698200 0.000000
-7.672200 0.000000
-7.646100 0.000000
-7.620000 0.000000
-7.594000 0.000000
-7.567900 0.000000
-7.541900 0.000000
-7.515800 0.000000
-7.489800 0.000000
-7.463700 0.000000
-7.437600 0.000000
-7.411600 0.000000
-7.385500 0.000000
-7.359500 0.000000
-7.333400 0.000000
-7.307400 0.000000
-7.281300 0.000000
-7.255300 0.000000
-7.229200 0.000000
-7.203100 0.000000
-7.177100 0.000000
-7.151000 0.000000
-7.125000 0.000000
-7.098900 0.000000
-7.072900 0.000000
-7.046800 0.000000
-7.020700 0.000000
-6.994700 0.000000
-6.968600 0.000000
-6.942600 0.000000
-6.916500 0.000000
-6.890500 0.000000
-6.864400 0.000000
-6.838300 0.000000
-6.812300 0.000000
-6.786200 0.000000
-6.760200 0.000000
-6.734100 0.000000
-6.708100 0.000000
-6.682000 0.000000
-6.656000 0.000000
-6.629900 0.000000
-6.603800 0.000000
-6.577800 0.000000
-6.551700 0.000000
-6.525700 0.000000
-6.499600 0.000000
-6.473600 0.000000
-6.447500 0.000000
-6.421400 0.000000
-6.395400 0.000000
-6.369300 0.000000
-6.343300 0.000000
-6.317200 0.000000
-6.291200 0.000000
-6.265100 0.000000
-6.239000 0.000000
-6.213000 0.000000
-6.186900 0.000000
-6.160900 0.000000
-6.134800 0.000000
-6.108800 0.000000
-6.082700 0.000000
-6.056700 0.013800
-6.030600 0.055900
-6.004500 0.109300
-5.978500 0.152400
-5.952400 0.168000
-5.926400 0.183200
-5.900300 0.200100
-5.874300 0.208200
-5.848200 0.225400
-5.822100 0.244500
-5.796100 0.264300
-5.770000 0.284700
-5.744000 0.300700
-5.717900 0.309600
-5.691900 0.315500
-5.665800 0.324300
-5.639700 0.333100
-5.613700 0.342100
-5.587600 0.351000
-5.561600 0.360000
-5.535500 0.370600
-5.509500 0.381500
-5.483400 0.392500
-5.457400 0.403700
-5.431300 0.415500
-5.405200 0.427400
-5.379200 0.438700
-5.353100 0.445700
-5.327100 0.451100
-5.301000 0.456500
-5.275000 0.462300
-5.248900 0.469000
-5.222800 0.476500
-5.196800 0.483900
-5.170700 0.491300
-5.144700 0.498600
-5.118600 0.505800
-5.092600 0.513000
-5.066500 0.520900
-5.040400 0.528900
-5.014400 0.535800
-4.988300 0.543300
-4.962300 0.551300
-4.936200 0.559200
-4.910200 0.567200
-4.884100 0.576100
-4.858100 0.585100
-4.832000 0.593800
-4.805900 0.601000
-4.779900 0.607000
-4.753800 0.613500
-4.727800 0.624000
-4.701700 0.635200
-4.675700 0.644900
-4.649600 0.653300
-4.623500 0.660600
-4.597500 0.666600
-4.571400 0.683200
-4.545400 0.692200
-4.519300 0.688600
-4.493300 0.681700
-4.467200 0.680700
-4.441100 0.677000
-4.415100 0.675900
-4.389000 0.675700
-4.363000 0.675900
-4.336900 0.676300
-4.310900 0.677000
-4.284800 0.677900
-4.258800 0.679000
-4.232700 0.680400
-4.206600 0.681900
-4.180600 0.691300
-4.154500 0.701400
-4.128500 0.710500
-4.102400 0.720500
-4.076400 0.729800
-4.050300 0.738400
-4.024200 0.745000
-3.998200 0.752400
-3.972100 0.758900
-3.946100 0.765100
-3.920000 0.772800
-3.894000 0.798900
-3.867900 0.824000
-3.841800 0.844300
-3.815800 0.869900
-3.789700 0.885100
-3.763700 0.896300
-3.737600 0.906500
-3.711600 0.917500
-3.685500 0.926000
-3.659500 0.933400
-3.633400 0.939400
-3.607300 0.935000
-3.581300 0.922300
-3.555200 0.920300
-3.529200 0.927500
-3.503100 0.936300
-3.477100 0.943100
-3.451000 0.947700
-3.424900 0.954900
-3.398900 0.958700
-3.372800 0.958400
-3.346800 0.953400
-3.320700 0.935100
-3.294700 0.874700
-3.268600 0.837900
-3.242500 0.809800
-3.216500 0.770300
-3.190400 0.756000
-3.164400 0.742200
-3.138300 0.729000
-3.112300 0.716400
-3.086200 0.704100
-3.060200 0.687000
-3.034100 0.685800
-3.008000 0.727000
-2.982000 0.763900
-2.955900 0.804800
-2.929900 0.848800
-2.903800 0.895300
-2.877800 0.942300
-2.851700 0.993600
-2.825600 1.021000
-2.799600 1.030900
-2.773500 1.042800
-2.747500 1.049300
-2.721400 1.041400
-2.695400 1.033900
-2.669300 1.036400
-2.643200 1.040000
-2.617200 1.042300
-2.591100 1.044300
-2.565100 1.043300
-2.539000 1.034000
-2.513000 1.012800
-2.486900 1.002900
-2.460900 0.992600
-2.434800 0.981900
-2.408700 0.972100
-2.382700 0.968400
-2.356600 0.966600
-2.330600 0.965500
-2.304500 0.965200
-2.278500 0.969800
-2.252400 0.990500
-2.226300 1.028300
-2.200300 1.047300
-2.174200 1.069000
-2.148200 1.072300
-2.122100 1.096600
-2.096100 1.120000
-2.070000 1.141500
-2.043900 1.155600
-2.017900 1.163700
-1.991800 1.167500
-1.965800 1.163200
-1.939700 1.149700
-1.913700 1.143800
-1.887600 1.146600
-1.861600 1.142900
-1.835500 1.160100
-1.809400 1.170400
-1.783400 1.175000
-1.757300 1.178200
-1.731300 1.183000
-1.705200 1.188900
-1.679200 1.192900
-1.653100 1.193900
-1.627000 1.192200
-1.601000 1.186500
-1.574900 1.186400
-1.548900 1.215200
-1.522800 1.224700
-1.496800 1.225000
-1.470700 1.240400
-1.444600 1.251700
-1.418600 1.263500
-1.392500 1.274100
-1.366500 1.283000
-1.340400 1.290200
-1.314400 1.317200
-1.288300 1.304800
-1.262300 1.327400
-1.236200 1.288500
-1.210100 1.293300
-1.184100 1.308300
-1.158000 1.332000
-1.132000 1.352600
-1.105900 1.377500
-1.079900 1.426800
-1.053800 1.429900
-1.027700 1.430500
-1.001700 1.452100
-0.975600 1.441000
-0.949600 1.426100
-0.923500 1.407900
-0.897500 1.391900
-0.871400 1.376700
-0.845300 1.389500
-0.819300 1.408900
-0.793200 1.414600
-0.767200 1.422200
-0.741100 1.435500
-0.715100 1.450200
-0.689000 1.465800
-0.663000 1.481800
-0.636900 1.498000
-0.610800 1.514500
-0.584800 1.530600
-0.558700 1.596000
-0.532700 1.581800
-0.506600 1.590300
-0.480600 1.613400
-0.454500 1.649600
-0.428400 1.739200
-0.402400 1.752800
-0.376300 1.767300
-0.350300 1.741800
-0.324200 1.730800
-0.298200 1.793500
-0.272100 1.827400
-0.246100 1.762400
-0.220000 1.678100
-0.193900 1.579400
-0.167900 1.515500
-0.141800 1.481400
-0.115800 1.462300
-0.089700 1.413000
-0.063700 1.404900
-0.037600 1.360400
-0.011500 1.276200
0.014500 1.170100
0.040600 1.092600
0.066600 1.045000
0.092700 1.020500
0.118700 1.113400
0.144800 0.918000
0.170900 0.861300
0.196900 0.894600
0.223000 0.946100
0.249000 0.947000
0.275100 1.000100
0.301100 1.063000
0.327200 1.124800
0.353200 1.205400
0.379300 1.278000
0.405400 1.350600
0.431400 1.335700
0.457500 1.322100
0.483500 1.319000
0.509600 1.331200
0.535600 1.345600
0.561700 1.369100
0.587800 1.415800
0.613800 1.458700
0.639900 1.403000
0.665900 1.382200
0.692000 1.381900
0.718000 1.385100
0.744100 1.465800
0.770200 1.532000
0.796200 1.526700
0.822300 1.465300
0.848300 1.472600
0.874400 1.469700
0.900400 1.466000
0.926500 1.507300
0.952500 1.339200
0.978600 1.160700
1.004700 1.059900
1.030700 1.023600
1.056800 0.998800
1.082800 0.975500
1.108900 0.949800
1.134900 0.921700
1.161000 0.895800
1.187100 0.872500
1.213100 0.851300
1.239200 0.819200
1.265200 0.793300
1.291300 0.765100
1.317300 0.750500
1.343400 0.736200
1.369500 0.722400
1.395500 0.709300
1.421600 0.697100
1.447600 0.689200
1.473700 0.699200
1.499700 0.719000
1.525800 0.727800
1.551800 0.713400
1.577900 0.719300
1.604000 0.733300
1.630000 0.836000
1.656100 0.822600
1.682100 0.812300
1.708200 0.809700
1.734200 0.842300
1.760300 1.057100
1.786400 0.927900
1.812400 0.940800
1.838500 0.962300
1.864500 0.971300
1.890600 1.004000
1.916600 1.012700
1.942700 1.037600
1.968800 1.018100
1.994800 1.031700
2.020900 1.075900
2.046900 1.127000
2.073000 1.141800
2.099000 1.139400
2.125100 1.119800
2.151100 1.085000
2.177200 1.026100
2.203300 1.009300
2.229300 1.003900
2.255400 1.025200
2.281400 1.036100
2.307500 1.099600
2.333500 1.103200
2.359600 1.113300
2.385700 1.110300
2.411700 1.117600
2.437800 1.122400
2.463800 1.129400
2.489900 1.139300
2.515900 1.151300
2.542000 1.164000
2.568100 1.174000
2.594100 1.168600
2.620200 1.158200
2.646200 1.144900
2.672300 1.152400
2.698300 1.162600
2.724400 1.193600
2.750400 1.214500
2.776500 1.240200
2.802600 1.259200
2.828600 1.270100
2.854700 1.277400
2.880700 1.290800
2.906800 1.340500
2.932800 1.354700
2.958900 1.328600
2.985000 1.328900
3.011000 1.322400
3.037100 1.308100
3.063100 1.264700
3.089200 1.243500
3.115200 1.234800
3.141300 1.232200
3.167400 1.235200
3.193400 1.240200
3.219500 1.248000
3.245500 1.263800
3.271600 1.290800
3.297600 1.326000
3.323700 1.369900
3.349700 1.436100
3.375800 1.455700
3.401900 1.513200
3.427900 1.539900
3.454000 1.555500
3.480000 1.747100
3.506100 1.661600
3.532100 1.613800
3.558200 1.559300
3.584300 1.545900
3.610300 1.561400
3.636400 1.577400
3.662400 1.596100
3.688500 1.629500
3.714500 1.653900
3.740600 1.684300
3.766700 1.725700
3.792700 1.775200
3.818800 1.808400
3.844800 1.840100
3.870900 1.872700
3.896900 1.885400
3.923000 1.886600
3.949000 1.892000
3.975100 1.902500
4.001200 1.904500
4.027200 1.907100
4.053300 1.913300
4.079300 1.926900
4.105400 1.950900
4.131400 1.985100
4.157500 1.992400
4.183600 2.038300
4.209600 2.052000
4.235700 2.063100
4.261700 2.072500
4.287800 2.082400
4.313800 2.193200
4.339900 2.117000
4.366000 2.100600
4.392000 2.083100
4.418100 2.060800
4.444100 2.037900
4.470200 2.010500
4.496200 1.979200
4.522300 1.950200
4.548300 1.925400
4.574400 1.894500
4.600500 1.855500
4.626500 1.806300
4.652600 1.818100
4.678600 1.728300
4.704700 1.675900
4.730700 1.654400
4.756800 1.671000
4.782900 1.702800
4.808900 1.703700
4.835000 1.709100
4.861000 1.623100
4.887100 1.621300
4.913100 1.630700
4.939200 1.645200
4.965300 1.657200
4.991300 1.665300
5.017400 1.668700
5.043400 1.674400
5.069500 1.683400
5.095500 1.695000
5.121600 1.708600
5.147600 1.729000
5.173700 1.739800
5.199800 1.751600
5.225800 1.758600
5.251900 1.761100
5.277900 1.761300
5.304000 1.755300
5.330000 1.760900
5.356100 1.794300
5.382200 1.854700
5.408200 1.863300
5.434300 1.845400
5.460300 1.826000
5.486400 1.793100
5.512400 1.761900
5.538500 1.734800
5.564600 1.711100
5.590600 1.682400
5.616700 1.665900
5.642700 1.654800
5.668800 1.645300
5.694800 1.637700
5.720900 1.631700
5.746900 1.627400
5.773000 1.623800
5.799100 1.619300
5.825100 1.618300
5.851200 1.625200
5.877200 1.633400
5.903300 1.641400
5.929300 1.649000
5.955400 1.656700
5.981500 1.664000
6.007500 1.674500
6.033600 1.692400
6.059600 1.727000
6.085700 1.756600
6.111700 1.775800
6.137800 1.790500
6.163900 1.786100
6.189900 1.813200
6.216000 1.831900
6.242000 1.877800
6.268100 1.918100
6.294100 1.958400
6.320200 1.998500
6.346200 2.041500
6.372300 2.063400
6.398400 2.062100
6.424400 2.030500
6.450500 1.992700
6.476500 1.955700
6.502600 1.918200
6.528600 1.884700
6.554700 1.856900
6.580800 1.821700
6.606800 1.822300
6.632900 1.827600
6.658900 1.842500
6.685000 1.825900
6.711000 1.811700
6.737100 1.809600
6.763200 1.798400
6.789200 1.789400
6.815300 1.782400
6.841300 1.774200
6.867400 1.763500
6.893400 1.754400
6.919500 1.742800
6.945500 1.727700
6.971600 1.708000
6.997700 1.686600
7.023700 1.683000
7.049800 1.687400
7.075800 1.702600
7.101900 1.727900
7.127900 1.757000
7.154000 1.782200
7.180100 1.809500
7.206100 1.836900
7.232200 1.864500
7.258200 1.897700
7.284300 1.931300
7.310300 1.963300
7.336400 1.958000
7.362500 1.935300
7.388500 1.927000
7.414600 1.923900
