set title 'mp-567379 - Density of States'
set xlabel 'Energy (eV)'
set ylabel 'DOS (states/eV)'
set grid
set xrange [-10:10]
set yrange [0:4.243]
set xzeroaxis lt -1
set terminal png size 800,600
set output 'mp-567379_dos_gnuplot.png'
plot '-' using 1:2 with lines title 'DOS'
-9.758200 0.000000
-9.735200 0.000000
-9.712200 0.000000
-9.689200 0.000000
-9.666200 0.000000
-9.643300 0.000000
-9.620300 0.000000
-9.597300 0.000000
-9.574300 0.000000
-9.551300 0.000000
-9.528400 0.000000
-9.505400 0.000000
-9.482400 0.000000
-9.459400 0.000000
-9.436500 0.000000
-9.413500 0.000000
-9.390500 0.000000
-9.367500 0.000000
-9.344500 0.000000
-9.321600 0.000000
-9.298600 0.000000
-9.275600 0.000000
-9.252600 0.000000
-9.229600 0.000000
-9.206700 0.000000
-9.183700 0.000000
-9.160700 0.000000
-9.137700 0.000000
-9.114800 0.000000
-9.091800 0.000000
-9.068800 0.000000
-9.045800 0.000000
-9.022800 0.000000
-8.999900 0.000000
-8.976900 0.000000
-8.953900 0.000000
-8.930900 0.000000
-8.907900 0.000000
-8.885000 0.000000
-8.862000 0.000000
-8.839000 0.000000
-8.816000 0.000000
-8.793100 0.000000
-8.770100 0.000000
-8.747100 0.000000
-8.724100 0.000000
-8.701100 0.000000
-8.678200 0.000000
-8.655200 0.000000
-8.632200 0.000000
-8.609200 0.000000
-8.586300 0.000000
-8.563300 0.000000
-8.540300 0.000000
-8.517300 0.000000
-8.494300 0.000000
-8.471400 0.000000
-8.448400 0.000000
-8.425400 0.000000
-8.402400 0.000000
-8.379400 0.000000
-8.356500 0.000000
-8.333500 0.000000
-8.310500 0.000000
-8.287500 0.000000
-8.264600 0.000000
-8.241600 0.000000
-8.218600 0.000000
-8.195600 0.000000
-8.172600 0.000000
-8.149700 0.000000
-8.126700 0.000000
-8.103700 0.000000
-8.080700 0.000000
-8.057700 0.000000
-8.034800 0.000000
-8.011800 0.000000
-7.988800 0.000000
-7.965800 0.000000
-7.942900 0.000000
-7.919900 0.000000
-7.896900 0.000000
-7.873900 0.000000
-7.850900 0.000000
-7.828000 0.000000
-7.805000 0.000000
-7.782000 0.000000
-7.759000 0.000000
-7.736000 0.000000
-7.713100 0.000000
-7.690100 0.000000
-7.667100 0.000200
-7.644100 0.031800
-7.621200 0.116800
-7.598200 0.244700
-7.575200 0.337100
-7.552200 0.376500
-7.529200 0.385600
-7.506300 0.410500
-7.483300 0.453100
-7.460300 0.503600
-7.437300 0.556100
-7.414400 0.606000
-7.391400 0.640000
-7.368400 0.655600
-7.345400 0.666200
-7.322400 0.684700
-7.299500 0.711100
-7.276500 0.739200
-7.253500 0.767100
-7.230500 0.794600
-7.207500 0.821800
-7.184600 0.849600
-7.161600 0.879100
-7.138600 0.911100
-7.115600 0.941200
-7.092700 1.025200
-7.069700 1.106800
-7.046700 1.152200
-7.023700 1.126500
-7.000700 1.103800
-6.977800 1.109900
-6.954800 1.123700
-6.931800 1.136700
-6.908800 1.150200
-6.885800 1.163500
-6.862900 1.163000
-6.839900 1.157200
-6.816900 1.157900
-6.793900 1.169400
-6.771000 1.181200
-6.748000 1.195200
-6.725000 1.211300
-6.702000 1.295000
-6.679000 1.395700
-6.656100 1.475900
-6.633100 1.486400
-6.610100 1.497800
-6.587100 1.530200
-6.564200 1.565700
-6.541200 1.603200
-6.518200 1.646200
-6.495200 1.691500
-6.472200 1.723600
-6.449300 1.738600
-6.426300 1.742500
-6.403300 1.747600
-6.380300 1.761300
-6.357300 1.780800
-6.334400 1.800600
-6.311400 1.818100
-6.288400 1.834000
-6.265400 1.850500
-6.242500 1.869400
-6.219500 1.889400
-6.196500 1.908800
-6.173500 1.917500
-6.150500 1.931700
-6.127600 1.955600
-6.104600 1.981000
-6.081600 2.002400
-6.058600 2.023500
-6.035600 2.043400
-6.012700 2.063600
-5.989700 2.105900
-5.966700 2.167600
-5.943700 2.242700
-5.920800 2.310100
-5.897800 2.403500
-5.874800 2.543500
-5.851800 2.699900
-5.828800 2.880800
-5.805900 3.038700
-5.782900 3.213200
-5.759900 3.339100
-5.736900 3.404000
-5.713900 3.465400
-5.691000 3.464800
-5.668000 3.488400
-5.645000 3.531900
-5.622000 3.532600
-5.599100 3.535900
-5.576100 3.520800
-5.553100 3.410800
-5.530100 3.277700
-5.507100 3.146900
-5.484200 3.025500
-5.461200 2.912100
-5.438200 2.675500
-5.415200 2.429400
-5.392300 2.151000
-5.369300 1.929400
-5.346300 1.724600
-5.323300 1.586100
-5.300300 1.493300
-5.277400 1.322200
-5.254400 1.222200
-5.231400 1.127800
-5.208400 1.384100
-5.185400 1.772200
-5.162500 2.270300
-5.139500 2.774500
-5.116500 2.960000
-5.093500 3.237500
-5.070600 3.442300
-5.047600 3.449600
-5.024600 3.365200
-5.001600 3.323400
-4.978600 3.239700
-4.955700 3.128000
-4.932700 3.083800
-4.909700 2.922100
-4.886700 2.802100
-4.863700 2.708700
-4.840800 2.651100
-4.817800 2.626800
-4.794800 2.607100
-4.771800 2.571900
-4.748900 2.510500
-4.725900 2.463400
-4.702900 2.408400
-4.679900 2.373900
-4.656900 2.338000
-4.634000 2.311900
-4.611000 2.296300
-4.588000 2.283700
-4.565000 2.265200
-4.542100 2.242300
-4.519100 2.220300
-4.496100 2.202500
-4.473100 2.186000
-4.450100 2.169600
-4.427200 2.154200
-4.404200 2.140100
-4.381200 2.124500
-4.358200 2.107800
-4.335200 2.082900
-4.312300 2.071300
-4.289300 2.079100
-4.266300 2.097500
-4.243300 2.122800
-4.220400 2.145600
-4.197400 2.166200
-4.174400 2.169500
-4.151400 2.139700
-4.128400 2.096800
-4.105500 2.040700
-4.082500 1.970700
-4.059500 1.867300
-4.036500 1.771700
-4.013500 1.685600
-3.990600 1.607600
-3.967600 1.530000
-3.944600 1.453900
-3.921600 1.381600
-3.898700 1.321300
-3.875700 1.269100
-3.852700 1.223400
-3.829700 1.188400
-3.806700 1.160700
-3.783800 1.125800
-3.760800 1.101900
-3.737800 1.079400
-3.714800 1.044800
-3.691800 1.000200
-3.668900 0.959600
-3.645900 0.921900
-3.622900 0.885700
-3.599900 0.850100
-3.577000 0.820100
-3.554000 0.802200
-3.531000 0.784800
-3.508000 0.767700
-3.485000 0.754300
-3.462100 0.747900
-3.439100 0.743800
-3.416100 0.740000
-3.393100 0.736200
-3.370200 0.732800
-3.347200 0.705300
-3.324200 0.678200
-3.301200 0.649300
-3.278200 0.619000
-3.255300 0.587600
-3.232300 0.554800
-3.209300 0.537800
-3.186300 0.522200
-3.163300 0.507200
-3.140400 0.492100
-3.117400 0.477200
-3.094400 0.461700
-3.071400 0.446700
-3.048500 0.433200
-3.025500 0.421100
-3.002500 0.408800
-2.979500 0.396200
-2.956500 0.383700
-2.933600 0.368400
-2.910600 0.350200
-2.887600 0.330900
-2.864600 0.311700
-2.841600 0.292700
-2.818700 0.274300
-2.795700 0.256900
-2.772700 0.242100
-2.749700 0.230400
-2.726800 0.221800
-2.703800 0.216100
-2.680800 0.208800
-2.657800 0.194400
-2.634800 0.172400
-2.611900 0.142800
-2.588900 0.105500
-2.565900 0.068900
-2.542900 0.039800
-2.520000 0.018600
-2.497000 0.005400
-2.474000 0.000100
-2.451000 0.000000
-2.428000 0.000000
-2.405100 0.000000
-2.382100 0.000000
-2.359100 0.000000
-2.336100 0.000000
-2.313100 0.000000
-2.290200 0.000000
-2.267200 0.000000
-2.244200 0.000000
-2.221200 0.000000
-2.198300 0.000000
-2.175300 0.000000
-2.152300 0.000000
-2.129300 0.000000
-2.106300 0.000000
-2.083400 0.000000
-2.060400 0.000000
-2.037400 0.000000
-2.014400 0.000000
-1.991400 0.000000
-1.968500 0.000000
-1.945500 0.000000
-1.922500 0.000000
-1.899500 0.000000
-1.876600 0.000000
-1.853600 0.000000
-1.830600 0.000000
-1.807600 0.000000
-1.784600 0.000000
-1.761700 0.000000
-1.738700 0.000000
-1.715700 0.000000
-1.692700 0.000000
-1.669700 0.000000
-1.646800 0.000000
-1.623800 0.000000
-1.600800 0.000000
-1.577800 0.000000
-1.554900 0.000000
-1.531900 0.000000
-1.508900 0.000000
-1.485900 0.000000
-1.462900 0.000000
-1.440000 0.000000
-1.417000 0.000000
-1.394000 0.000000
-1.371000 0.000000
-1.348100 0.000000
-1.325100 0.000000
-1.302100 0.000000
-1.279100 0.000000
-1.256100 0.000000
-1.233200 0.000000
-1.210200 0.000000
-1.187200 0.000000
-1.164200 0.000000
-1.141200 0.000000
-1.118300 0.000000
-1.095300 0.000000
-1.072300 0.000000
-1.049300 0.000000
-1.026400 0.000000
-1.003400 0.000000
-0.980400 0.000000
-0.957400 0.000000
-0.934400 0.000000
-0.911500 0.000000
-0.888500 0.000000
-0.865500 0.000000
-0.842500 0.000000
-0.819500 0.000000
-0.796600 0.000000
-0.773600 0.000000
-0.750600 0.000000
-0.727600 0.000000
-0.704700 0.000000
-0.681700 0.000000
-0.658700 0.000000
-0.635700 0.000000
-0.612700 0.000000
-0.589800 0.000000
-0.566800 0.000000
-0.543800 0.000000
-0.520800 0.000000
-0.497800 0.000000
-0.474900 0.000000
-0.451900 0.000000
-0.428900 0.000000
-0.405900 0.000000
-0.383000 0.000000
-0.360000 0.000000
-0.337000 0.000000
-0.314000 0.000000
-0.291000 0.000000
-0.268100 0.000000
-0.245100 0.000000
-0.222100 0.000000
-0.199100 0.000000
-0.176200 0.000000
-0.153200 0.000000
-0.130200 0.000000
-0.107200 0.000000
-0.084200 0.000000
-0.061300 0.000000
-0.038300 0.000000
-0.015300 0.000000
0.007700 0.000000
0.030700 0.000000
0.053600 0.000000
0.076600 0.000000
0.099600 0.000000
0.122600 0.000000
0.145500 0.000000
0.168500 0.000000
0.191500 0.000000
0.214500 0.000000
0.237500 0.000000
0.260400 0.000000
0.283400 0.000000
0.306400 0.000000
0.329400 0.000000
0.352400 0.000000
0.375300 0.000000
0.398300 0.000000
0.421300 0.000000
0.444300 0.000000
0.467200 0.000000
0.490200 0.000000
0.513200 0.000000
0.536200 0.000000
0.559200 0.002800
0.582100 0.036800
0.605100 0.132900
0.628100 0.242300
0.651100 0.358700
0.674000 0.503100
0.697000 0.636300
0.720000 0.665500
0.743000 0.685200
0.766000 0.736500
0.788900 0.794200
0.811900 0.844900
0.834900 0.887200
0.857900 0.929600
0.880900 0.971200
0.903800 1.010000
0.926800 1.050000
0.949800 1.094200
0.972800 1.173100
0.995700 1.280300
1.018700 1.326600
1.041700 1.368100
1.064700 1.414500
1.087700 1.458600
1.110600 1.513000
1.133600 1.490400
1.156600 1.468500
1.179600 1.472100
1.202600 1.496600
1.225500 1.521300
1.248500 1.547100
1.271500 1.568900
1.294500 1.578000
1.317400 1.582200
1.340400 1.584800
1.363400 1.586100
1.386400 1.596200
1.409400 1.667200
1.432300 1.675000
1.455300 1.720600
1.478300 1.812100
1.501300 1.921900
1.524300 2.037300
1.547200 2.131300
1.570200 2.096800
1.593200 2.111700
1.616200 2.143200
1.639100 2.175100
1.662100 2.209800
1.685100 2.246000
1.708100 2.286300
1.731100 2.332400
1.754000 2.409800
1.777000 2.343600
1.800000 2.308500
1.823000 2.276400
1.845900 2.234300
1.868900 2.251000
1.891900 2.250400
1.914900 2.253500
1.937900 2.265500
1.960800 2.309300
1.983800 2.288800
2.006800 2.373300
2.029800 2.440000
2.052800 2.494200
2.075700 2.560900
2.098700 2.645400
2.121700 2.760000
2.144700 2.877100
2.167600 2.996200
2.190600 3.133700
2.213600 3.273600
2.236600 3.499700
2.259600 3.772800
2.282500 3.857200
2.305500 3.800000
2.328500 3.643000
2.351500 3.499700
2.374500 3.356900
2.397400 3.348600
2.420400 3.322500
2.443400 3.264100
2.466400 3.195300
2.489300 3.159700
2.512300 3.155400
2.535300 3.218600
2.558300 3.334700
2.581300 3.408900
2.604200 3.342300
2.627200 3.316700
2.650200 3.315700
2.673200 3.329000
2.696100 3.331800
2.719100 3.336400
2.742100 3.367000
2.765100 3.430400
2.788100 3.509100
2.811000 3.500600
2.834000 3.572400
2.857000 3.637400
2.880000 3.354600
2.903000 3.311100
2.925900 3.371600
2.948900 3.387900
2.971900 3.412000
2.994900 3.409900
3.017800 3.417800
3.040800 3.475000
3.063800 3.499700
3.086800 3.523700
3.109800 3.562400
3.132700 3.617300
3.155700 3.659800
3.178700 3.648400
3.201700 3.568200
3.224700 3.570500
3.247600 3.564400
3.270600 3.550200
3.293600 3.495900
3.316600 3.456100
3.339500 3.422200
3.362500 3.387500
3.385500 3.343400
3.408500 3.276400
3.431500 3.207500
3.454400 3.034800
3.477400 2.955400
3.500400 2.953400
3.523400 2.987100
3.546400 3.167700
3.569300 3.351700
3.592300 3.381700
3.615300 3.376100
3.638300 3.351200
3.661200 3.335200
3.684200 3.339400
3.707200 3.385700
3.730200 3.443200
3.753200 3.422700
3.776100 3.354100
3.799100 3.250200
3.822100 3.120800
3.845100 2.973300
3.868000 2.843900
3.891000 2.751600
3.914000 2.715600
3.937000 2.732200
3.960000 2.760000
3.982900 2.795500
4.005900 2.859300
4.028900 2.876900
4.051900 2.792700
4.074900 2.766800
4.097800 2.755600
4.120800 2.742900
4.143800 2.739400
4.166800 2.750200
4.189700 2.750700
4.212700 2.758200
4.235700 2.785600
4.258700 2.835500
4.281700 2.891500
4.304600 2.942000
4.327600 2.973800
4.350600 2.984900
4.373600 2.944500
4.396600 2.905300
4.419500 2.877300
4.442500 2.875800
4.465500 2.795200
4.488500 2.762900
4.511400 2.759700
4.534400 2.744800
4.557400 2.684100
4.580400 2.656800
4.603400 2.645300
4.626300 2.648400
4.649300 2.670700
4.672300 2.683900
4.695300 2.690200
4.718200 2.718400
4.741200 2.776900
4.764200 2.846500
4.787200 2.926600
4.810200 3.015700
4.833100 3.095800
4.856100 3.208200
4.879100 3.366700
4.902100 3.498300
4.925100 3.700800
4.948000 3.651200
4.971000 3.432800
4.994000 3.100600
5.017000 2.661800
5.039900 2.197300
5.062900 1.747600
5.085900 1.425700
5.108900 1.176100
5.131900 1.002900
5.154800 0.862300
5.177800 0.752300
5.200800 0.671400
5.223800 0.633000
5.246800 0.689900
5.269700 0.752500
5.292700 0.877900
5.315700 0.775500
5.338700 0.810300
5.361600 1.173800
5.384600 1.427800
5.407600 1.345100
5.430600 1.354200
5.453600 1.436000
5.476500 1.517700
5.499500 1.600600
5.522500 1.695200
5.545500 1.795300
5.568500 1.892500
5.591400 1.972400
5.614400 2.055200
5.637400 2.132400
5.660400 2.229600
5.683300 2.225600
5.706300 2.264900
5.729300 2.279200
5.752300 2.290700
5.775300 2.332800
5.798200 2.387100
5.821200 2.418600
5.844200 2.401700
5.867200 2.339600
5.890100 2.251600
5.913100 2.181600
5.936100 2.149600
5.959100 2.132500
5.982100 2.126300
6.005000 2.127200
6.028000 2.131700
6.051000 2.141600
6.074000 2.167900
6.097000 2.205500
6.119900 2.264600
6.142900 2.344800
6.165900 2.415100
6.188900 2.468900
6.211800 2.499500
6.234800 2.485200
6.257800 2.422500
6.280800 2.421200
6.303800 2.433800
6.326700 2.462200
6.349700 2.491800
6.372700 2.521400
6.395700 2.483700
6.418700 2.443900
6.441600 2.401700
6.464600 2.364800
6.487600 2.355900
6.510600 2.368100
6.533500 2.340000
6.556500 2.315400
6.579500 2.307700
6.602500 2.291600
6.625500 2.270800
6.648400 2.251200
6.671400 2.228500
6.694400 2.219800
6.717400 2.219800
6.740400 2.228800
6.763300 2.242000
6.786300 2.248200
6.809300 2.251500
6.832300 2.252500
6.855200 2.255000
6.878200 2.261800
6.901200 2.269700
6.924200 2.276400
6.947200 2.280800
6.970100 2.283100
6.993100 2.285000
7.016100 2.285900
7.039100 2.285700
7.062000 2.284800
7.085000 2.283700
7.108000 2.282400
7.131000 2.282600
7.154000 2.286000
7.176900 2.302700
7.199900 2.376800
7.222900 2.422800
7.245900 2.457200
7.268900 2.478600
7.291800 2.482300
7.314800 2.487500
7.337800 2.498400
7.360800 2.515400
7.383700 2.543100
7.406700 2.569700
7.429700 2.609500
7.452700 2.665000
7.475700 2.736800
7.498600 2.843800
7.521600 2.995000
7.544600 3.158000
7.567600 3.241700
7.590600 3.352200
7.613500 3.385200
7.636500 3.320400
7.659500 3.198300
7.682500 3.087800
7.705400 3.057700
7.728400 3.071300
7.751400 3.079600
7.774400 3.115200
7.797400 3.183400
7.820300 3.291100
7.843300 3.357500
7.866300 3.319300
7.889300 3.144100
7.912200 2.927100
7.935200 2.735700
7.958200 2.563800
7.981200 2.391300
8.004200 2.323200
8.027100 2.351600
8.050100 2.397400
8.073100 2.456300
8.096100 2.542800
8.119100 2.643600
8.142000 2.825900
8.165000 3.074500
8.188000 3.203200
8.211000 3.138200
8.233900 3.110600
8.256900 3.085100
8.279900 3.074000
8.302900 3.074900
8.325900 3.073900
8.348800 3.092400
8.371800 3.150700
8.394800 3.189300
8.417800 3.196000
8.440800 3.185700
8.463700 3.171800
8.486700 3.162500
8.509700 3.118800
8.532700 3.086200
8.555600 2.964000
8.578600 2.905000
8.601600 2.891900
8.624600 2.891400
8.647600 2.921000
8.670500 3.011000
8.693500 3.143700
8.716500 3.195600
8.739500 3.109800
8.762500 3.093400
8.785400 3.130200
8.808400 3.235000
8.831400 3.372700
8.854400 3.487400
8.877300 3.583300
8.900300 3.589400
8.923300 3.480300
8.946300 3.340800
8.969300 3.158300
8.992200 2.964300
9.015200 2.803100
9.038200 2.714500
9.061200 2.667200
9.084100 2.692400
9.107100 2.689000
9.130100 2.665900
9.153100 2.726300
9.176100 2.827400
9.199000 2.893100
9.222000 2.948500
9.245000 2.947100
9.268000 2.939300
9.291000 2.931100
9.313900 2.894100
9.336900 2.831200
9.359900 2.848700
9.382900 2.780400
9.405800 2.675400
9.428800 2.639900
9.451800 2.583100
9.474800 2.546700
9.497800 2.534100
9.520700 2.520400
9.543700 2.519200
9.566700 2.523300
9.589700 2.539700
9.612700 2.606400
9.635600 2.712400
9.658600 2.785100
9.681600 2.771000
9.704600 2.706500
9.727500 2.630100
9.750500 2.581600
9.773500 2.551200
9.796500 2.488200
9.819500 2.327200
9.842400 2.163500
9.865400 2.115000
9.888400 2.074600
9.911400 2.081400
9.934300 2.050100
9.957300 1.907300
9.980300 1.776200
10.003300 1.765300
10.026300 1.768400
10.049200 1.774900
10.072200 1.779800
10.095200 1.769600
10.118200 1.749900
10.141200 1.734500
10.164100 1.727400
10.187100 1.738700
10.210100 1.746500
10.233100 1.692100
10.256000 1.641800
10.279000 1.612200
10.302000 1.644700
10.325000 1.696500
10.348000 1.813100
10.370900 2.106100
10.393900 2.337300
10.416900 2.478500
10.439900 2.604600
10.462900 2.707300
10.485800 2.807700
10.508800 2.901200
10.531800 2.965300
10.554800 2.995900
10.577700 3.058400
10.600700 3.100700
10.623700 3.128000
10.646700 3.148200
10.669700 3.171600
10.692600 3.204900
10.715600 3.237800
10.738600 3.422600
10.761600 3.746700
10.784600 3.860900
10.807500 3.752100
10.830500 3.515400
10.853500 3.368500
10.876500 3.164100
10.899400 3.185900
10.922400 3.355500
10.945400 3.424600
10.968400 3.526700
10.991400 3.565800
11.014300 3.461300
11.037300 3.249200
11.060300 3.038100
11.083300 2.913200
11.106200 2.791400
11.129200 2.657500
11.152200 2.539800
11.175200 2.443100
11.198200 2.359200
11.221100 2.296500
11.244100 2.263900
11.267100 2.258000
11.290100 2.265800
11.313100 2.255900
11.336000 2.211200
11.359000 2.165600
11.382000 2.119100
11.405000 2.032000
11.427900 1.959400
11.450900 1.899400
11.473900 1.837700
11.496900 1.784000
11.519900 1.743900
11.542800 1.717600
11.565800 1.916700
11.588800 2.001000
11.611800 1.977800
11.634800 1.968700
11.657700 1.970700
11.680700 1.983300
11.703700 2.021500
11.726700 2.065700
11.749600 2.114500
11.772600 2.252400
11.795600 2.330900
11.818600 2.372400
11.841600 2.398500
11.864500 2.413800
11.887500 2.499300
11.910500 2.363600
11.933500 2.275600
11.956400 2.187900
11.979400 2.133700
12.002400 2.079600
12.025400 2.045800
12.048400 2.036400
12.071300 2.024200
12.094300 2.054000
12.117300 2.160800
12.140300 2.338300
12.163300 2.413400
12.186200 2.471800
12.209200 2.516300
12.232200 2.537600
12.255200 2.516000
12.278100 2.503000
12.301100 2.499800
12.324100 2.507000
12.347100 2.518500
12.370100 2.541100
12.393000 2.605500
12.416000 2.739000
12.439000 2.735200
12.462000 2.667100
12.485000 2.577200
12.507900 2.513500
12.530900 2.518900
12.553900 2.581300
12.576900 2.606000
12.599800 2.549800
12.622800 2.630400
12.645800 2.714400
12.668800 2.784400
12.691800 2.846100
12.714700 2.901800
12.737700 2.906400
12.760700 2.889600
12.783700 2.876900
12.806700 2.890700
12.829600 2.834800
12.852600 2.772700
12.875600 2.739600
12.898600 2.722100
12.921500 2.714300
12.944500 2.728700
12.967500 2.750400
12.990500 2.801600
13.013500 2.890500
13.036400 2.901600
13.059400 2.897000
13.082400 2.885500
13.105400 2.878700
13.128300 2.991000
13.151300 3.161600
13.174300 3.264200
13.197300 3.300400
13.220300 3.239100
13.243200 3.217200
13.266200 3.301600
13.289200 3.409000
13.312200 3.511300
13.335200 3.600500
13.358100 3.662600
13.381100 3.704300
13.404100 3.728500
13.427100 3.781300
13.450000 3.887600
13.473000 4.033800
13.496000 4.104900
13.519000 4.184900
13.542000 4.255800
13.564900 4.304200
13.587900 4.325600
13.610900 4.198300
13.633900 4.095500
13.656900 4.011500
13.679800 3.965100
13.702800 3.898500
13.725800 3.830500
13.748800 3.767600
13.771700 3.712800
13.794700 3.667700
13.817700 3.611700
13.840700 3.562400
13.863700 3.529200
13.886600 3.551700
13.909600 3.684900
13.932600 3.904000
13.955600 4.088900
13.978600 4.234500
14.001500 4.250100
14.024500 4.176900
14.047500 4.194700
14.070500 4.206300
14.093400 4.125900
14.116400 4.076800
14.139400 4.029200
14.162400 4.023100
14.185400 4.067200
14.208300 4.081300
14.231300 4.094400
14.254300 4.091100
14.277300 4.092800
14.300200 4.049200
14.323200 4.057400
14.346200 4.132900
14.369200 4.154400
14.392200 4.150600
14.415100 4.182600
14.438100 4.242400
14.461100 4.179300
14.484100 4.182500
14.507100 4.268000
14.530000 4.414900
14.553000 4.533400
14.576000 4.699000
