set title 'mp-8642 - Density of States'
set xlabel 'Energy (eV)'
set ylabel 'DOS (states/eV)'
set grid
set xrange [-10:10]
set yrange [0:2.205]
set xzeroaxis lt -1
set terminal png size 800,600
set output 'mp-8642_dos_gnuplot.png'
plot '-' using 1:2 with lines title 'DOS'
-42.452900 0.000000
-42.370600 0.000000
-42.288300 0.000000
-42.206000 0.000000
-42.123700 0.000000
-42.041400 0.000000
-41.959100 0.000000
-41.876900 0.000000
-41.794600 0.000000
-41.712300 0.000000
-41.630000 0.000000
-41.547700 0.000000
-41.465400 0.000000
-41.383100 0.000000
-41.300900 0.000000
-41.218600 0.000000
-41.136300 0.000000
-41.054000 0.000000
-40.971700 0.000000
-40.889400 0.000000
-40.807100 0.000000
-40.724900 0.000000
-40.642600 0.000000
-40.560300 0.000000
-40.478000 0.000000
-40.395700 0.000000
-40.313400 0.000000
-40.231100 0.000000
-40.148800 0.000000
-40.066600 0.000000
-39.984300 0.000000
-39.902000 0.000000
-39.819700 0.000000
-39.737400 0.000000
-39.655100 0.000000
-39.572800 0.000000
-39.490600 0.000000
-39.408300 0.000000
-39.326000 0.000000
-39.243700 0.000000
-39.161400 0.000000
-39.079100 0.000000
-38.996800 0.000000
-38.914500 0.000000
-38.832300 0.000000
-38.750000 0.000000
-38.667700 0.000000
-38.585400 0.000000
-38.503100 0.000000
-38.420800 0.000000
-38.338500 0.000000
-38.256300 0.000000
-38.174000 0.000000
-38.091700 0.000000
-38.009400 0.000000
-37.927100 0.000000
-37.844800 0.000000
-37.762500 0.000000
-37.680200 0.000000
-37.598000 0.000000
-37.515700 0.000000
-37.433400 0.000000
-37.351100 0.000000
-37.268800 0.000000
-37.186500 0.000000
-37.104200 0.000000
-37.022000 0.000000
-36.939700 0.000000
-36.857400 0.000000
-36.775100 0.000000
-36.692800 0.000000
-36.610500 0.000000
-36.528200 0.000000
-36.446000 0.000000
-36.363700 0.000000
-36.281400 0.000000
-36.199100 0.000000
-36.116800 0.000000
-36.034500 0.000000
-35.952200 0.000000
-35.869900 0.000000
-35.787700 0.000000
-35.705400 0.000000
-35.623100 0.000000
-35.540800 0.000000
-35.458500 0.000000
-35.376200 0.000000
-35.293900 0.000000
-35.211700 0.000000
-35.129400 0.000000
-35.047100 0.000000
-34.964800 0.474000
-34.882500 2.504500
-34.800200 5.585600
-34.717900 7.341800
-34.635600 2.928600
-34.553400 2.743200
-34.471100 3.550700
-34.388800 4.097900
-34.306500 4.555200
-34.224200 8.933000
-34.141900 9.478700
-34.059600 10.240600
-33.977400 6.712600
-33.895100 2.960900
-33.812800 0.000000
-33.730500 0.000000
-33.648200 0.000000
-33.565900 0.000000
-33.483600 0.000000
-33.401300 0.000000
-33.319100 0.000000
-33.236800 0.000000
-33.154500 0.000000
-33.072200 0.000000
-32.989900 0.000000
-32.907600 0.000000
-32.825300 0.000000
-32.743100 0.000000
-32.660800 0.000000
-32.578500 0.000000
-32.496200 0.000000
-32.413900 0.000000
-32.331600 0.000000
-32.249300 0.000000
-32.167000 0.000000
-32.084800 0.000000
-32.002500 0.000000
-31.920200 0.000000
-31.837900 0.000000
-31.755600 0.000000
-31.673300 0.000000
-31.591000 0.000000
-31.508800 0.000000
-31.426500 0.000000
-31.344200 0.000000
-31.261900 0.000000
-31.179600 0.000000
-31.097300 0.000000
-31.015000 0.000000
-30.932800 0.000000
-30.850500 0.000000
-30.768200 0.000000
-30.685900 0.000000
-30.603600 0.000000
-30.521300 0.000000
-30.439000 0.000000
-30.356700 0.000000
-30.274500 0.000000
-30.192200 0.000000
-30.109900 0.000000
-30.027600 0.000000
-29.945300 0.000000
-29.863000 0.000000
-29.780700 0.000000
-29.698500 0.000000
-29.616200 0.000000
-29.533900 0.000000
-29.451600 0.000000
-29.369300 0.000000
-29.287000 0.000000
-29.204700 0.000000
-29.122400 0.000000
-29.040200 0.000000
-28.957900 0.000000
-28.875600 0.000000
-28.793300 0.000000
-28.711000 0.000000
-28.628700 0.000000
-28.546400 0.000000
-28.464200 0.000000
-28.381900 0.000000
-28.299600 0.000000
-28.217300 0.000000
-28.135000 0.000000
-28.052700 0.000000
-27.970400 0.000000
-27.888100 0.000000
-27.805900 0.000000
-27.723600 0.000000
-27.641300 0.000000
-27.559000 0.000000
-27.476700 0.000000
-27.394400 0.000000
-27.312100 0.000000
-27.229900 0.000000
-27.147600 0.000000
-27.065300 0.000000
-26.983000 0.000000
-26.900700 0.000000
-26.818400 0.000000
-26.736100 0.000000
-26.653900 0.000000
-26.571600 0.000000
-26.489300 0.000000
-26.407000 0.000000
-26.324700 0.000000
-26.242400 0.000000
-26.160100 0.000000
-26.077800 0.000000
-25.995600 0.000000
-25.913300 0.000000
-25.831000 0.000000
-25.748700 0.000000
-25.666400 0.000000
-25.584100 0.000000
-25.501800 0.000000
-25.419600 0.000000
-25.337300 0.000000
-25.255000 0.000000
-25.172700 0.000000
-25.090400 0.000000
-25.008100 0.000000
-24.925800 0.000000
-24.843500 0.000000
-24.761300 0.000000
-24.679000 0.000000
-24.596700 0.000000
-24.514400 0.000000
-24.432100 0.000000
-24.349800 0.000000
-24.267500 0.000000
-24.185300 0.000000
-24.103000 0.000000
-24.020700 0.000000
-23.938400 0.000000
-23.856100 0.000000
-23.773800 0.000000
-23.691500 0.000000
-23.609200 0.000000
-23.527000 0.000000
-23.444700 0.000000
-23.362400 0.000000
-23.280100 0.000000
-23.197800 0.000000
-23.115500 0.000000
-23.033200 0.000000
-22.951000 0.000000
-22.868700 0.000000
-22.786400 0.000000
-22.704100 0.000000
-22.621800 0.000000
-22.539500 0.000000
-22.457200 0.000000
-22.375000 0.000000
-22.292700 0.000000
-22.210400 0.000000
-22.128100 0.000000
-22.045800 0.000000
-21.963500 0.000000
-21.881200 0.000000
-21.798900 0.000000
-21.716700 0.000000
-21.634400 0.000000
-21.552100 0.000000
-21.469800 0.000000
-21.387500 0.000000
-21.305200 0.000000
-21.222900 0.000000
-21.140700 0.000000
-21.058400 0.000000
-20.976100 0.000000
-20.893800 0.000000
-20.811500 0.000000
-20.729200 0.000000
-20.646900 0.000000
-20.564600 0.000000
-20.482400 0.000000
-20.400100 0.000000
-20.317800 0.000000
-20.235500 0.000000
-20.153200 0.000000
-20.070900 0.000000
-19.988600 0.000000
-19.906400 0.000000
-19.824100 0.000000
-19.741800 0.000000
-19.659500 0.000000
-19.577200 0.000000
-19.494900 0.000000
-19.412600 0.000000
-19.330300 0.000000
-19.248100 0.000000
-19.165800 0.000000
-19.083500 0.000000
-19.001200 0.000000
-18.918900 0.000000
-18.836600 0.000000
-18.754300 0.000000
-18.672100 0.000000
-18.589800 0.000000
-18.507500 0.000000
-18.425200 0.000000
-18.342900 0.000000
-18.260600 0.000000
-18.178300 0.000000
-18.096000 0.000000
-18.013800 0.000000
-17.931500 0.000000
-17.849200 0.000000
-17.766900 0.000000
-17.684600 0.000000
-17.602300 0.000000
-17.520000 0.000000
-17.437800 0.000000
-17.355500 0.000000
-17.273200 0.000000
-17.190900 0.000000
-17.108600 0.000000
-17.026300 0.000000
-16.944000 0.000000
-16.861800 0.000000
-16.779500 0.000000
-16.697200 0.000000
-16.614900 0.000000
-16.532600 0.000000
-16.450300 0.000000
-16.368000 0.000000
-16.285700 0.000000
-16.203500 0.000000
-16.121200 0.000000
-16.038900 0.000000
-15.956600 0.000000
-15.874300 0.000000
-15.792000 0.000000
-15.709700 0.000000
-15.627500 0.000000
-15.545200 0.000000
-15.462900 0.000000
-15.380600 0.000000
-15.298300 0.000000
-15.216000 0.000000
-15.133700 0.000000
-15.051400 0.000000
-14.969200 0.000000
-14.886900 0.000000
-14.804600 0.000000
-14.722300 0.000000
-14.640000 0.000000
-14.557700 0.000000
-14.475400 0.000000
-14.393200 0.000000
-14.310900 0.000000
-14.228600 0.000000
-14.146300 0.000000
-14.064000 0.000000
-13.981700 0.000000
-13.899400 0.000000
-13.817100 0.000000
-13.734900 0.000000
-13.652600 0.000000
-13.570300 0.000000
-13.488000 0.000000
-13.405700 0.000000
-13.323400 0.000000
-13.241100 0.000000
-13.158900 0.000000
-13.076600 0.000000
-12.994300 0.000000
-12.912000 0.000000
-12.829700 0.000000
-12.747400 0.000000
-12.665100 0.000000
-12.582900 0.000000
-12.500600 0.000000
-12.418300 0.000000
-12.336000 0.000000
-12.253700 0.000000
-12.171400 0.000000
-12.089100 0.000000
-12.006800 0.000000
-11.924600 0.000000
-11.842300 0.000000
-11.760000 0.000000
-11.677700 0.000000
-11.595400 0.000000
-11.513100 0.000000
-11.430800 0.000000
-11.348600 0.000000
-11.266300 0.000000
-11.184000 0.000000
-11.101700 0.000000
-11.019400 0.000000
-10.937100 0.000000
-10.854800 0.000000
-10.772500 0.000000
-10.690300 0.000000
-10.608000 0.000000
-10.525700 0.000000
-10.443400 0.000000
-10.361100 0.000000
-10.278800 0.000000
-10.196500 0.000000
-10.114300 0.000000
-10.032000 0.000000
-9.949700 0.000000
-9.867400 0.000000
-9.785100 0.000000
-9.702800 0.000000
-9.620500 0.000000
-9.538200 0.000000
-9.456000 0.000000
-9.373700 0.000000
-9.291400 0.000000
-9.209100 0.000000
-9.126800 0.000000
-9.044500 0.000000
-8.962200 0.000000
-8.880000 0.000000
-8.797700 0.000000
-8.715400 0.000000
-8.633100 0.000000
-8.550800 0.000000
-8.468500 0.000000
-8.386200 0.000000
-8.304000 0.000000
-8.221700 0.000000
-8.139400 0.000000
-8.057100 0.000000
-7.974800 0.000000
-7.892500 0.000000
-7.810200 0.000000
-7.727900 0.000000
-7.645700 0.000000
-7.563400 0.000000
-7.481100 0.000000
-7.398800 0.000000
-7.316500 0.000000
-7.234200 0.000000
-7.151900 0.000000
-7.069700 0.000000
-6.987400 0.000000
-6.905100 0.000000
-6.822800 0.000000
-6.740500 0.000000
-6.658200 0.000000
-6.575900 0.000000
-6.493600 0.000000
-6.411400 0.000000
-6.329100 0.000000
-6.246800 0.000000
-6.164500 0.000000
-6.082200 0.000000
-5.999900 0.000000
-5.917600 0.000000
-5.835400 0.000000
-5.753100 0.000000
-5.670800 0.000000
-5.588500 0.000000
-5.506200 0.000000
-5.423900 0.000000
-5.341600 0.000000
-5.259300 0.000000
-5.177100 0.000000
-5.094800 0.000000
-5.012500 0.000000
-4.930200 0.000000
-4.847900 0.000000
-4.765600 0.000000
-4.683300 0.000000
-4.601100 0.000000
-4.518800 0.000000
-4.436500 0.000000
-4.354200 0.000000
-4.271900 0.000000
-4.189600 0.000000
-4.107300 0.000000
-4.025000 0.000000
-3.942800 0.000000
-3.860500 0.000000
-3.778200 0.000000
-3.695900 0.000000
-3.613600 0.000000
-3.531300 0.000000
-3.449000 0.000000
-3.366800 0.000000
-3.284500 0.000000
-3.202200 0.000000
-3.119900 0.000000
-3.037600 0.000000
-2.955300 0.000000
-2.873000 0.000000
-2.790800 0.000000
-2.708500 0.000000
-2.626200 0.000000
-2.543900 0.000000
-2.461600 0.000000
-2.379300 0.008300
-2.297000 0.018000
-2.214700 0.023800
-2.132500 0.028900
-2.050200 0.032700
-1.967900 0.037600
-1.885600 0.040800
-1.803300 0.044300
-1.721000 0.048100
-1.638700 0.051900
-1.556500 0.054900
-1.474200 0.058200
-1.391900 0.061900
-1.309600 0.065600
-1.227300 0.068700
-1.145000 0.072200
-1.062700 0.075800
-0.980400 0.079500
-0.898200 0.083600
-0.815900 0.087300
-0.733600 0.091200
-0.651300 0.095300
-0.569000 0.099800
-0.486700 0.104500
-0.404400 0.109100
-0.322200 0.114200
-0.239900 0.119700
-0.157600 0.125400
-0.075300 0.131400
0.007000 0.138300
0.089300 0.146100
0.171600 0.154400
0.253900 0.163300
0.336100 0.173400
0.418400 0.186300
0.500700 0.201800
0.583000 0.218600
0.665300 0.247200
0.747600 0.290000
0.829900 0.454100
0.912100 0.520200
0.994400 0.572300
1.076700 0.627200
1.159000 0.673700
1.241300 0.748400
1.323600 0.815900
1.405900 0.824800
1.488100 0.830700
1.570400 0.851300
1.652700 0.863000
1.735000 0.926300
1.817300 1.007600
1.899600 1.046500
1.981900 1.071100
2.064200 1.086400
2.146400 1.064700
2.228700 1.062700
2.311000 1.036300
2.393300 1.031200
2.475600 1.016600
2.557900 1.015800
2.640200 1.051900
2.722400 1.018300
2.804700 0.976100
2.887000 0.921200
2.969300 0.832800
3.051600 0.780700
3.133900 0.665800
3.216200 0.614100
3.298500 0.609100
3.380700 0.715800
3.463000 1.018600
3.545300 1.189800
3.627600 1.214300
3.709900 1.085100
3.792200 0.952300
3.874500 0.894800
3.956700 0.855700
4.039000 0.863100
4.121300 0.868200
4.203600 0.938400
4.285900 0.959300
4.368200 0.972200
4.450500 1.027600
4.532800 1.109700
4.615000 1.133400
4.697300 1.167700
4.779600 1.178800
4.861900 1.137300
4.944200 1.153000
5.026500 1.186300
5.108800 1.260100
5.191000 1.372800
5.273300 1.365100
5.355600 1.361600
5.437900 1.339500
5.520200 1.388800
5.602500 1.292000
5.684800 1.379700
5.767000 1.292200
5.849300 1.330900
5.931600 1.378100
6.013900 1.494200
6.096200 2.004500
6.178500 1.287400
6.260800 1.124600
6.343100 1.152300
6.425300 1.064300
6.507600 0.955900
6.589900 0.890600
6.672200 0.854100
6.754500 0.822400
6.836800 0.807000
6.919100 0.794100
7.001300 0.800600
7.083600 0.797300
7.165900 0.762200
7.248200 0.744100
7.330500 0.739100
7.412800 0.795200
7.495100 0.867000
7.577400 0.930400
7.659600 0.949500
7.741900 1.048500
7.824200 1.276800
7.906500 1.200700
7.988800 1.007400
8.071100 0.939400
8.153400 0.885600
8.235600 0.846200
8.317900 0.788700
8.400200 0.735500
8.482500 0.688600
8.564800 0.684900
8.647100 0.724700
8.729400 0.804200
8.811700 0.762700
8.893900 0.740000
8.976200 0.734600
9.058500 0.719200
9.140800 0.714300
9.223100 0.705000
9.305400 0.703600
9.387700 0.701300
9.469900 0.701600
9.552200 0.703900
9.634500 0.707600
9.716800 0.713100
9.799100 0.723000
9.881400 0.732100
9.963700 0.743300
10.046000 0.755800
10.128200 0.778700
10.210500 0.805600
10.292800 0.834700
10.375100 0.877900
10.457400 0.923000
10.539700 0.996500
10.622000 1.119600
10.704200 1.255600
10.786500 1.261500
10.868800 1.266300
10.951100 1.282400
11.033400 1.276400
11.115700 1.190000
11.198000 1.027500
11.280200 0.923300
11.362500 0.844000
11.444800 0.749200
11.527100 0.665200
11.609400 0.631100
11.691700 0.613200
11.774000 0.520200
11.856300 0.297300
11.938500 0.298400
12.020800 0.299300
12.103100 0.300400
12.185400 0.301800
12.267700 0.302600
12.350000 0.302700
12.432300 0.302700
12.514500 0.303200
12.596800 0.305200
12.679100 0.306000
12.761400 0.306900
12.843700 0.308200
12.926000 0.311100
13.008300 0.313600
13.090600 0.314800
13.172800 0.316300
13.255100 0.321300
13.337400 0.324100
13.419700 0.326300
13.502000 0.334200
13.584300 0.337100
13.666600 0.346600
13.748800 0.347300
13.831100 0.350800
13.913400 0.349000
13.995700 0.342700
14.078000 0.334900
14.160300 0.328800
14.242600 0.320900
14.324900 0.313600
14.407100 0.306800
14.489400 0.297700
14.571700 0.289200
14.654000 0.282300
14.736300 0.272800
14.818600 0.263600
14.900900 0.261400
14.983100 0.252500
15.065400 0.247300
15.147700 0.242600
15.230000 0.231900
15.312300 0.226000
15.394600 0.215400
15.476900 0.208200
15.559100 0.204800
15.641400 0.204700
15.723700 0.187800
15.806000 0.163800
15.888300 0.141000
15.970600 0.135200
16.052900 0.139400
16.135200 0.240300
16.217400 0.330800
16.299700 0.369300
16.382000 0.401700
16.464300 0.401200
16.546600 0.405000
16.628900 0.406300
16.711200 0.400500
16.793400 0.409200
16.875700 0.421300
16.958000 0.415500
17.040300 0.429200
17.122600 0.416000
17.204900 0.391100
17.287200 0.382700
17.369500 0.380600
17.451700 0.383000
17.534000 0.402800
17.616300 0.389300
17.698600 0.386000
17.780900 0.383600
17.863200 0.379300
17.945500 0.373700
18.027700 0.363800
18.110000 0.352600
18.192300 0.344600
18.274600 0.338500
18.356900 0.332900
18.439200 0.327600
18.521500 0.329000
18.603800 0.326500
18.686000 0.324800
18.768300 0.323700
18.850600 0.324200
18.932900 0.325100
19.015200 0.326000
19.097500 0.326900
19.179800 0.331900
19.262000 0.333000
19.344300 0.334400
19.426600 0.344100
19.508900 0.348800
19.591200 0.361100
19.673500 0.357300
19.755800 0.344500
19.838000 0.354000
19.920300 0.355900
20.002600 0.356100
20.084900 0.350900
20.167200 0.355600
20.249500 0.360300
20.331800 0.367300
20.414100 0.377900
20.496300 0.399800
20.578600 0.403400
20.660900 0.402500
20.743200 0.406400
20.825500 0.408400
20.907800 0.448300
20.990100 0.441800
21.072300 0.461400
21.154600 0.470500
21.236900 0.466700
21.319200 0.466400
21.401500 0.472700
21.483800 0.479300
21.566100 0.485600
21.648400 0.492600
21.730600 0.503600
21.812900 0.515700
21.895200 0.524100
21.977500 0.532600
22.059800 0.543400
22.142100 0.559500
22.224400 0.573700
22.306600 0.590600
22.388900 0.610500
22.471200 0.633300
22.553500 0.671400
22.635800 0.710200
22.718100 0.732300
22.800400 0.745900
22.882700 0.756300
22.964900 0.773200
23.047200 0.794500
23.129500 0.817100
23.211800 0.847900
23.294100 0.896600
23.376400 0.890400
23.458700 0.877700
23.540900 0.865500
23.623200 0.848100
23.705500 0.808600
23.787800 0.768300
23.870100 0.705800
23.952400 0.692000
24.034700 0.776400
24.117000 0.776400
24.199200 0.764600
24.281500 0.738000
24.363800 0.719100
24.446100 0.719800
24.528400 0.732900
24.610700 0.750300
24.693000 0.756300
24.775200 0.768200
24.857500 0.809800
24.939800 0.865800
25.022100 0.923400
25.104400 0.919800
25.186700 0.888500
25.269000 0.843100
25.351200 0.757900
25.433500 0.700500
25.515800 0.659600
25.598100 0.623400
25.680400 0.591300
25.762700 0.565300
25.845000 0.546700
25.927300 0.525100
26.009500 0.482100
26.091800 0.440500
26.174100 0.398400
26.256400 0.364000
26.338700 0.336400
26.421000 0.313200
26.503300 0.288200
26.585500 0.268700
26.667800 0.256700
26.750100 0.255000
26.832400 0.269900
26.914700 0.279500
26.997000 0.328200
27.079300 0.356400
27.161600 0.390300
27.243800 0.440000
27.326100 0.505900
27.408400 0.607400
27.490700 0.686700
27.573000 0.732400
27.655300 0.738400
27.737600 0.755300
27.819800 0.654900
27.902100 0.641900
27.984400 0.630000
28.066700 0.615000
28.149000 0.612800
28.231300 0.606500
28.313600 0.608300
28.395900 0.612700
28.478100 0.619000
28.560400 0.627800
28.642700 0.636500
28.725000 0.657300
28.807300 0.665300
28.889600 0.687800
28.971900 0.715000
29.054100 0.760300
29.136400 0.798200
29.218700 0.814500
29.301000 0.845600
29.383300 0.801800
29.465600 0.769900
29.547900 0.744700
29.630100 0.711700
29.712400 0.691500
29.794700 0.678300
29.877000 0.660100
29.959300 0.637000
30.041600 0.620100
30.123900 0.589800
30.206200 0.560100
30.288400 0.520200
30.370700 0.472200
30.453000 0.418300
30.535300 0.374600
30.617600 0.343500
30.699900 0.320000
30.782200 0.300300
30.864400 0.270300
30.946700 0.248900
31.029000 0.238400
31.111300 0.235800
31.193600 0.229100
31.275900 0.227000
31.358200 0.237000
31.440500 0.242200
31.522700 0.270300
31.605000 0.260800
31.687300 0.263400
31.769600 0.271600
31.851900 0.287500
31.934200 0.302900
32.016500 0.322200
32.098700 0.356900
32.181000 0.374100
32.263300 0.391800
32.345600 0.406900
32.427900 0.423700
32.510200 0.441100
32.592500 0.462700
32.674800 0.484600
32.757000 0.505500
32.839300 0.536700
32.921600 0.564800
33.003900 0.590900
33.086200 0.613000
33.168500 0.650900
33.250800 0.689800
33.333000 0.749500
33.415300 0.766800
33.497600 0.784600
33.579900 0.780100
33.662200 0.782600
33.744500 0.782800
33.826800 0.762700
33.909100 0.725400
33.991300 0.640800
34.073600 0.592900
34.155900 0.555700
34.238200 0.540000
34.320500 0.536100
34.402800 0.509600
34.485100 0.501500
34.567300 0.509200
34.649600 0.518900
34.731900 0.526200
34.814200 0.531500
34.896500 0.550500
34.978800 0.564000
35.061100 0.552300
35.143300 0.532400
35.225600 0.529100
35.307900 0.534200
35.390200 0.536500
35.472500 0.545200
35.554800 0.564400
35.637100 0.569000
35.719400 0.577500
35.801600 0.577700
35.883900 0.591900
35.966200 0.609000
36.048500 0.632700
36.130800 0.662900
36.213100 0.758100
36.295400 0.901800
36.377600 0.967700
36.459900 1.021900
36.542200 1.051700
36.624500 0.993400
36.706800 0.940800
36.789100 0.908700
36.871400 0.923900
36.953700 0.933300
37.035900 0.946000
37.118200 0.943500
37.200500 0.968600
37.282800 1.056700
37.365100 1.032000
37.447400 1.042500
37.529700 1.065600
37.611900 1.122000
37.694200 1.193000
37.776500 1.203600
37.858800 1.187900
37.941100 1.148300
38.023400 1.047900
38.105700 0.898300
38.188000 0.811700
38.270200 0.825100
38.352500 0.798300
38.434800 0.723300
38.517100 0.663400
38.599400 0.594500
38.681700 0.547600
38.764000 0.531300
38.846200 0.518400
38.928500 0.507200
39.010800 0.487700
39.093100 0.462200
39.175400 0.459400
39.257700 0.459600
39.340000 0.477400
39.422200 0.497400
39.504500 0.495400
39.586800 0.493100
39.669100 0.490300
39.751400 0.487600
39.833700 0.486000
39.916000 0.491900
39.998300 0.501300
40.080500 0.508700
40.162800 0.515100
40.245100 0.527400
40.327400 0.544700
40.409700 0.569400
40.492000 0.645400
40.574300 0.686800
40.656500 0.711400
40.738800 0.748500
40.821100 0.768600
40.903400 0.768600
40.985700 0.774100
41.068000 0.725600
41.150300 0.677600
41.232600 0.646200
41.314800 0.583300
41.397100 0.562200
41.479400 0.554400
41.561700 0.589600
41.644000 0.820800
