set title 'mp-1229012 - Density of States'
set xlabel 'Energy (eV)'
set ylabel 'DOS (states/eV)'
set grid
set xrange [-10:10]
set yrange [0:7.730]
set xzeroaxis lt -1
set terminal png size 800,600
set output 'mp-1229012_dos_gnuplot.png'
plot '-' using 1:2 with lines title 'DOS'
-5.719000 0.000000
-5.694400 0.000000
-5.669700 0.000000
-5.645000 0.000000
-5.620300 0.000000
-5.595600 0.000000
-5.571000 0.000000
-5.546300 0.000000
-5.521600 0.000000
-5.496900 0.000000
-5.472200 0.000000
-5.447600 0.000000
-5.422900 0.000000
-5.398200 0.000000
-5.373500 0.000000
-5.348800 0.000000
-5.324100 0.000000
-5.299500 0.000000
-5.274800 0.000000
-5.250100 0.000000
-5.225400 0.000000
-5.200700 0.000000
-5.176100 0.000000
-5.151400 0.000000
-5.126700 0.000000
-5.102000 0.000000
-5.077300 0.000000
-5.052700 0.000000
-5.028000 0.000000
-5.003300 0.000000
-4.978600 0.000000
-4.953900 0.000000
-4.929200 0.000000
-4.904600 0.000000
-4.879900 0.000000
-4.855200 0.000000
-4.830500 0.000000
-4.805800 0.000000
-4.781200 0.000000
-4.756500 0.000000
-4.731800 0.000000
-4.707100 0.000000
-4.682400 0.000000
-4.657800 0.000000
-4.633100 0.000000
-4.608400 0.000000
-4.583700 0.000000
-4.559000 0.000000
-4.534300 0.000000
-4.509700 0.000000
-4.485000 0.000000
-4.460300 0.000000
-4.435600 0.000000
-4.410900 0.000000
-4.386300 0.000000
-4.361600 0.000000
-4.336900 0.000000
-4.312200 0.000000
-4.287500 0.000000
-4.262900 0.000000
-4.238200 0.000000
-4.213500 0.000000
-4.188800 0.000000
-4.164100 0.000000
-4.139400 0.000000
-4.114800 0.000000
-4.090100 0.000000
-4.065400 0.000000
-4.040700 0.000000
-4.016000 0.000000
-3.991400 0.000000
-3.966700 0.000000
-3.942000 0.000000
-3.917300 0.000000
-3.892600 0.000000
-3.868000 0.000000
-3.843300 0.000000
-3.818600 0.000000
-3.793900 0.000000
-3.769200 0.000000
-3.744500 0.000000
-3.719900 0.000000
-3.695200 0.000000
-3.670500 0.000000
-3.645800 0.000000
-3.621100 0.000000
-3.596500 0.000000
-3.571800 0.000000
-3.547100 0.000000
-3.522400 0.000000
-3.497700 0.000000
-3.473100 0.000000
-3.448400 0.005000
-3.423700 0.016800
-3.399000 0.031000
-3.374300 0.047300
-3.349600 0.065600
-3.325000 0.065400
-3.300300 0.069800
-3.275600 0.073600
-3.250900 0.079000
-3.226200 0.085200
-3.201600 0.091600
-3.176900 0.098200
-3.152200 0.103700
-3.127500 0.109500
-3.102800 0.115800
-3.078200 0.121800
-3.053500 0.126700
-3.028800 0.131300
-3.004100 0.135600
-2.979400 0.139500
-2.954700 0.143500
-2.930100 0.148100
-2.905400 0.153100
-2.880700 0.158300
-2.856000 0.163600
-2.831300 0.169000
-2.806700 0.174600
-2.782000 0.180300
-2.757300 0.186400
-2.732600 0.193000
-2.707900 0.199700
-2.683300 0.206600
-2.658600 0.213500
-2.633900 0.220700
-2.609200 0.226900
-2.584500 0.234000
-2.559800 0.243100
-2.535200 0.253900
-2.510500 0.265300
-2.485800 0.277200
-2.461100 0.293000
-2.436400 0.310800
-2.411800 0.328500
-2.387100 0.340000
-2.362400 0.339300
-2.337700 0.339700
-2.313000 0.348800
-2.288400 0.509200
-2.263700 0.701600
-2.239000 0.905100
-2.214300 1.064300
-2.189600 1.156500
-2.164900 1.280800
-2.140300 1.420200
-2.115600 1.576400
-2.090900 1.781000
-2.066200 2.169200
-2.041500 2.611500
-2.016900 2.858800
-1.992200 2.990800
-1.967500 3.039900
-1.942800 3.171100
-1.918100 3.252800
-1.893500 3.364600
-1.868800 3.474000
-1.844100 3.576500
-1.819400 3.682600
-1.794700 3.803200
-1.770000 3.938800
-1.745400 4.067200
-1.720700 4.274100
-1.696000 4.281400
-1.671300 4.251300
-1.646600 4.198000
-1.622000 4.311200
-1.597300 4.361600
-1.572600 4.419100
-1.547900 4.608000
-1.523200 4.829600
-1.498600 4.751300
-1.473900 4.697900
-1.449200 4.908000
-1.424500 5.565800
-1.399800 6.286000
-1.375100 7.027400
-1.350500 6.961000
-1.325800 5.432700
-1.301100 4.547700
-1.276400 4.091500
-1.251700 3.885200
-1.227100 3.612800
-1.202400 3.288000
-1.177700 2.838700
-1.153000 3.391700
-1.128300 3.505000
-1.103700 3.688300
-1.079000 4.133500
-1.054300 4.736300
-1.029600 5.445300
-1.004900 5.829900
-0.980200 6.241500
-0.955600 5.851000
-0.930900 4.569600
-0.906200 3.981400
-0.881500 3.283700
-0.856800 3.117100
-0.832200 3.414500
-0.807500 3.467100
-0.782800 3.659100
-0.758100 4.139800
-0.733400 4.270700
-0.708800 4.960600
-0.684100 5.503500
-0.659400 5.144000
-0.634700 4.874000
-0.610000 4.680000
-0.585300 4.596200
-0.560700 4.852500
-0.536000 5.176200
-0.511300 4.989100
-0.486600 4.409800
-0.461900 4.063200
-0.437300 3.988300
-0.412600 3.981300
-0.387900 3.942100
-0.363200 4.062300
-0.338500 4.218400
-0.313900 4.581800
-0.289200 5.198700
-0.264500 5.477600
-0.239800 6.020000
-0.215100 5.682300
-0.190400 5.202200
-0.165800 5.482800
-0.141100 4.966600
-0.116400 4.193400
-0.091700 3.633100
-0.067000 3.373500
-0.042400 3.360800
-0.017700 3.235100
0.007000 4.834900
0.031700 4.627100
0.056400 4.440300
0.081000 4.031300
0.105700 3.591600
0.130400 3.334900
0.155100 3.089400
0.179800 3.350500
0.204500 3.918000
0.229100 4.052100
0.253800 3.368600
0.278500 3.161700
0.303200 2.912900
0.327900 2.866200
0.352500 2.993500
0.377200 3.033800
0.401900 3.318000
0.426600 3.440900
0.451300 3.383900
0.475900 2.709000
0.500600 2.782600
0.525300 2.846500
0.550000 3.073400
0.574700 3.218400
0.599400 3.359600
0.624000 3.497100
0.648700 3.722300
0.673400 4.046000
0.698100 4.205300
0.722800 4.150200
0.747400 3.917400
0.772100 4.127900
0.796800 3.758200
0.821500 3.435300
0.846200 3.367700
0.870800 3.408100
0.895500 3.193000
0.920200 2.867100
0.944900 2.758100
0.969600 2.666100
0.994300 2.175300
1.018900 2.022700
1.043600 2.059900
1.068300 2.197100
1.093000 2.513600
1.117700 3.195600
1.142300 3.760500
1.167000 4.037100
1.191700 4.234800
1.216400 4.423800
1.241100 4.453400
1.265700 4.408600
1.290400 4.419400
1.315100 3.877400
1.339800 3.638100
1.364500 3.345900
1.389200 3.187700
1.413800 3.240400
1.438500 2.968500
1.463200 3.179400
1.487900 3.356700
1.512600 3.298300
1.537200 3.173500
1.561900 3.073900
1.586600 3.019100
1.611300 3.088500
1.636000 3.127100
1.660600 3.206200
1.685300 3.370900
1.710000 3.534800
1.734700 3.642100
1.759400 3.933800
1.784100 4.159000
1.808700 4.468000
1.833400 4.731400
1.858100 4.994900
1.882800 4.999600
1.907500 4.479500
1.932100 4.204000
1.956800 3.820800
1.981500 3.734800
2.006200 3.817200
2.030900 3.767000
2.055500 3.924200
2.080200 4.023600
2.104900 3.963700
2.129600 3.902300
2.154300 3.640400
2.179000 3.753200
2.203600 3.573900
2.228300 3.428600
2.253000 3.259000
2.277700 3.176100
2.302400 3.111300
2.327000 3.069500
2.351700 3.018000
2.376400 3.095300
2.401100 3.469800
2.425800 3.928200
2.450400 4.581100
2.475100 4.425800
2.499800 5.561900
2.524500 5.058700
2.549200 5.304400
2.573900 4.969600
2.598500 4.611300
2.623200 5.230100
2.647900 4.763300
2.672600 4.464200
2.697300 4.369500
2.721900 4.435900
2.746600 4.321000
2.771300 4.154000
2.796000 3.935300
2.820700 3.920000
2.845300 3.738000
2.870000 3.280800
2.894700 2.908100
2.919400 2.571600
2.944100 2.549500
2.968800 2.390800
2.993400 2.369800
3.018100 2.084000
3.042800 1.823800
3.067500 1.416200
3.092200 1.345000
3.116800 1.322800
3.141500 1.299800
3.166200 1.275800
3.190900 1.251000
3.215600 1.226700
3.240200 1.218800
3.264900 1.222100
3.289600 1.227000
3.314300 1.236200
3.339000 1.239800
3.363700 1.212600
3.388300 1.176700
3.413000 1.138700
3.437700 1.100700
3.462400 1.063800
3.487100 1.027300
3.511700 0.989800
3.536400 0.951400
3.561100 0.667100
3.585800 0.654500
3.610500 0.634700
3.635100 0.624200
3.659800 0.621800
3.684500 0.620000
3.709200 0.617500
3.733900 0.615800
3.758600 0.614700
3.783200 0.614200
3.807900 0.614100
3.832600 0.614400
3.857300 0.615600
3.882000 0.617600
3.906600 0.619900
3.931300 0.622400
3.956000 0.625200
3.980700 0.627900
4.005400 0.630500
4.030000 0.632300
4.054700 0.633600
4.079400 0.635000
4.104100 0.636600
4.128800 0.638100
4.153500 0.639400
4.178100 0.640400
4.202800 0.641100
4.227500 0.641100
4.252200 0.640300
4.276900 0.639000
4.301500 0.636000
4.326200 0.631900
4.350900 0.620900
4.375600 0.615600
4.400300 0.612200
4.424900 0.609200
4.449600 0.606500
4.474300 0.603900
4.499000 0.601800
4.523700 0.601000
4.548400 0.601600
4.573000 0.600600
4.597700 0.598600
4.622400 0.596800
4.647100 0.595000
4.671800 0.593100
4.696400 0.592400
4.721100 0.591900
4.745800 0.591700
4.770500 0.591700
4.795200 0.592000
4.819800 0.592600
4.844500 0.593500
4.869200 0.594800
4.893900 0.596600
4.918600 0.599500
4.943300 0.606100
4.967900 0.612400
4.992600 0.617700
5.017300 0.623400
5.042000 0.626600
5.066700 0.626700
5.091300 0.622900
5.116000 0.619700
5.140700 0.617300
5.165400 0.615500
5.190100 0.613200
5.214700 0.610500
5.239400 0.607100
5.264100 0.602800
5.288800 0.597200
5.313500 0.587600
5.338200 0.578100
5.362800 0.568900
5.387500 0.561700
5.412200 0.557000
5.436900 0.554000
5.461600 0.551600
5.486200 0.549900
5.510900 0.548800
5.535600 0.548300
5.560300 0.549500
5.585000 0.552400
5.609600 0.557100
5.634300 0.574200
5.659000 0.585000
5.683700 0.586300
5.708400 0.577900
5.733100 0.545900
5.757700 0.520300
5.782400 0.512900
5.807100 0.508600
5.831800 0.506400
5.856500 0.505300
5.881100 0.504500
5.905800 0.504000
5.930500 0.503700
5.955200 0.504000
5.979900 0.505200
6.004500 0.506700
6.029200 0.508300
6.053900 0.509900
6.078600 0.511400
6.103300 0.512700
6.128000 0.513800
6.152600 0.514200
6.177300 0.514500
6.202000 0.515100
6.226700 0.516000
6.251400 0.517400
6.276000 0.519100
6.300700 0.521100
6.325400 0.523300
6.350100 0.524800
6.374800 0.527300
6.399400 0.534400
6.424100 0.538200
6.448800 0.538700
6.473500 0.538600
6.498200 0.538600
6.522900 0.533400
6.547500 0.528500
6.572200 0.529300
6.596900 0.530900
6.621600 0.533200
6.646300 0.536300
6.670900 0.541000
6.695600 0.546900
6.720300 0.553800
6.745000 0.579400
6.769700 0.587500
6.794300 0.572200
6.819000 0.542900
6.843700 0.525800
6.868400 0.517900
6.893100 0.511900
6.917800 0.505300
6.942400 0.498300
6.967100 0.492500
6.991800 0.488900
7.016500 0.482400
7.041200 0.478700
7.065800 0.478200
7.090500 0.479300
7.115200 0.483300
7.139900 0.489600
7.164600 0.498100
7.189200 0.507200
7.213900 0.510900
7.238600 0.510600
7.263300 0.507800
7.288000 0.502700
7.312700 0.495400
7.337300 0.486000
7.362000 0.474600
7.386700 0.466900
7.411400 0.461300
7.436100 0.456300
7.460700 0.452000
7.485400 0.448300
7.510100 0.445200
7.534800 0.441400
7.559500 0.437800
7.584100 0.434200
7.608800 0.431000
7.633500 0.428000
7.658200 0.425100
7.682900 0.422100
7.707600 0.419000
7.732200 0.415600
7.756900 0.412000
7.781600 0.408200
7.806300 0.404100
7.831000 0.399700
7.855600 0.395000
7.880300 0.390100
7.905000 0.385000
7.929700 0.379800
7.954400 0.374600
7.979000 0.369500
8.003700 0.364500
8.028400 0.359500
8.053100 0.354600
8.077800 0.352100
8.102500 0.361400
8.127100 0.363600
8.151800 0.358100
8.176500 0.350300
8.201200 0.352200
8.225900 0.355400
8.250500 0.359600
8.275200 0.384900
8.299900 0.398600
8.324600 0.411700
8.349300 0.423400
8.373900 0.421700
8.398600 0.407700
8.423300 0.388800
8.448000 0.380900
8.472700 0.373500
8.497400 0.366000
8.522000 0.358400
8.546700 0.350800
8.571400 0.343600
8.596100 0.337400
8.620800 0.331800
8.645400 0.326700
8.670100 0.321900
8.694800 0.317400
8.719500 0.313200
8.744200 0.309100
8.768800 0.305200
8.793500 0.301500
8.818200 0.298800
8.842900 0.302000
8.867600 0.323400
8.892300 0.355100
8.916900 0.383400
8.941600 0.417800
8.966300 0.460600
8.991000 0.521000
9.015700 0.616400
9.040300 0.648400
9.065000 0.653000
9.089700 0.663500
9.114400 0.675400
9.139100 0.676500
9.163700 0.654900
9.188400 0.652700
9.213100 0.655200
9.237800 0.674300
9.262500 0.707700
9.287200 0.713800
9.311800 0.717600
9.336500 0.722100
9.361200 0.725000
9.385900 0.727400
9.410600 0.723200
9.435200 0.720000
9.459900 0.716000
9.484600 0.703100
9.509300 0.695600
9.534000 0.689200
9.558600 0.678300
9.583300 0.663100
9.608000 0.649900
9.632700 0.637400
9.657400 0.628400
9.682100 0.622600
9.706700 0.617600
9.731400 0.613800
9.756100 0.611100
9.780800 0.613200
9.805500 0.615300
9.830100 0.616700
9.854800 0.618900
9.879500 0.621800
9.904200 0.625400
9.928900 0.633600
9.953500 0.648600
9.978200 0.662500
10.002900 0.669000
10.027600 0.668700
10.052300 0.673100
10.077000 0.678000
10.101600 0.679400
10.126300 0.672800
10.151000 0.669100
10.175700 0.664400
10.200400 0.660800
10.225000 0.661900
10.249700 0.662700
10.274400 0.663200
10.299100 0.663200
10.323800 0.663000
10.348500 0.663200
10.373100 0.664000
10.397800 0.665200
10.422500 0.667200
10.447200 0.669400
10.471900 0.671600
10.496500 0.673700
10.521200 0.672000
10.545900 0.667500
10.570600 0.669700
10.595300 0.673500
10.619900 0.676800
10.644600 0.679500
10.669300 0.682300
10.694000 0.677500
10.718700 0.670100
10.743400 0.661200
10.768000 0.656800
10.792700 0.651700
10.817400 0.649200
10.842100 0.618400
10.866800 0.608800
10.891400 0.600200
10.916100 0.594300
10.940800 0.593000
10.965500 0.593200
10.990200 0.594800
11.014800 0.591600
11.039500 0.587100
11.064200 0.582200
11.088900 0.577300
11.113600 0.572400
11.138300 0.564400
11.162900 0.555200
11.187600 0.546400
11.212300 0.537900
11.237000 0.529600
11.261700 0.521600
11.286300 0.513900
11.311000 0.506400
11.335700 0.499300
11.360400 0.492700
11.385100 0.486300
11.409700 0.480800
11.434400 0.476400
11.459100 0.472800
11.483800 0.470500
11.508500 0.470000
11.533200 0.471600
11.557800 0.473800
11.582500 0.477100
11.607200 0.479300
11.631900 0.479000
11.656600 0.476300
11.681200 0.471800
11.705900 0.468300
11.730600 0.467400
11.755300 0.467500
11.780000 0.467800
11.804600 0.468200
11.829300 0.468700
11.854000 0.469600
11.878700 0.471600
11.903400 0.477800
11.928100 0.486300
11.952700 0.496100
11.977400 0.507300
12.002100 0.519900
12.026800 0.533900
12.051500 0.549000
12.076100 0.571500
12.100800 0.618500
12.125500 0.702900
12.150200 0.826200
12.174900 0.896400
12.199500 0.907800
12.224200 0.896000
12.248900 0.883000
12.273600 0.885200
12.298300 0.903600
12.323000 0.916900
12.347600 0.923500
12.372300 0.896400
12.397000 0.836800
12.421700 0.814500
12.446400 0.818500
12.471000 0.823600
12.495700 0.828200
12.520400 0.830500
12.545100 0.828600
12.569800 0.829500
12.594400 0.831900
12.619100 0.832700
12.643800 0.833300
12.668500 0.838600
12.693200 0.849600
12.717900 0.852100
12.742500 0.856100
12.767200 0.861000
12.791900 0.865900
12.816600 0.874000
12.841300 0.886000
12.865900 0.893700
12.890600 0.898900
12.915300 0.903400
12.940000 0.909800
12.964700 0.917600
12.989300 0.926000
13.014000 0.931400
13.038700 0.931300
13.063400 0.924800
13.088100 0.921200
13.112800 0.920400
13.137400 0.922300
13.162100 0.926200
13.186800 0.924500
13.211500 0.920600
13.236200 0.915500
13.260800 0.909100
13.285500 0.904500
13.310200 0.902700
13.334900 0.897600
13.359600 0.888600
13.384200 0.881100
13.408900 0.876300
13.433600 0.873200
13.458300 0.870800
13.483000 0.868300
13.507700 0.866600
13.532300 0.855600
13.557000 0.844100
13.581700 0.836300
13.606400 0.833000
13.631100 0.837400
13.655700 0.845800
13.680400 0.854500
13.705100 0.863900
13.729800 0.872900
13.754500 0.881800
13.779100 0.891300
13.803800 0.903700
13.828500 0.917600
13.853200 0.929500
13.877900 0.932800
13.902600 0.926800
13.927200 0.917900
13.951900 0.911800
13.976600 0.908900
14.001300 0.908600
14.026000 0.909800
14.050600 0.910400
14.075300 0.910600
14.100000 0.910600
14.124700 0.911000
14.149400 0.912100
14.174000 0.916900
14.198700 0.926800
14.223400 0.926300
14.248100 0.924600
14.272800 0.922400
14.297500 0.922200
14.322100 0.922100
14.346800 0.921700
14.371500 0.919500
14.396200 0.916700
14.420900 0.913900
14.445500 0.911200
14.470200 0.910300
14.494900 0.910100
14.519600 0.909900
14.544300 0.909800
14.568900 0.910500
14.593600 0.911700
14.618300 0.913100
14.643000 0.915500
14.667700 0.918600
14.692400 0.922100
14.717000 0.925800
14.741700 0.928300
14.766400 0.929200
14.791100 0.929900
14.815800 0.931100
14.840400 0.934800
14.865100 0.940300
14.889800 0.945900
14.914500 0.951500
14.939200 0.957500
14.963800 0.965200
14.988500 0.975000
15.013200 0.983000
15.037900 0.988600
15.062600 0.995400
15.087300 1.002900
15.111900 1.011200
15.136600 1.018900
15.161300 1.024800
15.186000 1.034000
15.210700 1.041300
15.235300 1.043900
15.260000 1.044100
15.284700 1.044000
15.309400 1.044100
15.334100 1.044600
15.358700 1.046000
15.383400 1.048500
15.408100 1.052400
15.432800 1.057100
15.457500 1.060400
15.482200 1.068800
15.506800 1.074000
15.531500 1.080700
15.556200 1.089100
15.580900 1.097300
15.605600 1.106100
15.630200 1.116300
15.654900 1.131100
15.679600 1.141600
15.704300 1.138700
15.729000 1.137300
15.753600 1.142900
15.778300 1.142700
15.803000 1.136600
15.827700 1.126300
15.852400 1.125800
15.877100 1.117300
15.901700 1.115100
15.926400 1.112600
15.951100 1.107900
15.975800 1.103800
16.000500 1.098100
16.025100 1.092800
16.049800 1.088000
16.074500 1.082900
16.099200 1.077200
16.123900 1.071000
16.148500 1.064800
16.173200 1.061300
16.197900 1.058500
16.222600 1.055900
16.247300 1.058100
16.272000 1.062500
16.296600 1.066300
16.321300 1.069700
16.346000 1.072300
16.370700 1.074700
16.395400 1.086300
16.420000 1.075300
16.444700 1.047200
16.469400 1.028200
16.494100 1.013300
16.518800 1.004800
16.543400 1.023200
16.568100 1.015300
16.592800 1.008600
16.617500 1.004100
16.642200 1.003400
16.666900 1.006500
16.691500 1.011500
16.716200 1.018100
16.740900 1.024200
16.765600 1.028600
16.790300 1.033800
16.814900 1.039800
16.839600 1.046200
16.864300 1.054100
16.889000 1.074700
16.913700 1.092200
16.938300 1.094400
16.963000 1.088200
16.987700 1.078800
17.012400 1.066400
17.037100 1.051000
17.061800 1.033300
17.086400 1.016300
17.111100 1.000200
17.135800 0.986900
17.160500 0.979400
17.185200 0.975400
17.209800 0.969800
17.234500 0.961900
17.259200 0.952900
17.283900 0.942400
17.308600 0.930400
17.333200 0.923900
17.357900 0.917600
17.382600 0.958100
17.407300 0.912700
17.432000 0.909600
17.456700 0.906100
17.481300 0.906500
17.506000 0.908800
17.530700 0.911100
17.555400 0.912700
17.580100 0.912400
17.604700 0.918600
17.629400 0.928900
17.654100 0.940100
17.678800 0.949600
17.703500 0.961500
17.728100 0.979600
17.752800 0.996800
17.777500 1.002800
17.802200 1.010400
17.826900 0.987100
17.851600 0.984200
17.876200 0.981100
17.900900 0.982000
17.925600 0.981700
17.950300 0.978100
17.975000 0.981800
17.999600 1.000500
18.024300 1.001700
18.049000 1.001700
18.073700 0.996700
18.098400 0.991100
18.123000 0.994000
18.147700 0.997200
18.172400 1.000100
18.197100 1.001900
18.221800 1.005800
18.246500 1.012400
18.271100 1.013600
18.295800 1.008900
18.320500 0.995200
18.345200 0.982700
18.369900 0.977900
18.394500 0.973600
18.419200 0.969800
18.443900 0.966300
18.468600 0.963200
18.493300 0.960400
18.517900 0.958000
18.542600 0.956900
18.567300 0.955700
18.592000 0.955400
18.616700 0.955200
18.641400 0.954600
18.666000 0.954200
18.690700 0.954100
18.715400 0.954000
18.740100 0.954100
18.764800 0.956700
18.789400 0.962900
18.814100 0.971700
18.838800 0.982800
18.863500 0.984200
18.888200 0.978400
18.912800 0.985600
18.937500 0.995700
18.962200 1.002500
18.986900 1.005400
19.011600 1.004500
19.036300 1.000300
19.060900 0.995700
19.085600 0.991400
19.110300 0.987800
19.135000 0.985700
19.159700 0.983200
19.184300 0.980200
19.209000 0.976900
19.233700 0.973300
19.258400 0.969300
19.283100 0.965700
19.307700 0.962500
19.332400 0.959600
19.357100 0.956900
19.381800 0.954500
19.406500 0.952300
19.431200 0.950400
19.455800 0.949200
19.480500 0.948800
19.505200 0.948400
19.529900 0.948000
19.554600 0.947500
19.579200 0.946900
19.603900 0.947100
19.628600 0.948200
19.653300 0.949300
19.678000 0.950400
19.702600 0.951800
19.727300 0.953700
19.752000 0.962500
19.776700 0.971700
19.801400 0.976800
19.826100 0.979300
19.850700 0.980900
19.875400 0.982000
19.900100 0.982800
19.924800 0.983500
19.949500 0.983900
19.974100 0.984100
19.998800 0.985100
20.023500 0.987500
20.048200 1.015000
20.072900 1.027300
20.097500 1.029800
20.122200 1.034600
20.146900 1.043300
20.171600 1.054200
20.196300 1.072900
20.221000 1.085800
20.245600 1.089200
20.270300 1.056700
20.295000 0.978900
20.319700 0.967700
20.344400 0.958700
20.369000 0.951200
20.393700 0.944700
