set title 'mp-1018018 - Density of States'
set xlabel 'Energy (eV)'
set ylabel 'DOS (states/eV)'
set grid
set xrange [-10:10]
set yrange [0:18.684]
set xzeroaxis lt -1
set terminal png size 800,600
set output 'mp-1018018_dos_gnuplot.png'
plot '-' using 1:2 with lines title 'DOS'
-13.767100 0.000000
-13.740000 0.000000
-13.713000 0.000000
-13.685900 0.000000
-13.658900 0.000000
-13.631800 0.000000
-13.604700 0.000000
-13.577700 0.000000
-13.550600 0.000000
-13.523500 0.000000
-13.496500 0.000000
-13.469400 0.000000
-13.442300 0.000000
-13.415300 0.000000
-13.388200 0.000000
-13.361100 0.000000
-13.334100 0.000000
-13.307000 0.000000
-13.279900 0.000000
-13.252900 0.000000
-13.225800 0.000000
-13.198700 0.000000
-13.171700 0.000000
-13.144600 0.000000
-13.117500 0.000000
-13.090500 0.000000
-13.063400 0.000000
-13.036300 0.000000
-13.009300 0.000000
-12.982200 0.000000
-12.955100 0.000000
-12.928100 0.000000
-12.901000 0.000000
-12.873900 0.000000
-12.846900 0.000000
-12.819800 0.000000
-12.792700 0.000000
-12.765700 0.000000
-12.738600 0.000000
-12.711500 0.000000
-12.684500 0.000000
-12.657400 0.000000
-12.630400 0.000000
-12.603300 0.000000
-12.576200 0.000000
-12.549200 0.000000
-12.522100 0.000000
-12.495000 0.000000
-12.468000 0.000000
-12.440900 0.000000
-12.413800 0.000000
-12.386800 0.000000
-12.359700 0.000000
-12.332600 0.000000
-12.305600 0.000000
-12.278500 0.000000
-12.251400 0.000000
-12.224400 0.000000
-12.197300 0.000000
-12.170200 0.000000
-12.143200 0.000000
-12.116100 0.000000
-12.089000 0.000000
-12.062000 0.000000
-12.034900 0.000000
-12.007800 0.000000
-11.980800 0.000000
-11.953700 0.000000
-11.926600 0.000000
-11.899600 0.000000
-11.872500 0.000000
-11.845400 0.000000
-11.818400 0.000000
-11.791300 0.000000
-11.764200 0.000000
-11.737200 0.000000
-11.710100 0.000000
-11.683000 0.000000
-11.656000 0.000000
-11.628900 0.000000
-11.601900 0.000000
-11.574800 0.000000
-11.547700 0.000000
-11.520700 0.000000
-11.493600 0.000000
-11.466500 0.000000
-11.439500 0.000000
-11.412400 0.000000
-11.385300 0.000000
-11.358300 0.000000
-11.331200 0.000000
-11.304100 0.002200
-11.277100 0.280000
-11.250000 0.386000
-11.222900 0.543700
-11.195900 0.643100
-11.168800 0.751400
-11.141700 0.868600
-11.114700 0.986200
-11.087600 1.100600
-11.060500 1.219700
-11.033500 1.359000
-11.006400 1.506300
-10.979300 1.660000
-10.952300 1.837600
-10.925200 2.025900
-10.898100 2.238500
-10.871100 2.494600
-10.844000 2.790800
-10.816900 3.102600
-10.789900 3.489800
-10.762800 4.038000
-10.735700 4.654300
-10.708700 5.671900
-10.681600 6.614600
-10.654500 7.669400
-10.627500 10.110000
-10.600400 10.663000
-10.573300 11.259600
-10.546300 12.113100
-10.519200 13.300000
-10.492200 14.788600
-10.465100 21.225300
-10.438000 0.000000
-10.411000 0.000000
-10.383900 0.000000
-10.356800 0.000000
-10.329800 0.000000
-10.302700 0.000000
-10.275600 0.000000
-10.248600 0.000000
-10.221500 0.000000
-10.194400 0.000000
-10.167400 0.000000
-10.140300 0.000000
-10.113200 0.000000
-10.086200 0.000000
-10.059100 0.000000
-10.032000 0.000000
-10.005000 0.000000
-9.977900 0.000000
-9.950800 0.000000
-9.923800 0.000000
-9.896700 0.000000
-9.869600 0.000000
-9.842600 0.000000
-9.815500 0.000000
-9.788400 0.000000
-9.761400 0.000000
-9.734300 0.000000
-9.707200 0.000000
-9.680200 0.000000
-9.653100 0.000000
-9.626000 0.000000
-9.599000 0.000000
-9.571900 0.000000
-9.544800 0.000000
-9.517800 0.000000
-9.490700 0.000000
-9.463700 0.000000
-9.436600 0.000000
-9.409500 0.000000
-9.382500 0.000000
-9.355400 0.000000
-9.328300 0.000000
-9.301300 0.000000
-9.274200 0.000000
-9.247100 0.000000
-9.220100 0.000000
-9.193000 0.000000
-9.165900 0.000000
-9.138900 0.000000
-9.111800 0.000000
-9.084700 0.000000
-9.057700 0.000000
-9.030600 0.000000
-9.003500 0.000000
-8.976500 0.000000
-8.949400 0.000000
-8.922300 0.000000
-8.895300 0.000000
-8.868200 0.000000
-8.841100 0.000000
-8.814100 0.000000
-8.787000 0.000000
-8.759900 0.000000
-8.732900 0.000000
-8.705800 0.000000
-8.678700 0.000000
-8.651700 0.000000
-8.624600 0.000000
-8.597500 0.000000
-8.570500 0.000000
-8.543400 0.000000
-8.516300 0.000000
-8.489300 0.000000
-8.462200 0.000000
-8.435200 0.000000
-8.408100 0.000000
-8.381000 0.000000
-8.354000 0.000000
-8.326900 0.000000
-8.299800 0.000000
-8.272800 0.000000
-8.245700 0.000000
-8.218600 0.000000
-8.191600 0.000000
-8.164500 0.000000
-8.137400 0.000000
-8.110400 0.000000
-8.083300 0.000000
-8.056200 0.000000
-8.029200 0.000000
-8.002100 0.000000
-7.975000 0.000000
-7.948000 0.000000
-7.920900 0.000000
-7.893800 0.000000
-7.866800 0.000000
-7.839700 0.000000
-7.812600 0.000000
-7.785600 0.000000
-7.758500 0.000000
-7.731400 0.000000
-7.704400 0.000000
-7.677300 0.000000
-7.650200 0.000000
-7.623200 0.000000
-7.596100 0.000000
-7.569000 0.000000
-7.542000 0.000000
-7.514900 0.000000
-7.487800 0.000000
-7.460800 0.000000
-7.433700 0.000000
-7.406700 0.000000
-7.379600 0.000000
-7.352500 0.000000
-7.325500 0.000000
-7.298400 0.000000
-7.271300 0.000000
-7.244300 0.000000
-7.217200 0.000000
-7.190100 0.000000
-7.163100 0.000000
-7.136000 0.000000
-7.108900 0.000000
-7.081900 0.000000
-7.054800 0.000000
-7.027700 0.000000
-7.000700 0.000000
-6.973600 0.000000
-6.946500 0.000000
-6.919500 0.000000
-6.892400 0.000000
-6.865300 0.000000
-6.838300 0.000000
-6.811200 0.000000
-6.784100 0.000000
-6.757100 0.000000
-6.730000 0.000000
-6.702900 0.000000
-6.675900 0.000000
-6.648800 0.000000
-6.621700 0.000000
-6.594700 0.000000
-6.567600 0.000000
-6.540500 0.000000
-6.513500 0.000000
-6.486400 0.000000
-6.459300 0.000000
-6.432300 0.000000
-6.405200 0.000000
-6.378200 0.000000
-6.351100 0.000000
-6.324000 0.000000
-6.297000 0.000000
-6.269900 0.000000
-6.242800 0.000000
-6.215800 0.000000
-6.188700 0.000000
-6.161600 0.000000
-6.134600 0.000000
-6.107500 0.000000
-6.080400 0.000000
-6.053400 0.000000
-6.026300 0.000000
-5.999200 0.000000
-5.972200 0.000000
-5.945100 0.000000
-5.918000 0.000000
-5.891000 0.000000
-5.863900 0.000000
-5.836800 0.000000
-5.809800 0.000000
-5.782700 0.000000
-5.755600 0.000000
-5.728600 0.000000
-5.701500 0.000000
-5.674400 0.000000
-5.647400 0.000000
-5.620300 0.000000
-5.593200 0.000000
-5.566200 0.000000
-5.539100 0.000000
-5.512000 0.000000
-5.485000 0.000000
-5.457900 0.000000
-5.430800 0.000000
-5.403800 0.000000
-5.376700 0.000000
-5.349700 0.000000
-5.322600 0.000000
-5.295500 0.000000
-5.268500 0.000000
-5.241400 0.000000
-5.214300 0.000000
-5.187300 0.000000
-5.160200 0.000000
-5.133100 0.000000
-5.106100 0.000000
-5.079000 0.000000
-5.051900 0.000000
-5.024900 0.000000
-4.997800 0.000000
-4.970700 0.000000
-4.943700 0.000000
-4.916600 0.000000
-4.889500 0.000000
-4.862500 0.000000
-4.835400 0.000000
-4.808300 0.000000
-4.781300 0.000000
-4.754200 0.000000
-4.727100 0.000000
-4.700100 0.000000
-4.673000 0.000000
-4.645900 0.000000
-4.618900 0.000000
-4.591800 0.000000
-4.564700 0.000000
-4.537700 0.000000
-4.510600 0.000000
-4.483500 0.000000
-4.456500 0.000000
-4.429400 0.000000
-4.402300 0.000000
-4.375300 0.000000
-4.348200 0.000000
-4.321200 0.000000
-4.294100 0.000000
-4.267000 0.000000
-4.240000 0.000000
-4.212900 0.000000
-4.185800 0.000000
-4.158800 0.000000
-4.131700 0.000000
-4.104600 0.000000
-4.077600 0.000000
-4.050500 0.000000
-4.023400 0.000000
-3.996400 0.000000
-3.969300 0.000000
-3.942200 0.000000
-3.915200 0.000000
-3.888100 0.000000
-3.861000 0.000000
-3.834000 0.000000
-3.806900 0.000000
-3.779800 0.000000
-3.752800 0.000000
-3.725700 0.000000
-3.698600 0.000000
-3.671600 0.000000
-3.644500 0.000000
-3.617400 0.000000
-3.590400 0.000000
-3.563300 0.000000
-3.536200 0.000000
-3.509200 0.000000
-3.482100 0.000000
-3.455000 0.000000
-3.428000 0.000000
-3.400900 0.000000
-3.373800 0.000000
-3.346800 0.000000
-3.319700 0.000000
-3.292600 0.000000
-3.265600 0.000000
-3.238500 0.000000
-3.211500 0.000000
-3.184400 0.000000
-3.157300 0.000000
-3.130300 0.000000
-3.103200 0.000000
-3.076100 0.000000
-3.049100 0.000000
-3.022000 0.000000
-2.994900 0.000000
-2.967900 0.000000
-2.940800 0.000000
-2.913700 0.000000
-2.886700 0.000000
-2.859600 0.000000
-2.832500 0.000000
-2.805500 0.000000
-2.778400 0.000000
-2.751300 0.000000
-2.724300 0.000000
-2.697200 0.500300
-2.670100 1.358000
-2.643100 2.687100
-2.616000 13.179600
-2.588900 16.985500
-2.561900 12.392700
-2.534800 9.876600
-2.507700 7.778900
-2.480700 7.179400
-2.453600 6.605300
-2.426500 6.278100
-2.399500 8.365500
-2.372400 10.817500
-2.345300 9.690900
-2.318300 5.004300
-2.291200 3.780400
-2.264100 4.522800
-2.237100 4.616400
-2.210000 4.460300
-2.183000 4.371100
-2.155900 4.372600
-2.128800 4.558400
-2.101800 4.758500
-2.074700 5.047300
-2.047600 5.240900
-2.020600 5.563900
-1.993500 7.153400
-1.966400 8.208200
-1.939400 7.345000
-1.912300 7.146600
-1.885200 7.096600
-1.858200 7.449000
-1.831100 7.722700
-1.804000 7.646800
-1.777000 7.516200
-1.749900 7.185300
-1.722800 6.912100
-1.695800 6.711000
-1.668700 6.360000
-1.641600 6.107300
-1.614600 5.928600
-1.587500 5.714700
-1.560400 5.658800
-1.533400 5.672200
-1.506300 5.751300
-1.479200 5.760200
-1.452200 5.841100
-1.425100 6.135400
-1.398000 6.558000
-1.371000 7.594400
-1.343900 7.262600
-1.316800 6.212400
-1.289800 6.040900
-1.262700 6.197000
-1.235600 5.812700
-1.208600 5.349600
-1.181500 5.285300
-1.154500 4.734100
-1.127400 4.584100
-1.100300 4.577400
-1.073300 4.547500
-1.046200 4.574500
-1.019100 4.679900
-0.992100 4.445500
-0.965000 4.250400
-0.937900 3.810400
-0.910900 3.655200
-0.883800 3.575700
-0.856700 3.171900
-0.829700 2.596000
-0.802600 2.377200
-0.775500 2.240200
-0.748500 2.161700
-0.721400 1.574000
-0.694300 1.424100
-0.667300 1.271400
-0.640200 1.094300
-0.613100 0.921800
-0.586100 0.853800
-0.559000 0.819500
-0.531900 0.648300
-0.504900 0.492000
-0.477800 0.390100
-0.450700 0.000000
-0.423700 0.000000
-0.396600 0.000000
-0.369500 0.000000
-0.342500 0.000000
-0.315400 0.128300
-0.288300 0.832800
-0.261300 1.260300
-0.234200 2.307500
-0.207100 2.777700
-0.180100 2.766400
-0.153000 2.964800
-0.126000 3.117200
-0.098900 3.268400
-0.071800 3.522800
-0.044800 3.690300
-0.017700 4.006300
0.009400 4.267500
0.036400 4.121600
0.063500 4.078100
0.090600 4.175600
0.117600 4.690400
0.144700 7.159500
0.171800 6.330800
0.198800 6.472500
0.225900 6.355500
0.253000 6.346100
0.280000 6.363800
0.307100 8.735200
0.334200 6.585400
0.361200 5.646400
0.388300 4.985100
0.415400 6.392100
0.442400 7.275500
0.469500 7.878600
0.496600 6.800700
0.523600 6.019000
0.550700 5.867000
0.577800 6.262200
0.604800 6.938800
0.631900 9.735200
0.659000 7.786500
0.686000 6.777700
0.713100 6.412700
0.740200 6.942500
0.767200 5.470700
0.794300 4.820000
0.821400 4.738800
0.848400 4.929200
0.875500 4.890700
0.902500 4.453900
0.929600 4.074300
0.956700 4.155000
0.983700 4.550600
1.010800 5.260000
1.037900 3.463400
1.064900 3.269700
1.092000 2.979600
1.119100 2.917800
1.146100 2.909100
1.173200 2.936100
1.200300 3.037300
1.227300 3.501400
1.254400 4.427200
1.281500 4.755500
1.308500 3.810500
1.335600 2.780800
1.362700 1.563400
1.389700 1.034100
1.416800 0.679500
1.443900 0.741400
1.470900 0.809100
1.498000 0.738800
1.525100 0.738500
1.552100 0.802200
1.579200 1.029900
1.606300 1.314200
1.633300 2.238800
1.660400 2.997500
1.687500 3.394600
1.714500 3.583700
1.741600 3.918100
1.768700 3.572300
1.795700 3.470400
1.822800 3.405200
1.849900 3.064500
1.876900 2.701900
1.904000 2.603400
1.931000 2.623100
1.958100 2.670100
1.985200 2.676400
2.012200 2.402400
2.039300 2.202600
2.066400 2.119200
2.093400 1.993900
2.120500 1.906700
2.147600 1.899300
2.174600 1.905600
2.201700 2.080600
2.228800 2.241200
2.255800 2.453200
2.282900 2.760700
2.310000 2.988600
2.337000 2.807300
2.364100 2.575200
2.391200 1.777000
2.418200 1.702700
2.445300 1.629600
2.472400 1.583600
2.499400 1.707000
2.526500 1.896800
2.553600 1.929800
2.580600 1.979000
2.607700 2.084900
2.634800 2.191500
2.661800 2.244000
2.688900 2.151800
2.716000 2.148400
2.743000 2.128100
2.770100 2.088500
2.797200 1.985700
2.824200 1.833000
2.851300 1.760800
2.878400 1.740800
2.905400 1.720500
2.932500 1.671300
2.959500 1.656300
2.986600 1.646100
3.013700 1.640500
3.040700 1.638800
3.067800 1.640200
3.094900 1.643600
3.121900 1.649200
3.149000 1.651700
3.176100 1.657100
3.203100 1.680400
3.230200 1.799200
3.257300 1.971800
3.284300 2.091000
3.311400 2.159800
3.338500 2.255200
3.365500 2.328200
3.392600 2.396400
3.419700 2.471300
3.446700 2.605300
3.473800 2.791000
3.500900 3.100200
3.527900 3.457300
3.555000 3.553700
3.582100 3.419800
3.609100 3.245400
3.636200 3.272400
3.663300 3.355500
3.690300 3.399500
3.717400 3.326300
3.744500 3.188000
3.771500 3.055600
3.798600 2.850300
3.825700 2.714100
3.852700 2.632700
3.879800 2.585400
3.906900 2.532000
3.933900 2.527400
3.961000 2.534000
3.988100 2.540500
4.015100 2.551000
4.042200 2.569500
4.069200 2.600000
4.096300 2.586000
4.123400 2.995000
4.150400 2.913000
4.177500 2.831700
4.204600 3.023700
4.231600 3.260300
4.258700 3.302100
4.285800 3.444400
4.312800 3.588800
4.339900 3.619900
4.367000 3.574400
4.394000 3.638300
4.421100 3.837900
4.448200 3.753400
4.475200 3.720200
4.502300 3.749900
4.529400 3.603800
4.556400 3.574300
4.583500 3.553600
4.610600 3.530800
4.637600 3.502500
4.664700 3.466700
4.691800 3.438900
4.718800 3.403700
4.745900 3.382400
4.773000 3.382200
4.800000 3.380300
4.827100 3.374700
4.854200 3.378900
4.881200 3.376500
4.908300 3.354800
4.935400 3.341800
4.962400 3.339600
4.989500 3.356300
5.016600 3.370600
5.043600 3.366700
5.070700 3.382300
5.097700 3.434800
5.124800 3.377500
5.151900 3.247100
5.178900 3.138400
5.206000 3.172500
5.233100 3.148100
5.260100 3.181600
5.287200 3.189100
5.314300 3.129000
5.341300 3.114900
5.368400 3.064800
5.395500 2.917400
5.422500 2.719000
5.449600 2.545400
5.476700 2.410100
5.503700 2.317400
5.530800 2.242900
5.557900 2.167400
5.584900 2.095000
5.612000 2.027300
5.639100 1.993000
5.666100 1.938200
5.693200 1.877600
5.720300 1.833800
5.747300 1.793700
5.774400 1.725400
5.801500 1.663100
5.828500 1.593800
5.855600 1.518600
5.882700 1.470200
5.909700 1.435500
5.936800 1.383200
5.963900 1.335800
5.990900 1.260000
6.018000 0.964800
6.045100 0.923100
6.072100 0.883300
6.099200 0.836500
6.126200 0.776600
6.153300 0.708100
6.180400 0.657700
6.207400 0.622900
6.234500 0.566500
6.261600 0.490800
6.288600 0.435600
6.315700 0.388700
6.342800 0.327600
6.369800 0.179200
6.396900 0.012700
6.424000 0.000000
6.451000 0.000000
6.478100 0.000400
6.505200 0.001700
6.532200 0.003900
6.559300 0.007000
6.586400 0.011000
6.613400 0.016000
6.640500 0.021900
6.667600 0.028600
6.694600 0.041200
6.721700 0.050800
6.748800 0.059900
6.775800 0.068300
6.802900 0.076200
6.830000 0.083500
6.857000 0.089800
6.884100 0.096300
6.911200 0.101900
6.938200 0.106600
6.965300 0.110900
6.992400 0.115100
7.019400 0.119300
7.046500 0.123500
7.073600 0.128100
7.100600 0.133200
7.127700 0.138900
7.154700 0.144700
7.181800 0.150200
7.208900 0.155600
7.235900 0.160100
7.263000 0.163400
7.290100 0.166700
7.317100 0.169700
7.344200 0.172500
7.371300 0.175000
7.398300 0.177200
7.425400 0.180200
7.452500 0.183500
7.479500 0.186900
7.506600 0.190600
7.533700 0.194500
7.560700 0.198700
7.587800 0.203000
7.614900 0.207400
7.641900 0.211700
7.669000 0.216100
7.696100 0.220600
7.723100 0.224900
7.750200 0.229100
7.777300 0.233100
7.804300 0.236400
7.831400 0.239600
7.858500 0.242700
7.885500 0.245900
7.912600 0.249100
7.939700 0.252600
7.966700 0.256400
7.993800 0.260100
8.020900 0.263800
8.047900 0.267500
8.075000 0.271100
8.102100 0.274700
8.129100 0.278400
8.156200 0.282100
8.183200 0.285900
8.210300 0.289800
8.237400 0.293700
8.264400 0.297500
8.291500 0.301700
8.318600 0.306300
8.345600 0.311000
8.372700 0.315700
8.399800 0.320300
8.426800 0.324900
8.453900 0.329500
8.481000 0.334200
8.508000 0.338600
8.535100 0.342600
8.562200 0.346500
8.589200 0.350300
8.616300 0.354200
8.643400 0.358000
8.670400 0.361900
8.697500 0.365900
8.724600 0.369900
8.751600 0.373900
8.778700 0.377900
8.805800 0.382200
8.832800 0.387200
8.859900 0.392200
8.887000 0.397100
8.914000 0.402100
8.941100 0.407000
8.968200 0.412000
8.995200 0.417100
9.022300 0.422200
9.049400 0.427300
9.076400 0.432400
9.103500 0.437500
9.130600 0.442600
9.157600 0.447800
9.184700 0.452900
9.211700 0.458100
9.238800 0.463400
9.265900 0.468600
9.292900 0.473900
9.320000 0.479100
9.347100 0.484300
9.374100 0.489900
9.401200 0.495800
9.428300 0.501800
9.455300 0.507700
9.482400 0.513500
9.509500 0.519500
9.536500 0.525600
9.563600 0.531800
9.590700 0.538000
9.617700 0.544200
9.644800 0.550400
9.671900 0.556600
9.698900 0.562900
9.726000 0.569200
9.753100 0.575600
9.780100 0.582000
9.807200 0.588400
9.834300 0.594800
9.861300 0.601400
9.888400 0.608900
9.915500 0.617900
9.942500 0.626400
9.969600 0.634900
9.996700 0.643200
10.023700 0.651700
10.050800 0.660300
10.077900 0.669100
10.104900 0.678000
10.132000 0.687100
10.159100 0.696100
10.186100 0.704800
10.213200 0.713400
10.240200 0.722300
10.267300 0.731500
10.294400 0.740800
10.321400 0.750400
10.348500 0.760100
10.375600 0.770200
10.402600 0.781500
10.429700 0.794400
10.456800 0.808200
10.483800 0.822800
10.510900 0.838100
10.538000 0.854000
10.565000 0.869800
10.592100 0.886500
10.619200 0.904500
10.646200 0.924300
10.673300 0.945000
10.700400 0.966300
10.727400 0.988400
10.754500 1.011400
10.781600 1.035400
10.808600 1.060100
10.835700 1.085900
10.862800 1.112600
10.889800 1.142900
10.916900 1.177400
10.944000 1.349000
10.971000 1.277500
10.998100 1.294400
11.025200 1.311600
11.052200 1.326700
11.079300 1.361500
11.106400 1.357000
11.133400 1.330200
11.160500 1.274400
11.187600 1.255600
11.214600 1.255300
11.241700 1.254700
11.268800 1.253800
11.295800 1.251800
11.322900 1.248200
11.349900 1.244700
11.377000 1.246700
11.404100 1.251000
11.431100 1.257100
11.458200 1.264200
11.485300 1.272400
11.512300 1.281800
11.539400 1.292200
11.566500 1.304200
11.593500 1.317400
11.620600 1.332100
11.647700 1.352100
11.674700 1.374300
11.701800 1.385000
11.728900 1.403600
11.755900 1.432700
11.783000 1.477200
11.810100 1.514900
11.837100 1.557400
11.864200 1.609100
11.891300 1.670500
11.918300 1.734700
11.945400 1.849000
11.972500 2.023400
11.999500 2.173900
12.026600 2.377300
12.053700 2.429000
12.080700 2.377400
12.107800 2.968000
12.134900 2.755500
12.161900 1.964900
12.189000 1.264200
12.216100 0.907900
12.243100 0.593300
12.270200 0.481600
12.297300 0.463700
12.324300 0.448200
12.351400 0.438800
12.378400 0.435600
12.405500 0.449600
12.432600 0.500800
12.459600 0.518800
12.486700 0.534800
12.513800 0.547300
12.540800 0.555500
12.567900 0.552500
12.595000 0.541600
12.622000 0.548400
12.649100 0.549400
12.676200 0.552000
12.703200 0.556100
12.730300 0.576500
12.757400 0.590900
12.784400 0.615000
12.811500 0.645100
12.838600 0.686900
12.865600 0.790300
12.892700 0.793100
12.919800 0.662700
12.946800 0.665100
12.973900 0.681700
13.001000 0.683400
13.028000 0.695700
13.055100 0.719400
13.082200 0.744200
13.109200 0.770100
13.136300 0.797000
13.163400 0.825200
13.190400 0.855400
13.217500 0.886400
13.244600 0.916700
13.271600 0.948700
13.298700 0.985900
13.325800 1.027300
13.352800 1.071500
13.379900 1.118600
13.406900 1.313200
13.434000 1.271000
13.461100 1.291700
13.488100 1.320800
13.515200 1.341900
13.542300 1.389900
13.569300 1.452000
13.596400 1.641600
13.623500 1.587100
13.650500 1.381500
13.677600 1.407800
13.704700 1.439600
13.731700 1.467400
13.758800 1.491800
13.785900 1.509400
13.812900 1.521400
13.840000 1.558900
13.867100 1.576100
13.894100 1.549200
13.921200 1.555400
13.948300 1.562200
13.975300 1.570200
14.002400 1.579600
14.029500 1.589600
14.056500 1.597800
14.083600 1.603800
14.110700 1.607600
14.137700 1.611000
14.164800 1.619700
14.191900 1.653300
14.218900 1.698500
14.246000 1.754100
14.273100 1.801300
14.300100 1.768900
14.327200 1.751900
14.354300 1.743600
14.381300 1.740000
14.408400 1.741200
14.435400 1.758400
14.462500 1.780700
14.489600 1.762800
14.516600 1.724400
14.543700 1.720300
14.570800 1.754500
14.597800 1.814700
