set title 'mp-614456 - Density of States'
set xlabel 'Energy (eV)'
set ylabel 'DOS (states/eV)'
set grid
set xrange [-10:10]
set yrange [0:1.870]
set xzeroaxis lt -1
set terminal png size 800,600
set output 'mp-614456_dos_gnuplot.png'
plot '-' using 1:2 with lines title 'DOS'
-26.923700 0.000000
-26.802300 0.000000
-26.681000 0.000000
-26.559700 0.000000
-26.438400 0.000000
-26.317000 0.000000
-26.195700 0.000000
-26.074400 0.000000
-25.953100 0.000000
-25.831700 0.000000
-25.710400 0.000000
-25.589100 0.000000
-25.467800 0.000000
-25.346400 0.000000
-25.225100 0.000000
-25.103800 0.000000
-24.982500 0.000000
-24.861100 0.000000
-24.739800 0.000000
-24.618500 0.000000
-24.497200 0.000000
-24.375800 0.000000
-24.254500 0.000000
-24.133200 0.000000
-24.011900 0.000000
-23.890500 0.000000
-23.769200 0.000000
-23.647900 0.000000
-23.526600 0.000000
-23.405200 0.000000
-23.283900 0.000000
-23.162600 0.000000
-23.041300 0.000000
-22.919900 0.000000
-22.798600 0.000000
-22.677300 0.000000
-22.556000 0.000000
-22.434600 0.000000
-22.313300 0.000000
-22.192000 0.000000
-22.070700 0.000000
-21.949300 0.000000
-21.828000 0.000000
-21.706700 0.000000
-21.585400 0.000000
-21.464000 0.000000
-21.342700 0.000000
-21.221400 0.000000
-21.100100 0.000000
-20.978700 0.000000
-20.857400 0.000000
-20.736100 0.000000
-20.614800 0.000000
-20.493400 0.000000
-20.372100 0.000000
-20.250800 0.000000
-20.129500 0.000000
-20.008100 0.000000
-19.886800 0.000000
-19.765500 0.000000
-19.644200 0.000000
-19.522800 0.000000
-19.401500 0.000000
-19.280200 0.000000
-19.158900 0.000000
-19.037500 0.000000
-18.916200 0.000000
-18.794900 0.000000
-18.673600 0.000000
-18.552200 0.000000
-18.430900 0.000000
-18.309600 0.000000
-18.188300 0.000000
-18.066900 0.000000
-17.945600 0.000000
-17.824300 0.000000
-17.703000 0.000000
-17.581600 0.000000
-17.460300 0.000000
-17.339000 0.000000
-17.217700 0.000000
-17.096300 0.000000
-16.975000 0.000000
-16.853700 0.000000
-16.732400 0.000000
-16.611000 0.000000
-16.489700 0.000000
-16.368400 0.000000
-16.247100 0.000000
-16.125700 0.000000
-16.004400 0.000000
-15.883100 0.040300
-15.761800 0.133200
-15.640400 0.193700
-15.519100 0.253200
-15.397800 0.306800
-15.276500 0.370100
-15.155100 0.438900
-15.033800 0.518600
-14.912500 0.611300
-14.791200 0.736400
-14.669800 0.902800
-14.548500 1.149700
-14.427200 1.620000
-14.305900 2.209400
-14.184500 2.367000
-14.063200 2.711500
-13.941900 0.000000
-13.820600 0.000000
-13.699200 0.000000
-13.577900 0.000000
-13.456600 0.000000
-13.335300 0.000000
-13.213900 0.000000
-13.092600 0.000000
-12.971300 0.000000
-12.850000 0.000000
-12.728600 0.000000
-12.607300 0.000000
-12.486000 0.000000
-12.364700 0.000000
-12.243300 0.000000
-12.122000 0.000000
-12.000700 0.000000
-11.879400 0.000000
-11.758000 0.000000
-11.636700 0.000000
-11.515400 0.000000
-11.394100 0.000000
-11.272700 0.000000
-11.151400 0.000000
-11.030100 0.000000
-10.908800 0.000000
-10.787400 0.000000
-10.666100 0.000000
-10.544800 0.000000
-10.423500 0.000000
-10.302100 0.000000
-10.180800 0.000000
-10.059500 0.000000
-9.938200 0.000000
-9.816900 0.000000
-9.695500 0.000000
-9.574200 0.000000
-9.452900 0.000000
-9.331600 0.000000
-9.210200 0.000000
-9.088900 0.000000
-8.967600 0.000000
-8.846300 0.000000
-8.724900 0.000000
-8.603600 0.000000
-8.482300 0.000000
-8.361000 0.000000
-8.239600 0.000000
-8.118300 0.000000
-7.997000 0.000000
-7.875700 0.000000
-7.754300 0.000000
-7.633000 0.000000
-7.511700 0.000000
-7.390400 0.000000
-7.269000 0.000000
-7.147700 0.000000
-7.026400 0.000000
-6.905100 0.000000
-6.783700 0.000000
-6.662400 0.000000
-6.541100 0.000000
-6.419800 0.000000
-6.298400 0.000000
-6.177100 0.000000
-6.055800 0.000000
-5.934500 0.000000
-5.813100 0.000000
-5.691800 0.000000
-5.570500 0.000000
-5.449200 0.000000
-5.327800 0.000000
-5.206500 0.000000
-5.085200 0.000000
-4.963900 0.000000
-4.842500 0.000000
-4.721200 0.000000
-4.599900 0.000000
-4.478600 0.000000
-4.357200 0.000000
-4.235900 0.000000
-4.114600 0.000000
-3.993300 0.000000
-3.871900 0.000000
-3.750600 0.000000
-3.629300 0.000000
-3.508000 0.000000
-3.386600 0.000000
-3.265300 0.000000
-3.144000 0.000000
-3.022700 0.000000
-2.901300 0.000000
-2.780000 0.000000
-2.658700 0.000000
-2.537400 0.000000
-2.416000 0.000000
-2.294700 0.000000
-2.173400 0.000000
-2.052100 0.000000
-1.930700 0.000000
-1.809400 0.000000
-1.688100 0.000000
-1.566800 0.000000
-1.445400 0.000000
-1.324100 0.000000
-1.202800 0.000000
-1.081500 0.000000
-0.960100 0.000000
-0.838800 0.000000
-0.717500 0.000000
-0.596200 0.000000
-0.474800 0.000000
-0.353500 0.000000
-0.232200 0.000000
-0.110900 0.000000
0.010500 0.000000
0.131800 0.000000
0.253100 0.000000
0.374400 0.000000
0.495800 0.000000
0.617100 0.000000
0.738400 0.000000
0.859700 0.000000
0.981100 0.000000
1.102400 0.000000
1.223700 0.000000
1.345000 0.000000
1.466400 0.000000
1.587700 0.000000
1.709000 0.000000
1.830300 0.000000
1.951700 0.000000
2.073000 0.000000
2.194300 0.000000
2.315600 0.000000
2.437000 0.000000
2.558300 0.000000
2.679600 0.000000
2.800900 0.000000
2.922300 0.000000
3.043600 0.000000
3.164900 0.000000
3.286200 0.000000
3.407600 0.000000
3.528900 0.000000
3.650200 0.000000
3.771500 0.000000
3.892900 0.000000
4.014200 0.062300
4.135500 0.195500
4.256800 0.258400
4.378200 0.347500
4.499500 0.440200
4.620800 0.563800
4.742100 0.726400
4.863500 1.032500
4.984800 1.606000
5.106100 1.700000
5.227400 1.279300
5.348800 1.004500
5.470100 0.808500
5.591400 0.692800
5.712700 0.584100
5.834100 0.503800
5.955400 0.469100
6.076700 0.462900
6.198000 0.472600
6.319400 0.451300
6.440700 0.399100
6.562000 0.366500
6.683300 0.320000
6.804700 0.290800
6.926000 0.263700
7.047300 0.234400
7.168600 0.216600
7.290000 0.209500
7.411300 0.125500
7.532600 0.098200
7.653900 0.085300
7.775300 0.050500
7.896600 0.039900
8.017900 0.030300
8.139200 0.021700
8.260600 0.000000
8.381900 0.026900
8.503200 0.069600
8.624500 0.086000
8.745900 0.103200
8.867200 0.143100
8.988500 0.168400
9.109800 0.198100
9.231200 0.227100
9.352500 0.244900
9.473800 0.267200
9.595100 0.265600
9.716500 0.274700
9.837800 0.282600
9.959100 0.288200
10.080400 0.296400
10.201800 0.304500
10.323100 0.312100
10.444400 0.315700
10.565700 0.332500
10.687100 0.339500
10.808400 0.347100
10.929700 0.354200
11.051000 0.359100
11.172400 0.366000
11.293700 0.372500
11.415000 0.378900
11.536300 0.385500
11.657700 0.388200
11.779000 0.395100
11.900300 0.400100
12.021600 0.403300
12.143000 0.407700
12.264300 0.405100
12.385600 0.405300
12.506900 0.407100
12.628300 0.412600
12.749600 0.393900
12.870900 0.368300
12.992200 0.356400
13.113600 0.348800
13.234900 0.343300
13.356200 0.338900
13.477500 0.334400
13.598900 0.330500
13.720200 0.328800
13.841500 0.328100
13.962800 0.328700
14.084200 0.329300
14.205500 0.330800
14.326800 0.332900
14.448100 0.343300
14.569500 0.357300
14.690800 0.365900
14.812100 0.367300
14.933400 0.374100
15.054800 0.375400
15.176100 0.372100
15.297400 0.363600
15.418700 0.355000
15.540100 0.347200
15.661400 0.347600
15.782700 0.346500
15.904000 0.332300
16.025400 0.341800
16.146700 0.339700
16.268000 0.342300
16.389300 0.351100
16.510700 0.359400
16.632000 0.370700
16.753300 0.384000
16.874600 0.385800
16.996000 0.385100
17.117300 0.391500
17.238600 0.396100
17.359900 0.397500
17.481300 0.396900
17.602600 0.398600
17.723900 0.402200
17.845200 0.410600
17.966600 0.444400
18.087900 0.429900
18.209200 0.428600
18.330500 0.429600
18.451900 0.430700
18.573200 0.431600
18.694500 0.433400
18.815800 0.435000
18.937200 0.450600
19.058500 0.476400
19.179800 0.481800
19.301100 0.483700
19.422500 0.489100
19.543800 0.491200
19.665100 0.496200
19.786400 0.501500
19.907800 0.506800
20.029100 0.515500
20.150400 0.541800
20.271700 0.551700
20.393100 0.555200
20.514400 0.563800
20.635700 0.570600
20.757000 0.583400
20.878400 0.601100
20.999700 0.628900
21.121000 0.670200
21.242300 0.706400
21.363700 0.751500
21.485000 0.820500
21.606300 0.852400
21.727600 0.786100
21.849000 0.678900
21.970300 0.573300
22.091600 0.551000
22.212900 0.411700
22.334300 0.353100
22.455600 0.330700
22.576900 0.317200
22.698200 0.296600
22.819600 0.282500
22.940900 0.297700
23.062200 0.294700
23.183500 0.291600
23.304900 0.262700
23.426200 0.252700
23.547500 0.245800
23.668800 0.242700
23.790200 0.232700
23.911500 0.226800
24.032800 0.225300
24.154100 0.227600
24.275500 0.238300
24.396800 0.249100
24.518100 0.257200
24.639400 0.288200
24.760800 0.286800
24.882100 0.422100
25.003400 0.583700
25.124700 0.625200
25.246100 0.595700
25.367400 0.595200
25.488700 0.614500
25.610000 0.649000
25.731400 0.641900
25.852700 0.650000
25.974000 0.684100
26.095300 0.678100
26.216700 0.695000
26.338000 0.673000
26.459300 0.690500
26.580600 0.661900
26.702000 0.626800
26.823300 0.603600
26.944600 0.567300
27.065900 0.532200
27.187300 0.565200
27.308600 0.561200
27.429900 0.542000
27.551200 0.490400
27.672600 0.428000
27.793900 0.399300
27.915200 0.349600
28.036500 0.349200
28.157900 0.333600
28.279200 0.337600
28.400500 0.346500
28.521800 0.357300
28.643200 0.371300
28.764500 0.383800
28.885800 0.411900
29.007100 0.439900
29.128500 0.464000
29.249800 0.486800
29.371100 0.510000
29.492400 0.537800
29.613800 0.571700
29.735100 0.571800
29.856400 0.604500
29.977700 0.557000
30.099100 0.551700
30.220400 0.553600
30.341700 0.548100
30.463000 0.543400
30.584400 0.519500
30.705700 0.522600
30.827000 0.545000
30.948300 0.606900
31.069700 0.667600
31.191000 0.627300
31.312300 0.625700
31.433600 0.615100
31.555000 0.563100
31.676300 0.537700
31.797600 0.525000
31.918900 0.518900
32.040300 0.524000
32.161600 0.534800
32.282900 0.536800
32.404200 0.518200
32.525600 0.543300
32.646900 0.542600
32.768200 0.505400
32.889500 0.491700
33.010900 0.482400
33.132200 0.469200
33.253500 0.457300
33.374800 0.447800
33.496200 0.445300
33.617500 0.434800
33.738800 0.460600
33.860100 0.477700
33.981500 0.486400
34.102800 0.512500
34.224100 0.530300
34.345400 0.559000
34.466800 0.582900
34.588100 0.598300
34.709400 0.623200
34.830700 0.658100
34.952100 0.657100
35.073400 0.613800
35.194700 0.577600
35.316000 0.534000
35.437400 0.492700
35.558700 0.465000
35.680000 0.439700
35.801300 0.436000
35.922700 0.436400
36.044000 0.444900
36.165300 0.464700
36.286600 0.491700
36.408000 0.510100
36.529300 0.535400
36.650600 0.565600
36.771900 0.576400
36.893300 0.588900
37.014600 0.593000
37.135900 0.605000
37.257200 0.616400
37.378600 0.598000
37.499900 0.566800
37.621200 0.561700
37.742500 0.561500
37.863900 0.548800
37.985200 0.536800
38.106500 0.533600
38.227800 0.534200
38.349200 0.536300
38.470500 0.548200
38.591800 0.556200
38.713100 0.576200
38.834500 0.592300
38.955800 0.595900
39.077100 0.594700
39.198400 0.580100
39.319800 0.576800
39.441100 0.575700
39.562400 0.574100
39.683700 0.573400
39.805100 0.573400
39.926400 0.586700
40.047700 0.579300
40.169000 0.577700
40.290400 0.584600
40.411700 0.597300
40.533000 0.609900
40.654300 0.623200
40.775700 0.637000
40.897000 0.622700
41.018300 0.615400
41.139600 0.612400
41.261000 0.605200
41.382300 0.602400
41.503600 0.598000
41.624900 0.592000
41.746300 0.583500
41.867600 0.583000
41.988900 0.576200
42.110200 0.566300
42.231600 0.551800
42.352900 0.538500
42.474200 0.544100
42.595500 0.557600
42.716900 0.577700
42.838200 0.597500
42.959500 0.603200
43.080800 0.608800
43.202200 0.614600
43.323500 0.624500
43.444800 0.622600
43.566100 0.618700
43.687500 0.621400
43.808800 0.625100
43.930100 0.622700
44.051400 0.617000
44.172800 0.622000
44.294100 0.626700
44.415400 0.608200
44.536700 0.599300
44.658100 0.592100
44.779400 0.581900
44.900700 0.571200
45.022000 0.557700
45.143400 0.555400
45.264700 0.548100
45.386000 0.543200
45.507300 0.546000
45.628700 0.554500
45.750000 0.563800
45.871300 0.573200
45.992600 0.555900
46.114000 0.557900
46.235300 0.579700
46.356600 0.589600
46.477900 0.607000
46.599300 0.622700
46.720600 0.633800
46.841900 0.644700
46.963200 0.689500
47.084500 0.685400
47.205900 0.708300
47.327200 0.718200
47.448500 0.729200
47.569800 0.733100
47.691200 0.739700
47.812500 0.840100
47.933800 0.654900
48.055100 0.641000
48.176500 0.669100
48.297800 0.683700
48.419100 0.751100
48.540400 0.747200
48.661800 0.772300
48.783100 0.708200
48.904400 0.750300
49.025700 0.735500
49.147100 0.714400
49.268400 0.687900
49.389700 0.671600
49.511000 0.620700
49.632400 0.597400
49.753700 0.585700
49.875000 0.578900
49.996300 0.567100
50.117700 0.548800
50.239000 0.541400
50.360300 0.528000
50.481600 0.524500
50.603000 0.542500
50.724300 0.555400
50.845600 0.570900
50.966900 0.554800
51.088300 0.552500
51.209600 0.554100
51.330900 0.581000
51.452200 0.654700
51.573600 0.648800
51.694900 0.670500
51.816200 0.764700
51.937500 0.654500
52.058900 0.668800
52.180200 0.661400
52.301500 0.668800
52.422800 0.684200
52.544200 0.700000
52.665500 0.680900
52.786800 0.693900
52.908100 0.674600
53.029500 0.678300
53.150800 0.675200
53.272100 0.669500
53.393400 0.675200
53.514800 0.702700
53.636100 0.731600
53.757400 0.775600
53.878700 0.816500
54.000100 0.804600
54.121400 0.753900
54.242700 0.713000
54.364000 0.687600
54.485400 0.656000
54.606700 0.631500
54.728000 0.635200
54.849300 0.609500
54.970700 0.685500
55.092000 0.564400
55.213300 0.562000
55.334600 0.568600
55.456000 0.575800
55.577300 0.592800
55.698600 0.589600
55.819900 0.590900
55.941300 0.608700
56.062600 0.619300
56.183900 0.679000
56.305200 0.663000
56.426600 0.657700
56.547900 0.652000
56.669200 0.652800
56.790500 0.661400
56.911900 0.684100
57.033200 0.694000
57.154500 0.685800
57.275800 0.687600
57.397200 0.705600
57.518500 0.715100
57.639800 0.711200
57.761100 0.701800
57.882500 0.716000
58.003800 0.718800
58.125100 0.724300
58.246400 0.733700
58.367800 0.747900
58.489100 0.800200
58.610400 0.806700
58.731700 0.772100
58.853100 0.763400
58.974400 0.750000
59.095700 0.737500
59.217000 0.727800
59.338400 0.711700
59.459700 0.658600
59.581000 0.639700
59.702300 0.628900
59.823700 0.623300
59.945000 0.628300
60.066300 0.622700
60.187600 0.623200
60.309000 0.633200
60.430300 0.621400
60.551600 0.631500
60.672900 0.637200
60.794300 0.654800
60.915600 0.674700
61.036900 0.709000
61.158200 0.837000
61.279600 0.840500
61.400900 0.799300
61.522200 0.754800
61.643500 0.749800
61.764900 0.755100
61.886200 0.753400
62.007500 0.758100
62.128800 0.774200
62.250200 0.774600
62.371500 0.771800
62.492800 0.770800
62.614100 0.772800
62.735500 0.759800
62.856800 0.715200
62.978100 0.686200
63.099400 0.678200
63.220800 0.652300
63.342100 0.671600
63.463400 0.676200
63.584700 0.667200
63.706100 0.669600
63.827400 0.651500
63.948700 0.640700
64.070000 0.627500
64.191400 0.600200
64.312700 0.599900
64.434000 0.604600
64.555300 0.628400
64.676700 0.669600
64.798000 0.717200
64.919300 0.784800
65.040600 0.781700
65.162000 0.798100
65.283300 0.798400
65.404600 0.797400
65.525900 0.797900
65.647300 0.785800
65.768600 0.773100
65.889900 0.766200
66.011200 0.760700
66.132600 0.774200
66.253900 0.774800
66.375200 0.779400
66.496500 0.747900
66.617900 0.719600
66.739200 0.702200
66.860500 0.680000
66.981800 0.657100
67.103200 0.647000
67.224500 0.647700
67.345800 0.654800
67.467100 0.669500
67.588500 0.713100
67.709800 0.728500
67.831100 0.750900
67.952400 0.770000
68.073800 0.774600
68.195100 0.771700
68.316400 0.774400
68.437700 0.768600
68.559100 0.834000
68.680400 0.860700
68.801700 0.875300
68.923000 0.876700
69.044400 0.870700
69.165700 0.832700
69.287000 0.799800
69.408300 0.814800
69.529700 0.692900
69.651000 0.632000
69.772300 0.592000
69.893600 0.570300
70.015000 0.559100
70.136300 0.564400
70.257600 0.572600
70.378900 0.599400
70.500300 0.623700
70.621600 0.691600
70.742900 0.741900
70.864200 0.793700
70.985600 0.842900
71.106900 0.902900
71.228200 0.948100
71.349500 0.899300
71.470900 0.892300
71.592200 0.867700
71.713500 0.809700
71.834800 0.763200
71.956200 0.749900
72.077500 0.742100
72.198800 0.771700
72.320100 0.751200
72.441500 0.729800
72.562800 0.705600
72.684100 0.727600
72.805400 0.727400
72.926800 0.734300
73.048100 0.714500
73.169400 0.699700
73.290700 0.699900
73.412100 0.706600
73.533400 0.701300
73.654700 0.725900
73.776000 0.748100
73.897400 0.761400
74.018700 0.780300
74.140000 0.786100
74.261300 0.848900
74.382700 0.819700
74.504000 0.806500
74.625300 0.806900
74.746600 0.828200
74.868000 0.823400
74.989300 0.807900
75.110600 0.776900
75.231900 0.718700
75.353300 0.717900
75.474600 0.727500
75.595900 0.731100
75.717200 0.730200
75.838600 0.719800
75.959900 0.712200
76.081200 0.725600
76.202500 0.736900
76.323900 0.801100
76.445200 0.794700
76.566500 0.821600
76.687800 0.824000
76.809200 0.819100
76.930500 0.811200
77.051800 0.804000
77.173100 0.783200
77.294500 0.778600
77.415800 0.776200
77.537100 0.790900
77.658400 0.806000
77.779800 0.801900
77.901100 0.787200
78.022400 0.770900
78.143700 0.765400
78.265100 0.786800
78.386400 0.786400
78.507700 0.781100
78.629000 0.789400
78.750400 0.797700
78.871700 0.800900
78.993000 0.810500
79.114300 0.844000
79.235700 0.835400
79.357000 0.818700
79.478300 0.810200
79.599600 0.803600
79.721000 0.781800
79.842300 0.773700
79.963600 0.765500
80.084900 0.755100
80.206300 0.749100
80.327600 0.747200
80.448900 0.791200
80.570200 0.759500
80.691600 0.800100
80.812900 0.799500
80.934200 0.802600
81.055500 0.805400
81.176900 0.839200
81.298200 0.841500
81.419500 0.799800
81.540800 0.816700
81.662200 0.804500
81.783500 0.813300
81.904800 0.817300
82.026100 0.818400
82.147500 0.837100
82.268800 0.833300
82.390100 0.822100
82.511400 0.816500
82.632800 0.816000
82.754100 0.820900
82.875400 0.848700
82.996700 0.854900
83.118100 0.851100
83.239400 0.839200
83.360700 0.817000
83.482000 0.797300
83.603400 0.787400
83.724700 0.794200
83.846000 0.770400
83.967300 0.757600
84.088700 0.750100
84.210000 0.757400
84.331300 0.774700
84.452600 0.825700
84.574000 0.841300
84.695300 0.831900
84.816600 0.839000
84.937900 0.842000
85.059300 0.831800
85.180600 0.823800
85.301900 0.825500
85.423200 0.815500
85.544600 0.819200
85.665900 0.814700
85.787200 0.814100
85.908500 0.800800
86.029900 0.802000
86.151200 0.812600
86.272500 0.808600
86.393800 0.807800
86.515200 0.802100
86.636500 0.795400
86.757800 0.794000
86.879100 0.809900
87.000500 0.814700
87.121800 0.820800
87.243100 0.827000
87.364400 0.831200
87.485800 0.843300
87.607100 0.844600
87.728400 0.851500
87.849700 0.857000
87.971100 0.829200
88.092400 0.843100
88.213700 0.844000
88.335000 0.869500
88.456400 0.877400
88.577700 0.878800
88.699000 0.891300
88.820300 0.888600
88.941700 0.914200
89.063000 0.919600
89.184300 0.893100
89.305600 0.882900
89.427000 0.876800
89.548300 0.876600
89.669600 0.876200
89.790900 0.850500
89.912300 0.813800
90.033600 0.802700
90.154900 0.810400
90.276200 0.812500
90.397600 0.814000
90.518900 0.827000
90.640200 0.837900
90.761500 0.843900
90.882900 0.850400
91.004200 0.903900
91.125500 0.921800
91.246800 0.828400
91.368200 0.838800
91.489500 0.862600
91.610800 0.904800
91.732100 0.880500
91.853500 0.868500
91.974800 0.842000
92.096100 0.835900
92.217400 0.823300
92.338800 0.831400
92.460100 0.831400
92.581400 0.829900
92.702700 0.828100
92.824100 0.826800
92.945400 0.831900
93.066700 0.829900
93.188000 0.848100
93.309400 0.850200
93.430700 0.862100
93.552000 0.844500
93.673300 0.845800
93.794700 0.858000
93.916000 0.854200
94.037300 0.876300
94.158600 0.878400
94.280000 0.876200
94.401300 0.867200
94.522600 0.867600
94.643900 0.847700
94.765300 0.895200
94.886600 0.888700
95.007900 0.892500
95.129200 0.872800
95.250600 0.894600
95.371900 0.851900
95.493200 0.841800
95.614500 0.830100
95.735900 0.815600
95.857200 0.783800
95.978500 0.779500
96.099800 0.781900
96.221200 0.801600
96.342500 0.852100
96.463800 0.883900
96.585100 0.917900
96.706500 0.974900
96.827800 0.937900
96.949100 0.884900
97.070400 0.833000
97.191800 0.796300
97.313100 0.767400
97.434400 0.739000
97.555700 0.729200
97.677100 0.730300
97.798400 0.748400
97.919700 0.777600
98.041000 0.841600
98.162400 0.872600
98.283700 0.884400
98.405000 0.903100
98.526300 0.902200
