set title 'mp-1060567 - Density of States'
set xlabel 'Energy (eV)'
set ylabel 'DOS (states/eV)'
set grid
set xrange [-10:10]
set yrange [0:76.950]
set xzeroaxis lt -1
set terminal png size 800,600
set output 'mp-1060567_dos_gnuplot.png'
plot '-' using 1:2 with lines title 'DOS'
-12.406100 0.000000
-12.389300 0.000000
-12.372500 0.000000
-12.355700 0.000000
-12.338900 0.000000
-12.322200 0.000000
-12.305400 0.000000
-12.288600 0.000000
-12.271800 0.000000
-12.255000 0.000000
-12.238200 0.000000
-12.221400 0.000000
-12.204700 0.000000
-12.187900 0.000000
-12.171100 0.000000
-12.154300 0.000000
-12.137500 0.000000
-12.120700 0.000000
-12.103900 0.000000
-12.087200 0.000000
-12.070400 0.000000
-12.053600 0.000000
-12.036800 0.000000
-12.020000 0.000000
-12.003200 0.000000
-11.986400 0.000000
-11.969700 0.000000
-11.952900 0.000000
-11.936100 0.000000
-11.919300 0.000000
-11.902500 0.000000
-11.885700 0.000000
-11.868900 0.000000
-11.852200 0.000000
-11.835400 0.000000
-11.818600 0.000000
-11.801800 0.000000
-11.785000 0.000000
-11.768200 0.000000
-11.751400 0.000000
-11.734700 0.000000
-11.717900 0.000000
-11.701100 0.000000
-11.684300 0.000000
-11.667500 0.000000
-11.650700 0.000000
-11.633900 0.000000
-11.617200 0.000000
-11.600400 0.000000
-11.583600 0.000000
-11.566800 0.000000
-11.550000 0.000000
-11.533200 0.000000
-11.516400 0.000000
-11.499600 0.000000
-11.482900 0.000000
-11.466100 0.000000
-11.449300 0.000000
-11.432500 0.000000
-11.415700 0.000000
-11.398900 0.000000
-11.382100 0.000000
-11.365400 0.000000
-11.348600 0.000000
-11.331800 0.000000
-11.315000 0.000000
-11.298200 0.000000
-11.281400 0.000000
-11.264600 0.000000
-11.247900 0.000000
-11.231100 0.000000
-11.214300 0.000000
-11.197500 0.000000
-11.180700 0.000000
-11.163900 0.000000
-11.147100 0.000000
-11.130400 0.000000
-11.113600 0.000000
-11.096800 0.000000
-11.080000 0.000000
-11.063200 0.000000
-11.046400 0.000000
-11.029600 0.000000
-11.012900 0.000000
-10.996100 0.000000
-10.979300 0.000000
-10.962500 0.000000
-10.945700 0.000000
-10.928900 0.000000
-10.912100 0.000000
-10.895400 0.000000
-10.878600 0.000000
-10.861800 0.000000
-10.845000 0.000000
-10.828200 0.000000
-10.811400 0.000000
-10.794600 0.000000
-10.777900 0.000000
-10.761100 0.000000
-10.744300 0.000000
-10.727500 0.000000
-10.710700 0.971800
-10.693900 0.971800
-10.677100 0.971800
-10.660400 0.971800
-10.643600 0.971800
-10.626800 0.971800
-10.610000 0.971800
-10.593200 0.971800
-10.576400 0.971800
-10.559600 0.971800
-10.542900 0.971800
-10.526100 0.971800
-10.509300 0.328500
-10.492500 0.328500
-10.475700 0.328500
-10.458900 0.328500
-10.442100 0.328500
-10.425300 0.328500
-10.408600 0.328500
-10.391800 0.328500
-10.375000 0.328500
-10.358200 0.328500
-10.341400 0.328500
-10.324600 0.328500
-10.307800 0.328500
-10.291100 0.328500
-10.274300 0.328500
-10.257500 0.328500
-10.240700 0.328500
-10.223900 0.328500
-10.207100 0.328500
-10.190300 0.328500
-10.173600 0.328500
-10.156800 0.328500
-10.140000 0.328500
-10.123200 0.328500
-10.106400 0.328500
-10.089600 0.328500
-10.072800 0.328500
-10.056100 0.328500
-10.039300 0.328500
-10.022500 0.328500
-10.005700 0.328500
-9.988900 0.328500
-9.972100 0.328500
-9.955300 0.328500
-9.938600 0.202900
-9.921800 0.202900
-9.905000 0.202900
-9.888200 0.202900
-9.871400 0.202900
-9.854600 0.202900
-9.837800 0.202900
-9.821100 0.202900
-9.804300 0.202900
-9.787500 0.202900
-9.770700 0.202900
-9.753900 0.202900
-9.737100 0.202900
-9.720300 0.202900
-9.703600 0.202900
-9.686800 0.202900
-9.670000 0.202900
-9.653200 0.202900
-9.636400 0.202900
-9.619600 0.202900
-9.602800 0.202900
-9.586100 0.202900
-9.569300 0.202900
-9.552500 0.202900
-9.535700 0.202900
-9.518900 0.202900
-9.502100 0.202900
-9.485300 0.202900
-9.468500 0.202900
-9.451800 0.202900
-9.435000 0.202900
-9.418200 0.202900
-9.401400 0.202900
-9.384600 0.202900
-9.367800 0.202900
-9.351000 0.202900
-9.334300 0.202900
-9.317500 0.202900
-9.300700 0.202900
-9.283900 0.202900
-9.267100 0.202900
-9.250300 0.202900
-9.233500 0.202900
-9.216800 0.202900
-9.200000 0.202900
-9.183200 0.202900
-9.166400 0.202900
-9.149600 0.202900
-9.132800 0.202900
-9.116000 0.202900
-9.099300 0.202900
-9.082500 0.202900
-9.065700 0.202900
-9.048900 0.202900
-9.032100 0.202900
-9.015300 0.202900
-8.998500 0.151700
-8.981800 0.151700
-8.965000 0.151700
-8.948200 0.151700
-8.931400 0.151700
-8.914600 0.151700
-8.897800 0.151700
-8.881000 0.151700
-8.864300 0.151700
-8.847500 0.151700
-8.830700 0.151700
-8.813900 0.151700
-8.797100 0.151700
-8.780300 0.151700
-8.763500 0.151700
-8.746800 0.151700
-8.730000 0.151700
-8.713200 0.151700
-8.696400 0.151700
-8.679600 0.151700
-8.662800 0.151700
-8.646000 0.151700
-8.629300 0.151700
-8.612500 0.151700
-8.595700 0.151700
-8.578900 0.151700
-8.562100 0.151700
-8.545300 0.151700
-8.528500 0.151700
-8.511800 0.151700
-8.495000 0.151700
-8.478200 0.151700
-8.461400 0.151700
-8.444600 0.151700
-8.427800 0.151700
-8.411000 0.151700
-8.394200 0.151700
-8.377500 0.151700
-8.360700 0.151700
-8.343900 0.151700
-8.327100 0.151700
-8.310300 0.151700
-8.293500 0.151700
-8.276700 0.151700
-8.260000 0.151700
-8.243200 0.151700
-8.226400 0.151700
-8.209600 0.151700
-8.192800 0.151700
-8.176000 0.151700
-8.159200 0.151700
-8.142500 0.151700
-8.125700 0.151700
-8.108900 0.151700
-8.092100 0.151700
-8.075300 0.151700
-8.058500 0.151700
-8.041700 0.151700
-8.025000 0.151700
-8.008200 0.151700
-7.991400 0.151700
-7.974600 0.151700
-7.957800 0.151700
-7.941000 0.151700
-7.924200 0.151700
-7.907500 0.151700
-7.890700 0.151700
-7.873900 0.151700
-7.857100 0.151700
-7.840300 0.151700
-7.823500 69.954500
-7.806700 2.290300
-7.790000 2.290300
-7.773200 2.290300
-7.756400 2.290300
-7.739600 2.265300
-7.722800 2.265300
-7.706000 2.265300
-7.689200 2.265300
-7.672500 2.265300
-7.655700 2.265300
-7.638900 1.211100
-7.622100 1.211100
-7.605300 1.211100
-7.588500 1.211100
-7.571700 1.211100
-7.555000 1.211100
-7.538200 1.211100
-7.521400 1.211100
-7.504600 1.211100
-7.487800 1.211100
-7.471000 1.211100
-7.454200 1.211100
-7.437400 1.211100
-7.420700 1.211100
-7.403900 1.211100
-7.387100 1.211100
-7.370300 1.211100
-7.353500 1.211100
-7.336700 1.211100
-7.319900 1.211100
-7.303200 1.211100
-7.286400 0.867500
-7.269600 0.867500
-7.252800 0.867500
-7.236000 0.867500
-7.219200 0.867500
-7.202400 0.867500
-7.185700 0.867500
-7.168900 0.867500
-7.152100 0.867500
-7.135300 0.867500
-7.118500 0.867500
-7.101700 0.867500
-7.084900 0.867500
-7.068200 0.867500
-7.051400 0.867500
-7.034600 0.867500
-7.017800 0.867500
-7.001000 0.867500
-6.984200 0.867500
-6.967400 0.867500
-6.950700 0.867500
-6.933900 0.867500
-6.917100 0.867500
-6.900300 0.867500
-6.883500 0.867500
-6.866700 0.867500
-6.849900 0.867500
-6.833200 0.867500
-6.816400 0.867500
-6.799600 0.867500
-6.782800 0.867500
-6.766000 0.702900
-6.749200 0.702900
-6.732400 0.702900
-6.715700 0.702900
-6.698900 0.702900
-6.682100 0.702900
-6.665300 0.702900
-6.648500 0.702900
-6.631700 0.702900
-6.614900 0.702900
-6.598200 0.702900
-6.581400 0.702900
-6.564600 0.702900
-6.547800 0.702900
-6.531000 0.702900
-6.514200 0.702900
-6.497400 0.702900
-6.480700 0.702900
-6.463900 0.702900
-6.447100 0.702900
-6.430300 0.702900
-6.413500 0.702900
-6.396700 0.702900
-6.379900 0.702900
-6.363100 0.702900
-6.346400 0.702900
-6.329600 0.702900
-6.312800 0.702900
-6.296000 0.702900
-6.279200 0.702900
-6.262400 0.702900
-6.245600 0.702900
-6.228900 2.112500
-6.212100 2.112500
-6.195300 2.112500
-6.178500 2.112500
-6.161700 2.112500
-6.144900 2.112500
-6.128100 2.112500
-6.111400 0.243600
-6.094600 0.243600
-6.077800 0.243600
-6.061000 0.243600
-6.044200 0.243600
-6.027400 0.243600
-6.010600 0.243600
-5.993900 0.243600
-5.977100 0.243600
-5.960300 0.243600
-5.943500 0.243600
-5.926700 0.243600
-5.909900 0.243600
-5.893100 0.243600
-5.876400 0.243600
-5.859600 0.243600
-5.842800 0.243600
-5.826000 0.243600
-5.809200 0.243600
-5.792400 0.243600
-5.775600 0.243600
-5.758900 0.243600
-5.742100 0.243600
-5.725300 0.243600
-5.708500 0.243600
-5.691700 0.243600
-5.674900 0.243600
-5.658100 0.243600
-5.641400 0.243600
-5.624600 0.243600
-5.607800 0.243600
-5.591000 0.243600
-5.574200 0.243600
-5.557400 0.243600
-5.540600 0.243600
-5.523900 0.243600
-5.507100 0.243600
-5.490300 0.243600
-5.473500 0.243600
-5.456700 0.555700
-5.439900 1.194400
-5.423100 2.090900
-5.406400 2.718400
-5.389600 3.314900
-5.372800 2.751800
-5.356000 2.225300
-5.339200 1.535200
-5.322400 2.009800
-5.305600 2.009800
-5.288800 2.009900
-5.272100 2.009900
-5.255300 1.988400
-5.238500 1.908500
-5.221700 1.786300
-5.204900 1.683500
-5.188100 1.541700
-5.171300 1.522200
-5.154600 1.522200
-5.137800 1.522200
-5.121000 1.522200
-5.104200 1.522200
-5.087400 1.522200
-5.070600 1.522200
-5.053800 1.522200
-5.037100 1.522200
-5.020300 1.522200
-5.003500 1.516300
-4.986700 1.482000
-4.969900 1.429200
-4.953100 1.384600
-4.936300 1.323200
-4.919600 1.316200
-4.902800 1.316200
-4.886000 1.316200
-4.869200 1.316200
-4.852400 1.316200
-4.835600 1.316200
-4.818800 1.316200
-4.802100 1.316200
-4.785300 13.598300
-4.768500 12.506700
-4.751700 5.547500
-4.734900 5.547600
-4.718100 5.547600
-4.701300 5.547600
-4.684600 5.547700
-4.667800 4.280500
-4.651000 3.808100
-4.634200 3.645400
-4.617400 3.429500
-4.600600 3.221800
-4.583800 3.048500
-4.567100 3.048500
-4.550300 3.048600
-4.533500 3.395100
-4.516700 5.641100
-4.499900 5.640800
-4.483100 5.640500
-4.466300 5.640300
-4.449600 1.293500
-4.432800 0.879700
-4.416000 0.879600
-4.399200 0.879600
-4.382400 0.879500
-4.365600 0.879400
-4.348800 0.879400
-4.332000 3.062700
-4.315300 3.062600
-4.298500 3.062600
-4.281700 3.062500
-4.264900 3.062400
-4.248100 3.062400
-4.231300 3.062300
-4.214500 3.062200
-4.197800 3.040100
-4.181000 3.014700
-4.164200 3.009200
-4.147400 3.022200
-4.130600 3.026200
-4.113800 2.779000
-4.097000 2.443700
-4.080300 2.443800
-4.063500 2.443800
-4.046700 2.443900
-4.029900 2.443900
-4.013100 2.444000
-3.996300 2.444000
-3.979500 2.444100
-3.962800 2.444100
-3.946000 2.444200
-3.929200 2.444200
-3.912400 2.444300
-3.895600 2.444300
-3.878800 2.573700
-3.862000 2.435700
-3.845300 2.435700
-3.828500 2.435700
-3.811700 2.435700
-3.794900 2.435700
-3.778100 2.435700
-3.761300 2.435700
-3.744500 2.435600
-3.727800 2.435600
-3.711000 2.435600
-3.694200 2.435600
-3.677400 2.435600
-3.660600 2.435600
-3.643800 3.311800
-3.627000 3.311700
-3.610300 3.311700
-3.593500 3.309900
-3.576700 3.177400
-3.559900 2.926100
-3.543100 2.877400
-3.526300 2.800000
-3.509500 2.772300
-3.492800 2.772300
-3.476000 2.772300
-3.459200 2.772300
-3.442400 3.407100
-3.425600 3.407100
-3.408800 3.407200
-3.392000 3.407200
-3.375300 3.407200
-3.358500 3.407200
-3.341700 3.407200
-3.324900 3.407200
-3.308100 3.407200
-3.291300 5.445300
-3.274500 5.577300
-3.257700 5.577300
-3.241000 5.577300
-3.224200 5.577300
-3.207400 0.900700
-3.190600 0.900700
-3.173800 0.900700
-3.157000 0.900700
-3.140200 0.900700
-3.123500 0.900700
-3.106700 0.900700
-3.089900 0.900700
-3.073100 0.900700
-3.056300 0.900700
-3.039500 0.900700
-3.022700 0.900700
-3.006000 0.970600
-2.989200 1.048000
-2.972400 1.048000
-2.955600 1.048000
-2.938800 1.048000
-2.922000 1.048000
-2.905200 1.048000
-2.888500 1.048000
-2.871700 1.048000
-2.854900 1.048000
-2.838100 1.048000
-2.821300 1.048000
-2.804500 1.048000
-2.787700 1.048000
-2.771000 1.048000
-2.754200 1.048000
-2.737400 1.048000
-2.720600 1.048000
-2.703800 1.048000
-2.687000 1.048000
-2.670200 1.048000
-2.653500 1.048000
-2.636700 1.048000
-2.619900 1.060400
-2.603100 1.464800
-2.586300 1.479200
-2.569500 1.486200
-2.552700 1.486200
-2.536000 1.486200
-2.519200 1.486200
-2.502400 1.486200
-2.485600 1.486200
-2.468800 1.486200
-2.452000 1.486200
-2.435200 1.486200
-2.418500 1.486200
-2.401700 3.792100
-2.384900 0.605300
-2.368100 0.605300
-2.351300 0.605300
-2.334500 0.601700
-2.317700 0.587700
-2.300900 0.571800
-2.284200 0.564300
-2.267400 0.564300
-2.250600 0.564300
-2.233800 0.564300
-2.217000 0.564300
-2.200200 0.564300
-2.183400 0.564300
-2.166700 0.564300
-2.149900 0.564300
-2.133100 0.564300
-2.116300 0.564300
-2.099500 0.564300
-2.082700 0.564300
-2.065900 0.564300
-2.049200 0.564300
-2.032400 0.564300
-2.015600 0.564300
-1.998800 0.564300
-1.982000 0.564300
-1.965200 0.564300
-1.948400 0.564300
-1.931700 0.564300
-1.914900 0.564300
-1.898100 0.564300
-1.881300 0.564300
-1.864500 0.564300
-1.847700 0.564300
-1.830900 0.564300
-1.814200 0.564300
-1.797400 0.571600
-1.780600 0.632200
-1.763800 0.678800
-1.747000 0.740100
-1.730200 0.852400
-1.713400 0.865800
-1.696700 0.865800
-1.679900 0.865800
-1.663100 0.865800
-1.646300 0.865800
-1.629500 0.865800
-1.612700 0.865800
-1.595900 0.865900
-1.579200 0.865900
-1.562400 0.865900
-1.545600 0.865900
-1.528800 0.865900
-1.512000 0.865900
-1.495200 0.865900
-1.478400 0.865900
-1.461700 0.865900
-1.444900 0.865900
-1.428100 0.865900
-1.411300 0.866000
-1.394500 0.866000
-1.377700 0.866000
-1.360900 0.866000
-1.344200 0.866000
-1.327400 0.866000
-1.310600 0.866000
-1.293800 0.866000
-1.277000 0.866000
-1.260200 0.866000
-1.243400 0.112200
-1.226600 0.112200
-1.209900 0.112200
-1.193100 0.112200
-1.176300 0.112200
-1.159500 0.112200
-1.142700 0.112200
-1.125900 0.112200
-1.109100 0.112200
-1.092400 0.112200
-1.075600 0.112200
-1.058800 0.112200
-1.042000 0.112200
-1.025200 0.112200
-1.008400 0.112200
-0.991600 0.112200
-0.974900 0.112200
-0.958100 0.112200
-0.941300 0.112200
-0.924500 0.112200
-0.907700 0.112200
-0.890900 0.112200
-0.874100 0.112700
-0.857400 0.116500
-0.840600 0.124300
-0.823800 0.145600
-0.807000 0.179400
-0.790200 0.221300
-0.773400 0.273300
-0.756600 0.305100
-0.739900 0.321500
-0.723100 0.339500
-0.706300 0.361300
-0.689500 0.385700
-0.672700 0.409100
-0.655900 0.428000
-0.639100 0.443900
-0.622400 0.462600
-0.605600 0.482200
-0.588800 0.501500
-0.572000 0.519900
-0.555200 0.542100
-0.538400 0.560800
-0.521600 0.577400
-0.504900 0.594200
-0.488100 0.611200
-0.471300 0.628300
-0.454500 0.645300
-0.437700 0.663700
-0.420900 0.680800
-0.404100 0.695000
-0.387400 0.708200
-0.370600 0.720600
-0.353800 0.737000
-0.337000 0.759100
-0.320200 0.778900
-0.303400 0.797400
-0.286600 0.817400
-0.269800 0.840600
-0.253100 0.867400
-0.236300 0.904000
-0.219500 0.937300
-0.202700 0.964700
-0.185900 0.979600
-0.169100 0.989600
-0.152300 0.995800
-0.135600 0.998900
-0.118800 0.996100
-0.102000 0.991100
-0.085200 0.986000
-0.068400 0.980900
-0.051600 0.974900
-0.034800 0.968800
-0.018100 0.962400
-0.001300 0.955600
0.015500 0.948500
0.032300 0.940900
0.049100 0.932100
0.065900 0.923600
0.082700 0.915100
0.099400 0.905700
0.116200 0.895400
0.133000 0.883500
0.149800 0.866900
0.166600 0.854100
0.183400 0.843900
0.200200 0.837000
0.216900 0.831400
0.233700 0.827100
0.250500 0.824400
0.267300 0.823800
0.284100 0.823700
0.300900 0.823600
0.317700 0.823500
0.334400 0.823400
0.351200 0.823300
0.368000 0.823200
0.384800 0.823200
0.401600 0.823200
0.418400 0.823200
0.435200 0.823200
0.451900 0.823200
0.468700 0.823100
0.485500 0.823100
0.502300 0.823100
0.519100 0.822900
0.535900 0.822600
0.552700 0.821900
0.569400 0.820200
0.586200 0.818000
0.603000 0.815200
0.619800 0.812200
0.636600 0.809300
0.653400 0.807200
0.670200 0.805600
0.686900 0.804200
0.703700 0.802700
0.720500 0.801000
0.737300 0.799200
0.754100 0.797400
0.770900 0.796000
0.787700 0.795000
0.804500 0.794000
0.821200 0.793100
0.838000 0.792200
0.854800 0.791300
0.871600 0.790500
0.888400 0.792500
0.905200 0.805800
0.922000 0.826000
0.938700 0.847900
0.955500 0.857800
0.972300 0.857200
0.989100 0.856700
1.005900 0.856100
1.022700 0.855600
1.039500 0.855100
1.056200 0.854500
1.073000 0.853900
1.089800 0.853000
1.106600 0.851300
1.123400 0.848800
1.140200 0.845600
1.157000 0.841900
1.173700 0.838200
1.190500 0.834400
1.207300 0.831500
1.224100 0.829200
1.240900 0.827100
1.257700 0.825100
1.274500 0.822900
1.291200 0.820600
1.308000 0.818200
1.324800 0.815700
1.341600 0.814000
1.358400 0.812400
1.375200 0.810800
1.392000 0.809400
1.408700 0.808100
1.425500 0.806900
1.442300 0.805700
1.459100 0.804400
1.475900 0.803200
1.492700 0.801900
1.509500 0.800700
1.526200 0.799800
1.543000 0.799000
1.559800 0.798200
1.576600 0.797400
1.593400 0.796700
1.610200 0.795900
1.627000 0.795100
1.643700 0.794300
1.660500 0.793500
1.677300 0.792700
1.694100 0.792000
1.710900 0.791100
1.727700 0.789900
1.744500 0.788000
1.761200 0.785400
1.778000 0.782300
1.794800 0.778900
1.811600 0.775300
1.828400 0.771600
1.845200 0.768600
1.862000 1.753700
1.878800 1.968400
1.895500 1.943500
1.912300 2.500300
1.929100 0.575100
1.945900 0.577700
1.962700 0.580600
1.979500 0.584600
1.996300 0.589200
2.013000 0.594300
2.029800 0.600000
2.046600 0.606200
2.063400 0.612800
2.080200 0.619700
2.097000 0.626700
2.113800 0.633800
2.130500 0.640600
2.147300 0.646800
2.164100 0.652300
2.180900 0.657400
2.197700 0.662100
2.214500 0.666200
2.231300 0.670300
2.248000 0.674300
2.264800 0.678200
2.281600 0.682200
2.298400 0.686200
2.315200 0.690800
2.332000 0.695800
2.348800 0.701300
2.365500 0.707300
2.382300 0.713700
2.399100 0.720200
2.415900 0.726900
2.432700 0.733900
2.449500 0.741200
2.466300 0.749100
2.483000 0.756900
2.499800 0.764800
2.516600 0.772800
2.533400 0.780900
2.550200 0.789300
2.567000 0.798000
2.583800 0.807600
2.600500 0.818000
2.617300 0.832200
2.634100 0.912600
2.650900 1.010800
2.667700 1.100900
2.684500 1.177300
2.701300 1.196600
2.718000 1.192200
2.734800 1.180600
2.751600 1.167800
2.768400 1.158100
2.785200 1.151200
2.802000 1.146800
2.818800 1.144500
2.835600 1.143000
2.852300 1.140300
2.869100 1.138100
2.885900 1.136200
2.902700 1.132000
2.919500 1.133500
2.936300 1.146200
2.953100 1.167400
2.969800 1.201200
2.986600 1.243900
3.003400 1.255300
3.020200 1.242900
3.037000 1.215000
3.053800 1.184200
3.070600 1.152600
3.087300 1.125400
3.104100 1.102800
3.120900 1.089900
3.137700 1.079700
3.154500 1.069100
3.171300 1.058000
3.188100 1.046200
3.204800 1.033500
3.221600 1.018900
3.238400 1.003200
3.255200 0.988900
3.272000 0.976100
3.288800 0.965100
3.305600 0.967000
3.322300 0.981900
3.339100 1.000800
3.355900 1.023900
3.372700 1.051700
3.389500 1.075200
3.406300 1.098800
3.423100 1.124400
3.439800 1.151100
3.456600 1.178400
3.473400 1.206200
3.490200 1.234800
3.507000 1.264900
3.523800 1.296700
3.540600 1.329900
3.557300 1.362300
3.574100 1.392200
3.590900 1.419000
3.607700 1.440100
3.624500 1.446700
3.641300 1.441300
3.658100 1.419400
3.674800 1.394400
3.691600 1.370900
3.708400 1.351200
3.725200 1.337100
3.742000 1.330300
3.758800 1.329000
3.775600 1.331900
3.792300 1.337600
3.809100 1.344200
3.825900 1.351700
3.842700 1.360100
3.859500 1.369400
3.876300 1.379500
3.893100 1.391600
3.909900 1.405300
3.926600 1.420100
3.943400 1.433000
3.960200 1.442400
3.977000 1.446800
3.993800 1.447000
4.010600 1.445900
4.027400 1.443400
4.044100 1.439000
4.060900 1.432200
4.077700 1.421600
4.094500 1.407500
4.111300 1.389900
4.128100 1.367400
4.144900 1.343900
4.161600 1.324600
4.178400 1.309600
4.195200 1.298900
4.212000 1.290200
4.228800 1.283900
4.245600 1.280900
4.262400 1.281900
4.279100 1.305100
4.295900 1.346000
4.312700 1.378700
4.329500 1.403200
4.346300 1.421000
4.363100 1.428000
4.379900 1.432700
4.396600 1.434700
4.413400 1.433900
4.430200 1.430000
4.447000 1.422000
4.463800 1.413600
4.480600 1.405000
4.497400 1.398500
4.514100 1.395600
4.530900 1.396000
4.547700 1.396100
4.564500 1.396300
4.581300 1.396400
4.598100 1.396600
4.614900 1.396900
4.631600 1.398400
4.648400 1.400200
4.665200 1.401800
4.682000 1.403100
4.698800 1.404100
4.715600 1.404900
4.732400 1.405700
4.749100 1.408300
4.765900 1.415600
4.782700 1.423200
4.799500 1.427100
4.816300 1.431000
4.833100 1.434700
4.849900 1.435900
4.866700 1.438800
4.883400 1.441000
4.900200 1.443300
4.917000 1.446900
4.933800 1.452000
4.950600 1.459200
4.967400 1.468200
4.984200 1.477600
5.000900 1.487400
5.017700 1.497500
5.034500 1.507800
5.051300 1.518400
5.068100 1.528400
5.084900 1.538900
5.101700 1.550900
5.118400 1.564100
5.135200 1.579000
