set title 'mp-1183993 - Density of States'
set xlabel 'Energy (eV)'
set ylabel 'DOS (states/eV)'
set grid
set xrange [-10:10]
set yrange [0:1.395]
set xzeroaxis lt -1
set terminal png size 800,600
set output 'mp-1183993_dos_gnuplot.png'
plot '-' using 1:2 with lines title 'DOS'
-16.725700 0.000000
-16.675500 0.000000
-16.625300 0.000000
-16.575100 0.000000
-16.524900 0.000000
-16.474600 0.000000
-16.424400 0.000000
-16.374200 0.000000
-16.324000 0.000000
-16.273800 0.000000
-16.223500 0.000000
-16.173300 0.000000
-16.123100 0.000000
-16.072900 0.000000
-16.022700 0.000000
-15.972400 0.000000
-15.922200 0.000000
-15.872000 0.000000
-15.821800 0.000000
-15.771600 0.000000
-15.721300 0.000000
-15.671100 0.000000
-15.620900 0.000000
-15.570700 0.000000
-15.520400 0.000000
-15.470200 0.000000
-15.420000 0.000000
-15.369800 0.000000
-15.319600 0.000000
-15.269300 0.000000
-15.219100 0.000000
-15.168900 0.000000
-15.118700 0.000000
-15.068500 0.000000
-15.018200 0.000000
-14.968000 0.000000
-14.917800 0.000000
-14.867600 0.000000
-14.817400 0.000000
-14.767100 0.000000
-14.716900 0.000000
-14.666700 0.000000
-14.616500 0.000000
-14.566300 0.000000
-14.516000 0.000000
-14.465800 0.000000
-14.415600 0.000000
-14.365400 0.000000
-14.315200 0.000000
-14.264900 0.000000
-14.214700 0.000000
-14.164500 0.000000
-14.114300 0.000000
-14.064100 0.000000
-14.013800 0.000000
-13.963600 0.000000
-13.913400 0.000000
-13.863200 0.000000
-13.813000 0.000000
-13.762700 0.000000
-13.712500 0.000000
-13.662300 0.000000
-13.612100 0.000000
-13.561900 0.000000
-13.511600 0.000000
-13.461400 0.000000
-13.411200 0.000000
-13.361000 0.000000
-13.310800 0.000000
-13.260500 0.000000
-13.210300 0.000000
-13.160100 0.000000
-13.109900 0.000000
-13.059600 0.000000
-13.009400 0.000000
-12.959200 0.000000
-12.909000 0.000000
-12.858800 0.000000
-12.808500 0.000000
-12.758300 0.000000
-12.708100 0.000000
-12.657900 0.000000
-12.607700 0.000000
-12.557400 0.000000
-12.507200 0.000000
-12.457000 0.000000
-12.406800 0.000000
-12.356600 0.000000
-12.306300 0.000000
-12.256100 0.001800
-12.205900 0.089700
-12.155700 1.044600
-12.105500 4.066200
-12.055200 8.646900
-12.005000 15.783300
-11.954800 26.034200
-11.904600 30.116700
-11.854400 31.288400
-11.804100 37.000900
-11.753900 30.039400
-11.703700 11.399700
-11.653500 2.902700
-11.603300 0.652900
-11.553000 0.054000
-11.502800 0.001000
-11.452600 0.000000
-11.402400 0.000000
-11.352200 0.000000
-11.301900 0.000000
-11.251700 0.000000
-11.201500 0.000000
-11.151300 0.000000
-11.101100 0.000000
-11.050800 0.000000
-11.000600 0.000000
-10.950400 0.000000
-10.900200 0.000000
-10.850000 0.000000
-10.799700 0.000000
-10.749500 0.000000
-10.699300 0.000000
-10.649100 0.000000
-10.598800 0.000000
-10.548600 0.000000
-10.498400 0.000000
-10.448200 0.000000
-10.398000 0.000000
-10.347700 0.000000
-10.297500 0.000000
-10.247300 0.000000
-10.197100 0.000000
-10.146900 0.000000
-10.096600 0.000000
-10.046400 0.000000
-9.996200 0.000000
-9.946000 0.000000
-9.895800 0.000000
-9.845500 0.001200
-9.795300 0.009500
-9.745100 0.026100
-9.694900 0.058900
-9.644700 0.090700
-9.594400 0.049200
-9.544200 0.064100
-9.494000 0.130300
-9.443800 0.124000
-9.393600 0.146500
-9.343300 0.103200
-9.293100 0.065400
-9.242900 0.129900
-9.192700 0.191200
-9.142500 0.152900
-9.092200 0.177000
-9.042000 0.110600
-8.991800 0.122600
-8.941600 0.243400
-8.891400 0.197900
-8.841100 0.201200
-8.790900 0.169000
-8.740700 0.112200
-8.690500 0.134200
-8.640300 0.196200
-8.590000 0.192900
-8.539800 0.316200
-8.489600 0.209300
-8.439400 0.126500
-8.389200 0.353100
-8.338900 0.358000
-8.288700 0.187000
-8.238500 0.135300
-8.188300 0.072000
-8.138000 0.094300
-8.087800 0.202700
-8.037600 0.319900
-7.987400 0.458000
-7.937200 0.394900
-7.886900 0.144800
-7.836700 0.219300
-7.786500 0.290600
-7.736300 0.268800
-7.686100 0.301500
-7.635800 0.172700
-7.585600 0.157000
-7.535400 0.315100
-7.485200 0.388000
-7.435000 0.281100
-7.384700 0.252100
-7.334500 0.190900
-7.284300 0.253500
-7.234100 0.435400
-7.183900 0.398600
-7.133600 0.351800
-7.083400 0.239500
-7.033200 0.168500
-6.983000 0.187800
-6.932800 0.295100
-6.882500 0.405400
-6.832300 0.528200
-6.782100 0.406000
-6.731900 0.252100
-6.681700 0.400300
-6.631400 0.486300
-6.581200 0.373500
-6.531000 0.243000
-6.480800 0.094400
-6.430600 0.082400
-6.380300 0.311500
-6.330100 0.429500
-6.279900 0.524300
-6.229700 0.471000
-6.179500 0.266100
-6.129200 0.386800
-6.079000 0.526400
-6.028800 0.383900
-5.978600 0.376700
-5.928400 0.295600
-5.878100 0.259600
-5.827900 0.384600
-5.777700 0.397400
-5.727500 0.374900
-5.677200 0.316400
-5.627000 0.270500
-5.576800 0.338600
-5.526600 0.370700
-5.476400 0.350600
-5.426100 0.373100
-5.375900 0.317300
-5.325700 0.286900
-5.275500 0.319000
-5.225300 0.489500
-5.175000 0.575000
-5.124800 0.503800
-5.074600 0.360400
-5.024400 0.470700
-4.974200 0.623700
-4.923900 0.421100
-4.873700 0.210300
-4.823500 0.169900
-4.773300 0.339400
-4.723100 0.594400
-4.672800 0.617600
-4.622600 0.506000
-4.572400 0.495400
-4.522200 0.403900
-4.472000 0.442100
-4.421700 0.422000
-4.371500 0.229100
-4.321300 0.308900
-4.271100 0.406300
-4.220900 0.424000
-4.170600 0.459800
-4.120400 0.456600
-4.070200 0.463400
-4.020000 0.420000
-3.969800 0.299300
-3.919500 0.413400
-3.869300 0.552100
-3.819100 0.422700
-3.768900 0.254800
-3.718700 0.188000
-3.668400 0.307900
-3.618200 0.459000
-3.568000 0.505100
-3.517800 0.538200
-3.467600 0.526800
-3.417300 0.384400
-3.367100 0.444500
-3.316900 0.511900
-3.266700 0.424900
-3.216400 0.492400
-3.166200 0.521300
-3.116000 0.539200
-3.065800 0.580500
-3.015600 0.446000
-2.965300 0.480000
-2.915100 0.562900
-2.864900 0.541900
-2.814700 0.495900
-2.764500 0.290800
-2.714200 0.323000
-2.664000 0.499100
-2.613800 0.507700
-2.563600 0.389500
-2.513400 0.422400
-2.463100 0.626200
-2.412900 0.768300
-2.362700 0.700200
-2.312500 0.639000
-2.262300 0.608800
-2.212000 0.413400
-2.161800 0.416300
-2.111600 0.530300
-2.061400 0.654700
-2.011200 0.749000
-1.960900 0.521200
-1.910700 0.455400
-1.860500 0.609600
-1.810300 0.677400
-1.760100 0.686100
-1.709800 0.458900
-1.659600 0.260500
-1.609400 0.453200
-1.559200 0.725600
-1.509000 0.609100
-1.458700 0.552300
-1.408500 0.377400
-1.358300 0.485100
-1.308100 0.529800
-1.257900 0.643600
-1.207600 0.879600
-1.157400 0.836500
-1.107200 0.664400
-1.057000 0.509800
-1.006800 0.577800
-0.956500 0.559000
-0.906300 0.666700
-0.856100 0.667600
-0.805900 0.457300
-0.755600 0.662600
-0.705400 0.823900
-0.655200 0.618600
-0.605000 0.545500
-0.554800 0.571500
-0.504500 0.415900
-0.454300 0.318200
-0.404100 0.549600
-0.353900 0.719700
-0.303700 0.762900
-0.253400 0.706100
-0.203200 0.619300
-0.153000 0.626800
-0.102800 0.706800
-0.052600 0.525300
-0.002300 0.470700
0.047900 0.540000
0.098100 0.499200
0.148300 0.604300
0.198500 0.724200
0.248800 0.776600
0.299000 0.648600
0.349200 0.555800
0.399400 0.539000
0.449600 0.623900
0.499900 0.687000
0.550100 0.509800
0.600300 0.608900
0.650500 0.669300
0.700700 0.839900
0.751000 0.801600
0.801200 0.813200
0.851400 1.051900
0.901600 0.996000
0.951800 0.643400
1.002100 0.606800
1.052300 0.648900
1.102500 0.761800
1.152700 0.817600
1.202900 0.746000
1.253200 1.082600
1.303400 1.166400
1.353600 1.111100
1.403800 0.886000
1.454000 0.424400
1.504300 0.272100
1.554500 0.494400
1.604700 0.717100
1.654900 0.913200
1.705200 1.145700
1.755400 1.267800
1.805600 1.072800
1.855800 0.878100
1.906000 0.648900
1.956300 0.494100
2.006500 0.582000
2.056700 0.797100
2.106900 0.957000
2.157100 0.981200
2.207400 0.885700
2.257600 0.822500
2.307800 0.644500
2.358000 0.592400
2.408200 0.754200
2.458500 0.933800
2.508700 0.661500
2.558900 0.432900
2.609100 0.496500
2.659300 0.504000
2.709600 0.437000
2.759800 0.363800
2.810000 0.474100
2.860200 0.383200
2.910400 0.222800
2.960700 0.358400
3.010900 0.397600
3.061100 0.262500
3.111300 0.322800
3.161500 0.594100
3.211800 0.527700
3.262000 0.383000
3.312200 0.423300
3.362400 0.382700
3.412600 0.268700
3.462900 0.221500
3.513100 0.170200
3.563300 0.381300
3.613500 0.686700
3.663700 0.577800
3.714000 0.447600
3.764200 0.447300
3.814400 0.577700
3.864600 0.582800
3.914800 0.507200
3.965100 0.511000
4.015300 0.643200
4.065500 0.712400
4.115700 0.588600
4.166000 0.677600
4.216200 0.794400
4.266400 0.930400
4.316600 0.996000
4.366800 1.073100
4.417100 0.804100
4.467300 0.604600
4.517500 0.626400
4.567700 0.569700
4.617900 0.666800
4.668200 0.686900
4.718400 0.701100
4.768600 0.930000
4.818800 0.933700
4.869000 0.945500
4.919300 0.782600
4.969500 0.672700
5.019700 0.924300
5.069900 0.831300
5.120100 0.737100
5.170400 0.955400
5.220600 1.257000
5.270800 1.230700
5.321000 0.867600
5.371200 0.585800
5.421500 0.545600
5.471700 0.693800
5.521900 0.601500
5.572100 0.371100
5.622300 0.509700
5.672600 0.581200
5.722800 0.612200
5.773000 0.499900
5.823200 0.323900
5.873400 0.367200
5.923700 0.453000
5.973900 0.367200
6.024100 0.463600
6.074300 0.542200
6.124500 0.920700
6.174800 1.158600
6.225000 0.997700
6.275200 0.902800
6.325400 0.645800
6.375600 0.596500
6.425900 0.671900
6.476100 0.618200
6.526300 0.574100
6.576500 0.615600
6.626800 0.664000
6.677000 0.607300
6.727200 0.587900
6.777400 0.514900
6.827600 0.454900
6.877900 0.521900
6.928100 0.568600
6.978300 0.508400
7.028500 0.505400
7.078700 0.729000
7.129000 0.818300
7.179200 0.639400
7.229400 0.480800
7.279600 0.578200
7.329800 0.608700
7.380100 0.459100
7.430300 0.461500
7.480500 0.434900
7.530700 0.396700
7.580900 0.435800
7.631200 0.417500
7.681400 0.544000
7.731600 0.808100
7.781800 0.704700
7.832000 0.482100
7.882300 0.460800
7.932500 0.477500
7.982700 0.440700
8.032900 0.437500
8.083100 0.450400
8.133400 0.509300
8.183600 0.692000
8.233800 0.549700
8.284000 0.653600
8.334200 0.851800
8.384500 0.517200
8.434700 0.291200
8.484900 0.475400
8.535100 0.574000
8.585300 0.621200
8.635600 0.592300
8.685800 0.432000
8.736000 0.507700
8.786200 0.693800
8.836400 0.658900
8.886700 0.634700
8.936900 0.743100
8.987100 0.598900
9.037300 0.540700
9.087600 0.689300
9.137800 0.768700
9.188000 0.779500
9.238200 0.923800
9.288400 0.875100
9.338700 0.914700
9.388900 0.886000
9.439100 0.750900
9.489300 0.866300
9.539500 0.900300
9.589800 0.725700
9.640000 0.701300
9.690200 0.813200
9.740400 0.916800
9.790600 0.692200
9.840900 0.606100
9.891100 0.675300
9.941300 0.568500
9.991500 0.598900
10.041700 0.877100
10.092000 0.865700
10.142200 1.003000
10.192400 1.261900
10.242600 1.404300
10.292800 1.241400
10.343100 0.848000
10.393300 0.560200
10.443500 0.720400
10.493700 1.152600
10.543900 1.283200
10.594200 1.031900
10.644400 0.975400
10.694600 1.094100
10.744800 0.944800
10.795000 0.968300
10.845300 1.127900
10.895500 1.101100
10.945700 1.056700
10.995900 1.057900
11.046100 0.925700
11.096400 1.069200
11.146600 0.828200
11.196800 0.729100
11.247000 0.652300
11.297200 0.471700
11.347500 0.429700
11.397700 0.622900
11.447900 1.064600
11.498100 1.085400
11.548400 0.651900
11.598600 0.466400
11.648800 0.555500
11.699000 0.652300
11.749200 0.570400
11.799500 0.675900
11.849700 0.593300
11.899900 0.517800
11.950100 0.608600
12.000300 0.815300
12.050600 0.905100
12.100800 0.815600
12.151000 0.778900
12.201200 0.700900
12.251400 0.502900
12.301700 0.677800
12.351900 0.845200
12.402100 0.926900
12.452300 1.062500
12.502500 0.914300
12.552800 0.822400
12.603000 0.982100
12.653200 1.044300
12.703400 0.893500
12.753600 0.595800
12.803900 0.691400
12.854100 0.903000
12.904300 0.751900
12.954500 0.739200
13.004700 0.900400
13.055000 0.993300
13.105200 0.679300
13.155400 0.631600
13.205600 0.783300
13.255800 0.735200
13.306100 0.892600
13.356300 0.942700
13.406500 0.671700
13.456700 0.858000
13.506900 0.962200
13.557200 0.871600
13.607400 1.065800
13.657600 0.867800
13.707800 0.772400
13.758000 0.891100
13.808300 0.737300
13.858500 0.783700
13.908700 1.154800
13.958900 1.082500
14.009200 0.872200
14.059400 0.996100
14.109600 0.989700
14.159800 0.931900
14.210000 0.948800
14.260300 0.845700
14.310500 0.780300
14.360700 0.849400
14.410900 0.946500
14.461100 1.011000
14.511400 1.030800
14.561600 0.689600
14.611800 0.788100
14.662000 1.107800
14.712200 0.773600
14.762500 0.549400
14.812700 0.557100
14.862900 0.492700
14.913100 0.703600
14.963300 0.934200
15.013600 0.953500
15.063800 0.864900
15.114000 0.696500
15.164200 0.647400
15.214400 0.897800
15.264700 0.828800
15.314900 0.614800
15.365100 0.546800
15.415300 0.490600
15.465500 0.562100
15.515800 0.689100
15.566000 0.794000
15.616200 0.932800
15.666400 0.977700
15.716600 0.882700
15.766900 0.711600
15.817100 0.603800
15.867300 0.572300
15.917500 0.516600
15.967700 0.617000
16.018000 0.889100
16.068200 0.788000
16.118400 0.459400
16.168600 0.486800
16.218900 0.551900
16.269100 0.505100
16.319300 0.417900
16.369500 0.416900
16.419700 0.546400
16.470000 0.518300
16.520200 0.530200
16.570400 0.448000
16.620600 0.325800
16.670800 0.516200
16.721100 0.660200
16.771300 0.561800
16.821500 0.550600
16.871700 0.596000
16.921900 0.889700
16.972200 0.931900
17.022400 0.563100
17.072600 0.383000
17.122800 0.363900
17.173000 0.478100
17.223300 0.719700
17.273500 0.956200
17.323700 0.820200
17.373900 0.600300
17.424100 0.734300
17.474400 0.711500
17.524600 0.838000
17.574800 1.051300
17.625000 0.961000
17.675200 0.756400
17.725500 0.764600
17.775700 0.768800
17.825900 1.090100
17.876100 1.452800
17.926300 1.343300
17.976600 1.127600
18.026800 1.056400
18.077000 1.015700
18.127200 1.001500
18.177400 0.895700
18.227700 1.100800
18.277900 1.107200
18.328100 1.036900
18.378300 1.010700
18.428500 0.975400
18.478800 1.036300
18.529000 1.208400
18.579200 1.315400
18.629400 1.326300
18.679700 1.254400
18.729900 1.167600
18.780100 0.838000
18.830300 0.541700
18.880500 0.588000
18.930800 0.586700
18.981000 0.765000
19.031200 0.941500
19.081400 0.886900
19.131600 0.776700
19.181900 0.732200
19.232100 0.848900
19.282300 0.907500
19.332500 0.709000
19.382700 0.624900
19.433000 1.083400
19.483200 1.554000
19.533400 1.470600
19.583600 1.123700
19.633800 0.799900
19.684100 0.707200
19.734300 0.372400
19.784500 0.253300
19.834700 0.445800
19.884900 0.764100
19.935200 0.895500
19.985400 0.741400
20.035600 0.714600
20.085800 1.108300
20.136000 1.269900
20.186300 1.067300
20.236500 1.014700
20.286700 0.901700
20.336900 0.769500
20.387100 0.715800
20.437400 0.861600
20.487600 1.117900
20.537800 1.285000
20.588000 1.295000
20.638200 1.080000
20.688500 0.736300
20.738700 0.686900
20.788900 0.864000
20.839100 1.130000
20.889300 1.100200
20.939600 1.061800
20.989800 0.769400
21.040000 0.747100
21.090200 0.985700
21.140500 1.008500
21.190700 0.844800
21.240900 0.836800
21.291100 0.782500
21.341300 0.627800
21.391600 0.725900
21.441800 0.978500
21.492000 1.146400
21.542200 0.930500
21.592400 0.797000
21.642700 0.938500
21.692900 0.774300
21.743100 0.610300
21.793300 0.762400
21.843500 0.822300
21.893800 1.088700
21.944000 1.247400
21.994200 1.120800
22.044400 1.164500
22.094600 1.035500
22.144900 0.923300
22.195100 0.903000
22.245300 1.080900
22.295500 0.928300
22.345700 0.632200
22.396000 0.610700
22.446200 0.805900
22.496400 0.814200
22.546600 0.672300
22.596800 1.006800
22.647100 1.031200
22.697300 0.700200
22.747500 0.725900
22.797700 0.764000
22.847900 0.656200
22.898200 0.951400
22.948400 1.328600
22.998600 1.185000
23.048800 0.974300
23.099000 0.912200
23.149300 0.898200
23.199500 0.982900
23.249700 0.963300
23.299900 0.904100
23.350100 1.053400
23.400400 1.096800
23.450600 1.238000
23.500800 1.116900
23.551000 0.842700
23.601300 0.733200
23.651500 0.947600
23.701700 1.078200
23.751900 1.050900
23.802100 0.722700
23.852400 0.545300
23.902600 0.667200
23.952800 0.616900
24.003000 0.665600
24.053200 0.989900
24.103500 1.590000
24.153700 1.827200
24.203900 1.266600
24.254100 1.017800
24.304300 1.172600
24.354600 1.489500
24.404800 1.447700
24.455000 1.036200
24.505200 1.095700
24.555400 1.508800
24.605700 1.630900
24.655900 1.447400
24.706100 1.244900
24.756300 1.258900
24.806500 1.330300
24.856800 1.294500
24.907000 0.966000
24.957200 1.355100
25.007400 1.432400
25.057600 0.940600
25.107900 0.854800
25.158100 0.827500
25.208300 0.931000
25.258500 1.076500
25.308700 1.206200
25.359000 1.090000
25.409200 0.883700
25.459400 0.776800
25.509600 0.878300
25.559800 1.333000
25.610100 1.192100
25.660300 0.886900
25.710500 1.345400
25.760700 1.426900
25.810900 1.066700
25.861200 1.160200
25.911400 1.202500
25.961600 0.847600
26.011800 0.660800
26.062100 0.701500
26.112300 1.103400
26.162500 1.459700
26.212700 1.204900
26.262900 0.904600
26.313200 1.154100
26.363400 1.132900
26.413600 1.093300
26.463800 1.074400
26.514000 0.795600
26.564300 0.773100
26.614500 0.816100
26.664700 1.053000
26.714900 1.156600
26.765100 1.268100
26.815400 1.392900
26.865600 1.103600
26.915800 0.959100
26.966000 0.929500
27.016200 0.963200
27.066500 0.957800
27.116700 0.945800
27.166900 1.041900
27.217100 1.003400
27.267300 0.723500
27.317600 0.703800
27.367800 0.893600
27.418000 1.145500
27.468200 1.164000
27.518400 1.090700
27.568700 0.920600
27.618900 1.110800
27.669100 1.313700
27.719300 1.338000
27.769500 1.365900
27.819800 1.167400
27.870000 1.078700
27.920200 1.202600
27.970400 1.414300
28.020600 1.359900
28.070900 1.058200
28.121100 0.836200
28.171300 0.941500
28.221500 1.163500
28.271700 1.181600
28.322000 1.032900
28.372200 0.950500
28.422400 0.901800
28.472600 1.137100
28.522900 1.070900
28.573100 0.820700
28.623300 0.765600
28.673500 0.780000
28.723700 0.690100
28.774000 0.920700
28.824200 1.858300
28.874400 1.770200
28.924600 1.294000
28.974800 1.076200
29.025100 0.940400
29.075300 0.710200
29.125500 0.795900
29.175700 1.180500
29.225900 1.355300
29.276200 1.247900
29.326400 1.352500
29.376600 1.536000
29.426800 1.290700
29.477000 1.108700
29.527300 0.895200
29.577500 0.961000
29.627700 1.121400
29.677900 1.101200
29.728100 1.360300
29.778400 1.558600
29.828600 1.233300
29.878800 0.927500
29.929000 0.986300
29.979200 1.296000
30.029500 1.248300
30.079700 1.000500
30.129900 1.171500
30.180100 1.564700
30.230300 1.395900
30.280600 1.053600
30.330800 0.868100
30.381000 0.757400
30.431200 0.783200
30.481400 1.383900
30.531700 1.406200
30.581900 1.020100
30.632100 1.176800
30.682300 1.362700
30.732500 1.064200
30.782800 1.026900
30.833000 1.080400
30.883200 1.051600
30.933400 1.092400
30.983700 1.337400
31.033900 1.322200
31.084100 1.245800
31.134300 1.104200
31.184500 1.246600
31.234800 1.355700
31.285000 1.103300
31.335200 1.192300
31.385400 1.627000
31.435600 1.716300
31.485900 1.435200
31.536100 1.395600
31.586300 1.496500
31.636500 1.334400
31.686700 1.276200
31.737000 0.891100
31.787200 0.553700
31.837400 0.728500
31.887600 1.016200
31.937800 1.053900
31.988100 1.004800
32.038300 1.113200
32.088500 1.385200
32.138700 1.137200
32.188900 0.821600
32.239200 1.115900
32.289400 1.361500
32.339600 1.649400
32.389800 1.326600
32.440000 0.975000
32.490300 1.086100
32.540500 1.473600
32.590700 1.545200
32.640900 1.004000
32.691100 0.779800
32.741400 0.805300
32.791600 1.019200
32.841800 1.194900
32.892000 1.114500
32.942200 1.125700
32.992500 1.225400
33.042700 1.252200
33.092900 1.161000
33.143100 1.194400
33.193300 1.350700
33.243600 1.707500
33.293800 1.900300
33.344000 1.781100
33.394200 1.288400
33.444500 1.219000
33.494700 1.360000
33.544900 1.002900
33.595100 0.886200
33.645300 1.116800
33.695600 1.119700
33.745800 0.982600
33.796000 1.077800
33.846200 0.981000
33.896400 1.071700
33.946700 1.293400
33.996900 1.195400
34.047100 0.962200
34.097300 0.950700
34.147500 0.875900
34.197800 0.822900
34.248000 1.033500
34.298200 1.095000
34.348400 1.306700
34.398600 1.377400
34.448900 1.303700
34.499100 1.164000
34.549300 1.061300
34.599500 1.143700
34.649700 1.325500
34.700000 1.168800
34.750200 0.932100
34.800400 1.227400
34.850600 1.141800
34.900800 1.044000
34.951100 1.146100
35.001300 1.327700
35.051500 1.349100
35.101700 1.374300
35.151900 1.202100
35.202200 1.166700
35.252400 1.332100
35.302600 1.435900
35.352800 1.249200
35.403000 1.229100
35.453300 1.249000
35.503500 1.017400
