set title 'mp-1101783 - Density of States'
set xlabel 'Energy (eV)'
set ylabel 'DOS (states/eV)'
set grid
set xrange [-10:10]
set yrange [0:27.462]
set xzeroaxis lt -1
set terminal png size 800,600
set output 'mp-1101783_dos_gnuplot.png'
plot '-' using 1:2 with lines title 'DOS'
-7.270400 0.000000
-7.259000 0.000000
-7.247600 0.000000
-7.236200 0.000000
-7.224800 0.000000
-7.213400 0.000000
-7.202000 0.000000
-7.190600 0.000000
-7.179200 0.000000
-7.167900 0.000000
-7.156500 0.000000
-7.145100 0.000000
-7.133700 0.000000
-7.122300 0.000000
-7.110900 0.000000
-7.099500 0.000000
-7.088100 0.000000
-7.076700 0.000000
-7.065300 0.000000
-7.053900 0.000000
-7.042500 0.000000
-7.031100 0.000000
-7.019700 0.000000
-7.008400 0.000000
-6.997000 0.000000
-6.985600 0.000000
-6.974200 0.000000
-6.962800 0.000000
-6.951400 0.000000
-6.940000 0.000000
-6.928600 0.000000
-6.917200 0.000000
-6.905800 0.000000
-6.894400 0.000000
-6.883000 0.000000
-6.871600 0.000000
-6.860200 0.000000
-6.848800 0.000000
-6.837500 0.000000
-6.826100 0.000000
-6.814700 0.000000
-6.803300 0.000000
-6.791900 0.000000
-6.780500 0.000000
-6.769100 0.000000
-6.757700 0.000000
-6.746300 0.000000
-6.734900 0.000000
-6.723500 0.000000
-6.712100 0.000000
-6.700700 0.000000
-6.689300 0.000000
-6.678000 0.000000
-6.666600 0.000000
-6.655200 0.000000
-6.643800 0.000000
-6.632400 0.000000
-6.621000 0.000000
-6.609600 0.000000
-6.598200 0.000000
-6.586800 0.000000
-6.575400 0.000000
-6.564000 0.000000
-6.552600 0.000000
-6.541200 0.000000
-6.529800 0.000000
-6.518500 0.000000
-6.507100 0.000000
-6.495700 0.000000
-6.484300 0.000000
-6.472900 0.000000
-6.461500 0.000000
-6.450100 0.000000
-6.438700 0.000000
-6.427300 0.000000
-6.415900 0.000000
-6.404500 0.000000
-6.393100 0.000000
-6.381700 0.000000
-6.370300 0.000000
-6.359000 0.000000
-6.347600 0.000000
-6.336200 0.000000
-6.324800 0.000000
-6.313400 0.000000
-6.302000 0.000000
-6.290600 0.000000
-6.279200 0.000000
-6.267800 0.000000
-6.256400 0.000000
-6.245000 0.000000
-6.233600 0.000200
-6.222200 0.034000
-6.210800 0.124800
-6.199500 0.272600
-6.188100 0.443800
-6.176700 0.516600
-6.165300 0.549200
-6.153900 0.552500
-6.142500 0.597800
-6.131100 0.654700
-6.119700 0.713200
-6.108300 0.773100
-6.096900 0.832400
-6.085500 0.889200
-6.074100 0.931000
-6.062700 0.956000
-6.051300 0.969900
-6.039900 0.988400
-6.028600 1.017700
-6.017200 1.049800
-6.005800 1.083000
-5.994400 1.117200
-5.983000 1.151800
-5.971600 1.186300
-5.960200 1.220900
-5.948800 1.253600
-5.937400 1.285800
-5.926000 1.319600
-5.914600 1.355500
-5.903200 1.388900
-5.891800 1.415400
-5.880400 1.436000
-5.869100 1.454100
-5.857700 1.477000
-5.846300 1.501300
-5.834900 1.526200
-5.823500 1.551400
-5.812100 1.576900
-5.800700 1.602400
-5.789300 1.627800
-5.777900 1.653300
-5.766500 1.680500
-5.755100 1.708700
-5.743700 1.737000
-5.732300 1.764900
-5.720900 1.792800
-5.709600 1.821200
-5.698200 1.850200
-5.686800 1.879800
-5.675400 1.917100
-5.664000 2.046000
-5.652600 2.163500
-5.641200 2.271800
-5.629800 2.148900
-5.618400 2.166700
-5.607000 2.185300
-5.595600 2.207100
-5.584200 2.247300
-5.572800 2.298400
-5.561400 2.346500
-5.550100 2.372400
-5.538700 2.374300
-5.527300 2.361700
-5.515900 2.351600
-5.504500 2.350300
-5.493100 2.353600
-5.481700 2.364800
-5.470300 2.379700
-5.458900 2.393300
-5.447500 2.408500
-5.436100 2.436100
-5.424700 2.447600
-5.413300 2.418200
-5.401900 2.358000
-5.390600 2.296700
-5.379200 2.370400
-5.367800 2.478400
-5.356400 2.622300
-5.345000 2.550500
-5.333600 2.656000
-5.322200 2.750200
-5.310800 2.811600
-5.299400 2.858500
-5.288000 2.910000
-5.276600 2.936600
-5.265200 2.936200
-5.253800 2.913000
-5.242400 2.863300
-5.231000 2.821600
-5.219700 2.794800
-5.208300 2.803600
-5.196900 2.825400
-5.185500 2.855100
-5.174100 2.890300
-5.162700 2.932300
-5.151300 2.986800
-5.139900 3.044600
-5.128500 3.115600
-5.117100 3.194600
-5.105700 3.275200
-5.094300 3.408100
-5.082900 3.579900
-5.071500 3.723600
-5.060200 3.757200
-5.048800 3.747000
-5.037400 3.748300
-5.026000 3.808900
-5.014600 3.908300
-5.003200 4.034700
-4.991800 4.164700
-4.980400 4.330700
-4.969000 4.414900
-4.957600 4.461800
-4.946200 4.614800
-4.934800 4.947600
-4.923400 4.991700
-4.912000 4.916000
-4.900700 5.124100
-4.889300 5.211200
-4.877900 4.950400
-4.866500 4.998400
-4.855100 5.100900
-4.843700 4.946600
-4.832300 4.909100
-4.820900 5.075300
-4.809500 4.558800
-4.798100 4.378800
-4.786700 4.293200
-4.775300 4.187000
-4.763900 4.085600
-4.752500 4.150700
-4.741200 3.525200
-4.729800 3.439200
-4.718400 3.378400
-4.707000 3.435900
-4.695600 3.636500
-4.684200 3.930200
-4.672800 4.153100
-4.661400 4.710000
-4.650000 5.070400
-4.638600 5.192200
-4.627200 5.465800
-4.615800 5.536400
-4.604400 5.637300
-4.593000 5.725000
-4.581700 5.651600
-4.570300 5.573600
-4.558900 5.591900
-4.547500 5.805300
-4.536100 6.270000
-4.524700 6.648200
-4.513300 6.416900
-4.501900 6.934600
-4.490500 6.932200
-4.479100 7.065000
-4.467700 7.127700
-4.456300 7.147800
-4.444900 7.179800
-4.433500 7.236400
-4.422200 7.451200
-4.410800 7.692400
-4.399400 7.733700
-4.388000 7.900900
-4.376600 8.139600
-4.365200 7.698900
-4.353800 7.997400
-4.342400 7.642400
-4.331000 7.310600
-4.319600 8.435400
-4.308200 9.160300
-4.296800 9.581700
-4.285400 9.704900
-4.274000 9.795300
-4.262600 9.852300
-4.251300 10.057200
-4.239900 10.278100
-4.228500 10.395100
-4.217100 11.081700
-4.205700 11.885600
-4.194300 12.046900
-4.182900 9.297800
-4.171500 6.703600
-4.160100 6.485700
-4.148700 6.503100
-4.137300 6.095900
-4.125900 5.648800
-4.114500 5.290600
-4.103100 5.033600
-4.091800 4.690600
-4.080400 4.456800
-4.069000 4.408900
-4.057600 4.085800
-4.046200 3.576600
-4.034800 3.172600
-4.023400 3.034700
-4.012000 3.115100
-4.000600 3.221000
-3.989200 3.343200
-3.977800 3.493500
-3.966400 3.661600
-3.955000 3.820500
-3.943600 3.951500
-3.932300 4.042200
-3.920900 4.112400
-3.909500 4.189400
-3.898100 4.262300
-3.886700 4.363100
-3.875300 4.508700
-3.863900 4.695800
-3.852500 4.872000
-3.841100 5.009800
-3.829700 5.017400
-3.818300 5.205300
-3.806900 5.417200
-3.795500 5.598400
-3.784100 5.717800
-3.772800 5.917700
-3.761400 6.038500
-3.750000 6.166600
-3.738600 6.270500
-3.727200 6.429400
-3.715800 6.552400
-3.704400 6.717100
-3.693000 6.950400
-3.681600 7.344300
-3.670200 7.624800
-3.658800 7.681100
-3.647400 7.776900
-3.636000 7.880100
-3.624600 7.785400
-3.613300 7.927600
-3.601900 8.191000
-3.590500 8.125800
-3.579100 8.113900
-3.567700 8.142300
-3.556300 7.893800
-3.544900 7.326300
-3.533500 6.605600
-3.522100 5.838400
-3.510700 5.017300
-3.499300 4.694200
-3.487900 4.469800
-3.476500 4.319200
-3.465100 4.116400
-3.453700 3.906000
-3.442400 3.829800
-3.431000 4.295000
-3.419600 5.230900
-3.408200 6.810700
-3.396800 7.135200
-3.385400 6.513800
-3.374000 6.680900
-3.362600 6.726800
-3.351200 7.071000
-3.339800 7.421000
-3.328400 10.969900
-3.317000 10.570900
-3.305600 10.621200
-3.294200 11.503200
-3.282900 11.556700
-3.271500 13.847800
-3.260100 18.580900
-3.248700 17.184900
-3.237300 16.908800
-3.225900 14.972100
-3.214500 13.760900
-3.203100 13.256700
-3.191700 13.354800
-3.180300 13.076500
-3.168900 12.489300
-3.157500 12.247500
-3.146100 11.694000
-3.134700 10.657100
-3.123400 10.016000
-3.112000 9.260600
-3.100600 8.673300
-3.089200 8.456700
-3.077800 8.066200
-3.066400 7.144500
-3.055000 5.931500
-3.043600 5.818900
-3.032200 6.936700
-3.020800 2.744700
-3.009400 0.000000
-2.998000 0.000000
-2.986600 0.000000
-2.975200 0.000000
-2.963900 0.000000
-2.952500 0.000000
-2.941100 0.000000
-2.929700 0.000000
-2.918300 0.000000
-2.906900 0.000000
-2.895500 0.000000
-2.884100 0.000000
-2.872700 0.000000
-2.861300 0.000000
-2.849900 0.000000
-2.838500 0.000000
-2.827100 0.000000
-2.815700 0.000000
-2.804400 0.000000
-2.793000 0.000000
-2.781600 0.000000
-2.770200 0.000000
-2.758800 0.000000
-2.747400 0.000000
-2.736000 0.000000
-2.724600 0.000000
-2.713200 0.000000
-2.701800 0.000000
-2.690400 0.000000
-2.679000 0.000000
-2.667600 0.000000
-2.656200 0.000000
-2.644800 0.000000
-2.633500 0.000000
-2.622100 0.000000
-2.610700 0.000000
-2.599300 0.000000
-2.587900 0.000000
-2.576500 0.000000
-2.565100 0.000000
-2.553700 0.000000
-2.542300 0.000000
-2.530900 0.000000
-2.519500 0.000000
-2.508100 0.000000
-2.496700 0.000000
-2.485300 0.000000
-2.474000 0.000000
-2.462600 0.000000
-2.451200 0.000000
-2.439800 0.000000
-2.428400 0.000000
-2.417000 0.000000
-2.405600 0.000000
-2.394200 0.000000
-2.382800 0.000000
-2.371400 0.000000
-2.360000 0.000000
-2.348600 0.000000
-2.337200 0.000000
-2.325800 0.000000
-2.314500 0.000000
-2.303100 0.000000
-2.291700 0.000000
-2.280300 0.000000
-2.268900 0.000000
-2.257500 0.000000
-2.246100 0.000000
-2.234700 0.000000
-2.223300 0.000000
-2.211900 0.000000
-2.200500 0.000000
-2.189100 0.000000
-2.177700 0.000000
-2.166300 0.000000
-2.155000 0.000000
-2.143600 0.000000
-2.132200 0.000000
-2.120800 0.000000
-2.109400 0.000000
-2.098000 0.000000
-2.086600 0.000000
-2.075200 0.000000
-2.063800 0.000000
-2.052400 0.000000
-2.041000 0.000000
-2.029600 0.000000
-2.018200 0.000000
-2.006800 0.000000
-1.995500 0.000000
-1.984100 0.000000
-1.972700 0.000000
-1.961300 0.000000
-1.949900 0.000000
-1.938500 0.000000
-1.927100 0.000000
-1.915700 0.000000
-1.904300 0.000000
-1.892900 0.000000
-1.881500 0.000000
-1.870100 0.000000
-1.858700 0.000000
-1.847300 0.000000
-1.835900 0.000000
-1.824600 0.000000
-1.813200 0.000000
-1.801800 0.000000
-1.790400 0.000000
-1.779000 0.000000
-1.767600 0.000000
-1.756200 0.000000
-1.744800 0.000000
-1.733400 0.000000
-1.722000 0.000000
-1.710600 0.000000
-1.699200 0.000000
-1.687800 0.000000
-1.676400 0.000000
-1.665100 0.000000
-1.653700 0.000000
-1.642300 0.000000
-1.630900 0.000000
-1.619500 0.000000
-1.608100 0.000000
-1.596700 0.000000
-1.585300 0.000000
-1.573900 0.000000
-1.562500 0.000000
-1.551100 0.000000
-1.539700 0.000000
-1.528300 0.000000
-1.516900 0.000000
-1.505600 0.000000
-1.494200 0.000000
-1.482800 0.000000
-1.471400 0.000000
-1.460000 0.000000
-1.448600 0.000000
-1.437200 0.000000
-1.425800 0.000000
-1.414400 0.000000
-1.403000 0.000000
-1.391600 0.000000
-1.380200 0.000000
-1.368800 0.000000
-1.357400 0.000000
-1.346100 0.000000
-1.334700 0.000000
-1.323300 0.000000
-1.311900 0.000000
-1.300500 0.000000
-1.289100 0.000000
-1.277700 0.000000
-1.266300 0.000000
-1.254900 0.000000
-1.243500 0.000000
-1.232100 0.000000
-1.220700 0.000000
-1.209300 0.000000
-1.197900 0.000000
-1.186600 0.000000
-1.175200 0.000000
-1.163800 0.000000
-1.152400 0.000000
-1.141000 0.000000
-1.129600 0.000000
-1.118200 0.000000
-1.106800 0.000000
-1.095400 0.000000
-1.084000 0.000000
-1.072600 0.000000
-1.061200 0.000000
-1.049800 0.000000
-1.038400 0.000000
-1.027100 0.000000
-1.015700 0.000000
-1.004300 0.000000
-0.992900 0.000000
-0.981500 0.000000
-0.970100 0.000000
-0.958700 0.000000
-0.947300 0.000000
-0.935900 0.000000
-0.924500 0.000000
-0.913100 0.000000
-0.901700 0.000000
-0.890300 0.000000
-0.878900 0.000000
-0.867500 0.000000
-0.856200 0.000000
-0.844800 0.000000
-0.833400 0.000000
-0.822000 0.000000
-0.810600 0.000000
-0.799200 0.000000
-0.787800 0.000000
-0.776400 0.000000
-0.765000 0.000000
-0.753600 0.000000
-0.742200 0.000000
-0.730800 0.000000
-0.719400 0.000000
-0.708000 0.000000
-0.696700 0.000000
-0.685300 0.000000
-0.673900 0.000000
-0.662500 0.000000
-0.651100 0.000000
-0.639700 0.000000
-0.628300 0.000000
-0.616900 0.000000
-0.605500 0.000000
-0.594100 0.000000
-0.582700 0.000000
-0.571300 0.000000
-0.559900 0.000000
-0.548500 0.000000
-0.537200 0.000000
-0.525800 0.000000
-0.514400 0.000000
-0.503000 0.000000
-0.491600 0.000000
-0.480200 0.000000
-0.468800 0.000000
-0.457400 0.000000
-0.446000 0.000000
-0.434600 0.000000
-0.423200 0.000000
-0.411800 0.000000
-0.400400 0.000000
-0.389000 0.000000
-0.377700 0.000000
-0.366300 0.000000
-0.354900 0.000000
-0.343500 0.000000
-0.332100 0.000000
-0.320700 0.000000
-0.309300 0.000000
-0.297900 0.000000
-0.286500 0.000000
-0.275100 0.000000
-0.263700 0.000000
-0.252300 0.000000
-0.240900 0.000000
-0.229500 0.000000
-0.218200 0.000000
-0.206800 0.000000
-0.195400 0.000000
-0.184000 0.000000
-0.172600 0.000000
-0.161200 0.000000
-0.149800 0.000000
-0.138400 0.000000
-0.127000 0.000000
-0.115600 0.000000
-0.104200 0.000000
-0.092800 0.000000
-0.081400 0.000000
-0.070000 0.000000
-0.058600 0.000000
-0.047300 0.000000
-0.035900 0.000000
-0.024500 0.000000
-0.013100 0.000000
-0.001700 0.000000
0.009700 0.000000
0.021100 0.000000
0.032500 0.000000
0.043900 0.000000
0.055300 0.000000
0.066700 0.000000
0.078100 0.000000
0.089500 0.000000
0.100900 0.000000
0.112200 0.000000
0.123600 0.000000
0.135000 0.000000
0.146400 0.000000
0.157800 0.000000
0.169200 0.000000
0.180600 0.000000
0.192000 0.000000
0.203400 0.000000
0.214800 0.000000
0.226200 0.000000
0.237600 0.000000
0.249000 0.000000
0.260400 0.000000
0.271700 0.000000
0.283100 0.000000
0.294500 0.000000
0.305900 0.000000
0.317300 0.000000
0.328700 0.000000
0.340100 0.000000
0.351500 0.000000
0.362900 0.000000
0.374300 0.000000
0.385700 0.000000
0.397100 0.000000
0.408500 0.000000
0.419900 0.000000
0.431200 0.000000
0.442600 0.000000
0.454000 0.000000
0.465400 0.000000
0.476800 0.000000
0.488200 0.000000
0.499600 0.000000
0.511000 0.000000
0.522400 0.000000
0.533800 0.000000
0.545200 0.000000
0.556600 0.000000
0.568000 0.000000
0.579400 0.000000
0.590700 0.000000
0.602100 0.000000
0.613500 0.000000
0.624900 0.000000
0.636300 0.000000
0.647700 0.000000
0.659100 0.000000
0.670500 0.000000
0.681900 0.000000
0.693300 0.000000
0.704700 0.000000
0.716100 0.000000
0.727500 0.000000
0.738900 0.000000
0.750300 0.000000
0.761600 0.000000
0.773000 0.000000
0.784400 0.000000
0.795800 0.000000
0.807200 0.000000
0.818600 0.000000
0.830000 0.000000
0.841400 0.000000
0.852800 0.000000
0.864200 0.000000
0.875600 0.000000
0.887000 0.000000
0.898400 0.001000
0.909800 0.007800
0.921100 0.021100
0.932500 0.040800
0.943900 0.067000
0.955300 0.099600
0.966700 0.137700
0.978100 0.184500
0.989500 0.231100
1.000900 0.269100
1.012300 0.298300
1.023700 0.318800
1.035100 0.331500
1.046500 0.335600
1.057900 0.343500
1.069300 0.355300
1.080600 0.370900
1.092000 0.390700
1.103400 0.412000
1.114800 0.434700
1.126200 0.458700
1.137600 0.483400
1.149000 0.507800
1.160400 0.531700
1.171800 0.554900
1.183200 0.577600
1.194600 0.599500
1.206000 0.621800
1.217400 0.644600
1.228800 0.667900
1.240100 0.692200
1.251500 0.717700
1.262900 0.744200
1.274300 0.772000
1.285700 0.801600
1.297100 0.832700
1.308500 1.000100
1.319900 1.251900
1.331300 1.598100
1.342700 1.883200
1.354100 2.212700
1.365500 2.356300
1.376900 2.630200
1.388300 2.755500
1.399600 2.865200
1.411000 3.089500
1.422400 3.265700
1.433800 3.500100
1.445200 3.930100
1.456600 4.416500
1.468000 4.832300
1.479400 5.154000
1.490800 5.498200
1.502200 6.340500
1.513600 6.851900
1.525000 6.823000
1.536400 6.652100
1.547800 6.416300
1.559100 6.231400
1.570500 5.715300
1.581900 5.841000
1.593300 5.978500
1.604700 6.130300
1.616100 6.178700
1.627500 6.072800
1.638900 6.943200
1.650300 6.705100
1.661700 6.869100
1.673100 7.384600
1.684500 7.521400
1.695900 7.769400
1.707300 8.067400
1.718700 8.391300
1.730000 8.838100
1.741400 8.897500
1.752800 9.090300
1.764200 9.212300
1.775600 9.293500
1.787000 9.588600
1.798400 9.811200
1.809800 10.357700
1.821200 10.904500
1.832600 10.492300
1.844000 9.387700
1.855400 9.078100
1.866800 9.005900
1.878200 9.428100
1.889500 10.691500
1.900900 9.601900
1.912300 9.178200
1.923700 8.952200
1.935100 8.987400
1.946500 9.246700
1.957900 9.667800
1.969300 9.625700
1.980700 9.557300
1.992100 9.193400
2.003500 9.189600
2.014900 8.960900
2.026300 8.134200
2.037700 7.902100
2.049000 7.737700
2.060400 7.675400
2.071800 7.680400
2.083200 7.643900
2.094600 7.615700
2.106000 7.698600
2.117400 7.805900
2.128800 7.953800
2.140200 8.039400
2.151600 6.924900
2.163000 6.470100
2.174400 6.549000
2.185800 6.741100
2.197200 7.118500
2.208500 7.567700
2.219900 7.904000
2.231300 8.173400
2.242700 8.159700
2.254100 8.109100
2.265500 7.883500
2.276900 7.387000
2.288300 6.779200
2.299700 6.247500
2.311100 5.911800
2.322500 5.761600
2.333900 5.826700
2.345300 6.321400
2.356700 7.495700
2.368000 9.096200
2.379400 9.880300
2.390800 10.272400
2.402200 10.792500
2.413600 10.406600
2.425000 9.746900
2.436400 9.561500
2.447800 9.533800
2.459200 9.674100
2.470600 9.835400
2.482000 10.068800
2.493400 10.589200
2.504800 10.456000
2.516200 9.803600
2.527600 9.282300
2.538900 8.876800
2.550300 8.670800
2.561700 8.657100
2.573100 8.671800
2.584500 8.800800
2.595900 8.932400
2.607300 9.160600
2.618700 9.419500
2.630100 9.593800
2.641500 9.695000
2.652900 9.797600
2.664300 9.113500
2.675700 8.466500
2.687100 8.204800
2.698400 8.141500
2.709800 8.249600
2.721200 8.478000
2.732600 8.628800
2.744000 8.690600
2.755400 8.788000
2.766800 8.987700
2.778200 9.031300
2.789600 9.219200
2.801000 9.002900
2.812400 8.376500
2.823800 8.063700
2.835200 7.881100
2.846600 7.912500
2.857900 7.862700
2.869300 7.859900
2.880700 7.911600
2.892100 8.024900
2.903500 8.141300
2.914900 8.335900
2.926300 8.579400
2.937700 8.868900
2.949100 8.641800
2.960500 9.433300
2.971900 7.731300
2.983300 8.451200
2.994700 8.046400
3.006100 7.879600
3.017400 7.653700
3.028800 7.622800
3.040200 7.772200
3.051600 8.063700
3.063000 8.781700
3.074400 9.710700
3.085800 11.218000
3.097200 11.991700
3.108600 10.978500
3.120000 10.679500
3.131400 10.933300
3.142800 11.626100
3.154200 12.264500
3.165600 11.907300
3.176900 11.845500
3.188300 12.591700
3.199700 11.899600
3.211100 10.849000
3.222500 10.019700
3.233900 10.017500
3.245300 10.072200
3.256700 9.818400
3.268100 8.674600
3.279500 8.412500
3.290900 8.151400
3.302300 8.050800
3.313700 7.825700
3.325100 7.715600
3.336500 8.103600
3.347800 8.302800
3.359200 9.050300
3.370600 10.264000
3.382000 11.483200
3.393400 12.616200
3.404800 13.330900
3.416200 13.555400
3.427600 13.755100
3.439000 14.077600
3.450400 14.213300
3.461800 14.266600
3.473200 13.755400
3.484600 12.308100
3.496000 12.183100
3.507300 11.867800
3.518700 11.807600
3.530100 12.153300
3.541500 12.563000
3.552900 12.799000
3.564300 14.606500
3.575700 14.202800
3.587100 14.015000
3.598500 13.396600
3.609900 12.854000
3.621300 12.158000
3.632700 11.545100
3.644100 11.458100
3.655500 10.805300
3.666800 10.599300
3.678200 10.464400
3.689600 10.650500
3.701000 10.582600
3.712400 9.963000
3.723800 9.541900
3.735200 9.507600
3.746600 10.167700
3.758000 10.669900
3.769400 11.705000
3.780800 13.496500
3.792200 16.452300
3.803600 16.770300
3.815000 15.741400
3.826300 16.073600
3.837700 16.740900
3.849100 16.866800
3.860500 16.674400
3.871900 16.359200
3.883300 15.907100
3.894700 15.730500
3.906100 15.426100
3.917500 15.255300
3.928900 14.932900
3.940300 14.407800
3.951700 14.603100
3.963100 15.926200
3.974500 18.391200
3.985800 20.195800
3.997200 21.679400
4.008600 20.164900
4.020000 17.457400
4.031400 16.877300
4.042800 18.319200
4.054200 19.839700
4.065600 20.912300
4.077000 20.239600
4.088400 17.927000
4.099800 16.753300
4.111200 17.291200
4.122600 15.484900
4.134000 14.406800
4.145400 13.849900
4.156700 13.801500
4.168100 14.125800
4.179500 14.068800
4.190900 14.727400
4.202300 16.876200
4.213700 18.844700
4.225100 18.290200
4.236500 18.449300
4.247900 20.047000
4.259300 19.257100
4.270700 17.585000
4.282100 17.185900
4.293500 17.951200
4.304900 16.248300
4.316200 15.825900
4.327600 15.438600
4.339000 14.284300
4.350400 15.277600
4.361800 15.276900
4.373200 15.591300
4.384600 17.569300
4.396000 17.686600
4.407400 20.147800
4.418800 20.765700
4.430200 20.807900
4.441600 23.220500
4.453000 23.755700
4.464400 21.327300
4.475700 20.159300
4.487100 17.087800
4.498500 15.760300
4.509900 15.932300
4.521300 17.277300
4.532700 16.473900
4.544100 18.904600
4.555500 19.171500
4.566900 19.185800
4.578300 20.881000
4.589700 24.965500
4.601100 24.892600
4.612500 24.110600
4.623900 21.344800
4.635200 19.736100
4.646600 19.309900
4.658000 18.302100
4.669400 18.552000
4.680800 17.734600
