set title 'mp-1095534 - Density of States'
set xlabel 'Energy (eV)'
set ylabel 'DOS (states/eV)'
set grid
set xrange [-10:10]
set yrange [0:15.154]
set xzeroaxis lt -1
set terminal png size 800,600
set output 'mp-1095534_dos_gnuplot.png'
plot '-' using 1:2 with lines title 'DOS'
-17.919700 0.000000
-17.897900 0.000000
-17.876000 0.000000
-17.854200 0.000000
-17.832400 0.000000
-17.810600 0.000000
-17.788800 0.000000
-17.767000 0.000000
-17.745100 0.000000
-17.723300 0.000000
-17.701500 0.000000
-17.679700 0.000000
-17.657900 0.000000
-17.636100 0.000000
-17.614200 0.000000
-17.592400 0.000000
-17.570600 0.000000
-17.548800 0.000000
-17.527000 0.000000
-17.505200 0.000000
-17.483300 0.000000
-17.461500 0.000000
-17.439700 0.000000
-17.417900 0.000000
-17.396100 0.000000
-17.374300 0.000000
-17.352400 0.000000
-17.330600 0.000000
-17.308800 0.000000
-17.287000 0.000000
-17.265200 0.000000
-17.243400 0.000000
-17.221500 0.000000
-17.199700 0.000000
-17.177900 0.000000
-17.156100 0.000000
-17.134300 0.000000
-17.112500 0.000000
-17.090600 0.000000
-17.068800 0.000000
-17.047000 0.000000
-17.025200 0.000000
-17.003400 0.000000
-16.981600 0.000000
-16.959700 0.000000
-16.937900 0.000000
-16.916100 0.000000
-16.894300 0.000000
-16.872500 0.000000
-16.850700 0.000000
-16.828900 0.000000
-16.807000 0.000000
-16.785200 0.000000
-16.763400 0.000000
-16.741600 0.000000
-16.719800 0.000000
-16.698000 0.000000
-16.676100 0.000000
-16.654300 0.000000
-16.632500 0.000000
-16.610700 0.000000
-16.588900 0.000000
-16.567100 0.000000
-16.545200 0.000000
-16.523400 0.000000
-16.501600 0.000000
-16.479800 0.000000
-16.458000 0.000000
-16.436200 0.000000
-16.414300 0.000000
-16.392500 0.000000
-16.370700 0.000000
-16.348900 0.000000
-16.327100 0.000000
-16.305300 0.000000
-16.283400 0.000000
-16.261600 0.000000
-16.239800 0.000000
-16.218000 0.000000
-16.196200 0.000000
-16.174400 0.000000
-16.152500 0.000000
-16.130700 0.000000
-16.108900 0.000000
-16.087100 0.000000
-16.065300 0.000000
-16.043500 0.000000
-16.021600 0.000000
-15.999800 0.000000
-15.978000 0.000000
-15.956200 0.000000
-15.934400 0.000300
-15.912600 0.037300
-15.890700 0.136900
-15.868900 0.268000
-15.847100 0.375000
-15.825300 0.479400
-15.803500 0.596800
-15.781700 0.727100
-15.759800 0.870400
-15.738000 1.221500
-15.716200 1.405200
-15.694400 1.546000
-15.672600 1.681900
-15.650800 1.680700
-15.629000 1.679700
-15.607100 1.859500
-15.585300 2.089000
-15.563500 2.514100
-15.541700 2.628700
-15.519900 2.734200
-15.498100 2.830700
-15.476200 2.918200
-15.454400 2.996700
-15.432600 2.992700
-15.410800 3.016600
-15.389000 3.038500
-15.367200 3.032100
-15.345300 3.000400
-15.323500 2.950300
-15.301700 2.879700
-15.279900 2.799900
-15.258100 2.711800
-15.236300 2.614800
-15.214400 2.508900
-15.192600 2.429600
-15.170800 2.279100
-15.149000 2.152000
-15.127200 2.038700
-15.105400 1.939100
-15.083500 1.853400
-15.061700 1.780400
-15.039900 1.711400
-15.018100 1.644400
-14.996300 1.582200
-14.974500 1.530800
-14.952600 1.483900
-14.930800 1.441700
-14.909000 1.404000
-14.887200 1.371000
-14.865400 1.342500
-14.843600 1.294000
-14.821700 1.294000
-14.799900 1.294000
-14.778100 1.294000
-14.756300 1.294000
-14.734500 1.293900
-14.712700 1.293900
-14.690800 1.293900
-14.669000 1.293900
-14.647200 1.293900
-14.625400 1.293900
-14.603600 1.293900
-14.581800 1.293900
-14.559900 1.293900
-14.538100 1.293900
-14.516300 1.293900
-14.494500 1.293900
-14.472700 1.293900
-14.450900 1.294000
-14.429100 1.294000
-14.407200 1.294000
-14.385400 1.294000
-14.363600 1.294000
-14.341800 1.294000
-14.320000 1.294100
-14.298200 1.294100
-14.276300 1.294100
-14.254500 1.307200
-14.232700 1.403100
-14.210900 1.618800
-14.189100 1.975300
-14.167300 2.439900
-14.145400 2.907900
-14.123600 3.318800
-14.101800 3.672500
-14.080000 5.728600
-14.058200 3.697900
-14.036400 1.755300
-14.014500 1.312000
-13.992700 0.977600
-13.970900 0.629300
-13.949100 0.629400
-13.927300 0.629400
-13.905500 0.629400
-13.883600 0.932300
-13.861800 1.808800
-13.840000 2.428400
-13.818200 2.269700
-13.796400 2.093300
-13.774600 1.899200
-13.752700 1.687500
-13.730900 1.458100
-13.709100 1.211000
-13.687300 0.947500
-13.665500 0.721200
-13.643700 0.521900
-13.621800 0.349500
-13.600000 0.236700
-13.578200 0.164500
-13.556400 0.105400
-13.534600 0.059400
-13.512800 0.026500
-13.490900 0.195200
-13.469100 0.254100
-13.447300 0.329100
-13.425500 0.413700
-13.403700 0.507800
-13.381900 0.611400
-13.360100 0.724400
-13.338200 0.847600
-13.316400 0.995900
-13.294600 1.176500
-13.272800 1.450700
-13.251000 1.728300
-13.229200 2.009300
-13.207300 2.497800
-13.185500 2.820700
-13.163700 2.598900
-13.141900 2.866100
-13.120100 3.180900
-13.098300 3.528300
-13.076400 3.981700
-13.054600 4.343400
-13.032800 4.605500
-13.011000 4.846300
-12.989200 5.755000
-12.967400 6.289800
-12.945500 6.912500
-12.923700 7.898800
-12.901900 6.163100
-12.880100 5.396800
-12.858300 4.554500
-12.836500 3.636300
-12.814600 2.642200
-12.792800 1.408700
-12.771000 1.168400
-12.749200 1.339700
-12.727400 1.492300
-12.705600 1.603500
-12.683700 1.673100
-12.661900 1.722300
-12.640100 1.842400
-12.618300 1.966300
-12.596500 2.094100
-12.574700 2.225700
-12.552800 2.361200
-12.531000 2.500500
-12.509200 2.855000
-12.487400 3.433800
-12.465600 3.617400
-12.443800 3.740100
-12.421900 3.734300
-12.400100 3.666100
-12.378300 3.535400
-12.356500 3.342200
-12.334700 3.144700
-12.312900 2.998700
-12.291000 2.852100
-12.269200 2.705000
-12.247400 2.300900
-12.225600 2.303000
-12.203800 2.156800
-12.182000 2.019600
-12.160200 1.891200
-12.138300 1.771800
-12.116500 1.661300
-12.094700 1.581900
-12.072900 1.665500
-12.051100 1.783500
-12.029300 1.936100
-12.007400 2.123200
-11.985600 3.134100
-11.963800 2.540200
-11.942000 2.428400
-11.920200 2.241000
-11.898400 2.017100
-11.876500 2.223400
-11.854700 2.424300
-11.832900 2.619900
-11.811100 3.058700
-11.789300 3.643600
-11.767500 2.629900
-11.745600 2.523500
-11.723800 2.413100
-11.702000 2.305700
-11.680200 2.201400
-11.658400 2.116200
-11.636600 2.048700
-11.614700 1.987000
-11.592900 1.931200
-11.571100 1.881300
-11.549300 1.837300
-11.527500 1.799200
-11.505700 1.766900
-11.483800 1.684700
-11.462000 1.681100
-11.440200 1.678400
-11.418400 1.687600
-11.396600 1.747700
-11.374800 1.815600
-11.352900 1.897100
-11.331100 2.056200
-11.309300 2.310200
-11.287500 2.521800
-11.265700 3.123300
-11.243900 4.036800
-11.222000 7.272500
-11.200200 7.704800
-11.178400 3.769500
-11.156600 2.566300
-11.134800 1.892700
-11.113000 1.670400
-11.091100 1.737700
-11.069300 1.868500
-11.047500 2.125700
-11.025700 2.169000
-11.003900 2.203000
-10.982100 2.227700
-10.960300 2.506700
-10.938400 2.436000
-10.916600 2.249000
-10.894800 2.074000
-10.873000 1.947500
-10.851200 1.840500
-10.829400 1.758100
-10.807500 1.758900
-10.785700 1.855800
-10.763900 2.017600
-10.742100 1.881400
-10.720300 1.903800
-10.698500 1.927000
-10.676600 1.951000
-10.654800 1.975900
-10.633000 2.001500
-10.611200 2.028000
-10.589400 2.055300
-10.567600 2.083400
-10.545700 2.112300
-10.523900 2.142100
-10.502100 2.132600
-10.480300 3.483700
-10.458500 3.647100
-10.436700 3.444100
-10.414800 3.486200
-10.393000 3.573500
-10.371200 3.597700
-10.349400 4.035800
-10.327600 3.753900
-10.305800 3.521300
-10.283900 3.311200
-10.262100 2.586000
-10.240300 2.648000
-10.218500 2.766000
-10.196700 2.898300
-10.174900 3.044700
-10.153000 3.263900
-10.131200 3.525800
-10.109400 4.531900
-10.087600 4.914600
-10.065800 5.165700
-10.044000 5.575900
-10.022100 6.426200
-10.000300 5.304200
-9.978500 4.772800
-9.956700 4.287200
-9.934900 3.798100
-9.913100 3.218500
-9.891200 2.328600
-9.869400 1.873900
-9.847600 1.660300
-9.825800 1.461800
-9.804000 1.278400
-9.782200 1.110000
-9.760400 0.956700
-9.738500 0.818500
-9.716700 0.633600
-9.694900 0.491800
-9.673100 0.572400
-9.651300 0.893600
-9.629500 0.757000
-9.607600 0.837600
-9.585800 0.898600
-9.564000 0.939800
-9.542200 0.961200
-9.520400 0.962900
-9.498600 1.050100
-9.476700 1.160300
-9.454900 1.291500
-9.433100 1.443600
-9.411300 1.616800
-9.389500 1.810900
-9.367700 2.026000
-9.345800 2.488000
-9.324000 3.419000
-9.302200 3.589600
-9.280400 3.661700
-9.258600 3.635600
-9.236800 3.511100
-9.214900 3.313600
-9.193100 2.891000
-9.171300 2.699600
-9.149500 2.501100
-9.127700 2.388400
-9.105900 2.282000
-9.084000 2.182000
-9.062200 2.083700
-9.040400 1.998900
-9.018600 1.905300
-8.996800 1.803100
-8.975000 1.692200
-8.953100 1.572600
-8.931300 1.464200
-8.909500 1.385200
-8.887700 1.312800
-8.865900 1.247100
-8.844100 1.188000
-8.822200 1.135500
-8.800400 1.089700
-8.778600 1.050500
-8.756800 1.017700
-8.735000 0.984100
-8.713200 0.948200
-8.691300 0.910600
-8.669500 0.872500
-8.647700 0.834100
-8.625900 0.795400
-8.604100 0.756400
-8.582300 0.717200
-8.560500 0.677600
-8.538600 0.637700
-8.516800 0.597500
-8.495000 0.583800
-8.473200 0.595000
-8.451400 0.586500
-8.429600 0.558300
-8.407700 0.510500
-8.385900 0.443000
-8.364100 0.445600
-8.342300 0.205300
-8.320500 0.143100
-8.298700 0.167300
-8.276800 0.193200
-8.255000 0.220700
-8.233200 0.249800
-8.211400 0.280500
-8.189600 0.312800
-8.167800 0.346700
-8.145900 0.382200
-8.124100 0.419400
-8.102300 0.458100
-8.080500 0.498500
-8.058700 0.539000
-8.036900 0.577500
-8.015000 0.613800
-7.993200 0.647800
-7.971400 0.679900
-7.949600 0.710000
-7.927800 0.738000
-7.906000 0.760700
-7.884100 0.780300
-7.862300 0.801800
-7.840500 0.825200
-7.818700 0.850500
-7.796900 0.877700
-7.775100 0.906800
-7.753200 0.937800
-7.731400 0.970800
-7.709600 1.005600
-7.687800 1.042200
-7.666000 1.080700
-7.644200 1.121100
-7.622300 1.164100
-7.600500 1.217900
-7.578700 1.250200
-7.556900 1.296900
-7.535100 1.358700
-7.513300 1.399700
-7.491400 1.376200
-7.469600 1.354500
-7.447800 1.334700
-7.426000 1.316800
-7.404200 1.300700
-7.382400 1.286400
-7.360600 1.274000
-7.338700 1.278700
-7.316900 1.296700
-7.295100 1.327900
-7.273300 1.363200
-7.251500 1.402500
-7.229700 1.445900
-7.207800 1.493300
-7.186000 1.555700
-7.164200 1.621000
-7.142400 1.687000
-7.120600 1.753700
-7.098800 1.821100
-7.076900 1.897700
-7.055100 2.026600
-7.033300 2.159600
-7.011500 2.332300
-6.989700 2.505000
-6.967900 2.691700
-6.946000 2.892300
-6.924200 3.097700
-6.902400 3.458000
-6.880600 3.704800
-6.858800 3.831300
-6.837000 4.298200
-6.815100 4.402500
-6.793300 4.475500
-6.771500 4.512900
-6.749700 4.514200
-6.727900 4.479600
-6.706100 4.408900
-6.684200 4.318100
-6.662400 3.487400
-6.640600 3.288300
-6.618800 3.110400
-6.597000 2.953700
-6.575200 2.818100
-6.553300 2.877800
-6.531500 2.762100
-6.509700 2.666700
-6.487900 2.604900
-6.466100 2.578800
-6.444300 3.722600
-6.422400 4.206200
-6.400600 4.114700
-6.378800 3.908300
-6.357000 3.586900
-6.335200 3.150700
-6.313400 2.113100
-6.291600 1.786400
-6.269700 1.487600
-6.247900 1.216600
-6.226100 0.973400
-6.204300 1.358800
-6.182500 1.493700
-6.160700 1.709800
-6.138800 1.681200
-6.117000 2.627300
-6.095200 4.396300
-6.073400 2.855700
-6.051600 2.858400
-6.029800 2.802000
-6.007900 2.686600
-5.986100 2.633700
-5.964300 2.556300
-5.942500 2.497600
-5.920700 2.457400
-5.898900 2.436000
-5.877000 2.287000
-5.855200 2.348500
-5.833400 2.529100
-5.811600 2.634000
-5.789800 2.658800
-5.768000 2.588800
-5.746100 2.360800
-5.724300 1.954900
-5.702500 1.678800
-5.680700 2.023600
-5.658900 2.073300
-5.637100 2.239200
-5.615200 2.411600
-5.593400 2.501300
-5.571600 2.589100
-5.549800 2.674800
-5.528000 2.758500
-5.506200 2.840300
-5.484300 2.920000
-5.462500 2.997700
-5.440700 3.073500
-5.418900 3.204200
-5.397100 3.438500
-5.375300 3.150400
-5.353400 3.427900
-5.331600 3.924000
-5.309800 4.638500
-5.288000 4.703800
-5.266200 4.940600
-5.244400 5.168800
-5.222500 5.266500
-5.200700 5.327600
-5.178900 5.366800
-5.157100 5.124900
-5.135300 4.958500
-5.113500 5.121400
-5.091700 5.236900
-5.069800 5.641500
-5.048000 6.071200
-5.026200 5.777100
-5.004400 6.388800
-4.982600 7.484700
-4.960800 7.934800
-4.938900 8.293500
-4.917100 7.890200
-4.895300 7.774800
-4.873500 7.520100
-4.851700 7.125900
-4.829900 5.802900
-4.808000 5.422600
-4.786200 6.120200
-4.764400 8.323300
-4.742600 9.278800
-4.720800 7.899100
-4.699000 7.619600
-4.677100 7.309400
-4.655300 7.125200
-4.633500 6.944200
-4.611700 6.847500
-4.589900 6.573200
-4.568100 6.343800
-4.546200 6.315700
-4.524400 6.319100
-4.502600 6.313100
-4.480800 6.271700
-4.459000 6.225500
-4.437200 6.214200
-4.415300 6.213200
-4.393500 6.124900
-4.371700 5.930800
-4.349900 5.662400
-4.328100 5.313500
-4.306300 5.119600
-4.284400 4.993000
-4.262600 4.886000
-4.240800 4.798400
-4.219000 4.713600
-4.197200 4.642300
-4.175400 4.567900
-4.153500 4.507600
-4.131700 4.489100
-4.109900 4.467500
-4.088100 4.381400
-4.066300 4.269400
-4.044500 4.135800
-4.022600 3.994900
-4.000800 3.857500
-3.979000 3.721000
-3.957200 3.567100
-3.935400 3.296900
-3.913600 3.038000
-3.891800 2.776900
-3.869900 2.619800
-3.848100 2.470500
-3.826300 2.272800
-3.804500 2.020900
-3.782700 1.832700
-3.760900 1.694500
-3.739000 1.588200
-3.717200 1.472200
-3.695400 1.416400
-3.673600 1.352100
-3.651800 1.348400
-3.630000 1.348300
-3.608100 1.348300
-3.586300 1.348200
-3.564500 1.348200
-3.542700 1.348200
-3.520900 1.348200
-3.499100 1.348200
-3.477200 1.348300
-3.455400 1.348300
-3.433600 1.348400
-3.411800 1.348500
-3.390000 1.348600
-3.368200 1.348700
-3.346300 1.348900
-3.324500 1.349100
-3.302700 1.349200
-3.280900 1.349400
-3.259100 1.349600
-3.237300 1.349900
-3.215400 1.350100
-3.193600 1.350400
-3.171800 1.350600
-3.150000 1.350900
-3.128200 1.351200
-3.106400 1.309400
-3.084500 1.268600
-3.062700 1.219900
-3.040900 1.163400
-3.019100 1.099700
-2.997300 1.044300
-2.975500 0.990400
-2.953600 0.937600
-2.931800 0.880000
-2.910000 0.815500
-2.888200 0.744100
-2.866400 0.670500
-2.844600 0.554000
-2.822700 0.478200
-2.800900 0.411400
-2.779100 0.353500
-2.757300 0.304600
-2.735500 0.261600
-2.713700 0.220100
-2.691900 0.180000
-2.670000 0.144500
-2.648200 0.113100
-2.626400 0.085000
-2.604600 0.060300
-2.582800 0.039100
-2.561000 0.000000
-2.539100 0.000000
-2.517300 0.000000
-2.495500 0.000000
-2.473700 0.000000
-2.451900 0.000000
-2.430100 0.000000
-2.408200 0.000000
-2.386400 0.000000
-2.364600 0.000000
-2.342800 0.000000
-2.321000 0.000000
-2.299200 0.000000
-2.277300 0.000000
-2.255500 0.000000
-2.233700 0.000000
-2.211900 0.000000
-2.190100 0.000000
-2.168300 0.000000
-2.146400 0.000000
-2.124600 0.000000
-2.102800 0.000000
-2.081000 0.000000
-2.059200 0.000000
-2.037400 0.000000
-2.015500 0.000000
-1.993700 0.000000
-1.971900 0.000000
-1.950100 0.000000
-1.928300 0.000000
-1.906500 0.000000
-1.884600 0.000000
-1.862800 0.000000
-1.841000 0.000000
-1.819200 0.000000
-1.797400 0.000000
-1.775600 0.000000
-1.753700 0.000000
-1.731900 0.000000
-1.710100 0.012400
-1.688300 0.058700
-1.666500 0.139100
-1.644700 0.253600
-1.622800 0.402300
-1.601000 0.691800
-1.579200 1.036000
-1.557400 1.404300
-1.535600 1.745900
-1.513800 2.054900
-1.492000 2.331200
-1.470100 2.574800
-1.448300 2.785700
-1.426500 2.963900
-1.404700 2.372200
-1.382900 3.040700
-1.361100 4.209200
-1.339200 4.711100
-1.317400 6.519200
-1.295600 5.664200
-1.273800 4.333500
-1.252000 1.905200
-1.230200 1.904800
-1.208300 1.904400
-1.186500 2.175400
-1.164700 2.874300
-1.142900 3.629000
-1.121100 3.848200
-1.099300 4.026700
-1.077400 4.164400
-1.055600 4.261200
-1.033800 4.317300
-1.012000 4.332500
-0.990200 4.771700
-0.968400 5.032600
-0.946500 4.902300
-0.924700 5.356900
-0.902900 6.114300
-0.881100 13.776800
-0.859300 4.303900
-0.837500 4.489400
-0.815600 4.694500
-0.793800 4.919400
-0.772000 5.164000
-0.750200 7.034600
-0.728400 6.883000
-0.706600 6.323200
-0.684700 5.700400
-0.662900 5.420600
-0.641100 5.111800
-0.619300 4.774100
-0.597500 4.345300
-0.575700 3.614000
-0.553800 3.032400
-0.532000 2.777100
-0.510200 2.636100
-0.488400 2.536900
-0.466600 2.479900
-0.444800 2.438600
-0.422900 2.412500
-0.401100 2.401700
-0.379300 3.815600
-0.357500 5.375300
-0.335700 6.960500
-0.313900 8.643200
-0.292100 10.047900
-0.270200 7.085100
-0.248400 5.186600
-0.226600 5.372200
-0.204800 5.287200
-0.183000 5.168300
-0.161200 5.653100
-0.139300 6.231900
-0.117500 6.515000
-0.095700 7.320100
-0.073900 7.656400
-0.052100 7.507700
-0.030300 6.444100
-0.008400 5.200300
0.013400 4.262100
0.035200 3.916800
0.057000 3.665800
0.078800 3.464700
0.100600 3.326100
0.122500 3.544300
0.144300 4.103400
0.166100 5.631200
0.187900 6.254800
0.209700 6.876100
0.231500 7.781400
0.253400 7.551600
0.275200 7.760500
0.297000 7.230400
0.318800 7.105600
0.340600 6.585900
0.362400 6.175200
0.384300 7.470800
0.406100 6.839300
0.427900 7.222100
0.449700 7.684700
0.471500 8.264100
0.493300 12.006600
0.515200 10.963500
0.537000 6.018500
0.558800 5.785600
0.580600 5.566200
0.602400 5.365700
0.624200 5.194600
0.646100 5.060800
0.667900 4.911800
0.689700 4.747500
0.711500 4.607500
0.733300 4.367600
0.755100 4.056800
0.776900 3.775000
0.798800 3.589800
0.820600 3.497600
0.842400 3.412000
0.864200 3.320900
0.886000 3.215600
0.907800 3.095900
0.929700 2.962000
0.951500 2.813800
0.973300 2.653500
0.995100 2.489200
1.016900 1.955600
1.038700 1.947300
1.060600 2.155800
1.082400 2.479800
1.104200 2.924500
1.126000 3.570100
1.147800 7.612800
1.169600 9.055300
1.191500 7.297600
1.213300 6.712000
1.235100 6.112000
1.256900 5.883200
1.278700 5.322800
1.300500 4.990900
1.322400 4.588700
1.344200 3.861400
1.366000 2.730400
1.387800 2.605900
1.409600 2.491800
1.431400 2.388300
1.453300 2.295200
1.475100 2.212600
1.496900 2.140800
1.518700 2.078700
1.540500 2.021400
1.562300 1.962400
1.584200 1.901500
1.606000 1.850500
1.627800 1.810100
1.649600 1.769200
1.671400 1.727400
1.693200 1.656900
1.715100 1.543000
1.736900 1.436700
1.758700 1.347600
1.780500 1.307400
1.802300 1.304600
1.824100 1.257000
1.846000 1.197800
1.867800 1.129400
1.889600 1.050900
1.911400 0.975400
1.933200 0.902900
1.955000 0.833300
1.976800 0.785200
1.998700 0.771300
2.020500 0.757900
2.042300 0.744900
2.064100 0.732300
2.085900 0.720200
2.107700 0.708500
2.129600 0.697300
2.151400 0.686600
2.173200 0.676300
2.195000 0.666400
2.216800 0.657000
2.238600 0.648000
2.260500 0.639500
2.282300 0.631500
2.304100 0.623900
2.325900 0.616700
2.347700 0.610200
2.369500 0.604300
2.391400 0.598700
2.413200 0.593600
2.435000 0.588900
2.456800 0.584700
2.478600 0.580800
2.500400 0.574000
2.522300 0.562200
2.544100 0.547900
2.565900 0.531100
2.587700 0.511800
2.609500 0.483900
2.631300 0.440600
2.653200 0.400500
2.675000 0.363500
2.696800 0.329300
2.718600 0.298100
2.740400 0.269600
2.762200 0.244000
2.784100 0.221200
2.805900 0.195400
2.827700 0.168100
2.849500 0.156300
2.871300 0.144900
2.893100 0.133900
2.915000 0.123300
2.936800 0.113100
2.958600 0.103300
2.980400 0.094000
3.002200 0.085000
3.024000 0.076500
3.045900 0.068400
3.067700 0.060700
3.089500 0.053300
3.111300 0.046400
3.133100 0.039900
3.154900 0.033900
3.176700 0.028200
3.198600 0.022900
3.220400 0.000000
3.242200 0.000000
3.264000 0.000000
3.285800 0.000000
3.307600 0.000000
3.329500 0.000000
3.351300 0.000000
3.373100 0.000000
3.394900 0.000000
3.416700 0.000000
3.438500 0.000000
3.460400 0.000000
3.482200 0.000000
3.504000 0.000000
3.525800 0.000000
3.547600 0.000000
3.569400 0.000000
3.591300 0.000000
3.613100 0.000000
3.634900 0.000000
3.656700 0.000000
3.678500 0.000000
3.700300 0.000000
3.722200 0.000000
3.744000 0.000000
3.765800 0.000000
3.787600 0.000000
3.809400 0.000000
3.831200 0.000000
3.853100 0.000000
3.874900 0.000900
3.896700 0.006000
3.918500 0.015600
3.940300 0.029600
3.962100 0.048000
3.984000 0.082900
4.005800 0.151700
4.027600 0.254700
4.049400 0.391700
4.071200 0.564400
4.093000 0.759800
4.114900 0.937900
4.136700 1.098600
4.158500 1.242100
4.180300 1.345100
4.202100 1.217800
4.223900 1.351700
4.245800 1.494300
4.267600 1.630000
4.289400 1.746300
4.311200 1.851000
4.333000 1.947600
4.354800 2.027700
4.376600 2.096200
4.398500 2.125700
4.420300 2.153900
4.442100 2.181000
4.463900 2.206900
4.485700 2.231500
4.507500 2.255000
