set title 'mp-1017982 - Density of States'
set xlabel 'Energy (eV)'
set ylabel 'DOS (states/eV)'
set grid
set xrange [-10:10]
set yrange [0:63.083]
set xzeroaxis lt -1
set terminal png size 800,600
set output 'mp-1017982_dos_gnuplot.png'
plot '-' using 1:2 with lines title 'DOS'
-10.972300 0.000000
-10.954400 0.000000
-10.936600 0.000000
-10.918700 0.000000
-10.900800 0.000000
-10.882900 0.000000
-10.865000 0.000000
-10.847100 0.000000
-10.829200 0.000000
-10.811300 0.000000
-10.793400 0.000000
-10.775500 0.000000
-10.757600 0.000000
-10.739700 0.000000
-10.721800 0.000000
-10.703900 0.000000
-10.686000 0.000000
-10.668100 0.000000
-10.650200 0.000000
-10.632300 0.000000
-10.614400 0.000000
-10.596500 0.000000
-10.578600 0.000000
-10.560700 0.000000
-10.542900 0.000000
-10.525000 0.000000
-10.507100 0.000000
-10.489200 0.000000
-10.471300 0.000000
-10.453400 0.000000
-10.435500 0.000000
-10.417600 0.000000
-10.399700 0.000000
-10.381800 0.000000
-10.363900 0.000000
-10.346000 0.000000
-10.328100 0.000000
-10.310200 0.000000
-10.292300 0.000000
-10.274400 0.000000
-10.256500 0.000000
-10.238600 0.000000
-10.220700 0.000000
-10.202800 0.000000
-10.184900 0.000000
-10.167000 0.000000
-10.149200 0.000000
-10.131300 0.000000
-10.113400 0.000000
-10.095500 0.000000
-10.077600 0.000000
-10.059700 0.000000
-10.041800 0.000000
-10.023900 0.000000
-10.006000 0.000000
-9.988100 0.000000
-9.970200 0.000000
-9.952300 0.000000
-9.934400 0.000000
-9.916500 0.000000
-9.898600 0.000000
-9.880700 0.000000
-9.862800 0.000000
-9.844900 0.000000
-9.827000 0.000000
-9.809100 0.000000
-9.791200 0.000000
-9.773300 0.000000
-9.755500 0.000000
-9.737600 0.000000
-9.719700 0.000000
-9.701800 0.000000
-9.683900 0.000000
-9.666000 0.000000
-9.648100 0.000000
-9.630200 0.000000
-9.612300 0.000000
-9.594400 0.000000
-9.576500 0.000000
-9.558600 0.000000
-9.540700 0.000000
-9.522800 0.000000
-9.504900 0.000000
-9.487000 0.000000
-9.469100 0.000000
-9.451200 0.000000
-9.433300 0.000000
-9.415400 0.000000
-9.397500 0.000000
-9.379700 0.000000
-9.361800 0.000000
-9.343900 0.002700
-9.326000 0.324700
-9.308100 0.446900
-9.290200 0.629900
-9.272300 0.735800
-9.254400 0.868900
-9.236500 1.006900
-9.218600 1.144800
-9.200700 1.278000
-9.182800 1.425400
-9.164900 1.591500
-9.147000 1.768200
-9.129100 1.958600
-9.111200 2.171500
-9.093300 2.402700
-9.075400 2.674300
-9.057500 3.000900
-9.039600 3.344100
-9.021700 3.744800
-9.003800 4.290500
-8.986000 4.907800
-8.968100 5.593400
-8.950200 6.716700
-8.932300 8.111400
-8.914400 10.282100
-8.896500 13.856900
-8.878600 14.810300
-8.860700 15.980600
-8.842800 17.557300
-8.824900 19.444700
-8.807000 22.895800
-8.789100 57.348100
-8.771200 0.000000
-8.753300 0.000000
-8.735400 0.000000
-8.717500 0.000000
-8.699600 0.000000
-8.681700 0.000000
-8.663800 0.000000
-8.645900 0.000000
-8.628000 0.000000
-8.610100 0.000000
-8.592300 0.000000
-8.574400 0.000000
-8.556500 0.000000
-8.538600 0.000000
-8.520700 0.000000
-8.502800 0.000000
-8.484900 0.000000
-8.467000 0.000000
-8.449100 0.000000
-8.431200 0.000000
-8.413300 0.000000
-8.395400 0.000000
-8.377500 0.000000
-8.359600 0.000000
-8.341700 0.000000
-8.323800 0.000000
-8.305900 0.000000
-8.288000 0.000000
-8.270100 0.000000
-8.252200 0.000000
-8.234300 0.000000
-8.216400 0.000000
-8.198600 0.000000
-8.180700 0.000000
-8.162800 0.000000
-8.144900 0.000000
-8.127000 0.000000
-8.109100 0.000000
-8.091200 0.000000
-8.073300 0.000000
-8.055400 0.000000
-8.037500 0.000000
-8.019600 0.000000
-8.001700 0.000000
-7.983800 0.000000
-7.965900 0.000000
-7.948000 0.000000
-7.930100 0.000000
-7.912200 0.000000
-7.894300 0.000000
-7.876400 0.000000
-7.858500 0.000000
-7.840600 0.000000
-7.822700 0.000000
-7.804900 0.000000
-7.787000 0.000000
-7.769100 0.000000
-7.751200 0.000000
-7.733300 0.000000
-7.715400 0.000000
-7.697500 0.000000
-7.679600 0.000000
-7.661700 0.000000
-7.643800 0.000000
-7.625900 0.000000
-7.608000 0.000000
-7.590100 0.000000
-7.572200 0.000000
-7.554300 0.000000
-7.536400 0.000000
-7.518500 0.000000
-7.500600 0.000000
-7.482700 0.000000
-7.464800 0.000000
-7.446900 0.000000
-7.429000 0.000000
-7.411200 0.000000
-7.393300 0.000000
-7.375400 0.000000
-7.357500 0.000000
-7.339600 0.000000
-7.321700 0.000000
-7.303800 0.000000
-7.285900 0.000000
-7.268000 0.000000
-7.250100 0.000000
-7.232200 0.000000
-7.214300 0.000000
-7.196400 0.000000
-7.178500 0.000000
-7.160600 0.000000
-7.142700 0.000000
-7.124800 0.000000
-7.106900 0.000000
-7.089000 0.000000
-7.071100 0.000000
-7.053200 0.000000
-7.035400 0.000000
-7.017500 0.000000
-6.999600 0.000000
-6.981700 0.000000
-6.963800 0.000000
-6.945900 0.000000
-6.928000 0.000000
-6.910100 0.000000
-6.892200 0.000000
-6.874300 0.000000
-6.856400 0.000000
-6.838500 0.000000
-6.820600 0.000000
-6.802700 0.000000
-6.784800 0.000000
-6.766900 0.000000
-6.749000 0.000000
-6.731100 0.000000
-6.713200 0.000000
-6.695300 0.000000
-6.677400 0.000000
-6.659500 0.000000
-6.641700 0.000000
-6.623800 0.000000
-6.605900 0.000000
-6.588000 0.000000
-6.570100 0.000000
-6.552200 0.000000
-6.534300 0.000000
-6.516400 0.000000
-6.498500 0.000000
-6.480600 0.000000
-6.462700 0.000000
-6.444800 0.000000
-6.426900 0.000000
-6.409000 0.000000
-6.391100 0.000000
-6.373200 0.000000
-6.355300 0.000000
-6.337400 0.000000
-6.319500 0.000000
-6.301600 0.000000
-6.283700 0.000000
-6.265800 0.000000
-6.248000 0.000000
-6.230100 0.000000
-6.212200 0.000000
-6.194300 0.000000
-6.176400 0.000000
-6.158500 0.000000
-6.140600 0.000000
-6.122700 0.000000
-6.104800 0.000000
-6.086900 0.000000
-6.069000 0.000000
-6.051100 0.000000
-6.033200 0.000000
-6.015300 0.000000
-5.997400 0.000000
-5.979500 0.000000
-5.961600 0.000000
-5.943700 0.000000
-5.925800 0.000000
-5.907900 0.000000
-5.890000 0.000000
-5.872100 0.000000
-5.854300 0.000000
-5.836400 0.000000
-5.818500 0.000000
-5.800600 0.059300
-5.782700 1.549400
-5.764800 6.624700
-5.746900 10.765800
-5.729000 15.066000
-5.711100 29.915100
-5.693200 51.827700
-5.675300 32.353800
-5.657400 40.832500
-5.639500 39.892800
-5.621600 31.098200
-5.603700 19.038600
-5.585800 21.998500
-5.567900 27.275800
-5.550000 23.243000
-5.532100 20.086300
-5.514200 18.909300
-5.496300 18.351300
-5.478400 17.348400
-5.460600 20.272400
-5.442700 27.954000
-5.424800 31.612500
-5.406900 31.119800
-5.389000 35.279300
-5.371100 33.254400
-5.353200 33.808300
-5.335300 23.323000
-5.317400 18.605900
-5.299500 20.381000
-5.281600 29.973100
-5.263700 34.019700
-5.245800 40.316700
-5.227900 47.594900
-5.210000 31.500300
-5.192100 22.603500
-5.174200 13.865600
-5.156300 4.311600
-5.138400 2.541900
-5.120500 2.505500
-5.102600 2.098100
-5.084700 1.916400
-5.066900 1.853000
-5.049000 1.820400
-5.031100 1.799100
-5.013200 1.797100
-4.995300 1.805900
-4.977400 1.821400
-4.959500 1.838700
-4.941600 1.843200
-4.923700 1.836900
-4.905800 1.843700
-4.887900 1.856200
-4.870000 1.873400
-4.852100 1.894100
-4.834200 1.917400
-4.816300 1.943700
-4.798400 1.971500
-4.780500 2.001100
-4.762600 2.034000
-4.744700 2.069200
-4.726800 2.106600
-4.708900 2.145300
-4.691000 2.187700
-4.673200 2.235200
-4.655300 2.286800
-4.637400 2.342300
-4.619500 2.401300
-4.601600 2.468900
-4.583700 2.545400
-4.565800 2.634400
-4.547900 2.732400
-4.530000 2.839300
-4.512100 2.955700
-4.494200 3.210000
-4.476300 3.360400
-4.458400 3.475100
-4.440500 3.565100
-4.422600 3.876800
-4.404700 3.790700
-4.386800 3.800200
-4.368900 3.802900
-4.351000 3.756000
-4.333100 3.706700
-4.315200 3.698800
-4.297400 3.763200
-4.279500 3.883100
-4.261600 3.864900
-4.243700 3.878200
-4.225800 3.917100
-4.207900 3.943600
-4.190000 3.960600
-4.172100 4.095300
-4.154200 4.320800
-4.136300 4.823400
-4.118400 4.392000
-4.100500 4.369100
-4.082600 4.387000
-4.064700 4.470000
-4.046800 4.615100
-4.028900 4.660000
-4.011000 3.970500
-3.993100 2.868000
-3.975200 2.022200
-3.957300 1.401600
-3.939400 0.855800
-3.921500 0.000000
-3.903700 0.000000
-3.885800 0.000000
-3.867900 0.000000
-3.850000 0.000000
-3.832100 0.000000
-3.814200 0.000000
-3.796300 0.000000
-3.778400 0.000000
-3.760500 0.000000
-3.742600 0.000000
-3.724700 0.000000
-3.706800 0.000000
-3.688900 0.000000
-3.671000 0.000000
-3.653100 0.000000
-3.635200 0.000000
-3.617300 0.000000
-3.599400 0.000000
-3.581500 0.000000
-3.563600 0.000000
-3.545700 0.000000
-3.527800 0.000000
-3.510000 0.000000
-3.492100 0.000000
-3.474200 0.000000
-3.456300 0.000000
-3.438400 0.000000
-3.420500 0.000000
-3.402600 0.000000
-3.384700 0.000000
-3.366800 0.000000
-3.348900 0.000000
-3.331000 0.000000
-3.313100 0.000000
-3.295200 0.000000
-3.277300 0.000000
-3.259400 0.000000
-3.241500 0.000000
-3.223600 0.000000
-3.205700 0.000000
-3.187800 0.000000
-3.169900 0.000000
-3.152000 0.000000
-3.134100 0.000000
-3.116300 0.000000
-3.098400 0.000000
-3.080500 0.000000
-3.062600 0.000000
-3.044700 0.000000
-3.026800 0.000000
-3.008900 0.000000
-2.991000 0.000000
-2.973100 0.000000
-2.955200 0.000000
-2.937300 0.000000
-2.919400 0.000000
-2.901500 0.000000
-2.883600 0.000000
-2.865700 0.000000
-2.847800 0.000000
-2.829900 0.000000
-2.812000 0.000000
-2.794100 0.000000
-2.776200 0.000000
-2.758300 0.000000
-2.740400 0.000000
-2.722600 0.000000
-2.704700 0.000000
-2.686800 0.000000
-2.668900 0.000000
-2.651000 0.000000
-2.633100 0.000000
-2.615200 0.000000
-2.597300 0.000000
-2.579400 0.000000
-2.561500 0.000000
-2.543600 0.000000
-2.525700 0.000000
-2.507800 0.000000
-2.489900 0.000000
-2.472000 0.000000
-2.454100 0.000000
-2.436200 0.000000
-2.418300 0.000000
-2.400400 0.000000
-2.382500 0.000000
-2.364600 0.000000
-2.346700 0.000000
-2.328900 0.000000
-2.311000 0.000000
-2.293100 0.000000
-2.275200 0.000000
-2.257300 0.000000
-2.239400 0.000000
-2.221500 0.000000
-2.203600 0.000000
-2.185700 0.000000
-2.167800 0.000000
-2.149900 0.000000
-2.132000 0.000000
-2.114100 0.000000
-2.096200 0.000000
-2.078300 0.000000
-2.060400 0.000000
-2.042500 0.000000
-2.024600 0.000000
-2.006700 0.000000
-1.988800 0.000000
-1.970900 0.000000
-1.953000 0.000000
-1.935200 0.000000
-1.917300 0.000000
-1.899400 0.000000
-1.881500 0.000000
-1.863600 0.000000
-1.845700 0.000000
-1.827800 0.000000
-1.809900 0.000000
-1.792000 0.000000
-1.774100 0.000000
-1.756200 0.000000
-1.738300 0.000000
-1.720400 0.000000
-1.702500 0.000000
-1.684600 0.000000
-1.666700 0.000000
-1.648800 0.000000
-1.630900 0.000000
-1.613000 0.000000
-1.595100 0.000000
-1.577200 0.000000
-1.559400 0.000000
-1.541500 0.000000
-1.523600 0.000000
-1.505700 0.000000
-1.487800 0.000000
-1.469900 0.000000
-1.452000 0.000000
-1.434100 0.000000
-1.416200 0.000000
-1.398300 0.000000
-1.380400 0.000000
-1.362500 0.000000
-1.344600 0.000000
-1.326700 0.000000
-1.308800 0.000000
-1.290900 0.000000
-1.273000 0.000000
-1.255100 0.000000
-1.237200 0.000000
-1.219300 0.000000
-1.201400 0.000000
-1.183500 0.000000
-1.165700 0.000000
-1.147800 0.000000
-1.129900 0.000000
-1.112000 0.000000
-1.094100 0.000000
-1.076200 0.000000
-1.058300 0.000000
-1.040400 0.000000
-1.022500 0.000000
-1.004600 0.000000
-0.986700 0.000000
-0.968800 0.003900
-0.950900 0.030800
-0.933000 0.053600
-0.915100 0.079300
-0.897200 0.107800
-0.879300 0.136900
-0.861400 0.166300
-0.843500 0.924000
-0.825600 1.468800
-0.807700 2.188600
-0.789800 2.718000
-0.772000 2.928400
-0.754100 3.060600
-0.736200 3.398700
-0.718300 3.809200
-0.700400 4.437200
-0.682500 6.398900
-0.664600 5.989300
-0.646700 6.251500
-0.628800 6.350400
-0.610900 5.644100
-0.593000 5.079700
-0.575100 4.368400
-0.557200 3.660500
-0.539300 3.125300
-0.521400 2.935100
-0.503500 2.783600
-0.485600 2.692300
-0.467700 2.560800
-0.449800 2.415100
-0.431900 2.358300
-0.414000 2.294800
-0.396100 2.248600
-0.378300 2.203100
-0.360400 2.170200
-0.342500 2.131400
-0.324600 2.075800
-0.306700 2.097800
-0.288800 2.107800
-0.270900 2.081300
-0.253000 2.071600
-0.235100 2.063900
-0.217200 2.066100
-0.199300 2.072300
-0.181400 2.067200
-0.163500 2.084300
-0.145600 2.081900
-0.127700 2.057600
-0.109800 2.031400
-0.091900 2.079500
-0.074000 2.176900
-0.056100 2.191100
-0.038200 2.059000
-0.020300 1.875000
-0.002400 1.780200
0.015400 1.701000
0.033300 1.632000
0.051200 1.569700
0.069100 1.514100
0.087000 1.473000
0.104900 1.438700
0.122800 1.405500
0.140700 1.373300
0.158600 1.342100
0.176500 1.311900
0.194400 1.283000
0.212300 1.255500
0.230200 1.229000
0.248100 1.203500
0.266000 1.178600
0.283900 1.153700
0.301800 1.131500
0.319700 1.109600
0.337600 1.087800
0.355500 1.067600
0.373400 1.049300
0.391300 1.032900
0.409100 1.016900
0.427000 1.001300
0.444900 0.985800
0.462800 0.970300
0.480700 0.954900
0.498600 0.939600
0.516500 0.924500
0.534400 0.909600
0.552300 0.894900
0.570200 0.880300
0.588100 0.866300
0.606000 0.853000
0.623900 0.839500
0.641800 0.826400
0.659700 0.813600
0.677600 0.800700
0.695500 0.787500
0.713400 0.774900
0.731300 0.763800
0.749200 0.753200
0.767100 0.742600
0.785000 0.732100
0.802800 0.721700
0.820700 0.711400
0.838600 0.701000
0.856500 0.690500
0.874400 0.680700
0.892300 0.671800
0.910200 0.662800
0.928100 0.653800
0.946000 0.644900
0.963900 0.635900
0.981800 0.627100
0.999700 0.618200
1.017600 0.609300
1.035500 0.600200
1.053400 0.591000
1.071300 0.581900
1.089200 0.573100
1.107100 0.564700
1.125000 0.556900
1.142900 0.549000
1.160800 0.541500
1.178600 0.533900
1.196500 0.526600
1.214400 0.519500
1.232300 0.512400
1.250200 0.505300
1.268100 0.498200
1.286000 0.491200
1.303900 0.484200
1.321800 0.477200
1.339700 0.521400
1.357600 0.550800
1.375500 0.556500
1.393400 0.567600
1.411300 0.579500
1.429200 0.592100
1.447100 0.604800
1.465000 0.616500
1.482900 0.626700
1.500800 0.631000
1.518700 0.637000
1.536600 0.644800
1.554500 0.654000
1.572300 0.664000
1.590200 0.674400
1.608100 0.685300
1.626000 0.696600
1.643900 0.708400
1.661800 0.720600
1.679700 0.733300
1.697600 0.742500
1.715500 0.757600
1.733400 0.782000
1.751300 0.817900
1.769200 0.965200
1.787100 1.224000
1.805000 1.679300
1.822900 1.860200
1.840800 1.941500
1.858700 2.005800
1.876600 1.935900
1.894500 1.814700
1.912400 1.628100
1.930300 1.615700
1.948200 1.612700
1.966000 1.637700
1.983900 1.693600
2.001800 1.736000
2.019700 1.754000
2.037600 1.748300
2.055500 1.711100
2.073400 1.623100
2.091300 1.585000
2.109200 1.581100
2.127100 1.578700
2.145000 1.555700
2.162900 1.525100
2.180800 1.505300
2.198700 1.496000
2.216600 1.501300
2.234500 1.507900
2.252400 1.513600
2.270300 1.517500
2.288200 1.523000
2.306100 1.528700
2.324000 1.560600
2.341900 1.596300
2.359700 1.630500
2.377600 1.662800
2.395500 1.688600
2.413400 1.712700
2.431300 1.744900
2.449200 1.788200
2.467100 1.842800
2.485000 1.909500
2.502900 1.982700
2.520800 2.067200
2.538700 2.115100
2.556600 2.142300
2.574500 2.163800
2.592400 2.184100
2.610300 2.169600
2.628200 2.169200
2.646100 2.178200
2.664000 2.209200
2.681900 2.240600
2.699800 2.271700
2.717700 2.301200
2.735600 2.329500
2.753400 2.369500
2.771300 2.398500
2.789200 2.439100
2.807100 2.569100
2.825000 2.724300
2.842900 2.850400
2.860800 2.901400
2.878700 2.903700
2.896600 2.836000
2.914500 2.755700
2.932400 2.670600
2.950300 2.605800
2.968200 2.531100
2.986100 2.502900
3.004000 2.439400
3.021900 2.391700
3.039800 2.369400
3.057700 2.425500
3.075600 2.496300
3.093500 2.469300
3.111400 2.501800
3.129300 2.558500
3.147100 2.641500
3.165000 2.852300
3.182900 2.905200
3.200800 2.983200
3.218700 2.995000
3.236600 3.005600
3.254500 3.024100
3.272400 3.049300
3.290300 3.110200
3.308200 3.328500
3.326100 3.225600
3.344000 3.298200
3.361900 3.392700
3.379800 3.472400
3.397700 3.375500
3.415600 3.275900
3.433500 3.231300
3.451400 3.207000
3.469300 3.209100
3.487200 3.245800
3.505100 3.302100
3.522900 3.416600
3.540800 3.682000
3.558700 3.991600
3.576600 4.276900
3.594500 4.471300
3.612400 4.457600
3.630300 4.464000
3.648200 4.521200
3.666100 4.606500
3.684000 4.755700
3.701900 4.974600
3.719800 5.532800
3.737700 5.330100
3.755600 5.153500
3.773500 5.089500
3.791400 5.095900
3.809300 5.374300
3.827200 5.031500
3.845100 4.715900
3.863000 4.605400
3.880900 4.517700
3.898800 4.393100
3.916600 4.266500
3.934500 4.149600
3.952400 4.046400
3.970300 3.956900
3.988200 3.865600
4.006100 3.783600
4.024000 3.719400
4.041900 3.668600
4.059800 3.639100
4.077700 3.615100
4.095600 3.585300
4.113500 3.535400
4.131400 3.457000
4.149300 3.379300
4.167200 3.314100
4.185100 3.141600
4.203000 2.973200
4.220900 2.845200
4.238800 2.730700
4.256700 2.624300
4.274600 2.561500
4.292500 2.490700
4.310300 2.415800
4.328200 2.333800
4.346100 2.250700
4.364000 2.178600
4.381900 2.110900
4.399800 2.045300
4.417700 1.985600
4.435600 1.929000
4.453500 1.885400
4.471400 1.801200
4.489300 1.755800
4.507200 1.714500
4.525100 1.671800
4.543000 1.630000
4.560900 1.590500
4.578800 1.581100
4.596700 1.559900
4.614600 1.473100
4.632500 1.422200
4.650400 1.369500
4.668300 1.329100
4.686200 1.282600
4.704000 1.226900
4.721900 1.175900
4.739800 1.131300
4.757700 1.092200
4.775600 1.039800
4.793500 0.984700
4.811400 0.936900
4.829300 0.901200
4.847200 0.856600
4.865100 0.804500
4.883000 0.731300
4.900900 0.657600
4.918800 0.588400
4.936700 0.531700
4.954600 0.423900
4.972500 0.322400
4.990400 0.237100
5.008300 0.208900
5.026200 0.071100
5.044100 0.000100
5.062000 0.011300
5.079900 0.022900
5.097700 0.034200
5.115600 0.045100
5.133500 0.055100
5.151400 0.060700
5.169300 0.065700
5.187200 0.070400
5.205100 0.074800
5.223000 0.081600
5.240900 0.088400
5.258800 0.095500
5.276700 0.102700
5.294600 0.109900
5.312500 0.116900
5.330400 0.123100
5.348300 0.128700
5.366200 0.133800
5.384100 0.138800
5.402000 0.143900
5.419900 0.149500
5.437800 0.155700
5.455700 0.162300
5.473600 0.169000
5.491400 0.175800
5.509300 0.182700
5.527200 0.189700
5.545100 0.196800
5.563000 0.204100
5.580900 0.210700
5.598800 0.217000
5.616700 0.223300
5.634600 0.229800
5.652500 0.236600
5.670400 0.243500
5.688300 0.250500
5.706200 0.257700
5.724100 0.265100
5.742000 0.272700
5.759900 0.280400
5.777800 0.288200
5.795700 0.296200
5.813600 0.304300
5.831500 0.312600
5.849400 0.321600
5.867300 0.331100
5.885100 0.341000
5.903000 0.350400
5.920900 0.358900
5.938800 0.367300
5.956700 0.376000
5.974600 0.385100
5.992500 0.394400
6.010400 0.404000
6.028300 0.414100
6.046200 0.424700
6.064100 0.435900
6.082000 0.447700
6.099900 0.460200
6.117800 0.475700
6.135700 0.497400
6.153600 0.520800
6.171500 0.544400
6.189400 0.567700
6.207300 0.590700
6.225200 0.613500
6.243100 0.636100
6.260900 0.658100
6.278800 0.677300
6.296700 0.692900
6.314600 0.708800
6.332500 0.723900
6.350400 0.700900
6.368300 0.712500
6.386200 0.726700
6.404100 0.741400
6.422000 0.755200
6.439900 0.769300
6.457800 0.783600
6.475700 0.797900
6.493600 0.812600
6.511500 0.827600
6.529400 0.843000
6.547300 0.858500
6.565200 0.874300
6.583100 0.890200
6.601000 0.906600
6.618900 0.925900
6.636800 0.947900
6.654600 0.970500
6.672500 0.992300
6.690400 1.014800
6.708300 1.035200
6.726200 1.056200
6.744100 1.078500
6.762000 1.101200
6.779900 1.126000
6.797800 1.154400
6.815700 1.184600
6.833600 1.216600
6.851500 1.250200
6.869400 1.285700
6.887300 1.337300
6.905200 1.407400
6.923100 1.475700
6.941000 1.565700
6.958900 1.665200
6.976800 1.750800
6.994700 1.814000
7.012600 1.867700
7.030500 1.894300
7.048300 1.866100
7.066200 1.838600
7.084100 1.819800
7.102000 1.815800
7.119900 1.815900
7.137800 1.804900
7.155700 1.782700
7.173600 1.751100
7.191500 1.721700
7.209400 1.698900
7.227300 1.688400
7.245200 1.687300
7.263100 1.687300
7.281000 1.683600
7.298900 1.680100
7.316800 1.670600
7.334700 1.656700
7.352600 1.644200
7.370500 1.634400
7.388400 1.626800
7.406300 1.624600
7.424200 1.622600
7.442000 1.617500
7.459900 1.611700
7.477800 1.610400
7.495700 1.610400
7.513600 1.610200
7.531500 1.609700
7.549400 1.609200
7.567300 1.609100
7.585200 1.610300
7.603100 1.615800
7.621000 1.621000
7.638900 1.624900
7.656800 1.628300
7.674700 1.631900
7.692600 1.636300
7.710500 1.639700
7.728400 1.641600
7.746300 1.642400
7.764200 1.641600
7.782100 1.640100
7.800000 1.638800
7.817900 1.634700
7.835700 1.634300
7.853600 1.635700
7.871500 1.638300
7.889400 1.642600
7.907300 1.647900
