set title 'mp-9889 - Density of States'
set xlabel 'Energy (eV)'
set ylabel 'DOS (states/eV)'
set grid
set xrange [-10:10]
set yrange [0:11.393]
set xzeroaxis lt -1
set terminal png size 800,600
set output 'mp-9889_dos_gnuplot.png'
plot '-' using 1:2 with lines title 'DOS'
-15.890300 0.000000
-15.860200 0.000000
-15.830000 0.000000
-15.799900 0.000000
-15.769800 0.000000
-15.739600 0.000000
-15.709500 0.000000
-15.679400 0.000000
-15.649300 0.000000
-15.619100 0.000000
-15.589000 0.000000
-15.558900 0.000000
-15.528800 0.000000
-15.498600 0.000000
-15.468500 0.000000
-15.438400 0.000000
-15.408200 0.000000
-15.378100 0.000000
-15.348000 0.000000
-15.317900 0.000000
-15.287700 0.000000
-15.257600 0.000000
-15.227500 0.000000
-15.197400 0.000000
-15.167200 0.000000
-15.137100 0.000000
-15.107000 0.000000
-15.076900 0.000000
-15.046700 0.000000
-15.016600 0.000000
-14.986500 0.000000
-14.956300 0.000000
-14.926200 0.000000
-14.896100 0.000000
-14.866000 0.000000
-14.835800 0.000000
-14.805700 0.000000
-14.775600 0.000000
-14.745500 0.000000
-14.715300 0.000000
-14.685200 0.000000
-14.655100 0.000000
-14.624900 0.000000
-14.594800 0.000000
-14.564700 0.000000
-14.534600 0.000000
-14.504400 0.000000
-14.474300 0.000000
-14.444200 0.000000
-14.414100 0.000000
-14.383900 0.000000
-14.353800 0.000000
-14.323700 0.000000
-14.293600 0.000000
-14.263400 0.000000
-14.233300 0.000000
-14.203200 0.000000
-14.173000 0.000000
-14.142900 0.000000
-14.112800 0.000000
-14.082700 0.000000
-14.052500 0.000000
-14.022400 0.000000
-13.992300 0.000000
-13.962200 0.000000
-13.932000 0.000000
-13.901900 0.000000
-13.871800 0.000000
-13.841600 0.000000
-13.811500 0.000000
-13.781400 0.000000
-13.751300 0.000000
-13.721100 0.000000
-13.691000 0.000000
-13.660900 0.000000
-13.630800 0.000000
-13.600600 0.000000
-13.570500 0.000000
-13.540400 0.000000
-13.510300 0.000000
-13.480100 0.000000
-13.450000 0.000000
-13.419900 0.000000
-13.389700 0.000000
-13.359600 0.000000
-13.329500 0.000000
-13.299400 0.000000
-13.269200 0.000000
-13.239100 0.000000
-13.209000 0.000000
-13.178900 0.000000
-13.148700 15.016600
-13.118600 42.220400
-13.088500 23.483100
-13.058300 14.152800
-13.028200 5.504100
-12.998100 4.636100
-12.968000 32.963500
-12.937800 5.411000
-12.907700 103.599000
-12.877600 46.117000
-12.847500 26.729200
-12.817300 37.181500
-12.787200 2.702000
-12.757100 131.688800
-12.726900 13.899700
-12.696800 0.687600
-12.666700 5.591800
-12.636600 10.121300
-12.606400 23.126100
-12.576300 0.000000
-12.546200 0.000000
-12.516100 0.000000
-12.485900 0.000000
-12.455800 0.000000
-12.425700 0.000000
-12.395600 0.000000
-12.365400 0.000000
-12.335300 0.000000
-12.305200 0.000000
-12.275000 0.000000
-12.244900 0.000000
-12.214800 0.000000
-12.184700 0.000000
-12.154500 0.000000
-12.124400 0.000000
-12.094300 0.000000
-12.064200 0.000000
-12.034000 0.000000
-12.003900 0.001900
-11.973800 0.064100
-11.943600 0.154500
-11.913500 0.244800
-11.883400 0.335200
-11.853300 0.425600
-11.823100 0.516000
-11.793000 0.606300
-11.762900 0.696700
-11.732800 0.787100
-11.702600 0.930500
-11.672500 1.093200
-11.642400 0.904600
-11.612300 1.035500
-11.582100 1.166300
-11.552000 1.297200
-11.521900 1.428100
-11.491700 1.559000
-11.461600 1.689900
-11.431500 1.700600
-11.401400 1.424800
-11.371200 1.457800
-11.341100 1.490800
-11.311000 1.523900
-11.280900 1.556900
-11.250700 1.589900
-11.220600 1.622900
-11.190500 1.656000
-11.160300 1.689000
-11.130200 1.722000
-11.100100 1.763400
-11.070000 1.813200
-11.039800 1.863000
-11.009700 1.912900
-10.979600 1.962700
-10.949500 2.012600
-10.919300 2.072400
-10.889200 2.156500
-10.859100 2.247400
-10.829000 2.338300
-10.798800 2.429100
-10.768700 2.520000
-10.738600 2.612600
-10.708400 2.716600
-10.678300 2.822100
-10.648200 2.927600
-10.618100 3.033100
-10.587900 3.138600
-10.557800 3.244100
-10.527700 3.349700
-10.497600 3.455200
-10.467400 3.560700
-10.437300 3.666200
-10.407200 13.231700
-10.377000 4.014600
-10.346900 3.847600
-10.316800 4.531700
-10.286700 3.835300
-10.256500 3.138800
-10.226400 2.442200
-10.196300 1.745600
-10.166200 1.048800
-10.136000 0.352000
-10.105900 0.000000
-10.075800 0.000000
-10.045600 0.000000
-10.015500 0.000000
-9.985400 0.000000
-9.955300 0.000000
-9.925100 0.000000
-9.895000 0.000000
-9.864900 0.000000
-9.834800 0.000000
-9.804600 0.000000
-9.774500 0.000000
-9.744400 0.000000
-9.714300 0.000000
-9.684100 0.000000
-9.654000 0.000000
-9.623900 0.000000
-9.593700 0.000000
-9.563600 0.000000
-9.533500 0.000000
-9.503400 0.000000
-9.473200 0.000000
-9.443100 0.000000
-9.413000 0.000000
-9.382900 0.000000
-9.352700 0.000000
-9.322600 0.000000
-9.292500 0.000000
-9.262300 0.000000
-9.232200 0.000000
-9.202100 0.000000
-9.172000 0.000000
-9.141800 0.000000
-9.111700 0.000000
-9.081600 0.000000
-9.051500 0.000000
-9.021300 0.000000
-8.991200 0.000000
-8.961100 0.000000
-8.931000 0.000000
-8.900800 0.000000
-8.870700 0.000000
-8.840600 0.000000
-8.810400 0.000000
-8.780300 0.000000
-8.750200 0.000000
-8.720100 0.000000
-8.689900 0.000000
-8.659800 0.000000
-8.629700 0.000000
-8.599600 0.000000
-8.569400 0.000000
-8.539300 0.000000
-8.509200 0.000000
-8.479000 0.000000
-8.448900 0.000000
-8.418800 0.000000
-8.388700 0.000000
-8.358500 0.000000
-8.328400 0.000000
-8.298300 0.000000
-8.268200 0.000000
-8.238000 0.000000
-8.207900 0.000000
-8.177800 0.000000
-8.147700 0.000000
-8.117500 0.000000
-8.087400 0.000000
-8.057300 0.000000
-8.027100 0.000000
-7.997000 0.000000
-7.966900 0.000000
-7.936800 0.000000
-7.906600 0.000000
-7.876500 0.000000
-7.846400 0.000000
-7.816300 0.000000
-7.786100 0.000000
-7.756000 0.000000
-7.725900 0.000000
-7.695700 0.000000
-7.665600 0.000000
-7.635500 0.000000
-7.605400 0.000000
-7.575200 0.000000
-7.545100 0.000000
-7.515000 0.000000
-7.484900 0.000000
-7.454700 0.000000
-7.424600 0.000000
-7.394500 0.000000
-7.364400 0.000000
-7.334200 0.000000
-7.304100 0.000000
-7.274000 0.000000
-7.243800 0.000000
-7.213700 0.000000
-7.183600 0.000000
-7.153500 0.000000
-7.123300 0.000000
-7.093200 0.000000
-7.063100 0.000000
-7.033000 0.000000
-7.002800 0.000000
-6.972700 0.000000
-6.942600 0.000000
-6.912400 0.000000
-6.882300 0.000000
-6.852200 0.000000
-6.822100 0.000000
-6.791900 0.000000
-6.761800 0.000000
-6.731700 0.000000
-6.701600 0.000000
-6.671400 0.000000
-6.641300 0.000000
-6.611200 0.000000
-6.581000 0.000000
-6.550900 0.000000
-6.520800 0.000000
-6.490700 0.000000
-6.460500 0.000000
-6.430400 0.000000
-6.400300 0.000000
-6.370200 0.000000
-6.340000 0.000000
-6.309900 0.000000
-6.279800 0.000000
-6.249700 0.000000
-6.219500 0.000000
-6.189400 0.000000
-6.159300 0.000000
-6.129100 0.000000
-6.099000 0.000000
-6.068900 0.000000
-6.038800 0.000000
-6.008600 0.000000
-5.978500 0.000000
-5.948400 0.000000
-5.918300 0.000000
-5.888100 0.000000
-5.858000 0.000000
-5.827900 0.000000
-5.797700 0.000000
-5.767600 0.000000
-5.737500 0.000000
-5.707400 0.000000
-5.677200 0.000000
-5.647100 0.000000
-5.617000 0.000000
-5.586900 0.000000
-5.556700 0.000000
-5.526600 0.000000
-5.496500 0.000000
-5.466400 0.000000
-5.436200 0.000000
-5.406100 0.180700
-5.376000 0.479100
-5.345800 0.777600
-5.315700 1.076100
-5.285600 1.374600
-5.255500 3.363000
-5.225300 5.705600
-5.195200 8.044900
-5.165100 1.559700
-5.135000 1.535500
-5.104800 1.511200
-5.074700 1.486900
-5.044600 1.462700
-5.014400 1.438400
-4.984300 1.414200
-4.954200 1.389900
-4.924100 1.365600
-4.893900 1.341400
-4.863800 1.317100
-4.833700 1.292900
-4.803600 1.268600
-4.773400 1.317100
-4.743300 1.479300
-4.713200 1.641500
-4.683100 1.954500
-4.652900 2.464300
-4.622800 3.076000
-4.592700 3.829200
-4.562500 4.603500
-4.532400 4.868600
-4.502300 3.599100
-4.472200 1.070500
-4.442000 1.215300
-4.411900 1.360100
-4.381800 5.109300
-4.351700 10.357400
-4.321500 0.976700
-4.291400 0.961600
-4.261300 0.946500
-4.231100 0.931500
-4.201000 0.916400
-4.170900 0.901300
-4.140800 0.886200
-4.110600 0.871200
-4.080500 0.856100
-4.050400 0.841000
-4.020300 0.826000
-3.990100 0.810900
-3.960000 0.795800
-3.929900 0.780700
-3.899800 0.765700
-3.869600 0.750600
-3.839500 0.735500
-3.809400 0.720500
-3.779200 0.705400
-3.749100 0.690700
-3.719000 0.677100
-3.688900 0.663500
-3.658700 0.649900
-3.628600 0.636300
-3.598500 0.622700
-3.568400 0.609100
-3.538200 0.595500
-3.508100 0.581900
-3.478000 0.568300
-3.447800 0.554700
-3.417700 0.541100
-3.387600 0.527500
-3.357500 0.513900
-3.327300 0.500300
-3.297200 0.486700
-3.267100 0.473100
-3.237000 0.459600
-3.206800 0.446000
-3.176700 0.432400
-3.146600 0.419600
-3.116400 0.415400
-3.086300 0.413000
-3.056200 0.410600
-3.026100 0.408300
-2.995900 0.405900
-2.965800 0.403500
-2.935700 0.401100
-2.905600 0.398800
-2.875400 0.396400
-2.845300 0.394000
-2.815200 0.391600
-2.785100 0.389300
-2.754900 0.386900
-2.724800 0.384500
-2.694700 0.382100
-2.664500 0.385100
-2.634400 0.413800
-2.604300 0.472000
-2.574200 0.530200
-2.544000 0.588400
-2.513900 0.646600
-2.483800 0.704800
-2.453700 0.762900
-2.423500 0.821100
-2.393400 0.879300
-2.363300 0.937500
-2.333100 0.995700
-2.303000 1.053900
-2.272900 1.112100
-2.242800 1.170300
-2.212600 1.866200
-2.182500 2.146300
-2.152400 1.781700
-2.122300 1.825300
-2.092100 1.936200
-2.062000 1.988900
-2.031900 2.216200
-2.001800 2.613200
-1.971600 3.190700
-1.941500 4.047100
-1.911400 5.085000
-1.881200 7.106900
-1.851100 6.275400
-1.821000 4.404400
-1.790900 3.336900
-1.760700 3.016100
-1.730600 2.928700
-1.700500 2.841200
-1.670400 2.753800
-1.640200 2.666400
-1.610100 2.579000
-1.580000 2.491600
-1.549800 2.404200
-1.519700 2.316800
-1.489600 2.229400
-1.459500 2.142100
-1.429300 2.054700
-1.399200 1.986200
-1.369100 1.951800
-1.339000 2.555800
-1.308800 3.113400
-1.278700 3.626400
-1.248600 4.245700
-1.218500 4.667300
-1.188300 4.620900
-1.158200 4.514000
-1.128100 4.355900
-1.097900 4.619000
-1.067800 4.641800
-1.037700 4.623000
-1.007600 4.632500
-0.977400 4.662400
-0.947300 4.756000
-0.917200 4.851600
-0.887100 4.710500
-0.856900 4.600000
-0.826800 4.571600
-0.796700 4.616200
-0.766500 4.788400
-0.736400 5.704000
-0.706300 9.752500
-0.676200 10.126100
-0.646000 10.037800
-0.615900 8.288800
-0.585800 4.506600
-0.555700 3.812700
-0.525500 3.114000
-0.495400 2.410600
-0.465300 1.942200
-0.435100 1.875700
-0.405000 1.810000
-0.374900 1.744400
-0.344800 1.678700
-0.314600 1.613000
-0.284500 1.547300
-0.254400 1.481700
-0.224300 1.416000
-0.194100 1.350300
-0.164000 1.284600
-0.133900 1.218900
-0.103800 1.153200
-0.073600 1.087500
-0.043500 1.418600
-0.013400 1.397000
0.016800 1.375400
0.046900 1.353800
0.077000 1.729300
0.107100 1.895700
0.137300 1.806600
0.167400 1.717400
0.197500 1.628300
0.227600 1.539100
0.257800 1.449800
0.287900 1.360600
0.318000 1.275900
0.348200 1.481300
0.378300 1.942300
0.408400 2.766500
0.438500 3.821100
0.468700 3.325200
0.498800 2.295100
0.528900 1.741100
0.559000 1.694300
0.589200 1.647800
0.619300 1.601500
0.649400 1.555400
0.679500 1.509500
0.709700 1.463800
0.739800 1.418400
0.769900 1.373200
0.800100 1.328200
0.830200 1.283400
0.860300 1.253600
0.890400 1.272100
0.920600 1.331700
0.950700 1.398600
0.980800 1.531100
1.010900 1.670600
1.041100 1.817200
1.071200 1.970800
1.101300 2.496800
1.131500 2.146800
1.161600 1.693700
1.191700 1.410000
1.221800 1.252400
1.252000 1.141800
1.282100 1.041300
1.312200 0.932400
1.342300 0.815100
1.372500 0.704800
1.402600 0.649200
1.432700 0.654600
1.462800 0.977100
1.493000 0.000000
1.523100 0.000000
1.553200 0.000000
1.583400 0.000000
1.613500 0.000000
1.643600 0.000000
1.673700 0.000000
1.703900 0.000000
1.734000 0.000000
1.764100 0.000000
1.794200 0.000000
1.824400 0.000000
1.854500 0.000000
1.884600 0.000000
1.914800 0.000000
1.944900 0.000000
1.975000 0.000000
2.005100 0.000000
2.035300 0.000000
2.065400 0.000000
2.095500 0.000000
2.125600 0.000000
2.155800 0.000000
2.185900 0.000000
2.216000 0.000000
2.246100 0.000000
2.276300 0.000000
2.306400 0.000000
2.336500 0.000000
2.366700 0.000000
2.396800 0.000000
2.426900 0.000000
2.457000 0.000000
2.487200 0.000000
2.517300 0.000000
2.547400 0.000000
2.577500 0.000000
2.607700 0.000000
2.637800 0.000000
2.667900 0.000000
2.698100 0.000000
2.728200 0.000000
2.758300 0.000000
2.788400 0.000000
2.818600 0.000000
2.848700 0.000000
2.878800 0.000000
2.908900 0.000000
2.939100 0.000000
2.969200 0.000000
2.999300 0.000000
3.029500 0.000000
3.059600 0.000000
3.089700 0.000000
3.119800 0.000000
3.150000 0.000000
3.180100 0.000000
3.210200 0.000000
3.240300 0.000000
3.270500 0.000000
3.300600 0.000000
3.330700 0.000000
3.360800 0.000000
3.391000 0.000000
3.421100 0.000000
3.451200 0.001700
3.481400 0.004400
3.511500 0.007900
3.541600 0.012000
3.571700 0.016900
3.601900 0.022500
3.632000 0.029100
3.662100 0.036700
3.692200 0.045400
3.722400 0.055200
3.752500 0.067900
3.782600 0.081000
3.812800 0.097500
3.842900 0.151000
3.873000 0.365300
3.903100 0.652700
3.933300 0.903300
3.963400 1.072200
3.993500 1.205100
4.023600 1.318000
4.053800 1.418100
4.083900 1.506000
4.114000 1.582700
4.144100 1.664300
4.174300 1.776500
4.204400 1.901000
4.234500 2.049400
4.264700 2.207400
4.294800 2.365300
4.324900 2.523200
4.355000 2.681000
4.385200 2.844200
4.415300 3.222800
4.445400 3.838000
4.475500 4.738900
4.505700 5.242300
4.535800 5.301100
4.565900 4.996200
4.596100 4.638700
4.626200 4.308700
4.656300 3.983000
4.686400 3.656800
4.716600 3.329900
4.746700 3.342200
4.776800 4.989400
4.806900 5.692000
4.837100 6.091300
4.867200 8.982300
4.897300 3.671800
4.927400 3.054800
4.957600 2.728700
4.987700 2.429300
5.017800 2.152500
5.048000 1.942300
5.078100 1.876100
5.108200 1.941500
5.138300 2.097100
5.168500 2.259500
5.198600 2.422300
5.228700 2.584400
5.258800 2.745900
5.289000 2.908400
5.319100 3.075600
5.349200 3.244500
5.379400 1.844300
5.409500 1.884800
5.439600 2.001400
5.469700 2.117900
5.499900 2.234400
5.530000 2.350900
5.560100 2.467300
5.590200 2.583600
5.620400 2.410600
5.650500 2.327700
5.680600 2.189800
5.710700 1.906800
5.740900 1.836400
5.771000 1.766100
5.801100 1.695700
5.831300 1.691100
5.861400 2.008000
5.891500 2.167500
5.921600 2.323300
5.951800 2.523500
5.981900 2.747300
6.012000 1.546800
6.042100 1.094000
6.072300 0.782600
6.102400 0.569900
6.132500 0.423000
6.162700 0.322000
6.192800 0.286100
6.222900 0.258400
6.253000 0.230800
6.283200 0.203100
6.313300 0.175500
6.343400 0.147800
6.373500 0.120200
6.403700 0.092600
6.433800 0.065000
6.463900 0.037400
6.494100 0.009800
6.524200 0.040200
6.554300 0.101400
6.584400 0.585800
6.614600 1.764200
6.644700 2.602300
6.674800 2.679700
6.704900 2.757700
6.735100 2.836400
6.765200 2.915700
6.795300 2.995700
6.825400 3.076400
6.855600 3.320900
6.885700 6.018900
6.915800 4.708700
6.946000 4.307800
6.976100 3.906600
7.006200 3.505100
7.036300 3.103200
7.066500 2.745800
7.096600 2.272000
7.126700 1.638700
7.156800 1.058300
7.187000 0.858400
7.217100 1.085700
7.247200 1.354300
7.277400 1.576100
7.307500 1.821600
7.337600 2.057500
7.367700 2.248700
7.397900 2.395200
7.428000 2.312300
7.458100 2.112200
7.488200 1.988100
7.518400 1.863600
7.548500 1.738800
7.578600 1.613700
7.608700 1.488200
7.638900 1.362500
7.669000 1.238500
7.699100 1.292900
7.729300 1.930700
7.759400 2.200600
7.789500 2.230500
7.819600 2.181800
7.849800 2.025200
7.879900 1.955500
7.910000 1.920700
7.940100 1.917200
7.970300 1.916900
8.000400 1.910400
8.030500 1.911800
8.060700 1.989800
8.090800 2.104600
8.120900 2.385100
8.151000 2.806500
8.181200 3.312900
8.211300 3.873200
8.241400 4.486200
8.271500 4.990600
8.301700 5.332900
8.331800 6.146200
8.361900 6.602200
8.392000 6.709500
8.422200 6.685300
8.452300 6.343700
8.482400 5.293900
8.512600 4.567100
8.542700 4.112100
8.572800 3.702300
8.602900 3.383100
8.633100 3.091300
8.663200 2.315300
8.693300 1.717400
8.723400 1.351700
8.753600 1.297500
8.783700 1.288200
8.813800 1.396400
8.844000 1.591200
8.874100 1.796900
8.904200 1.990700
8.934300 2.172400
8.964500 2.399100
8.994600 2.852800
9.024700 4.939500
9.054800 6.372600
9.085000 6.202000
9.115100 5.146400
9.145200 4.828800
9.175400 4.592700
9.205500 4.299200
9.235600 3.944600
9.265700 3.645100
9.295900 3.354200
9.326000 3.072800
9.356100 2.791000
9.386200 2.508700
9.416400 2.225800
9.446500 1.942300
9.476600 1.812000
9.506700 1.666500
9.536900 1.507400
9.567000 1.348600
9.597100 1.201800
9.627300 1.114400
9.657400 1.046800
9.687500 1.014100
9.717600 1.001000
9.747800 1.003400
9.777900 1.021200
9.808000 1.058000
9.838100 1.115800
9.868300 1.185800
9.898400 1.517000
9.928500 1.721300
9.958700 1.768900
9.988800 2.004400
10.018900 2.214600
10.049000 2.399600
10.079200 2.562600
10.109300 2.754200
10.139400 2.991700
10.169500 3.186600
10.199700 3.360000
10.229800 3.538400
10.259900 3.663100
10.290000 3.358100
10.320200 3.251700
10.350300 3.172000
10.380400 3.071500
10.410600 2.883800
10.440700 2.653100
10.470800 2.499100
10.500900 2.443100
10.531100 2.455800
10.561200 2.512500
10.591300 2.635400
10.621400 2.974400
10.651600 3.009700
10.681700 2.865600
10.711800 2.810200
10.742000 2.801600
10.772100 2.798200
10.802200 2.827600
10.832300 3.071500
10.862500 2.675800
10.892600 2.009000
10.922700 1.833400
10.952800 1.668400
10.983000 1.514000
11.013100 1.370000
11.043200 1.236500
11.073300 1.127700
11.103500 1.027300
11.133600 1.065200
11.163700 1.252500
11.193900 1.488600
11.224000 1.780500
11.254100 2.816700
11.284200 3.522400
11.314400 4.289300
11.344500 4.917700
11.374600 5.051300
11.404700 4.995600
11.434900 4.654800
11.465000 4.060800
11.495100 3.616000
11.525300 3.353400
11.555400 3.194400
11.585500 3.071000
11.615600 2.933700
11.645800 2.814800
11.675900 2.841800
11.706000 2.890500
11.736100 2.935500
11.766300 2.944900
11.796400 2.912500
11.826500 2.889700
11.856600 2.890300
11.886800 2.899300
11.916900 2.923400
11.947000 2.972000
11.977200 2.992800
12.007300 3.032900
12.037400 3.079100
12.067500 3.188600
12.097700 3.351600
12.127800 3.216900
12.157900 3.007800
12.188000 2.315100
12.218200 2.292700
12.248300 2.279100
12.278400 2.322800
12.308600 2.320600
12.338700 2.205200
12.368800 1.982300
12.398900 1.791600
12.429100 1.947200
12.459200 2.094000
12.489300 2.219400
12.519400 2.319600
12.549600 2.393200
12.579700 2.448800
12.609800 2.502200
12.640000 2.587800
12.670100 2.698600
12.700200 2.800800
12.730300 2.887000
12.760500 2.926500
12.790600 2.903300
12.820700 2.870200
12.850800 2.839900
12.881000 2.816200
12.911100 2.813600
12.941200 2.823900
12.971300 2.825700
13.001500 2.806600
13.031600 2.769100
13.061700 2.736000
13.091900 2.714400
13.122000 2.700300
13.152100 2.694300
13.182200 2.696200
13.212400 2.705900
13.242500 2.720300
13.272600 2.737000
13.302700 2.753800
13.332900 2.770400
13.363000 2.786900
13.393100 2.805600
13.423300 2.793300
13.453400 2.763800
13.483500 2.748600
13.513600 2.731900
13.543800 2.704300
13.573900 2.663200
13.604000 2.607000
13.634100 2.572600
13.664300 2.535900
13.694400 2.480000
13.724500 2.435100
13.754600 2.393400
13.784800 2.355400
13.814900 2.321300
13.845000 2.308700
13.875200 2.307400
13.905300 2.314900
13.935400 2.335400
13.965500 2.381500
13.995700 2.426000
14.025800 2.472400
14.055900 2.520800
14.086000 2.571200
14.116200 2.625500
14.146300 2.689400
14.176400 2.760200
14.206600 2.838300
14.236700 2.917000
14.266800 2.912400
14.296900 2.503400
14.327100 2.407100
14.357200 2.340700
14.387300 2.322900
14.417400 2.367900
14.447600 2.484600
14.477700 2.658300
14.507800 2.881300
14.537900 3.135800
14.568100 3.387300
14.598200 3.617500
14.628300 3.872500
14.658500 4.178900
14.688600 4.541100
14.718700 5.255700
14.748800 5.180500
14.779000 4.008500
14.809100 3.417800
14.839200 2.822200
14.869300 2.435400
14.899500 2.221200
14.929600 2.111800
14.959700 2.307000
14.989900 2.456100
15.020000 2.555000
15.050100 2.591700
15.080200 2.636800
15.110400 2.671600
15.140500 2.708400
15.170600 2.716100
15.200700 2.730300
15.230900 2.746100
15.261000 2.786100
15.291100 2.853900
15.321200 2.887100
15.351400 2.883100
15.381500 2.842000
15.411600 2.779500
15.441800 2.777400
15.471900 2.801800
15.502000 2.876700
15.532100 3.007100
