set title 'mp-676011 - Density of States'
set xlabel 'Energy (eV)'
set ylabel 'DOS (states/eV)'
set grid
set xrange [-10:10]
set yrange [0:6.735]
set xzeroaxis lt -1
set terminal png size 800,600
set output 'mp-676011_dos_gnuplot.png'
plot '-' using 1:2 with lines title 'DOS'
-8.072000 0.000000
-8.057300 0.000000
-8.042700 0.000000
-8.028000 0.000000
-8.013400 0.000000
-7.998700 0.000000
-7.984100 0.000000
-7.969400 0.000000
-7.954700 0.000000
-7.940100 0.000000
-7.925400 0.000000
-7.910800 0.000000
-7.896100 0.000000
-7.881500 0.000000
-7.866800 0.000000
-7.852200 0.000000
-7.837500 0.000000
-7.822900 0.000000
-7.808200 0.000000
-7.793600 0.000000
-7.778900 0.000000
-7.764200 0.000000
-7.749600 0.000000
-7.734900 0.000000
-7.720300 0.000000
-7.705600 0.000000
-7.691000 0.000000
-7.676300 0.000000
-7.661700 0.000000
-7.647000 0.000000
-7.632400 0.000000
-7.617700 0.000000
-7.603100 0.000000
-7.588400 0.000000
-7.573700 0.000000
-7.559100 0.000000
-7.544400 0.000000
-7.529800 0.000000
-7.515100 0.000000
-7.500500 0.000000
-7.485800 0.000000
-7.471200 0.000000
-7.456500 0.000000
-7.441900 0.000000
-7.427200 0.000000
-7.412500 0.000000
-7.397900 0.000000
-7.383200 0.000000
-7.368600 0.000000
-7.353900 0.000000
-7.339300 0.000000
-7.324600 0.000000
-7.310000 0.000000
-7.295300 0.000000
-7.280700 0.000000
-7.266000 0.000000
-7.251400 0.000000
-7.236700 0.000000
-7.222000 0.000000
-7.207400 0.000000
-7.192700 0.000000
-7.178100 0.000000
-7.163400 0.000000
-7.148800 0.000000
-7.134100 0.000000
-7.119500 0.000000
-7.104800 0.000000
-7.090200 0.000000
-7.075500 0.000000
-7.060900 0.000000
-7.046200 0.000000
-7.031500 0.000000
-7.016900 0.000000
-7.002200 0.000000
-6.987600 0.000000
-6.972900 0.000000
-6.958300 0.000000
-6.943600 0.000000
-6.929000 0.000000
-6.914300 0.000000
-6.899700 0.000000
-6.885000 0.000000
-6.870400 0.000000
-6.855700 0.000000
-6.841000 0.000000
-6.826400 0.000000
-6.811700 0.000000
-6.797100 0.000000
-6.782400 0.000000
-6.767800 0.000000
-6.753100 0.000000
-6.738500 0.000200
-6.723800 0.027900
-6.709200 0.102600
-6.694500 0.224200
-6.679900 0.387300
-6.665200 0.450000
-6.650500 0.449900
-6.635900 0.485600
-6.621200 0.532900
-6.606600 0.585800
-6.591900 0.641600
-6.577300 0.694700
-6.562600 0.740700
-6.548000 0.786700
-6.533300 0.833700
-6.518700 0.873300
-6.504000 0.913800
-6.489400 0.953300
-6.474700 0.993600
-6.460000 1.037900
-6.445400 1.115500
-6.430700 1.230900
-6.416100 1.309900
-6.401400 1.344600
-6.386800 1.347300
-6.372100 1.321500
-6.357500 1.312300
-6.342800 1.328900
-6.328200 1.345100
-6.313500 1.360700
-6.298900 1.374000
-6.284200 1.386100
-6.269500 1.398400
-6.254900 1.409800
-6.240200 1.416200
-6.225600 1.418300
-6.210900 1.419300
-6.196300 1.426100
-6.181600 1.437600
-6.167000 1.450500
-6.152300 1.464200
-6.137700 1.480900
-6.123000 1.501000
-6.108400 1.522000
-6.093700 1.545000
-6.079000 1.634200
-6.064400 1.711500
-6.049700 1.738900
-6.035100 1.744200
-6.020400 1.732700
-6.005800 1.714600
-5.991100 1.693600
-5.976500 1.685000
-5.961800 1.675200
-5.947200 1.666100
-5.932500 1.658600
-5.917800 1.653400
-5.903200 1.649400
-5.888500 1.642600
-5.873900 1.633800
-5.859200 1.622500
-5.844600 1.610800
-5.829900 1.598600
-5.815300 1.592100
-5.800600 1.594700
-5.786000 1.615700
-5.771300 1.607700
-5.756700 1.551700
-5.742000 1.499100
-5.727300 1.457500
-5.712700 1.426300
-5.698000 1.405500
-5.683400 1.395200
-5.668700 1.389600
-5.654100 1.385000
-5.639400 1.383300
-5.624800 1.384000
-5.610100 1.385000
-5.595500 1.388400
-5.580800 1.389700
-5.566200 1.404200
-5.551500 1.428100
-5.536800 1.498700
-5.522200 1.413400
-5.507500 1.370200
-5.492900 1.364200
-5.478200 1.363900
-5.463600 1.364400
-5.448900 1.372700
-5.434300 1.350800
-5.419600 1.293800
-5.405000 1.220300
-5.390300 1.126000
-5.375700 1.049600
-5.361000 1.031900
-5.346300 1.012600
-5.331700 0.984300
-5.317000 0.955400
-5.302400 0.925300
-5.287700 0.894400
-5.273100 0.873200
-5.258400 0.872900
-5.243800 0.899400
-5.229100 0.938200
-5.214500 0.978800
-5.199800 0.959400
-5.185200 0.890400
-5.170500 0.818100
-5.155800 0.724900
-5.141200 0.730500
-5.126500 0.735100
-5.111900 0.667300
-5.097200 0.604800
-5.082600 0.548100
-5.067900 0.498900
-5.053300 0.471200
-5.038600 0.456700
-5.024000 0.461600
-5.009300 0.478300
-4.994700 0.493200
-4.980000 0.502800
-4.965300 0.518100
-4.950700 0.543500
-4.936000 0.578300
-4.921400 0.613000
-4.906700 0.647700
-4.892100 0.688000
-4.877400 0.732100
-4.862800 0.777100
-4.848100 0.842000
-4.833500 0.943600
-4.818800 1.020700
-4.804200 1.061000
-4.789500 1.073000
-4.774800 1.073300
-4.760200 1.088800
-4.745500 1.118300
-4.730900 1.146600
-4.716200 1.179600
-4.701600 1.215600
-4.686900 1.255100
-4.672300 1.325700
-4.657600 1.442000
-4.643000 1.556500
-4.628300 1.687400
-4.613700 1.871400
-4.599000 2.096700
-4.584300 2.483000
-4.569700 2.819300
-4.555000 2.926900
-4.540400 2.949400
-4.525700 2.939700
-4.511100 2.864600
-4.496400 2.695400
-4.481800 2.624300
-4.467100 2.618800
-4.452500 2.527200
-4.437800 2.456700
-4.423100 2.400300
-4.408500 2.355500
-4.393800 2.355100
-4.379200 2.343400
-4.364500 2.310200
-4.349900 2.274200
-4.335200 2.272500
-4.320600 2.141700
-4.305900 1.986800
-4.291300 1.913400
-4.276600 1.863600
-4.262000 1.825500
-4.247300 1.795500
-4.232600 1.771400
-4.218000 1.758200
-4.203300 1.751600
-4.188700 1.778500
-4.174000 1.858900
-4.159400 1.864500
-4.144700 1.735700
-4.130100 1.802600
-4.115400 1.756400
-4.100800 1.634100
-4.086100 1.579800
-4.071500 1.555800
-4.056800 1.548800
-4.042100 1.559000
-4.027500 1.515800
-4.012800 1.459500
-3.998200 1.424500
-3.983500 1.417200
-3.968900 1.417200
-3.954200 1.415000
-3.939600 1.406300
-3.924900 1.398700
-3.910300 1.389700
-3.895600 1.397300
-3.881000 1.455000
-3.866300 1.528800
-3.851600 1.608100
-3.837000 1.771900
-3.822300 1.962500
-3.807700 2.097100
-3.793000 2.102600
-3.778400 2.012100
-3.763700 1.976600
-3.749100 1.968200
-3.734400 1.949300
-3.719800 1.959100
-3.705100 2.143400
-3.690500 3.250600
-3.675800 2.745000
-3.661100 2.787500
-3.646500 2.820500
-3.631800 2.920200
-3.617200 2.902100
-3.602500 2.970700
-3.587900 2.807300
-3.573200 2.670900
-3.558600 2.564600
-3.543900 2.512800
-3.529300 2.459200
-3.514600 2.439500
-3.500000 2.458100
-3.485300 2.471400
-3.470600 2.467400
-3.456000 2.544100
-3.441300 2.678000
-3.426700 2.633300
-3.412000 2.520000
-3.397400 2.270800
-3.382700 2.197400
-3.368100 2.021000
-3.353400 1.819700
-3.338800 1.663900
-3.324100 1.590100
-3.309500 1.476500
-3.294800 1.326600
-3.280100 1.211200
-3.265500 1.148100
-3.250800 1.109700
-3.236200 1.072200
-3.221500 1.034800
-3.206900 0.996100
-3.192200 0.955000
-3.177600 0.919400
-3.162900 0.888000
-3.148300 0.840500
-3.133600 0.819100
-3.119000 0.799400
-3.104300 0.789700
-3.089600 0.805100
-3.075000 0.835000
-3.060300 0.870100
-3.045700 0.910100
-3.031000 0.958100
-3.016400 1.033600
-3.001700 1.103900
-2.987100 1.168400
-2.972400 1.237700
-2.957800 1.321800
-2.943100 1.441200
-2.928500 1.602600
-2.913800 1.800300
-2.899100 2.107800
-2.884500 2.240600
-2.869800 2.107300
-2.855200 2.265700
-2.840500 2.376400
-2.825900 2.473900
-2.811200 2.585300
-2.796600 2.733100
-2.781900 2.841700
-2.767300 2.869200
-2.752600 2.955100
-2.737900 2.993800
-2.723300 2.915500
-2.708600 2.831400
-2.694000 2.806300
-2.679300 2.808500
-2.664700 2.827500
-2.650000 2.867000
-2.635400 2.889900
-2.620700 2.848800
-2.606100 2.774100
-2.591400 2.693000
-2.576800 2.614900
-2.562100 2.542100
-2.547400 2.513600
-2.532800 2.514900
-2.518100 2.455400
-2.503500 2.405300
-2.488800 2.399200
-2.474200 2.414200
-2.459500 2.436700
-2.444900 2.474200
-2.430200 2.649300
-2.415600 2.586700
-2.400900 2.532100
-2.386300 2.535000
-2.371600 2.517200
-2.356900 2.491800
-2.342300 2.454600
-2.327600 2.420900
-2.313000 2.388600
-2.298300 2.355400
-2.283700 2.321900
-2.269000 2.294900
-2.254400 2.277300
-2.239700 2.255100
-2.225100 2.278300
-2.210400 2.318000
-2.195800 2.260000
-2.181100 2.218600
-2.166400 2.190100
-2.151800 2.172800
-2.137100 2.162100
-2.122500 2.155600
-2.107800 2.149100
-2.093200 2.142100
-2.078500 2.134100
-2.063900 2.119700
-2.049200 2.110600
-2.034600 2.104100
-2.019900 2.099100
-2.005300 2.095500
-1.990600 2.092000
-1.975900 2.087200
-1.961300 2.078000
-1.946600 2.067700
-1.932000 2.057000
-1.917300 2.045800
-1.902700 2.033700
-1.888000 2.025900
-1.873400 2.021500
-1.858700 2.018500
-1.844100 2.015400
-1.829400 2.013700
-1.814800 2.010200
-1.800100 2.002200
-1.785400 1.990900
-1.770800 1.978400
-1.756100 1.966200
-1.741500 1.960900
-1.726800 1.965500
-1.712200 1.973700
-1.697500 1.984800
-1.682900 1.994800
-1.668200 2.001300
-1.653600 2.005200
-1.638900 2.007700
-1.624300 2.008800
-1.609600 2.007500
-1.594900 2.003200
-1.580300 1.997500
-1.565600 1.996200
-1.551000 1.996400
-1.536300 1.999000
-1.521700 2.011700
-1.507000 2.030000
-1.492400 2.048200
-1.477700 2.074200
-1.463100 2.104900
-1.448400 2.119600
-1.433800 2.077400
-1.419100 2.068900
-1.404400 2.058300
-1.389800 2.045000
-1.375100 2.027700
-1.360500 2.000300
-1.345800 1.969200
-1.331200 1.843700
-1.316500 1.794400
-1.301900 1.754600
-1.287200 1.721200
-1.272600 1.728600
-1.257900 1.751000
-1.243200 1.775600
-1.228600 1.802000
-1.213900 1.818200
-1.199300 1.830000
-1.184600 1.848100
-1.170000 1.852600
-1.155300 1.883700
-1.140700 1.919300
-1.126000 1.960000
-1.111400 2.058900
-1.096700 2.148800
-1.082100 2.252000
-1.067400 2.372100
-1.052700 2.401200
-1.038100 2.382200
-1.023400 2.362600
-1.008800 2.339700
-0.994100 2.302400
-0.979500 2.279200
-0.964800 2.255100
-0.950200 2.225000
-0.935500 2.184700
-0.920900 2.133800
-0.906200 2.113000
-0.891600 2.116700
-0.876900 2.118600
-0.862200 2.111500
-0.847600 2.099300
-0.832900 2.090000
-0.818300 2.084400
-0.803600 2.116400
-0.789000 2.146500
-0.774300 2.143700
-0.759700 2.113200
-0.745000 2.067100
-0.730400 2.039600
-0.715700 2.035400
-0.701100 1.995700
-0.686400 1.876900
-0.671700 1.796300
-0.657100 1.747900
-0.642400 1.716800
-0.627800 1.692300
-0.613100 1.661600
-0.598500 1.623000
-0.583800 1.590500
-0.569200 1.571900
-0.554500 1.557700
-0.539900 1.545100
-0.525200 1.531900
-0.510600 1.520400
-0.495900 1.506700
-0.481200 1.488500
-0.466600 1.480600
-0.451900 1.496600
-0.437300 1.539700
-0.422600 1.581800
-0.408000 1.624100
-0.393300 1.678400
-0.378700 1.855700
-0.364000 2.178100
-0.349400 2.105300
-0.334700 2.127700
-0.320100 2.138900
-0.305400 2.116500
-0.290700 2.096100
-0.276100 2.090400
-0.261400 2.209400
-0.246800 2.106500
-0.232100 2.084900
-0.217500 2.106800
-0.202800 2.147800
-0.188200 2.212500
-0.173500 2.291900
-0.158900 2.448600
-0.144200 2.702700
-0.129600 3.077700
-0.114900 3.281800
-0.100200 3.555400
-0.085600 3.896300
-0.070900 4.012500
-0.056300 3.985500
-0.041600 3.986600
-0.027000 3.891000
-0.012300 3.747000
0.002300 3.610300
0.017000 3.490700
0.031600 3.377500
0.046300 3.270400
0.060900 3.163700
0.075600 3.066700
0.090300 2.971000
0.104900 2.881800
0.119600 2.799900
0.134200 2.682800
0.148900 2.531400
0.163500 2.391300
0.178200 2.247700
0.192800 2.178900
0.207500 2.136900
0.222100 2.076900
0.236800 1.998400
0.251500 1.958000
0.266100 1.910100
0.280800 1.963400
0.295400 2.105800
0.310100 2.328100
0.324700 2.630700
0.339400 2.973200
0.354000 3.251100
0.368700 3.401000
0.383300 3.612600
0.398000 3.843600
0.412600 3.703200
0.427300 4.182900
0.442000 3.744800
0.456600 3.639400
0.471300 3.527500
0.485900 3.506100
0.500600 3.319100
0.515200 3.048700
0.529900 2.877700
0.544500 2.739300
0.559200 2.589200
0.573800 2.447700
0.588500 2.250500
0.603100 2.131200
0.617800 2.067400
0.632500 2.017800
0.647100 1.968800
0.661800 1.907400
0.676400 1.853300
0.691100 1.842600
0.705700 1.839200
0.720400 1.824100
0.735000 1.820700
0.749700 1.838700
0.764300 1.912600
0.779000 1.966100
0.793600 2.074900
0.808300 2.066900
0.823000 2.054900
0.837600 2.119000
0.852300 2.188300
0.866900 2.269200
0.881600 2.388400
0.896200 2.576900
0.910900 2.608700
0.925500 2.422400
0.940200 2.290900
0.954800 2.176800
0.969500 2.137700
0.984100 2.138100
0.998800 2.127400
1.013500 2.126200
1.028100 2.143600
1.042800 2.171500
1.057400 2.207500
1.072100 2.256200
1.086700 2.395400
1.101400 2.558100
1.116000 2.759800
1.130700 2.972400
1.145300 3.013900
1.160000 2.903800
1.174600 2.958100
1.189300 2.919600
1.204000 2.820700
1.218600 2.694400
1.233300 2.574400
1.247900 2.462400
1.262600 2.371400
1.277200 2.307000
1.291900 2.261300
1.306500 2.265700
1.321200 2.406000
1.335800 2.377800
1.350500 2.253300
1.365100 2.185500
1.379800 2.131500
1.394500 2.103300
1.409100 2.142100
1.423800 2.254600
1.438400 2.293000
1.453100 2.620300
1.467700 2.285200
1.482400 2.123200
1.497000 2.063200
1.511700 2.031300
1.526300 2.029800
1.541000 2.062000
1.555600 2.129400
1.570300 2.227200
1.585000 2.302500
1.599600 2.331900
1.614300 2.501000
1.628900 2.648600
1.643600 2.813900
1.658200 2.792700
1.672900 2.815700
1.687500 2.899900
1.702200 2.980000
1.716800 3.039600
1.731500 3.077100
1.746200 3.095700
1.760800 3.107000
1.775500 3.088800
1.790100 3.098200
1.804800 3.144400
1.819400 3.135500
1.834100 3.161900
1.848700 3.193700
1.863400 3.251700
1.878000 3.264700
1.892700 3.325700
1.907300 3.374900
1.922000 3.411500
1.936700 3.443000
1.951300 3.444900
1.966000 3.560600
1.980600 3.557000
1.995300 3.557500
2.009900 3.579500
2.024600 3.580700
2.039200 3.600000
2.053900 3.661200
2.068500 3.685900
2.083200 3.669300
2.097800 3.633400
2.112500 3.582700
2.127200 3.557700
2.141800 3.518600
2.156500 3.516300
2.171100 3.559100
2.185800 3.616900
2.200400 3.636700
2.215100 3.349000
2.229700 3.236700
2.244400 3.153300
2.259000 3.092000
2.273700 3.070300
2.288300 3.035200
2.303000 2.958000
2.317700 2.918200
2.332300 2.896200
2.347000 2.873400
2.361600 2.871200
2.376300 2.883900
2.390900 2.912200
2.405600 2.934700
2.420200 2.944200
2.434900 2.988800
2.449500 3.057100
2.464200 3.142500
2.478800 3.245300
2.493500 3.314600
2.508200 3.378500
2.522800 3.557900
2.537500 3.738700
2.552100 3.913300
2.566800 4.081000
2.581400 4.173400
2.596100 4.145400
2.610700 3.986200
2.625400 3.949200
2.640000 3.931300
2.654700 3.904000
2.669300 3.854900
2.684000 3.807300
2.698700 3.731600
2.713300 3.705900
2.728000 3.692100
2.742600 3.650900
2.757300 3.618000
2.771900 3.574900
2.786600 3.525600
2.801200 3.447700
2.815900 3.401300
2.830500 3.324200
2.845200 3.162800
2.859800 3.075900
2.874500 3.059500
2.889200 3.073300
2.903800 3.103400
2.918500 3.182500
2.933100 3.246100
2.947800 3.285800
2.962400 3.379500
2.977100 3.280200
2.991700 3.197600
3.006400 3.259400
3.021000 3.286100
3.035700 3.291500
3.050300 3.298400
3.065000 3.396000
3.079700 3.519400
3.094300 3.566300
3.109000 3.656700
3.123600 3.735100
3.138300 3.832300
3.152900 3.944900
3.167600 4.053100
3.182200 4.160800
3.196900 4.328000
3.211500 4.575000
3.226200 4.622800
3.240800 4.814300
3.255500 4.921800
3.270200 4.837800
3.284800 4.789100
3.299500 4.672000
3.314100 4.498400
3.328800 4.332900
3.343400 4.213700
3.358100 4.128100
3.372700 3.942800
3.387400 3.765200
3.402000 3.615100
3.416700 3.476800
3.431400 3.376400
3.446000 3.277100
3.460700 3.087700
3.475300 3.021500
3.490000 3.007100
3.504600 3.128000
3.519300 3.007400
3.533900 3.073200
3.548600 3.232900
3.563200 3.460500
3.577900 3.799100
3.592500 4.222200
3.607200 4.684800
3.621900 5.159100
3.636500 5.442000
3.651200 5.794400
3.665800 6.087800
3.680500 6.122600
3.695100 5.891700
3.709800 5.863500
3.724400 5.693600
3.739100 5.551400
3.753700 5.336500
3.768400 5.124500
3.783000 4.816600
3.797700 4.540900
3.812400 4.292700
3.827000 4.084900
3.841700 3.822800
3.856300 3.597400
3.871000 3.354300
3.885600 3.276600
3.900300 3.267500
3.914900 3.275900
3.929600 3.327300
3.944200 3.542500
3.958900 3.971800
3.973500 4.193100
3.988200 4.483200
4.002900 4.696400
4.017500 4.824300
4.032200 4.930000
4.046800 5.134000
4.061500 5.518600
4.076100 5.696800
4.090800 5.858600
4.105400 5.881400
4.120100 5.880300
4.134700 5.711800
4.149400 5.488700
4.164000 5.280600
4.178700 5.043700
4.193400 4.876200
4.208000 4.635100
4.222700 4.498700
4.237300 4.442300
4.252000 4.398300
4.266600 4.475500
4.281300 4.290400
4.295900 4.251400
4.310600 4.189100
4.325200 4.122500
4.339900 4.028800
4.354500 3.973700
4.369200 3.985800
4.383900 3.986900
4.398500 3.992900
4.413200 3.960400
4.427800 4.176400
4.442500 4.049200
4.457100 4.051300
4.471800 4.104400
4.486400 4.159800
4.501100 4.253400
4.515700 4.324500
4.530400 4.401900
4.545000 4.506800
4.559700 4.537600
4.574400 4.444700
4.589000 4.430400
4.603700 4.551500
4.618300 4.545700
4.633000 4.394000
4.647600 4.222000
4.662300 4.059700
4.676900 3.926600
4.691600 3.826400
4.706200 3.779400
4.720900 3.748100
4.735500 3.734600
4.750200 3.788900
4.764900 3.727100
4.779500 3.674500
4.794200 3.620500
4.808800 3.550500
4.823500 3.457700
4.838100 3.313600
4.852800 3.284700
4.867400 3.294200
4.882100 3.307300
4.896700 3.308400
4.911400 3.342300
4.926100 3.361900
4.940700 3.267800
4.955400 3.155500
4.970000 3.222500
4.984700 3.141000
4.999300 3.060400
5.014000 2.995900
5.028600 2.960000
5.043300 3.149400
5.057900 3.069400
5.072600 2.999300
5.087200 2.929700
5.101900 2.967200
5.116600 3.014400
5.131200 3.001600
5.145900 2.998500
5.160500 3.007200
5.175200 3.022700
5.189800 3.081200
5.204500 3.070300
5.219100 2.984700
5.233800 2.917000
5.248400 2.857100
5.263100 2.817500
5.277700 2.846700
5.292400 2.912800
5.307100 2.968900
5.321700 3.025900
5.336400 3.004700
5.351000 2.956500
5.365700 2.986200
5.380300 2.953800
5.395000 2.823000
5.409600 2.732800
5.424300 2.637000
5.438900 2.543200
5.453600 2.473600
5.468200 2.428200
5.482900 2.403900
5.497600 2.395200
5.512200 2.390200
5.526900 2.391500
5.541500 2.394500
5.556200 2.398700
5.570800 2.409000
5.585500 2.422600
5.600100 2.398800
5.614800 2.395600
5.629400 2.391000
5.644100 2.390100
5.658700 2.403300
5.673400 2.437600
5.688100 2.487400
5.702700 2.542200
5.717400 2.602800
5.732000 2.678600
5.746700 2.558300
5.761300 2.428800
5.776000 2.377800
5.790600 2.450800
5.805300 2.335900
5.819900 2.265800
5.834600 2.222900
5.849200 2.172400
5.863900 2.128900
5.878600 2.086400
5.893200 2.046000
5.907900 2.002900
5.922500 1.957900
5.937200 1.917200
5.951800 1.873500
5.966500 1.829600
5.981100 1.786400
5.995800 1.747000
6.010400 1.711800
6.025100 1.680100
6.039700 1.652700
6.054400 1.623700
6.069100 1.592200
6.083700 1.560200
6.098400 1.526800
6.113000 1.493600
6.127700 1.456900
6.142300 1.420300
6.157000 1.389100
6.171600 1.363200
6.186300 1.346400
6.200900 1.337900
6.215600 1.341500
6.230200 1.356300
6.244900 1.381000
6.259600 1.416600
6.274200 1.462800
6.288900 1.528100
6.303500 1.684100
6.318200 1.957800
6.332800 2.166200
6.347500 2.305500
6.362100 2.430900
6.376800 2.563100
6.391400 2.711900
6.406100 2.820300
6.420800 3.055900
6.435400 3.088500
6.450100 2.971000
6.464700 2.776000
6.479400 2.650300
6.494000 2.564800
6.508700 2.537800
6.523300 2.562200
6.538000 2.586900
6.552600 2.591800
6.567300 2.593000
6.581900 2.612100
6.596600 2.633300
6.611300 2.644200
6.625900 2.655300
6.640600 2.652100
6.655200 2.647900
6.669900 2.664100
6.684500 2.688000
6.699200 2.708200
6.713800 2.758700
6.728500 2.807600
6.743100 2.832700
6.757800 2.869600
6.772400 2.927700
6.787100 2.994400
6.801800 3.042000
6.816400 3.004700
6.831100 2.927500
6.845700 2.932300
6.860400 2.974700
6.875000 3.010200
6.889700 3.051100
6.904300 3.133700
6.919000 3.229400
6.933600 3.289600
6.948300 3.396900
6.962900 3.496100
6.977600 3.601400
6.992300 3.744100
7.006900 3.806700
7.021600 3.676200
7.036200 3.588400
7.050900 3.525700
7.065500 3.455700
7.080200 3.393900
7.094800 3.339200
7.109500 3.305900
7.124100 3.294500
7.138800 3.267900
7.153400 3.244500
7.168100 3.192600
7.182800 3.136100
7.197400 3.085900
7.212100 3.010000
7.226700 2.935700
7.241400 2.924800
7.256000 2.924700
7.270700 2.952600
7.285300 3.046100
7.300000 3.014600
7.314600 3.118400
7.329300 3.292100
7.343900 3.507800
7.358600 3.632300
7.373300 3.603100
7.387900 3.647100
7.402600 3.889600
7.417200 4.138700
7.431900 4.167500
7.446500 4.311100
7.461200 4.520000
7.475800 4.758300
7.490500 4.981500
7.505100 5.422000
7.519800 5.729500
