set title 'mp-8634 - Density of States'
set xlabel 'Energy (eV)'
set ylabel 'DOS (states/eV)'
set grid
set xrange [-10:10]
set yrange [0:3.498]
set xzeroaxis lt -1
set terminal png size 800,600
set output 'mp-8634_dos_gnuplot.png'
plot '-' using 1:2 with lines title 'DOS'
-50.758400 0.000000
-50.659700 0.000000
-50.560900 0.000000
-50.462200 0.000000
-50.363500 0.000000
-50.264700 0.000000
-50.166000 0.000000
-50.067300 0.000000
-49.968500 0.000000
-49.869800 0.000000
-49.771100 0.000000
-49.672300 0.000000
-49.573600 0.000000
-49.474800 0.000000
-49.376100 0.000000
-49.277400 0.000000
-49.178600 0.000000
-49.079900 0.000000
-48.981200 0.000000
-48.882400 0.000000
-48.783700 0.000000
-48.684900 0.000000
-48.586200 0.000000
-48.487500 0.000000
-48.388700 0.000000
-48.290000 0.000000
-48.191300 0.000000
-48.092500 0.000000
-47.993800 0.000000
-47.895100 0.000000
-47.796300 0.000000
-47.697600 0.000000
-47.598800 0.000000
-47.500100 0.000000
-47.401400 0.000000
-47.302600 0.000000
-47.203900 0.000000
-47.105200 0.000000
-47.006400 0.000000
-46.907700 0.000000
-46.809000 0.000000
-46.710200 0.000000
-46.611500 0.000000
-46.512700 0.000000
-46.414000 0.000000
-46.315300 0.000000
-46.216500 0.000000
-46.117800 0.000000
-46.019100 0.000000
-45.920300 0.000000
-45.821600 0.000000
-45.722800 0.000000
-45.624100 0.000000
-45.525400 0.000000
-45.426600 0.000000
-45.327900 0.000000
-45.229200 0.000000
-45.130400 0.000000
-45.031700 0.000000
-44.933000 0.000000
-44.834200 0.000000
-44.735500 0.000000
-44.636700 0.000000
-44.538000 0.000000
-44.439300 0.000000
-44.340500 0.000000
-44.241800 0.000000
-44.143100 0.000000
-44.044300 0.000000
-43.945600 0.000000
-43.846800 0.000000
-43.748100 0.000000
-43.649400 0.000000
-43.550600 0.000000
-43.451900 0.000000
-43.353200 0.000000
-43.254400 0.000000
-43.155700 0.000000
-43.057000 0.000000
-42.958200 0.000000
-42.859500 0.000000
-42.760700 0.000000
-42.662000 0.000000
-42.563300 0.000000
-42.464500 0.000000
-42.365800 0.000000
-42.267100 0.000000
-42.168300 0.000000
-42.069600 0.000000
-41.970900 0.000000
-41.872100 0.000000
-41.773400 0.831800
-41.674600 6.803200
-41.575900 7.547100
-41.477200 4.508600
-41.378400 6.194300
-41.279700 13.419100
-41.181000 15.283100
-41.082200 6.868300
-40.983500 0.000000
-40.884700 0.000000
-40.786000 0.000000
-40.687300 0.000000
-40.588500 0.000000
-40.489800 0.000000
-40.391100 0.000000
-40.292300 0.000000
-40.193600 0.000000
-40.094900 0.000000
-39.996100 0.000000
-39.897400 0.000000
-39.798600 0.000000
-39.699900 0.000000
-39.601200 0.000000
-39.502400 0.000000
-39.403700 0.000000
-39.305000 0.000000
-39.206200 0.000000
-39.107500 0.000000
-39.008700 0.000000
-38.910000 0.000000
-38.811300 0.000000
-38.712500 0.000000
-38.613800 0.000000
-38.515100 0.000000
-38.416300 0.000000
-38.317600 0.000000
-38.218900 0.000000
-38.120100 0.000000
-38.021400 0.000000
-37.922600 0.000000
-37.823900 0.000000
-37.725200 0.000000
-37.626400 0.000000
-37.527700 0.000000
-37.429000 0.000000
-37.330200 0.000000
-37.231500 0.000000
-37.132800 0.000000
-37.034000 0.000000
-36.935300 0.000000
-36.836500 0.000000
-36.737800 0.000000
-36.639100 0.000000
-36.540300 0.000000
-36.441600 0.000000
-36.342900 0.000000
-36.244100 0.000000
-36.145400 0.000000
-36.046600 0.000000
-35.947900 0.000000
-35.849200 0.000000
-35.750400 0.000000
-35.651700 0.000000
-35.553000 0.000000
-35.454200 0.000000
-35.355500 0.000000
-35.256800 0.000000
-35.158000 0.000000
-35.059300 0.000000
-34.960500 0.000000
-34.861800 0.000000
-34.763100 0.000000
-34.664300 0.000000
-34.565600 0.000000
-34.466900 0.000000
-34.368100 0.000000
-34.269400 0.000000
-34.170700 0.000000
-34.071900 0.000000
-33.973200 0.000000
-33.874400 0.000000
-33.775700 0.000000
-33.677000 0.000000
-33.578200 0.000000
-33.479500 0.000000
-33.380800 0.000000
-33.282000 0.000000
-33.183300 0.000000
-33.084500 0.000000
-32.985800 0.000000
-32.887100 0.000000
-32.788300 0.000000
-32.689600 0.000000
-32.590900 0.000000
-32.492100 0.000000
-32.393400 0.000000
-32.294700 0.000000
-32.195900 0.000000
-32.097200 0.000000
-31.998400 0.000000
-31.899700 0.000000
-31.801000 0.000000
-31.702200 0.000000
-31.603500 0.000000
-31.504800 0.000000
-31.406000 0.000000
-31.307300 0.000000
-31.208500 0.000000
-31.109800 0.000000
-31.011100 0.000000
-30.912300 0.000000
-30.813600 0.000000
-30.714900 0.000000
-30.616100 0.000000
-30.517400 0.000000
-30.418700 0.000000
-30.319900 0.000000
-30.221200 0.000000
-30.122400 0.000000
-30.023700 0.000000
-29.925000 0.000000
-29.826200 0.000000
-29.727500 0.000000
-29.628800 0.000000
-29.530000 0.000000
-29.431300 0.000000
-29.332600 0.000000
-29.233800 0.000000
-29.135100 0.000000
-29.036300 0.000000
-28.937600 0.000000
-28.838900 0.000000
-28.740100 0.000000
-28.641400 0.000000
-28.542700 0.000000
-28.443900 0.000000
-28.345200 0.000000
-28.246400 0.000000
-28.147700 0.000000
-28.049000 0.000000
-27.950200 0.000000
-27.851500 0.000000
-27.752800 0.000000
-27.654000 0.000000
-27.555300 0.000000
-27.456600 0.000000
-27.357800 0.000000
-27.259100 0.000000
-27.160300 0.000000
-27.061600 0.000000
-26.962900 0.000000
-26.864100 0.000000
-26.765400 0.000000
-26.666700 0.000000
-26.567900 0.000000
-26.469200 0.000000
-26.370500 0.000000
-26.271700 0.000000
-26.173000 0.000000
-26.074200 0.000000
-25.975500 0.000000
-25.876800 0.000000
-25.778000 0.000000
-25.679300 0.000000
-25.580600 0.000000
-25.481800 0.000000
-25.383100 0.000000
-25.284300 0.000000
-25.185600 0.000000
-25.086900 0.000000
-24.988100 0.000000
-24.889400 0.000000
-24.790700 0.000000
-24.691900 0.000000
-24.593200 0.000000
-24.494500 0.000000
-24.395700 0.000000
-24.297000 0.000000
-24.198200 0.000000
-24.099500 0.000000
-24.000800 0.000000
-23.902000 0.000000
-23.803300 0.000000
-23.704600 0.000000
-23.605800 0.000000
-23.507100 0.000000
-23.408300 0.000000
-23.309600 0.000000
-23.210900 0.000000
-23.112100 0.000000
-23.013400 0.000000
-22.914700 0.000000
-22.815900 0.000000
-22.717200 0.000000
-22.618500 0.000000
-22.519700 0.000000
-22.421000 0.000000
-22.322200 0.000000
-22.223500 0.000000
-22.124800 0.000000
-22.026000 0.000000
-21.927300 0.000000
-21.828600 0.000000
-21.729800 0.000000
-21.631100 0.000000
-21.532400 0.000000
-21.433600 0.000000
-21.334900 0.000000
-21.236100 0.000000
-21.137400 0.000000
-21.038700 0.000000
-20.939900 0.000000
-20.841200 0.000000
-20.742500 0.000000
-20.643700 0.000000
-20.545000 0.000000
-20.446200 0.000000
-20.347500 0.000000
-20.248800 0.000000
-20.150000 0.000000
-20.051300 0.000000
-19.952600 0.000000
-19.853800 0.000000
-19.755100 0.000000
-19.656400 0.000000
-19.557600 0.000000
-19.458900 0.000000
-19.360100 0.000000
-19.261400 0.000000
-19.162700 0.000000
-19.063900 0.000000
-18.965200 0.000000
-18.866500 0.000000
-18.767700 0.000000
-18.669000 0.000000
-18.570200 0.000000
-18.471500 0.000000
-18.372800 0.000000
-18.274000 0.000000
-18.175300 0.000000
-18.076600 0.000000
-17.977800 0.000000
-17.879100 0.000000
-17.780400 0.000000
-17.681600 0.000000
-17.582900 0.000000
-17.484100 0.000000
-17.385400 0.000000
-17.286700 0.000000
-17.187900 0.000000
-17.089200 0.000000
-16.990500 0.000000
-16.891700 0.000000
-16.793000 0.000000
-16.694300 0.000000
-16.595500 0.000000
-16.496800 0.000000
-16.398000 0.000000
-16.299300 0.000000
-16.200600 0.000000
-16.101800 0.000000
-16.003100 0.000000
-15.904400 0.000000
-15.805600 0.000000
-15.706900 0.000000
-15.608100 0.000000
-15.509400 0.000000
-15.410700 0.000000
-15.311900 0.000000
-15.213200 0.000000
-15.114500 0.000000
-15.015700 0.000000
-14.917000 0.000000
-14.818300 0.000000
-14.719500 0.000000
-14.620800 0.000000
-14.522000 0.000000
-14.423300 0.000000
-14.324600 0.000000
-14.225800 0.000000
-14.127100 0.000000
-14.028400 0.000000
-13.929600 0.000000
-13.830900 0.000000
-13.732200 0.000000
-13.633400 0.000000
-13.534700 0.000000
-13.435900 0.000000
-13.337200 0.000000
-13.238500 0.000000
-13.139700 0.000000
-13.041000 0.000000
-12.942300 0.000000
-12.843500 0.000000
-12.744800 0.000000
-12.646000 0.000000
-12.547300 0.000000
-12.448600 0.000000
-12.349800 0.000000
-12.251100 0.000000
-12.152400 0.000000
-12.053600 0.000000
-11.954900 0.000000
-11.856200 0.000000
-11.757400 0.000000
-11.658700 0.000000
-11.559900 0.000000
-11.461200 0.000000
-11.362500 0.000000
-11.263700 0.000000
-11.165000 0.000000
-11.066300 0.000000
-10.967500 0.000000
-10.868800 0.000000
-10.770000 0.000000
-10.671300 0.000000
-10.572600 0.000000
-10.473800 0.000000
-10.375100 0.000000
-10.276400 0.000000
-10.177600 0.000000
-10.078900 0.000000
-9.980200 0.000000
-9.881400 0.000000
-9.782700 0.000000
-9.683900 0.000000
-9.585200 0.000000
-9.486500 0.000000
-9.387700 0.000000
-9.289000 0.000000
-9.190300 0.000000
-9.091500 0.000000
-8.992800 0.000000
-8.894100 0.000000
-8.795300 0.000000
-8.696600 0.000000
-8.597800 0.000000
-8.499100 0.000000
-8.400400 0.000000
-8.301600 0.000000
-8.202900 0.000000
-8.104200 0.000000
-8.005400 0.000000
-7.906700 0.000000
-7.807900 0.000000
-7.709200 0.000000
-7.610500 0.000000
-7.511700 0.000000
-7.413000 0.000000
-7.314300 0.000000
-7.215500 0.000000
-7.116800 0.000000
-7.018100 0.000000
-6.919300 0.000000
-6.820600 0.000000
-6.721800 0.000000
-6.623100 0.000000
-6.524400 0.000000
-6.425600 0.000000
-6.326900 0.000000
-6.228200 0.000000
-6.129400 0.000000
-6.030700 0.000000
-5.931900 0.000000
-5.833200 0.000000
-5.734500 0.000000
-5.635700 0.000000
-5.537000 0.000000
-5.438300 0.000000
-5.339500 0.000000
-5.240800 0.000000
-5.142100 0.000000
-5.043300 0.000000
-4.944600 0.000000
-4.845800 0.000000
-4.747100 0.000000
-4.648400 0.000000
-4.549600 0.000000
-4.450900 0.000000
-4.352200 0.000000
-4.253400 0.000000
-4.154700 0.000000
-4.056000 0.000000
-3.957200 0.000000
-3.858500 0.000000
-3.759700 0.000000
-3.661000 0.000000
-3.562300 0.000000
-3.463500 0.000000
-3.364800 0.000000
-3.266100 0.000000
-3.167300 0.000000
-3.068600 0.000000
-2.969800 0.000000
-2.871100 0.000000
-2.772400 0.000000
-2.673600 0.000000
-2.574900 0.000000
-2.476200 0.000000
-2.377400 0.000000
-2.278700 0.000000
-2.180000 0.000000
-2.081200 0.000000
-1.982500 0.000000
-1.883700 0.000000
-1.785000 0.000000
-1.686300 0.007900
-1.587500 0.020300
-1.488800 0.028500
-1.390100 0.034800
-1.291300 0.039900
-1.192600 0.045000
-1.093900 0.050000
-0.995100 0.054100
-0.896400 0.058900
-0.797600 0.063000
-0.698900 0.067200
-0.600200 0.071600
-0.501400 0.076000
-0.402700 0.080100
-0.304000 0.084500
-0.205200 0.089200
-0.106500 0.093600
-0.007700 0.098200
0.091000 0.103200
0.189700 0.108300
0.288500 0.113600
0.387200 0.119100
0.485900 0.124900
0.584700 0.131300
0.683400 0.138100
0.782100 0.145300
0.880900 0.153300
0.979600 0.161900
1.078400 0.171700
1.177100 0.182800
1.275800 0.194900
1.374600 0.209300
1.473300 0.226800
1.572000 0.247100
1.670800 0.273400
1.769500 0.308200
1.868300 0.410900
1.967000 0.637600
2.065700 0.947800
2.164500 0.953900
2.263200 0.971900
2.361900 0.986400
2.460700 0.998900
2.559400 1.020800
2.658100 1.079900
2.756900 1.242900
2.855600 1.331000
2.954400 1.404900
3.053100 1.502800
3.151800 1.516000
3.250600 1.463600
3.349300 1.395800
3.448000 1.341900
3.546800 1.242000
3.645500 1.140500
3.744200 1.443900
3.843000 1.292200
3.941700 1.231100
4.040500 1.192600
4.139200 1.068400
4.237900 0.976300
4.336700 1.307300
4.435400 1.256400
4.534100 1.460200
4.632900 1.517600
4.731600 1.602600
4.830400 1.595100
4.929100 1.576500
5.027800 1.636600
5.126600 1.786800
5.225300 2.139900
5.324000 1.898200
5.422800 1.902700
5.521500 1.981400
5.620200 2.123700
5.719000 2.663600
5.817700 1.954600
5.916500 1.601800
6.015200 1.489300
6.113900 1.320600
6.212700 1.289100
6.311400 1.297800
6.410100 1.237300
6.508900 1.367700
6.607600 1.674600
6.706300 1.733400
6.805100 1.814900
6.903800 2.942000
7.002600 1.514300
7.101300 1.746000
7.200000 1.543500
7.298800 1.487300
7.397500 1.463700
7.496200 1.468300
7.595000 1.492700
7.693700 1.551200
7.792500 1.658500
7.891200 1.807000
7.989900 2.083400
8.088700 2.689400
8.187400 3.179800
8.286100 2.315000
8.384900 1.567300
8.483600 1.312500
8.582300 0.338500
8.681100 0.330600
8.779800 0.323300
8.878600 0.321400
8.977300 0.318900
9.076000 0.312300
9.174800 0.309500
9.273500 0.307200
9.372200 0.303700
9.471000 0.300600
9.569700 0.298900
9.668500 0.296500
9.767200 0.293600
9.865900 0.291600
9.964700 0.290500
10.063400 0.289500
10.162100 0.289100
10.260900 0.287400
10.359600 0.284900
10.458300 0.282000
10.557100 0.278700
10.655800 0.276000
10.754600 0.273300
10.853300 0.270400
10.952000 0.266900
11.050800 0.263400
11.149500 0.259900
11.248200 0.256800
11.347000 0.253500
11.445700 0.250000
11.544400 0.246000
11.643200 0.242300
11.741900 0.238600
11.840700 0.234700
11.939400 0.230400
12.038100 0.226300
12.136900 0.222400
12.235600 0.218600
12.334300 0.213900
12.433100 0.209400
12.531800 0.204800
12.630600 0.200200
12.729300 0.195700
12.828000 0.190800
12.926800 0.186500
13.025500 0.181600
13.124200 0.176200
13.223000 0.171000
13.321700 0.165500
13.420400 0.160600
13.519200 0.155800
13.617900 0.150700
13.716700 0.144300
13.815400 0.138200
13.914100 0.132700
14.012900 0.127300
14.111600 0.121600
14.210300 0.115200
14.309100 0.109000
14.407800 0.102800
14.506600 0.096400
14.605300 0.090100
14.704000 0.080700
14.802800 0.067700
14.901500 0.055300
15.000200 0.050500
15.099000 0.041900
15.197700 0.034300
15.296400 0.030600
15.395200 0.037800
15.493900 0.048100
15.592700 0.578600
15.691400 0.566800
15.790100 0.496200
15.888900 0.443500
15.987600 0.422900
16.086300 0.375700
16.185100 0.354200
16.283800 0.340800
16.382500 0.324000
16.481300 0.310800
16.580000 0.300900
16.678800 0.296900
16.777500 0.282200
16.876200 0.275600
16.975000 0.270100
17.073700 0.265300
17.172400 0.261000
17.271200 0.257000
17.369900 0.253500
17.468700 0.250300
17.567400 0.247400
17.666100 0.244800
17.764900 0.242300
17.863600 0.240200
17.962300 0.239000
18.061100 0.238100
18.159800 0.237200
18.258500 0.236800
18.357300 0.238500
18.456000 0.245000
18.554800 0.253100
18.653500 0.288200
18.752200 0.318600
18.851000 0.309500
18.949700 0.304600
19.048400 0.287100
19.147200 0.301700
19.245900 0.608300
19.344600 0.425900
19.443400 0.437100
19.542100 0.439000
19.640900 0.415600
19.739600 0.408900
19.838300 0.409000
19.937100 0.407200
20.035800 0.406900
20.134500 0.399900
20.233300 0.395000
20.332000 0.389100
20.430800 0.385100
20.529500 0.401400
20.628200 0.408500
20.727000 0.419000
20.825700 0.418200
20.924400 0.420000
21.023200 0.420100
21.121900 0.424000
21.220600 0.426600
21.319400 0.428700
21.418100 0.429700
21.516900 0.431800
21.615600 0.435100
21.714300 0.438000
21.813100 0.440500
21.911800 0.442300
22.010500 0.443900
22.109300 0.446600
22.208000 0.452100
22.306800 0.457300
22.405500 0.462100
22.504200 0.471500
22.603000 0.498900
22.701700 0.493200
22.800400 0.486800
22.899200 0.486900
22.997900 0.481800
23.096600 0.479900
23.195400 0.477500
23.294100 0.477000
23.392900 0.475900
23.491600 0.472700
23.590300 0.469800
23.689100 0.466400
23.787800 0.463900
23.886500 0.462800
23.985300 0.462000
24.084000 0.459800
24.182700 0.458400
24.281500 0.455600
24.380200 0.453000
24.479000 0.450900
24.577700 0.449000
24.676400 0.447900
24.775200 0.446000
24.873900 0.443900
24.972600 0.442200
25.071400 0.441100
25.170100 0.438800
25.268900 0.437200
25.367600 0.435200
25.466300 0.434000
25.565100 0.433900
25.663800 0.432000
25.762500 0.430500
25.861300 0.429300
25.960000 0.428300
26.058700 0.427500
26.157500 0.427100
26.256200 0.426500
26.355000 0.426600
26.453700 0.427600
26.552400 0.427800
26.651200 0.428400
26.749900 0.429700
26.848600 0.432200
26.947400 0.435100
27.046100 0.439500
27.144800 0.443900
27.243600 0.429100
27.342300 0.399500
27.441100 0.387200
27.539800 0.375600
27.638500 0.364500
27.737300 0.356400
27.836000 0.349400
27.934700 0.343100
28.033500 0.339400
28.132200 0.411700
28.231000 0.379300
28.329700 0.386600
28.428400 0.395000
28.527200 0.375700
28.625900 0.331800
28.724600 0.334100
28.823400 0.339400
28.922100 0.346100
29.020800 0.345600
29.119600 0.352800
29.218300 0.369200
29.317100 0.391000
29.415800 0.436000
29.514500 0.479000
29.613300 0.510000
29.712000 0.517600
29.810700 0.516200
29.909500 0.515100
30.008200 0.516700
30.107000 0.514600
30.205700 0.507300
30.304400 0.499000
30.403200 0.489600
30.501900 0.484300
30.600600 0.483500
30.699400 0.486800
30.798100 0.487700
30.896800 0.484500
30.995600 0.491800
31.094300 0.485100
31.193100 0.489900
31.291800 0.490200
31.390500 0.492900
31.489300 0.497500
31.588000 0.507200
31.686700 0.518400
31.785500 0.531900
31.884200 0.550800
31.982900 0.549400
32.081700 0.544400
32.180400 0.533900
32.279200 0.526700
32.377900 0.517600
32.476600 0.516900
32.575400 0.504800
32.674100 0.497600
32.772800 0.495100
32.871600 0.483700
32.970300 0.510900
33.069100 0.462600
33.167800 0.442000
33.266500 0.435600
33.365300 0.409100
33.464000 0.394600
33.562700 0.382600
33.661500 0.377600
33.760200 0.367300
33.858900 0.362000
33.957700 0.366200
34.056400 0.367400
34.155200 0.361600
34.253900 0.378500
34.352600 0.383900
34.451400 0.371900
34.550100 0.349800
34.648800 0.333200
34.747600 0.309300
34.846300 0.292600
34.945100 0.261700
35.043800 0.254800
35.142500 0.253400
35.241300 0.251100
35.340000 0.215400
35.438700 0.214400
35.537500 0.212000
35.636200 0.231100
35.734900 0.262100
35.833700 0.285400
35.932400 0.314500
36.031200 0.362800
36.129900 0.398900
36.228600 0.425200
36.327400 0.451700
36.426100 0.484800
36.524800 0.505600
36.623600 0.555100
36.722300 0.593600
36.821000 0.622700
36.919800 0.672000
37.018500 0.711500
37.117300 0.705600
37.216000 0.699400
37.314700 0.679700
37.413500 0.659800
37.512200 0.638300
37.610900 0.621400
37.709700 0.603400
37.808400 0.584600
37.907200 0.573400
38.005900 0.570200
38.104600 0.575200
38.203400 0.565300
38.302100 0.583600
38.400800 0.609300
38.499600 0.606600
38.598300 0.587400
38.697000 0.572600
38.795800 0.555200
38.894500 0.537700
38.993300 0.520400
39.092000 0.504500
39.190700 0.488200
39.289500 0.469500
39.388200 0.444700
39.486900 0.431300
39.585700 0.424400
39.684400 0.423300
39.783100 0.424400
39.881900 0.428000
39.980600 0.435200
40.079400 0.405900
40.178100 0.390000
40.276800 0.378200
40.375600 0.378100
40.474300 0.370200
40.573000 0.357300
40.671800 0.353200
40.770500 0.362200
40.869300 0.380900
40.968000 0.410800
41.066700 0.444200
41.165500 0.487300
41.264200 0.513800
41.362900 0.559200
41.461700 0.602200
41.560400 0.600100
41.659100 0.592500
41.757900 0.602000
41.856600 0.588500
41.955400 0.578900
42.054100 0.580500
42.152800 0.589900
42.251600 0.598500
42.350300 0.592600
42.449000 0.598400
42.547800 0.589300
42.646500 0.584200
42.745300 0.584000
42.844000 0.577800
42.942700 0.560800
43.041500 0.560400
43.140200 0.551500
43.238900 0.545800
43.337700 0.545300
43.436400 0.541600
43.535100 0.536900
43.633900 0.527600
43.732600 0.518200
43.831400 0.509000
43.930100 0.503500
44.028800 0.509800
44.127600 0.507900
44.226300 0.506200
44.325000 0.499100
44.423800 0.498700
44.522500 0.493600
44.621200 0.493800
44.720000 0.481700
44.818700 0.477700
44.917500 0.469300
45.016200 0.448500
45.114900 0.434200
45.213700 0.426900
45.312400 0.427800
45.411100 0.431900
45.509900 0.432500
45.608600 0.431700
45.707400 0.434000
45.806100 0.436800
45.904800 0.447400
46.003600 0.456100
46.102300 0.454600
46.201000 0.453800
46.299800 0.455000
46.398500 0.467300
46.497200 0.473400
46.596000 0.496600
46.694700 0.499900
46.793500 0.510800
46.892200 0.519300
46.990900 0.514900
47.089700 0.522600
47.188400 0.530000
47.287100 0.548000
47.385900 0.547200
47.484600 0.557800
47.583300 0.533300
47.682100 0.515500
47.780800 0.516600
47.879600 0.539300
47.978300 0.545100
48.077000 0.539400
48.175800 0.535500
48.274500 0.531800
48.373200 0.531900
48.472000 0.529900
48.570700 0.539500
48.669500 0.552200
48.768200 0.560800
48.866900 0.572500
48.965700 0.585100
49.064400 0.594500
49.163100 0.602100
49.261900 0.604700
49.360600 0.609400
49.459300 0.611700
49.558100 0.622000
49.656800 0.613800
49.755600 0.586100
49.854300 0.560100
49.953000 0.542500
