set title 'mp-1220021 - Density of States'
set xlabel 'Energy (eV)'
set ylabel 'DOS (states/eV)'
set grid
set xrange [-10:10]
set yrange [0:5.570]
set xzeroaxis lt -1
set terminal png size 800,600
set output 'mp-1220021_dos_gnuplot.png'
plot '-' using 1:2 with lines title 'DOS'
-10.302700 0.000000
-10.282900 0.000000
-10.263000 0.000000
-10.243200 0.000000
-10.223300 0.000000
-10.203500 0.000000
-10.183600 0.000000
-10.163800 0.000000
-10.143900 0.000000
-10.124100 0.000000
-10.104200 0.000000
-10.084400 0.000000
-10.064500 0.000000
-10.044700 0.000000
-10.024900 0.000000
-10.005000 0.000000
-9.985200 0.000000
-9.965300 0.000000
-9.945500 0.000000
-9.925600 0.000000
-9.905800 0.000000
-9.885900 0.000000
-9.866100 0.000000
-9.846200 0.000000
-9.826400 0.000000
-9.806500 0.000000
-9.786700 0.000000
-9.766900 0.000000
-9.747000 0.000000
-9.727200 0.000000
-9.707300 0.000000
-9.687500 0.000000
-9.667600 0.000000
-9.647800 0.000000
-9.627900 0.000000
-9.608100 0.000000
-9.588200 0.000000
-9.568400 0.000000
-9.548500 0.000000
-9.528700 0.000000
-9.508900 0.000000
-9.489000 0.000000
-9.469200 0.000000
-9.449300 0.000000
-9.429500 0.000000
-9.409600 0.000000
-9.389800 0.000000
-9.369900 0.000000
-9.350100 0.000000
-9.330200 0.000000
-9.310400 0.000000
-9.290500 0.000000
-9.270700 0.000000
-9.250800 0.000000
-9.231000 0.000000
-9.211200 0.000000
-9.191300 0.000000
-9.171500 0.000000
-9.151600 0.000000
-9.131800 0.000000
-9.111900 0.000000
-9.092100 0.000000
-9.072200 0.000000
-9.052400 0.000000
-9.032500 0.000000
-9.012700 0.000000
-8.992800 0.000000
-8.973000 0.000000
-8.953200 0.000000
-8.933300 0.000000
-8.913500 0.000000
-8.893600 0.000000
-8.873800 0.000000
-8.853900 0.000000
-8.834100 0.000000
-8.814200 0.000000
-8.794400 0.000000
-8.774500 0.000000
-8.754700 0.000000
-8.734800 0.000000
-8.715000 0.000000
-8.695200 0.000000
-8.675300 0.000000
-8.655500 0.000000
-8.635600 0.000000
-8.615800 0.000200
-8.595900 0.001000
-8.576100 0.004700
-8.556200 0.016000
-8.536400 0.040600
-8.516500 0.078200
-8.496700 0.117800
-8.476800 0.149000
-8.457000 0.182200
-8.437100 0.242700
-8.417300 0.335300
-8.397500 0.422600
-8.377600 0.453400
-8.357800 0.410400
-8.337900 0.327800
-8.318100 0.271600
-8.298200 0.293700
-8.278400 0.387000
-8.258500 0.494100
-8.238700 0.576000
-8.218800 0.653500
-8.199000 0.749000
-8.179100 0.818600
-8.159300 0.786000
-8.139500 0.641100
-8.119600 0.472600
-8.099800 0.394000
-8.079900 0.436000
-8.060100 0.524500
-8.040200 0.569400
-8.020400 0.567400
-8.000500 0.602800
-7.980700 0.745000
-7.960800 0.952700
-7.941000 1.092600
-7.921100 1.078400
-7.901300 0.970900
-7.881500 0.890300
-7.861600 0.872200
-7.841800 0.878500
-7.821900 0.896800
-7.802100 0.936400
-7.782200 0.961300
-7.762400 0.908200
-7.742500 0.761300
-7.722700 0.576100
-7.702800 0.454400
-7.683000 0.488100
-7.663100 0.683100
-7.643300 0.952900
-7.623500 1.211600
-7.603600 1.425900
-7.583800 1.557400
-7.563900 1.544600
-7.544100 1.402400
-7.524200 1.265400
-7.504400 1.253000
-7.484500 1.309200
-7.464700 1.265500
-7.444800 1.082700
-7.425000 0.927300
-7.405100 0.952000
-7.385300 1.086800
-7.365400 1.131400
-7.345600 1.019400
-7.325800 0.903800
-7.305900 0.961900
-7.286100 1.177300
-7.266200 1.381700
-7.246400 1.496500
-7.226500 1.619400
-7.206700 1.819000
-7.186800 1.966000
-7.167000 1.876100
-7.147100 1.558900
-7.127300 1.247300
-7.107400 1.199900
-7.087600 1.482700
-7.067800 1.901600
-7.047900 2.151700
-7.028100 2.070900
-7.008200 1.760600
-6.988400 1.468500
-6.968500 1.378700
-6.948700 1.509800
-6.928800 1.757000
-6.909000 1.968700
-6.889100 2.032100
-6.869300 1.990500
-6.849400 2.023400
-6.829600 2.218100
-6.809800 2.458400
-6.789900 2.609700
-6.770100 2.689900
-6.750200 2.795200
-6.730400 2.948900
-6.710500 3.073100
-6.690700 3.065500
-6.670800 2.887100
-6.651000 2.620400
-6.631100 2.425300
-6.611300 2.372000
-6.591400 2.347100
-6.571600 2.180500
-6.551700 1.818100
-6.531900 1.356400
-6.512100 0.990800
-6.492200 0.944400
-6.472400 1.375200
-6.452500 2.275200
-6.432700 3.382300
-6.412800 4.209400
-6.393000 4.343900
-6.373100 3.828800
-6.353300 3.130900
-6.333400 2.657400
-6.313600 2.422500
-6.293700 2.217900
-6.273900 1.964400
-6.254100 1.782100
-6.234200 1.770600
-6.214400 1.869400
-6.194500 1.962600
-6.174700 2.005800
-6.154800 2.022600
-6.135000 2.047800
-6.115100 2.071300
-6.095300 2.029500
-6.075400 1.878300
-6.055600 1.655500
-6.035700 1.430800
-6.015900 1.235500
-5.996100 1.089000
-5.976200 1.041100
-5.956400 1.128900
-5.936500 1.308300
-5.916700 1.460600
-5.896800 1.468100
-5.877000 1.284100
-5.857100 0.968800
-5.837300 0.674900
-5.817400 0.558100
-5.797600 0.655100
-5.777700 0.842300
-5.757900 0.941100
-5.738000 0.870000
-5.718200 0.687900
-5.698400 0.513500
-5.678500 0.428300
-5.658700 0.426800
-5.638800 0.436500
-5.619000 0.395800
-5.599100 0.306600
-5.579300 0.213200
-5.559400 0.161900
-5.539600 0.195800
-5.519700 0.350700
-5.499900 0.605700
-5.480000 0.846400
-5.460200 0.936100
-5.440400 0.839200
-5.420500 0.657100
-5.400700 0.562800
-5.380800 0.701600
-5.361000 1.084200
-5.341100 1.533400
-5.321300 1.796900
-5.301400 1.772600
-5.281600 1.585000
-5.261700 1.410900
-5.241900 1.306600
-5.222000 1.240700
-5.202200 1.189100
-5.182400 1.132800
-5.162500 1.048600
-5.142700 0.948600
-5.122800 0.866900
-5.103000 0.797300
-5.083100 0.716600
-5.063300 0.657600
-5.043400 0.685600
-5.023600 0.807900
-5.003700 0.963000
-4.983900 1.083000
-4.964000 1.125300
-4.944200 1.068300
-4.924400 0.920700
-4.904500 0.720200
-4.884700 0.515700
-4.864800 0.369100
-4.845000 0.340300
-4.825100 0.425600
-4.805300 0.533600
-4.785400 0.569300
-4.765600 0.535000
-4.745700 0.501800
-4.725900 0.504800
-4.706000 0.532000
-4.686200 0.592900
-4.666300 0.714200
-4.646500 0.874500
-4.626700 1.003500
-4.606800 1.047300
-4.587000 1.002200
-4.567100 0.893100
-4.547300 0.766100
-4.527400 0.701800
-4.507600 0.759100
-4.487700 0.892400
-4.467900 0.991100
-4.448000 0.991800
-4.428200 0.897400
-4.408300 0.739400
-4.388500 0.579800
-4.368700 0.508600
-4.348800 0.585500
-4.329000 0.776000
-4.309100 0.953100
-4.289300 0.996300
-4.269400 0.914000
-4.249600 0.842000
-4.229700 0.879900
-4.209900 0.962600
-4.190000 0.955200
-4.170200 0.838000
-4.150300 0.730900
-4.130500 0.747900
-4.110700 0.870600
-4.090800 0.967200
-4.071000 0.939400
-4.051100 0.828800
-4.031300 0.752500
-4.011400 0.779700
-3.991600 0.887100
-3.971700 0.974000
-3.951900 0.937900
-3.932000 0.798800
-3.912200 0.700300
-3.892300 0.750100
-3.872500 0.918700
-3.852600 1.115600
-3.832800 1.300700
-3.813000 1.462100
-3.793100 1.522400
-3.773300 1.373200
-3.753400 1.035800
-3.733600 0.699200
-3.713700 0.543000
-3.693900 0.573100
-3.674000 0.664300
-3.654200 0.729700
-3.634300 0.806200
-3.614500 0.965600
-3.594600 1.193000
-3.574800 1.405100
-3.555000 1.568100
-3.535100 1.720000
-3.515300 1.866700
-3.495400 1.945300
-3.475600 1.917600
-3.455700 1.844800
-3.435900 1.859600
-3.416000 2.055400
-3.396200 2.354500
-3.376300 2.511400
-3.356500 2.333700
-3.336600 1.897000
-3.316800 1.490600
-3.297000 1.370400
-3.277100 1.582000
-3.257300 1.991400
-3.237400 2.466000
-3.217600 3.014700
-3.197700 3.697200
-3.177900 4.370000
-3.158000 4.645300
-3.138200 4.256300
-3.118300 3.408000
-3.098500 2.595600
-3.078600 2.108000
-3.058800 1.877600
-3.038900 1.767000
-3.019100 1.775400
-2.999300 1.945700
-2.979400 2.245400
-2.959600 2.583600
-2.939700 2.870900
-2.919900 3.043000
-2.900000 3.057400
-2.880200 2.907600
-2.860300 2.657100
-2.840500 2.420200
-2.820600 2.282200
-2.800800 2.241300
-2.780900 2.221400
-2.761100 2.151000
-2.741300 2.039600
-2.721400 1.965800
-2.701600 1.990600
-2.681700 2.125700
-2.661900 2.374800
-2.642000 2.688500
-2.622200 2.882100
-2.602300 2.765700
-2.582500 2.380700
-2.562600 1.968200
-2.542800 1.707100
-2.522900 1.611200
-2.503100 1.664600
-2.483300 1.901200
-2.463400 2.279000
-2.443600 2.592400
-2.423700 2.638100
-2.403900 2.430300
-2.384000 2.169600
-2.364200 2.025200
-2.344300 2.000300
-2.324500 1.997900
-2.304600 1.969400
-2.284800 1.965700
-2.264900 2.051200
-2.245100 2.209400
-2.225300 2.361000
-2.205400 2.451100
-2.185600 2.463300
-2.165700 2.372200
-2.145900 2.167000
-2.126000 1.916500
-2.106200 1.733300
-2.086300 1.679900
-2.066500 1.731500
-2.046600 1.783300
-2.026800 1.704000
-2.006900 1.462600
-1.987100 1.186400
-1.967200 1.025500
-1.947400 0.999200
-1.927600 1.018400
-1.907700 0.995700
-1.887900 0.901500
-1.868000 0.782100
-1.848200 0.743300
-1.828300 0.871600
-1.808500 1.186200
-1.788600 1.667000
-1.768800 2.217300
-1.748900 2.593000
-1.729100 2.537000
-1.709200 2.037700
-1.689400 1.344800
-1.669600 0.735400
-1.649700 0.340200
-1.629900 0.152600
-1.610000 0.112500
-1.590200 0.162300
-1.570300 0.257100
-1.550500 0.361100
-1.530600 0.459400
-1.510800 0.569900
-1.490900 0.729400
-1.471100 0.956100
-1.451200 1.216000
-1.431400 1.431600
-1.411600 1.557300
-1.391700 1.617000
-1.371900 1.613500
-1.352000 1.466200
-1.332200 1.136700
-1.312300 0.756000
-1.292500 0.518600
-1.272600 0.493300
-1.252800 0.604100
-1.232900 0.769400
-1.213100 0.995300
-1.193200 1.311300
-1.173400 1.645100
-1.153500 1.826600
-1.133700 1.742000
-1.113900 1.463400
-1.094000 1.196700
-1.074200 1.096900
-1.054300 1.141900
-1.034500 1.183500
-1.014600 1.090100
-0.994800 0.843400
-0.974900 0.535000
-0.955100 0.290400
-0.935200 0.197300
-0.915400 0.288400
-0.895500 0.539500
-0.875700 0.844400
-0.855900 1.048800
-0.836000 1.088300
-0.816200 1.077700
-0.796300 1.189600
-0.776500 1.452100
-0.756600 1.733100
-0.736800 1.917900
-0.716900 2.014600
-0.697100 2.064500
-0.677200 2.043500
-0.657400 1.911400
-0.637500 1.708900
-0.617700 1.548800
-0.597900 1.511300
-0.578000 1.560600
-0.558200 1.573600
-0.538300 1.466600
-0.518500 1.290400
-0.498600 1.185800
-0.478800 1.262100
-0.458900 1.508600
-0.439100 1.765800
-0.419200 1.803700
-0.399400 1.515400
-0.379500 1.047500
-0.359700 0.685000
-0.339800 0.614300
-0.320000 0.828700
-0.300200 1.196400
-0.280300 1.545000
-0.260500 1.720400
-0.240600 1.656700
-0.220800 1.410500
-0.200900 1.105400
-0.181100 0.848700
-0.161200 0.692400
-0.141400 0.642300
-0.121500 0.674400
-0.101700 0.740400
-0.081800 0.784100
-0.062000 0.763200
-0.042200 0.668900
-0.022300 0.537700
-0.002500 0.429300
0.017400 0.387600
0.037200 0.436800
0.057100 0.589800
0.076900 0.817700
0.096800 1.017100
0.116600 1.066400
0.136500 0.954100
0.156300 0.816700
0.176200 0.810500
0.196000 0.958500
0.215800 1.146900
0.235700 1.241100
0.255500 1.180800
0.275400 1.004900
0.295200 0.830600
0.315100 0.763000
0.334900 0.787100
0.354800 0.794300
0.374600 0.726300
0.394500 0.617600
0.414300 0.501600
0.434200 0.371500
0.454000 0.244400
0.473800 0.183200
0.493700 0.238900
0.513500 0.390900
0.533400 0.539600
0.553200 0.581900
0.573100 0.506000
0.592900 0.379400
0.612800 0.259200
0.632600 0.165500
0.652500 0.117800
0.672300 0.143300
0.692200 0.249400
0.712000 0.402000
0.731900 0.547100
0.751700 0.667200
0.771500 0.790400
0.791400 0.924600
0.811200 1.037100
0.831100 1.120900
0.850900 1.201900
0.870800 1.261700
0.890600 1.249800
0.910500 1.206100
0.930300 1.268000
0.950200 1.511300
0.970000 1.860800
0.989900 2.176800
1.009700 2.377000
1.029500 2.486300
1.049400 2.594900
1.069200 2.743400
1.089100 2.854400
1.108900 2.804500
1.128800 2.560200
1.148600 2.231500
1.168500 1.981600
1.188300 1.899400
1.208200 1.993200
1.228000 2.258500
1.247900 2.652200
1.267700 3.015400
1.287500 3.139100
1.307400 2.955800
1.327200 2.606000
1.347100 2.295000
1.366900 2.151100
1.386800 2.214400
1.406600 2.444200
1.426500 2.680100
1.446300 2.703800
1.466200 2.441900
1.486000 2.034900
1.505900 1.661200
1.525700 1.431500
1.545600 1.459100
1.565400 1.823000
1.585200 2.410400
1.605100 2.946100
1.624900 3.242800
1.644800 3.346600
1.664600 3.375900
1.684500 3.300500
1.704300 3.010700
1.724200 2.550400
1.744000 2.112300
1.763900 1.817800
1.783700 1.652100
1.803600 1.598200
1.823400 1.704400
1.843200 2.014400
1.863100 2.499800
1.882900 3.059900
1.902800 3.557500
1.922600 3.862700
1.942500 3.898100
1.962300 3.667900
1.982200 3.253000
2.002000 2.780600
2.021900 2.396800
2.041700 2.229300
2.061600 2.307200
2.081400 2.482400
2.101200 2.493900
2.121100 2.195500
2.140900 1.723600
2.160800 1.396000
2.180600 1.459900
2.200500 1.969500
2.220300 2.802900
2.240200 3.662100
2.260000 4.163500
2.279900 4.133900
2.299700 3.783400
2.319600 3.462000
2.339400 3.301500
2.359300 3.195900
2.379100 3.046100
2.398900 2.872300
2.418800 2.716700
2.438600 2.584200
2.458500 2.501100
2.478300 2.515200
2.498200 2.626500
2.518000 2.791800
2.537900 2.976000
2.557700 3.167800
2.577600 3.349100
2.597400 3.450800
2.617300 3.417300
2.637100 3.333700
2.656900 3.316300
2.676800 3.272400
2.696600 3.018300
2.716500 2.610500
2.736300 2.311100
2.756200 2.256400
2.776000 2.341800
2.795900 2.407700
2.815700 2.427800
2.835600 2.478000
2.855400 2.590700
2.875300 2.747700
2.895100 2.956600
2.914900 3.202400
2.934800 3.366000
2.954600 3.328100
2.974500 3.143300
2.994300 2.992900
3.014200 2.990100
3.034000 3.127000
3.053900 3.332400
3.073700 3.466900
3.093600 3.357200
3.113400 2.970900
3.133300 2.497900
3.153100 2.183900
3.172900 2.126500
3.192800 2.250400
3.212600 2.439300
3.232500 2.648800
3.252300 2.853500
3.272200 2.953400
3.292000 2.885100
3.311900 2.812200
3.331700 3.016500
3.351600 3.536200
3.371400 4.049000
3.391300 4.172500
3.411100 3.788000
3.431000 3.080300
3.450800 2.371000
3.470600 1.892700
3.490500 1.670500
3.510300 1.639800
3.530200 1.818800
3.550000 2.241700
3.569900 2.759900
3.589700 3.096200
3.609600 3.123700
3.629400 2.934600
3.649300 2.656100
3.669100 2.372400
3.689000 2.162700
3.708800 2.060300
3.728600 2.026600
3.748500 2.030900
3.768300 2.119400
3.788200 2.373800
3.808000 2.783600
3.827900 3.194400
3.847700 3.452500
3.867600 3.567100
3.887400 3.652400
3.907300 3.754100
3.927100 3.778900
3.947000 3.609500
3.966800 3.315800
3.986600 3.161600
4.006500 3.281200
4.026300 3.473500
4.046200 3.471500
4.066000 3.297500
4.085900 3.194300
4.105700 3.266800
4.125600 3.324700
4.145400 3.108800
4.165300 2.603400
4.185100 2.061200
4.205000 1.763800
4.224800 1.821300
4.244700 2.164200
4.264500 2.631400
4.284300 3.029000
4.304200 3.187100
4.324000 3.099200
4.343900 2.983400
4.363700 3.070400
4.383600 3.332600
4.403400 3.531600
4.423300 3.542200
4.443100 3.495000
4.463000 3.523800
4.482800 3.515900
4.502700 3.251200
4.522500 2.715500
4.542300 2.171200
4.562200 1.913900
4.582000 2.012800
4.601900 2.322800
4.621700 2.685700
4.641600 3.020600
4.661400 3.279400
4.681300 3.466000
4.701100 3.671600
4.721000 3.959000
4.740800 4.251200
4.760700 4.428100
4.780500 4.452100
4.800300 4.381300
4.820200 4.347000
4.840000 4.464900
4.859900 4.710200
4.879700 4.929900
4.899600 4.954800
4.919400 4.695600
4.939300 4.207800
4.959100 3.648600
4.979000 3.165600
4.998800 2.861800
5.018700 2.791200
5.038500 2.930800
5.058300 3.201700
5.078200 3.524800
5.098000 3.822900
5.117900 4.005200
5.137700 4.002000
5.157600 3.816100
5.177400 3.519400
5.197300 3.196500
5.217100 2.910000
5.237000 2.689300
5.256800 2.511100
5.276700 2.339600
5.296500 2.207700
5.316400 2.217300
5.336200 2.476000
5.356000 3.015400
5.375900 3.698000
5.395700 4.249600
5.415600 4.486600
5.435400 4.482500
5.455300 4.415200
5.475100 4.292200
5.495000 3.970900
5.514800 3.421000
5.534700 2.817600
5.554500 2.375100
5.574400 2.188600
5.594200 2.252100
5.614000 2.540300
5.633900 2.989700
5.653700 3.437900
5.673600 3.695100
5.693400 3.686500
5.713300 3.458600
5.733100 3.110400
5.753000 2.818500
5.772800 2.832900
5.792700 3.284300
5.812500 3.980700
5.832400 4.493100
5.852200 4.535500
5.872000 4.251600
5.891900 4.043000
5.911700 4.126900
5.931600 4.374500
5.951400 4.582700
5.971300 4.737900
5.991100 4.922300
6.011000 5.063700
6.030800 4.924200
6.050700 4.408100
6.070500 3.796400
6.090400 3.539500
6.110200 3.809700
6.130100 4.304300
6.149900 4.498800
6.169700 4.133300
6.189600 3.445100
6.209400 2.902100
6.229300 2.779500
6.249100 2.989700
6.269000 3.214200
6.288800 3.192600
6.308700 2.909400
6.328500 2.509500
6.348400 2.116600
6.368200 1.787200
6.388100 1.561600
6.407900 1.463700
6.427700 1.446600
6.447600 1.408700
6.467400 1.323100
6.487300 1.316500
6.507100 1.528400
6.527000 1.898400
6.546800 2.185400
6.566700 2.208700
6.586500 2.007800
6.606400 1.758600
6.626200 1.583900
6.646100 1.492400
6.665900 1.480100
6.685700 1.601400
6.705600 1.893500
6.725400 2.277100
6.745300 2.578200
6.765100 2.633700
6.785000 2.423700
6.804800 2.151100
6.824700 2.113000
6.844500 2.394400
6.864400 2.730800
6.884200 2.773200
6.904100 2.454400
6.923900 1.995300
6.943800 1.600000
6.963600 1.292900
6.983400 1.049100
7.003300 0.915700
7.023100 0.932000
7.043000 1.033900
7.062800 1.106700
7.082700 1.089500
7.102500 0.990500
7.122400 0.852700
7.142200 0.742200
7.162100 0.723300
7.181900 0.820000
7.201800 1.022300
7.221600 1.295300
7.241400 1.539900
7.261300 1.617900
7.281100 1.493900
7.301000 1.320400
7.320800 1.321900
7.340700 1.574900
7.360500 1.898900
7.380400 2.003900
7.400200 1.788800
7.420100 1.428700
7.439900 1.135600
7.459800 0.950100
7.479600 0.813700
7.499400 0.730500
7.519300 0.778500
7.539100 0.994000
7.559000 1.309500
7.578800 1.613200
7.598700 1.809500
7.618500 1.826200
7.638400 1.663500
7.658200 1.455700
7.678100 1.392400
7.697900 1.550500
7.717800 1.864500
7.737600 2.257400
7.757400 2.695100
7.777300 3.074000
7.797100 3.204300
7.817000 3.002400
7.836800 2.606900
7.856700 2.254100
7.876500 2.099500
7.896400 2.161600
7.916200 2.358000
7.936100 2.542600
7.955900 2.579100
7.975800 2.465600
7.995600 2.333000
8.015500 2.259100
8.035300 2.175400
8.055100 2.015500
8.075000 1.845100
8.094800 1.776300
8.114700 1.856000
8.134500 2.076300
8.154400 2.387300
8.174200 2.680800
8.194100 2.864300
8.213900 2.973200
8.233800 3.086100
8.253600 3.115200
8.273500 2.858100
8.293300 2.299100
8.313100 1.693600
8.333000 1.318800
8.352800 1.256800
8.372700 1.409500
8.392500 1.625900
8.412400 1.806800
8.432200 1.935700
8.452100 2.056000
8.471900 2.206000
8.491800 2.312200
8.511600 2.193600
8.531500 1.770200
8.551300 1.198400
8.571100 0.731100
8.591000 0.521900
8.610800 0.582700
8.630700 0.825300
8.650500 1.112000
8.670400 1.330000
8.690200 1.465600
8.710100 1.606800
8.729900 1.843400
8.749800 2.145400
8.769600 2.354200
8.789500 2.337300
8.809300 2.134500
8.829200 1.894800
8.849000 1.725000
8.868800 1.662400
8.888700 1.702100
8.908500 1.773500
8.928400 1.749400
8.948200 1.556600
8.968100 1.285700
8.987900 1.136800
9.007800 1.213500
9.027600 1.413800
9.047500 1.582500
9.067300 1.707000
9.087200 1.866600
9.107000 2.074500
9.126800 2.294100
9.146700 2.507300
9.166500 2.661300
9.186400 2.640500
9.206200 2.377000
9.226100 1.945700
9.245900 1.515000
9.265800 1.229800
9.285600 1.137400
9.305500 1.203100
9.325300 1.392600
9.345200 1.706000
9.365000 2.125000
9.384800 2.556000
9.404700 2.817300
9.424500 2.730500
9.444400 2.319700
9.464200 1.881900
9.484100 1.743700
9.503900 1.963400
9.523800 2.325100
9.543600 2.561900
9.563500 2.552500
9.583300 2.411600
9.603200 2.424400
9.623000 2.800500
9.642900 3.474200
9.662700 4.140000
9.682500 4.434600
9.702400 4.163600
9.722200 3.441200
9.742100 2.587700
9.761900 1.905500
9.781800 1.582100
9.801600 1.674500
9.821500 2.053900
9.841300 2.461000
9.861200 2.749000
9.881000 3.006300
9.900900 3.355600
9.920700 3.743300
9.940500 4.016800
9.960400 4.105500
9.980200 4.036900
10.000100 3.861000
10.019900 3.633300
10.039800 3.406300
10.059600 3.214100
10.079500 3.125100
10.099300 3.261400
10.119200 3.656100
10.139000 4.134200
10.158900 4.429500
10.178700 4.411200
10.198500 4.177900
10.218400 3.933000
10.238200 3.760600
10.258100 3.566100
10.277900 3.289400
10.297800 3.090300
10.317600 3.201400
10.337500 3.646600
10.357300 4.192100
10.377200 4.543000
10.397000 4.540300
10.416900 4.201400
10.436700 3.671800
10.456500 3.204000
10.476400 3.085400
10.496200 3.463000
10.516100 4.247500
10.535900 5.182200
10.555800 5.945900
10.575600 6.273400
10.595500 6.120700
10.615300 5.678800
10.635200 5.169300
10.655000 4.696400
10.674900 4.298700
10.694700 4.028800
10.714600 3.942900
10.734400 4.036300
10.754200 4.198800
10.774100 4.264500
