set title 'mp-1228819 - Density of States'
set xlabel 'Energy (eV)'
set ylabel 'DOS (states/eV)'
set grid
set xrange [-10:10]
set yrange [0:7.107]
set xzeroaxis lt -1
set terminal png size 800,600
set output 'mp-1228819_dos_gnuplot.png'
plot '-' using 1:2 with lines title 'DOS'
-11.588700 0.000000
-11.569800 0.000000
-11.550800 0.000000
-11.531900 0.000000
-11.512900 0.000000
-11.494000 0.000000
-11.475000 0.000000
-11.456100 0.000000
-11.437100 0.000000
-11.418200 0.000000
-11.399200 0.000000
-11.380300 0.000000
-11.361400 0.000000
-11.342400 0.000000
-11.323500 0.000000
-11.304500 0.000000
-11.285600 0.000000
-11.266600 0.000000
-11.247700 0.000000
-11.228700 0.000000
-11.209800 0.000000
-11.190900 0.000000
-11.171900 0.000000
-11.153000 0.000000
-11.134000 0.000000
-11.115100 0.000000
-11.096100 0.000000
-11.077200 0.000000
-11.058200 0.000000
-11.039300 0.000000
-11.020300 0.000000
-11.001400 0.000000
-10.982500 0.000000
-10.963500 0.000000
-10.944600 0.000000
-10.925600 0.000000
-10.906700 0.000000
-10.887700 0.000000
-10.868800 0.000000
-10.849800 0.000000
-10.830900 0.000000
-10.812000 0.000000
-10.793000 0.000000
-10.774100 0.000000
-10.755100 0.000000
-10.736200 0.000000
-10.717200 0.000000
-10.698300 0.000000
-10.679300 0.000000
-10.660400 0.000000
-10.641400 0.000000
-10.622500 0.000000
-10.603600 0.000000
-10.584600 0.000000
-10.565700 0.000000
-10.546700 0.000000
-10.527800 0.000000
-10.508800 0.000000
-10.489900 0.000000
-10.470900 0.000000
-10.452000 0.000000
-10.433000 0.000000
-10.414100 0.000000
-10.395200 0.000000
-10.376200 0.000000
-10.357300 0.000000
-10.338300 0.000000
-10.319400 0.000000
-10.300400 0.000000
-10.281500 0.000000
-10.262500 0.000000
-10.243600 0.000000
-10.224700 0.000000
-10.205700 0.000000
-10.186800 0.000000
-10.167800 0.000000
-10.148900 0.000000
-10.129900 0.000000
-10.111000 0.000000
-10.092000 0.000000
-10.073100 0.000000
-10.054100 0.000000
-10.035200 0.000000
-10.016300 0.000000
-9.997300 0.000000
-9.978400 0.000300
-9.959400 0.001500
-9.940500 0.006200
-9.921500 0.019000
-9.902600 0.045200
-9.883600 0.084600
-9.864700 0.130300
-9.845700 0.179400
-9.826800 0.243300
-9.807900 0.333200
-9.788900 0.430600
-9.770000 0.487800
-9.751000 0.473300
-9.732100 0.408900
-9.713100 0.358600
-9.694200 0.379300
-9.675200 0.478500
-9.656300 0.617100
-9.637400 0.747800
-9.618400 0.840600
-9.599500 0.875000
-9.580500 0.838000
-9.561600 0.743800
-9.542600 0.642200
-9.523700 0.588200
-9.504700 0.593500
-9.485800 0.623000
-9.466800 0.651400
-9.447900 0.708600
-9.429000 0.838300
-9.410000 1.018700
-9.391100 1.160700
-9.372100 1.203500
-9.353200 1.177600
-9.334200 1.148200
-9.315300 1.135500
-9.296300 1.113200
-9.277400 1.052400
-9.258400 0.949600
-9.239500 0.835000
-9.220600 0.756800
-9.201600 0.755700
-9.182700 0.854700
-9.163700 1.047000
-9.144800 1.273100
-9.125800 1.444200
-9.106900 1.510100
-9.087900 1.490100
-9.069000 1.445500
-9.050100 1.434100
-9.031100 1.461900
-9.012200 1.476100
-8.993200 1.433500
-8.974300 1.361200
-8.955300 1.308800
-8.936400 1.279000
-8.917400 1.254300
-8.898500 1.249700
-8.879500 1.293800
-8.860600 1.385400
-8.841700 1.501000
-8.822700 1.631800
-8.803800 1.787100
-8.784800 1.955300
-8.765900 2.089200
-8.746900 2.139400
-8.728000 2.092200
-8.709000 1.987300
-8.690100 1.891700
-8.671200 1.826800
-8.652200 1.749600
-8.633300 1.646400
-8.614300 1.595000
-8.595400 1.689800
-8.576400 1.931900
-8.557500 2.215100
-8.538500 2.409300
-8.519600 2.468800
-8.500600 2.477500
-8.481700 2.561100
-8.462800 2.750100
-8.443800 2.960100
-8.424900 3.097000
-8.405900 3.133800
-8.387000 3.092600
-8.368000 3.005700
-8.349100 2.915200
-8.330100 2.874900
-8.311200 2.901200
-8.292200 2.918300
-8.273300 2.796200
-8.254400 2.473400
-8.235400 2.044300
-8.216500 1.730800
-8.197500 1.748900
-8.178600 2.151200
-8.159600 2.779600
-8.140700 3.391300
-8.121700 3.845500
-8.102800 4.174600
-8.083900 4.444100
-8.064900 4.556100
-8.046000 4.308800
-8.027000 3.698300
-8.008100 3.032300
-7.989100 2.658600
-7.970200 2.660700
-7.951200 2.859600
-7.932300 3.028800
-7.913300 3.048700
-7.894400 2.909700
-7.875500 2.657400
-7.856500 2.357200
-7.837600 2.073500
-7.818600 1.861500
-7.799700 1.764200
-7.780700 1.778700
-7.761800 1.824800
-7.742800 1.785200
-7.723900 1.591600
-7.704900 1.289100
-7.686000 1.023300
-7.667100 0.926800
-7.648100 0.988300
-7.629200 1.057400
-7.610200 1.002800
-7.591300 0.843600
-7.572300 0.712500
-7.553400 0.723500
-7.534400 0.885300
-7.515500 1.104700
-7.496600 1.244700
-7.477600 1.209900
-7.458700 1.023500
-7.439700 0.828100
-7.420800 0.794600
-7.401800 1.001600
-7.382900 1.366600
-7.363900 1.680900
-7.345000 1.749400
-7.326000 1.547200
-7.307100 1.247900
-7.288200 1.069900
-7.269200 1.089900
-7.250300 1.207300
-7.231300 1.260100
-7.212400 1.169000
-7.193400 0.992000
-7.174500 0.849900
-7.155500 0.819300
-7.136600 0.901900
-7.117600 1.052300
-7.098700 1.192600
-7.079800 1.238500
-7.060800 1.162700
-7.041900 1.023900
-7.022900 0.909100
-7.004000 0.851300
-6.985000 0.818900
-6.966100 0.777000
-6.947100 0.730700
-6.928200 0.705200
-6.909300 0.710400
-6.890300 0.726600
-6.871400 0.717000
-6.852400 0.672400
-6.833500 0.637800
-6.814500 0.658300
-6.795600 0.724200
-6.776600 0.813100
-6.757700 0.939400
-6.738700 1.097100
-6.719800 1.193000
-6.700900 1.117200
-6.681900 0.879800
-6.663000 0.625200
-6.644000 0.505100
-6.625100 0.565800
-6.606100 0.745600
-6.587200 0.935700
-6.568200 1.051300
-6.549300 1.088200
-6.530400 1.107900
-6.511400 1.142600
-6.492500 1.146500
-6.473500 1.073000
-6.454600 0.967200
-6.435600 0.953900
-6.416700 1.125500
-6.397700 1.425300
-6.378800 1.652500
-6.359800 1.627900
-6.340900 1.350600
-6.322000 0.976600
-6.303000 0.688100
-6.284100 0.607000
-6.265100 0.755100
-6.246200 1.036000
-6.227200 1.305900
-6.208300 1.499300
-6.189300 1.640900
-6.170400 1.732800
-6.151400 1.713500
-6.132500 1.548500
-6.113600 1.298700
-6.094600 1.079500
-6.075700 0.977800
-6.056700 1.004400
-6.037800 1.103500
-6.018800 1.208400
-5.999900 1.288100
-5.980900 1.341500
-5.962000 1.364000
-5.943100 1.344100
-5.924100 1.301900
-5.905200 1.316500
-5.886200 1.479900
-5.867300 1.813300
-5.848300 2.254700
-5.829400 2.715100
-5.810400 3.102700
-5.791500 3.308600
-5.772500 3.258800
-5.753600 3.021300
-5.734700 2.825200
-5.715700 2.944000
-5.696800 3.507900
-5.677800 4.345500
-5.658900 5.023700
-5.639900 5.159100
-5.621000 4.720900
-5.602000 3.994700
-5.583100 3.308000
-5.564100 2.863600
-5.545200 2.769300
-5.526300 3.089200
-5.507300 3.766600
-5.488400 4.500900
-5.469400 4.858500
-5.450500 4.644200
-5.431500 4.088100
-5.412600 3.593100
-5.393600 3.393600
-5.374700 3.469500
-5.355800 3.634100
-5.336800 3.674200
-5.317900 3.524800
-5.298900 3.324100
-5.280000 3.259000
-5.261000 3.381200
-5.242100 3.551900
-5.223100 3.529000
-5.204200 3.175000
-5.185200 2.606600
-5.166300 2.073600
-5.147400 1.726500
-5.128400 1.585300
-5.109500 1.663000
-5.090500 1.984300
-5.071600 2.477900
-5.052600 2.937500
-5.033700 3.152500
-5.014700 3.071700
-4.995800 2.817900
-4.976800 2.582700
-4.957900 2.525100
-4.939000 2.693800
-4.920000 2.983900
-4.901100 3.200200
-4.882100 3.200100
-4.863200 2.984700
-4.844200 2.667600
-4.825300 2.361600
-4.806300 2.098700
-4.787400 1.860700
-4.768500 1.649300
-4.749500 1.492800
-4.730600 1.414200
-4.711600 1.417000
-4.692700 1.482300
-4.673700 1.581900
-4.654800 1.707800
-4.635800 1.876600
-4.616900 2.093000
-4.597900 2.296200
-4.579000 2.341500
-4.560100 2.097700
-4.541100 1.606800
-4.522200 1.080500
-4.503200 0.701400
-4.484300 0.495300
-4.465300 0.409300
-4.446400 0.425100
-4.427400 0.549400
-4.408500 0.741000
-4.389600 0.906800
-4.370600 0.972600
-4.351700 0.925500
-4.332700 0.806500
-4.313800 0.698800
-4.294800 0.686400
-4.275900 0.770200
-4.256900 0.849000
-4.238000 0.826600
-4.219000 0.725600
-4.200100 0.668900
-4.181200 0.759700
-4.162200 0.998500
-4.143300 1.303700
-4.124300 1.569300
-4.105400 1.693100
-4.086400 1.617500
-4.067500 1.384100
-4.048500 1.112800
-4.029600 0.904800
-4.010600 0.795600
-3.991700 0.789300
-3.972800 0.876700
-3.953800 1.006500
-3.934900 1.092900
-3.915900 1.090800
-3.897000 1.022900
-3.878000 0.920700
-3.859100 0.798800
-3.840100 0.694700
-3.821200 0.663300
-3.802300 0.710100
-3.783300 0.770000
-3.764400 0.770200
-3.745400 0.693200
-3.726500 0.583300
-3.707500 0.519200
-3.688600 0.568300
-3.669600 0.741600
-3.650700 0.982500
-3.631700 1.189100
-3.612800 1.260600
-3.593900 1.167900
-3.574900 0.991100
-3.556000 0.862200
-3.537000 0.872800
-3.518100 1.052900
-3.499100 1.392100
-3.480200 1.822900
-3.461200 2.192700
-3.442300 2.328200
-3.423300 2.201100
-3.404400 2.013700
-3.385500 2.018300
-3.366500 2.228200
-3.347600 2.413700
-3.328600 2.400500
-3.309700 2.255500
-3.290700 2.138000
-3.271800 2.072700
-3.252800 1.948500
-3.233900 1.704400
-3.215000 1.428800
-3.196000 1.247000
-3.177100 1.185900
-3.158100 1.210800
-3.139200 1.331800
-3.120200 1.572100
-3.101300 1.831100
-3.082300 1.893900
-3.063400 1.661000
-3.044400 1.309300
-3.025500 1.136100
-3.006600 1.270100
-2.987600 1.591700
-2.968700 1.896900
-2.949700 2.067300
-2.930800 2.089800
-2.911800 2.002200
-2.892900 1.852100
-2.873900 1.656000
-2.855000 1.387300
-2.836000 1.042300
-2.817100 0.700500
-2.798200 0.475300
-2.779200 0.429000
-2.760300 0.564900
-2.741300 0.851900
-2.722400 1.188900
-2.703400 1.389800
-2.684500 1.309200
-2.665500 0.997000
-2.646600 0.653400
-2.627700 0.432100
-2.608700 0.341600
-2.589800 0.313900
-2.570800 0.295900
-2.551900 0.274200
-2.532900 0.254500
-2.514000 0.234100
-2.495000 0.197400
-2.476100 0.139400
-2.457100 0.077900
-2.438200 0.033500
-2.419300 0.011000
-2.400300 0.002700
-2.381400 0.000500
-2.362400 0.000100
-2.343500 0.000000
-2.324500 0.000000
-2.305600 0.000000
-2.286600 0.000000
-2.267700 0.000000
-2.248800 0.000000
-2.229800 0.000000
-2.210900 0.000000
-2.191900 0.000000
-2.173000 0.000000
-2.154000 0.000000
-2.135100 0.000000
-2.116100 0.000000
-2.097200 0.000000
-2.078200 0.000000
-2.059300 0.000000
-2.040400 0.000000
-2.021400 0.000000
-2.002500 0.000000
-1.983500 0.000000
-1.964600 0.000000
-1.945600 0.000000
-1.926700 0.000000
-1.907700 0.000000
-1.888800 0.000000
-1.869800 0.000000
-1.850900 0.000000
-1.832000 0.000000
-1.813000 0.000000
-1.794100 0.000000
-1.775100 0.000000
-1.756200 0.000000
-1.737200 0.000000
-1.718300 0.000000
-1.699300 0.000000
-1.680400 0.000000
-1.661500 0.000000
-1.642500 0.000000
-1.623600 0.000000
-1.604600 0.000000
-1.585700 0.000000
-1.566700 0.000000
-1.547800 0.000000
-1.528800 0.000000
-1.509900 0.000000
-1.490900 0.000000
-1.472000 0.000000
-1.453100 0.000000
-1.434100 0.000000
-1.415200 0.000000
-1.396200 0.000000
-1.377300 0.000000
-1.358300 0.000000
-1.339400 0.000000
-1.320400 0.000000
-1.301500 0.000000
-1.282500 0.000000
-1.263600 0.000000
-1.244700 0.000000
-1.225700 0.000000
-1.206800 0.000000
-1.187800 0.000000
-1.168900 0.000000
-1.149900 0.000000
-1.131000 0.000000
-1.112000 0.000000
-1.093100 0.000000
-1.074200 0.000000
-1.055200 0.000000
-1.036300 0.000000
-1.017300 0.000000
-0.998400 0.000000
-0.979400 0.000000
-0.960500 0.000000
-0.941500 0.000000
-0.922600 0.000000
-0.903600 0.000000
-0.884700 0.000000
-0.865800 0.000000
-0.846800 0.000000
-0.827900 0.000000
-0.808900 0.000000
-0.790000 0.000200
-0.771000 0.001400
-0.752100 0.007600
-0.733100 0.031800
-0.714200 0.102700
-0.695200 0.259400
-0.676300 0.519400
-0.657400 0.846300
-0.638400 1.171800
-0.619500 1.462600
-0.600500 1.723800
-0.581600 1.921700
-0.562600 1.982700
-0.543700 1.917400
-0.524700 1.882100
-0.505800 2.070600
-0.486900 2.576700
-0.467900 3.349100
-0.449000 4.192400
-0.430000 4.802800
-0.411100 4.929800
-0.392100 4.602800
-0.373200 4.158800
-0.354200 3.961400
-0.335300 4.068100
-0.316300 4.200500
-0.297400 4.057500
-0.278500 3.613100
-0.259500 3.083200
-0.240600 2.677100
-0.221600 2.450300
-0.202700 2.357100
-0.183700 2.367600
-0.164800 2.507800
-0.145800 2.804800
-0.126900 3.216000
-0.108000 3.634900
-0.089000 3.958700
-0.070100 4.117300
-0.051100 4.055900
-0.032200 3.761800
-0.013200 3.340800
0.005700 3.004900
0.024700 2.925600
0.043600 3.112000
0.062600 3.437900
0.081500 3.736300
0.100400 3.874800
0.119400 3.824600
0.138300 3.671800
0.157300 3.512500
0.176200 3.351900
0.195200 3.140800
0.214100 2.879200
0.233100 2.648900
0.252000 2.572600
0.271000 2.739000
0.289900 3.106100
0.308800 3.484300
0.327800 3.688400
0.346700 3.695800
0.365700 3.623800
0.384600 3.596200
0.403600 3.654600
0.422500 3.753400
0.441500 3.807900
0.460400 3.745600
0.479300 3.559300
0.498300 3.357500
0.517200 3.298400
0.536200 3.380200
0.555100 3.374200
0.574100 3.087300
0.593000 2.638500
0.612000 2.360100
0.630900 2.464300
0.649900 2.885800
0.668800 3.406200
0.687700 3.832500
0.706700 4.050500
0.725600 3.989200
0.744600 3.630500
0.763500 3.078300
0.782500 2.558600
0.801400 2.287100
0.820400 2.333600
0.839300 2.625100
0.858300 3.045700
0.877200 3.501900
0.896100 3.916300
0.915100 4.215600
0.934000 4.353700
0.953000 4.333400
0.971900 4.186100
0.990900 3.931900
1.009800 3.579600
1.028800 3.171600
1.047700 2.805400
1.066600 2.587900
1.085600 2.564300
1.104500 2.696700
1.123500 2.921300
1.142400 3.205600
1.161400 3.519200
1.180300 3.783300
1.199300 3.930400
1.218200 3.999700
1.237200 4.076000
1.256100 4.136800
1.275000 4.061200
1.294000 3.787900
1.312900 3.394400
1.331900 3.030100
1.350800 2.792700
1.369800 2.652200
1.388700 2.505100
1.407700 2.320100
1.426600 2.210400
1.445600 2.332500
1.464500 2.712700
1.483400 3.191300
1.502400 3.539100
1.521300 3.628500
1.540300 3.509400
1.559200 3.327500
1.578200 3.174300
1.597100 3.044600
1.616100 2.932000
1.635000 2.881400
1.653900 2.898600
1.672900 2.884300
1.691800 2.742700
1.710800 2.512900
1.729700 2.327100
1.748700 2.287600
1.767600 2.422100
1.786600 2.684100
1.805500 2.945400
1.824500 3.060300
1.843400 3.003500
1.862300 2.903200
1.881300 2.907400
1.900200 3.064100
1.919200 3.335000
1.938100 3.676800
1.957100 4.085200
1.976000 4.554600
1.995000 5.006200
2.013900 5.292800
2.032800 5.290400
2.051800 4.977200
2.070700 4.433400
2.089700 3.805300
2.108600 3.279200
2.127600 3.019400
2.146500 3.057100
2.165500 3.253800
2.184400 3.420900
2.203400 3.477800
2.222300 3.468700
2.241200 3.434300
2.260200 3.341000
2.279100 3.180700
2.298100 3.066600
2.317000 3.145300
2.336000 3.428000
2.354900 3.762000
2.373900 3.961900
2.392800 3.935700
2.411800 3.712500
2.430700 3.404400
2.449600 3.136600
2.468600 2.983100
2.487500 2.971700
2.506500 3.113100
2.525400 3.384900
2.544400 3.748600
2.563300 4.198400
2.582300 4.690400
2.601200 5.043300
2.620100 5.069900
2.639100 4.792800
2.658000 4.425700
2.677000 4.221000
2.695900 4.385700
2.714900 4.963200
2.733800 5.701300
2.752800 6.159100
2.771700 6.048700
2.790700 5.461000
2.809600 4.733300
2.828500 4.135600
2.847500 3.741000
2.866400 3.535300
2.885400 3.514500
2.904300 3.630100
2.923300 3.726700
2.942200 3.635000
2.961200 3.350900
2.980100 3.081700
2.999100 3.066800
3.018000 3.336300
3.036900 3.672500
3.055900 3.833600
3.074800 3.792700
3.093800 3.726600
3.112700 3.812400
3.131700 4.079000
3.150600 4.412000
3.169600 4.646900
3.188500 4.663200
3.207400 4.429600
3.226400 4.000600
3.245300 3.493800
3.264300 3.067100
3.283200 2.869400
3.302200 2.954800
3.321100 3.251000
3.340100 3.639400
3.359000 4.047500
3.378000 4.435800
3.396900 4.740200
3.415800 4.892400
3.434800 4.868700
3.453700 4.657400
3.472700 4.242700
3.491600 3.713700
3.510600 3.334200
3.529500 3.406700
3.548500 4.032400
3.567400 4.991800
3.586400 5.846300
3.605300 6.189700
3.624200 5.888800
3.643200 5.150300
3.662100 4.350500
3.681100 3.783800
3.700000 3.525200
3.719000 3.443100
3.737900 3.348200
3.756900 3.196100
3.775800 3.124700
3.794700 3.275100
3.813700 3.650600
3.832600 4.167200
3.851600 4.722900
3.870500 5.154400
3.889500 5.264800
3.908400 5.006300
3.927400 4.535000
3.946300 4.014100
3.965300 3.469400
3.984200 2.888200
4.003100 2.339800
4.022100 1.921900
4.041000 1.669100
4.060000 1.582800
4.078900 1.669900
4.097900 1.885000
4.116800 2.115700
4.135800 2.289600
4.154700 2.434300
4.173600 2.584600
4.192600 2.683300
4.211500 2.646700
4.230500 2.508400
4.249400 2.410700
4.268400 2.456500
4.287300 2.638800
4.306300 2.880300
4.325200 3.081800
4.344200 3.186000
4.363100 3.237100
4.382000 3.316800
4.401000 3.410600
4.419900 3.421200
4.438900 3.333500
4.457800 3.275400
4.476800 3.353900
4.495700 3.478500
4.514700 3.440300
4.533600 3.144300
4.552600 2.672200
4.571500 2.144600
4.590400 1.650700
4.609400 1.297800
4.628300 1.195100
4.647300 1.358500
4.666200 1.701300
4.685200 2.123500
4.704100 2.570300
4.723100 3.003600
4.742000 3.325900
4.760900 3.386400
4.779900 3.132500
4.798800 2.713500
4.817800 2.356400
4.836700 2.164300
4.855700 2.058500
4.874600 1.890400
4.893600 1.600400
4.912500 1.273500
4.931500 1.048200
4.950400 0.980000
4.969300 0.998600
4.988300 1.005500
5.007200 0.991400
5.026200 1.033400
5.045100 1.204100
5.064100 1.502500
5.083000 1.849300
5.102000 2.133700
5.120900 2.285300
5.139900 2.327500
5.158800 2.361200
5.177700 2.470700
5.196700 2.644000
5.215600 2.791800
5.234600 2.814100
5.253500 2.643100
5.272500 2.284400
5.291400 1.865300
5.310400 1.605100
5.329300 1.670300
5.348200 2.030000
5.367200 2.466300
5.386100 2.718700
5.405100 2.636800
5.424000 2.270200
5.443000 1.833800
5.461900 1.541500
5.480900 1.472800
5.499800 1.591700
5.518800 1.814100
5.537700 2.021000
5.556600 2.079400
5.575600 1.929200
5.594500 1.647400
5.613500 1.386400
5.632400 1.261800
5.651400 1.329600
5.670300 1.595800
5.689300 1.959900
5.708200 2.220700
5.727200 2.240300
5.746100 2.060000
5.765000 1.822100
5.784000 1.647300
5.802900 1.587400
5.821900 1.609700
5.840800 1.622800
5.859800 1.577600
5.878700 1.530700
5.897700 1.564600
5.916600 1.667000
5.935500 1.715200
5.954500 1.591400
5.973400 1.319600
5.992400 1.062800
6.011300 0.968900
6.030300 1.055400
6.049200 1.247600
6.068200 1.478700
6.087100 1.735700
6.106100 2.033000
6.125000 2.335100
6.143900 2.512800
6.162900 2.438000
6.181800 2.142300
6.200800 1.851300
6.219700 1.844900
6.238700 2.234100
6.257600 2.812800
6.276600 3.180700
6.295500 3.093200
6.314400 2.656900
6.333400 2.148700
6.352300 1.729000
6.371300 1.389400
6.390200 1.109900
6.409200 0.949500
6.428100 0.947300
6.447100 1.018300
6.466000 1.039900
6.485000 1.011400
6.503900 1.047300
6.522800 1.230400
6.541800 1.532100
6.560700 1.853100
6.579700 2.098800
6.598600 2.234900
6.617600 2.295000
6.636500 2.341400
6.655500 2.425300
6.674400 2.546900
6.693400 2.616300
6.712300 2.517200
6.731200 2.263300
6.750200 2.030200
6.769100 1.982600
6.788100 2.106000
6.807000 2.256000
6.826000 2.350800
6.844900 2.445300
6.863900 2.625000
6.882800 2.892700
6.901700 3.179700
6.920700 3.416300
6.939600 3.543500
6.958600 3.498000
6.977500 3.263300
6.996500 2.944000
7.015400 2.730400
7.034400 2.748200
7.053300 2.954600
7.072300 3.206500
7.091200 3.401100
7.110100 3.507500
7.129100 3.507100
7.148000 3.401600
7.167000 3.263700
7.185900 3.205400
7.204900 3.314100
7.223800 3.619800
7.242800 4.042000
7.261700 4.365500
7.280700 4.378200
7.299600 4.094200
7.318500 3.793200
7.337500 3.767400
7.356400 4.002200
7.375400 4.148000
7.394300 3.857900
7.413300 3.134700
7.432200 2.323800
7.451200 1.821700
7.470100 1.823700
7.489000 2.252000
7.508000 2.827000
7.526900 3.250600
7.545900 3.394800
7.564800 3.319400
7.583800 3.140200
7.602700 2.934500
7.621700 2.742800
7.640600 2.583000
7.659600 2.470900
7.678500 2.467200
7.697400 2.661500
7.716400 3.056800
7.735300 3.493300
7.754300 3.759000
7.773200 3.814300
7.792200 3.848700
7.811100 4.063900
7.830100 4.470700
7.849000 4.942900
7.868000 5.337700
7.886900 5.492200
7.905800 5.256700
7.924800 4.645400
7.943700 3.881800
7.962700 3.258600
7.981600 2.963700
8.000600 2.983600
8.019500 3.149700
8.038500 3.329300
8.057400 3.538200
8.076300 3.829000
8.095300 4.175000
8.114200 4.504900
8.133200 4.768100
8.152100 4.951200
8.171100 5.048300
8.190000 5.030300
8.209000 4.893700
8.227900 4.732600
8.246900 4.698700
8.265800 4.891000
8.284700 5.291800
8.303700 5.770000
8.322600 6.162100
8.341600 6.388000
8.360500 6.461200
8.379500 6.381800
8.398400 6.108200
