set title 'mp-1077718 - Density of States'
set xlabel 'Energy (eV)'
set ylabel 'DOS (states/eV)'
set grid
set xrange [-10:10]
set yrange [0:4.018]
set xzeroaxis lt -1
set terminal png size 800,600
set output 'mp-1077718_dos_gnuplot.png'
plot '-' using 1:2 with lines title 'DOS'
-38.976600 0.000000
-38.916100 0.000000
-38.855600 0.000000
-38.795000 0.000000
-38.734500 0.000000
-38.674000 0.000000
-38.613500 0.000000
-38.553000 0.000000
-38.492400 0.000000
-38.431900 0.000000
-38.371400 0.000000
-38.310900 0.000000
-38.250400 0.000000
-38.189800 0.000000
-38.129300 0.000000
-38.068800 0.000000
-38.008300 0.000000
-37.947800 0.000000
-37.887300 0.000000
-37.826700 0.000000
-37.766200 0.000000
-37.705700 0.000000
-37.645200 0.000000
-37.584700 0.000000
-37.524100 0.000000
-37.463600 0.000000
-37.403100 0.000000
-37.342600 0.000000
-37.282100 0.000000
-37.221600 0.000000
-37.161000 0.000000
-37.100500 0.000000
-37.040000 0.000000
-36.979500 0.000000
-36.919000 0.000000
-36.858400 0.000000
-36.797900 0.000000
-36.737400 0.000000
-36.676900 0.000000
-36.616400 0.000000
-36.555900 0.000000
-36.495300 0.000000
-36.434800 0.000000
-36.374300 0.000000
-36.313800 0.000000
-36.253300 0.000000
-36.192700 0.000000
-36.132200 0.000000
-36.071700 0.000000
-36.011200 0.000000
-35.950700 0.000000
-35.890200 0.000000
-35.829600 0.000000
-35.769100 0.000000
-35.708600 0.000000
-35.648100 0.000000
-35.587600 0.000000
-35.527000 0.000000
-35.466500 0.000000
-35.406000 0.000000
-35.345500 0.000000
-35.285000 0.000000
-35.224500 0.000000
-35.163900 0.000000
-35.103400 0.000000
-35.042900 0.000000
-34.982400 0.000000
-34.921900 0.000000
-34.861300 0.000000
-34.800800 0.000000
-34.740300 0.000000
-34.679800 0.000000
-34.619300 0.000000
-34.558800 0.000000
-34.498200 0.000000
-34.437700 0.000000
-34.377200 0.000000
-34.316700 0.000000
-34.256200 0.000000
-34.195600 0.000000
-34.135100 0.000000
-34.074600 0.000000
-34.014100 0.000000
-33.953600 0.000000
-33.893100 0.000000
-33.832500 0.000000
-33.772000 0.000000
-33.711500 0.000000
-33.651000 0.000000
-33.590500 0.000000
-33.529900 0.000000
-33.469400 0.936900
-33.408900 14.290600
-33.348400 0.000000
-33.287900 0.000000
-33.227400 0.000000
-33.166800 0.000000
-33.106300 0.000000
-33.045800 0.000000
-32.985300 0.000000
-32.924800 0.000000
-32.864200 0.000000
-32.803700 0.000000
-32.743200 0.000000
-32.682700 0.000000
-32.622200 0.000000
-32.561700 0.000000
-32.501100 0.000000
-32.440600 0.000000
-32.380100 0.000000
-32.319600 0.000000
-32.259100 0.000000
-32.198500 0.000000
-32.138000 0.000000
-32.077500 0.000000
-32.017000 0.000000
-31.956500 0.000000
-31.896000 0.000000
-31.835400 0.000000
-31.774900 0.000000
-31.714400 0.000000
-31.653900 0.000000
-31.593400 0.000000
-31.532800 0.000000
-31.472300 0.000000
-31.411800 0.000000
-31.351300 0.000000
-31.290800 0.000000
-31.230300 0.000000
-31.169700 0.000000
-31.109200 0.000000
-31.048700 0.000000
-30.988200 0.000000
-30.927700 0.000000
-30.867100 0.000000
-30.806600 0.000000
-30.746100 0.000000
-30.685600 0.000000
-30.625100 0.000000
-30.564600 0.000000
-30.504000 0.000000
-30.443500 0.000000
-30.383000 0.000000
-30.322500 0.000000
-30.262000 0.000000
-30.201400 0.000000
-30.140900 0.000000
-30.080400 0.000000
-30.019900 0.000000
-29.959400 0.000000
-29.898800 0.000000
-29.838300 0.000000
-29.777800 0.000000
-29.717300 0.000000
-29.656800 0.000000
-29.596300 0.000000
-29.535700 0.000000
-29.475200 0.000000
-29.414700 0.000000
-29.354200 0.000000
-29.293700 0.000000
-29.233100 0.000000
-29.172600 0.000000
-29.112100 0.000000
-29.051600 0.000000
-28.991100 0.000000
-28.930600 0.000000
-28.870000 0.000000
-28.809500 0.000000
-28.749000 0.000000
-28.688500 0.000000
-28.628000 0.000000
-28.567400 0.000000
-28.506900 0.000000
-28.446400 0.000000
-28.385900 0.000000
-28.325400 0.000000
-28.264900 0.000000
-28.204300 0.000000
-28.143800 0.000000
-28.083300 0.000000
-28.022800 0.000000
-27.962300 0.000000
-27.901700 0.000000
-27.841200 0.000000
-27.780700 0.000000
-27.720200 0.000000
-27.659700 0.000000
-27.599200 0.000000
-27.538600 0.000000
-27.478100 0.000000
-27.417600 0.000000
-27.357100 0.000000
-27.296600 0.000000
-27.236000 0.000000
-27.175500 0.000000
-27.115000 0.000000
-27.054500 0.000000
-26.994000 0.000000
-26.933500 0.000000
-26.872900 0.000000
-26.812400 0.000000
-26.751900 0.000000
-26.691400 0.000000
-26.630900 0.000000
-26.570300 0.000000
-26.509800 0.000000
-26.449300 0.000000
-26.388800 0.000000
-26.328300 0.000000
-26.267800 0.000000
-26.207200 0.000000
-26.146700 0.000000
-26.086200 0.000000
-26.025700 0.000000
-25.965200 0.000000
-25.904600 0.000000
-25.844100 0.000000
-25.783600 0.000000
-25.723100 0.000000
-25.662600 0.000000
-25.602100 0.000000
-25.541500 0.000000
-25.481000 0.000000
-25.420500 0.000000
-25.360000 0.000000
-25.299500 0.000000
-25.238900 0.000000
-25.178400 0.000000
-25.117900 0.000000
-25.057400 0.000000
-24.996900 0.000000
-24.936400 0.000000
-24.875800 0.000000
-24.815300 0.000000
-24.754800 0.000000
-24.694300 0.000000
-24.633800 0.000000
-24.573200 0.000000
-24.512700 0.000000
-24.452200 0.000000
-24.391700 0.000000
-24.331200 0.000000
-24.270700 0.000000
-24.210100 0.000000
-24.149600 0.000000
-24.089100 0.000000
-24.028600 0.000000
-23.968100 0.000000
-23.907500 0.000000
-23.847000 0.000000
-23.786500 0.000000
-23.726000 0.000000
-23.665500 0.000000
-23.605000 0.000000
-23.544400 0.000000
-23.483900 0.000000
-23.423400 0.000000
-23.362900 0.000000
-23.302400 0.000000
-23.241800 0.000000
-23.181300 0.000000
-23.120800 0.000000
-23.060300 0.000000
-22.999800 0.000000
-22.939300 0.000000
-22.878700 0.000000
-22.818200 0.000000
-22.757700 0.000000
-22.697200 0.000000
-22.636700 0.000000
-22.576100 0.000000
-22.515600 0.000000
-22.455100 0.000000
-22.394600 0.000000
-22.334100 0.000000
-22.273600 0.000000
-22.213000 0.000000
-22.152500 0.000000
-22.092000 0.000000
-22.031500 0.000000
-21.971000 0.000000
-21.910400 0.000000
-21.849900 0.000000
-21.789400 0.000000
-21.728900 0.000000
-21.668400 0.000000
-21.607800 0.000000
-21.547300 0.000000
-21.486800 0.000000
-21.426300 0.000000
-21.365800 0.000000
-21.305300 0.000000
-21.244700 0.000000
-21.184200 0.000000
-21.123700 0.000000
-21.063200 0.000000
-21.002700 0.000000
-20.942100 0.000000
-20.881600 0.000000
-20.821100 0.000000
-20.760600 0.000000
-20.700100 0.000000
-20.639600 0.000000
-20.579000 0.000000
-20.518500 0.000000
-20.458000 0.000000
-20.397500 0.000000
-20.337000 0.000000
-20.276400 0.000000
-20.215900 0.000000
-20.155400 0.000000
-20.094900 0.000000
-20.034400 0.000000
-19.973900 0.000000
-19.913300 0.000000
-19.852800 0.000000
-19.792300 0.000000
-19.731800 0.000000
-19.671300 0.000000
-19.610700 0.000000
-19.550200 0.000000
-19.489700 0.000000
-19.429200 0.000000
-19.368700 0.000000
-19.308200 0.000000
-19.247600 0.000000
-19.187100 0.000000
-19.126600 0.000000
-19.066100 0.000000
-19.005600 0.000000
-18.945000 0.000000
-18.884500 0.000000
-18.824000 0.000000
-18.763500 0.000000
-18.703000 0.000000
-18.642500 0.000000
-18.581900 0.000000
-18.521400 0.000000
-18.460900 0.000000
-18.400400 0.000000
-18.339900 0.000000
-18.279300 0.000000
-18.218800 0.000000
-18.158300 0.000000
-18.097800 0.000000
-18.037300 0.000000
-17.976800 0.000000
-17.916200 0.000000
-17.855700 0.000000
-17.795200 0.000000
-17.734700 0.000000
-17.674200 0.000000
-17.613600 0.000000
-17.553100 0.000000
-17.492600 0.000000
-17.432100 0.000000
-17.371600 0.000000
-17.311100 0.000000
-17.250500 0.000000
-17.190000 0.000000
-17.129500 0.102200
-17.069000 0.221700
-17.008500 0.302200
-16.947900 0.383300
-16.887400 0.473300
-16.826900 0.577200
-16.766400 0.736100
-16.705900 1.870400
-16.645400 2.356700
-16.584800 2.226400
-16.524300 2.055100
-16.463800 1.762500
-16.403300 1.147300
-16.342800 0.454900
-16.282200 0.413500
-16.221700 0.625800
-16.161200 0.777500
-16.100700 0.850800
-16.040200 0.838600
-15.979700 0.833600
-15.919100 0.844600
-15.858600 0.842400
-15.798100 0.831100
-15.737600 0.819900
-15.677100 0.798900
-15.616500 0.787200
-15.556000 0.774600
-15.495500 0.757700
-15.435000 0.720400
-15.374500 0.698400
-15.314000 0.666600
-15.253400 0.645000
-15.192900 0.642100
-15.132400 0.591400
-15.071900 0.550900
-15.011400 0.520000
-14.950800 0.481900
-14.890300 0.426700
-14.829800 1.064200
-14.769300 2.629800
-14.708800 5.104500
-14.648300 5.444300
-14.587700 3.073400
-14.527200 1.105300
-14.466700 0.086500
-14.406200 0.143500
-14.345700 0.220800
-14.285100 0.324200
-14.224600 0.689700
-14.164100 0.806500
-14.103600 1.174000
-14.043100 0.972500
-13.982600 0.962900
-13.922000 0.941900
-13.861500 0.972100
-13.801000 0.952300
-13.740500 0.956400
-13.680000 0.952400
-13.619400 0.931000
-13.558900 0.931100
-13.498400 0.935500
-13.437900 0.916300
-13.377400 0.899100
-13.316800 0.884000
-13.256300 0.872100
-13.195800 0.845400
-13.135300 0.736100
-13.074800 0.594800
-13.014300 0.535600
-12.953700 0.605400
-12.893200 0.845900
-12.832700 1.274700
-12.772200 1.381500
-12.711700 1.551600
-12.651100 1.723800
-12.590600 1.750900
-12.530100 1.566300
-12.469600 1.020400
-12.409100 0.680400
-12.348600 0.431000
-12.288000 0.357300
-12.227500 0.275200
-12.167000 0.182100
-12.106500 0.130600
-12.046000 0.058500
-11.985400 0.000000
-11.924900 0.000000
-11.864400 0.000000
-11.803900 0.000000
-11.743400 0.000000
-11.682900 0.000000
-11.622300 0.000000
-11.561800 0.000000
-11.501300 0.000000
-11.440800 0.000000
-11.380300 0.000000
-11.319700 0.000000
-11.259200 0.000000
-11.198700 0.000000
-11.138200 0.000000
-11.077700 0.000000
-11.017200 0.000000
-10.956600 0.000000
-10.896100 0.000000
-10.835600 0.000000
-10.775100 0.000000
-10.714600 0.000000
-10.654000 0.000000
-10.593500 0.000000
-10.533000 0.000000
-10.472500 0.000000
-10.412000 0.000000
-10.351500 0.000000
-10.290900 0.000000
-10.230400 0.000000
-10.169900 0.000000
-10.109400 0.000000
-10.048900 0.000000
-9.988300 0.000000
-9.927800 0.000000
-9.867300 0.000000
-9.806800 0.000000
-9.746300 0.000000
-9.685800 0.000000
-9.625200 0.000000
-9.564700 0.000000
-9.504200 0.000000
-9.443700 0.000000
-9.383200 0.000000
-9.322600 0.000000
-9.262100 0.000000
-9.201600 0.000000
-9.141100 0.000000
-9.080600 0.000000
-9.020100 0.000000
-8.959500 0.000000
-8.899000 0.000000
-8.838500 0.000000
-8.778000 0.000000
-8.717500 0.000000
-8.656900 0.000000
-8.596400 0.000000
-8.535900 0.000000
-8.475400 0.000000
-8.414900 0.000000
-8.354400 0.000000
-8.293800 0.000000
-8.233300 0.000000
-8.172800 0.000000
-8.112300 0.000000
-8.051800 0.000000
-7.991200 0.000000
-7.930700 0.000000
-7.870200 0.000000
-7.809700 0.000000
-7.749200 0.000000
-7.688700 0.000000
-7.628100 0.000000
-7.567600 0.000000
-7.507100 0.000000
-7.446600 0.000000
-7.386100 0.000000
-7.325500 0.000000
-7.265000 0.000000
-7.204500 0.000000
-7.144000 0.000000
-7.083500 0.000000
-7.023000 0.000000
-6.962400 0.000000
-6.901900 0.000000
-6.841400 0.000000
-6.780900 0.000000
-6.720400 0.000000
-6.659800 0.000000
-6.599300 0.000000
-6.538800 0.000000
-6.478300 0.000000
-6.417800 0.000000
-6.357300 0.000000
-6.296700 0.000000
-6.236200 0.000000
-6.175700 0.000000
-6.115200 0.000000
-6.054700 0.000000
-5.994100 0.000000
-5.933600 0.000000
-5.873100 0.000000
-5.812600 0.000000
-5.752100 0.000000
-5.691600 0.000000
-5.631000 0.000000
-5.570500 0.000000
-5.510000 0.000000
-5.449500 0.000000
-5.389000 0.000000
-5.328400 0.000000
-5.267900 0.000000
-5.207400 0.000000
-5.146900 0.000000
-5.086400 0.000000
-5.025800 0.000000
-4.965300 0.000000
-4.904800 0.000000
-4.844300 0.000000
-4.783800 0.000000
-4.723300 0.000000
-4.662700 0.000000
-4.602200 0.000000
-4.541700 0.000000
-4.481200 0.000000
-4.420700 0.000000
-4.360100 0.000000
-4.299600 0.000000
-4.239100 0.000000
-4.178600 0.000000
-4.118100 0.000000
-4.057600 0.000000
-3.997000 0.000000
-3.936500 0.000000
-3.876000 0.000000
-3.815500 0.000000
-3.755000 0.000000
-3.694400 0.000000
-3.633900 0.000000
-3.573400 0.000000
-3.512900 0.000000
-3.452400 0.000000
-3.391900 0.000000
-3.331300 0.000000
-3.270800 0.000000
-3.210300 0.000000
-3.149800 0.000000
-3.089300 0.000000
-3.028700 0.000000
-2.968200 0.000000
-2.907700 0.000000
-2.847200 0.000000
-2.786700 0.000000
-2.726200 0.020800
-2.665600 0.040500
-2.605100 0.066400
-2.544600 0.072300
-2.484100 0.088200
-2.423600 0.209100
-2.363000 0.205800
-2.302500 0.252600
-2.242000 0.284500
-2.181500 0.332800
-2.121000 0.386900
-2.060500 0.428800
-1.999900 0.478100
-1.939400 0.606300
-1.878900 0.768800
-1.818400 0.870300
-1.757900 0.941500
-1.697300 0.993900
-1.636800 1.021200
-1.576300 0.980000
-1.515800 0.983700
-1.455300 1.037400
-1.394800 1.212400
-1.334200 1.635200
-1.273700 1.910500
-1.213200 2.391900
-1.152700 2.576300
-1.092200 2.572300
-1.031600 2.860400
-0.971100 2.146000
-0.910600 1.590500
-0.850100 1.305100
-0.789600 1.136800
-0.729100 1.215100
-0.668500 0.903800
-0.608000 1.323000
-0.547500 2.237100
-0.487000 2.503400
-0.426500 1.910200
-0.365900 1.646600
-0.305400 1.440100
-0.244900 1.197300
-0.184400 1.052000
-0.123900 1.228500
-0.063400 1.621600
-0.002800 1.800700
0.057700 1.880500
0.118200 1.766700
0.178700 1.307500
0.239200 1.705300
0.299800 2.244800
0.360300 2.245700
0.420800 2.394100
0.481300 2.071700
0.541800 2.347300
0.602300 2.567700
0.662900 1.851500
0.723400 2.139600
0.783900 2.985700
0.844400 3.652400
0.904900 3.297600
0.965500 2.837300
1.026000 2.590200
1.086500 1.966200
1.147000 1.486100
1.207500 1.494700
1.268000 1.149800
1.328600 0.482500
1.389100 0.058400
1.449600 0.000000
1.510100 0.000000
1.570600 0.000000
1.631200 0.000000
1.691700 0.000000
1.752200 0.000000
1.812700 0.000000
1.873200 0.000000
1.933700 0.000000
1.994300 0.000000
2.054800 0.000000
2.115300 0.000000
2.175800 0.000000
2.236300 0.000000
2.296900 0.000000
2.357400 0.000000
2.417900 0.000000
2.478400 0.000000
2.538900 0.000000
2.599400 0.000000
2.660000 0.000000
2.720500 0.000000
2.781000 0.000000
2.841500 0.000000
2.902000 0.000000
2.962600 0.000000
3.023100 0.000000
3.083600 0.000000
3.144100 0.000000
3.204600 0.000000
3.265200 0.000000
3.325700 0.000000
3.386200 0.000000
3.446700 0.000000
3.507200 0.000000
3.567700 0.000000
3.628300 0.000000
3.688800 0.000000
3.749300 0.000000
3.809800 0.000000
3.870300 0.000000
3.930900 0.000000
3.991400 0.000000
4.051900 0.000000
4.112400 0.000000
4.172900 0.000000
4.233400 0.000000
4.294000 0.000000
4.354500 0.000000
4.415000 0.000000
4.475500 0.000000
4.536000 0.000000
4.596600 0.000000
4.657100 0.000000
4.717600 0.000000
4.778100 0.000000
4.838600 0.000000
4.899100 0.000000
4.959700 0.000000
5.020200 0.000000
5.080700 0.000000
5.141200 0.000000
5.201700 0.000000
5.262300 0.000000
5.322800 0.000000
5.383300 0.000000
5.443800 0.000000
5.504300 0.000000
5.564800 0.000000
5.625400 0.000000
5.685900 0.000000
5.746400 0.000000
5.806900 0.000000
5.867400 0.000000
5.928000 0.000000
5.988500 0.000000
6.049000 0.000000
6.109500 0.000000
6.170000 0.000000
6.230500 0.000000
6.291100 0.000000
6.351600 0.000000
6.412100 0.017400
6.472600 0.114000
6.533100 0.191700
6.593700 0.285200
6.654200 0.840300
6.714700 1.281600
6.775200 1.019500
6.835700 0.933900
6.896200 0.935600
6.956800 0.931000
7.017300 0.995000
7.077800 1.172400
7.138300 0.941900
7.198800 0.878900
7.259400 0.852500
7.319900 0.854400
7.380400 0.878200
7.440900 0.944800
7.501400 1.075700
7.561900 1.056900
7.622500 1.003200
7.683000 0.782700
7.743500 0.565900
7.804000 0.427900
7.864500 0.485400
7.925100 0.951000
7.985600 1.200800
8.046100 1.378800
8.106600 1.138900
8.167100 0.960000
8.227600 0.873300
8.288200 0.890500
8.348700 0.921200
8.409200 0.916900
8.469700 0.886100
8.530200 0.873700
8.590800 0.895800
8.651300 0.927500
8.711800 0.754300
8.772300 0.917200
8.832800 1.069200
8.893300 1.378900
8.953900 1.891900
9.014400 1.781700
9.074900 1.434800
9.135400 1.143800
9.195900 0.997000
9.256500 0.908400
9.317000 0.857500
9.377500 0.856500
9.438000 0.726200
9.498500 0.664900
9.559000 0.627100
9.619600 0.603600
9.680100 0.581000
9.740600 0.694100
9.801100 0.756200
9.861600 0.573200
9.922200 0.569400
9.982700 0.675700
10.043200 0.937000
10.103700 1.045600
10.164200 1.101700
10.224700 1.183600
10.285300 1.245400
10.345800 1.184200
10.406300 1.217500
10.466800 0.867400
10.527300 0.784000
10.587900 0.644500
10.648400 0.724100
10.708900 0.753300
10.769400 0.883000
10.829900 1.058800
10.890400 1.364200
10.951000 1.531900
11.011500 2.005600
11.072000 2.612400
11.132500 2.528800
11.193000 2.177600
11.253600 1.225300
11.314100 1.272800
11.374600 1.309300
11.435100 1.633700
11.495600 1.939200
11.556200 1.164000
11.616700 0.771800
11.677200 0.617400
11.737700 0.527200
11.798200 0.467500
11.858700 0.414400
11.919300 0.361500
11.979800 0.341200
12.040300 0.324300
12.100800 0.311500
12.161300 0.299900
12.221900 0.291600
12.282400 0.284300
12.342900 0.277800
12.403400 0.271100
12.463900 0.263300
12.524400 0.257000
12.585000 0.250900
12.645500 0.245000
12.706000 0.241100
12.766500 0.237000
12.827000 0.232600
12.887600 0.228000
12.948100 0.223400
13.008600 0.218900
13.069100 0.214700
13.129600 0.209000
13.190100 0.205300
13.250700 0.205400
13.311200 0.201900
13.371700 0.197700
13.432200 0.192800
13.492700 0.189800
13.553300 0.187500
13.613800 0.194600
13.674300 0.180000
13.734800 0.155000
13.795300 0.141200
13.855800 0.131400
13.916400 0.167100
13.976900 0.235100
14.037400 0.268400
14.097900 0.304200
14.158400 0.343700
14.219000 0.405200
14.279500 0.476900
14.340000 0.568200
14.400500 0.604800
14.461000 0.674100
14.521500 0.636300
14.582100 0.624100
14.642600 0.627600
14.703100 0.644500
14.763600 0.652200
14.824100 0.654100
14.884700 0.650000
14.945200 0.705700
15.005700 0.716400
15.066200 0.737100
15.126700 0.779100
15.187200 0.853200
15.247800 0.756900
15.308300 0.636100
15.368800 0.603000
15.429300 0.546800
15.489800 0.494300
15.550400 0.526100
15.610900 0.498200
15.671400 0.445200
15.731900 0.433500
15.792400 0.416200
15.852900 0.399700
15.913500 0.475700
15.974000 0.467100
16.034500 0.523900
16.095000 0.685300
16.155500 0.832500
16.216100 0.741300
16.276600 0.637600
16.337100 0.642700
16.397600 0.737200
16.458100 0.618200
16.518600 0.585100
16.579200 0.589200
16.639700 0.600200
16.700200 0.594900
16.760700 0.564300
16.821200 0.530600
16.881800 0.541900
16.942300 0.590100
17.002800 0.597000
17.063300 0.642000
17.123800 0.640000
17.184300 0.693200
17.244900 0.713100
17.305400 0.741300
17.365900 0.781000
17.426400 0.799900
17.486900 0.751100
17.547500 0.707700
17.608000 0.698900
17.668500 0.678300
17.729000 0.666600
17.789500 0.650700
17.850000 0.656600
17.910600 0.638500
17.971100 0.559200
18.031600 0.524900
18.092100 0.517000
18.152600 0.513300
18.213200 0.506900
18.273700 0.479200
18.334200 0.473900
18.394700 0.483100
18.455200 0.490600
18.515700 0.501900
18.576300 0.516000
18.636800 0.542500
18.697300 0.579900
18.757800 0.606000
18.818300 0.631300
18.878900 0.659600
18.939400 0.690900
18.999900 0.727200
19.060400 0.778400
19.120900 0.791800
19.181400 0.790900
19.242000 0.781000
19.302500 0.777400
19.363000 0.790100
19.423500 0.837000
19.484000 0.862200
19.544600 0.889700
19.605100 0.968900
19.665600 1.008400
19.726100 0.950500
19.786600 0.872300
19.847200 0.792600
19.907700 0.748300
19.968200 0.846500
20.028700 0.911100
20.089200 0.981500
20.149700 0.964000
20.210300 0.991500
20.270800 0.967300
20.331300 0.924200
20.391800 0.836700
20.452300 0.781400
20.512900 0.743800
20.573400 0.715500
20.633900 0.699300
20.694400 0.689000
20.754900 0.702600
20.815400 0.725000
20.876000 0.749700
20.936500 0.758300
20.997000 0.765600
21.057500 0.747900
21.118000 0.736600
21.178600 0.729600
21.239100 0.768700
21.299600 0.799300
21.360100 0.682500
21.420600 0.627900
21.481100 0.594800
21.541700 0.590000
21.602200 0.578900
21.662700 0.607500
21.723200 0.650800
21.783700 0.691400
21.844300 0.731500
21.904800 0.770300
21.965300 0.770500
22.025800 0.730400
22.086300 0.695400
22.146800 0.668000
22.207400 0.641600
22.267900 0.637700
22.328400 0.625900
22.388900 0.617700
22.449400 0.619000
22.510000 0.626700
22.570500 0.629800
22.631000 0.668300
22.691500 0.653800
22.752000 0.665200
