set title 'mp-1057216 - Density of States'
set xlabel 'Energy (eV)'
set ylabel 'DOS (states/eV)'
set grid
set xrange [-10:10]
set yrange [0:2.613]
set xzeroaxis lt -1
set terminal png size 800,600
set output 'mp-1057216_dos_gnuplot.png'
plot '-' using 1:2 with lines title 'DOS'
-49.734900 0.000000
-49.657800 0.000000
-49.580800 0.000000
-49.503700 0.000000
-49.426600 0.000000
-49.349500 0.000000
-49.272400 0.000000
-49.195300 0.000000
-49.118200 0.000000
-49.041200 0.000000
-48.964100 0.000000
-48.887000 0.000000
-48.809900 0.000000
-48.732800 0.000000
-48.655700 0.000000
-48.578600 0.000000
-48.501600 0.000000
-48.424500 0.000000
-48.347400 0.000000
-48.270300 0.000000
-48.193200 0.000000
-48.116100 0.000000
-48.039000 0.000000
-47.962000 0.000000
-47.884900 0.000000
-47.807800 0.000000
-47.730700 0.000000
-47.653600 0.000000
-47.576500 0.000000
-47.499500 0.000000
-47.422400 0.000000
-47.345300 0.000000
-47.268200 0.000000
-47.191100 0.000000
-47.114000 0.000000
-47.036900 0.000000
-46.959900 0.000000
-46.882800 0.000000
-46.805700 0.000000
-46.728600 0.000000
-46.651500 0.000000
-46.574400 0.000000
-46.497300 0.000000
-46.420300 0.000000
-46.343200 0.000000
-46.266100 0.000000
-46.189000 0.000000
-46.111900 0.000000
-46.034800 0.000000
-45.957700 0.000000
-45.880700 0.000000
-45.803600 0.000000
-45.726500 0.000000
-45.649400 0.000000
-45.572300 0.000000
-45.495200 0.000000
-45.418100 0.000000
-45.341100 0.000000
-45.264000 0.000000
-45.186900 0.000000
-45.109800 0.000000
-45.032700 0.000000
-44.955600 0.000000
-44.878500 0.000000
-44.801500 0.000000
-44.724400 0.000000
-44.647300 0.000000
-44.570200 0.000000
-44.493100 0.000000
-44.416000 0.000000
-44.338900 0.000000
-44.261900 0.000000
-44.184800 0.000000
-44.107700 0.000000
-44.030600 0.000000
-43.953500 0.000000
-43.876400 0.000000
-43.799300 0.000000
-43.722300 0.000000
-43.645200 0.000000
-43.568100 0.000000
-43.491000 0.000000
-43.413900 0.000000
-43.336800 0.000000
-43.259700 0.000000
-43.182700 0.000000
-43.105600 0.000000
-43.028500 0.000000
-42.951400 0.000000
-42.874300 0.000000
-42.797200 0.000000
-42.720100 149.507300
-42.643100 0.000000
-42.566000 0.000000
-42.488900 0.000000
-42.411800 0.000000
-42.334700 0.000000
-42.257600 0.000000
-42.180500 0.000000
-42.103500 0.000000
-42.026400 0.000000
-41.949300 0.000000
-41.872200 0.000000
-41.795100 0.000000
-41.718000 0.000000
-41.640900 0.000000
-41.563900 0.000000
-41.486800 0.000000
-41.409700 0.000000
-41.332600 0.000000
-41.255500 0.000000
-41.178400 0.000000
-41.101300 0.000000
-41.024300 0.000000
-40.947200 0.000000
-40.870100 0.000000
-40.793000 0.000000
-40.715900 0.000000
-40.638800 0.000000
-40.561800 0.000000
-40.484700 0.000000
-40.407600 0.000000
-40.330500 0.000000
-40.253400 0.000000
-40.176300 0.000000
-40.099200 0.000000
-40.022200 0.000000
-39.945100 0.000000
-39.868000 0.000000
-39.790900 0.000000
-39.713800 0.000000
-39.636700 0.000000
-39.559600 0.000000
-39.482600 0.000000
-39.405500 0.000000
-39.328400 0.000000
-39.251300 0.000000
-39.174200 0.000000
-39.097100 0.000000
-39.020000 0.000000
-38.943000 0.000000
-38.865900 0.000000
-38.788800 0.000000
-38.711700 0.000000
-38.634600 0.000000
-38.557500 0.000000
-38.480400 0.000000
-38.403400 0.000000
-38.326300 0.000000
-38.249200 0.000000
-38.172100 0.000000
-38.095000 0.000000
-38.017900 0.000000
-37.940800 0.000000
-37.863800 0.000000
-37.786700 0.000000
-37.709600 0.000000
-37.632500 0.000000
-37.555400 0.000000
-37.478300 0.000000
-37.401200 0.000000
-37.324200 0.000000
-37.247100 0.000000
-37.170000 0.000000
-37.092900 0.000000
-37.015800 0.000000
-36.938700 0.000000
-36.861600 0.000000
-36.784600 0.000000
-36.707500 0.000000
-36.630400 0.000000
-36.553300 0.000000
-36.476200 0.000000
-36.399100 0.000000
-36.322000 0.000000
-36.245000 0.000000
-36.167900 0.000000
-36.090800 0.000000
-36.013700 0.000000
-35.936600 0.000000
-35.859500 0.000000
-35.782400 0.000000
-35.705400 0.000000
-35.628300 0.000000
-35.551200 0.000000
-35.474100 0.000000
-35.397000 0.000000
-35.319900 0.000000
-35.242800 0.000000
-35.165800 0.000000
-35.088700 0.000000
-35.011600 0.000000
-34.934500 0.000000
-34.857400 0.000000
-34.780300 0.000000
-34.703200 0.000000
-34.626200 0.000000
-34.549100 0.000000
-34.472000 0.000000
-34.394900 0.000000
-34.317800 0.000000
-34.240700 0.000000
-34.163600 0.000000
-34.086600 0.000000
-34.009500 0.000000
-33.932400 0.000000
-33.855300 0.000000
-33.778200 0.000000
-33.701100 0.000000
-33.624100 0.000000
-33.547000 0.000000
-33.469900 0.000000
-33.392800 0.000000
-33.315700 0.000000
-33.238600 0.000000
-33.161500 0.000000
-33.084500 0.000000
-33.007400 0.000000
-32.930300 0.000000
-32.853200 0.000000
-32.776100 0.000000
-32.699000 0.000000
-32.621900 0.000000
-32.544900 0.000000
-32.467800 0.000000
-32.390700 0.000000
-32.313600 0.000000
-32.236500 0.000000
-32.159400 0.000000
-32.082300 0.000000
-32.005300 0.000000
-31.928200 0.000000
-31.851100 0.000000
-31.774000 0.000000
-31.696900 0.000000
-31.619800 0.000000
-31.542700 0.000000
-31.465700 0.000000
-31.388600 0.000000
-31.311500 0.000000
-31.234400 0.000000
-31.157300 0.000000
-31.080200 0.000000
-31.003100 0.000000
-30.926100 0.000000
-30.849000 0.000000
-30.771900 0.000000
-30.694800 0.000000
-30.617700 0.000000
-30.540600 0.000000
-30.463500 0.000000
-30.386500 0.000000
-30.309400 0.000000
-30.232300 0.000000
-30.155200 0.000000
-30.078100 0.000000
-30.001000 0.000000
-29.923900 0.000000
-29.846900 0.000000
-29.769800 0.000000
-29.692700 0.000000
-29.615600 0.000000
-29.538500 0.000000
-29.461400 0.000000
-29.384300 0.000000
-29.307300 0.000000
-29.230200 0.000000
-29.153100 0.000000
-29.076000 0.000000
-28.998900 0.000000
-28.921800 0.000000
-28.844700 0.000000
-28.767700 0.000000
-28.690600 0.000000
-28.613500 0.000000
-28.536400 0.000000
-28.459300 0.000000
-28.382200 0.000000
-28.305100 0.000000
-28.228100 0.000000
-28.151000 0.000000
-28.073900 0.000000
-27.996800 0.000000
-27.919700 0.000000
-27.842600 0.000000
-27.765500 0.000000
-27.688500 0.000000
-27.611400 0.000000
-27.534300 0.000000
-27.457200 0.000000
-27.380100 0.000000
-27.303000 0.000000
-27.225900 0.000000
-27.148900 0.000000
-27.071800 0.000000
-26.994700 0.000000
-26.917600 0.000000
-26.840500 0.000000
-26.763400 0.000000
-26.686400 0.000000
-26.609300 0.000000
-26.532200 0.000000
-26.455100 0.000000
-26.378000 0.000000
-26.300900 0.000000
-26.223800 0.000000
-26.146800 0.000000
-26.069700 0.000000
-25.992600 0.000000
-25.915500 0.000000
-25.838400 0.000000
-25.761300 0.000000
-25.684200 0.000000
-25.607200 0.000000
-25.530100 0.000000
-25.453000 0.000000
-25.375900 0.000000
-25.298800 0.000000
-25.221700 0.000000
-25.144600 0.000000
-25.067600 0.000000
-24.990500 0.000000
-24.913400 0.000000
-24.836300 0.000000
-24.759200 0.000000
-24.682100 0.000000
-24.605000 0.000000
-24.528000 0.000000
-24.450900 0.000000
-24.373800 0.000000
-24.296700 0.000000
-24.219600 0.000000
-24.142500 0.000000
-24.065400 0.000000
-23.988400 0.000000
-23.911300 0.000000
-23.834200 0.000000
-23.757100 0.000000
-23.680000 0.000000
-23.602900 0.000000
-23.525800 0.000000
-23.448800 0.000000
-23.371700 0.000000
-23.294600 0.000000
-23.217500 0.000000
-23.140400 0.000000
-23.063300 0.000000
-22.986200 0.000000
-22.909200 0.000000
-22.832100 0.000000
-22.755000 0.000000
-22.677900 0.000000
-22.600800 0.000000
-22.523700 0.000000
-22.446600 0.000000
-22.369600 0.000000
-22.292500 0.000000
-22.215400 0.000000
-22.138300 0.000000
-22.061200 0.000000
-21.984100 0.000000
-21.907000 0.000000
-21.830000 0.000000
-21.752900 0.000000
-21.675800 0.000000
-21.598700 0.000000
-21.521600 0.000000
-21.444500 0.000000
-21.367400 0.000000
-21.290400 0.000000
-21.213300 0.000000
-21.136200 0.000000
-21.059100 0.000000
-20.982000 0.000000
-20.904900 0.000000
-20.827800 0.000000
-20.750800 0.000000
-20.673700 0.000000
-20.596600 0.000000
-20.519500 0.000000
-20.442400 0.000000
-20.365300 0.000000
-20.288200 0.000000
-20.211200 0.000000
-20.134100 0.000000
-20.057000 0.000000
-19.979900 0.000000
-19.902800 0.000000
-19.825700 0.000000
-19.748700 0.000000
-19.671600 0.000000
-19.594500 0.000000
-19.517400 0.000000
-19.440300 0.000000
-19.363200 0.000000
-19.286100 0.000000
-19.209100 0.000000
-19.132000 0.000000
-19.054900 0.000000
-18.977800 0.000000
-18.900700 0.000000
-18.823600 0.000000
-18.746500 0.000000
-18.669500 0.000000
-18.592400 0.000000
-18.515300 0.000000
-18.438200 0.000000
-18.361100 0.000000
-18.284000 0.000000
-18.206900 0.000000
-18.129900 0.000000
-18.052800 0.000000
-17.975700 0.000000
-17.898600 0.000000
-17.821500 0.000000
-17.744400 0.000000
-17.667300 0.000000
-17.590300 0.000000
-17.513200 0.000000
-17.436100 0.000000
-17.359000 0.000000
-17.281900 0.000000
-17.204800 0.000000
-17.127700 0.000000
-17.050700 0.000000
-16.973600 0.000000
-16.896500 0.000000
-16.819400 0.000000
-16.742300 0.000000
-16.665200 0.000000
-16.588100 0.000000
-16.511100 0.000000
-16.434000 0.000000
-16.356900 0.000000
-16.279800 0.000000
-16.202700 0.000000
-16.125600 0.000000
-16.048500 0.000000
-15.971500 0.000000
-15.894400 0.000000
-15.817300 0.000000
-15.740200 0.000000
-15.663100 0.000000
-15.586000 0.000000
-15.508900 0.000000
-15.431900 0.000000
-15.354800 0.000000
-15.277700 0.000000
-15.200600 0.000000
-15.123500 0.000000
-15.046400 0.000000
-14.969300 0.000000
-14.892300 0.000000
-14.815200 0.000000
-14.738100 0.000000
-14.661000 0.000000
-14.583900 0.000000
-14.506800 0.000000
-14.429700 0.000000
-14.352700 0.000000
-14.275600 0.000000
-14.198500 0.000000
-14.121400 0.000000
-14.044300 0.000000
-13.967200 0.000000
-13.890100 0.000000
-13.813100 0.000000
-13.736000 0.000000
-13.658900 0.000000
-13.581800 0.000000
-13.504700 0.000000
-13.427600 0.000000
-13.350500 0.000000
-13.273500 0.000000
-13.196400 0.000000
-13.119300 0.000000
-13.042200 0.000000
-12.965100 0.000000
-12.888000 0.000000
-12.811000 0.000000
-12.733900 0.000000
-12.656800 0.000000
-12.579700 0.000000
-12.502600 0.000000
-12.425500 0.000000
-12.348400 0.000000
-12.271400 0.000000
-12.194300 0.000000
-12.117200 0.000000
-12.040100 0.000000
-11.963000 0.000000
-11.885900 0.000000
-11.808800 0.000000
-11.731800 0.000000
-11.654700 0.000000
-11.577600 0.000000
-11.500500 0.000000
-11.423400 0.000000
-11.346300 0.000000
-11.269200 0.000000
-11.192200 0.000000
-11.115100 0.000000
-11.038000 0.000000
-10.960900 0.000000
-10.883800 0.000000
-10.806700 0.000000
-10.729600 0.000000
-10.652600 0.257400
-10.575500 0.442100
-10.498400 0.654100
-10.421300 0.664800
-10.344200 0.668300
-10.267100 0.692700
-10.190000 0.709600
-10.113000 0.722800
-10.035900 0.751300
-9.958800 0.776800
-9.881700 0.802700
-9.804600 0.835100
-9.727500 0.879500
-9.650400 0.942500
-9.573400 1.004900
-9.496300 1.081000
-9.419200 1.309300
-9.342100 1.582900
-9.265000 1.350500
-9.187900 1.169700
-9.110800 0.966500
-9.033800 0.883300
-8.956700 0.768600
-8.879600 0.724900
-8.802500 0.677200
-8.725400 0.621700
-8.648300 0.581900
-8.571200 0.548000
-8.494200 0.517600
-8.417100 0.493700
-8.340000 0.452900
-8.262900 0.424300
-8.185800 0.413600
-8.108700 1.599500
-8.031600 0.000000
-7.954600 0.000000
-7.877500 0.000000
-7.800400 0.000000
-7.723300 0.000000
-7.646200 0.000000
-7.569100 0.000000
-7.492000 0.000000
-7.415000 0.000000
-7.337900 0.000000
-7.260800 0.000000
-7.183700 0.000000
-7.106600 0.000000
-7.029500 0.000000
-6.952400 0.000000
-6.875400 0.000000
-6.798300 0.000000
-6.721200 0.000000
-6.644100 0.000000
-6.567000 0.000000
-6.489900 0.000000
-6.412800 0.000000
-6.335800 0.000000
-6.258700 0.000000
-6.181600 0.000000
-6.104500 0.000000
-6.027400 0.000000
-5.950300 0.000000
-5.873300 0.000000
-5.796200 0.000000
-5.719100 0.000000
-5.642000 0.000000
-5.564900 0.000000
-5.487800 0.000000
-5.410700 0.000000
-5.333700 0.000000
-5.256600 0.000000
-5.179500 0.000000
-5.102400 0.000000
-5.025300 0.000000
-4.948200 0.000000
-4.871100 0.000000
-4.794100 0.000000
-4.717000 0.000000
-4.639900 0.000000
-4.562800 0.000000
-4.485700 0.000000
-4.408600 0.000000
-4.331500 0.000000
-4.254500 0.000000
-4.177400 0.000000
-4.100300 0.000000
-4.023200 0.000000
-3.946100 0.000000
-3.869000 0.000000
-3.791900 0.000000
-3.714900 0.000000
-3.637800 0.000000
-3.560700 0.000000
-3.483600 0.000000
-3.406500 0.000000
-3.329400 0.000000
-3.252300 0.000000
-3.175300 0.000000
-3.098200 0.000000
-3.021100 0.000000
-2.944000 0.000000
-2.866900 0.000000
-2.789800 0.000000
-2.712700 0.000000
-2.635700 0.000000
-2.558600 0.000000
-2.481500 0.000000
-2.404400 0.000000
-2.327300 0.000000
-2.250200 0.000000
-2.173100 0.000000
-2.096100 0.876100
-2.019000 0.555200
-1.941900 0.600300
-1.864800 0.642400
-1.787700 0.780400
-1.710600 0.800600
-1.633500 0.839200
-1.556500 0.886700
-1.479400 0.946200
-1.402300 0.994000
-1.325200 1.051900
-1.248100 1.117600
-1.171000 1.382600
-1.093900 1.371200
-1.016900 1.357900
-0.939800 1.656400
-0.862700 1.661400
-0.785600 1.273800
-0.708500 1.127800
-0.631400 1.169700
-0.554300 1.290200
-0.477300 1.357000
-0.400200 1.475100
-0.323100 1.276000
-0.246000 1.427500
-0.168900 1.569400
-0.091800 1.713900
-0.014700 1.791900
0.062300 1.991300
0.139400 2.104200
0.216500 2.196600
0.293600 2.375000
0.370700 1.882800
0.447800 1.681900
0.524900 1.458400
0.601900 0.848100
0.679000 0.924300
0.756100 1.382000
0.833200 1.963700
0.910300 1.279800
0.987400 0.745100
1.064400 0.642500
1.141500 0.540400
1.218600 0.537800
1.295700 0.522600
1.372800 0.532600
1.449900 0.534800
1.527000 0.545300
1.604000 0.551800
1.681100 0.510100
1.758200 0.508200
1.835300 0.506900
1.912400 0.506600
1.989500 0.536900
2.066600 0.529700
2.143600 0.533200
2.220700 0.616800
2.297800 0.551100
2.374900 0.564600
2.452000 0.585100
2.529100 0.554300
2.606200 0.560500
2.683200 0.567200
2.760300 0.574600
2.837400 0.628300
2.914500 0.680400
2.991600 0.740600
3.068700 0.819100
3.145800 0.874900
3.222800 0.950700
3.299900 0.904100
3.377000 0.868900
3.454100 0.820900
3.531200 0.705000
3.608300 0.649400
3.685400 0.618500
3.762400 0.624300
3.839500 0.631200
3.916600 0.518200
3.993700 0.386900
4.070800 0.200400
4.147900 0.000000
4.225000 0.000000
4.302000 0.000000
4.379100 0.000000
4.456200 0.000000
4.533300 0.000000
4.610400 0.000000
4.687500 0.000000
4.764600 0.000000
4.841600 0.000000
4.918700 0.000000
4.995800 0.000000
5.072900 0.000000
5.150000 0.000000
5.227100 0.000000
5.304200 0.000000
5.381200 0.000000
5.458300 0.000000
5.535400 0.000000
5.612500 0.000000
5.689600 0.000000
5.766700 0.000000
5.843800 0.000000
5.920800 0.000000
5.997900 0.000000
6.075000 0.000000
6.152100 0.002000
6.229200 0.035800
6.306300 0.281100
6.383400 0.470900
6.460400 0.757700
6.537500 1.195200
6.614600 1.150200
6.691700 1.188500
6.768800 1.178000
6.845900 1.230400
6.923000 1.296900
7.000000 1.350200
7.077100 1.841300
7.154200 1.325100
7.231300 1.091900
7.308400 1.002000
7.385500 0.889900
7.462600 0.735300
7.539600 0.642800
7.616700 0.535100
7.693800 0.486400
7.770900 0.443000
7.848000 0.408100
7.925100 0.445100
8.002100 0.511100
8.079200 0.508700
8.156300 0.512700
8.233400 0.509600
8.310500 0.513300
8.387600 0.540800
8.464700 0.571800
8.541700 0.627400
8.618800 0.847100
8.695900 0.900900
8.773000 1.009900
8.850100 1.023200
8.927200 1.038400
9.004300 1.005100
9.081300 0.902900
9.158400 0.765600
9.235500 0.737300
9.312600 0.716000
9.389700 0.738900
9.466800 0.715800
9.543900 0.713300
9.620900 0.709800
9.698000 0.709300
9.775100 0.717200
9.852200 0.733500
9.929300 0.766500
10.006400 0.800200
10.083500 0.862300
10.160500 0.892600
10.237600 0.857600
10.314700 0.868400
10.391800 0.904000
10.468900 0.968100
10.546000 1.038300
10.623100 1.112300
10.700100 1.272700
10.777200 1.400300
10.854300 1.215400
10.931400 1.083100
11.008500 0.983200
11.085600 0.950800
11.162700 0.912800
11.239700 0.826200
11.316800 0.759700
11.393900 0.590200
11.471000 0.627500
11.548100 0.701300
11.625200 0.768000
11.702300 0.867800
11.779300 0.998000
11.856400 1.124400
11.933500 1.155800
12.010600 1.235900
12.087700 1.290800
12.164800 1.356300
12.241900 1.374600
12.318900 1.409100
12.396000 1.448800
12.473100 1.500500
12.550200 1.582300
12.627300 1.908100
12.704400 1.930500
12.781500 1.973600
12.858500 1.881100
12.935600 1.780200
13.012700 1.714800
13.089800 1.736100
13.166900 1.631200
13.244000 1.309000
13.321100 1.270300
13.398100 1.254200
13.475200 1.251700
13.552300 1.252300
13.629400 1.293600
13.706500 1.409500
13.783600 1.644600
13.860700 1.645700
13.937700 1.560500
14.014800 1.507800
14.091900 1.415700
14.169000 1.353100
14.246100 1.489300
14.323200 1.843500
14.400300 2.012400
14.477300 2.032700
14.554400 1.780800
14.631500 1.689800
14.708600 1.654700
14.785700 1.503900
14.862800 1.359200
14.939800 1.195400
15.016900 1.057100
15.094000 0.898600
15.171100 0.809000
15.248200 0.734000
15.325300 0.636500
15.402400 0.527600
15.479400 0.588500
15.556500 0.869800
15.633600 1.168000
15.710700 1.204200
15.787800 1.368400
15.864900 1.155200
15.942000 1.106300
16.019000 1.146700
16.096100 1.292700
16.173200 1.675900
16.250300 1.654700
16.327400 1.534600
16.404500 1.452000
16.481600 1.439900
16.558600 1.451700
16.635700 1.357800
16.712800 1.232800
16.789900 1.151900
16.867000 1.112900
16.944100 1.044900
17.021200 0.980500
17.098200 0.868100
17.175300 0.817100
17.252400 0.848700
17.329500 0.806500
17.406600 0.668900
17.483700 0.651600
17.560800 0.622000
17.637800 0.587900
17.714900 0.614200
17.792000 0.698000
17.869100 0.841100
17.946200 1.050400
18.023300 1.264300
18.100400 1.445000
18.177400 2.115500
18.254500 1.558100
18.331600 1.358700
18.408700 1.317600
18.485800 1.277600
18.562900 1.333700
18.640000 1.539900
18.717000 1.394200
18.794100 1.406300
18.871200 1.225700
18.948300 1.091100
19.025400 1.040300
19.102500 0.991200
19.179600 0.963300
19.256600 0.927000
19.333700 0.931000
19.410800 1.001100
19.487900 1.084600
19.565000 1.156000
19.642100 1.216200
19.719200 1.269400
19.796200 1.331700
19.873300 1.403600
19.950400 1.562700
20.027500 1.729800
20.104600 1.932700
20.181700 1.706300
20.258800 1.531100
20.335800 1.311500
20.412900 1.170400
20.490000 1.054200
20.567100 1.009200
20.644200 1.005700
20.721300 1.009200
20.798400 0.984900
20.875400 0.990000
20.952500 0.964700
21.029600 0.948100
21.106700 0.964200
21.183800 1.055300
21.260900 0.952900
21.338000 0.942800
21.415000 1.022200
21.492100 1.046400
21.569200 1.048700
21.646300 1.025500
21.723400 1.027800
21.800500 1.065300
21.877600 1.089600
21.954600 1.130000
22.031700 1.174000
22.108800 1.270500
22.185900 1.346300
22.263000 1.426600
22.340100 1.488400
22.417100 1.343300
22.494200 1.287300
22.571300 1.253000
22.648400 1.198700
22.725500 1.166000
22.802600 1.194900
22.879700 1.190100
22.956700 1.257600
23.033800 1.282700
23.110900 1.316500
23.188000 1.345100
23.265100 1.488200
23.342200 1.460600
23.419300 1.420000
23.496300 1.385300
23.573400 1.370100
23.650500 1.354100
23.727600 1.368900
23.804700 1.247500
23.881800 1.166800
23.958900 1.129600
24.035900 1.159500
24.113000 1.222600
24.190100 1.228600
24.267200 1.179700
24.344300 1.158800
24.421400 1.309700
24.498500 1.288600
24.575500 1.269600
24.652600 1.272800
24.729700 1.265300
24.806800 1.294600
24.883900 1.294800
24.961000 1.287700
25.038100 1.217500
25.115100 1.137100
25.192200 1.112000
25.269300 1.487500
25.346400 1.515600
25.423500 1.461100
25.500600 1.392800
25.577700 1.431600
25.654700 1.644200
25.731800 1.756300
25.808900 1.719400
25.886000 1.688000
25.963100 1.618800
26.040200 1.452000
26.117300 1.401000
26.194300 1.449600
26.271400 1.516700
26.348500 1.462900
26.425600 1.490100
26.502700 1.342500
26.579800 1.224200
26.656900 1.191500
26.733900 1.245100
26.811000 1.241900
26.888100 1.340700
26.965200 1.486600
27.042300 1.587300
27.119400 1.677500
27.196500 1.753500
27.273500 1.715200
27.350600 1.642600
27.427700 1.453900
27.504800 1.215900
27.581900 1.063300
27.659000 1.010300
27.736100 1.026200
27.813100 1.052700
27.890200 1.100200
27.967300 1.239500
28.044400 1.322100
28.121500 1.480600
28.198600 1.764300
28.275700 1.896100
28.352700 1.930400
28.429800 1.786100
28.506900 1.674400
28.584000 1.436400
