set title 'mp-484 - Density of States'
set xlabel 'Energy (eV)'
set ylabel 'DOS (states/eV)'
set grid
set xrange [-10:10]
set yrange [0:23.863]
set xzeroaxis lt -1
set terminal png size 800,600
set output 'mp-484_dos_gnuplot.png'
plot '-' using 1:2 with lines title 'DOS'
-10.212200 0.000000
-10.196700 0.000000
-10.181200 0.000000
-10.165700 0.000000
-10.150200 0.000000
-10.134700 0.000000
-10.119200 0.000000
-10.103700 0.000000
-10.088200 0.000000
-10.072700 0.000000
-10.057200 0.000000
-10.041700 0.000000
-10.026200 0.000000
-10.010700 0.000000
-9.995200 0.000000
-9.979700 0.000000
-9.964200 0.000000
-9.948700 0.000000
-9.933200 0.000000
-9.917700 0.000000
-9.902200 0.000000
-9.886600 0.000000
-9.871100 0.000000
-9.855600 0.000000
-9.840100 0.000000
-9.824600 0.000000
-9.809100 0.000000
-9.793600 0.000000
-9.778100 0.000000
-9.762600 0.000000
-9.747100 0.000000
-9.731600 0.000000
-9.716100 0.000000
-9.700600 0.000000
-9.685100 0.000000
-9.669600 0.000000
-9.654100 0.000000
-9.638600 0.000000
-9.623100 0.000000
-9.607600 0.000000
-9.592100 0.000000
-9.576600 0.000000
-9.561100 0.000000
-9.545600 0.000000
-9.530100 0.000000
-9.514600 0.000000
-9.499100 0.000000
-9.483600 0.000000
-9.468100 0.000000
-9.452600 0.000000
-9.437100 0.000000
-9.421600 0.000000
-9.406100 0.000000
-9.390600 0.000000
-9.375100 0.000000
-9.359500 0.000000
-9.344000 0.000000
-9.328500 0.000000
-9.313000 0.000000
-9.297500 0.000000
-9.282000 0.000000
-9.266500 0.000000
-9.251000 0.000000
-9.235500 0.000000
-9.220000 0.000000
-9.204500 0.000000
-9.189000 0.000000
-9.173500 0.000000
-9.158000 0.000000
-9.142500 0.000000
-9.127000 0.000000
-9.111500 0.000000
-9.096000 0.000000
-9.080500 0.000000
-9.065000 0.000000
-9.049500 0.000000
-9.034000 0.000000
-9.018500 0.000000
-9.003000 0.000000
-8.987500 0.000000
-8.972000 0.000000
-8.956500 0.000000
-8.941000 0.000000
-8.925500 0.000000
-8.910000 0.000000
-8.894500 0.000000
-8.879000 0.000000
-8.863500 0.000000
-8.848000 0.000000
-8.832400 0.000000
-8.816900 0.000000
-8.801400 0.000100
-8.785900 0.019000
-8.770400 0.069900
-8.754900 0.152700
-8.739400 0.265200
-8.723900 0.404300
-8.708400 0.570000
-8.692900 0.762000
-8.677400 1.033700
-8.661900 1.324700
-8.646400 1.587100
-8.630900 1.801800
-8.615400 1.976200
-8.599900 2.115800
-8.584400 2.182600
-8.568900 2.182700
-8.553400 2.182700
-8.537900 2.182700
-8.522400 2.182800
-8.506900 2.182800
-8.491400 2.182900
-8.475900 2.182900
-8.460400 2.182900
-8.444900 2.183000
-8.429400 2.183000
-8.413900 2.183100
-8.398400 2.183100
-8.382900 2.183200
-8.367400 2.183200
-8.351900 2.183300
-8.336400 2.356100
-8.320900 2.563400
-8.305400 2.742800
-8.289800 2.926700
-8.274300 2.969000
-8.258800 2.956100
-8.243300 2.907800
-8.227800 2.846800
-8.212300 2.669200
-8.196800 2.600000
-8.181300 2.547200
-8.165800 2.510700
-8.150300 2.390400
-8.134800 2.464100
-8.119300 2.537900
-8.103800 2.611900
-8.088300 2.686000
-8.072800 2.760300
-8.057300 2.834800
-8.041800 2.909400
-8.026300 2.984100
-8.010800 3.053700
-7.995300 3.109400
-7.979800 3.151000
-7.964300 3.176900
-7.948800 3.185100
-7.933300 3.185200
-7.917800 3.185200
-7.902300 3.051600
-7.886800 2.969100
-7.871300 2.877900
-7.855800 2.705900
-7.840300 2.667600
-7.824800 2.630000
-7.809300 2.593300
-7.793800 2.557500
-7.778300 2.528900
-7.762700 2.537700
-7.747200 2.605300
-7.731700 2.715800
-7.716200 2.826300
-7.700700 2.935700
-7.685200 3.044100
-7.669700 3.151400
-7.654200 3.257600
-7.638700 3.394900
-7.623200 3.546700
-7.607700 3.688600
-7.592200 3.820800
-7.576700 3.948400
-7.561200 4.074700
-7.545700 4.200200
-7.530200 4.322300
-7.514700 4.428000
-7.499200 4.515900
-7.483700 4.586000
-7.468200 4.590800
-7.452700 4.589800
-7.437200 4.588800
-7.421700 4.588000
-7.406200 4.587300
-7.390700 4.586800
-7.375200 4.576000
-7.359700 4.556300
-7.344200 4.520300
-7.328700 4.484100
-7.313200 4.453400
-7.297700 4.428300
-7.282200 4.408700
-7.266700 4.394600
-7.251200 4.386100
-7.235600 4.383000
-7.220100 4.385500
-7.204600 4.399400
-7.189100 4.441200
-7.173600 4.466500
-7.158100 4.485800
-7.142600 4.504000
-7.127100 4.521200
-7.111600 4.582900
-7.096100 4.605100
-7.080600 4.601200
-7.065100 4.585900
-7.049600 4.494600
-7.034100 4.332200
-7.018600 4.072400
-7.003100 3.527700
-6.987600 3.141900
-6.972100 2.702800
-6.956600 2.460300
-6.941100 2.468600
-6.925600 2.478700
-6.910100 2.490600
-6.894600 2.504300
-6.879100 2.519700
-6.863600 2.537000
-6.848100 2.556000
-6.832600 2.576800
-6.817100 1.216800
-6.801600 1.090500
-6.786100 1.390000
-6.770600 1.464400
-6.755100 1.723200
-6.739600 2.158300
-6.724100 2.302000
-6.708600 2.448500
-6.693000 2.624600
-6.677500 2.813300
-6.662000 3.009400
-6.646500 3.269100
-6.631000 3.660500
-6.615500 3.852400
-6.600000 4.077200
-6.584500 4.262100
-6.569000 4.321900
-6.553500 4.319500
-6.538000 4.317500
-6.522500 4.315700
-6.507000 4.314400
-6.491500 4.441700
-6.476000 4.590200
-6.460500 4.745400
-6.445000 4.907400
-6.429500 5.077700
-6.414000 5.258600
-6.398500 5.450300
-6.383000 5.652600
-6.367500 5.862200
-6.352000 6.151100
-6.336500 6.358300
-6.321000 6.341100
-6.305500 6.285400
-6.290000 6.146600
-6.274500 5.863400
-6.259000 5.630500
-6.243500 5.285100
-6.228000 4.986000
-6.212500 4.770200
-6.197000 4.638700
-6.181500 4.572300
-6.165900 4.803300
-6.150400 5.192400
-6.134900 6.068300
-6.119400 7.400500
-6.103900 8.555200
-6.088400 9.741100
-6.072900 10.958200
-6.057400 14.342000
-6.041900 18.351800
-6.026400 17.585000
-6.010900 14.200500
-5.995400 8.557300
-5.979900 12.865200
-5.964400 21.693800
-5.948900 13.775000
-5.933400 11.578800
-5.917900 9.582700
-5.902400 7.749500
-5.886900 5.615200
-5.871400 3.309700
-5.855900 1.507000
-5.840400 0.468100
-5.824900 0.019800
-5.809400 0.000000
-5.793900 0.000000
-5.778400 0.000000
-5.762900 0.000000
-5.747400 0.000000
-5.731900 0.000000
-5.716400 0.000000
-5.700900 0.000000
-5.685400 0.000000
-5.669900 0.000000
-5.654400 0.000000
-5.638800 0.000000
-5.623300 0.000000
-5.607800 0.000000
-5.592300 0.011000
-5.576800 0.684500
-5.561300 1.520800
-5.545800 1.980200
-5.530300 2.318100
-5.514800 2.651400
-5.499300 2.980000
-5.483800 3.304000
-5.468300 3.623400
-5.452800 3.938100
-5.437300 3.975900
-5.421800 3.964900
-5.406300 3.954900
-5.390800 3.945800
-5.375300 3.937800
-5.359800 3.930900
-5.344300 3.924900
-5.328800 3.919900
-5.313300 3.916000
-5.297800 3.913000
-5.282300 3.911100
-5.266800 3.910100
-5.251300 3.910200
-5.235800 3.911300
-5.220300 3.913400
-5.204800 3.916500
-5.189300 3.819600
-5.173800 3.652100
-5.158300 3.480900
-5.142800 3.285100
-5.127300 3.078500
-5.111800 2.961800
-5.096200 2.909800
-5.080700 2.859000
-5.065200 2.809200
-5.049700 2.718000
-5.034200 2.522800
-5.018700 2.222900
-5.003200 1.794200
-4.987700 0.803900
-4.972200 0.645900
-4.956700 0.779100
-4.941200 1.034100
-4.925700 1.576200
-4.910200 2.936200
-4.894700 3.876500
-4.879200 4.067200
-4.863700 4.343300
-4.848200 4.744700
-4.832700 4.866900
-4.817200 4.909700
-4.801700 4.922500
-4.786200 4.982900
-4.770700 5.102900
-4.755200 5.257400
-4.739700 5.423600
-4.724200 5.538300
-4.708700 5.472800
-4.693200 4.963000
-4.677700 4.942700
-4.662200 4.922900
-4.646700 4.909500
-4.631200 4.902500
-4.615700 4.901800
-4.600200 4.907600
-4.584700 4.919700
-4.569100 4.938200
-4.553600 4.963100
-4.538100 4.994300
-4.522600 5.031900
-4.507100 5.076000
-4.491600 5.126300
-4.476100 5.183100
-4.460600 5.246300
-4.445100 5.315800
-4.429600 5.380500
-4.414100 5.428500
-4.398600 5.462400
-4.383100 5.409900
-4.367600 4.863200
-4.352100 4.538100
-4.336600 4.281800
-4.321100 4.088000
-4.305600 3.927700
-4.290100 3.749900
-4.274600 3.553900
-4.259100 3.339500
-4.243600 3.115200
-4.228100 2.876400
-4.212600 2.675100
-4.197100 2.607600
-4.181600 2.603400
-4.166100 2.612600
-4.150600 2.635300
-4.135100 2.671300
-4.119600 2.717300
-4.104100 2.763300
-4.088600 2.805800
-4.073100 2.842600
-4.057600 2.873700
-4.042000 2.899200
-4.026500 2.961700
-4.011000 3.003000
-3.995500 3.002200
-3.980000 2.994700
-3.964500 2.980500
-3.949000 2.960400
-3.933500 2.934600
-3.918000 2.903200
-3.902500 2.866200
-3.887000 2.823500
-3.871500 2.775600
-3.856000 2.735200
-3.840500 2.709300
-3.825000 2.697800
-3.809500 2.634500
-3.794000 2.566000
-3.778500 2.499100
-3.763000 2.433700
-3.747500 2.370000
-3.732000 2.309100
-3.716500 2.269800
-3.701000 2.258700
-3.685500 2.267000
-3.670000 2.252300
-3.654500 2.212600
-3.639000 2.125900
-3.623500 2.021400
-3.608000 2.023600
-3.592500 2.007400
-3.577000 1.985200
-3.561500 1.963700
-3.546000 1.942700
-3.530500 1.922400
-3.515000 1.902600
-3.499400 1.929900
-3.483900 1.929800
-3.468400 1.911900
-3.452900 1.893100
-3.437400 1.873500
-3.421900 1.847500
-3.406400 1.710900
-3.390900 1.649900
-3.375400 1.654400
-3.359900 1.652600
-3.344400 1.650700
-3.328900 1.648900
-3.313400 1.647100
-3.297900 1.645300
-3.282400 1.643600
-3.266900 1.641900
-3.251400 1.640300
-3.235900 1.638700
-3.220400 1.637100
-3.204900 1.635600
-3.189400 1.634100
-3.173900 1.632600
-3.158400 1.586600
-3.142900 1.470600
-3.127400 1.404200
-3.111900 1.342800
-3.096400 1.281700
-3.080900 1.220800
-3.065400 1.160100
-3.049900 1.099700
-3.034400 1.039500
-3.018900 0.979600
-3.003400 0.919900
-2.987900 0.860400
-2.972300 0.801200
-2.956800 0.742200
-2.941300 0.683500
-2.925800 0.625000
-2.910300 0.566700
-2.894800 0.508700
-2.879300 0.450500
-2.863800 0.391600
-2.848300 0.331100
-2.832800 0.285200
-2.817300 0.243900
-2.801800 0.205900
-2.786300 0.171000
-2.770800 0.139400
-2.755300 0.111100
-2.739800 0.085900
-2.724300 0.064000
-2.708800 0.045300
-2.693300 0.029800
-2.677800 0.017500
-2.662300 0.008500
-2.646800 0.002700
-2.631300 0.000100
-2.615800 0.000000
-2.600300 0.000000
-2.584800 0.000000
-2.569300 0.000000
-2.553800 0.000000
-2.538300 0.000000
-2.522800 0.000000
-2.507300 0.000000
-2.491800 0.000000
-2.476300 0.000000
-2.460800 0.000000
-2.445200 0.000000
-2.429700 0.000000
-2.414200 0.000000
-2.398700 0.000000
-2.383200 0.000000
-2.367700 0.000000
-2.352200 0.000000
-2.336700 0.000000
-2.321200 0.000000
-2.305700 0.000000
-2.290200 0.000000
-2.274700 0.000000
-2.259200 0.000000
-2.243700 0.000000
-2.228200 0.000000
-2.212700 0.000000
-2.197200 0.000000
-2.181700 0.000000
-2.166200 0.000000
-2.150700 0.000000
-2.135200 0.000000
-2.119700 0.000000
-2.104200 0.000000
-2.088700 0.000000
-2.073200 0.000000
-2.057700 0.000000
-2.042200 0.000000
-2.026700 0.000000
-2.011200 0.000000
-1.995700 0.000000
-1.980200 0.000000
-1.964700 0.000000
-1.949200 0.000000
-1.933700 0.000000
-1.918200 0.000000
-1.902600 0.000000
-1.887100 0.000000
-1.871600 0.000000
-1.856100 0.000000
-1.840600 0.000000
-1.825100 0.000000
-1.809600 0.000000
-1.794100 0.000000
-1.778600 0.000000
-1.763100 0.000000
-1.747600 0.000000
-1.732100 0.000000
-1.716600 0.000000
-1.701100 0.000000
-1.685600 0.000000
-1.670100 0.000000
-1.654600 0.000000
-1.639100 0.000000
-1.623600 0.000000
-1.608100 0.000000
-1.592600 0.000000
-1.577100 0.000000
-1.561600 0.000000
-1.546100 0.000000
-1.530600 0.000000
-1.515100 0.000000
-1.499600 0.000000
-1.484100 0.000000
-1.468600 0.000000
-1.453100 0.000000
-1.437600 0.000000
-1.422100 0.000000
-1.406600 0.000000
-1.391100 0.000000
-1.375500 0.000000
-1.360000 0.000000
-1.344500 0.000000
-1.329000 0.000000
-1.313500 0.000000
-1.298000 0.000000
-1.282500 0.000000
-1.267000 0.000000
-1.251500 0.000000
-1.236000 0.000000
-1.220500 0.000000
-1.205000 0.000000
-1.189500 0.000000
-1.174000 0.000000
-1.158500 0.000000
-1.143000 0.000000
-1.127500 0.000000
-1.112000 0.000000
-1.096500 0.000000
-1.081000 0.000000
-1.065500 0.000000
-1.050000 0.000000
-1.034500 0.000000
-1.019000 0.000000
-1.003500 0.000000
-0.988000 0.000000
-0.972500 0.000000
-0.957000 0.000000
-0.941500 0.000000
-0.926000 0.000000
-0.910500 0.000000
-0.895000 0.000000
-0.879500 0.000000
-0.864000 0.000000
-0.848400 0.000000
-0.832900 0.000000
-0.817400 0.000000
-0.801900 0.000000
-0.786400 0.000000
-0.770900 0.000000
-0.755400 0.000000
-0.739900 0.000000
-0.724400 0.000000
-0.708900 0.000000
-0.693400 0.000000
-0.677900 0.000000
-0.662400 0.000000
-0.646900 0.000000
-0.631400 0.000000
-0.615900 0.000000
-0.600400 0.000500
-0.584900 0.012200
-0.569400 0.039700
-0.553900 0.083000
-0.538400 0.142100
-0.522900 0.217000
-0.507400 0.307700
-0.491900 0.414000
-0.476400 0.537800
-0.460900 0.680300
-0.445400 0.845000
-0.429900 1.032500
-0.414400 1.242600
-0.398900 1.475400
-0.383400 1.730900
-0.367900 2.350600
-0.352400 3.210900
-0.336900 3.516800
-0.321400 3.616100
-0.305800 3.727600
-0.290300 3.851500
-0.274800 3.987700
-0.259300 4.335800
-0.243800 4.816000
-0.228300 5.388800
-0.212800 6.074500
-0.197300 6.704600
-0.181800 7.052800
-0.166300 7.310800
-0.150800 7.657700
-0.135300 8.093600
-0.119800 8.455000
-0.104300 7.470100
-0.088800 6.900300
-0.073300 6.788600
-0.057800 6.701500
-0.042300 6.464200
-0.026800 6.067400
-0.011300 5.511200
0.004200 4.931900
0.019700 4.480200
0.035200 4.120900
0.050700 3.854000
0.066200 3.657900
0.081700 3.458800
0.097200 3.250600
0.112700 2.907900
0.128200 2.500400
0.143700 2.145600
0.159200 1.990100
0.174700 1.960000
0.190200 1.986400
0.205700 2.008900
0.221300 2.027400
0.236800 2.042000
0.252300 2.052700
0.267800 2.059300
0.283300 2.359600
0.298800 3.101700
0.314300 3.581200
0.329800 3.850700
0.345300 3.991600
0.360800 3.921700
0.376300 4.062400
0.391800 4.244500
0.407300 4.663300
0.422800 5.126900
0.438300 5.637200
0.453800 6.278900
0.469300 6.808800
0.484800 7.226800
0.500300 7.441500
0.515800 7.658900
0.531300 7.997300
0.546800 8.082000
0.562300 7.810000
0.577800 7.502800
0.593300 7.489000
0.608800 7.627700
0.624300 7.699500
0.639800 7.693700
0.655300 7.610600
0.670800 7.499800
0.686300 7.399800
0.701800 7.310500
0.717300 7.231900
0.732800 7.164100
0.748400 7.106900
0.763900 7.390000
0.779400 6.876400
0.794900 6.157500
0.810400 5.519600
0.825900 5.080800
0.841400 4.710800
0.856900 4.344700
0.872400 4.767700
0.887900 5.538600
0.903400 5.467200
0.918900 5.490400
0.934400 5.633000
0.949900 5.864600
0.965400 6.154000
0.980900 6.466600
0.996400 7.034400
1.011900 7.649300
1.027400 8.271800
1.042900 8.926200
1.058400 9.678600
1.073900 11.261000
1.089400 11.272500
1.104900 10.702600
1.120400 10.934800
1.135900 11.160600
1.151400 9.532300
1.166900 8.943100
1.182400 8.427600
1.197900 7.881100
1.213400 7.275800
1.228900 6.733900
1.244400 6.622700
1.259900 6.700800
1.275400 6.958800
1.291000 7.396700
1.306500 8.089600
1.322000 8.821000
1.337500 9.377100
1.353000 9.772400
1.368500 9.945400
1.384000 9.889500
1.399500 9.590600
1.415000 9.143600
1.430500 8.713600
1.446000 8.300500
1.461500 7.890100
1.477000 7.567900
1.492500 7.746400
1.508000 8.136700
1.523500 8.524800
1.539000 9.080100
1.554500 9.523200
1.570000 9.795500
1.585500 9.689400
1.601000 9.589200
1.616500 9.516500
1.632000 9.451600
1.647500 9.421500
1.663000 9.450800
1.678500 9.439500
1.694000 9.403400
1.709500 9.346600
1.725000 9.287500
1.740500 9.227100
1.756000 9.103000
1.771500 8.859000
1.787000 8.622300
1.802500 8.387200
1.818100 8.165300
1.833600 8.038800
1.849100 7.928200
1.864600 7.673200
1.880100 7.552900
1.895600 7.318400
1.911100 7.178200
1.926600 7.016900
1.942100 7.001500
1.957600 6.988300
1.973100 6.976000
1.988600 6.967200
2.004100 6.968700
2.019600 6.980300
2.035100 7.002200
2.050600 7.035400
2.066100 7.242200
2.081600 7.793300
2.097100 8.232000
2.112600 8.633500
2.128100 8.860500
2.143600 8.889400
2.159100 9.024600
2.174600 9.183800
2.190100 9.305300
2.205600 9.384500
2.221100 9.371900
2.236600 9.230300
2.252100 9.059800
2.267600 8.875900
2.283100 8.681900
2.298600 8.477900
2.314100 8.317400
2.329600 8.205500
2.345200 8.212500
2.360700 8.491700
2.376200 8.334000
2.391700 8.092900
2.407200 7.889500
2.422700 7.679800
2.438200 7.491100
2.453700 7.344100
2.469200 7.328300
2.484700 7.322700
2.500200 7.317500
2.515700 7.312900
2.531200 7.168000
2.546700 6.741400
2.562200 6.160800
2.577700 5.523300
2.593200 5.242000
2.608700 5.223100
2.624200 5.247800
2.639700 5.298200
2.655200 5.364100
2.670700 5.404400
2.686200 5.330100
2.701700 5.260700
2.717200 5.196000
2.732700 5.137900
2.748200 5.091700
2.763700 5.044000
2.779200 4.963000
2.794700 4.875100
2.810200 4.788200
2.825700 4.704000
2.841200 4.681000
2.856700 4.671100
2.872200 4.737700
2.887800 4.890700
2.903300 5.098400
2.918800 5.361000
2.934300 5.678600
2.949800 6.051200
2.965300 6.493200
2.980800 7.006300
2.996300 7.778900
3.011800 7.590900
3.027300 7.936700
3.042800 8.329400
3.058300 8.314600
3.073800 8.441400
3.089300 8.397900
3.104800 7.965400
3.120300 7.532000
3.135800 7.202500
3.151300 6.933700
3.166800 6.725500
3.182300 6.577800
3.197800 6.451200
3.213300 7.050400
3.228800 5.169900
3.244300 4.749400
3.259800 4.740800
3.275300 4.756100
3.290800 4.788800
3.306300 4.757700
3.321800 4.712300
3.337300 4.725500
3.352800 4.835200
3.368300 4.974000
3.383800 5.139300
3.399300 5.331100
3.414900 5.549400
3.430400 5.794200
3.445900 6.039800
3.461400 6.422400
3.476900 6.645200
3.492400 6.792900
3.507900 6.759800
3.523400 6.291800
3.538900 5.727200
3.554400 5.449900
3.569900 5.217000
3.585400 5.026300
3.600900 4.875900
3.616400 4.743400
3.631900 4.759800
3.647400 5.248700
3.662900 6.401100
3.678400 8.422200
3.693900 9.822600
3.709400 10.814300
3.724900 11.212500
3.740400 10.991500
3.755900 10.822400
3.771400 10.702400
3.786900 10.631600
3.802400 10.975900
3.817900 11.292000
3.833400 11.283900
3.848900 11.203200
3.864400 11.014100
3.879900 10.881300
3.895400 10.756800
3.910900 10.637500
3.926400 10.408900
3.942000 10.046500
3.957500 9.991900
3.973000 9.797200
3.988500 9.378300
4.004000 9.137900
4.019500 8.980600
4.035000 9.426500
4.050500 10.411500
4.066000 11.473500
4.081500 11.883900
4.097000 11.691700
4.112500 11.166500
4.128000 10.825500
4.143500 10.079700
4.159000 9.613700
4.174500 9.037300
4.190000 8.401800
4.205500 8.132900
4.221000 7.956700
4.236500 7.893400
4.252000 7.949700
4.267500 8.541700
4.283000 8.783000
4.298500 8.899000
4.314000 8.908200
4.329500 8.838600
4.345000 8.770500
4.360500 8.568600
4.376000 8.408100
4.391500 8.319500
4.407000 8.309200
4.422500 8.377300
4.438000 8.523900
4.453500 8.748800
4.469000 9.306800
4.484600 14.789600
4.500100 13.232800
4.515600 14.552800
4.531100 11.493400
4.546600 5.450900
4.562100 2.761100
4.577600 2.188000
4.593100 1.725100
4.608600 1.311400
4.624100 0.947100
4.639600 0.631900
4.655100 0.366100
4.670600 0.149500
4.686100 0.000000
4.701600 0.000000
4.717100 0.000000
4.732600 0.000000
4.748100 0.000000
4.763600 0.000000
4.779100 0.000000
4.794600 0.000000
4.810100 0.000000
4.825600 0.000000
4.841100 0.000000
4.856600 0.000000
4.872100 0.000000
4.887600 0.000000
4.903100 0.000000
4.918600 0.000000
4.934100 0.000000
4.949600 0.000000
4.965100 0.000000
4.980600 0.000000
4.996100 0.000000
5.011700 0.000000
5.027200 0.000000
5.042700 0.000000
5.058200 0.000000
5.073700 0.000000
5.089200 0.000000
5.104700 0.000000
5.120200 0.000000
5.135700 0.000000
5.151200 0.000000
5.166700 0.000000
5.182200 0.000000
5.197700 0.000000
5.213200 0.000000
5.228700 0.000000
5.244200 0.000000
5.259700 0.000000
5.275200 0.009100
5.290700 0.026300
5.306200 0.046900
5.321700 0.071000
5.337200 0.098500
5.352700 0.134900
5.368200 0.194500
5.383700 0.278000
5.399200 0.492600
5.414700 0.997900
5.430200 1.280600
5.445700 1.504200
5.461200 1.690800
5.476700 1.840300
5.492200 1.952800
5.507700 2.034600
5.523200 2.102800
5.538800 2.158700
5.554300 2.224500
5.569800 2.312700
5.585300 2.423400
5.600800 2.531100
5.616300 2.649800
5.631800 2.773500
5.647300 2.916700
5.662800 3.087100
5.678300 3.284600
5.693800 3.509300
5.709300 3.761000
5.724800 4.040100
5.740300 4.349300
5.755800 4.690700
5.771300 5.068900
5.786800 5.488800
5.802300 5.968500
5.817800 6.510100
5.833300 6.997200
5.848800 7.314600
5.864300 7.517300
5.879800 7.773500
5.895300 7.637800
5.910800 7.482700
5.926300 7.484300
5.941800 8.436600
5.957300 7.721000
5.972800 4.772200
5.988300 3.794800
6.003800 3.222200
6.019300 3.093300
6.034800 3.180400
6.050300 3.304200
6.065800 3.631100
6.081400 5.525000
6.096900 7.426200
6.112400 8.661200
6.127900 9.461300
6.143400 9.948500
