set title 'mp-971859 - Density of States'
set xlabel 'Energy (eV)'
set ylabel 'DOS (states/eV)'
set grid
set xrange [-10:10]
set yrange [0:37.713]
set xzeroaxis lt -1
set terminal png size 800,600
set output 'mp-971859_dos_gnuplot.png'
plot '-' using 1:2 with lines title 'DOS'
-10.016600 0.000000
-9.990700 0.000000
-9.964800 0.000000
-9.939000 0.000000
-9.913100 0.000000
-9.887200 0.000000
-9.861300 0.000000
-9.835500 0.000000
-9.809600 0.000000
-9.783700 0.000000
-9.757900 0.000000
-9.732000 0.000000
-9.706100 0.000000
-9.680200 0.000000
-9.654400 0.000000
-9.628500 0.000000
-9.602600 0.000000
-9.576700 0.000000
-9.550900 0.000000
-9.525000 0.000000
-9.499100 0.000000
-9.473300 0.000000
-9.447400 0.000000
-9.421500 0.000000
-9.395600 0.000000
-9.369800 0.000000
-9.343900 0.000000
-9.318000 0.000000
-9.292100 0.000000
-9.266300 0.000000
-9.240400 0.000000
-9.214500 0.000000
-9.188700 0.000000
-9.162800 0.000000
-9.136900 0.000000
-9.111000 0.000000
-9.085200 0.000000
-9.059300 0.000000
-9.033400 0.000000
-9.007600 0.000000
-8.981700 0.000000
-8.955800 0.000000
-8.929900 0.000000
-8.904100 0.000000
-8.878200 0.000000
-8.852300 0.000000
-8.826400 0.000000
-8.800600 0.000000
-8.774700 0.000000
-8.748800 0.000000
-8.723000 0.000000
-8.697100 0.000000
-8.671200 0.000000
-8.645300 0.000000
-8.619500 0.000000
-8.593600 0.000000
-8.567700 0.000000
-8.541800 0.000000
-8.516000 0.000000
-8.490100 0.000000
-8.464200 0.000000
-8.438400 0.000000
-8.412500 0.000000
-8.386600 0.000000
-8.360700 0.000000
-8.334900 0.000000
-8.309000 0.000000
-8.283100 0.000000
-8.257200 0.000000
-8.231400 0.000000
-8.205500 0.000000
-8.179600 0.000000
-8.153800 0.000000
-8.127900 0.000000
-8.102000 0.000000
-8.076100 0.000000
-8.050300 0.000000
-8.024400 0.000000
-7.998500 0.000000
-7.972700 0.000000
-7.946800 0.000000
-7.920900 0.000000
-7.895000 0.000000
-7.869200 0.000000
-7.843300 0.000000
-7.817400 0.000000
-7.791500 0.000000
-7.765700 0.000000
-7.739800 0.000000
-7.713900 0.000000
-7.688100 0.000000
-7.662200 0.000100
-7.636300 0.013100
-7.610400 0.048100
-7.584600 0.099900
-7.558700 0.103100
-7.532800 0.112500
-7.506900 0.125700
-7.481100 0.141400
-7.455200 0.152600
-7.429300 0.166800
-7.403500 0.181400
-7.377600 0.191600
-7.351700 0.195900
-7.325800 0.203300
-7.300000 0.212800
-7.274100 0.222400
-7.248200 0.230900
-7.222400 0.238100
-7.196500 0.244600
-7.170600 0.252200
-7.144700 0.260800
-7.118900 0.270300
-7.093000 0.280400
-7.067100 0.287800
-7.041200 0.294500
-7.015400 0.301100
-6.989500 0.307500
-6.963600 0.313100
-6.937800 0.318700
-6.911900 0.324800
-6.886000 0.330900
-6.860100 0.336900
-6.834300 0.344100
-6.808400 0.351200
-6.782500 0.358400
-6.756600 0.366000
-6.730800 0.373900
-6.704900 0.381900
-6.679000 0.390000
-6.653200 0.397400
-6.627300 0.403500
-6.601400 0.408600
-6.575500 0.414600
-6.549700 0.420500
-6.523800 0.426700
-6.497900 0.433200
-6.472100 0.439900
-6.446200 0.447000
-6.420300 0.454200
-6.394400 0.461500
-6.368600 0.469000
-6.342700 0.476600
-6.316800 0.484200
-6.290900 0.492000
-6.265100 0.499800
-6.239200 0.507700
-6.213300 0.515800
-6.187500 0.524200
-6.161600 0.532900
-6.135700 0.542900
-6.109800 0.552000
-6.084000 0.561300
-6.058100 0.570800
-6.032200 0.580500
-6.006300 0.590500
-5.980500 0.600800
-5.954600 0.611400
-5.928700 0.622100
-5.902900 0.633100
-5.877000 0.644300
-5.851100 0.655900
-5.825200 0.667900
-5.799400 0.680600
-5.773500 0.694300
-5.747600 0.712300
-5.721700 0.730400
-5.695900 0.749800
-5.670000 0.770300
-5.644100 0.792100
-5.618300 0.817600
-5.592400 0.847400
-5.566500 0.877500
-5.540600 0.909000
-5.514800 0.950300
-5.488900 0.984300
-5.463000 1.010900
-5.437200 1.019000
-5.411300 1.042100
-5.385400 1.077600
-5.359500 1.124500
-5.333700 1.189800
-5.307800 1.284100
-5.281900 1.359200
-5.256000 1.447500
-5.230200 1.555300
-5.204300 1.683400
-5.178400 1.837700
-5.152600 2.099900
-5.126700 2.474100
-5.100800 3.015800
-5.074900 4.169900
-5.049100 8.035000
-5.023200 3.245100
-4.997300 2.401000
-4.971400 1.072300
-4.945600 0.676000
-4.919700 0.595700
-4.893800 0.726400
-4.868000 0.875000
-4.842100 1.038600
-4.816200 1.202000
-4.790300 1.399100
-4.764500 1.658700
-4.738600 2.361300
-4.712700 3.720400
-4.686900 5.487100
-4.661000 8.066800
-4.635100 10.375500
-4.609200 13.539300
-4.583400 11.911600
-4.557500 8.389400
-4.531600 4.301200
-4.505700 8.040500
-4.479900 12.997200
-4.454000 14.566100
-4.428100 13.105700
-4.402300 14.355600
-4.376400 16.054400
-4.350500 20.868800
-4.324600 25.377200
-4.298800 25.976100
-4.272900 28.257800
-4.247000 21.663200
-4.221100 23.154700
-4.195300 16.689100
-4.169400 17.482300
-4.143500 16.717400
-4.117700 12.830200
-4.091800 12.114900
-4.065900 11.135700
-4.040000 12.621900
-4.014200 14.892000
-3.988300 18.311600
-3.962400 17.411100
-3.936600 13.076800
-3.910700 16.545600
-3.884800 19.962300
-3.858900 17.882800
-3.833100 18.633100
-3.807200 23.480400
-3.781300 15.206900
-3.755400 18.309600
-3.729600 19.474300
-3.703700 21.672900
-3.677800 21.029900
-3.652000 21.141900
-3.626100 20.322500
-3.600200 21.016600
-3.574300 20.682900
-3.548500 34.284600
-3.522600 29.285500
-3.496700 18.149600
-3.470800 29.837200
-3.445000 30.163100
-3.419100 25.066600
-3.393200 23.801100
-3.367400 20.381200
-3.341500 17.604000
-3.315600 16.746700
-3.289700 17.807600
-3.263900 14.877000
-3.238000 11.724800
-3.212100 18.109600
-3.186200 18.094000
-3.160400 21.566700
-3.134500 16.603300
-3.108600 10.912700
-3.082800 5.779300
-3.056900 4.230500
-3.031000 3.572100
-3.005100 1.817900
-2.979300 1.651000
-2.953400 1.500600
-2.927500 1.363200
-2.901700 1.270000
-2.875800 1.189400
-2.849900 1.073200
-2.824000 1.012900
-2.798200 0.904900
-2.772300 0.843400
-2.746400 0.796800
-2.720500 0.754500
-2.694700 0.712100
-2.668800 0.683000
-2.642900 0.658500
-2.617100 0.636900
-2.591200 0.643100
-2.565300 0.734500
-2.539400 0.847800
-2.513600 0.886900
-2.487700 0.925600
-2.461800 0.992900
-2.435900 1.087900
-2.410100 1.132600
-2.384200 1.167300
-2.358300 1.189500
-2.332500 1.178300
-2.306600 1.165300
-2.280700 1.143400
-2.254800 1.120100
-2.229000 1.095300
-2.203100 1.071400
-2.177200 1.064500
-2.151400 1.058900
-2.125500 1.053600
-2.099600 1.074000
-2.073700 1.060800
-2.047900 1.045700
-2.022000 1.052600
-1.996100 1.030400
-1.970200 1.009800
-1.944400 0.995600
-1.918500 0.985200
-1.892600 0.979500
-1.866800 0.995400
-1.840900 0.976700
-1.815000 0.941000
-1.789100 0.924600
-1.763300 0.913700
-1.737400 0.912500
-1.711500 0.918000
-1.685600 0.928300
-1.659800 0.938600
-1.633900 0.949100
-1.608000 0.955400
-1.582200 0.961200
-1.556300 0.966200
-1.530400 0.995500
-1.504500 1.005100
-1.478700 1.014300
-1.452800 1.016500
-1.426900 1.010400
-1.401000 1.007600
-1.375200 1.002900
-1.349300 0.996100
-1.323400 0.984100
-1.297600 0.969800
-1.271700 0.963500
-1.245800 0.960500
-1.219900 0.962000
-1.194100 0.963800
-1.168200 0.964700
-1.142300 0.961600
-1.116500 0.958800
-1.090600 0.953800
-1.064700 0.927300
-1.038800 0.923200
-1.013000 0.918300
-0.987100 0.915300
-0.961200 0.928200
-0.935300 0.930500
-0.909500 0.930500
-0.883600 0.931500
-0.857700 0.933300
-0.831900 0.936400
-0.806000 0.963700
-0.780100 0.969200
-0.754200 0.967100
-0.728400 0.971300
-0.702500 0.975500
-0.676600 0.982400
-0.650700 0.992200
-0.624900 1.005500
-0.599000 0.996800
-0.573100 0.998000
-0.547300 1.010100
-0.521400 1.019600
-0.495500 1.034600
-0.469600 1.047800
-0.443800 1.039300
-0.417900 1.017700
-0.392000 1.016200
-0.366200 1.011400
-0.340300 1.014600
-0.314400 1.018400
-0.288500 1.025700
-0.262700 1.035000
-0.236800 1.044200
-0.210900 1.054900
-0.185000 1.065700
-0.159200 1.090700
-0.133300 1.095200
-0.107400 1.097300
-0.081600 1.098400
-0.055700 1.107700
-0.029800 1.119300
-0.003900 1.132800
0.021900 1.148800
0.047800 1.167500
0.073700 1.203600
0.099600 1.222100
0.125400 1.245700
0.151300 1.234500
0.177200 1.221000
0.203000 1.208300
0.228900 1.223300
0.254800 1.214900
0.280700 1.177800
0.306500 1.158400
0.332400 1.165500
0.358300 1.163000
0.384100 1.155100
0.410000 1.135900
0.435900 1.131900
0.461800 1.128400
0.487600 1.125700
0.513500 1.123400
0.539400 1.122800
0.565300 1.123400
0.591100 1.122900
0.617000 1.120900
0.642900 1.119200
0.668700 1.120300
0.694600 1.125400
0.720500 1.131600
0.746400 1.140100
0.772200 1.138300
0.798100 1.138100
0.824000 1.137200
0.849900 1.158800
0.875700 1.167100
0.901600 1.133600
0.927500 1.129100
0.953300 1.127300
0.979200 1.124000
1.005100 1.118900
1.031000 1.115100
1.056800 1.117100
1.082700 1.120400
1.108600 1.122800
1.134500 1.124800
1.160300 1.125700
1.186200 1.126700
1.212100 1.128100
1.237900 1.128400
1.263800 1.126000
1.289700 1.122600
1.315600 1.151800
1.341400 1.134700
1.367300 1.127200
1.393200 1.116400
1.419000 1.108700
1.444900 1.102900
1.470800 1.082200
1.496700 1.068000
1.522500 1.056300
1.548400 1.050100
1.574300 1.047100
1.600200 1.051700
1.626000 1.044700
1.651900 1.019200
1.677800 0.981600
1.703600 0.957400
1.729500 0.946800
1.755400 0.943800
1.781300 0.946200
1.807100 0.973200
1.833000 0.964800
1.858900 0.966000
1.884800 0.971300
1.910600 0.984700
1.936500 1.000700
1.962400 1.064600
1.988200 1.069600
2.014100 1.075500
2.040000 1.040500
2.065900 1.021000
2.091700 1.014600
2.117600 1.017200
2.143500 1.056700
2.169300 1.073800
2.195200 1.093400
2.221100 1.118500
2.247000 1.143900
2.272800 1.183100
2.298700 1.216100
2.324600 1.221300
2.350500 1.210500
2.376300 1.204800
2.402200 1.203300
2.428100 1.202200
2.453900 1.229500
2.479800 1.250100
2.505700 1.251500
2.531600 1.313000
2.557400 1.409500
2.583300 1.373100
2.609200 1.350300
2.635100 1.367900
2.660900 1.375500
2.686800 1.394700
2.712700 1.402900
2.738500 1.399500
2.764400 1.391000
2.790300 1.375500
2.816200 1.351300
2.842000 1.345100
2.867900 1.307600
2.893800 1.283100
2.919700 1.267800
2.945500 1.254700
2.971400 1.242000
2.997300 1.234300
3.023100 1.231100
3.049000 1.227200
3.074900 1.222200
3.100800 1.214800
3.126600 1.205300
3.152500 1.198700
3.178400 1.190300
3.204200 1.179000
3.230100 1.183600
3.256000 1.172600
3.281900 1.147900
3.307700 1.118900
3.333600 1.098300
3.359500 1.084200
3.385400 1.074900
3.411200 1.066500
3.437100 1.057900
3.463000 1.048900
3.488800 1.042200
3.514700 1.036300
3.540600 1.056300
3.566500 1.041900
3.592300 1.026900
3.618200 1.018400
3.644100 1.016300
3.670000 1.030700
3.695800 1.038700
3.721700 1.050000
3.747600 1.036800
3.773400 1.041700
3.799300 1.065400
3.825200 1.098000
3.851100 1.141400
3.876900 1.200700
3.902800 1.265500
3.928700 1.297800
3.954500 1.294200
3.980400 1.254900
4.006300 1.248500
4.032200 1.252600
4.058000 1.273400
4.083900 1.250200
4.109800 1.206200
4.135700 1.200600
4.161500 1.205800
4.187400 1.211700
4.213300 1.211400
4.239100 1.202200
4.265000 1.262300
4.290900 1.184800
4.316800 1.178000
4.342600 1.165600
4.368500 1.155100
4.394400 1.148600
4.420300 1.147900
4.446100 1.137600
4.472000 1.133700
4.497900 1.129800
4.523700 1.125700
4.549600 1.118500
4.575500 1.112100
4.601400 1.105900
4.627200 1.099400
4.653100 1.093200
4.679000 1.087300
4.704800 1.138300
4.730700 1.094900
4.756600 1.126200
4.782500 1.144600
4.808300 1.128900
4.834200 1.127900
4.860100 1.130200
4.886000 1.133100
4.911800 1.122800
4.937700 1.120900
4.963600 1.120200
4.989400 1.120900
5.015300 1.120500
5.041200 1.123700
5.067100 1.127500
5.092900 1.139700
5.118800 1.143300
5.144700 1.151100
5.170600 1.164400
5.196400 1.186400
5.222300 1.157400
5.248200 1.157100
5.274000 1.157200
5.299900 1.160600
5.325800 1.166100
5.351700 1.169200
5.377500 1.171500
5.403400 1.169200
5.429300 1.172600
5.455200 1.176500
5.481000 1.180300
5.506900 1.184500
5.532800 1.191100
5.558600 1.197900
5.584500 1.203400
5.610400 1.207600
5.636300 1.210500
5.662100 1.222700
5.688000 1.234400
5.713900 1.215100
5.739700 1.245100
5.765600 1.255400
5.791500 1.259400
5.817400 1.253500
5.843200 1.263300
5.869100 1.277100
5.895000 1.291000
5.920900 1.300700
5.946700 1.304700
5.972600 1.306400
5.998500 1.302700
6.024300 1.307800
6.050200 1.319900
6.076100 1.333700
6.102000 1.344000
6.127800 1.357700
6.153700 1.378300
6.179600 1.402200
6.205500 1.425300
6.231300 1.451700
6.257200 1.489400
6.283100 1.562500
6.308900 1.540100
6.334800 1.563400
6.360700 1.587500
6.386600 1.609600
6.412400 1.622700
6.438300 1.632100
6.464200 1.651800
6.490000 1.656100
6.515900 1.664400
6.541800 1.675300
6.567700 1.686400
6.593500 1.690800
6.619400 1.707600
6.645300 1.684400
6.671200 1.638100
6.697000 1.583300
6.722900 1.523400
6.748800 1.471200
6.774600 1.426200
6.800500 1.383500
6.826400 1.358900
6.852300 1.347400
6.878100 1.334500
6.904000 1.321100
6.929900 1.299800
6.955800 1.290700
6.981600 1.287100
7.007500 1.303700
7.033400 1.337000
7.059200 1.327200
7.085100 1.351500
7.111000 1.376400
7.136900 1.407200
7.162700 1.429200
7.188600 1.444900
7.214500 1.447100
7.240300 1.455000
7.266200 1.459800
7.292100 1.456300
7.318000 1.488600
7.343800 1.525500
7.369700 1.567500
7.395600 1.611500
7.421500 1.631000
7.447300 1.636600
7.473200 1.639700
7.499100 1.634400
7.524900 1.628400
7.550800 1.626100
7.576700 1.590300
7.602600 1.589900
7.628400 1.586000
7.654300 1.575800
7.680200 1.567600
7.706100 1.564100
7.731900 1.575600
7.757800 1.615400
7.783700 1.677400
7.809500 1.678200
7.835400 1.714200
7.861300 1.762600
7.887200 1.790600
7.913000 1.815700
7.938900 1.840700
7.964800 1.841900
7.990700 1.787500
8.016500 1.807800
8.042400 1.864000
8.068300 1.895100
8.094100 1.866100
8.120000 1.846500
8.145900 1.866700
8.171800 1.886800
8.197600 1.855600
8.223500 1.830000
8.249400 1.866400
8.275200 1.903200
8.301100 1.917400
8.327000 1.945200
8.352900 1.961900
8.378700 2.122900
8.404600 2.163400
8.430500 2.205400
8.456400 2.205100
8.482200 2.201200
8.508100 2.160300
8.534000 2.095900
8.559800 1.968500
8.585700 1.898400
8.611600 1.768200
8.637500 1.625500
8.663300 1.489900
8.689200 1.415300
8.715100 1.431000
8.741000 1.466600
8.766800 1.482300
8.792700 1.196400
8.818600 1.137200
8.844400 1.120000
8.870300 1.100500
8.896200 1.081300
8.922100 1.054900
8.947900 0.999400
8.973800 0.982000
8.999700 0.970400
9.025500 0.973600
9.051400 0.939000
9.077300 0.916700
9.103200 0.908800
9.129000 0.907900
9.154900 0.908600
9.180800 0.914000
9.206700 0.947100
9.232500 0.925600
9.258400 0.936800
9.284300 0.949100
9.310100 0.961400
9.336000 0.978900
9.361900 1.001000
9.387800 1.024400
9.413600 1.053500
9.439500 1.087600
9.465400 1.134200
9.491300 1.182500
9.517100 1.235600
9.543000 1.285000
9.568900 1.336900
9.594700 1.387600
9.620600 1.458700
9.646500 1.494500
9.672400 1.491500
9.698200 1.519900
9.724100 1.539700
9.750000 1.556200
9.775900 1.580300
9.801700 1.611000
9.827600 1.616600
9.853500 1.630500
9.879300 1.659100
9.905200 1.711500
9.931100 1.855300
9.957000 1.828100
9.982800 1.878900
10.008700 1.943600
10.034600 2.000200
10.060400 1.998100
10.086300 2.027300
10.112200 1.908900
10.138100 1.857600
10.163900 1.807500
10.189800 1.770900
10.215700 1.735900
10.241600 1.660700
10.267400 1.629700
10.293300 1.578300
10.319200 1.541700
10.345000 1.511000
10.370900 1.494400
10.396800 1.481700
10.422700 1.474400
10.448500 1.472200
10.474400 1.490000
10.500300 1.516300
10.526200 1.538300
10.552000 1.543600
10.577900 1.544200
10.603800 1.541900
10.629600 1.539100
10.655500 1.526600
10.681400 1.506700
10.707300 1.481500
10.733100 1.473700
10.759000 1.483300
10.784900 1.503300
10.810700 1.539700
10.836600 1.594800
10.862500 1.673900
10.888400 1.794200
10.914200 1.913500
10.940100 1.907600
10.966000 1.900400
10.991900 1.894600
11.017700 1.893100
11.043600 1.915600
11.069500 1.919500
11.095300 1.936800
11.121200 1.963000
11.147100 2.007900
11.173000 2.064400
11.198800 2.075500
11.224700 2.022800
11.250600 1.953100
11.276500 1.853400
11.302300 1.715900
11.328200 1.689500
11.354100 1.677800
11.379900 1.660600
11.405800 1.647500
11.431700 1.641000
11.457600 1.642800
11.483400 1.657200
11.509300 1.670200
11.535200 1.680600
11.561000 1.698200
11.586900 1.726200
11.612800 1.763500
11.638700 1.805900
11.664500 1.878000
11.690400 1.941800
11.716300 1.996200
11.742200 2.050000
11.768000 2.108700
11.793900 2.179300
11.819800 2.246800
11.845600 2.301700
11.871500 2.407900
11.897400 2.473800
11.923300 2.573600
11.949100 2.593300
11.975000 2.619400
12.000900 2.620000
12.026800 2.504800
12.052600 2.435400
12.078500 2.341800
12.104400 2.252300
12.130200 2.150700
12.156100 2.035300
12.182000 1.954700
12.207900 1.889400
12.233700 1.814400
12.259600 1.741800
12.285500 1.671100
12.311400 1.608500
12.337200 1.591900
12.363100 1.556900
12.389000 1.491600
12.414800 1.463400
12.440700 1.389500
12.466600 1.282000
12.492500 1.314600
12.518300 1.265300
12.544200 1.201100
12.570100 1.191000
12.595900 1.178100
12.621800 1.172700
12.647700 1.167100
12.673600 1.178800
12.699400 1.184100
12.725300 1.516600
12.751200 1.150000
12.777100 1.038700
12.802900 1.017900
12.828800 1.017700
12.854700 1.013900
12.880500 1.006900
12.906400 0.996800
12.932300 0.985000
12.958200 0.975000
12.984000 0.983200
13.009900 1.038400
13.035800 1.032300
13.061700 1.017400
13.087500 1.009800
13.113400 1.024400
13.139300 1.071100
13.165100 1.114300
13.191000 1.143500
13.216900 1.126800
13.242800 1.100500
13.268600 1.078400
13.294500 1.058300
13.320400 1.038500
13.346200 1.014200
13.372100 0.999900
13.398000 0.989500
13.423900 0.986200
13.449700 1.000300
13.475600 1.031800
13.501500 1.077400
13.527400 1.136700
13.553200 1.206300
13.579100 1.267900
13.605000 1.305400
13.630800 1.337700
13.656700 1.370700
13.682600 1.388100
13.708500 1.392000
13.734300 1.391500
13.760200 1.399700
13.786100 1.413100
13.812000 1.430600
13.837800 1.455400
13.863700 1.484400
13.889600 1.531300
13.915400 1.571500
13.941300 1.595300
13.967200 1.603100
13.993100 1.623500
14.018900 1.650100
14.044800 1.670600
14.070700 1.703100
14.096500 1.713900
14.122400 1.759500
14.148300 1.782800
14.174200 1.791800
14.200000 1.792900
14.225900 1.794000
14.251800 1.792300
14.277700 1.794900
14.303500 1.795700
14.329400 1.786100
14.355300 1.748600
14.381100 1.725900
14.407000 1.711400
14.432900 1.712400
14.458800 1.717500
14.484600 1.720200
14.510500 1.715800
14.536400 1.712700
14.562300 1.695500
14.588100 1.677600
14.614000 1.696200
14.639900 1.708300
14.665700 1.732700
14.691600 1.700700
14.717500 1.698000
14.743400 1.701300
14.769200 1.708400
14.795100 1.716400
14.821000 1.724400
14.846900 1.652700
14.872700 1.590900
14.898600 1.556500
14.924500 1.553800
14.950300 1.567300
14.976200 1.590600
15.002100 1.605000
15.028000 1.611200
15.053800 1.609500
15.079700 1.606100
15.105600 1.613700
15.131400 1.615700
15.157300 1.609200
15.183200 1.607500
15.209100 1.610700
15.234900 1.610600
15.260800 1.614300
15.286700 1.587200
15.312600 1.579400
15.338400 1.582500
15.364300 1.554900
15.390200 1.616000
15.416000 1.545500
15.441900 1.518600
15.467800 1.456900
15.493700 1.412100
15.519500 1.376200
15.545400 1.361400
15.571300 1.346700
15.597200 1.316800
15.623000 1.311300
15.648900 1.311700
15.674800 1.323100
15.700600 1.357100
15.726500 1.363100
15.752400 1.364400
15.778300 1.360900
15.804100 1.345600
15.830000 1.329000
15.855900 1.312800
15.881700 1.297300
15.907600 1.279400
15.933500 1.282000
15.959400 1.290100
15.985200 1.288100
16.011100 1.288600
16.037000 1.257500
16.062900 1.262600
16.088700 1.260100
16.114600 1.264200
16.140500 1.267500
16.166300 1.273300
16.192200 1.275800
16.218100 1.278900
16.244000 1.290600
16.269800 1.304900
16.295700 1.318000
16.321600 1.340500
16.347500 1.354600
16.373300 1.360200
16.399200 1.373400
16.425100 1.386800
16.450900 1.394300
16.476800 1.378500
16.502700 1.323200
16.528600 1.292000
16.554400 1.262600
16.580300 1.238300
16.606200 1.217900
16.632100 1.198900
16.657900 1.180900
16.683800 1.172100
16.709700 1.171900
16.735500 1.179300
16.761400 1.184800
16.787300 1.193200
16.813200 1.202300
16.839000 1.213000
16.864900 1.225900
16.890800 1.241500
16.916600 1.255900
16.942500 1.271800
16.968400 1.312600
16.994300 1.421700
17.020100 1.499300
17.046000 1.319900
17.071900 1.331700
17.097800 1.310400
17.123600 1.281500
17.149500 1.264500
17.175400 1.265100
17.201200 1.282600
17.227100 1.306100
17.253000 1.328700
