set title 'mp-1227290 - Density of States'
set xlabel 'Energy (eV)'
set ylabel 'DOS (states/eV)'
set grid
set xrange [-10:10]
set yrange [0:3.289]
set xzeroaxis lt -1
set terminal png size 800,600
set output 'mp-1227290_dos_gnuplot.png'
plot '-' using 1:2 with lines title 'DOS'
-9.318400 0.000000
-9.293300 0.000000
-9.268200 0.000000
-9.243200 0.000000
-9.218100 0.000000
-9.193100 0.000000
-9.168000 0.000000
-9.143000 0.000000
-9.117900 0.000000
-9.092900 0.000000
-9.067800 0.000000
-9.042800 0.000000
-9.017700 0.000000
-8.992600 0.000000
-8.967600 0.000000
-8.942500 0.000000
-8.917500 0.000000
-8.892400 0.000000
-8.867400 0.000000
-8.842300 0.000000
-8.817300 0.000000
-8.792200 0.000000
-8.767200 0.000000
-8.742100 0.000000
-8.717100 0.000000
-8.692000 0.000000
-8.666900 0.000000
-8.641900 0.000000
-8.616800 0.000000
-8.591800 0.000000
-8.566700 0.000000
-8.541700 0.000000
-8.516600 0.000000
-8.491600 0.000000
-8.466500 0.000000
-8.441500 0.000000
-8.416400 0.000000
-8.391300 0.000000
-8.366300 0.000000
-8.341200 0.000000
-8.316200 0.000000
-8.291100 0.000000
-8.266100 0.000000
-8.241000 0.000000
-8.216000 0.000000
-8.190900 0.000000
-8.165900 0.000000
-8.140800 0.000000
-8.115700 0.000000
-8.090700 0.000000
-8.065600 0.000000
-8.040600 0.000000
-8.015500 0.000000
-7.990500 0.000000
-7.965400 0.000000
-7.940400 0.000000
-7.915300 0.000000
-7.890300 0.000000
-7.865200 0.000000
-7.840100 0.000000
-7.815100 0.000000
-7.790000 0.000000
-7.765000 0.000000
-7.739900 0.000000
-7.714900 0.000000
-7.689800 0.000000
-7.664800 0.000000
-7.639700 0.000000
-7.614700 0.000000
-7.589600 0.000000
-7.564500 0.000000
-7.539500 0.000000
-7.514400 0.000000
-7.489400 0.000000
-7.464300 0.000000
-7.439300 0.000000
-7.414200 0.000000
-7.389200 0.000000
-7.364100 0.000000
-7.339100 0.000000
-7.314000 0.000000
-7.289000 0.000000
-7.263900 0.000000
-7.238800 0.000000
-7.213800 0.000000
-7.188700 0.000000
-7.163700 0.000000
-7.138600 0.000000
-7.113600 0.000000
-7.088500 0.000000
-7.063500 0.000000
-7.038400 0.007300
-7.013400 0.085100
-6.988300 0.147100
-6.963200 0.178800
-6.938200 0.202300
-6.913100 0.228300
-6.888100 0.257900
-6.863000 0.286400
-6.838000 0.307600
-6.812900 0.326700
-6.787900 0.342800
-6.762800 0.358100
-6.737800 0.378400
-6.712700 0.399200
-6.687600 0.420400
-6.662600 0.442000
-6.637500 0.459200
-6.612500 0.475700
-6.587400 0.491200
-6.562400 0.507900
-6.537300 0.524700
-6.512300 0.542400
-6.487200 0.560500
-6.462200 0.579300
-6.437100 0.599000
-6.412000 0.619000
-6.387000 0.639300
-6.361900 0.658800
-6.336900 0.678600
-6.311800 0.699000
-6.286800 0.720300
-6.261700 0.742700
-6.236700 0.765900
-6.211600 0.789800
-6.186600 0.814400
-6.161500 0.839800
-6.136500 0.866000
-6.111400 0.893700
-6.086300 0.930800
-6.061300 0.974800
-6.036200 1.023300
-6.011200 1.104200
-5.986100 1.154300
-5.961100 1.154200
-5.936000 1.183600
-5.911000 1.216400
-5.885900 1.232600
-5.860900 1.245400
-5.835800 1.271500
-5.810700 1.303800
-5.785700 1.333700
-5.760600 1.363100
-5.735600 1.393500
-5.710500 1.426400
-5.685500 1.467900
-5.660400 1.523800
-5.635400 1.591600
-5.610300 1.669400
-5.585300 1.758600
-5.560200 1.870500
-5.535100 2.022600
-5.510100 2.355500
-5.485000 2.503900
-5.460000 2.435900
-5.434900 2.571200
-5.409900 2.874200
-5.384800 2.846700
-5.359800 2.990400
-5.334700 2.383100
-5.309700 2.214500
-5.284600 1.828800
-5.259500 1.655800
-5.234500 1.566300
-5.209400 1.361800
-5.184400 0.000000
-5.159300 0.000000
-5.134300 0.000000
-5.109200 0.000000
-5.084200 0.000000
-5.059100 0.000000
-5.034100 0.000000
-5.009000 0.000000
-4.983900 0.000000
-4.958900 0.000000
-4.933800 0.000000
-4.908800 0.000000
-4.883700 0.000000
-4.858700 0.000000
-4.833600 0.000000
-4.808600 0.000000
-4.783500 0.000000
-4.758500 0.000000
-4.733400 0.000000
-4.708400 0.000000
-4.683300 0.000000
-4.658200 0.000000
-4.633200 0.000000
-4.608100 0.000000
-4.583100 0.000000
-4.558000 0.000000
-4.533000 0.000000
-4.507900 0.000000
-4.482900 0.000000
-4.457800 0.000000
-4.432800 0.000000
-4.407700 0.000000
-4.382600 0.000000
-4.357600 0.000000
-4.332500 0.000000
-4.307500 0.000000
-4.282400 0.000000
-4.257400 0.000000
-4.232300 0.000000
-4.207300 0.000000
-4.182200 0.000000
-4.157200 0.000000
-4.132100 0.000000
-4.107000 0.000000
-4.082000 0.000000
-4.056900 0.000000
-4.031900 0.000000
-4.006800 0.000000
-3.981800 0.000000
-3.956700 0.000000
-3.931700 0.000000
-3.906600 0.000000
-3.881600 0.000000
-3.856500 0.000000
-3.831400 0.000000
-3.806400 0.000000
-3.781300 0.000000
-3.756300 0.000000
-3.731200 0.000000
-3.706200 0.000000
-3.681100 0.000000
-3.656100 0.052200
-3.631000 0.151300
-3.606000 0.576300
-3.580900 0.434300
-3.555900 0.570700
-3.530800 0.695300
-3.505700 0.796000
-3.480700 1.103700
-3.455600 1.336900
-3.430600 1.520300
-3.405500 1.653000
-3.380500 1.627900
-3.355400 1.615200
-3.330400 1.640400
-3.305300 1.699100
-3.280300 1.690900
-3.255200 1.667300
-3.230100 1.754100
-3.205100 1.904200
-3.180000 2.025500
-3.155000 2.414300
-3.129900 2.798300
-3.104900 2.644400
-3.079800 2.118600
-3.054800 1.941700
-3.029700 1.815700
-3.004700 1.712300
-2.979600 1.612800
-2.954500 1.551900
-2.929500 1.492700
-2.904400 1.433500
-2.879400 1.409500
-2.854300 1.377400
-2.829300 1.344300
-2.804200 1.298000
-2.779200 1.337100
-2.754100 1.262300
-2.729100 1.182300
-2.704000 1.084600
-2.678900 0.988800
-2.653900 0.894600
-2.628800 0.820500
-2.603800 0.778300
-2.578700 0.750600
-2.553700 0.728300
-2.528600 0.706500
-2.503600 0.685000
-2.478500 0.663900
-2.453500 0.642900
-2.428400 0.622100
-2.403300 0.599600
-2.378300 0.574500
-2.353200 0.549600
-2.328200 0.524100
-2.303100 0.497300
-2.278100 0.477000
-2.253000 0.463200
-2.228000 0.449200
-2.202900 0.433700
-2.177900 0.418100
-2.152800 0.404600
-2.127800 0.394100
-2.102700 0.384100
-2.077600 0.374300
-2.052600 0.364400
-2.027500 0.354400
-2.002500 0.344000
-1.977400 0.333500
-1.952400 0.323100
-1.927300 0.312200
-1.902300 0.301200
-1.877200 0.290500
-1.852200 0.279900
-1.827100 0.270200
-1.802000 0.262700
-1.777000 0.255300
-1.751900 0.248100
-1.726900 0.240900
-1.701800 0.233400
-1.676800 0.225600
-1.651700 0.218100
-1.626700 0.211100
-1.601600 0.204900
-1.576600 0.198700
-1.551500 0.192600
-1.526400 0.186300
-1.501400 0.180000
-1.476300 0.173700
-1.451300 0.167500
-1.426200 0.161200
-1.401200 0.154800
-1.376100 0.148900
-1.351100 0.143600
-1.326000 0.138600
-1.301000 0.133600
-1.275900 0.128600
-1.250800 0.123700
-1.225800 0.118800
-1.200700 0.113900
-1.175700 0.108900
-1.150600 0.103900
-1.125600 0.098800
-1.100500 0.093700
-1.075500 0.088800
-1.050400 0.084100
-1.025400 0.079600
-1.000300 0.074900
-0.975300 0.069800
-0.950200 0.064600
-0.925100 0.059400
-0.900100 0.054500
-0.875000 0.049800
-0.850000 0.045400
-0.824900 0.040000
-0.799900 0.032600
-0.774800 0.023800
-0.749800 0.013700
-0.724700 0.002200
-0.699700 0.000000
-0.674600 0.000000
-0.649500 0.000000
-0.624500 0.000000
-0.599400 0.000000
-0.574400 0.000000
-0.549300 0.000000
-0.524300 0.000000
-0.499200 0.000000
-0.474200 0.000000
-0.449100 0.000000
-0.424100 0.000000
-0.399000 0.000000
-0.373900 0.000000
-0.348900 0.000000
-0.323800 0.000000
-0.298800 0.000000
-0.273700 0.000000
-0.248700 0.000000
-0.223600 0.000000
-0.198600 0.000000
-0.173500 0.000000
-0.148500 0.000000
-0.123400 0.000000
-0.098300 0.000000
-0.073300 0.000000
-0.048200 0.000000
-0.023200 0.000000
0.001900 0.000000
0.026900 0.000000
0.052000 0.000000
0.077000 0.000000
0.102100 0.000000
0.127100 0.000000
0.152200 0.000000
0.177300 0.000000
0.202300 0.000000
0.227400 0.000000
0.252400 0.000000
0.277500 0.000000
0.302500 0.000000
0.327600 0.000000
0.352600 0.000000
0.377700 0.000000
0.402700 0.000000
0.427800 0.000000
0.452800 0.000000
0.477900 0.000000
0.503000 0.000000
0.528000 0.000000
0.553100 0.000000
0.578100 0.000000
0.603200 0.000000
0.628200 0.000000
0.653300 0.000000
0.678300 0.000000
0.703400 0.000000
0.728400 0.000000
0.753500 0.000000
0.778600 0.000000
0.803600 0.000000
0.828700 0.000000
0.853700 0.000000
0.878800 0.000000
0.903800 0.264500
0.928900 0.332100
0.953900 0.429800
0.979000 0.485600
1.004000 0.533800
1.029100 0.593300
1.054200 0.601300
1.079200 0.615900
1.104300 0.628500
1.129300 0.649400
1.154400 0.688100
1.179400 0.723900
1.204500 0.753100
1.229500 0.783900
1.254600 0.821700
1.279600 0.869900
1.304700 1.071500
1.329800 1.051100
1.354800 1.005900
1.379900 0.960700
1.404900 0.980900
1.430000 0.982800
1.455000 0.973900
1.480100 0.950600
1.505100 0.919800
1.530200 0.890600
1.555200 0.869000
1.580300 0.872600
1.605300 0.875600
1.630400 0.883400
1.655500 0.894800
1.680500 0.911300
1.705600 0.930100
1.730600 0.949300
1.755700 0.969000
1.780700 0.989100
1.805800 1.012100
1.830800 1.035100
1.855900 1.048800
1.880900 1.060600
1.906000 1.073800
1.931100 1.089600
1.956100 1.108200
1.981200 1.130100
2.006200 1.143600
2.031300 1.145800
2.056300 1.148900
2.081400 1.158100
2.106400 1.173400
2.131500 1.190500
2.156500 1.207800
2.181600 1.227700
2.206700 1.252000
2.231700 1.282100
2.256800 1.314000
2.281800 1.344400
2.306900 1.369600
2.331900 1.396500
2.357000 1.429600
2.382000 1.467100
2.407100 1.528700
2.432100 1.782300
2.457200 1.807800
2.482300 1.725500
2.507300 1.717800
2.532400 1.723000
2.557400 1.740600
2.582500 1.765600
2.607500 1.785400
2.632600 1.790500
2.657600 1.787800
2.682700 1.784300
2.707700 1.769500
2.732800 1.748000
2.757900 1.735900
2.782900 1.735600
2.808000 1.738700
2.833000 1.758500
2.858100 1.772000
2.883100 1.774700
2.908200 1.774600
2.933200 1.770800
2.958300 1.763200
2.983300 1.746100
3.008400 1.746200
3.033400 1.745900
3.058500 1.743000
3.083600 1.738600
3.108600 1.735700
3.133700 1.737000
3.158700 1.737800
3.183800 1.736600
3.208800 1.738800
3.233900 1.744800
3.258900 1.750000
3.284000 1.754900
3.309000 1.760800
3.334100 1.767900
3.359200 1.775900
3.384200 1.783500
3.409300 1.788800
3.434300 1.792100
3.459400 1.795700
3.484400 1.793200
3.509500 1.789200
3.534500 1.783800
3.559600 1.785300
3.584600 1.785700
3.609700 1.777100
3.634800 1.767900
3.659800 1.761100
3.684900 1.753500
3.709900 1.746800
3.735000 1.743300
3.760000 1.742100
3.785100 1.754100
3.810100 1.774200
3.835200 1.792800
3.860200 1.809200
3.885300 1.818600
3.910400 1.820200
3.935400 1.801400
3.960500 1.772600
3.985500 1.764700
4.010600 2.030000
4.035600 2.066300
4.060700 2.056300
4.085700 1.964500
4.110800 1.935200
4.135800 1.902100
4.160900 1.834900
4.185900 1.768400
4.211000 1.711500
4.236100 1.645900
4.261100 1.657900
4.286200 1.662300
4.311200 1.591800
4.336300 1.513900
4.361300 1.463000
4.386400 1.438500
4.411400 1.436300
4.436500 1.463000
4.461500 1.487000
4.486600 1.510800
4.511700 1.531900
4.536700 1.567100
4.561800 1.604700
4.586800 1.587200
4.611900 1.517000
4.636900 1.423000
4.662000 1.369100
4.687000 1.381900
4.712100 1.404800
4.737100 1.383200
4.762200 1.336000
4.787300 1.307900
4.812300 1.247100
4.837400 1.173500
4.862400 1.098300
4.887500 1.056500
4.912500 1.061600
4.937600 1.074400
4.962600 1.055000
4.987700 0.998100
5.012700 0.942900
5.037800 0.877500
5.062900 0.813000
5.087900 0.766000
5.113000 0.744100
5.138000 0.744700
5.163100 0.842200
5.188100 0.867100
5.213200 0.782600
5.238200 0.645700
5.263300 0.390600
5.288300 0.245800
5.313400 0.148900
5.338500 0.080800
5.363500 0.047600
5.388600 0.026900
5.413600 0.011700
5.438700 0.002700
5.463700 0.000000
5.488800 0.000000
5.513800 0.000000
5.538900 0.000000
5.563900 0.000000
5.589000 0.000900
5.614000 0.004300
5.639100 0.010100
5.664200 0.018300
5.689200 0.029000
5.714300 0.042100
5.739300 0.057700
5.764400 0.074800
5.789400 0.090800
5.814500 0.109700
5.839500 0.131300
5.864600 0.155800
5.889600 0.199500
5.914700 0.264300
5.939800 0.387600
5.964800 0.394700
5.989900 0.473700
6.014900 0.587800
6.040000 0.739300
6.065000 0.808500
6.090100 0.847400
6.115100 0.900100
6.140200 1.026600
6.165200 1.117700
6.190300 1.266800
6.215400 1.860300
6.240400 1.527100
6.265500 1.511200
6.290500 1.483100
6.315600 1.521600
6.340600 1.588600
6.365700 1.655000
6.390700 1.713100
6.415800 1.763800
6.440800 1.826800
6.465900 2.007000
6.491000 1.972900
6.516000 1.834900
6.541100 1.740100
6.566100 1.671700
6.591200 1.652800
6.616200 1.617400
6.641300 1.594300
6.666300 1.569800
6.691400 1.543000
6.716400 1.520500
6.741500 1.504300
6.766500 1.489500
6.791600 1.468200
6.816700 1.430400
6.841700 1.412300
6.866800 1.398800
6.891800 1.387300
6.916900 1.377400
6.941900 1.368900
6.967000 1.361700
6.992000 1.355700
7.017100 1.351000
7.042100 1.347100
7.067200 1.346200
7.092300 1.346300
7.117300 1.348800
7.142400 1.351400
7.167400 1.353200
7.192500 1.357100
7.217500 1.359800
7.242600 1.360800
7.267600 1.362500
7.292700 1.364800
7.317700 1.366000
7.342800 1.370600
7.367900 1.375200
7.392900 1.379600
7.418000 1.384300
7.443000 1.390200
7.468100 1.397000
7.493100 1.404800
7.518200 1.413600
7.543200 1.423700
7.568300 1.438400
7.593300 1.458600
7.618400 1.463700
7.643500 1.490200
7.668500 1.542400
7.693600 1.603800
7.718600 1.677700
7.743700 1.768800
7.768700 1.882800
7.793800 2.019900
7.818800 2.182400
7.843900 2.329600
7.868900 2.311600
7.894000 2.259700
7.919100 2.210000
7.944100 2.143600
7.969200 2.025500
7.994200 1.773400
8.019300 1.565400
8.044300 1.454300
8.069400 1.360000
8.094400 1.335400
8.119500 1.282000
8.144500 1.181000
8.169600 1.174600
8.194600 1.168800
8.219700 1.169300
8.244800 1.193200
8.269800 1.219200
8.294900 1.288600
8.319900 1.342900
8.345000 1.220000
8.370000 1.230600
8.395100 1.231300
8.420100 1.221000
8.445200 1.228500
8.470200 1.250100
8.495300 1.273900
8.520400 1.290500
8.545400 1.301100
8.570500 1.306300
8.595500 1.310100
8.620600 1.329300
8.645600 1.353300
8.670700 1.366500
8.695700 1.374800
8.720800 1.379300
8.745800 1.379700
8.770900 1.387900
8.796000 1.413000
8.821000 1.428200
8.846100 1.426400
8.871100 1.410600
8.896200 1.386900
8.921200 1.370900
8.946300 1.355500
8.971300 1.414100
8.996400 1.566100
9.021400 1.588600
9.046500 1.534700
9.071600 1.546300
9.096600 1.576200
9.121700 1.599800
9.146700 1.589300
9.171800 1.543700
9.196800 1.470400
9.221900 1.405800
9.246900 1.340000
9.272000 1.282100
9.297000 1.234300
9.322100 1.195600
9.347100 1.163000
9.372200 1.134600
9.397300 1.110600
9.422300 1.088400
9.447400 1.066600
9.472400 1.045100
9.497500 1.023900
9.522500 1.003500
9.547600 0.984900
9.572600 0.969700
9.597700 0.950800
9.622700 0.927900
9.647800 0.902600
9.672900 0.874600
9.697900 0.844000
9.723000 0.817200
9.748000 0.796500
9.773100 0.777500
9.798100 0.759700
9.823200 0.743500
9.848200 0.728900
9.873300 0.724600
9.898300 0.742000
9.923400 0.885500
9.948500 1.013800
9.973500 1.337500
9.998600 1.643300
10.023600 1.402900
10.048700 1.474800
10.073700 1.607000
10.098800 1.663700
10.123800 1.719900
10.148900 1.903000
10.173900 1.915900
10.199000 1.980000
10.224100 1.941900
10.249100 1.921300
10.274200 1.945400
10.299200 1.975700
10.324300 1.988800
10.349300 1.993200
10.374400 1.977500
10.399400 1.993700
10.424500 1.962800
10.449500 1.908900
10.474600 1.864000
10.499700 1.823000
10.524700 1.788600
10.549800 1.760900
10.574800 1.748200
10.599900 1.742600
10.624900 1.724200
10.650000 1.675200
10.675000 1.631400
10.700100 1.584000
10.725100 1.510300
10.750200 1.415200
10.775200 1.316400
10.800300 1.250300
10.825400 1.212500
10.850400 1.204300
10.875500 1.203700
10.900500 1.212400
10.925600 1.228500
10.950600 1.250200
10.975700 1.299000
11.000700 1.430900
11.025800 1.784500
11.050800 1.708900
11.075900 1.685000
11.101000 1.709000
11.126000 1.792800
11.151100 1.888200
11.176100 1.973500
11.201200 1.945700
11.226200 1.868100
11.251300 1.581700
11.276300 1.512700
11.301400 1.378100
11.326400 1.313700
11.351500 1.217100
11.376600 1.145000
11.401600 1.103800
11.426700 1.063800
11.451700 1.023100
11.476800 0.972000
11.501800 0.934200
11.526900 0.892300
11.551900 0.846700
11.577000 0.812600
11.602000 0.785400
11.627100 0.786000
11.652200 0.801300
11.677200 0.780900
11.702300 0.796600
11.727300 0.823900
11.752400 0.859100
11.777400 0.914300
11.802500 0.963800
11.827500 1.021200
11.852600 1.007700
11.877600 0.975200
11.902700 0.976400
11.927700 0.983000
11.952800 0.989600
11.977900 0.994500
12.002900 0.996700
12.028000 1.002800
12.053000 1.007900
12.078100 1.012500
12.103100 1.026100
12.128200 1.046200
12.153200 1.062600
12.178300 1.075300
12.203300 1.085400
12.228400 1.094400
12.253500 1.111000
12.278500 1.127200
12.303600 1.148400
12.328600 1.172000
12.353700 1.201100
12.378700 1.231000
12.403800 1.317000
12.428800 1.403400
12.453900 1.461200
12.478900 1.526500
12.504000 1.440900
12.529100 1.437400
12.554100 1.286900
12.579200 1.279400
12.604200 1.282900
12.629300 1.293100
12.654300 1.304100
12.679400 1.315500
12.704400 1.326400
12.729500 1.336700
12.754500 1.346500
12.779600 1.339100
12.804700 1.310600
12.829700 1.304100
12.854800 1.316300
12.879800 1.337500
12.904900 1.345400
12.929900 1.355300
12.955000 1.376600
12.980000 1.395400
13.005100 1.430100
13.030100 1.446900
13.055200 1.466200
13.080300 1.484800
13.105300 1.503700
13.130400 1.527300
13.155400 1.552700
13.180500 1.575500
13.205500 1.593100
13.230600 1.611500
13.255600 1.631300
13.280700 1.651500
13.305700 1.648300
13.330800 1.655600
13.355800 1.663500
13.380900 1.673000
13.406000 1.688800
13.431000 1.687100
13.456100 1.685700
13.481100 1.685900
13.506200 1.687500
13.531200 1.690600
13.556300 1.696100
13.581300 1.700000
13.606400 1.705900
13.631400 1.743000
13.656500 1.794800
13.681600 1.848000
13.706600 1.901200
13.731700 1.919000
13.756700 1.936400
13.781800 1.955700
13.806800 1.978500
13.831900 2.006500
13.856900 2.031600
13.882000 2.081100
13.907000 2.128600
13.932100 2.173500
13.957200 2.228000
13.982200 2.203900
14.007300 2.154200
14.032300 2.111700
14.057400 2.095800
14.082400 2.082400
14.107500 2.013000
14.132500 1.990100
14.157600 1.967800
14.182600 2.018000
14.207700 2.092500
14.232800 2.091500
14.257800 1.954400
14.282900 1.910000
14.307900 1.921900
14.333000 1.932800
14.358000 1.948800
14.383100 2.000500
14.408100 2.091200
14.433200 2.135300
14.458200 2.154800
14.483300 2.216200
14.508300 2.367200
14.533400 2.355000
14.558500 2.287900
14.583500 2.247600
14.608600 2.255800
14.633600 2.273600
14.658700 2.332000
14.683700 2.424600
14.708800 2.512500
14.733800 2.641300
14.758900 2.725300
14.783900 2.659500
14.809000 2.612100
14.834100 2.544800
14.859100 2.350500
14.884200 2.250700
14.909200 2.174100
14.934300 2.117300
14.959300 2.077200
14.984400 2.043100
15.009400 2.009600
15.034500 1.998600
15.059500 1.994500
15.084600 1.991200
15.109700 2.011600
15.134700 1.993100
15.159800 1.928900
15.184800 1.906900
15.209900 1.871500
15.234900 1.864600
15.260000 1.894000
15.285000 1.905100
15.310100 1.986900
15.335100 2.077600
15.360200 2.191100
15.385300 2.177400
15.410300 2.281000
15.435400 2.361800
15.460400 2.468800
15.485500 2.585200
15.510500 2.681600
15.535600 2.736300
15.560600 2.708900
15.585700 2.822900
15.610700 2.699000
15.635800 2.642600
15.660900 2.569300
15.685900 2.432200
15.711000 2.222100
15.736000 2.061600
15.761100 2.009900
15.786100 2.029500
15.811200 2.061000
15.836200 1.998500
15.861300 1.929900
15.886300 1.834600
15.911400 1.735300
15.936400 1.711600
15.961500 1.714700
15.986600 1.732800
16.011600 1.774400
16.036700 1.822300
16.061700 1.872500
16.086800 1.927300
16.111800 1.972400
16.136900 2.004200
16.161900 2.105700
16.187000 2.358300
16.212000 1.946100
16.237100 1.747700
16.262200 1.695900
16.287200 1.703600
16.312300 1.769000
16.337300 1.851600
16.362400 1.919400
16.387400 1.975300
16.412500 2.088400
16.437500 2.118400
16.462600 2.138600
16.487600 2.171900
16.512700 2.169300
16.537800 2.119600
16.562800 2.087400
16.587900 2.087600
16.612900 2.080600
16.638000 2.095300
16.663000 2.118500
16.688100 2.168000
16.713100 2.245100
16.738200 2.283600
16.763200 2.322900
16.788300 2.355300
16.813400 2.446600
16.838400 2.236000
16.863500 2.191900
16.888500 2.178900
16.913600 2.158100
16.938600 2.349700
16.963700 2.186500
16.988700 2.321500
17.013800 2.322700
17.038800 2.304700
17.063900 2.303700
17.088900 2.302900
17.114000 2.297800
17.139100 2.330300
17.164100 2.141400
17.189200 2.054000
