set title 'mp-1184819 - Density of States'
set xlabel 'Energy (eV)'
set ylabel 'DOS (states/eV)'
set grid
set xrange [-10:10]
set yrange [0:84.658]
set xzeroaxis lt -1
set terminal png size 800,600
set output 'mp-1184819_dos_gnuplot.png'
plot '-' using 1:2 with lines title 'DOS'
-10.526700 0.000000
-10.502400 0.000000
-10.478200 0.000000
-10.453900 0.000000
-10.429700 0.000000
-10.405400 0.000000
-10.381200 0.000000
-10.357000 0.000000
-10.332700 0.000000
-10.308500 0.000000
-10.284200 0.000000
-10.260000 0.000000
-10.235700 0.000000
-10.211500 0.000000
-10.187200 0.000000
-10.163000 0.000000
-10.138700 0.000000
-10.114500 0.000000
-10.090200 0.000000
-10.066000 0.000000
-10.041700 0.000000
-10.017500 0.000000
-9.993200 0.000000
-9.969000 0.000000
-9.944700 0.000000
-9.920500 0.000000
-9.896200 0.000000
-9.872000 0.000000
-9.847700 0.000000
-9.823500 0.000000
-9.799200 0.000000
-9.775000 0.000000
-9.750700 0.000000
-9.726500 0.000000
-9.702200 0.000000
-9.678000 0.000000
-9.653700 0.000000
-9.629500 0.000000
-9.605300 0.000000
-9.581000 0.000000
-9.556800 0.000000
-9.532500 0.000000
-9.508300 0.000000
-9.484000 0.000000
-9.459800 0.000000
-9.435500 0.000000
-9.411300 0.000000
-9.387000 0.000000
-9.362800 0.000000
-9.338500 0.000000
-9.314300 0.000000
-9.290000 0.000000
-9.265800 0.000000
-9.241500 0.000000
-9.217300 0.000000
-9.193000 0.000000
-9.168800 0.000000
-9.144500 0.000000
-9.120300 0.000000
-9.096000 0.000000
-9.071800 0.000000
-9.047500 0.000000
-9.023300 0.000000
-8.999000 0.000000
-8.974800 0.000000
-8.950500 0.000000
-8.926300 0.000000
-8.902000 0.000000
-8.877800 0.000000
-8.853500 0.000000
-8.829300 0.000000
-8.805100 0.000000
-8.780800 0.000000
-8.756600 0.000000
-8.732300 0.000000
-8.708100 0.000000
-8.683800 0.000000
-8.659600 0.000000
-8.635300 0.000000
-8.611100 0.000000
-8.586800 0.000000
-8.562600 0.000000
-8.538300 0.000000
-8.514100 0.000000
-8.489800 0.000000
-8.465600 0.000000
-8.441300 0.000000
-8.417100 0.000000
-8.392800 0.000000
-8.368600 0.000000
-8.344300 0.000000
-8.320100 0.503500
-8.295800 12.112300
-8.271600 28.390100
-8.247300 31.268300
-8.223100 28.789100
-8.198800 16.206000
-8.174600 10.701800
-8.150300 7.837500
-8.126100 5.986900
-8.101800 4.554000
-8.077600 3.577600
-8.053400 2.774900
-8.029100 2.080900
-8.004900 1.543700
-7.980600 0.991000
-7.956400 0.439800
-7.932100 6.605100
-7.907900 20.021700
-7.883600 48.859600
-7.859400 69.956900
-7.835100 56.449200
-7.810900 47.103000
-7.786600 36.373500
-7.762400 36.852300
-7.738100 53.074300
-7.713900 54.956100
-7.689600 69.403900
-7.665400 47.360700
-7.641100 76.961700
-7.616900 46.733800
-7.592600 6.896100
-7.568400 0.000000
-7.544100 0.000000
-7.519900 0.000000
-7.495600 0.000000
-7.471400 0.000000
-7.447100 0.000000
-7.422900 0.000000
-7.398600 0.000000
-7.374400 0.000000
-7.350100 0.000000
-7.325900 0.000000
-7.301700 0.000000
-7.277400 0.000000
-7.253200 0.000000
-7.228900 0.000000
-7.204700 0.000000
-7.180400 0.000000
-7.156200 0.000000
-7.131900 0.000000
-7.107700 0.000000
-7.083400 0.000000
-7.059200 0.000000
-7.034900 0.000000
-7.010700 0.000000
-6.986400 0.000000
-6.962200 0.000000
-6.937900 0.000000
-6.913700 0.000000
-6.889400 0.000000
-6.865200 0.000000
-6.840900 0.000000
-6.816700 0.000000
-6.792400 0.000000
-6.768200 0.000000
-6.743900 0.000000
-6.719700 0.000000
-6.695400 0.000000
-6.671200 0.000000
-6.646900 0.000000
-6.622700 0.000000
-6.598400 0.000000
-6.574200 0.000000
-6.550000 0.000000
-6.525700 0.000000
-6.501500 0.000000
-6.477200 0.000000
-6.453000 0.000000
-6.428700 0.000000
-6.404500 0.000000
-6.380200 0.000000
-6.356000 0.000000
-6.331700 0.000000
-6.307500 0.000000
-6.283200 0.000000
-6.259000 0.000000
-6.234700 0.000000
-6.210500 0.000000
-6.186200 0.000000
-6.162000 0.000000
-6.137700 0.000000
-6.113500 0.005300
-6.089200 0.032200
-6.065000 0.082100
-6.040700 0.130000
-6.016500 0.146100
-5.992200 0.148700
-5.968000 0.164100
-5.943700 0.183900
-5.919500 0.204400
-5.895200 0.225700
-5.871000 0.245000
-5.846700 0.258100
-5.822500 0.264800
-5.798200 0.270600
-5.774000 0.281000
-5.749800 0.293100
-5.725500 0.305500
-5.701300 0.317900
-5.677000 0.330200
-5.652800 0.342600
-5.628500 0.355500
-5.604300 0.369300
-5.580000 0.380700
-5.555800 0.390400
-5.531500 0.399000
-5.507300 0.407100
-5.483000 0.416100
-5.458800 0.425000
-5.434500 0.433900
-5.410300 0.443100
-5.386000 0.452400
-5.361800 0.462400
-5.337500 0.472900
-5.313300 0.483700
-5.289000 0.494800
-5.264800 0.506100
-5.240500 0.517400
-5.216300 0.528000
-5.192000 0.537500
-5.167800 0.546200
-5.143500 0.554900
-5.119300 0.563200
-5.095000 0.571600
-5.070800 0.580900
-5.046500 0.590300
-5.022300 0.599700
-4.998100 0.609300
-4.973800 0.619000
-4.949600 0.629000
-4.925300 0.639100
-4.901100 0.649400
-4.876800 0.659800
-4.852600 0.670300
-4.828300 0.680800
-4.804100 0.691400
-4.779800 0.701900
-4.755600 0.711800
-4.731300 0.722100
-4.707100 0.733200
-4.682800 0.744200
-4.658600 0.754900
-4.634300 0.765500
-4.610100 0.776600
-4.585800 0.787800
-4.561600 0.799100
-4.537300 0.810600
-4.513100 0.822100
-4.488800 0.833800
-4.464600 0.845500
-4.440300 0.857300
-4.416100 0.869300
-4.391800 0.881500
-4.367600 0.894500
-4.343300 0.908300
-4.319100 0.921900
-4.294800 0.935800
-4.270600 0.950000
-4.246400 0.964800
-4.222100 0.979900
-4.197900 0.995300
-4.173600 1.011100
-4.149400 1.027700
-4.125100 1.045500
-4.100900 1.063200
-4.076600 1.081300
-4.052400 1.100300
-4.028100 1.119800
-4.003900 1.140300
-3.979600 1.162300
-3.955400 1.184800
-3.931100 1.207900
-3.906900 1.231600
-3.882600 1.255900
-3.858400 1.281000
-3.834100 1.308200
-3.809900 1.337100
-3.785600 1.367100
-3.761400 1.399500
-3.737100 1.436900
-3.712900 1.482000
-3.688600 1.541400
-3.664400 1.606600
-3.640100 1.676300
-3.615900 1.801700
-3.591600 2.059000
-3.567400 2.006900
-3.543100 1.975600
-3.518900 1.991200
-3.494600 1.984800
-3.470400 1.950600
-3.446200 1.938900
-3.421900 1.928300
-3.397700 1.921000
-3.373400 1.938500
-3.349200 1.965000
-3.324900 1.992800
-3.300700 1.958200
-3.276400 1.945000
-3.252200 1.936500
-3.227900 1.930000
-3.203700 1.929000
-3.179400 1.941500
-3.155200 1.954800
-3.130900 1.958200
-3.106700 1.956100
-3.082400 1.952300
-3.058200 1.948600
-3.033900 1.942500
-3.009700 1.936600
-2.985400 2.037100
-2.961200 1.937700
-2.936900 1.960000
-2.912700 1.986200
-2.888400 2.003200
-2.864200 2.010400
-2.839900 2.029000
-2.815700 2.098000
-2.791400 2.257600
-2.767200 2.358300
-2.742900 2.473900
-2.718700 4.126800
-2.694500 3.357800
-2.670200 3.244700
-2.646000 2.912000
-2.621700 2.268000
-2.597500 1.640000
-2.573200 1.095000
-2.549000 0.574000
-2.524700 0.191400
-2.500500 0.000000
-2.476200 0.000000
-2.452000 0.000000
-2.427700 0.000000
-2.403500 0.000000
-2.379200 0.000000
-2.355000 0.000000
-2.330700 0.000000
-2.306500 0.000000
-2.282200 0.000000
-2.258000 0.000000
-2.233700 0.000000
-2.209500 0.000000
-2.185200 0.000000
-2.161000 0.000000
-2.136700 0.000000
-2.112500 0.000000
-2.088200 0.000000
-2.064000 0.000000
-2.039700 0.000000
-2.015500 0.000000
-1.991200 0.000000
-1.967000 0.000000
-1.942800 0.000000
-1.918500 0.000000
-1.894300 0.000000
-1.870000 0.000000
-1.845800 0.000000
-1.821500 0.000000
-1.797300 0.000000
-1.773000 0.000000
-1.748800 0.000000
-1.724500 0.000000
-1.700300 0.000000
-1.676000 0.000000
-1.651800 0.000000
-1.627500 0.000000
-1.603300 0.000000
-1.579000 0.000000
-1.554800 0.000000
-1.530500 0.000000
-1.506300 0.000000
-1.482000 0.000000
-1.457800 0.000000
-1.433500 0.000000
-1.409300 0.000000
-1.385000 0.000000
-1.360800 0.000000
-1.336500 0.000000
-1.312300 0.000000
-1.288000 0.000000
-1.263800 0.000000
-1.239500 0.000000
-1.215300 0.000000
-1.191000 0.000000
-1.166800 0.000000
-1.142600 0.000000
-1.118300 0.000000
-1.094100 0.000000
-1.069800 0.000000
-1.045600 0.000000
-1.021300 0.000000
-0.997100 0.000000
-0.972800 0.000000
-0.948600 0.000000
-0.924300 0.000000
-0.900100 0.000000
-0.875800 0.000000
-0.851600 0.000000
-0.827300 0.000000
-0.803100 0.000000
-0.778800 0.000000
-0.754600 0.000000
-0.730300 0.000000
-0.706100 0.000000
-0.681800 0.000000
-0.657600 0.000000
-0.633300 0.000000
-0.609100 0.000000
-0.584800 0.000000
-0.560600 0.000000
-0.536300 0.000000
-0.512100 0.000000
-0.487800 0.000000
-0.463600 0.000000
-0.439300 0.000000
-0.415100 0.000000
-0.390900 0.000000
-0.366600 0.000000
-0.342400 0.000000
-0.318100 0.000000
-0.293900 0.000000
-0.269600 0.000000
-0.245400 0.000000
-0.221100 0.000000
-0.196900 0.000000
-0.172600 0.000000
-0.148400 0.000000
-0.124100 0.000000
-0.099900 0.000000
-0.075600 0.000000
-0.051400 0.000000
-0.027100 0.000000
-0.002900 0.000000
0.021400 0.000000
0.045600 0.000000
0.069900 0.000000
0.094100 0.000000
0.118400 0.000000
0.142600 0.000000
0.166900 0.000000
0.191100 0.000000
0.215400 0.000000
0.239600 0.000000
0.263900 0.000300
0.288100 0.007900
0.312400 0.025800
0.336600 0.039700
0.360800 0.053700
0.385100 0.068600
0.409300 0.084600
0.433600 0.101500
0.457800 0.118200
0.482100 0.134500
0.506300 0.151100
0.530600 0.168200
0.554800 0.183300
0.579100 0.191800
0.603300 0.295900
0.627600 0.489800
0.651800 0.737300
0.676100 0.945000
0.700300 1.057500
0.724600 1.180200
0.748800 1.350600
0.773100 1.551600
0.797300 1.784400
0.821600 1.978900
0.845800 2.032200
0.870100 2.141900
0.894300 2.294700
0.918600 2.480200
0.942800 2.694500
0.967100 2.952400
0.991300 4.049100
1.015600 3.593500
1.039800 3.532900
1.064100 3.836700
1.088300 3.752900
1.112500 3.739000
1.136800 3.506900
1.161000 2.840600
1.185300 2.324700
1.209500 2.142400
1.233800 2.002200
1.258000 1.892600
1.282300 1.808300
1.306500 1.746800
1.330800 1.695500
1.355000 1.654300
1.379300 1.595800
1.403500 1.542000
1.427800 1.491900
1.452000 1.447400
1.476300 1.393700
1.500500 1.376500
1.524800 1.354600
1.549000 1.338000
1.573300 1.329400
1.597500 1.323300
1.621800 1.318800
1.646000 1.315300
1.670300 1.330600
1.694500 1.343300
1.718800 1.365000
1.743000 1.399200
1.767300 1.472200
1.791500 1.555100
1.815800 1.592900
1.840000 1.603100
1.864300 1.598300
1.888500 1.568400
1.912700 1.441000
1.937000 1.319600
1.961200 1.274700
1.985500 1.230200
2.009700 1.189000
2.034000 1.152100
2.058200 1.119400
2.082500 1.090900
2.106700 1.065300
2.131000 1.040300
2.155200 1.013100
2.179500 0.987000
2.203700 0.962800
2.228000 0.942300
2.252200 0.996300
2.276500 1.010500
2.300700 0.986600
2.325000 0.988300
2.349200 0.990900
2.373500 0.993600
2.397700 0.995900
2.422000 0.997800
2.446200 0.999600
2.470500 0.995300
2.494700 0.991800
2.519000 0.987400
2.543200 0.984000
2.567500 0.981900
2.591700 0.980400
2.616000 0.979500
2.640200 0.978500
2.664400 0.988800
2.688700 1.005000
2.712900 1.024100
2.737200 1.037700
2.761400 1.069900
2.785700 1.147100
2.809900 1.275700
2.834200 1.520300
2.858400 1.645900
2.882700 1.718500
2.906900 1.815400
2.931200 1.931500
2.955400 2.040300
2.979700 1.986600
3.003900 1.879200
3.028200 1.666200
3.052400 1.485000
3.076700 1.475100
3.100900 1.467300
3.125200 1.460300
3.149400 1.456300
3.173700 1.454400
3.197900 1.459900
3.222200 1.481800
3.246400 1.506300
3.270700 1.535300
3.294900 1.569400
3.319200 1.608400
3.343400 1.636200
3.367700 1.643000
3.391900 1.642600
3.416100 1.632200
3.440400 1.631300
3.464600 1.639600
3.488900 1.668400
3.513100 1.685700
3.537400 1.711600
3.561600 1.745200
3.585900 1.781300
3.610100 1.819200
3.634400 1.859200
3.658600 1.905700
3.682900 1.924000
3.707100 1.924600
3.731400 1.932800
3.755600 1.964300
3.779900 1.994600
3.804100 2.028000
3.828400 2.060900
3.852600 2.086600
3.876900 2.112200
3.901100 2.139500
3.925400 2.267900
3.949600 2.195800
3.973900 2.176500
3.998100 2.156900
4.022400 2.133200
4.046600 2.101400
4.070900 2.061800
4.095100 2.034100
4.119400 2.008000
4.143600 1.995900
4.167900 2.081400
4.192100 2.137100
4.216300 2.191900
4.240600 2.260400
4.264800 2.337100
4.289100 2.412100
4.313300 2.472200
4.337600 2.506900
4.361800 2.857600
4.386100 2.654800
4.410300 2.646600
4.434600 2.637500
4.458800 2.653100
4.483100 2.680000
4.507300 2.768100
4.531600 2.813200
4.555800 2.834400
4.580100 2.866800
4.604300 2.963800
4.628600 3.139200
4.652800 3.380500
4.677100 3.408600
4.701300 3.389200
4.725600 3.286400
4.749800 3.180600
4.774100 3.057100
4.798300 2.956500
4.822600 2.917700
4.846800 2.918800
4.871100 2.935800
4.895300 2.977200
4.919600 3.056400
4.943800 3.096900
4.968000 3.308800
4.992300 3.668700
5.016500 4.121400
5.040800 4.061700
5.065000 4.058300
5.089300 4.118800
5.113500 4.401100
5.137800 4.549300
5.162000 4.485800
5.186300 4.248700
5.210500 4.049100
5.234800 3.953100
5.259000 3.777900
5.283300 3.675600
5.307500 3.570300
5.331800 3.430700
5.356000 3.310900
5.380300 3.281400
5.404500 3.217900
5.428800 3.138700
5.453000 3.040100
5.477300 2.944300
5.501500 2.871800
5.525800 2.816600
5.550000 2.764300
5.574300 2.714900
5.598500 2.675000
5.622800 2.641900
5.647000 2.621600
5.671300 2.594700
5.695500 2.562500
5.719700 2.560600
5.744000 2.573400
5.768200 2.477400
5.792500 2.354000
5.816700 2.217600
5.841000 2.100100
5.865200 2.037600
5.889500 1.986000
5.913700 1.914200
5.938000 1.812500
5.962200 1.736900
5.986500 1.670200
6.010700 1.656500
6.035000 1.558300
6.059200 1.476900
6.083500 1.413700
6.107700 1.366800
6.132000 1.325400
6.156200 1.286400
6.180500 1.247200
6.204700 1.216600
6.229000 1.221000
6.253200 1.153200
6.277500 1.094500
6.301700 1.040100
6.326000 0.987400
6.350200 0.936900
6.374500 0.899400
6.398700 0.872600
6.423000 0.849400
6.447200 0.802500
6.471500 0.751000
6.495700 0.698300
6.519900 0.647600
6.544200 0.599000
6.568400 0.519500
6.592700 0.478600
6.616900 0.457900
6.641200 0.399200
6.665400 0.332900
6.689700 0.271900
6.713900 0.236300
6.738200 0.210800
6.762400 0.096000
6.786700 0.006300
6.810900 0.000000
6.835200 0.000000
6.859400 0.000000
6.883700 0.000000
6.907900 0.000000
6.932200 0.000000
6.956400 0.000000
6.980700 0.000000
7.004900 0.000000
7.029200 0.000000
7.053400 0.000000
7.077700 0.000000
7.101900 0.000000
7.126200 0.000000
7.150400 0.000000
7.174700 0.000000
7.198900 0.000000
7.223200 0.000000
7.247400 0.000000
7.271600 0.000000
7.295900 0.000000
7.320100 0.000000
7.344400 0.000000
7.368600 0.000000
7.392900 0.000000
7.417100 0.000000
7.441400 0.000000
7.465600 0.000000
7.489900 0.000000
7.514100 0.000000
7.538400 0.000000
7.562600 0.000000
7.586900 0.000000
7.611100 0.000000
7.635400 0.000000
7.659600 0.000000
7.683900 0.000000
7.708100 0.000200
7.732400 0.000500
7.756600 0.000900
7.780900 0.001500
7.805100 0.002200
7.829400 0.003000
7.853600 0.004000
7.877900 0.005100
7.902100 0.006300
7.926400 0.007700
7.950600 0.009200
7.974900 0.010900
7.999100 0.012600
8.023300 0.014600
8.047600 0.016600
8.071800 0.018800
8.096100 0.023800
8.120300 0.027200
8.144600 0.030200
8.168800 0.033200
8.193100 0.036000
8.217300 0.038800
8.241600 0.041500
8.265800 0.044100
8.290100 0.046600
8.314300 0.049000
8.338600 0.051400
8.362800 0.053700
8.387100 0.056100
8.411300 0.059400
8.435600 0.062800
8.459800 0.066300
8.484100 0.069800
8.508300 0.073500
8.532600 0.077200
8.556800 0.080900
8.581100 0.084900
8.605300 0.088900
8.629600 0.093100
8.653800 0.097500
8.678100 0.102000
8.702300 0.106600
8.726600 0.111400
8.750800 0.116300
8.775000 0.121500
8.799300 0.127200
8.823500 0.133200
8.847800 0.139600
8.872000 0.146500
8.896300 0.153600
8.920500 0.160900
8.944800 0.167800
8.969000 0.174700
8.993300 0.181800
9.017500 0.189100
9.041800 0.196600
9.066000 0.204200
9.090300 0.212000
9.114500 0.220000
9.138800 0.228300
9.163000 0.236800
9.187300 0.245700
9.211500 0.258600
9.235800 0.271700
9.260000 0.291800
9.284300 0.332600
9.308500 0.391900
9.332800 0.460900
9.357000 0.539300
9.381300 0.627100
9.405500 0.724300
9.429800 0.820900
9.454000 0.926900
9.478300 1.025700
9.502500 1.114800
9.526800 1.224200
9.551000 1.359200
9.575200 1.472800
9.599500 1.562700
9.623700 1.648800
9.648000 1.713500
9.672200 1.729500
9.696500 1.759200
9.720700 1.773200
9.745000 1.793200
9.769200 1.813200
9.793500 1.816300
9.817700 1.826100
9.842000 1.824700
9.866200 1.845300
9.890500 1.869600
9.914700 1.894300
9.939000 1.918600
9.963200 1.943200
9.987500 1.968100
10.011700 1.992800
10.036000 2.014300
10.060200 2.054800
10.084500 2.087600
10.108700 2.122000
10.133000 2.154000
10.157200 2.178500
10.181500 2.235000
10.205700 2.297000
10.230000 2.345900
10.254200 2.403400
10.278500 2.462700
10.302700 2.577700
10.326900 2.717000
10.351200 2.790700
10.375400 2.798700
10.399700 2.845800
10.423900 2.873400
10.448200 2.853800
10.472400 2.819400
10.496700 2.771400
10.520900 2.701400
10.545200 2.619800
10.569400 2.561200
10.593700 2.448300
10.617900 2.241100
10.642200 2.088800
10.666400 2.014100
10.690700 1.976500
10.714900 1.980100
10.739200 2.012100
10.763400 2.126800
10.787700 2.195700
10.811900 2.146800
10.836200 2.133200
10.860400 1.854200
10.884700 1.798500
10.908900 1.774300
10.933200 1.721100
10.957400 1.668600
10.981700 1.613600
11.005900 1.635800
11.030200 1.710700
11.054400 1.862400
11.078600 1.969200
11.102900 2.024800
11.127100 2.002200
11.151400 1.897800
11.175600 1.648600
11.199900 1.464300
11.224100 1.359300
11.248400 1.321200
11.272600 1.244100
11.296900 1.205900
11.321100 1.178500
11.345400 1.161800
11.369600 1.133500
11.393900 1.100600
11.418100 1.029200
11.442400 1.037000
11.466600 1.044700
11.490900 0.986000
11.515100 1.009600
11.539400 1.041700
11.563600 1.079900
11.587900 1.128300
11.612100 1.174900
11.636400 1.223900
11.660600 1.274400
11.684900 1.328700
11.709100 1.399100
11.733400 1.479600
11.757600 1.578700
11.781900 1.690400
11.806100 1.783400
11.830400 1.940900
11.854600 2.156900
11.878800 2.342900
11.903100 2.494500
11.927300 2.602900
11.951600 2.688600
11.975800 2.988900
12.000100 3.440100
12.024300 3.129300
12.048600 3.063100
12.072800 3.223300
12.097100 3.175800
12.121300 2.959400
12.145600 2.828700
12.169800 2.768500
12.194100 2.729300
12.218300 2.771600
12.242600 3.061600
12.266800 3.254200
12.291100 3.480600
12.315300 3.810300
12.339600 4.193400
12.363800 4.547800
12.388100 5.037700
12.412300 6.455400
12.436600 5.575500
12.460800 5.272900
12.485100 5.053000
12.509300 4.681300
12.533600 3.919500
12.557800 3.415600
12.582100 3.189200
12.606300 2.975300
12.630500 2.798800
12.654800 2.644000
12.679000 2.489600
12.703300 2.308100
12.727500 1.965200
12.751800 1.648000
12.776000 1.265500
12.800300 1.013600
12.824500 0.843500
12.848800 0.784900
12.873000 0.738300
12.897300 0.690500
12.921500 0.637800
12.945800 0.586500
12.970000 0.546300
12.994300 0.496700
13.018500 0.451400
13.042800 0.384600
13.067000 0.364300
13.091300 0.344400
13.115500 0.324800
13.139800 0.327000
13.164000 0.463100
13.188300 0.769100
13.212500 1.255100
13.236800 1.608500
13.261000 1.643100
13.285300 1.602700
13.309500 1.687900
13.333800 1.780900
13.358000 1.707700
13.382200 1.651400
13.406500 1.674700
13.430700 1.728000
13.455000 1.804900
13.479200 1.888900
13.503500 1.976300
13.527700 2.329200
13.552000 2.544100
13.576200 2.718000
13.600500 2.878700
13.624700 3.394800
13.649000 4.898600
13.673200 5.482400
13.697500 4.957800
13.721700 4.430500
13.746000 4.093800
13.770200 3.866300
13.794500 3.818400
13.818700 3.851200
13.843000 3.916100
13.867200 3.998600
13.891500 3.889900
13.915700 3.858900
13.940000 3.847400
13.964200 3.862200
13.988500 3.880800
14.012700 3.948200
14.037000 3.862700
14.061200 3.625100
14.085500 3.490100
14.109700 3.383300
14.134000 3.218500
14.158200 3.161300
14.182400 3.135200
14.206700 3.028300
14.230900 2.996700
14.255200 2.986400
14.279400 2.933300
14.303700 2.817900
14.327900 2.679900
14.352200 2.624100
14.376400 2.782300
14.400700 2.893000
14.424900 2.986100
14.449200 3.127000
14.473400 3.967400
14.497700 2.720400
14.521900 1.721100
14.546200 1.357800
14.570400 1.070600
14.594700 0.864500
14.618900 0.972500
14.643200 1.575400
14.667400 2.421000
14.691700 1.605700
14.715900 1.613600
14.740200 1.664600
14.764400 1.730700
14.788700 1.906900
14.812900 3.040900
14.837200 2.645600
14.861400 2.069800
14.885700 2.078300
14.909900 2.080700
14.934100 2.060700
14.958400 2.046200
14.982600 2.029400
15.006900 1.998100
15.031100 1.957600
15.055400 1.927600
15.079600 1.921900
