set title 'mp-10753 - Density of States'
set xlabel 'Energy (eV)'
set ylabel 'DOS (states/eV)'
set grid
set xrange [-10:10]
set yrange [0:5.202]
set xzeroaxis lt -1
set terminal png size 800,600
set output 'mp-10753_dos_gnuplot.png'
plot '-' using 1:2 with lines title 'DOS'
-30.437800 0.000000
-30.345000 0.000000
-30.252200 0.000000
-30.159400 0.000000
-30.066600 0.000000
-29.973800 0.000000
-29.881000 0.000000
-29.788100 0.000000
-29.695300 0.000000
-29.602500 0.000000
-29.509700 0.000000
-29.416900 0.000000
-29.324100 0.000000
-29.231300 0.000000
-29.138500 0.000000
-29.045700 0.000000
-28.952900 0.000000
-28.860100 0.000000
-28.767200 0.000000
-28.674400 0.000000
-28.581600 0.000000
-28.488800 0.000000
-28.396000 0.000000
-28.303200 0.000000
-28.210400 0.000000
-28.117600 0.000000
-28.024800 0.000000
-27.932000 0.000000
-27.839100 0.000000
-27.746300 0.000000
-27.653500 0.000000
-27.560700 0.000000
-27.467900 0.000000
-27.375100 0.000000
-27.282300 0.000000
-27.189500 0.000000
-27.096700 0.000000
-27.003900 0.000000
-26.911100 0.000000
-26.818200 0.000000
-26.725400 0.000000
-26.632600 0.000000
-26.539800 0.000000
-26.447000 0.000000
-26.354200 0.000000
-26.261400 0.000000
-26.168600 0.000000
-26.075800 0.000000
-25.983000 0.000000
-25.890100 0.000000
-25.797300 0.000000
-25.704500 0.000000
-25.611700 0.000000
-25.518900 0.000000
-25.426100 0.000000
-25.333300 0.000000
-25.240500 0.000000
-25.147700 0.000000
-25.054900 0.000000
-24.962100 0.000000
-24.869200 0.000000
-24.776400 0.000000
-24.683600 0.000000
-24.590800 0.000000
-24.498000 0.000000
-24.405200 0.000000
-24.312400 0.000000
-24.219600 0.000000
-24.126800 0.000000
-24.034000 0.000000
-23.941100 0.000000
-23.848300 0.000000
-23.755500 0.000000
-23.662700 0.000000
-23.569900 0.000000
-23.477100 0.000000
-23.384300 0.000000
-23.291500 0.000000
-23.198700 0.000000
-23.105900 0.000000
-23.013100 0.000000
-22.920200 0.000000
-22.827400 0.000000
-22.734600 0.000000
-22.641800 0.000000
-22.549000 0.000000
-22.456200 0.000000
-22.363400 0.000000
-22.270600 0.000000
-22.177800 0.000000
-22.085000 0.000000
-21.992200 1.964300
-21.899300 17.808700
-21.806500 6.963300
-21.713700 9.310800
-21.620900 12.482100
-21.528100 13.663400
-21.435300 0.000000
-21.342500 0.000000
-21.249700 0.000000
-21.156900 0.000000
-21.064100 0.000000
-20.971200 0.000000
-20.878400 0.000000
-20.785600 0.000000
-20.692800 0.000000
-20.600000 0.000000
-20.507200 0.000000
-20.414400 0.000000
-20.321600 0.000000
-20.228800 0.000000
-20.136000 0.000000
-20.043200 0.000000
-19.950300 0.000000
-19.857500 0.000000
-19.764700 0.000000
-19.671900 0.000000
-19.579100 0.000000
-19.486300 0.000000
-19.393500 0.000000
-19.300700 0.000000
-19.207900 0.000000
-19.115100 0.000000
-19.022200 0.000000
-18.929400 0.000000
-18.836600 0.000000
-18.743800 0.000000
-18.651000 0.000000
-18.558200 0.000000
-18.465400 0.000000
-18.372600 0.000000
-18.279800 0.000000
-18.187000 0.000000
-18.094200 0.000000
-18.001300 0.000000
-17.908500 0.000000
-17.815700 0.000000
-17.722900 0.000000
-17.630100 0.000000
-17.537300 0.000000
-17.444500 0.000000
-17.351700 0.000000
-17.258900 0.000000
-17.166100 0.000000
-17.073200 0.000000
-16.980400 0.000000
-16.887600 0.000000
-16.794800 0.000000
-16.702000 0.000000
-16.609200 0.000000
-16.516400 0.000000
-16.423600 0.000000
-16.330800 0.000000
-16.238000 0.000000
-16.145200 0.000000
-16.052300 0.000000
-15.959500 0.000000
-15.866700 0.000000
-15.773900 0.000000
-15.681100 0.000000
-15.588300 0.000000
-15.495500 0.000000
-15.402700 0.000000
-15.309900 0.000000
-15.217100 0.000000
-15.124300 0.000000
-15.031400 0.000000
-14.938600 0.000000
-14.845800 0.000000
-14.753000 0.000000
-14.660200 0.000000
-14.567400 0.000000
-14.474600 0.000000
-14.381800 0.000000
-14.289000 0.000000
-14.196200 0.000000
-14.103300 0.000000
-14.010500 0.000000
-13.917700 0.000000
-13.824900 0.000000
-13.732100 0.000000
-13.639300 0.000000
-13.546500 0.000000
-13.453700 0.000000
-13.360900 0.000000
-13.268100 0.000000
-13.175300 0.000000
-13.082400 0.000000
-12.989600 0.000000
-12.896800 0.000000
-12.804000 0.000000
-12.711200 0.000000
-12.618400 0.000000
-12.525600 0.000000
-12.432800 0.000000
-12.340000 0.000000
-12.247200 0.000000
-12.154300 0.000000
-12.061500 0.000000
-11.968700 0.000000
-11.875900 0.000000
-11.783100 0.000000
-11.690300 0.000000
-11.597500 0.000000
-11.504700 0.000000
-11.411900 0.000000
-11.319100 0.000000
-11.226300 0.000000
-11.133400 0.000000
-11.040600 0.000000
-10.947800 0.000000
-10.855000 0.000000
-10.762200 0.000000
-10.669400 0.000000
-10.576600 0.000000
-10.483800 0.000000
-10.391000 0.000000
-10.298200 0.000000
-10.205400 0.000000
-10.112500 0.000000
-10.019700 0.000000
-9.926900 0.000000
-9.834100 0.000000
-9.741300 0.000000
-9.648500 0.000000
-9.555700 0.000000
-9.462900 0.000000
-9.370100 0.000000
-9.277300 0.000000
-9.184400 0.000000
-9.091600 0.000000
-8.998800 0.000000
-8.906000 0.000000
-8.813200 0.000000
-8.720400 0.000000
-8.627600 0.000000
-8.534800 0.000000
-8.442000 0.000000
-8.349200 0.000000
-8.256400 0.000000
-8.163500 0.000000
-8.070700 0.000000
-7.977900 0.000000
-7.885100 0.000000
-7.792300 0.000000
-7.699500 0.000000
-7.606700 0.000000
-7.513900 0.000000
-7.421100 0.000000
-7.328300 0.000000
-7.235400 0.000000
-7.142600 0.000000
-7.049800 0.000000
-6.957000 0.000000
-6.864200 0.000000
-6.771400 0.000000
-6.678600 0.000000
-6.585800 0.000000
-6.493000 0.000000
-6.400200 0.000000
-6.307400 0.000000
-6.214500 0.000000
-6.121700 0.000000
-6.028900 0.000000
-5.936100 0.000000
-5.843300 0.000000
-5.750500 0.000000
-5.657700 0.000000
-5.564900 0.000000
-5.472100 0.000000
-5.379300 0.000000
-5.286400 0.000000
-5.193600 0.000000
-5.100800 0.000000
-5.008000 0.000000
-4.915200 0.000000
-4.822400 0.000000
-4.729600 0.000000
-4.636800 0.000000
-4.544000 0.000000
-4.451200 0.000000
-4.358400 0.000000
-4.265500 0.000000
-4.172700 0.000000
-4.079900 0.000000
-3.987100 0.000000
-3.894300 0.000000
-3.801500 0.000000
-3.708700 0.000000
-3.615900 0.000000
-3.523100 0.000000
-3.430300 0.000000
-3.337500 0.000000
-3.244600 0.000000
-3.151800 0.000000
-3.059000 0.000000
-2.966200 0.000000
-2.873400 0.000000
-2.780600 0.000000
-2.687800 0.000000
-2.595000 0.000000
-2.502200 0.000000
-2.409400 0.011800
-2.316500 0.037700
-2.223700 0.053100
-2.130900 0.068100
-2.038100 0.076800
-1.945300 0.085600
-1.852500 0.095700
-1.759700 0.107100
-1.666900 0.115100
-1.574100 0.123600
-1.481300 0.133100
-1.388500 0.141000
-1.295600 0.150200
-1.202800 0.161900
-1.110000 0.170500
-1.017200 0.178300
-0.924400 0.189500
-0.831600 0.199700
-0.738800 0.209900
-0.646000 0.221700
-0.553200 0.235200
-0.460400 0.248300
-0.367500 0.260200
-0.274700 0.275200
-0.181900 0.291400
-0.089100 0.308200
0.003700 0.326700
0.096500 0.349500
0.189300 0.374200
0.282100 0.400800
0.374900 0.438000
0.467700 0.478500
0.560500 0.531000
0.653400 0.601400
0.746200 0.779100
0.839000 0.793000
0.931800 0.807900
1.024600 0.799300
1.117400 0.772400
1.210200 0.769900
1.303000 0.766600
1.395800 0.778800
1.488600 0.777600
1.581500 0.923100
1.674300 1.076700
1.767100 1.366500
1.859900 1.401500
1.952700 0.969700
2.045500 0.828500
2.138300 0.706800
2.231100 0.615900
2.323900 0.543400
2.416700 0.455700
2.509500 0.488800
2.602400 0.527200
2.695200 0.615100
2.788000 0.712700
2.880800 1.628000
2.973600 2.264700
3.066400 2.587200
3.159200 2.620100
3.252000 2.705400
3.344800 2.873200
3.437600 2.482000
3.530400 2.480700
3.623300 2.667200
3.716100 2.104100
3.808900 1.653300
3.901700 1.378600
3.994500 1.269500
4.087300 1.164600
4.180100 1.087700
4.272900 1.018000
4.365700 0.957300
4.458500 0.930600
4.551400 0.826100
4.644200 0.723100
4.737000 0.649000
4.829800 0.417000
4.922600 0.261900
5.015400 0.230400
5.108200 0.291200
5.201000 0.363900
5.293800 0.438600
5.386600 0.636500
5.479400 0.748900
5.572300 0.835600
5.665100 0.873500
5.757900 0.913400
5.850700 0.959700
5.943500 0.979300
6.036300 1.016400
6.129100 1.061400
6.221900 1.091300
6.314700 1.141200
6.407500 1.205000
6.500400 1.385200
6.593200 1.490900
6.686000 1.486400
6.778800 1.468300
6.871600 1.469100
6.964400 1.557300
7.057200 1.292800
7.150000 1.538400
7.242800 1.542400
7.335600 1.888300
7.428400 2.021400
7.521300 2.607100
7.614100 3.054600
7.706900 4.556600
7.799700 4.729000
7.892500 2.665100
7.985300 1.116100
8.078100 0.921600
8.170900 0.844100
8.263700 0.761900
8.356500 0.709900
8.449300 0.670300
8.542200 0.611200
8.635000 0.484900
8.727800 0.481700
8.820600 0.503700
8.913400 0.532900
9.006200 0.565000
9.099000 0.638500
9.191800 0.670000
9.284600 0.732800
9.377400 0.796200
9.470300 0.863400
9.563100 0.925900
9.655900 1.000300
9.748700 1.025100
9.841500 0.994000
9.934300 1.008200
10.027100 0.895700
10.119900 0.659100
10.212700 0.399400
10.305500 0.270900
10.398300 0.054700
10.491200 0.067000
10.584000 0.145000
10.676800 0.654500
10.769600 1.113800
10.862400 1.164700
10.955200 1.031700
11.048000 0.970600
11.140800 0.912100
11.233600 0.882500
11.326400 0.878100
11.419300 0.846100
11.512100 0.831200
11.604900 0.787300
11.697700 0.681900
11.790500 0.646900
11.883300 0.641900
11.976100 0.647300
12.068900 0.654800
12.161700 0.668400
12.254500 0.673400
12.347300 0.703200
12.440200 0.754700
12.533000 0.918900
12.625800 1.012000
12.718600 1.097300
12.811400 1.246600
12.904200 1.297400
12.997000 1.224000
13.089800 1.180900
13.182600 1.154200
13.275400 1.150100
13.368300 1.116500
13.461100 1.074200
13.553900 1.034900
13.646700 0.936900
13.739500 0.902900
13.832300 0.874800
13.925100 0.856400
14.017900 0.866000
14.110700 0.892900
14.203500 0.931800
14.296300 1.039900
14.389200 1.186800
14.482000 1.415000
14.574800 1.510200
14.667600 1.388500
14.760400 1.158300
14.853200 1.107900
14.946000 1.092000
15.038800 1.095700
15.131600 1.116400
15.224400 1.209300
15.317200 1.341300
15.410100 1.303100
15.502900 1.231200
15.595700 1.086700
15.688500 0.996300
15.781300 0.901600
15.874100 0.849600
15.966900 0.805000
16.059700 0.729800
16.152500 0.687700
16.245300 0.647200
16.338200 0.618600
16.431000 0.576400
16.523800 0.549500
16.616600 0.584100
16.709400 0.519900
16.802200 0.525500
16.895000 0.527700
16.987800 0.542800
17.080600 0.561600
17.173400 0.551000
17.266200 0.532000
17.359100 0.522000
17.451900 0.454700
17.544700 0.591800
17.637500 0.816300
17.730300 0.882800
17.823100 0.929700
17.915900 1.081600
18.008700 1.644600
18.101500 2.046400
18.194300 1.314000
18.287200 1.113300
18.380000 0.996300
18.472800 0.915900
18.565600 0.902300
18.658400 0.944000
18.751200 0.989400
18.844000 1.054400
18.936800 1.072800
19.029600 1.169600
19.122400 1.272300
19.215200 1.307300
19.308100 1.174100
19.400900 0.920800
19.493700 0.783800
19.586500 0.669200
19.679300 0.671500
19.772100 0.716100
19.864900 0.796100
19.957700 0.887100
20.050500 1.005900
20.143300 1.143700
20.236200 1.325300
20.329000 1.629700
20.421800 1.616900
20.514600 1.488400
20.607400 1.382300
20.700200 1.191000
20.793000 1.085200
20.885800 1.040700
20.978600 0.989500
21.071400 0.951000
21.164200 0.903500
21.257100 0.851800
21.349900 0.776500
21.442700 0.766200
21.535500 0.745900
21.628300 0.759000
21.721100 0.836100
21.813900 0.992400
21.906700 1.038900
21.999500 1.054400
22.092300 1.105400
22.185100 1.178400
22.278000 1.511800
22.370800 1.696800
22.463600 1.786400
22.556400 1.520300
22.649200 1.209300
22.742000 1.200400
22.834800 1.137200
22.927600 1.140500
23.020400 1.188900
23.113200 1.373100
23.206100 1.358100
23.298900 1.422700
23.391700 1.366700
23.484500 1.292100
23.577300 1.340600
23.670100 1.348100
23.762900 1.234900
23.855700 1.080300
23.948500 0.998000
24.041300 0.892800
24.134100 0.847500
24.227000 0.777000
24.319800 0.681300
24.412600 0.682000
24.505400 0.675300
24.598200 0.672800
24.691000 0.675400
24.783800 0.719300
24.876600 0.828700
24.969400 0.964400
25.062200 0.969600
25.155100 1.029400
25.247900 1.107800
25.340700 1.232300
25.433500 1.362600
25.526300 1.501500
25.619100 1.638500
25.711900 1.595500
25.804700 1.465600
25.897500 1.415800
25.990300 1.345600
26.083100 1.299500
26.176000 1.241200
26.268800 1.147900
26.361600 1.108900
26.454400 1.045200
26.547200 0.983300
26.640000 0.983800
26.732800 1.061900
26.825600 1.117100
26.918400 1.137400
27.011200 1.219300
27.104000 1.359600
27.196900 1.496800
27.289700 1.547100
27.382500 1.464900
27.475300 1.236000
27.568100 1.138800
27.660900 1.103200
27.753700 1.002500
27.846500 0.923000
27.939300 0.812900
28.032100 0.842400
28.125000 0.966100
28.217800 1.111800
28.310600 1.186600
28.403400 1.404500
28.496200 1.720900
28.589000 1.736200
28.681800 1.733500
28.774600 1.651300
28.867400 1.508100
28.960200 1.328300
29.053000 1.208000
29.145900 1.171600
29.238700 1.232500
29.331500 1.373200
29.424300 1.444500
29.517100 1.453000
29.609900 1.532800
29.702700 1.504800
29.795500 1.492700
29.888300 1.459500
29.981100 1.422500
30.074000 1.385500
30.166800 1.364000
30.259600 1.353600
30.352400 1.320200
30.445200 1.336800
30.538000 1.312900
30.630800 1.318900
30.723600 1.369800
30.816400 1.349800
30.909200 1.555100
31.002000 1.532600
31.094900 1.583600
31.187700 1.701300
31.280500 1.512700
31.373300 1.365200
31.466100 1.270800
31.558900 1.211000
31.651700 1.206900
31.744500 1.172900
31.837300 0.987900
31.930100 0.839500
32.023000 0.716500
32.115800 0.668200
32.208600 0.702600
32.301400 0.718500
32.394200 0.930600
32.487000 1.130600
32.579800 1.316700
32.672600 1.519600
32.765400 1.662400
32.858200 1.547000
32.951000 1.435600
33.043900 1.195700
33.136700 1.063400
33.229500 1.028500
33.322300 1.024200
33.415100 1.031000
33.507900 1.034800
33.600700 0.947500
33.693500 1.086000
33.786300 1.220000
33.879100 1.458700
33.971900 1.393900
34.064800 1.452800
34.157600 1.563000
34.250400 1.635400
34.343200 1.703000
34.436000 1.821400
34.528800 1.845000
34.621600 1.924600
34.714400 1.868900
34.807200 1.789100
34.900000 1.886600
34.992900 1.945100
35.085700 2.031600
35.178500 2.416000
35.271300 3.761600
35.364100 4.533800
35.456900 3.496600
35.549700 2.761100
35.642500 2.556300
35.735300 2.219000
35.828100 1.890600
35.920900 1.790500
36.013800 1.618800
36.106600 1.602600
36.199400 1.523300
36.292200 1.404400
36.385000 1.388400
36.477800 1.397600
36.570600 1.434500
36.663400 1.450500
36.756200 1.395900
36.849000 1.460700
36.941900 1.566600
37.034700 1.413300
37.127500 1.356400
37.220300 1.271700
37.313100 1.266200
37.405900 1.236000
37.498700 1.257600
37.591500 1.329000
37.684300 1.503100
37.777100 1.630700
37.869900 1.664900
37.962800 1.594800
38.055600 1.584700
38.148400 1.577700
38.241200 1.569300
38.334000 1.539400
38.426800 1.488500
38.519600 1.669900
38.612400 1.615900
38.705200 1.564300
38.798000 1.446200
38.890900 1.358800
38.983700 1.253800
39.076500 1.212600
39.169300 1.176500
39.262100 1.262500
39.354900 1.338600
39.447700 1.390900
39.540500 1.426800
39.633300 1.442600
39.726100 1.461000
39.818900 1.518400
39.911800 1.569800
40.004600 1.605100
40.097400 1.592500
40.190200 1.586700
40.283000 1.619900
40.375800 1.582800
40.468600 1.538200
40.561400 1.502900
40.654200 1.524200
40.747000 1.551500
40.839800 1.590400
40.932700 1.514100
41.025500 1.401200
41.118300 1.271100
41.211100 1.327300
41.303900 1.385100
41.396700 1.430600
41.489500 1.458600
41.582300 1.516400
41.675100 1.503600
41.767900 1.502900
41.860800 1.493600
41.953600 1.488900
42.046400 1.490700
42.139200 1.581400
42.232000 1.561900
42.324800 1.476900
42.417600 1.399800
42.510400 1.326400
42.603200 1.255400
42.696000 1.317600
42.788800 1.202500
42.881700 1.314600
42.974500 1.427000
43.067300 1.327300
43.160100 1.362400
43.252900 1.330200
43.345700 1.448600
43.438500 1.456400
43.531300 1.373300
43.624100 1.379500
43.716900 1.373500
43.809800 1.394200
43.902600 1.397300
43.995400 1.439100
44.088200 1.482600
44.181000 1.463700
44.273800 1.423000
44.366600 1.310900
44.459400 1.367100
44.552200 1.553700
44.645000 1.644400
44.737800 1.796600
44.830700 1.857600
44.923500 1.830800
45.016300 1.742600
45.109100 1.561100
45.201900 1.441100
45.294700 1.391000
45.387500 1.357400
45.480300 1.374700
45.573100 1.405800
45.665900 1.405500
45.758700 1.425600
45.851600 1.481400
45.944400 1.481900
46.037200 1.480300
46.130000 1.469800
46.222800 1.447500
46.315600 1.447500
46.408400 1.476300
46.501200 1.547200
46.594000 1.554000
46.686800 1.459700
46.779700 1.409200
46.872500 1.482500
46.965300 1.504300
47.058100 1.588800
47.150900 1.547600
47.243700 1.448000
47.336500 1.452900
47.429300 1.546900
47.522100 1.596700
47.614900 1.714600
47.707700 1.802700
47.800600 1.706900
47.893400 1.643100
47.986200 1.701200
48.079000 1.570300
48.171800 1.504800
48.264600 1.465300
48.357400 1.415800
48.450200 1.465900
48.543000 1.536500
48.635800 1.548600
48.728700 1.652000
48.821500 1.432900
48.914300 1.417500
49.007100 1.476400
49.099900 1.505600
49.192700 1.593600
49.285500 1.651200
49.378300 1.643300
49.471100 1.679400
49.563900 1.745600
49.656700 1.786100
49.749600 1.770100
49.842400 1.634900
49.935200 1.447400
50.028000 1.291700
50.120800 1.288600
50.213600 1.410900
50.306400 1.447300
50.399200 1.515400
50.492000 1.592900
50.584800 1.515000
50.677700 1.459900
50.770500 1.424200
50.863300 1.475900
50.956100 1.541400
51.048900 1.641000
51.141700 1.676800
51.234500 1.686300
51.327300 1.632300
51.420100 1.571100
51.512900 1.523000
51.605700 1.499100
51.698600 1.531300
51.791400 1.548600
51.884200 1.532600
51.977000 1.533400
52.069800 1.535200
52.162600 1.603100
52.255400 1.688000
52.348200 1.737800
52.441000 1.554200
52.533800 1.457200
52.626600 1.556100
52.719500 1.783100
52.812300 1.948500
52.905100 1.879000
52.997900 1.821700
53.090700 1.758700
53.183500 1.692000
53.276300 1.599700
53.369100 1.487800
53.461900 1.393000
53.554700 1.363000
53.647600 1.306100
53.740400 1.338300
53.833200 1.420200
53.926000 1.440500
54.018800 1.403700
54.111600 1.446100
54.204400 1.445600
54.297200 1.458700
54.390000 1.580000
54.482800 1.601500
54.575600 1.572200
54.668500 1.597800
54.761300 1.523200
54.854100 1.565200
54.946900 1.505800
55.039700 1.508100
55.132500 1.619300
55.225300 1.785900
55.318100 2.075800
55.410900 2.103800
55.503700 2.033200
55.596600 1.901600
55.689400 1.841600
55.782200 1.885600
55.875000 2.060300
55.967800 2.034300
56.060600 1.907200
56.153400 1.825800
56.246200 1.765200
56.339000 1.642400
56.431800 1.576400
56.524600 1.501400
56.617500 1.438500
56.710300 1.309600
56.803100 1.369600
56.895900 1.467500
56.988700 1.538100
57.081500 1.606100
57.174300 1.802000
57.267100 1.715800
57.359900 1.649400
57.452700 1.662700
57.545600 1.628300
57.638400 1.541800
57.731200 1.514000
57.824000 1.514400
57.916800 1.498500
58.009600 1.430700
58.102400 1.375300
58.195200 1.374900
58.288000 1.374700
58.380800 1.454200
58.473600 1.597000
58.566500 1.809100
58.659300 2.084400
58.752100 2.193700
58.844900 2.046900
58.937700 2.058300
59.030500 1.887100
59.123300 1.759400
59.216100 1.605900
59.308900 1.521000
59.401700 1.544400
59.494500 1.604000
59.587400 1.718400
59.680200 1.747200
59.773000 1.735000
59.865800 1.670700
59.958600 1.633200
60.051400 1.636500
60.144200 1.676200
60.237000 1.741600
60.329800 1.841000
60.422600 1.706600
60.515500 1.663100
60.608300 1.570600
60.701100 1.516600
60.793900 1.513400
60.886700 1.535500
60.979500 1.618200
61.072300 1.736700
61.165100 1.787900
61.257900 1.949100
61.350700 1.925600
61.443500 2.030100
61.536400 2.214700
61.629200 2.090800
61.722000 1.925000
61.814800 1.801100
61.907600 1.759200
62.000400 1.763900
62.093200 1.778300
62.186000 1.689500
62.278800 1.626000
62.371600 1.590800
62.464500 1.541300
62.557300 1.457500
62.650100 1.392000
62.742900 1.343500
62.835700 1.345000
62.928500 1.395500
63.021300 1.529700
63.114100 1.675200
63.206900 1.842500
63.299700 2.136100
63.392500 2.041200
63.485400 2.011600
63.578200 2.092500
63.671000 2.046000
63.763800 2.053600
63.856600 1.904300
63.949400 1.860400
64.042200 1.857100
64.135000 1.782900
64.227800 1.795800
64.320600 1.810600
64.413400 1.750700
64.506300 1.558700
64.599100 1.615000
64.691900 1.679100
64.784700 1.693700
64.877500 1.618300
64.970300 1.638900
65.063100 1.742600
65.155900 1.833400
65.248700 1.821600
