set title 'mp-971966 - Density of States'
set xlabel 'Energy (eV)'
set ylabel 'DOS (states/eV)'
set grid
set xrange [-10:10]
set yrange [0:81.542]
set xzeroaxis lt -1
set terminal png size 800,600
set output 'mp-971966_dos_gnuplot.png'
plot '-' using 1:2 with lines title 'DOS'
-8.702600 0.000000
-8.682600 0.000000
-8.662500 0.000000
-8.642500 0.000000
-8.622400 0.000000
-8.602400 0.000000
-8.582300 0.000000
-8.562300 0.000000
-8.542200 0.000000
-8.522200 0.000000
-8.502100 0.000000
-8.482100 0.000000
-8.462000 0.000000
-8.442000 0.000000
-8.422000 0.000000
-8.401900 0.000000
-8.381900 0.000000
-8.361800 0.000000
-8.341800 0.000000
-8.321700 0.000000
-8.301700 0.000000
-8.281600 0.000000
-8.261600 0.000000
-8.241500 0.000000
-8.221500 0.000000
-8.201400 0.000000
-8.181400 0.000000
-8.161400 0.000000
-8.141300 0.000000
-8.121300 0.000000
-8.101200 0.000000
-8.081200 0.000000
-8.061100 0.000000
-8.041100 0.000000
-8.021000 0.000000
-8.001000 0.000000
-7.980900 0.000000
-7.960900 0.000000
-7.940800 0.000000
-7.920800 0.000000
-7.900700 0.000000
-7.880700 0.000000
-7.860700 0.000000
-7.840600 0.000000
-7.820600 0.000000
-7.800500 0.000000
-7.780500 0.000000
-7.760400 0.000000
-7.740400 0.000000
-7.720300 0.000000
-7.700300 0.000000
-7.680200 0.000000
-7.660200 0.000000
-7.640100 0.000000
-7.620100 0.000000
-7.600100 0.000000
-7.580000 0.000000
-7.560000 0.000000
-7.539900 0.000000
-7.519900 0.000000
-7.499800 0.000000
-7.479800 0.000000
-7.459700 0.000000
-7.439700 0.000000
-7.419600 0.000000
-7.399600 0.000000
-7.379500 0.000000
-7.359500 0.000000
-7.339500 0.000000
-7.319400 0.000000
-7.299400 0.000000
-7.279300 0.000000
-7.259300 0.000000
-7.239200 0.000000
-7.219200 0.000000
-7.199100 0.000000
-7.179100 0.000000
-7.159000 0.000000
-7.139000 0.000000
-7.118900 0.000000
-7.098900 0.000000
-7.078900 0.000000
-7.058800 0.000000
-7.038800 0.000000
-7.018700 0.000000
-6.998700 0.000000
-6.978600 0.000000
-6.958600 0.000000
-6.938500 0.000000
-6.918500 0.000000
-6.898400 0.000000
-6.878400 0.000100
-6.858300 0.017400
-6.838300 0.064000
-6.818300 0.126700
-6.798200 0.183100
-6.778200 0.200800
-6.758100 0.219000
-6.738100 0.238800
-6.718000 0.262000
-6.698000 0.273000
-6.677900 0.297000
-6.657900 0.321900
-6.637800 0.347700
-6.617800 0.372300
-6.597700 0.389800
-6.577700 0.400800
-6.557700 0.414800
-6.537600 0.429800
-6.517600 0.446000
-6.497500 0.462300
-6.477500 0.478500
-6.457400 0.495200
-6.437400 0.513300
-6.417300 0.531700
-6.397300 0.550500
-6.377200 0.570100
-6.357200 0.591200
-6.337100 0.613700
-6.317100 0.635200
-6.297100 0.655700
-6.277000 0.675600
-6.257000 0.695500
-6.236900 0.716500
-6.216900 0.739100
-6.196800 0.762400
-6.176800 0.786400
-6.156700 0.811100
-6.136700 0.840200
-6.116600 0.879700
-6.096600 0.950400
-6.076500 1.008300
-6.056500 1.042800
-6.036400 1.054500
-6.016400 1.073700
-5.996400 1.066000
-5.976300 1.085400
-5.956300 1.106000
-5.936200 1.128300
-5.916200 1.151300
-5.896100 1.161300
-5.876100 1.172100
-5.856000 1.187100
-5.836000 1.208700
-5.815900 1.235100
-5.795900 1.262500
-5.775800 1.291100
-5.755800 1.320300
-5.735800 1.350400
-5.715700 1.382900
-5.695700 1.418100
-5.675600 1.455600
-5.655600 1.495600
-5.635500 1.537200
-5.615500 1.582000
-5.595400 1.658400
-5.575400 1.767900
-5.555300 1.912700
-5.535300 2.082500
-5.515200 2.420400
-5.495200 2.594300
-5.475200 2.785100
-5.455100 2.683600
-5.435100 2.569900
-5.415000 2.253300
-5.395000 2.037400
-5.374900 1.900200
-5.354900 1.774900
-5.334800 1.666800
-5.314800 1.604700
-5.294700 1.600400
-5.274700 1.567000
-5.254600 1.523400
-5.234600 1.477700
-5.214600 1.428600
-5.194500 1.383700
-5.174500 1.345200
-5.154400 1.319200
-5.134400 1.328000
-5.114300 1.407800
-5.094300 1.420800
-5.074200 1.250900
-5.054200 1.084100
-5.034100 2.208200
-5.014100 0.000000
-4.994000 0.000000
-4.974000 0.000000
-4.954000 0.000000
-4.933900 0.000000
-4.913900 0.000000
-4.893800 0.000000
-4.873800 0.000000
-4.853700 0.000000
-4.833700 0.000000
-4.813600 0.000000
-4.793600 0.000000
-4.773500 0.000000
-4.753500 0.000000
-4.733400 0.000000
-4.713400 0.000000
-4.693400 0.000000
-4.673300 0.000000
-4.653300 0.000000
-4.633200 0.000000
-4.613200 0.000000
-4.593100 0.000000
-4.573100 0.000000
-4.553000 0.000000
-4.533000 0.000000
-4.512900 0.000000
-4.492900 0.000000
-4.472800 0.000000
-4.452800 0.000000
-4.432800 0.000000
-4.412700 0.000000
-4.392700 0.000000
-4.372600 0.000000
-4.352600 0.000000
-4.332500 0.000000
-4.312500 0.000000
-4.292400 0.000000
-4.272400 0.000000
-4.252300 0.000000
-4.232300 0.000000
-4.212200 0.000000
-4.192200 0.000000
-4.172200 0.000000
-4.152100 0.000000
-4.132100 0.000000
-4.112000 0.000000
-4.092000 0.000000
-4.071900 0.000000
-4.051900 0.000000
-4.031800 0.000000
-4.011800 0.000000
-3.991700 0.000000
-3.971700 0.000000
-3.951600 0.000000
-3.931600 0.000000
-3.911500 0.000000
-3.891500 0.000000
-3.871500 0.000000
-3.851400 0.000000
-3.831400 0.000000
-3.811300 0.000000
-3.791300 0.000000
-3.771200 0.000000
-3.751200 0.000000
-3.731100 0.000000
-3.711100 0.000000
-3.691000 0.000000
-3.671000 0.000000
-3.650900 0.000000
-3.630900 0.000000
-3.610900 0.000000
-3.590800 0.000000
-3.570800 0.000000
-3.550700 0.000000
-3.530700 0.000000
-3.510600 0.000000
-3.490600 0.000000
-3.470500 0.000000
-3.450500 0.000000
-3.430400 0.000000
-3.410400 0.000000
-3.390300 0.000000
-3.370300 0.000000
-3.350300 0.000000
-3.330200 0.000000
-3.310200 0.000000
-3.290100 0.000000
-3.270100 0.083400
-3.250000 0.240800
-3.230000 0.436100
-3.209900 0.564700
-3.189900 0.750000
-3.169800 0.989500
-3.149800 1.252200
-3.129700 3.515200
-3.109700 6.419100
-3.089700 10.537700
-3.069600 10.521300
-3.049600 12.393200
-3.029500 16.023200
-3.009500 16.238600
-2.989400 8.937500
-2.969400 7.659100
-2.949300 10.061200
-2.929300 29.858500
-2.909200 42.335700
-2.889200 46.251300
-2.869100 49.352100
-2.849100 52.514600
-2.829100 54.159600
-2.809000 51.574700
-2.789000 29.354000
-2.768900 29.372200
-2.748900 34.661900
-2.728800 26.752400
-2.708800 32.775700
-2.688700 43.817800
-2.668700 44.223000
-2.648600 38.162200
-2.628600 40.236600
-2.608500 28.779700
-2.588500 42.538100
-2.568500 42.438400
-2.548400 48.952800
-2.528400 32.726700
-2.508300 74.129100
-2.488300 56.590900
-2.468200 47.884300
-2.448200 43.354300
-2.428100 31.917800
-2.408100 51.267200
-2.388000 48.715800
-2.368000 46.009600
-2.347900 33.884300
-2.327900 37.795900
-2.307900 25.474500
-2.287800 29.199800
-2.267800 18.087900
-2.247700 10.331800
-2.227700 7.424400
-2.207600 5.371300
-2.187600 4.368800
-2.167500 4.552400
-2.147500 3.297700
-2.127400 1.295700
-2.107400 1.247200
-2.087300 1.166900
-2.067300 1.014400
-2.047200 0.311100
-2.027200 0.315300
-2.007200 0.320600
-1.987100 0.307900
-1.967100 0.309900
-1.947000 0.316600
-1.927000 0.322600
-1.906900 0.328200
-1.886900 0.333200
-1.866800 0.377400
-1.846800 0.627200
-1.826700 0.766900
-1.806700 0.854400
-1.786600 0.948000
-1.766600 1.036300
-1.746600 1.127700
-1.726500 1.225600
-1.706500 1.351300
-1.686400 1.463900
-1.666400 1.512100
-1.646300 1.560500
-1.626300 1.564600
-1.606200 1.562600
-1.586200 1.576400
-1.566100 1.534500
-1.546100 1.501900
-1.526000 1.481000
-1.506000 1.456100
-1.486000 1.427700
-1.465900 1.398600
-1.445900 1.370000
-1.425800 1.328500
-1.405800 1.273400
-1.385700 1.258900
-1.365700 1.257500
-1.345600 1.261300
-1.325600 1.267900
-1.305500 1.268800
-1.285500 1.268500
-1.265400 1.266900
-1.245400 1.264100
-1.225400 1.253600
-1.205300 1.251400
-1.185300 1.249100
-1.165200 1.263400
-1.145200 1.362500
-1.125100 1.261900
-1.105100 1.269100
-1.085000 1.277200
-1.065000 1.287500
-1.044900 1.301000
-1.024900 1.340800
-1.004800 1.374700
-0.984800 1.385600
-0.964800 1.390200
-0.944700 1.387800
-0.924700 1.379600
-0.904600 1.367100
-0.884600 1.357400
-0.864500 1.351400
-0.844500 1.346800
-0.824400 1.345500
-0.804400 1.346200
-0.784300 1.343700
-0.764300 1.335200
-0.744200 1.329700
-0.724200 1.320000
-0.704200 1.308100
-0.684100 1.304000
-0.664100 1.301100
-0.644000 1.298500
-0.624000 1.328300
-0.603900 1.320800
-0.583900 1.311500
-0.563800 1.404400
-0.543800 1.576700
-0.523700 1.213600
-0.503700 1.078800
-0.483600 1.018500
-0.463600 1.021200
-0.443600 1.022800
-0.423500 1.040200
-0.403500 1.029300
-0.383400 1.029000
-0.363400 1.035600
-0.343300 1.073700
-0.323300 1.068000
-0.303200 1.070800
-0.283200 1.078500
-0.263100 1.089800
-0.243100 1.102500
-0.223000 1.116400
-0.203000 1.128900
-0.182900 1.140100
-0.162900 1.150300
-0.142900 1.168000
-0.122800 1.181000
-0.102800 1.195300
-0.082700 1.211200
-0.062700 1.227300
-0.042600 1.244500
-0.022600 1.262200
-0.002500 1.260400
0.017500 1.267800
0.037600 1.234700
0.057600 1.216500
0.077700 1.206300
0.097700 1.197400
0.117700 1.190500
0.137800 1.184000
0.157800 1.178700
0.177900 1.176000
0.197900 1.180100
0.218000 1.179600
0.238000 1.195600
0.258100 1.236900
0.278100 1.218200
0.298200 1.209800
0.318200 1.200400
0.338300 1.202700
0.358300 1.210200
0.378300 1.217500
0.398400 1.219000
0.418400 1.218200
0.438500 1.217300
0.458500 1.222100
0.478600 1.259000
0.498600 1.253700
0.518700 1.243600
0.538700 1.240700
0.558800 1.286100
0.578800 1.354000
0.598900 1.284500
0.618900 1.301500
0.638900 1.322000
0.659000 1.342400
0.679000 1.361900
0.699100 1.380500
0.719100 1.398400
0.739200 1.418100
0.759200 1.456000
0.779300 1.490400
0.799300 1.488400
0.819400 1.442200
0.839400 1.442400
0.859500 1.441700
0.879500 1.440400
0.899500 1.436800
0.919600 1.431800
0.939600 1.429100
0.959700 1.439400
0.979700 1.424600
0.999800 1.412400
1.019800 1.375800
1.039900 1.340300
1.059900 1.317100
1.080000 1.298700
1.100000 1.286800
1.120100 1.273000
1.140100 1.257400
1.160100 1.244400
1.180200 1.254400
1.200200 1.221000
1.220300 1.221300
1.240300 1.227900
1.260400 1.240000
1.280400 1.191700
1.300500 1.188900
1.320500 1.187900
1.340600 1.188500
1.360600 1.189700
1.380700 1.185900
1.400700 1.185000
1.420700 1.182100
1.440800 1.199200
1.460800 1.253900
1.480900 1.422000
1.500900 1.257300
1.521000 1.228300
1.541000 1.244700
1.561100 1.269100
1.581100 1.303000
1.601200 1.348500
1.621200 1.400600
1.641300 1.452900
1.661300 1.508000
1.681400 1.589000
1.701400 1.667100
1.721400 1.676000
1.741500 1.700900
1.761500 1.701400
1.781600 1.666200
1.801600 1.648800
1.821700 1.608300
1.841700 1.577200
1.861800 1.588200
1.881800 1.537700
1.901900 1.463200
1.921900 1.433100
1.942000 1.455700
1.962000 1.494100
1.982000 1.434100
2.002100 1.358900
2.022100 1.296700
2.042200 1.244200
2.062200 1.200800
2.082300 1.167000
2.102300 1.141900
2.122400 1.125200
2.142400 1.113300
2.162500 1.111900
2.182500 1.116100
2.202600 1.123200
2.222600 1.132600
2.242600 1.143600
2.262700 1.155700
2.282700 1.172800
2.302800 1.193600
2.322800 1.217100
2.342900 1.243400
2.362900 1.272600
2.383000 1.313400
2.403000 1.351800
2.423100 1.385800
2.443100 1.419700
2.463200 1.456300
2.483200 1.489800
2.503200 1.502400
2.523300 1.501000
2.543300 1.535000
2.563400 1.568300
2.583400 1.589900
2.603500 1.612300
2.623500 1.505200
2.643600 1.423900
2.663600 1.368900
2.683700 1.335800
2.703700 1.323900
2.723800 1.317500
2.743800 1.308700
2.763800 1.308200
2.783900 1.301100
2.803900 1.286100
2.824000 1.274300
2.844000 1.266600
2.864100 1.269500
2.884100 1.308000
2.904200 1.354400
2.924200 1.411700
2.944300 1.463300
2.964300 1.667800
2.984400 1.488700
3.004400 1.465500
3.024400 1.446500
3.044500 1.431900
3.064500 1.422700
3.084600 1.393100
3.104600 1.391600
3.124700 1.386700
3.144700 1.385000
3.164800 1.383300
3.184800 1.382900
3.204900 1.385500
3.224900 1.391800
3.245000 1.393400
3.265000 1.370700
3.285000 1.348600
3.305100 1.350100
3.325100 1.359900
3.345200 1.366700
3.365200 1.355900
3.385300 1.336600
3.405300 1.327300
3.425400 1.322000
3.445400 1.335200
3.465500 1.444000
3.485500 1.547800
3.505600 1.565700
3.525600 1.597900
3.545700 1.625100
3.565700 1.643600
3.585700 1.669200
3.605800 1.705100
3.625800 1.763400
3.645900 1.768000
3.665900 1.559000
3.686000 1.509800
3.706000 1.459600
3.726100 1.437100
3.746100 1.426000
3.766200 1.427700
3.786200 1.439800
3.806300 1.458800
3.826300 1.481000
3.846300 1.503700
3.866400 1.529400
3.886400 1.637400
3.906500 1.528800
3.926500 1.503700
3.946600 1.505000
3.966600 1.511200
3.986700 1.520800
4.006700 1.532100
4.026800 1.543500
4.046800 1.551700
4.066900 1.558500
4.086900 1.564500
4.106900 1.569700
4.127000 1.574000
4.147000 1.560700
4.167100 1.559700
4.187100 1.557800
4.207200 1.555300
4.227200 1.556700
4.247300 1.654800
4.267300 1.670800
4.287400 1.677000
4.307400 1.642000
4.327500 1.608000
4.347500 1.569700
4.367500 1.552400
4.387600 1.528000
4.407600 1.481500
4.427700 1.442300
4.447700 1.421400
4.467800 1.403500
4.487800 1.387000
4.507900 1.374500
4.527900 1.364000
4.548000 1.355300
4.568000 1.349600
4.588100 1.389300
4.608100 1.287500
4.628100 1.273700
4.648200 1.263600
4.668200 1.255300
4.688300 1.250600
4.708300 1.250800
4.728400 1.256500
4.748400 1.265500
4.768500 1.276700
4.788500 1.285300
4.808600 1.294500
4.828600 1.317600
4.848700 1.359000
4.868700 1.324100
4.888700 1.292200
4.908800 1.289100
4.928800 1.285900
4.948900 1.283400
4.968900 1.282500
4.989000 1.282400
5.009000 1.283700
5.029100 1.286700
5.049100 1.293900
5.069200 1.332300
5.089200 1.414500
5.109300 1.377000
5.129300 1.386900
5.149300 1.365000
5.169400 1.370300
5.189400 1.384700
5.209500 1.399100
5.229500 1.413100
5.249600 1.426400
5.269600 1.419200
5.289700 1.426500
5.309700 1.433200
5.329800 1.464300
5.349800 1.501300
5.369900 1.539900
5.389900 1.584100
5.410000 1.629500
5.430000 1.682400
5.450000 1.734800
5.470100 1.782500
5.490100 1.825700
5.510200 1.862900
5.530200 1.895700
5.550300 1.919900
5.570300 1.940500
5.590400 1.959600
5.610400 1.977800
5.630500 1.994400
5.650500 2.010100
5.670600 2.018800
5.690600 2.029500
5.710600 2.037400
5.730700 2.043800
5.750700 2.046500
5.770800 2.047000
5.790800 2.046300
5.810900 2.049100
5.830900 2.063100
5.851000 2.057100
5.871000 2.035600
5.891100 2.001300
5.911100 1.966500
5.931200 1.938700
5.951200 1.880100
5.971200 1.824500
5.991300 1.801000
6.011300 1.778100
6.031400 1.744000
6.051400 1.690100
6.071500 1.625500
6.091500 1.768200
6.111600 1.625100
6.131600 1.625100
6.151700 1.641600
6.171700 1.739200
6.191800 1.718400
6.211800 1.717700
6.231800 1.741300
6.251900 1.774700
6.271900 1.814400
6.292000 1.835000
6.312000 1.850300
6.332100 1.860400
6.352100 1.867800
6.372200 1.871200
6.392200 1.841500
6.412300 1.838900
6.432300 1.843000
6.452400 1.847900
6.472400 1.844600
6.492400 1.825700
6.512500 1.814000
6.532500 1.803200
6.552600 1.789100
6.572600 1.799900
6.592700 1.848600
6.612700 1.940700
6.632800 1.818700
6.652800 1.777400
6.672900 1.777000
6.692900 1.779400
6.713000 1.757100
6.733000 1.733800
6.753000 1.707100
6.773100 1.680700
6.793100 1.654500
6.813200 1.628000
6.833200 1.610700
6.853300 1.577400
6.873300 1.557900
6.893400 1.553600
6.913400 1.548900
6.933500 1.539300
6.953500 1.504600
6.973600 1.492800
6.993600 1.501600
7.013600 1.509200
7.033700 1.524000
7.053700 1.529800
7.073800 1.522500
7.093800 1.514000
7.113900 1.509500
7.133900 1.503700
7.154000 1.496300
7.174000 1.488000
7.194100 1.482900
7.214100 1.474800
7.234200 1.457600
7.254200 1.460700
7.274300 1.466600
7.294300 1.456100
7.314300 1.448300
7.334400 1.454000
7.354400 1.515200
7.374500 1.624300
7.394500 1.676900
7.414600 1.691400
7.434600 1.707800
7.454700 1.724400
7.474700 1.725800
7.494800 1.697300
7.514800 1.678100
7.534900 1.683900
7.554900 1.715900
7.574900 1.738900
7.595000 1.766600
7.615000 1.794700
7.635100 1.845600
7.655100 1.880900
7.675200 1.906900
7.695200 1.885900
7.715300 1.870800
7.735300 1.834400
7.755400 1.764000
7.775400 1.684700
7.795500 1.630400
7.815500 1.686200
7.835500 1.558800
7.855600 1.532700
7.875600 1.489700
7.895700 1.450000
7.915700 1.415600
7.935800 1.447400
7.955800 1.426400
7.975900 1.412900
7.995900 1.412900
8.016000 1.428500
8.036000 1.431700
8.056100 1.442300
8.076100 1.460500
8.096100 1.455700
8.116200 1.490400
8.136200 1.532900
8.156300 1.583500
8.176300 1.630000
8.196400 1.667400
8.216400 1.713900
8.236500 1.776100
8.256500 1.822300
8.276600 1.869600
8.296600 1.946000
8.316700 2.013500
8.336700 2.075500
8.356700 2.140900
8.376800 2.197900
8.396800 2.245900
8.416900 2.266600
8.436900 2.273000
8.457000 2.295500
8.477000 2.305000
8.497100 2.197600
8.517100 2.151800
8.537200 2.132700
8.557200 2.136300
8.577300 2.152600
8.597300 2.162600
8.617300 2.161400
8.637400 2.116600
8.657400 2.106800
8.677500 2.101100
8.697500 2.090400
8.717600 2.090500
8.737600 2.091600
8.757700 2.093600
8.777700 2.096500
8.797800 2.105000
8.817800 2.127400
8.837900 2.155000
8.857900 2.171300
8.877900 2.198900
8.898000 2.204700
8.918000 2.212100
8.938100 2.235600
8.958100 2.241500
8.978200 2.209000
8.998200 2.185900
9.018300 2.174100
9.038300 2.146900
9.058400 2.114500
9.078400 2.095100
9.098500 2.094500
9.118500 2.097300
9.138600 2.093300
9.158600 2.079200
9.178600 2.059000
9.198700 2.056700
9.218700 2.072000
9.238800 2.098000
9.258800 2.136900
9.278900 2.160900
9.298900 2.159500
9.319000 2.155100
9.339000 2.138100
9.359100 2.116300
9.379100 2.088000
9.399200 2.075500
9.419200 2.074600
9.439200 2.052700
9.459300 2.031000
9.479300 2.028900
9.499400 2.021500
9.519400 1.961600
9.539500 1.949600
9.559500 1.943400
9.579600 1.933700
9.599600 1.962900
9.619700 1.931000
9.639700 1.893800
9.659800 1.865800
9.679800 1.966000
9.699800 1.929500
9.719900 1.913400
9.739900 1.908900
9.760000 1.931900
9.780000 1.977700
9.800100 1.978400
9.820100 1.984900
9.840200 1.997400
9.860200 2.014800
9.880300 2.029400
9.900300 2.043500
9.920400 2.055400
9.940400 2.016500
9.960400 2.022700
9.980500 2.039800
10.000500 2.058000
10.020600 2.073600
10.040600 2.175800
10.060700 2.167500
10.080700 2.161500
10.100800 2.165800
10.120800 2.183000
10.140900 2.229600
10.160900 2.231800
10.181000 2.226100
10.201000 2.245400
10.221000 2.249000
10.241100 2.254400
10.261100 2.251100
10.281200 2.239100
10.301200 2.217800
10.321300 2.191700
10.341300 2.160800
10.361400 2.133400
10.381400 2.099100
10.401500 2.069400
10.421500 2.046200
10.441600 2.029900
10.461600 2.021400
10.481600 2.055700
10.501700 2.173600
10.521700 2.219200
10.541800 2.218800
10.561800 2.203500
10.581900 2.190800
10.601900 2.185000
10.622000 2.185000
10.642000 2.193600
10.662100 2.183800
10.682100 2.156200
10.702200 2.131000
10.722200 2.107800
10.742200 2.083700
10.762300 2.051400
10.782300 2.002800
10.802400 1.831100
10.822400 1.749000
10.842500 1.738200
10.862500 1.734000
10.882600 1.738400
10.902600 1.754400
10.922700 1.782300
10.942700 1.820900
10.962800 1.861600
10.982800 1.924900
11.002900 2.013400
11.022900 2.125100
11.042900 2.132400
11.063000 2.101500
11.083000 2.086900
11.103100 2.085900
11.123100 2.108800
11.143200 2.142100
11.163200 2.165100
11.183300 2.206400
11.203300 2.261200
11.223400 2.314000
11.243400 2.351300
11.263500 2.335300
11.283500 2.301600
11.303500 2.265600
11.323600 2.230400
11.343600 2.195300
11.363700 2.170400
11.383700 2.154800
11.403800 2.151900
11.423800 2.160500
11.443900 2.172600
11.463900 2.232800
11.484000 2.247300
11.504000 2.272400
11.524100 2.273200
11.544100 2.266200
11.564100 2.256000
11.584200 2.243400
11.604200 2.229000
11.624300 2.213300
11.644300 2.198700
11.664400 2.184900
11.684400 2.173200
11.704500 2.164800
11.724500 2.158900
11.744600 2.181700
11.764600 2.188600
11.784700 2.188800
11.804700 2.181500
11.824700 2.172200
11.844800 2.204000
11.864800 2.222400
11.884900 2.252000
11.904900 2.288800
11.925000 2.259900
11.945000 2.193100
11.965100 2.166100
11.985100 2.139800
12.005200 2.142900
12.025200 2.150900
12.045300 2.181300
12.065300 2.189900
12.085300 2.214300
12.105400 2.205600
12.125400 2.182400
12.145500 2.167200
12.165500 2.154900
12.185600 2.141200
12.205600 2.131900
12.225700 2.109000
12.245700 2.076300
12.265800 2.077900
12.285800 2.233800
12.305900 2.311800
12.325900 2.346600
12.345900 2.331200
12.366000 2.251700
12.386000 2.179800
12.406100 2.148200
12.426100 2.136200
12.446200 2.090200
12.466200 2.026100
12.486300 1.981300
12.506300 1.954300
12.526400 1.941900
12.546400 1.945200
12.566500 1.955700
