set title 'mp-998861 - Density of States'
set xlabel 'Energy (eV)'
set ylabel 'DOS (states/eV)'
set grid
set xrange [-10:10]
set yrange [0:1.278]
set xzeroaxis lt -1
set terminal png size 800,600
set output 'mp-998861_dos_gnuplot.png'
plot '-' using 1:2 with lines title 'DOS'
-18.445500 0.000000
-18.393100 0.000000
-18.340800 0.000000
-18.288500 0.000000
-18.236100 0.000000
-18.183800 0.000000
-18.131400 0.000000
-18.079100 0.000000
-18.026800 0.000000
-17.974400 0.000000
-17.922100 0.000000
-17.869700 0.000000
-17.817400 0.000000
-17.765000 0.000000
-17.712700 0.000000
-17.660400 0.000000
-17.608000 0.000000
-17.555700 0.000000
-17.503300 0.000000
-17.451000 0.000000
-17.398700 0.000000
-17.346300 0.000000
-17.294000 0.000000
-17.241600 0.000000
-17.189300 0.000000
-17.137000 0.000000
-17.084600 0.000000
-17.032300 0.000000
-16.979900 0.000000
-16.927600 0.000000
-16.875300 0.000000
-16.822900 0.000000
-16.770600 0.000000
-16.718200 0.000000
-16.665900 0.000000
-16.613600 0.000000
-16.561200 0.000000
-16.508900 0.000000
-16.456500 0.000000
-16.404200 0.000000
-16.351800 0.000000
-16.299500 0.000000
-16.247200 0.000000
-16.194800 0.000000
-16.142500 0.000000
-16.090100 0.000000
-16.037800 0.000000
-15.985500 0.000000
-15.933100 0.000000
-15.880800 0.000000
-15.828400 0.000000
-15.776100 0.000000
-15.723800 0.000000
-15.671400 0.000000
-15.619100 0.000000
-15.566700 0.000000
-15.514400 0.000000
-15.462100 0.000000
-15.409700 0.000000
-15.357400 0.000000
-15.305000 0.000000
-15.252700 0.000000
-15.200300 0.000000
-15.148000 0.000000
-15.095700 0.000000
-15.043300 0.000000
-14.991000 0.000000
-14.938600 0.000000
-14.886300 0.000000
-14.834000 0.000000
-14.781600 0.000000
-14.729300 0.000000
-14.676900 0.000000
-14.624600 0.000000
-14.572300 0.000000
-14.519900 0.000000
-14.467600 0.000000
-14.415200 0.000000
-14.362900 0.000000
-14.310600 0.000000
-14.258200 0.000000
-14.205900 0.000000
-14.153500 0.000000
-14.101200 0.000000
-14.048800 0.000000
-13.996500 0.000000
-13.944200 0.000000
-13.891800 0.000000
-13.839500 0.000000
-13.787100 0.000000
-13.734800 0.000000
-13.682500 0.017700
-13.630100 0.055600
-13.577800 0.079000
-13.525400 0.100300
-13.473100 0.114800
-13.420800 0.132400
-13.368400 0.146200
-13.316100 0.161900
-13.263700 0.177200
-13.211400 0.192100
-13.159100 0.208200
-13.106700 0.224900
-13.054400 0.240800
-13.002000 0.259800
-12.949700 0.278600
-12.897400 0.299100
-12.845000 0.321100
-12.792700 0.345800
-12.740300 0.372500
-12.688000 0.401900
-12.635600 0.436400
-12.583300 0.474800
-12.531000 0.523000
-12.478600 0.577500
-12.426300 0.652400
-12.373900 0.755000
-12.321600 0.982100
-12.269300 1.034000
-12.216900 1.053700
-12.164600 1.071800
-12.112200 1.094400
-12.059900 1.140000
-12.007600 1.183600
-11.955200 1.311400
-11.902900 1.368500
-11.850500 1.742600
-11.798200 0.000000
-11.745900 0.000000
-11.693500 0.000000
-11.641200 0.000000
-11.588800 0.000000
-11.536500 0.000000
-11.484100 0.000000
-11.431800 0.000000
-11.379500 0.000000
-11.327100 0.000000
-11.274800 0.000000
-11.222400 0.000000
-11.170100 0.000000
-11.117800 0.000000
-11.065400 0.000000
-11.013100 0.000000
-10.960700 0.000000
-10.908400 0.000000
-10.856100 0.000000
-10.803700 0.000000
-10.751400 0.000000
-10.699000 0.000000
-10.646700 0.000000
-10.594400 0.000000
-10.542000 0.000000
-10.489700 0.000000
-10.437300 0.000000
-10.385000 0.000000
-10.332700 0.000000
-10.280300 0.000000
-10.228000 0.000000
-10.175600 0.000000
-10.123300 0.000000
-10.070900 0.000000
-10.018600 0.000000
-9.966300 0.000000
-9.913900 0.000000
-9.861600 0.000000
-9.809200 0.000000
-9.756900 0.000000
-9.704600 0.000000
-9.652200 0.000000
-9.599900 0.000000
-9.547500 0.000000
-9.495200 0.000000
-9.442900 0.000000
-9.390500 0.000000
-9.338200 0.000000
-9.285800 0.000000
-9.233500 0.000000
-9.181200 0.000000
-9.128800 0.000000
-9.076500 0.000000
-9.024100 0.000000
-8.971800 0.000000
-8.919400 0.000000
-8.867100 0.000000
-8.814800 0.000000
-8.762400 0.000000
-8.710100 0.000000
-8.657700 0.000000
-8.605400 0.000000
-8.553100 0.000000
-8.500700 0.000000
-8.448400 0.000000
-8.396000 0.000000
-8.343700 0.000000
-8.291400 0.000000
-8.239000 0.000000
-8.186700 0.000000
-8.134300 0.000000
-8.082000 0.000000
-8.029700 0.000000
-7.977300 0.000000
-7.925000 0.000000
-7.872600 0.000000
-7.820300 0.000000
-7.767900 0.000000
-7.715600 0.000000
-7.663300 0.000000
-7.610900 0.000000
-7.558600 0.000000
-7.506200 0.000000
-7.453900 0.000000
-7.401600 0.000000
-7.349200 0.000000
-7.296900 0.000000
-7.244500 0.000000
-7.192200 0.000000
-7.139900 0.000000
-7.087500 0.000000
-7.035200 0.000000
-6.982800 0.000000
-6.930500 0.000000
-6.878200 0.000000
-6.825800 0.000000
-6.773500 0.000000
-6.721100 0.000000
-6.668800 0.000000
-6.616500 0.000000
-6.564100 0.000000
-6.511800 0.000000
-6.459400 0.000000
-6.407100 0.000000
-6.354700 0.000000
-6.302400 0.000000
-6.250100 0.000000
-6.197700 0.000000
-6.145400 0.000000
-6.093000 0.000000
-6.040700 0.000000
-5.988400 0.000000
-5.936000 0.000000
-5.883700 0.000000
-5.831300 0.000000
-5.779000 0.000000
-5.726700 0.000000
-5.674300 0.000000
-5.622000 0.000000
-5.569600 0.000000
-5.517300 0.000000
-5.465000 0.000000
-5.412600 0.000000
-5.360300 0.000000
-5.307900 0.000000
-5.255600 0.000000
-5.203200 0.000000
-5.150900 0.000000
-5.098600 0.000000
-5.046200 0.000000
-4.993900 0.000000
-4.941500 0.000000
-4.889200 0.000000
-4.836900 0.000000
-4.784500 0.000000
-4.732200 0.000000
-4.679800 0.000000
-4.627500 0.000000
-4.575200 0.000000
-4.522800 0.000000
-4.470500 0.000000
-4.418100 0.000000
-4.365800 0.000000
-4.313500 0.000000
-4.261100 0.000000
-4.208800 0.000000
-4.156400 0.000000
-4.104100 0.000000
-4.051800 0.000000
-3.999400 0.000000
-3.947100 0.000000
-3.894700 0.000000
-3.842400 0.000000
-3.790000 0.000000
-3.737700 0.000000
-3.685400 0.000000
-3.633000 0.000000
-3.580700 0.000000
-3.528300 0.000000
-3.476000 0.000000
-3.423700 0.000000
-3.371300 0.000000
-3.319000 0.000000
-3.266600 0.000000
-3.214300 0.000000
-3.162000 0.000000
-3.109600 0.000000
-3.057300 0.000000
-3.004900 0.000000
-2.952600 0.000000
-2.900300 0.086000
-2.847900 0.110500
-2.795600 0.145200
-2.743200 0.163600
-2.690900 0.189200
-2.638500 0.212100
-2.586200 0.229800
-2.533900 0.251400
-2.481500 0.276600
-2.429200 0.353900
-2.376800 0.411500
-2.324500 0.466500
-2.272200 0.523800
-2.219800 0.593100
-2.167500 0.661900
-2.115100 0.763900
-2.062800 0.971900
-2.010500 1.051000
-1.958100 1.000400
-1.905800 1.006400
-1.853400 0.945300
-1.801100 1.161600
-1.748800 0.765700
-1.696400 0.643300
-1.644100 0.505300
-1.591700 0.408500
-1.539400 0.341900
-1.487000 0.301000
-1.434700 0.222700
-1.382400 0.206800
-1.330000 0.194900
-1.277700 0.247500
-1.225300 0.311800
-1.173000 0.343400
-1.120700 0.348400
-1.068300 0.357000
-1.016000 0.365600
-0.963600 0.379800
-0.911300 0.382800
-0.859000 0.388800
-0.806600 0.394700
-0.754300 0.399800
-0.701900 0.404000
-0.649600 0.409800
-0.597300 0.414800
-0.544900 0.415900
-0.492600 0.417600
-0.440200 0.420200
-0.387900 0.422900
-0.335600 0.425500
-0.283200 0.428400
-0.230900 0.429500
-0.178500 0.429600
-0.126200 0.430500
-0.073800 0.432100
-0.021500 0.433600
0.030800 0.472100
0.083200 0.496200
0.135500 0.527500
0.187900 0.557200
0.240200 0.583600
0.292500 0.610400
0.344900 0.656500
0.397200 0.705300
0.449600 0.770100
0.501900 0.862300
0.554200 0.872500
0.606600 0.863200
0.658900 0.866600
0.711300 0.859500
0.763600 0.865300
0.815900 0.859500
0.868300 0.868500
0.920600 0.865600
0.973000 0.857900
1.025300 0.868600
1.077700 0.872900
1.130000 0.870700
1.182300 0.871300
1.234700 0.874700
1.287000 0.880900
1.339400 0.887300
1.391700 0.884100
1.444000 0.894700
1.496400 0.901800
1.548700 0.914000
1.601100 0.910500
1.653400 0.915300
1.705700 0.951100
1.758100 0.860900
1.810400 0.697500
1.862800 0.649800
1.915100 0.575400
1.967400 0.520700
2.019800 0.486000
2.072100 0.436300
2.124500 0.397100
2.176800 0.354700
2.229100 0.321800
2.281500 0.256000
2.333800 0.196900
2.386200 0.042100
2.438500 0.000000
2.490900 0.000000
2.543200 0.000000
2.595500 0.000000
2.647900 0.000000
2.700200 0.000000
2.752600 0.000000
2.804900 0.000000
2.857200 0.000000
2.909600 0.000000
2.961900 0.000000
3.014300 0.000000
3.066600 0.000000
3.118900 0.000000
3.171300 0.000000
3.223600 0.000000
3.276000 0.000000
3.328300 0.000000
3.380600 0.000000
3.433000 0.000000
3.485300 0.000000
3.537700 0.000000
3.590000 0.000000
3.642400 0.000000
3.694700 0.000000
3.747000 0.000000
3.799400 0.000000
3.851700 0.000000
3.904100 0.000000
3.956400 0.000000
4.008700 0.000000
4.061100 0.000000
4.113400 0.000000
4.165800 0.000000
4.218100 0.000000
4.270400 0.000000
4.322800 0.000000
4.375100 0.000000
4.427500 0.000000
4.479800 0.000000
4.532100 0.000000
4.584500 0.000000
4.636800 0.000000
4.689200 0.000000
4.741500 0.000000
4.793900 0.000000
4.846200 0.000000
4.898500 0.000000
4.950900 0.000000
5.003200 0.000000
5.055600 0.000000
5.107900 0.000000
5.160200 0.000000
5.212600 0.000000
5.264900 0.000000
5.317300 0.000000
5.369600 0.000000
5.421900 0.000000
5.474300 0.000000
5.526600 0.000000
5.579000 0.000000
5.631300 0.000000
5.683600 0.000000
5.736000 0.000000
5.788300 0.000000
5.840700 0.000000
5.893000 0.000000
5.945300 0.000000
5.997700 0.000000
6.050000 0.000000
6.102400 0.000000
6.154700 0.000000
6.207100 0.000000
6.259400 0.000000
6.311700 0.000000
6.364100 0.000000
6.416400 0.000000
6.468800 0.000000
6.521100 0.000000
6.573400 0.000000
6.625800 0.000000
6.678100 0.000000
6.730500 0.000000
6.782800 0.000000
6.835100 0.000000
6.887500 0.000000
6.939800 0.000000
6.992200 0.000000
7.044500 0.000000
7.096800 0.000000
7.149200 0.000000
7.201500 0.000000
7.253900 0.000000
7.306200 0.000000
7.358600 0.000000
7.410900 0.000000
7.463200 0.000000
7.515600 0.000000
7.567900 0.000000
7.620300 0.000000
7.672600 0.000000
7.724900 0.000000
7.777300 0.000000
7.829600 0.000000
7.882000 0.000000
7.934300 0.000000
7.986600 0.000000
8.039000 0.000000
8.091300 0.000000
8.143700 0.000000
8.196000 0.000000
8.248300 0.011100
8.300700 0.020500
8.353000 0.029000
8.405400 0.035300
8.457700 0.039700
8.510100 0.044900
8.562400 0.050700
8.614700 0.057700
8.667100 0.062900
8.719400 0.068100
8.771800 0.073000
8.824100 0.077600
8.876400 0.083400
8.928800 0.089800
8.981100 0.097100
9.033500 0.103300
9.085800 0.107700
9.138100 0.112100
9.190500 0.116800
9.242800 0.122700
9.295200 0.129200
9.347500 0.136300
9.399800 0.142400
9.452200 0.165900
9.504500 0.176600
9.556900 0.191100
9.609200 0.201300
9.661500 0.214100
9.713900 0.226000
9.766200 0.238600
9.818600 0.249400
9.870900 0.260100
9.923300 0.271900
9.975600 0.300100
10.027900 0.333800
10.080300 0.348200
10.132600 0.369400
10.185000 0.394300
10.237300 0.411100
10.289600 0.432200
10.342000 0.455700
10.394300 0.481900
10.446700 0.508000
10.499000 0.535700
10.551300 0.569100
10.603700 0.607700
10.656000 0.658800
10.708400 0.732100
10.760700 0.810900
10.813000 0.905500
10.865400 0.823800
10.917700 0.767000
10.970100 0.725500
11.022400 0.700700
11.074800 0.685000
11.127100 0.666200
11.179400 0.631800
11.231800 0.600900
11.284100 0.569600
11.336500 0.563800
11.388800 0.542200
11.441100 0.443900
11.493500 0.403800
11.545800 0.370000
11.598200 0.345800
11.650500 0.326900
11.702800 0.313100
11.755200 0.309400
11.807500 0.321700
11.859900 0.337200
11.912200 0.345400
11.964500 0.358800
12.016900 0.397000
12.069200 0.438600
12.121600 0.474800
12.173900 0.531600
12.226200 0.639600
12.278600 0.673300
12.330900 0.675200
12.383300 0.679300
12.435600 0.622700
12.488000 0.569100
12.540300 0.545900
12.592600 0.529800
12.645000 0.512300
12.697300 0.509500
12.749700 0.493600
12.802000 0.495000
12.854300 0.473000
12.906700 0.480100
12.959000 0.425500
13.011400 0.410200
13.063700 0.402700
13.116000 0.392000
13.168400 0.388500
13.220700 0.396900
13.273100 0.386500
13.325400 0.340200
13.377700 0.328400
13.430100 0.300700
13.482400 0.318100
13.534800 0.326300
13.587100 0.336600
13.639500 0.348600
13.691800 0.377400
13.744100 0.402700
13.796500 0.413700
13.848800 0.431900
13.901200 0.447400
13.953500 0.487000
14.005800 0.480200
14.058200 0.502700
14.110500 0.543700
14.162900 0.576000
14.215200 0.605700
14.267500 0.639000
14.319900 0.652000
14.372200 0.638100
14.424600 0.633200
14.476900 0.680600
14.529200 0.759300
14.581600 0.731600
14.633900 0.672800
14.686300 0.610800
14.738600 0.597400
14.791000 0.588000
14.843300 0.576500
14.895600 0.578000
14.948000 0.549500
15.000300 0.535000
15.052700 0.540800
15.105000 0.536900
15.157300 0.540000
15.209700 0.527600
15.262000 0.496000
15.314400 0.471700
15.366700 0.448300
15.419000 0.418700
15.471400 0.408100
15.523700 0.406300
15.576100 0.435900
15.628400 0.446000
15.680700 0.502400
15.733100 0.549900
15.785400 0.588200
15.837800 0.593300
15.890100 0.585800
15.942400 0.573500
15.994800 0.583000
16.047100 0.601700
16.099500 0.613300
16.151800 0.644800
16.204200 0.679500
16.256500 0.680600
16.308800 0.651600
16.361200 0.592100
16.413500 0.568500
16.465900 0.552300
16.518200 0.532300
16.570500 0.516900
16.622900 0.497500
16.675200 0.489600
16.727600 0.451800
16.779900 0.380000
16.832200 0.364600
16.884600 0.354400
16.936900 0.346600
16.989300 0.340100
17.041600 0.336200
17.093900 0.327100
17.146300 0.316800
17.198600 0.311500
17.251000 0.305500
17.303300 0.299600
17.355700 0.295600
17.408000 0.291900
17.460300 0.289000
17.512700 0.286700
17.565000 0.286300
17.617400 0.287100
17.669700 0.292200
17.722000 0.295100
17.774400 0.297000
17.826700 0.301800
17.879100 0.313300
17.931400 0.323000
17.983700 0.324500
18.036100 0.329300
18.088400 0.324700
18.140800 0.325300
18.193100 0.333800
18.245400 0.318700
18.297800 0.317400
18.350100 0.316600
18.402500 0.316700
18.454800 0.316400
18.507100 0.318700
18.559500 0.330000
18.611800 0.324500
18.664200 0.329600
18.716500 0.334200
18.768900 0.340200
18.821200 0.350000
18.873500 0.354500
18.925900 0.360200
18.978200 0.366900
19.030600 0.374300
19.082900 0.381700
19.135200 0.390400
19.187600 0.398300
19.239900 0.413400
19.292300 0.434100
19.344600 0.463800
19.396900 0.467600
19.449300 0.447400
19.501600 0.444000
19.554000 0.454400
19.606300 0.470500
19.658600 0.495700
19.711000 0.504200
19.763300 0.505100
19.815700 0.505500
19.868000 0.502400
19.920400 0.500200
19.972700 0.491200
20.025000 0.487300
20.077400 0.480000
20.129700 0.485600
20.182100 0.472700
20.234400 0.458500
20.286700 0.456400
20.339100 0.461700
20.391400 0.471100
20.443800 0.473200
20.496100 0.477000
20.548400 0.483500
20.600800 0.494700
20.653100 0.509600
20.705500 0.524300
20.757800 0.524500
20.810100 0.522000
20.862500 0.513600
20.914800 0.510300
20.967200 0.502600
21.019500 0.500600
21.071900 0.499100
21.124200 0.499300
21.176500 0.498700
21.228900 0.491500
21.281200 0.499100
21.333600 0.485500
21.385900 0.474300
21.438200 0.467400
21.490600 0.473400
21.542900 0.474400
21.595300 0.472200
21.647600 0.472100
21.699900 0.474800
21.752300 0.488600
21.804600 0.480500
21.857000 0.482200
21.909300 0.478500
21.961600 0.482000
22.014000 0.484700
22.066300 0.487900
22.118700 0.486000
22.171000 0.486400
22.223300 0.495500
22.275700 0.481500
22.328000 0.538600
22.380400 0.501400
22.432700 0.511000
22.485100 0.515900
22.537400 0.540600
22.589700 0.497400
22.642100 0.509800
22.694400 0.511700
22.746800 0.502400
22.799100 0.501500
22.851400 0.500100
22.903800 0.499100
22.956100 0.479200
23.008500 0.471700
23.060800 0.469900
23.113100 0.468200
23.165500 0.469000
23.217800 0.464000
23.270200 0.448000
23.322500 0.432600
23.374800 0.417300
23.427200 0.405800
23.479500 0.390300
23.531900 0.342100
23.584200 0.319500
23.636600 0.294700
23.688900 0.271700
23.741200 0.267100
23.793600 0.269600
23.845900 0.274400
23.898300 0.280400
23.950600 0.286500
24.002900 0.307600
24.055300 0.350200
24.107600 0.412700
24.160000 0.512000
24.212300 0.541600
24.264600 0.629200
24.317000 0.702200
24.369300 0.746500
24.421700 0.762000
24.474000 0.753200
24.526300 0.825900
24.578700 0.690000
24.631000 0.665200
24.683400 0.643400
24.735700 0.628100
24.788000 0.616400
24.840400 0.603000
24.892700 0.589500
24.945100 0.567400
24.997400 0.556000
25.049800 0.549100
25.102100 0.545900
25.154400 0.541000
25.206800 0.534200
25.259100 0.528000
25.311500 0.527500
25.363800 0.538700
25.416100 0.541400
25.468500 0.539800
25.520800 0.548400
25.573200 0.546800
25.625500 0.541300
25.677800 0.535700
25.730200 0.534900
25.782500 0.536500
25.834900 0.539600
25.887200 0.541000
25.939500 0.534800
25.991900 0.534800
26.044200 0.538000
26.096600 0.543800
26.148900 0.550400
26.201300 0.557900
26.253600 0.558000
26.305900 0.564700
26.358300 0.584400
26.410600 0.612200
26.463000 0.643200
26.515300 0.640800
26.567600 0.631700
26.620000 0.628400
26.672300 0.614600
26.724700 0.585400
26.777000 0.571500
26.829300 0.559400
26.881700 0.559700
26.934000 0.570900
26.986400 0.564000
27.038700 0.563100
27.091000 0.547200
27.143400 0.533100
27.195700 0.520900
27.248100 0.517700
27.300400 0.504000
27.352800 0.526600
27.405100 0.516600
27.457400 0.492100
27.509800 0.479300
27.562100 0.455700
27.614500 0.444800
27.666800 0.438500
27.719100 0.442600
27.771500 0.458100
27.823800 0.470200
27.876200 0.459900
27.928500 0.453400
27.980800 0.456800
28.033200 0.453300
28.085500 0.452000
28.137900 0.460300
28.190200 0.473200
28.242500 0.519900
28.294900 0.548000
28.347200 0.556000
28.399600 0.561800
28.451900 0.514100
28.504200 0.497500
28.556600 0.484200
28.608900 0.467300
28.661300 0.460900
28.713600 0.463800
28.766000 0.464000
28.818300 0.466400
28.870600 0.470900
28.923000 0.457800
28.975300 0.452500
29.027700 0.458400
29.080000 0.467200
29.132300 0.467000
29.184700 0.469200
29.237000 0.480900
29.289400 0.549700
29.341700 0.542200
29.394000 0.553000
29.446400 0.563900
29.498700 0.580300
29.551100 0.591400
29.603400 0.580600
29.655700 0.566900
29.708100 0.543800
29.760400 0.543300
29.812800 0.581900
29.865100 0.606500
29.917500 0.648400
29.969800 0.685500
30.022100 0.704000
30.074500 0.709700
30.126800 0.690600
30.179200 0.655700
30.231500 0.621000
30.283800 0.598100
30.336200 0.579200
30.388500 0.568900
30.440900 0.570700
30.493200 0.590200
30.545500 0.620500
30.597900 0.656700
30.650200 0.695900
30.702600 0.765000
30.754900 0.764800
30.807200 0.763700
30.859600 0.776500
30.911900 0.765100
30.964300 0.752900
31.016600 0.723100
31.068900 0.704900
31.121300 0.701000
31.173600 0.648400
31.226000 0.600900
31.278300 0.574600
31.330700 0.561500
31.383000 0.542300
31.435300 0.511200
31.487700 0.485200
31.540000 0.460600
31.592400 0.449900
31.644700 0.439500
31.697000 0.438400
31.749400 0.448300
31.801700 0.473500
31.854100 0.457500
31.906400 0.456700
31.958700 0.447800
32.011100 0.442600
32.063400 0.442400
32.115800 0.444800
32.168100 0.444100
32.220400 0.459400
32.272800 0.455200
32.325100 0.461600
32.377500 0.466700
32.429800 0.482600
32.482200 0.498200
32.534500 0.485800
32.586800 0.486000
32.639200 0.488800
32.691500 0.495300
32.743900 0.503100
32.796200 0.508000
32.848500 0.523100
32.900900 0.531100
32.953200 0.545200
33.005600 0.574600
33.057900 0.549800
33.110200 0.556100
33.162600 0.562700
33.214900 0.558400
33.267300 0.559400
33.319600 0.559600
33.371900 0.558900
33.424300 0.537200
33.476600 0.526700
33.529000 0.526800
33.581300 0.533500
33.633700 0.537300
33.686000 0.548800
33.738300 0.553500
33.790700 0.567700
33.843000 0.572300
33.895400 0.591200
33.947700 0.602100
34.000000 0.619300
34.052400 0.610200
34.104700 0.608200
34.157100 0.613000
34.209400 0.623800
34.261700 0.630100
34.314100 0.660200
34.366400 0.704800
34.418800 0.744100
34.471100 0.758200
34.523400 0.725500
34.575800 0.701800
34.628100 0.675300
34.680500 0.670900
34.732800 0.667100
34.785100 0.658200
34.837500 0.635700
34.889800 0.622000
34.942200 0.623800
34.994500 0.601400
35.046900 0.583000
35.099200 0.556900
35.151500 0.537400
35.203900 0.533700
35.256200 0.536700
35.308600 0.526900
35.360900 0.519300
35.413200 0.514400
35.465600 0.506200
35.517900 0.510600
35.570300 0.518100
35.622600 0.518500
35.674900 0.530000
35.727300 0.567000
35.779600 0.541200
35.832000 0.544800
35.884300 0.555600
