set title 'mp-1223633 - Density of States'
set xlabel 'Energy (eV)'
set ylabel 'DOS (states/eV)'
set grid
set xrange [-10:10]
set yrange [0:65.654]
set xzeroaxis lt -1
set terminal png size 800,600
set output 'mp-1223633_dos_gnuplot.png'
plot '-' using 1:2 with lines title 'DOS'
-10.877500 0.000000
-10.849600 0.000000
-10.821800 0.000000
-10.794000 0.000000
-10.766100 0.000000
-10.738300 0.000000
-10.710500 0.000000
-10.682700 0.000000
-10.654800 0.000000
-10.627000 0.000000
-10.599200 0.000000
-10.571400 0.000000
-10.543500 0.000000
-10.515700 0.000000
-10.487900 0.000000
-10.460100 0.000000
-10.432200 0.000000
-10.404400 0.000000
-10.376600 0.000000
-10.348700 0.000000
-10.320900 0.000000
-10.293100 0.000000
-10.265300 0.000000
-10.237400 0.000000
-10.209600 0.000000
-10.181800 0.000000
-10.154000 0.000000
-10.126100 0.000000
-10.098300 0.000000
-10.070500 0.000000
-10.042600 0.000000
-10.014800 0.000000
-9.987000 0.000000
-9.959200 0.000000
-9.931300 0.000000
-9.903500 0.000000
-9.875700 0.000000
-9.847900 0.000000
-9.820000 0.000000
-9.792200 0.000000
-9.764400 0.000000
-9.736600 0.000000
-9.708700 0.000000
-9.680900 0.000000
-9.653100 0.000000
-9.625200 0.000000
-9.597400 0.000000
-9.569600 0.000000
-9.541800 0.000000
-9.513900 0.000000
-9.486100 0.000000
-9.458300 0.000000
-9.430500 0.000000
-9.402600 0.000000
-9.374800 0.000000
-9.347000 0.000000
-9.319200 0.000000
-9.291300 0.000000
-9.263500 0.000000
-9.235700 0.000000
-9.207800 0.000000
-9.180000 0.000000
-9.152200 0.000000
-9.124400 0.000000
-9.096500 0.000000
-9.068700 0.000000
-9.040900 0.000000
-9.013100 0.000000
-8.985200 0.000000
-8.957400 0.000000
-8.929600 0.000000
-8.901800 0.000000
-8.873900 0.000000
-8.846100 0.000000
-8.818300 0.000000
-8.790400 0.000000
-8.762600 0.000000
-8.734800 0.000000
-8.707000 0.000000
-8.679100 0.000000
-8.651300 0.000000
-8.623500 0.000000
-8.595700 0.000000
-8.567800 0.000000
-8.540000 0.000000
-8.512200 0.000000
-8.484300 0.000000
-8.456500 0.000000
-8.428700 0.000000
-8.400900 0.000000
-8.373000 0.000000
-8.345200 1.306900
-8.317400 1.921400
-8.289600 2.270300
-8.261700 2.751900
-8.233900 3.569000
-8.206100 5.345000
-8.178300 7.199600
-8.150400 5.758200
-8.122600 9.666000
-8.094800 9.574000
-8.066900 9.263900
-8.039100 9.596800
-8.011300 22.619800
-7.983500 33.118300
-7.955600 22.055000
-7.927800 22.195000
-7.900000 21.165300
-7.872200 26.325700
-7.844300 22.488200
-7.816500 28.426700
-7.788700 59.685400
-7.760900 11.514300
-7.733000 10.628300
-7.705200 6.803600
-7.677400 2.714300
-7.649500 2.094800
-7.621700 1.866700
-7.593900 1.630500
-7.566100 1.467900
-7.538200 1.438300
-7.510400 0.000000
-7.482600 0.000000
-7.454800 0.000000
-7.426900 0.000000
-7.399100 0.000000
-7.371300 0.000000
-7.343400 0.000000
-7.315600 0.000000
-7.287800 0.000000
-7.260000 0.000000
-7.232100 0.000000
-7.204300 0.000000
-7.176500 0.000000
-7.148700 0.000000
-7.120800 0.000000
-7.093000 0.000000
-7.065200 0.000000
-7.037400 0.000000
-7.009500 0.000000
-6.981700 0.000000
-6.953900 0.000000
-6.926000 0.000000
-6.898200 0.000000
-6.870400 0.000000
-6.842600 0.000000
-6.814700 0.000000
-6.786900 0.000000
-6.759100 0.000000
-6.731300 0.000000
-6.703400 0.000000
-6.675600 0.000000
-6.647800 0.000000
-6.620000 0.000000
-6.592100 0.000000
-6.564300 0.000000
-6.536500 0.000000
-6.508600 0.000000
-6.480800 0.000000
-6.453000 0.000000
-6.425200 0.000000
-6.397300 0.000000
-6.369500 0.000000
-6.341700 0.000000
-6.313900 0.000000
-6.286000 0.000000
-6.258200 0.000000
-6.230400 0.000000
-6.202500 0.000000
-6.174700 0.000000
-6.146900 0.000000
-6.119100 0.000000
-6.091200 0.000000
-6.063400 0.000000
-6.035600 0.000000
-6.007800 0.000000
-5.979900 0.000000
-5.952100 0.000000
-5.924300 0.000000
-5.896500 0.000000
-5.868600 0.000000
-5.840800 0.000000
-5.813000 0.000000
-5.785100 0.000000
-5.757300 0.000000
-5.729500 0.000000
-5.701700 0.000000
-5.673800 0.000000
-5.646000 0.000000
-5.618200 0.000000
-5.590400 0.000000
-5.562500 0.000000
-5.534700 0.000000
-5.506900 0.000000
-5.479100 0.000000
-5.451200 0.000000
-5.423400 0.000000
-5.395600 0.000000
-5.367700 0.000000
-5.339900 0.000000
-5.312100 0.000000
-5.284300 0.000000
-5.256400 0.000000
-5.228600 0.000000
-5.200800 0.000000
-5.173000 0.000000
-5.145100 0.000000
-5.117300 0.000000
-5.089500 0.000000
-5.061700 0.000000
-5.033800 0.000000
-5.006000 0.000000
-4.978200 0.000000
-4.950300 0.000000
-4.922500 0.000000
-4.894700 0.000000
-4.866900 0.000000
-4.839000 0.000000
-4.811200 0.000000
-4.783400 0.000000
-4.755600 0.134600
-4.727700 0.182000
-4.699900 0.247900
-4.672100 0.339500
-4.644200 0.383500
-4.616400 0.401500
-4.588600 0.417400
-4.560800 0.423400
-4.532900 0.416100
-4.505100 0.402300
-4.477300 0.409400
-4.449500 0.418600
-4.421600 0.430100
-4.393800 0.427200
-4.366000 0.428200
-4.338200 0.427400
-4.310300 0.422000
-4.282500 0.411500
-4.254700 0.410800
-4.226800 0.411500
-4.199000 0.413700
-4.171200 0.417800
-4.143400 0.423400
-4.115500 0.429100
-4.087700 0.434700
-4.059900 0.435400
-4.032100 0.434500
-4.004200 0.433500
-3.976400 0.431000
-3.948600 0.424500
-3.920800 0.423500
-3.892900 0.423400
-3.865100 0.424000
-3.837300 0.425300
-3.809400 0.427700
-3.781600 0.430200
-3.753800 0.432700
-3.726000 0.435200
-3.698100 0.437900
-3.670300 0.441000
-3.642500 0.444300
-3.614700 0.445800
-3.586800 0.446100
-3.559000 0.446500
-3.531200 0.445900
-3.503300 0.443400
-3.475500 0.443400
-3.447700 0.443900
-3.419900 0.444700
-3.392000 0.445900
-3.364200 0.447600
-3.336400 0.449400
-3.308600 0.451300
-3.280700 0.453200
-3.252900 0.455300
-3.225100 0.457600
-3.197300 0.460000
-3.169400 0.462600
-3.141600 0.465400
-3.113800 0.468200
-3.085900 0.470700
-3.058100 0.473200
-3.030300 0.475700
-3.002500 0.478200
-2.974600 0.480700
-2.946800 0.483300
-2.919000 0.485900
-2.891200 0.488600
-2.863300 0.491400
-2.835500 0.494300
-2.807700 0.497200
-2.779900 0.500100
-2.752000 0.503100
-2.724200 0.506100
-2.696400 0.509100
-2.668500 0.512100
-2.640700 0.515200
-2.612900 0.518200
-2.585100 0.521200
-2.557200 0.530400
-2.529400 0.543800
-2.501600 0.559700
-2.473800 0.579400
-2.445900 0.593600
-2.418100 0.606300
-2.390300 0.617600
-2.362400 0.627300
-2.334600 0.636000
-2.306800 0.644700
-2.279000 0.653400
-2.251100 0.662200
-2.223300 0.670900
-2.195500 0.679400
-2.167700 0.918100
-2.139800 1.018700
-2.112000 0.817200
-2.084200 0.784800
-2.056400 0.717700
-2.028500 0.652000
-2.000700 0.583100
-1.972900 0.570400
-1.945000 0.557700
-1.917200 0.544900
-1.889400 0.532000
-1.861600 0.519100
-1.833700 0.505700
-1.805900 0.474600
-1.778100 0.451200
-1.750300 0.433300
-1.722400 0.426100
-1.694600 0.419000
-1.666800 0.411800
-1.639000 0.404600
-1.611100 0.397500
-1.583300 0.390300
-1.555500 0.383100
-1.527600 0.376000
-1.499800 0.368800
-1.472000 0.357400
-1.444200 0.344500
-1.416300 0.332300
-1.388500 0.324800
-1.360700 0.320100
-1.332900 0.365600
-1.305000 0.376500
-1.277200 0.389100
-1.249400 0.403200
-1.221600 0.399800
-1.193700 0.405300
-1.165900 0.410900
-1.138100 0.416400
-1.110200 0.421900
-1.082400 0.424200
-1.054600 0.428500
-1.026800 0.432400
-0.998900 0.432200
-0.971100 0.427200
-0.943300 0.426100
-0.915500 0.428500
-0.887600 0.430700
-0.859800 0.432600
-0.832000 0.435400
-0.804100 0.438400
-0.776300 0.441500
-0.748500 0.444700
-0.720700 0.448000
-0.692800 0.451800
-0.665000 0.455800
-0.637200 0.460100
-0.609400 0.464500
-0.581500 0.465500
-0.553700 0.468500
-0.525900 0.471300
-0.498100 0.474000
-0.470200 0.476600
-0.442400 0.478200
-0.414600 0.480200
-0.386700 0.482900
-0.358900 0.485900
-0.331100 0.489000
-0.303300 0.492400
-0.275400 0.496100
-0.247600 0.500100
-0.219800 0.504500
-0.192000 0.538900
-0.164100 0.545400
-0.136300 0.551000
-0.108500 0.555900
-0.080700 0.539400
-0.052800 0.537100
-0.025000 0.534700
0.002800 0.532200
0.030700 0.529800
0.058500 0.529200
0.086300 0.528400
0.114100 0.529300
0.142000 0.534700
0.169800 0.530400
0.197600 0.525200
0.225400 0.520100
0.253300 0.515100
0.281100 0.510500
0.308900 0.507000
0.336800 0.503500
0.364600 0.499900
0.392400 0.496400
0.420200 0.492800
0.448100 0.489100
0.475900 0.485400
0.503700 0.481700
0.531500 0.474500
0.559400 0.820900
0.587200 0.396000
0.615000 0.395800
0.642800 0.395500
0.670700 0.395900
0.698500 0.396600
0.726300 0.397100
0.754200 0.397700
0.782000 0.398300
0.809800 0.399000
0.837600 0.399600
0.865500 0.400300
0.893300 0.401000
0.921100 0.401900
0.948900 0.402800
0.976800 0.403700
1.004600 0.404600
1.032400 0.403900
1.060200 0.404300
1.088100 0.404700
1.115900 0.405200
1.143700 0.405700
1.171600 0.406500
1.199400 0.407500
1.227200 0.409800
1.255000 0.411700
1.282900 0.413800
1.310700 0.416100
1.338500 0.418500
1.366300 0.420900
1.394200 0.423300
1.422000 0.425900
1.449800 0.428700
1.477600 0.431900
1.505500 0.435600
1.533300 0.439600
1.561100 0.443900
1.589000 0.448500
1.616800 0.453200
1.644600 0.458200
1.672400 0.463200
1.700300 0.468500
1.728100 0.474100
1.755900 0.479900
1.783700 0.486100
1.811600 0.541100
1.839400 0.552000
1.867200 0.736500
1.895100 0.843600
1.922900 0.870400
1.950700 0.880600
1.978500 0.865100
2.006400 0.763900
2.034200 0.723600
2.062000 0.690700
2.089800 0.662300
2.117700 0.791600
2.145500 0.800000
2.173300 0.802000
2.201100 0.798500
2.229000 0.739900
2.256800 0.730000
2.284600 0.758300
2.312500 0.745600
2.340300 0.751300
2.368100 0.761700
2.395900 0.773700
2.423800 0.764300
2.451600 0.755000
2.479400 0.762000
2.507200 0.766200
2.535100 0.767300
2.562900 0.821700
2.590700 0.895900
2.618500 0.895000
2.646400 0.901700
2.674200 0.908600
2.702000 0.907800
2.729900 0.905700
2.757700 0.900900
2.785500 0.903700
2.813300 0.909400
2.841200 0.915200
2.869000 0.921300
2.896800 0.925600
2.924600 0.924400
2.952500 0.923500
2.980300 0.922000
3.008100 0.922600
3.036000 0.924900
3.063800 0.927700
3.091600 0.930700
3.119400 0.944300
3.147300 0.941000
3.175100 0.937600
3.202900 0.934600
3.230700 0.917600
3.258600 0.915000
3.286400 0.914600
3.314200 0.915200
3.342000 0.917900
3.369900 0.920100
3.397700 0.935100
3.425500 0.947200
3.453400 0.956000
3.481200 0.974600
3.509000 0.995800
3.536800 1.018000
3.564700 1.036800
3.592500 1.025000
3.620300 1.012300
3.648100 1.001500
3.676000 0.993800
3.703800 0.986800
3.731600 1.024000
3.759400 1.041000
3.787300 1.049500
3.815100 1.057500
3.842900 1.070400
3.870800 1.095200
3.898600 1.090200
3.926400 1.094600
3.954200 1.065100
3.982100 1.016400
4.009900 1.031400
4.037700 1.006300
4.065500 0.983400
4.093400 0.969700
4.121200 0.912300
4.149000 0.943900
4.176900 0.978100
4.204700 0.998800
4.232500 1.014500
4.260300 1.036800
4.288200 1.024300
4.316000 1.021600
4.343800 1.010300
4.371600 0.989000
4.399500 0.962900
4.427300 0.942900
4.455100 0.990900
4.482900 0.993600
4.510800 1.002400
4.538600 1.016600
4.566400 1.033100
4.594300 1.034300
4.622100 1.065800
4.649900 1.069200
4.677700 1.075700
4.705600 1.037900
4.733400 1.015600
4.761200 1.028900
4.789000 1.079200
4.816900 1.139800
4.844700 1.216700
4.872500 1.316200
4.900300 1.234100
4.928200 1.127000
4.956000 1.124500
4.983800 1.122800
5.011700 1.122100
5.039500 1.106400
5.067300 1.090100
5.095100 1.083000
5.123000 1.076400
5.150800 1.069100
5.178600 1.072200
5.206400 1.075700
5.234300 1.076100
5.262100 1.127300
5.289900 1.135300
5.317700 1.145500
5.345600 1.158200
5.373400 1.172600
5.401200 1.183000
5.429100 1.229100
5.456900 1.248100
5.484700 1.266700
5.512500 1.288900
5.540400 1.326000
5.568200 1.352500
5.596000 1.345500
5.623800 1.335000
5.651700 1.336800
5.679500 1.315300
5.707300 1.338100
5.735200 1.308500
5.763000 1.289400
5.790800 1.271600
5.818600 1.255400
5.846500 1.179100
5.874300 1.242500
5.902100 1.204600
5.929900 1.152300
5.957800 1.081600
5.985600 1.041600
6.013400 1.019100
6.041200 0.997800
6.069100 0.957400
6.096900 0.927400
6.124700 0.896000
6.152600 0.903600
6.180400 0.894400
6.208200 0.901200
6.236000 0.924000
6.263900 0.926200
6.291700 0.941000
6.319500 0.958800
6.347300 0.980600
6.375200 1.002700
6.403000 1.035200
6.430800 1.075900
6.458600 1.102600
6.486500 1.139400
6.514300 1.131500
6.542100 1.094800
6.570000 1.088200
6.597800 1.080800
6.625600 1.071400
6.653400 1.043600
6.681300 1.065200
6.709100 1.073400
6.736900 1.081700
6.764700 1.082600
6.792600 1.094500
6.820400 1.110100
6.848200 1.125500
6.876100 1.090000
6.903900 1.052400
6.931700 1.017400
6.959500 1.019800
6.987400 1.011100
7.015200 1.039300
7.043000 1.057700
7.070800 1.042400
7.098700 1.020600
7.126500 1.026400
7.154300 1.037600
7.182100 1.006800
7.210000 0.956000
7.237800 0.941400
7.265600 0.940200
7.293500 0.966800
7.321300 0.963100
7.349100 0.964700
7.376900 0.974800
7.404800 0.979800
7.432600 1.081600
7.460400 1.250100
7.488200 1.208500
7.516100 1.216300
7.543900 1.226100
7.571700 1.240800
7.599500 1.252100
7.627400 1.246200
7.655200 1.193000
7.683000 1.168700
7.710900 1.174200
7.738700 1.175600
7.766500 1.166900
7.794300 1.152700
7.822200 1.131400
7.850000 1.109800
7.877800 1.080100
7.905600 1.044700
7.933500 0.996200
7.961300 0.972200
7.989100 0.952000
8.016900 0.949500
8.044800 1.075700
8.072600 1.104300
8.100400 1.118000
8.128300 1.114800
8.156100 1.117800
8.183900 1.132900
8.211700 1.294700
8.239600 1.097800
8.267400 1.089700
8.295200 1.075800
8.323000 1.059400
8.350900 1.040800
8.378700 0.993300
8.406500 0.950100
8.434400 0.909500
8.462200 0.873900
8.490000 0.841300
8.517800 0.811300
8.545700 0.779200
8.573500 0.778700
8.601300 0.784400
8.629100 0.821900
8.657000 0.795600
8.684800 0.772800
8.712600 0.754600
8.740400 0.749400
8.768300 0.790400
8.796100 1.023400
8.823900 0.806200
8.851800 0.836200
8.879600 0.862300
8.907400 0.838300
8.935200 0.796400
8.963100 0.753000
8.990900 0.746200
9.018700 0.738800
9.046500 0.728500
9.074400 0.717400
9.102200 0.707400
9.130000 0.704900
9.157800 0.707600
9.185700 0.710200
9.213500 0.713200
9.241300 0.766900
9.269200 0.785900
9.297000 0.756400
9.324800 0.753600
9.352600 0.776200
9.380500 0.785900
9.408300 0.799700
9.436100 0.811900
9.463900 0.822800
9.491800 0.878700
9.519600 0.880600
9.547400 0.838900
9.575300 0.843000
9.603100 0.874300
9.630900 0.899800
9.658700 0.894500
9.686600 0.918900
9.714400 0.935100
9.742200 0.972900
9.770000 1.000300
9.797900 1.043000
9.825700 1.135600
9.853500 1.186200
9.881300 1.190700
9.909200 1.194700
9.937000 1.261900
9.964800 1.307200
9.992700 1.334900
10.020500 1.366700
10.048300 1.354200
10.076100 1.344100
10.104000 1.470500
10.131800 1.324600
10.159600 1.287100
10.187400 1.288700
10.215300 1.294700
10.243100 1.299400
10.270900 1.318300
10.298700 1.320700
10.326600 1.330900
10.354400 1.350700
10.382200 1.310100
10.410100 1.296700
10.437900 1.303300
10.465700 1.303800
10.493500 1.314800
10.521400 1.327700
10.549200 1.343600
10.577000 1.367000
10.604800 1.393300
10.632700 1.413400
10.660500 1.429200
10.688300 1.449200
10.716200 1.542600
10.744000 1.545000
10.771800 1.715200
10.799600 1.644700
10.827500 1.631700
10.855300 1.680600
10.883100 1.648800
10.910900 1.699900
10.938800 1.686500
10.966600 1.676700
10.994400 1.660200
11.022200 1.627400
11.050100 1.553200
11.077900 1.532800
11.105700 1.442000
11.133600 1.445900
11.161400 1.429100
11.189200 1.395600
11.217000 1.367600
11.244900 1.329600
11.272700 1.285700
11.300500 1.277900
11.328300 1.277100
11.356200 1.266400
11.384000 1.290300
11.411800 1.326000
11.439600 1.372600
11.467500 1.443900
11.495300 1.565100
11.523100 1.551200
11.551000 1.544700
11.578800 1.546000
11.606600 1.462500
11.634400 1.439000
11.662300 1.415600
11.690100 1.388600
11.717900 1.359500
11.745700 1.319500
11.773600 1.302100
11.801400 1.283900
11.829200 1.253600
11.857000 1.252400
11.884900 1.250600
11.912700 1.302200
11.940500 1.343200
11.968400 1.407700
11.996200 1.450800
12.024000 1.601800
12.051800 1.521700
12.079700 1.517400
12.107500 1.512600
12.135300 1.532800
12.163100 1.627500
12.191000 1.612100
12.218800 1.595900
12.246600 1.559900
12.274500 1.544900
12.302300 1.769000
12.330100 1.550400
12.357900 1.552400
12.385800 1.551200
12.413600 1.445400
12.441400 1.406900
12.469200 1.371700
12.497100 1.355900
12.524900 1.337500
12.552700 1.358800
12.580500 1.351500
12.608400 1.364200
12.636200 1.374800
12.664000 1.411200
12.691900 1.417800
12.719700 1.419200
12.747500 1.431300
12.775300 1.369900
12.803200 1.332200
12.831000 1.341100
12.858800 1.326800
12.886600 1.492900
12.914500 1.251000
12.942300 1.258300
12.970100 1.259500
12.997900 1.272300
13.025800 1.538500
13.053600 1.217200
13.081400 1.222700
13.109300 1.223500
13.137100 1.235800
13.164900 1.254400
13.192700 1.269300
13.220600 1.282900
13.248400 1.297000
13.276200 1.310000
13.304000 1.328900
13.331900 1.344400
13.359700 1.334900
13.387500 1.337700
13.415400 1.338800
13.443200 1.334900
13.471000 1.296600
13.498800 1.264000
13.526700 1.260100
13.554500 1.269200
13.582300 1.273500
13.610100 1.285700
13.638000 1.295700
13.665800 1.305500
13.693600 1.379700
13.721400 1.399500
13.749300 1.425400
13.777100 1.454100
13.804900 1.500500
13.832800 1.513600
13.860600 1.544200
13.888400 1.482600
13.916200 1.496800
13.944100 1.489800
13.971900 1.465400
13.999700 1.450700
14.027500 1.455400
14.055400 1.437500
14.083200 1.422300
14.111000 1.403400
14.138800 1.384100
14.166700 1.366300
14.194500 1.355100
14.222300 1.328100
14.250200 1.311600
14.278000 1.295400
14.305800 1.283200
14.333600 1.260700
14.361500 1.243600
14.389300 1.267800
14.417100 1.281200
14.444900 1.287700
14.472800 1.292800
14.500600 1.286500
14.528400 1.328100
14.556300 1.334800
14.584100 1.331300
14.611900 1.349500
14.639700 1.332300
14.667600 1.349500
14.695400 1.365300
14.723200 1.376000
14.751000 1.385700
14.778900 1.482700
14.806700 1.359200
14.834500 1.425400
14.862300 1.443000
14.890200 1.423100
14.918000 1.426900
14.945800 1.454200
14.973700 1.481500
15.001500 1.502700
15.029300 1.542200
15.057100 1.644100
15.085000 1.698700
15.112800 1.743500
15.140600 1.564700
15.168400 1.509800
15.196300 1.501800
15.224100 1.506800
15.251900 1.502000
15.279700 1.504500
15.307600 1.535100
15.335400 1.545400
15.363200 1.666700
15.391100 1.705500
15.418900 1.613600
15.446700 1.540600
15.474500 1.493600
15.502400 1.517000
15.530200 1.535000
15.558000 1.574100
15.585800 1.497400
15.613700 1.487900
15.641500 1.477900
15.669300 1.461900
15.697100 1.446200
15.725000 1.458200
15.752800 1.470400
15.780600 1.562500
15.808500 1.742200
15.836300 1.605500
15.864100 1.596600
15.891900 1.616400
15.919800 1.617900
15.947600 1.585200
15.975400 1.638800
16.003200 1.671100
16.031100 1.684100
16.058900 1.686900
16.086700 1.684800
16.114600 1.679500
16.142400 1.662300
16.170200 1.710200
16.198000 1.728900
16.225900 1.746700
16.253700 1.744700
16.281500 1.727400
16.309300 1.722300
16.337200 1.728800
16.365000 1.735000
16.392800 1.742200
16.420600 1.748700
16.448500 1.723600
16.476300 1.722200
16.504100 1.770500
16.532000 1.817700
16.559800 1.849500
16.587600 1.871700
16.615400 1.887600
16.643300 1.795200
16.671100 1.791900
16.698900 1.785100
16.726700 1.780000
16.754600 1.767000
16.782400 1.754600
16.810200 1.744600
16.838000 1.798200
16.865900 1.811600
16.893700 1.817900
16.921500 1.787500
16.949400 1.783800
16.977200 1.812300
17.005000 1.842100
17.032800 1.855400
17.060700 1.860100
17.088500 1.865300
17.116300 1.861100
17.144100 1.869900
17.172000 1.876400
17.199800 1.867900
17.227600 1.867000
17.255500 1.901300
17.283300 1.878300
17.311100 1.823600
17.338900 1.823900
17.366800 1.937500
17.394600 1.946700
17.422400 1.915500
17.450200 1.905500
17.478100 1.873100
17.505900 1.854800
17.533700 1.866100
17.561500 1.887400
17.589400 1.868100
17.617200 1.830400
17.645000 1.925400
17.672900 1.647200
17.700700 1.632100
17.728500 1.612500
17.756300 1.642200
17.784200 1.677200
17.812000 1.681300
17.839800 1.777600
17.867600 1.753500
17.895500 1.647500
17.923300 1.678400
17.951100 1.600300
17.978900 1.567000
18.006800 1.594000
18.034600 1.677200
18.062400 1.672400
18.090300 1.688700
18.118100 1.709600
18.145900 1.795200
18.173700 1.801300
18.201600 1.845000
18.229400 1.867600
18.257200 1.954600
18.285000 2.052500
18.312900 2.068400
18.340700 2.006600
18.368500 2.104600
18.396300 1.895200
18.424200 1.811200
