set title 'mp-569517 - Density of States'
set xlabel 'Energy (eV)'
set ylabel 'DOS (states/eV)'
set grid
set xrange [-10:10]
set yrange [0:5.147]
set xzeroaxis lt -1
set terminal png size 800,600
set output 'mp-569517_dos_gnuplot.png'
plot '-' using 1:2 with lines title 'DOS'
-13.996300 0.000000
-13.971500 0.000000
-13.946600 0.000000
-13.921800 0.000000
-13.896900 0.000000
-13.872000 0.000000
-13.847200 0.000000
-13.822300 0.000000
-13.797400 0.000000
-13.772600 0.000000
-13.747700 0.000000
-13.722900 0.000000
-13.698000 0.000000
-13.673100 0.000000
-13.648300 0.000000
-13.623400 0.000000
-13.598500 0.000000
-13.573700 0.000000
-13.548800 0.000000
-13.524000 0.000000
-13.499100 0.000000
-13.474200 0.000000
-13.449400 0.000000
-13.424500 0.000000
-13.399600 0.000000
-13.374800 0.000000
-13.349900 0.000000
-13.325100 0.000000
-13.300200 0.000000
-13.275300 0.000000
-13.250500 0.000000
-13.225600 0.000000
-13.200700 0.000000
-13.175900 0.000000
-13.151000 0.000000
-13.126200 0.000000
-13.101300 0.000000
-13.076400 0.000000
-13.051600 0.000000
-13.026700 0.000000
-13.001800 0.000000
-12.977000 0.000000
-12.952100 0.000000
-12.927300 0.000000
-12.902400 0.000000
-12.877500 0.000000
-12.852700 0.000000
-12.827800 0.000000
-12.802900 0.000000
-12.778100 0.000000
-12.753200 0.000000
-12.728400 0.000000
-12.703500 0.000000
-12.678600 0.000000
-12.653800 0.000000
-12.628900 0.000000
-12.604000 0.000000
-12.579200 0.000000
-12.554300 0.000000
-12.529500 0.000000
-12.504600 0.000000
-12.479700 0.000000
-12.454900 0.000000
-12.430000 0.000000
-12.405100 0.000000
-12.380300 0.000000
-12.355400 0.000000
-12.330600 0.000000
-12.305700 0.000000
-12.280800 0.000000
-12.256000 0.000000
-12.231100 0.000000
-12.206200 0.000000
-12.181400 0.000000
-12.156500 0.000000
-12.131700 0.000000
-12.106800 0.000000
-12.081900 0.000000
-12.057100 0.000000
-12.032200 0.000000
-12.007300 0.000000
-11.982500 0.000000
-11.957600 0.000000
-11.932800 0.000000
-11.907900 0.000000
-11.883000 0.000000
-11.858200 0.000000
-11.833300 0.000000
-11.808400 0.000000
-11.783600 0.000000
-11.758700 0.000000
-11.733900 0.000000
-11.709000 0.004600
-11.684100 0.013400
-11.659300 0.024900
-11.634400 0.038800
-11.609500 0.054400
-11.584700 0.071600
-11.559800 0.090300
-11.535000 0.110800
-11.510100 0.134600
-11.485200 0.158500
-11.460400 0.182300
-11.435500 0.206100
-11.410600 0.229900
-11.385800 0.253700
-11.360900 0.280700
-11.336100 0.309800
-11.311200 0.339700
-11.286300 0.370400
-11.261500 0.401900
-11.236600 0.434100
-11.211700 0.400700
-11.186900 0.392800
-11.162000 0.394700
-11.137200 0.398600
-11.112300 0.402800
-11.087400 0.408100
-11.062600 0.414400
-11.037700 0.418400
-11.012800 0.419700
-10.988000 0.421500
-10.963100 0.439400
-10.938300 0.457900
-10.913400 0.466200
-10.888500 0.471800
-10.863700 0.478100
-10.838800 0.485100
-10.813900 0.492800
-10.789100 0.501100
-10.764200 0.509700
-10.739400 0.518700
-10.714500 0.527700
-10.689600 0.536800
-10.664800 0.545800
-10.639900 0.554400
-10.615000 0.562500
-10.590200 0.570400
-10.565300 0.578700
-10.540500 0.587400
-10.515600 0.596400
-10.490700 0.605700
-10.465900 0.615100
-10.441000 0.624800
-10.416100 0.634700
-10.391300 0.644700
-10.366400 0.655000
-10.341600 0.665000
-10.316700 0.670100
-10.291800 0.668400
-10.267000 0.660100
-10.242100 0.662100
-10.217200 0.673700
-10.192400 0.684900
-10.167500 0.696000
-10.142700 0.707000
-10.117800 0.718000
-10.092900 0.729100
-10.068100 0.740300
-10.043200 0.751600
-10.018300 0.752800
-9.993500 0.754700
-9.968600 0.757600
-9.943800 0.761600
-9.918900 0.766500
-9.894000 0.771300
-9.869200 0.775700
-9.844300 0.779600
-9.819400 0.783500
-9.794600 0.787100
-9.769700 0.790600
-9.744900 0.794000
-9.720000 0.797700
-9.695100 0.801900
-9.670300 0.806300
-9.645400 0.810900
-9.620500 0.815700
-9.595700 0.820700
-9.570800 0.825800
-9.546000 0.831100
-9.521100 0.837800
-9.496200 0.845200
-9.471400 0.852300
-9.446500 0.858800
-9.421600 0.865100
-9.396800 0.871000
-9.371900 0.876700
-9.347100 0.882100
-9.322200 0.887100
-9.297300 0.891900
-9.272500 0.896400
-9.247600 0.900700
-9.222700 0.904600
-9.197900 0.908300
-9.173000 0.911700
-9.148200 0.914600
-9.123300 0.916900
-9.098400 0.918600
-9.073600 0.921400
-9.048700 0.929400
-9.023800 0.936600
-8.999000 0.943000
-8.974100 0.948700
-8.949300 0.953600
-8.924400 0.957800
-8.899500 0.962800
-8.874700 0.971700
-8.849800 0.980500
-8.824900 0.989400
-8.800100 0.998300
-8.775200 1.007200
-8.750400 1.015900
-8.725500 1.022200
-8.700600 1.027400
-8.675800 1.032600
-8.650900 1.037900
-8.626000 1.043300
-8.601200 1.048600
-8.576300 1.054100
-8.551500 1.059600
-8.526600 1.065200
-8.501700 1.070900
-8.476900 1.076700
-8.452000 1.082700
-8.427100 1.088700
-8.402300 1.094700
-8.377400 1.100800
-8.352600 1.106900
-8.327700 1.113000
-8.302800 1.119200
-8.278000 1.120300
-8.253100 1.124100
-8.228200 1.128900
-8.203400 1.133800
-8.178500 1.138900
-8.153700 1.144300
-8.128800 1.149800
-8.103900 1.155200
-8.079100 1.160500
-8.054200 1.166200
-8.029300 1.172600
-8.004500 1.178600
-7.979600 1.184000
-7.954800 1.189600
-7.929900 1.195400
-7.905000 1.201400
-7.880200 1.207600
-7.855300 1.213900
-7.830400 1.220300
-7.805600 1.226900
-7.780700 1.233600
-7.755900 1.240400
-7.731000 1.247300
-7.706100 1.254400
-7.681300 1.261700
-7.656400 1.269100
-7.631500 1.276700
-7.606700 1.283800
-7.581800 1.291000
-7.557000 1.298400
-7.532100 1.306000
-7.507200 1.315100
-7.482400 1.326500
-7.457500 1.340100
-7.432600 1.355800
-7.407800 1.372500
-7.382900 1.386700
-7.358100 1.424800
-7.333200 1.461400
-7.308300 1.482600
-7.283500 1.503400
-7.258600 1.514000
-7.233700 1.520000
-7.208900 1.534900
-7.184000 1.538100
-7.159200 1.540300
-7.134300 1.542700
-7.109400 1.545500
-7.084600 1.548600
-7.059700 1.552900
-7.034800 1.560900
-7.010000 1.570800
-6.985100 1.582700
-6.960300 1.596400
-6.935400 1.612200
-6.910500 1.629900
-6.885700 1.646300
-6.860800 1.656000
-6.835900 1.665100
-6.811100 1.674200
-6.786200 1.683400
-6.761400 1.692500
-6.736500 1.701600
-6.711600 1.710700
-6.686800 1.719900
-6.661900 1.729400
-6.637000 1.735800
-6.612200 1.738000
-6.587300 1.739200
-6.562500 1.739300
-6.537600 1.738300
-6.512700 1.736300
-6.487900 1.733200
-6.463000 1.729000
-6.438100 1.724200
-6.413300 1.718900
-6.388400 1.713900
-6.363600 1.709700
-6.338700 1.706300
-6.313800 1.703500
-6.289000 1.701300
-6.264100 1.699700
-6.239200 1.698700
-6.214400 1.698300
-6.189500 1.698500
-6.164700 1.699300
-6.139800 1.702800
-6.114900 1.712400
-6.090100 1.722700
-6.065200 1.731900
-6.040300 1.760400
-6.015500 2.541900
-5.990600 3.235900
-5.965800 3.147100
-5.940900 2.829700
-5.916000 2.695800
-5.891200 2.083100
-5.866300 1.566000
-5.841400 1.571000
-5.816600 1.573800
-5.791700 1.574800
-5.766900 1.574000
-5.742000 1.576400
-5.717100 1.810500
-5.692300 1.934300
-5.667400 1.948800
-5.642500 1.934200
-5.617700 1.911300
-5.592800 1.899200
-5.568000 1.895500
-5.543100 1.911900
-5.518200 1.911900
-5.493400 1.893000
-5.468500 1.853100
-5.443600 1.791900
-5.418800 1.709400
-5.393900 1.606400
-5.369100 1.486000
-5.344200 1.411900
-5.319300 1.364900
-5.294500 1.321900
-5.269600 1.282700
-5.244700 1.247500
-5.219900 1.216200
-5.195000 1.195100
-5.170200 1.191200
-5.145300 1.200900
-5.120400 1.212500
-5.095600 1.223200
-5.070700 1.238100
-5.045800 1.259800
-5.021000 1.287200
-4.996100 1.315100
-4.971300 1.342900
-4.946400 1.370700
-4.921500 1.398500
-4.896700 1.426200
-4.871800 1.453900
-4.846900 1.483100
-4.822100 1.513800
-4.797200 1.531400
-4.772400 1.524500
-4.747500 1.512900
-4.722600 1.497100
-4.697800 1.480300
-4.672900 1.463000
-4.648000 1.445800
-4.623200 1.436200
-4.598300 1.437500
-4.573500 1.446600
-4.548600 1.430600
-4.523700 1.408500
-4.498900 1.379000
-4.474000 1.343100
-4.449100 1.305700
-4.424300 1.286200
-4.399400 1.275500
-4.374500 1.264100
-4.349700 1.251900
-4.324800 1.239100
-4.300000 1.225400
-4.275100 1.212000
-4.250200 1.288000
-4.225400 0.946200
-4.200500 0.890600
-4.175600 0.870700
-4.150800 0.886500
-4.125900 0.925000
-4.101100 0.971000
-4.076200 1.024200
-4.051300 1.103900
-4.026500 1.203800
-4.001600 1.291100
-3.976700 1.365500
-3.951900 1.427300
-3.927000 1.477000
-3.902200 1.514700
-3.877300 1.547800
-3.852400 1.573400
-3.827600 1.587600
-3.802700 1.581700
-3.777800 1.573100
-3.753000 1.566100
-3.728100 1.562100
-3.703300 1.549800
-3.678400 1.542300
-3.653500 1.570700
-3.628700 1.635000
-3.603800 1.711000
-3.578900 1.786000
-3.554100 1.778100
-3.529200 1.740200
-3.504400 1.713400
-3.479500 1.704400
-3.454600 1.698800
-3.429800 1.696600
-3.404900 1.633700
-3.380000 1.521400
-3.355200 1.435200
-3.330300 1.511100
-3.305500 2.986000
-3.280600 0.887800
-3.255700 0.722100
-3.230900 0.595700
-3.206000 0.508600
-3.181100 0.471400
-3.156300 0.460400
-3.131400 0.444400
-3.106600 0.424500
-3.081700 0.400700
-3.056800 0.489000
-3.032000 0.704800
-3.007100 1.186200
-2.982200 0.822600
-2.957400 0.900400
-2.932500 0.986600
-2.907700 1.081200
-2.882800 1.153000
-2.857900 0.920000
-2.833100 0.773300
-2.808200 0.713900
-2.783300 0.728100
-2.758500 0.751000
-2.733600 0.774000
-2.708800 0.803700
-2.683900 1.005200
-2.659000 1.191600
-2.634200 1.317900
-2.609300 1.385000
-2.584400 1.422400
-2.559600 1.443900
-2.534700 1.450500
-2.509900 1.450400
-2.485000 1.483300
-2.460100 1.576500
-2.435300 1.690500
-2.410400 1.662700
-2.385500 1.580500
-2.360700 1.634700
-2.335800 1.689600
-2.311000 1.745200
-2.286100 1.803000
-2.261200 1.880100
-2.236400 1.941400
-2.211500 1.983600
-2.186600 2.101200
-2.161800 2.367700
-2.136900 2.469500
-2.112100 2.457300
-2.087200 2.331000
-2.062300 2.264900
-2.037500 2.311400
-2.012600 2.431100
-1.987700 2.555000
-1.962900 2.647100
-1.938000 2.700000
-1.913200 2.617700
-1.888300 2.589300
-1.863400 2.642200
-1.838600 3.527000
-1.813700 3.216900
-1.788800 2.350900
-1.764000 2.405300
-1.739100 2.443600
-1.714300 2.456900
-1.689400 3.073100
-1.664500 3.162600
-1.639700 3.092000
-1.614800 3.064000
-1.589900 2.751100
-1.565100 2.428100
-1.540200 2.151300
-1.515400 1.903100
-1.490500 1.886900
-1.465600 1.876600
-1.440800 1.861200
-1.415900 1.808800
-1.391000 1.759700
-1.366200 1.714400
-1.341300 1.676100
-1.316500 1.644700
-1.291600 1.621000
-1.266700 1.630900
-1.241900 1.706000
-1.217000 1.779800
-1.192100 1.850600
-1.167300 1.916900
-1.142400 1.974100
-1.117600 2.163100
-1.092700 2.143400
-1.067800 2.126100
-1.043000 2.113100
-1.018100 2.106600
-0.993200 2.107200
-0.968400 2.103700
-0.943500 2.095800
-0.918700 2.083500
-0.893800 2.078500
-0.868900 2.072200
-0.844100 2.053300
-0.819200 2.021300
-0.794300 1.974300
-0.769500 1.912300
-0.744600 1.849500
-0.719800 1.798300
-0.694900 1.742200
-0.670000 1.683100
-0.645200 1.633400
-0.620300 1.600100
-0.595400 1.582500
-0.570600 1.573900
-0.545700 1.570400
-0.520900 1.560100
-0.496000 1.561200
-0.471100 1.609400
-0.446300 1.721700
-0.421400 1.871500
-0.396500 2.014000
-0.371700 2.148500
-0.346800 2.227500
-0.322000 2.226000
-0.297100 2.194800
-0.272200 2.169800
-0.247400 2.137700
-0.222500 2.099600
-0.197600 2.056200
-0.172800 2.007500
-0.147900 1.953400
-0.123100 1.892500
-0.098200 1.825900
-0.073300 1.774800
-0.048500 1.752800
-0.023600 1.735100
0.001300 1.721800
0.026100 1.712700
0.051000 1.707800
0.075800 1.705700
0.100700 1.702800
0.125600 1.697600
0.150400 1.690400
0.175300 1.682300
0.200200 1.674400
0.225000 1.666800
0.249900 1.658700
0.274700 1.649600
0.299600 1.639400
0.324500 1.628100
0.349300 1.757900
0.374200 2.204500
0.399100 2.118800
0.423900 2.027600
0.448800 1.929300
0.473600 1.817900
0.498500 1.743200
0.523400 1.737100
0.548200 1.732200
0.573100 1.726100
0.598000 1.720900
0.622800 1.713400
0.647700 1.700200
0.672500 1.762200
0.697400 1.850500
0.722300 1.921500
0.747100 1.975100
0.772000 2.011500
0.796900 2.030600
0.821700 2.032400
0.846600 1.937800
0.871400 1.829300
0.896300 1.817500
0.921200 1.820700
0.946000 1.824700
0.970900 1.833100
0.995800 1.849600
1.020600 1.869300
1.045500 1.890500
1.070300 1.911100
1.095200 1.933000
1.120100 1.957200
1.144900 1.984400
1.169800 2.015800
1.194700 2.051300
1.219500 2.091000
1.244400 2.123000
1.269200 2.154300
1.294100 2.188000
1.319000 2.230100
1.343800 2.282700
1.368700 2.331900
1.393600 2.380000
1.418400 2.427700
1.443300 2.475200
1.468100 2.522100
1.493000 2.567800
1.517900 2.612300
1.542700 2.721300
1.567600 2.765600
1.592500 2.708600
1.617300 2.724800
1.642200 2.782600
1.667000 2.796000
1.691900 2.736700
1.716800 2.702300
1.741600 2.683300
1.766500 2.666900
1.791400 2.631700
1.816200 2.588500
1.841100 3.004600
1.865900 2.548300
1.890800 2.489700
1.915700 2.530200
1.940500 2.476700
1.965400 2.480400
1.990300 2.524700
2.015100 2.560000
2.040000 2.586200
2.064800 2.628700
2.089700 2.708600
2.114600 2.765300
2.139400 2.798800
2.164300 2.823700
2.189200 2.861500
2.214000 2.887800
2.238900 2.899200
2.263700 2.895000
2.288600 2.881100
2.313500 2.870600
2.338300 2.863900
2.363200 2.869300
2.388100 2.877500
2.412900 2.887000
2.437800 2.897400
2.462600 2.906600
2.487500 2.920000
2.512400 2.941000
2.537200 2.969900
2.562100 3.002200
2.587000 3.036600
2.611800 3.074000
2.636700 3.114300
2.661500 3.157800
2.686400 3.163400
2.711300 3.127700
2.736100 3.145400
2.761000 3.181500
2.785900 3.225200
2.810700 3.276100
2.835600 3.333100
2.860400 3.390800
2.885300 3.443700
2.910200 3.465700
2.935000 3.477500
2.959900 3.459900
2.984800 3.393800
3.009600 3.389700
3.034500 3.380500
3.059300 3.368100
3.084200 3.375700
3.109100 3.384600
3.133900 3.393400
3.158800 3.403000
3.183700 3.412300
3.208500 3.421500
3.233400 3.430200
3.258200 3.437800
3.283100 3.445400
3.308000 3.454500
3.332800 3.464400
3.357700 3.474800
3.382600 3.485900
3.407400 3.498000
3.432300 3.511300
3.457100 3.528100
3.482000 3.549600
3.506900 3.575800
3.531700 3.605400
3.556600 3.637000
3.581500 3.629700
3.606300 3.624600
3.631200 3.633300
3.656000 3.646700
3.680900 3.662200
3.705800 3.682300
3.730600 3.695500
3.755500 3.689900
3.780400 3.678700
3.805200 3.691200
3.830100 3.699400
3.854900 3.683100
3.879800 3.649800
3.904700 3.611600
3.929500 3.585100
3.954400 3.571200
3.979300 3.562900
4.004100 3.554500
4.029000 3.542100
4.053800 3.525600
4.078700 3.507900
4.103600 3.483600
4.128400 3.453900
4.153300 3.416400
4.178200 3.389800
4.203000 3.367800
4.227900 3.343100
4.252700 3.316000
4.277600 3.307200
4.302500 3.298600
4.327300 3.289900
4.352200 3.283900
4.377100 3.288000
4.401900 3.301300
4.426800 3.331600
4.451600 3.359400
4.476500 3.385300
4.501400 3.394200
4.526200 3.394600
4.551100 3.394600
4.576000 3.394800
4.600800 3.356500
4.625700 3.154200
4.650500 3.105800
4.675400 3.074800
4.700300 3.750400
4.725100 4.679200
4.750000 4.122000
4.774900 3.980900
4.799700 4.183900
4.824600 3.806000
4.849400 3.742900
4.874300 3.715400
4.899200 3.694700
4.924000 3.677800
4.948900 3.662800
4.973800 3.647200
4.998600 3.633400
5.023500 3.619500
5.048300 3.622200
5.073200 3.697200
5.098100 3.848500
5.122900 4.553300
5.147800 4.307800
5.172700 4.211600
5.197500 4.115600
5.222400 4.032900
5.247200 4.000200
5.272100 3.968000
5.297000 3.934000
5.321800 3.898200
5.346700 3.891700
5.371600 3.881800
5.396400 3.868500
5.421300 3.854900
5.446100 3.858200
5.471000 3.866900
5.495900 3.874500
5.520700 4.218300
5.545600 4.496600
5.570500 4.627500
5.595300 4.610200
5.620200 4.432200
5.645000 4.287800
5.669900 4.206300
5.694800 4.136300
5.719600 4.082700
5.744500 4.042400
5.769400 4.013700
5.794200 3.991300
5.819100 3.974600
5.843900 3.963100
5.868800 3.952300
5.893700 3.938700
5.918500 3.931100
5.943400 3.939700
5.968300 3.946900
5.993100 3.949500
6.018000 3.956900
6.042800 3.961600
6.067700 3.961100
6.092600 3.951500
6.117400 3.928900
6.142300 3.906600
6.167200 3.879300
6.192000 3.843800
6.216900 3.804500
6.241700 3.762600
6.266600 3.715500
6.291500 3.662300
6.316300 3.601600
6.341200 3.506000
6.366100 3.427500
6.390900 3.359100
6.415800 3.320400
6.440600 3.305300
6.465500 3.289700
6.490400 3.273300
6.515200 3.256200
6.540100 3.238400
6.565000 3.220400
6.589800 3.188000
6.614700 3.120400
6.639500 3.068900
6.664400 3.025300
6.689300 2.979500
6.714100 2.934000
6.739000 2.891600
6.763900 2.851200
6.788700 2.808200
6.813600 2.764300
6.838400 2.720000
6.863300 2.674700
6.888200 2.628400
6.913000 2.581900
6.937900 2.526400
6.962800 2.452900
6.987600 2.412800
7.012500 2.377000
7.037300 2.342000
7.062200 2.307500
7.087100 2.270900
7.111900 2.233900
7.136800 2.196300
7.161700 2.157400
7.186500 2.117500
7.211400 2.076500
7.236200 2.032300
7.261100 1.984000
7.286000 1.931100
7.310800 1.876400
7.335700 1.830300
7.360600 1.798000
7.385400 1.760000
7.410300 1.722700
7.435100 1.686900
7.460000 1.652400
7.484900 1.619100
7.509700 1.587000
7.534600 1.556000
7.559500 1.524500
7.584300 1.491000
7.609200 1.457700
7.634000 1.425000
7.658900 1.392800
7.683800 1.361300
7.708600 1.330700
7.733500 1.302500
7.758400 1.280100
7.783200 1.262200
7.808100 1.256100
7.832900 1.249100
7.857800 1.240200
7.882700 1.228200
7.907500 1.212200
7.932400 1.191200
7.957300 1.168400
7.982100 1.146400
8.007000 1.125100
8.031800 1.105900
8.056700 1.087800
8.081600 1.070400
8.106400 1.053200
8.131300 1.035900
8.156200 1.018900
8.181000 1.002400
8.205900 0.986300
8.230700 0.970600
8.255600 0.955200
8.280500 0.938600
8.305300 0.920200
8.330200 0.899900
8.355100 0.878900
8.379900 0.858100
8.404800 0.837500
8.429600 0.817000
8.454500 0.796400
8.479400 0.775800
8.504200 0.755700
8.529100 0.736300
8.554000 0.717700
8.578800 0.699800
8.603700 0.682400
8.628500 0.664700
8.653400 0.647600
8.678300 0.632000
8.703100 0.617700
8.728000 0.604800
8.752900 0.593000
8.777700 0.582300
8.802600 0.572800
8.827400 0.562000
8.852300 0.551900
8.877200 0.544400
8.902000 0.541300
8.926900 0.531200
8.951800 0.515300
8.976600 0.499300
9.001500 0.483800
9.026300 0.471700
9.051200 0.462600
9.076100 0.441000
9.100900 0.418000
9.125800 0.395500
9.150700 0.373200
9.175500 0.351400
9.200400 0.330000
9.225200 0.309300
9.250100 0.289400
9.275000 0.269500
9.299800 0.249700
9.324700 0.229900
9.349600 0.210200
9.374400 0.190500
9.399300 0.170900
9.424100 0.151400
9.449000 0.133000
9.473900 0.117100
9.498700 0.102100
9.523600 0.087900
9.548500 0.074600
9.573300 0.062100
9.598200 0.050400
9.623000 0.039500
9.647900 0.029700
9.672800 0.020900
9.697600 0.013300
9.722500 0.006800
9.747400 0.001800
9.772200 0.000000
9.797100 0.000000
9.821900 0.000000
9.846800 0.000000
9.871700 0.000000
9.896500 0.000000
9.921400 0.000000
9.946300 0.000000
9.971100 0.000000
9.996000 0.000000
10.020800 0.000000
10.045700 0.000000
10.070600 0.000000
10.095400 0.000000
10.120300 0.000000
10.145200 0.000000
10.170000 0.000000
10.194900 0.000000
10.219700 0.000000
10.244600 0.000000
10.269500 0.000000
10.294300 0.000000
10.319200 0.000000
10.344100 0.000000
10.368900 0.000000
10.393800 0.000000
10.418700 0.000000
10.443500 0.000000
10.468400 0.000000
10.493200 0.000000
10.518100 0.000000
10.543000 0.000000
10.567800 0.000000
10.592700 0.000000
10.617600 0.000000
10.642400 0.000000
10.667300 0.000000
10.692100 0.000000
10.717000 0.000000
10.741900 0.000000
10.766700 0.000000
10.791600 0.000000
10.816500 0.000000
10.841300 0.000000
10.866200 0.000000
10.891000 0.000000
10.915900 0.000000
10.940800 0.000000
10.965600 0.000000
10.990500 0.000000
11.015400 0.000000
11.040200 0.000000
11.065100 0.000000
11.089900 0.000000
11.114800 0.000000
11.139700 0.000000
11.164500 0.000000
11.189400 0.000000
11.214300 0.000000
11.239100 0.000000
11.264000 0.000000
11.288800 0.000000
11.313700 0.000000
11.338600 0.000000
11.363400 0.000000
11.388300 0.000000
11.413200 0.000000
11.438000 0.000000
11.462900 0.000000
11.487700 0.000000
11.512600 0.000000
11.537500 0.000000
11.562300 0.000000
11.587200 0.000000
11.612100 0.000000
11.636900 0.000000
11.661800 0.000000
11.686600 0.000000
11.711500 0.000000
11.736400 0.000000
11.761200 0.000000
11.786100 0.000000
11.811000 0.000000
11.835800 0.000000
11.860700 0.000000
11.885500 0.000000
11.910400 0.000000
11.935300 0.000000
11.960100 0.000000
11.985000 0.000000
12.009900 0.000000
12.034700 0.000000
12.059600 0.000000
12.084400 0.000000
