set title 'mp-1219920 - Density of States'
set xlabel 'Energy (eV)'
set ylabel 'DOS (states/eV)'
set grid
set xrange [-10:10]
set yrange [0:6.054]
set xzeroaxis lt -1
set terminal png size 800,600
set output 'mp-1219920_dos_gnuplot.png'
plot '-' using 1:2 with lines title 'DOS'
-6.751500 0.000000
-6.718300 0.000000
-6.685200 0.000000
-6.652000 0.000000
-6.618900 0.000000
-6.585800 0.000000
-6.552600 0.000000
-6.519500 0.000000
-6.486300 0.000000
-6.453200 0.000000
-6.420100 0.000000
-6.386900 0.000000
-6.353800 0.000000
-6.320600 0.000000
-6.287500 0.000000
-6.254300 0.000000
-6.221200 0.000000
-6.188100 0.000000
-6.154900 0.000000
-6.121800 0.000000
-6.088600 0.000000
-6.055500 0.000000
-6.022400 0.000000
-5.989200 0.000000
-5.956100 0.000000
-5.922900 0.000000
-5.889800 0.000000
-5.856600 0.000000
-5.823500 0.000000
-5.790400 0.000000
-5.757200 0.000000
-5.724100 0.000000
-5.690900 0.000000
-5.657800 0.000000
-5.624700 0.000000
-5.591500 0.000000
-5.558400 0.000000
-5.525200 0.000000
-5.492100 0.000000
-5.458900 0.000000
-5.425800 0.000000
-5.392700 0.000000
-5.359500 0.000000
-5.326400 0.000000
-5.293200 0.000000
-5.260100 0.000000
-5.227000 0.000000
-5.193800 0.000000
-5.160700 0.000000
-5.127500 0.000000
-5.094400 0.000000
-5.061200 0.000000
-5.028100 0.000000
-4.995000 0.000000
-4.961800 0.000000
-4.928700 0.000000
-4.895500 0.000000
-4.862400 0.000000
-4.829300 0.000000
-4.796100 0.000000
-4.763000 0.000000
-4.729800 0.000000
-4.696700 0.000000
-4.663500 0.000000
-4.630400 0.000000
-4.597300 0.000000
-4.564100 0.000000
-4.531000 0.000000
-4.497800 0.000000
-4.464700 0.000000
-4.431600 0.000000
-4.398400 0.000000
-4.365300 0.000000
-4.332100 0.000000
-4.299000 0.000000
-4.265800 0.000000
-4.232700 0.000000
-4.199600 0.000000
-4.166400 0.000000
-4.133300 0.000000
-4.100100 0.000000
-4.067000 0.000000
-4.033900 0.000000
-4.000700 0.000000
-3.967600 0.000000
-3.934400 0.000000
-3.901300 0.000000
-3.868100 0.000000
-3.835000 0.000000
-3.801900 0.000000
-3.768700 0.000000
-3.735600 0.000100
-3.702400 0.008300
-3.669300 0.024000
-3.636200 0.043600
-3.603000 0.066900
-3.569900 0.067300
-3.536700 0.071800
-3.503600 0.078900
-3.470400 0.086900
-3.437300 0.094200
-3.404200 0.101300
-3.371000 0.109200
-3.337900 0.117400
-3.304700 0.125300
-3.271600 0.131300
-3.238500 0.136800
-3.205300 0.141900
-3.172200 0.147100
-3.139000 0.153100
-3.105900 0.159700
-3.072700 0.166900
-3.039600 0.174300
-3.006500 0.182100
-2.973300 0.190100
-2.940200 0.199000
-2.907000 0.210500
-2.873900 0.222600
-2.840800 0.239100
-2.807600 0.253400
-2.774500 0.263600
-2.741300 0.263100
-2.708200 0.255500
-2.675100 0.259400
-2.641900 0.263000
-2.608800 0.266600
-2.575600 0.270100
-2.542500 0.273600
-2.509300 0.276700
-2.476200 0.279600
-2.443100 0.281700
-2.409900 0.283900
-2.376800 0.286500
-2.343600 0.289800
-2.310500 0.294400
-2.277400 0.299300
-2.244200 0.304100
-2.211100 0.309100
-2.177900 0.314200
-2.144800 0.319400
-2.111600 0.325600
-2.078500 0.332700
-2.045400 0.340500
-2.012200 0.348900
-1.979100 0.357400
-1.945900 0.367700
-1.912800 0.380200
-1.879700 0.394200
-1.846500 0.409700
-1.813400 0.427200
-1.780200 0.447200
-1.747100 0.495800
-1.713900 0.716800
-1.680800 0.999700
-1.647700 1.310500
-1.614500 1.413000
-1.581400 1.431500
-1.548200 1.404200
-1.515100 1.443200
-1.482000 1.516700
-1.448800 1.632100
-1.415700 1.822500
-1.382500 1.901200
-1.349400 1.895200
-1.316200 1.732400
-1.283100 1.546200
-1.250000 1.353300
-1.216800 1.347700
-1.183700 1.437900
-1.150500 1.549600
-1.117400 1.704100
-1.084300 1.771400
-1.051100 1.849000
-1.018000 1.908500
-0.984800 1.996800
-0.951700 2.111500
-0.918500 2.212600
-0.885400 2.333000
-0.852300 2.562800
-0.819100 2.709100
-0.786000 2.663200
-0.752800 2.575400
-0.719700 2.671300
-0.686600 2.769200
-0.653400 2.853200
-0.620300 3.012500
-0.587100 3.449900
-0.554000 4.079200
-0.520800 4.366100
-0.487700 4.538900
-0.454600 4.912300
-0.421400 5.408600
-0.388300 5.401100
-0.355100 5.503700
-0.322000 4.748200
-0.288900 4.030600
-0.255700 4.249900
-0.222600 3.405100
-0.189400 2.676000
-0.156300 2.588600
-0.123100 2.736900
-0.090000 2.907300
-0.056900 3.616300
-0.023700 3.947100
0.009400 3.816600
0.042600 4.341500
0.075700 3.603300
0.108800 3.690400
0.142000 3.424200
0.175100 3.207000
0.208300 2.955600
0.241400 3.203000
0.274600 3.262000
0.307700 3.309100
0.340800 3.470600
0.374000 3.858900
0.407100 3.874100
0.440300 4.345100
0.473400 3.827900
0.506500 3.362200
0.539700 3.261900
0.572800 3.150400
0.606000 3.170900
0.639100 3.158000
0.672300 3.090900
0.705400 3.446400
0.738500 3.859600
0.771700 3.504900
0.804800 3.146300
0.838000 2.975400
0.871100 3.068300
0.904200 3.009900
0.937400 2.967600
0.970500 2.901300
1.003700 3.305100
1.036800 3.627300
1.070000 3.522000
1.103100 3.785400
1.136200 4.189300
1.169400 4.175900
1.202500 3.962800
1.235700 4.061500
1.268800 3.905300
1.301900 3.777900
1.335100 3.819800
1.368200 3.412400
1.401400 4.007700
1.434500 4.387800
1.467600 4.181800
1.500800 4.254900
1.533900 4.025200
1.567100 3.533000
1.600200 3.986800
1.633400 4.601800
1.666500 4.649300
1.699600 3.827500
1.732800 3.418400
1.765900 3.314200
1.799100 3.335200
1.832200 3.066900
1.865300 2.932400
1.898500 2.969500
1.931600 2.947500
1.964800 2.855000
1.997900 2.725300
2.031100 2.659800
2.064200 2.395900
2.097300 2.383000
2.130500 2.533100
2.163600 2.950500
2.196800 3.490800
2.229900 4.208800
2.263000 4.984700
2.296200 4.975900
2.329300 5.094800
2.362500 4.429700
2.395600 3.718400
2.428800 3.414500
2.461900 3.260500
2.495000 3.242400
2.528200 3.742200
2.561300 4.002400
2.594500 3.573100
2.627600 3.291600
2.660700 3.334600
2.693900 3.304900
2.727000 3.271300
2.760200 3.117500
2.793300 3.083700
2.826500 3.174900
2.859600 3.314800
2.892700 3.906900
2.925900 4.102700
2.959000 4.266200
2.992200 4.828600
3.025300 4.985300
3.058400 4.748100
3.091600 4.926100
3.124700 4.171100
3.157900 3.807500
3.191000 3.532500
3.224200 3.320600
3.257300 3.319400
3.290400 3.382500
3.323600 3.415900
3.356700 3.360100
3.389900 3.481200
3.423000 3.673800
3.456100 4.185600
3.489300 4.598200
3.522400 5.053700
3.555600 5.407200
3.588700 4.969700
3.621900 4.305000
3.655000 3.879700
3.688100 3.734100
3.721300 3.779100
3.754400 3.748500
3.787600 3.596400
3.820700 3.916700
3.853800 3.985100
3.887000 4.248300
3.920100 4.460300
3.953300 4.808300
3.986400 4.893000
4.019600 5.195700
4.052700 4.594400
4.085800 3.505300
4.119000 2.954000
4.152100 2.648600
4.185300 2.743700
4.218400 2.668900
4.251500 2.533800
4.284700 2.109600
4.317800 1.609600
4.351000 1.529000
4.384100 1.416500
4.417300 1.332400
4.450400 1.248700
4.483500 1.153400
4.516700 0.741700
4.549800 0.683700
4.583000 0.678300
4.616100 0.681100
4.649200 0.684300
4.682400 0.687000
4.715500 0.688900
4.748700 0.689200
4.781800 0.686800
4.815000 0.682800
4.848100 0.679200
4.881200 0.673600
4.914400 0.669200
4.947500 0.665800
4.980700 0.664200
5.013800 0.662500
5.046900 0.660200
5.080100 0.655800
5.113200 0.650100
5.146400 0.639400
5.179500 0.615200
5.212700 0.608100
5.245800 0.603600
5.278900 0.600400
5.312100 0.597600
5.345200 0.595300
5.378400 0.594100
5.411500 0.595300
5.444600 0.597800
5.477800 0.597400
5.510900 0.597000
5.544100 0.596600
5.577200 0.596300
5.610400 0.596000
5.643500 0.595800
5.676600 0.596200
5.709800 0.596700
5.742900 0.597400
5.776100 0.598500
5.809200 0.601400
5.842300 0.605200
5.875500 0.610400
5.908600 0.617000
5.941800 0.619100
5.974900 0.617300
6.008000 0.611500
6.041200 0.600000
6.074300 0.587200
6.107500 0.579000
6.140600 0.572400
6.173800 0.567500
6.206900 0.563900
6.240000 0.562000
6.273200 0.561700
6.306300 0.564800
6.339500 0.572800
6.372600 0.592100
6.405700 0.600300
6.438900 0.597900
6.472000 0.591200
6.505200 0.580100
6.538300 0.554100
6.571500 0.530200
6.604600 0.517000
6.637700 0.513300
6.670900 0.511900
6.704000 0.511800
6.737200 0.512000
6.770300 0.512500
6.803400 0.513300
6.836600 0.514600
6.869700 0.518700
6.902900 0.521500
6.936000 0.523500
6.969200 0.525800
7.002300 0.527400
7.035400 0.526800
7.068600 0.524800
7.101700 0.533100
7.134900 0.534100
7.168000 0.538600
7.201100 0.571000
7.234300 0.584000
7.267400 0.566400
7.300600 0.552200
7.333700 0.543000
7.366900 0.534000
7.400000 0.527300
7.433100 0.526600
7.466300 0.526600
7.499400 0.527000
7.532600 0.527800
7.565700 0.527000
7.598800 0.521900
7.632000 0.517800
7.665100 0.514800
7.698300 0.512200
7.731400 0.508500
7.764600 0.503400
7.797700 0.497200
7.830800 0.492600
7.864000 0.489600
7.897100 0.487600
7.930300 0.486100
7.963400 0.485300
7.996500 0.485900
8.029700 0.488200
8.062800 0.491500
8.096000 0.520300
8.129100 0.546500
8.162300 0.516200
8.195400 0.484600
8.228500 0.471700
8.261700 0.462800
8.294800 0.456700
8.328000 0.451700
8.361100 0.447700
8.394200 0.444200
8.427400 0.440900
8.460500 0.437800
8.493700 0.423600
8.526800 0.423100
8.560000 0.422400
8.593100 0.422000
8.626200 0.422100
8.659400 0.422500
8.692500 0.422900
8.725700 0.427600
8.758800 0.434700
8.791900 0.435500
8.825100 0.431400
8.858200 0.421900
8.891400 0.418800
8.924500 0.418200
8.957700 0.419100
8.990800 0.424400
9.023900 0.434000
9.057100 0.447600
9.090200 0.463000
9.123400 0.480700
9.156500 0.500200
9.189600 0.514400
9.222800 0.522600
9.255900 0.533700
9.289100 0.545700
9.322200 0.552600
9.355400 0.557100
9.388500 0.562100
9.421600 0.569600
9.454800 0.585100
9.487900 0.600300
9.521100 0.602800
9.554200 0.598600
9.587300 0.583600
9.620500 0.587900
9.653600 0.593200
9.686800 0.596700
9.719900 0.604600
9.753100 0.611100
9.786200 0.604800
9.819300 0.604400
9.852500 0.607000
9.885600 0.663300
9.918800 0.731600
9.951900 0.754600
9.985000 0.762800
10.018200 0.760100
10.051300 0.729700
10.084500 0.703900
10.117600 0.695600
10.150700 0.684500
10.183900 0.681700
10.217000 0.688800
10.250200 0.681000
10.283300 0.670900
10.316500 0.660800
10.349600 0.652200
10.382700 0.644900
10.415900 0.638300
10.449000 0.623100
10.482200 0.605800
10.515300 0.591800
10.548400 0.580800
10.581600 0.572600
10.614700 0.568500
10.647900 0.564500
10.681000 0.561500
10.714200 0.559700
10.747300 0.557500
10.780400 0.549800
10.813600 0.550300
10.846700 0.551500
10.879900 0.554000
10.913000 0.557700
10.946100 0.566100
10.979300 0.580800
11.012400 0.592800
11.045600 0.606700
11.078700 0.622700
11.111900 0.639300
11.145000 0.653400
11.178100 0.665200
11.211300 0.672800
11.244400 0.676400
11.277600 0.679100
11.310700 0.683300
11.343800 0.687100
11.377000 0.686400
11.410100 0.682400
11.443300 0.678600
11.476400 0.674200
11.509600 0.667200
11.542700 0.660100
11.575800 0.677900
11.609000 0.635700
11.642100 0.621000
11.675300 0.609600
11.708400 0.623400
11.741500 0.654800
11.774700 0.714200
11.807800 0.595900
11.841000 0.570600
11.874100 0.555600
11.907300 0.537100
11.940400 0.516900
11.973500 0.501100
12.006700 0.489600
12.039800 0.479200
12.073000 0.468600
12.106100 0.458300
12.139200 0.448900
12.172400 0.440800
12.205500 0.433900
12.238700 0.427900
12.271800 0.422300
12.305000 0.417500
12.338100 0.413700
12.371200 0.411800
12.404400 0.411900
12.437500 0.412600
12.470700 0.415500
12.503800 0.421300
12.536900 0.427200
12.570100 0.436500
12.603200 0.449000
12.636400 0.466900
12.669500 0.489500
12.702700 0.518300
12.735800 0.554300
12.768900 0.594200
12.802100 0.621600
12.835200 0.643500
12.868400 0.665100
12.901500 0.695700
12.934600 0.725300
12.967800 0.760800
13.000900 0.802900
13.034100 0.840400
13.067200 0.894800
13.100400 0.971700
13.133500 0.978500
13.166600 0.968300
13.199800 0.959600
13.232900 0.907200
13.266100 0.856200
13.299200 0.800000
13.332300 0.737600
13.365500 0.697500
13.398600 0.677200
13.431800 0.663300
13.464900 0.649800
13.498100 0.636000
13.531200 0.622500
13.564300 0.613000
13.597500 0.607900
13.630600 0.609900
13.663800 0.641800
13.696900 0.667100
13.730000 0.693200
13.763200 0.714900
13.796300 0.736600
13.829500 0.765400
13.862600 0.793300
13.895800 0.812200
13.928900 0.821000
13.962000 0.820900
13.995200 0.816400
14.028300 0.806900
14.061500 0.793400
14.094600 0.781700
14.127700 0.772900
14.160900 0.768300
14.194000 0.769600
14.227200 0.777400
14.260300 0.790900
14.293500 0.795500
14.326600 0.794400
14.359700 0.792500
14.392900 0.789300
14.426000 0.785600
14.459200 0.782500
14.492300 0.780300
14.525400 0.779200
14.558600 0.779000
14.591700 0.779300
14.624900 0.780200
14.658000 0.781300
14.691100 0.783100
14.724300 0.782700
14.757400 0.780800
14.790600 0.776500
14.823700 0.777400
14.856900 0.787700
14.890000 0.800200
14.923100 0.809500
14.956300 0.818100
14.989400 0.825500
15.022600 0.832500
15.055700 0.839000
15.088800 0.844800
15.122000 0.848500
15.155100 0.856700
15.188300 0.912300
15.221400 0.873400
15.254600 0.864500
15.287700 0.870400
15.320800 0.874600
15.354000 0.878400
15.387100 0.881700
15.420300 0.885200
15.453400 0.889300
15.486500 0.895000
15.519700 0.899500
15.552800 0.900200
15.586000 0.903500
15.619100 0.910000
15.652300 0.917300
15.685400 0.924200
15.718500 0.930200
15.751700 0.934600
15.784800 0.937000
15.818000 0.938800
15.851100 0.940500
15.884200 0.943500
15.917400 0.948600
15.950500 0.955800
15.983700 0.966200
16.016800 0.975500
16.050000 0.979800
16.083100 0.984100
16.116200 0.986500
16.149400 0.995400
16.182500 1.007600
16.215700 1.019200
16.248800 1.033100
16.281900 1.046800
16.315100 1.061300
16.348200 1.073000
16.381400 1.083000
16.414500 1.093300
16.447700 1.101300
16.480800 1.100500
16.513900 1.102600
16.547100 1.104100
16.580200 1.101000
16.613400 1.095200
16.646500 1.091900
16.679600 1.091000
16.712800 1.089900
16.745900 1.087400
16.779100 1.083800
16.812200 1.080200
16.845400 1.076800
16.878500 1.073700
16.911600 1.071700
16.944800 1.072200
16.977900 1.073500
17.011100 1.073200
17.044200 1.070400
17.077300 1.066600
17.110500 1.062700
17.143600 1.058600
17.176800 1.052200
17.209900 1.043300
17.243100 1.037100
17.276200 1.033200
17.309300 1.029000
17.342500 1.024200
17.375600 1.019000
17.408800 1.014900
17.441900 1.012500
17.475000 1.009700
17.508200 1.010400
17.541300 1.011200
17.574500 1.013300
17.607600 1.017900
17.640800 1.033700
17.673900 1.047000
17.707000 1.044600
17.740200 1.030900
17.773300 1.040600
17.806500 1.068200
17.839600 1.080400
17.872700 1.080000
17.905900 1.077200
17.939000 1.081200
17.972200 1.087700
18.005300 1.069500
18.038500 1.059600
18.071600 1.049500
18.104700 1.037100
18.137900 1.015700
18.171000 0.992700
18.204200 0.982300
18.237300 0.971400
18.270400 0.959700
18.303600 0.945800
18.336700 0.931200
18.369900 0.917900
18.403000 0.905300
18.436200 0.896300
18.469300 0.907300
18.502400 0.911100
18.535600 0.900400
18.568700 0.903000
18.601900 0.903000
18.635000 0.904700
18.668100 0.906500
18.701300 0.904500
18.734400 0.902300
18.767600 0.902700
18.800700 0.904100
18.833800 0.915200
18.867000 0.945800
18.900100 0.962300
18.933300 0.967200
18.966400 0.970300
18.999600 0.977700
19.032700 0.968200
19.065800 0.965300
19.099000 0.973300
19.132100 0.983800
19.165300 0.992500
19.198400 0.999400
19.231500 1.020800
19.264700 1.045100
19.297800 1.050200
19.331000 1.046700
19.364100 1.037400
19.397300 1.027400
19.430400 1.021800
19.463500 1.015400
19.496700 1.006700
19.529800 0.998200
19.563000 0.998800
19.596100 0.999000
19.629200 0.999000
19.662400 1.000000
19.695500 0.998900
19.728700 0.999700
19.761800 1.004500
19.795000 1.011600
19.828100 1.019200
19.861200 1.026800
19.894400 1.035100
19.927500 1.043100
19.960700 1.053800
19.993800 1.074600
20.026900 1.092400
20.060100 1.100800
20.093200 1.104300
20.126400 1.115300
20.159500 1.115400
20.192700 1.119800
20.225800 1.170100
20.258900 1.286400
20.292100 1.192500
20.325200 1.165800
20.358400 1.152500
20.391500 1.139900
20.424600 1.140900
20.457800 1.138400
20.490900 1.137400
20.524100 1.150500
20.557200 1.188400
20.590400 1.380300
20.623500 1.435200
20.656600 1.282400
20.689800 1.202100
20.722900 1.142400
20.756100 1.113500
20.789200 1.081300
20.822300 1.058600
20.855500 1.042300
20.888600 1.031300
20.921800 1.024800
20.954900 1.020500
20.988100 1.026500
21.021200 1.029900
21.054300 1.025700
21.087500 1.016700
21.120600 1.003700
21.153800 0.993900
21.186900 0.993200
21.220000 0.988200
21.253200 0.986200
21.286300 1.045800
21.319500 0.970200
21.352600 0.993100
21.385800 1.011600
21.418900 1.025600
21.452000 1.044800
21.485200 1.092500
21.518300 1.055400
21.551500 1.031200
21.584600 1.011400
21.617700 1.008800
21.650900 1.008400
21.684000 1.006300
21.717200 1.004600
21.750300 1.004300
21.783500 0.980700
21.816600 0.940100
21.849700 0.929600
21.882900 0.933400
21.916000 0.944500
21.949200 0.966900
21.982300 1.007700
22.015400 1.030300
22.048600 1.017900
22.081700 0.967400
22.114900 0.941000
22.148000 0.928500
22.181200 0.905000
22.214300 0.876300
22.247400 0.844300
22.280600 0.811100
22.313700 0.782200
22.346900 0.776000
22.380000 0.771700
22.413100 0.768700
22.446300 0.770100
22.479400 0.774400
22.512600 0.792000
22.545700 0.809300
22.578900 0.827500
22.612000 0.844700
22.645100 0.861800
22.678300 0.884500
22.711400 0.919100
22.744600 0.955400
22.777700 0.979400
22.810800 0.997000
22.844000 1.023500
22.877100 1.078200
22.910300 1.111200
22.943400 1.159900
22.976600 1.203100
23.009700 1.261500
23.042800 1.350900
23.076000 1.412000
23.109100 1.442100
23.142300 1.472500
23.175400 1.500600
23.208500 1.554900
23.241700 1.605700
23.274800 1.681300
23.308000 1.732500
23.341100 1.733800
23.374200 1.690600
23.407400 1.705200
23.440500 1.712600
23.473700 1.716000
23.506800 1.771200
23.540000 1.843800
23.573100 1.872200
23.606200 1.830800
23.639400 1.780000
23.672500 1.759800
23.705700 1.750800
23.738800 1.767000
23.771900 1.779300
23.805100 1.780900
23.838200 1.758400
23.871400 1.748200
23.904500 1.738000
23.937700 1.735400
23.970800 1.731700
24.003900 1.714100
24.037100 1.680700
24.070200 1.664500
24.103400 1.680000
24.136500 1.700000
24.169600 1.696900
24.202800 1.647000
24.235900 1.587400
24.269100 1.527000
24.302200 1.476200
24.335400 1.430400
24.368500 1.402600
24.401600 1.397800
24.434800 1.393600
24.467900 1.386500
24.501100 1.373400
24.534200 1.387100
24.567300 1.424600
24.600500 1.446100
24.633600 1.462800
24.666800 1.465900
24.699900 1.455300
24.733100 1.436700
24.766200 1.401400
24.799300 1.335100
24.832500 1.288900
24.865600 1.255500
24.898800 1.230700
24.931900 1.210600
24.965000 1.194500
24.998200 1.186800
25.031300 1.181700
25.064500 1.176200
25.097600 1.169400
25.130800 1.153800
25.163900 1.139600
25.197000 1.124100
25.230200 1.108800
25.263300 1.108900
25.296500 1.111200
25.329600 1.110200
25.362700 1.113700
25.395900 1.122000
25.429000 1.134800
25.462200 1.153200
25.495300 1.177300
25.528500 1.207400
25.561600 1.237900
25.594700 1.261200
25.627900 1.276000
25.661000 1.293000
25.694200 1.302600
25.727300 1.349500
25.760400 1.232100
25.793600 1.197200
25.826700 1.186500
25.859900 1.180300
25.893000 1.164800
25.926200 1.141200
25.959300 1.118100
25.992400 1.095200
26.025600 1.078500
26.058700 1.065100
26.091900 1.051100
26.125000 1.040200
26.158100 1.031400
26.191300 1.028500
26.224400 1.033300
26.257600 1.039800
26.290700 1.041800
26.323900 1.045700
26.357000 1.050100
26.390100 1.054600
26.423300 1.057300
26.456400 1.057900
26.489600 1.058100
26.522700 1.056500
26.555800 1.051300
26.589000 1.050100
26.622100 1.056000
26.655300 1.066900
26.688400 1.078700
26.721600 1.097400
26.754700 1.121200
26.787800 1.150600
26.821000 1.189700
26.854100 1.251100
26.887300 1.337300
26.920400 1.483200
26.953500 2.901900
26.986700 44.024600
27.019800 3.485400
27.053000 2.477700
27.086100 2.002200
27.119300 1.670500
27.152400 1.409900
27.185500 1.205600
27.218700 1.062400
27.251800 0.965200
27.285000 0.901400
27.318100 0.863000
27.351200 0.835900
27.384400 0.824500
27.417500 0.835200
27.450700 0.840400
27.483800 0.848200
27.516900 0.821900
27.550100 0.824200
27.583200 0.832400
27.616400 0.848800
27.649500 0.859900
27.682700 0.877400
27.715800 0.890000
27.748900 0.907100
27.782100 0.925900
27.815200 0.943100
27.848400 0.958800
27.881500 0.975000
27.914600 0.989100
27.947800 1.003800
27.980900 1.019000
28.014100 1.034800
28.047200 1.048100
28.080400 1.056800
28.113500 1.064000
