set title 'mp-1079182 - Density of States'
set xlabel 'Energy (eV)'
set ylabel 'DOS (states/eV)'
set grid
set xrange [-10:10]
set yrange [0:19.461]
set xzeroaxis lt -1
set terminal png size 800,600
set output 'mp-1079182_dos_gnuplot.png'
plot '-' using 1:2 with lines title 'DOS'
-3.576000 0.000000
-3.563900 0.000000
-3.551800 0.000000
-3.539700 0.000000
-3.527600 0.000000
-3.515400 0.000000
-3.503300 0.000000
-3.491200 0.000000
-3.479100 0.000000
-3.467000 0.000000
-3.454800 0.000000
-3.442700 0.000000
-3.430600 0.000000
-3.418500 0.000000
-3.406300 0.000000
-3.394200 0.000000
-3.382100 0.000000
-3.370000 0.000000
-3.357900 0.000000
-3.345700 0.000000
-3.333600 0.000000
-3.321500 0.000000
-3.309400 0.000000
-3.297300 0.000000
-3.285100 0.000000
-3.273000 0.000000
-3.260900 0.000000
-3.248800 0.000000
-3.236600 0.000000
-3.224500 0.000000
-3.212400 0.000000
-3.200300 0.000000
-3.188200 0.000000
-3.176000 0.000000
-3.163900 0.000000
-3.151800 0.000000
-3.139700 0.000000
-3.127600 0.000000
-3.115400 0.000000
-3.103300 0.000000
-3.091200 0.000000
-3.079100 0.000000
-3.067000 0.000000
-3.054800 0.000000
-3.042700 0.000000
-3.030600 0.000000
-3.018500 0.000000
-3.006300 0.000000
-2.994200 0.000000
-2.982100 0.000000
-2.970000 0.000000
-2.957900 0.000000
-2.945700 0.000000
-2.933600 0.000000
-2.921500 0.000000
-2.909400 0.000000
-2.897300 0.000000
-2.885100 0.000000
-2.873000 0.000000
-2.860900 0.000000
-2.848800 0.000000
-2.836700 0.000000
-2.824500 0.000000
-2.812400 0.000000
-2.800300 0.000000
-2.788200 0.000000
-2.776000 0.000000
-2.763900 0.000000
-2.751800 0.000000
-2.739700 0.000000
-2.727600 0.000000
-2.715400 0.000000
-2.703300 0.000000
-2.691200 0.000000
-2.679100 0.000000
-2.667000 0.000000
-2.654800 0.000000
-2.642700 0.000000
-2.630600 0.000000
-2.618500 0.000000
-2.606400 0.000000
-2.594200 0.000000
-2.582100 0.000000
-2.570000 0.000000
-2.557900 0.000000
-2.545700 0.000000
-2.533600 0.000000
-2.521500 0.000000
-2.509400 0.000000
-2.497300 0.000000
-2.485100 0.000000
-2.473000 0.000000
-2.460900 0.005500
-2.448800 0.020300
-2.436700 0.044300
-2.424500 0.077600
-2.412400 0.114200
-2.400300 0.142200
-2.388200 0.160800
-2.376000 0.170100
-2.363900 0.171900
-2.351800 0.175400
-2.339700 0.182100
-2.327600 0.191900
-2.315400 0.204800
-2.303300 0.218800
-2.291200 0.233200
-2.279100 0.247900
-2.267000 0.262800
-2.254800 0.275900
-2.242700 0.285800
-2.230600 0.292300
-2.218500 0.295400
-2.206400 0.297400
-2.194200 0.300600
-2.182100 0.305400
-2.170000 0.311900
-2.157900 0.319500
-2.145700 0.327100
-2.133600 0.334600
-2.121500 0.342100
-2.109400 0.349600
-2.097300 0.356900
-2.085100 0.364200
-2.073000 0.371400
-2.060900 0.378700
-2.048800 0.386300
-2.036700 0.394400
-2.024500 0.403000
-2.012400 0.411700
-2.000300 0.419400
-1.988200 0.426200
-1.976100 0.431400
-1.963900 0.435600
-1.951800 0.439600
-1.939700 0.443600
-1.927600 0.448100
-1.915400 0.453200
-1.903300 0.458400
-1.891200 0.463800
-1.879100 0.469100
-1.867000 0.474300
-1.854800 0.479500
-1.842700 0.484500
-1.830600 0.489400
-1.818500 0.494300
-1.806400 0.499500
-1.794200 0.505100
-1.782100 0.511100
-1.770000 0.517400
-1.757900 0.523800
-1.745800 0.530200
-1.733600 0.536700
-1.721500 0.543300
-1.709400 0.549900
-1.697300 0.556600
-1.685100 0.563300
-1.673000 0.569700
-1.660900 0.575600
-1.648800 0.580900
-1.636700 0.585600
-1.624500 0.590100
-1.612400 0.594500
-1.600300 0.598800
-1.588200 0.602900
-1.576100 0.607000
-1.563900 0.611200
-1.551800 0.615600
-1.539700 0.620300
-1.527600 0.625100
-1.515400 0.630000
-1.503300 0.634900
-1.491200 0.639800
-1.479100 0.644700
-1.467000 0.649600
-1.454800 0.654700
-1.442700 0.659900
-1.430600 0.665100
-1.418500 0.670500
-1.406400 0.675900
-1.394200 0.681400
-1.382100 0.686900
-1.370000 0.692400
-1.357900 0.697900
-1.345800 0.703400
-1.333600 0.709000
-1.321500 0.714500
-1.309400 0.720100
-1.297300 0.725700
-1.285100 0.731200
-1.273000 0.736800
-1.260900 0.770000
-1.248800 0.823600
-1.236700 0.874600
-1.224500 0.922900
-1.212400 0.917300
-1.200300 0.897200
-1.188200 0.878000
-1.176100 0.859600
-1.163900 0.863900
-1.151800 0.867600
-1.139700 0.870800
-1.127600 0.873800
-1.115500 0.876500
-1.103300 0.879000
-1.091200 0.881200
-1.079100 0.875500
-1.067000 0.864500
-1.054800 0.853800
-1.042700 0.843900
-1.030600 0.840900
-1.018500 0.839600
-1.006400 0.838200
-0.994200 0.836700
-0.982100 0.835200
-0.970000 0.833600
-0.957900 0.832000
-0.945800 0.830300
-0.933600 0.828500
-0.921500 0.826800
-0.909400 0.825200
-0.897300 0.824500
-0.885100 0.824100
-0.873000 0.823400
-0.860900 0.820200
-0.848800 0.815200
-0.836700 0.809400
-0.824500 0.804200
-0.812400 0.800400
-0.800300 0.798500
-0.788200 0.796500
-0.776100 0.824900
-0.763900 0.887200
-0.751800 0.952400
-0.739700 1.007900
-0.727600 1.004000
-0.715500 0.990500
-0.703300 0.976200
-0.691200 0.976900
-0.679100 0.989600
-0.667000 1.002600
-0.654800 1.015700
-0.642700 1.029100
-0.630600 1.042600
-0.618500 1.049300
-0.606400 1.055000
-0.594200 1.053800
-0.582100 1.051900
-0.570000 1.053000
-0.557900 1.057500
-0.545800 1.063200
-0.533600 1.069300
-0.521500 1.076200
-0.509400 1.083400
-0.497300 1.091300
-0.485200 1.099200
-0.473000 1.107100
-0.460900 1.115400
-0.448800 1.124100
-0.436700 1.131700
-0.424500 1.138200
-0.412400 1.144700
-0.400300 1.151200
-0.388200 1.158800
-0.376100 1.164600
-0.363900 1.170300
-0.351800 1.176300
-0.339700 1.184200
-0.327600 1.192000
-0.315500 1.200000
-0.303300 1.207900
-0.291200 1.216000
-0.279100 1.224000
-0.267000 1.232200
-0.254900 1.240800
-0.242700 1.249400
-0.230600 1.258300
-0.218500 1.266900
-0.206400 1.275200
-0.194200 1.283400
-0.182100 1.337900
-0.170000 1.339700
-0.157900 1.341700
-0.145800 1.311500
-0.133600 1.319600
-0.121500 1.328000
-0.109400 1.347700
-0.097300 1.395300
-0.085200 1.441100
-0.073000 1.484100
-0.060900 1.479300
-0.048800 1.475000
-0.036700 1.471300
-0.024500 1.472800
-0.012400 1.484800
-0.000300 1.496700
0.011800 1.508400
0.023900 1.520000
0.036100 1.531500
0.048200 1.536800
0.060300 1.539700
0.072400 1.542800
0.084500 1.548900
0.096700 1.557600
0.108800 1.566400
0.120900 1.581600
0.133000 1.601800
0.145100 1.621900
0.157300 1.634900
0.169400 1.647300
0.181500 1.657300
0.193600 1.670300
0.205800 1.726400
0.217900 1.730800
0.230000 1.734100
0.242100 1.822400
0.254200 1.885600
0.266400 2.000800
0.278500 2.015100
0.290600 2.058000
0.302700 2.102000
0.314800 2.159500
0.327000 2.205700
0.339100 2.245800
0.351200 2.296900
0.363300 2.344100
0.375400 2.391000
0.387600 2.439500
0.399700 2.492500
0.411800 2.565100
0.423900 2.655100
0.436100 2.755900
0.448200 2.861000
0.460300 3.007100
0.472400 3.191900
0.484500 3.360400
0.496700 3.575500
0.508800 3.949300
0.520900 4.028200
0.533000 3.889900
0.545100 3.759600
0.557300 3.702700
0.569400 3.676400
0.581500 3.757700
0.593600 3.771800
0.605700 3.723100
0.617900 3.620000
0.630000 3.556900
0.642100 3.434600
0.654200 3.293700
0.666400 3.223800
0.678500 3.051000
0.690600 2.885500
0.702700 2.685700
0.714800 2.572000
0.727000 2.437000
0.739100 2.337600
0.751200 2.270400
0.763300 2.229300
0.775400 2.194000
0.787600 2.159700
0.799700 2.127400
0.811800 2.080000
0.823900 2.073200
0.836100 2.077300
0.848200 2.122900
0.860300 2.112200
0.872400 2.076700
0.884500 2.033500
0.896700 1.994400
0.908800 1.964200
0.920900 1.940000
0.933000 1.953200
0.945100 2.003400
0.957300 2.058900
0.969400 2.053500
0.981500 1.981200
0.993600 1.905900
1.005700 1.855700
1.017900 1.834000
1.030000 1.803000
1.042100 1.737700
1.054200 1.683100
1.066400 1.758800
1.078500 1.879700
1.090600 2.114700
1.102700 2.511900
1.114800 2.758400
1.127000 2.900200
1.139100 3.042600
1.151200 3.128900
1.163300 3.258600
1.175400 3.387800
1.187600 3.667600
1.199700 3.618800
1.211800 3.483400
1.223900 3.921200
1.236000 4.584100
1.248200 5.044300
1.260300 5.197900
1.272400 5.285000
1.284500 5.482000
1.296700 5.663000
1.308800 5.856000
1.320900 6.004900
1.333000 6.106800
1.345100 6.377400
1.357300 6.753000
1.369400 6.549700
1.381500 5.905300
1.393600 5.583800
1.405700 5.432000
1.417900 5.518100
1.430000 5.734400
1.442100 6.047100
1.454200 6.359100
1.466300 6.657800
1.478500 6.958900
1.490600 7.306200
1.502700 7.484100
1.514800 7.544200
1.527000 7.087800
1.539100 6.846400
1.551200 6.618700
1.563300 6.293800
1.575400 6.031300
1.587600 5.964900
1.599700 6.373600
1.611800 6.960300
1.623900 8.051500
1.636000 7.898900
1.648200 6.832300
1.660300 6.242200
1.672400 5.778500
1.684500 5.573700
1.696700 5.343900
1.708800 5.676400
1.720900 5.410600
1.733000 5.304500
1.745100 5.406100
1.757300 5.235700
1.769400 4.981500
1.781500 5.337400
1.793600 4.767300
1.805700 4.569500
1.817900 4.387700
1.830000 4.246200
1.842100 4.006800
1.854200 3.444200
1.866300 3.316900
1.878500 3.208600
1.890600 3.112400
1.902700 3.050700
1.914800 3.011900
1.927000 3.001200
1.939100 3.057100
1.951200 3.138900
1.963300 3.313000
1.975400 3.531000
1.987600 3.795100
1.999700 3.992900
2.011800 4.982600
2.023900 6.401300
2.036000 4.960000
2.048200 5.250800
2.060300 5.596800
2.072400 6.400300
2.084500 6.905600
2.096600 7.208000
2.108800 7.030300
2.120900 6.603000
2.133000 6.551100
2.145100 6.498200
2.157300 6.634000
2.169400 6.723200
2.181500 6.874200
2.193600 7.124900
2.205700 7.267300
2.217900 7.602200
2.230000 8.587300
2.242100 9.715700
2.254200 11.583900
2.266300 12.655600
2.278500 13.267700
2.290600 12.786600
2.302700 11.925200
2.314800 11.678800
2.327000 11.989100
2.339100 11.401900
2.351200 9.843300
2.363300 9.502000
2.375400 9.552100
2.387600 9.633500
2.399700 9.744500
2.411800 9.669700
2.423900 9.145500
2.436000 8.534300
2.448200 8.283000
2.460300 8.166300
2.472400 8.745600
2.484500 8.552800
2.496600 8.346100
2.508800 8.411600
2.520900 8.398100
2.533000 8.380100
2.545100 8.112100
2.557300 7.987200
2.569400 7.654000
2.581500 8.451000
2.593600 9.078000
2.605700 9.156800
2.617900 9.384000
2.630000 9.797400
2.642100 10.167300
2.654200 10.690700
2.666300 11.141700
2.678500 11.869200
2.690600 11.674800
2.702700 11.557700
2.714800 11.408000
2.726900 11.411100
2.739100 11.619000
2.751200 11.633100
2.763300 12.177300
2.775400 12.700300
2.787600 12.803200
2.799700 12.589800
2.811800 12.821500
2.823900 11.883500
2.836000 11.741300
2.848200 12.058600
2.860300 12.589300
2.872400 12.805700
2.884500 13.857700
2.896600 15.081800
2.908800 15.858600
2.920900 14.773500
2.933000 14.804700
2.945100 15.982500
2.957200 15.823900
2.969400 16.263000
2.981500 14.768200
2.993600 13.682400
3.005700 12.892000
3.017900 12.589800
3.030000 10.156300
3.042100 9.355800
3.054200 9.169800
3.066300 9.686000
3.078500 9.897600
3.090600 10.804900
3.102700 10.253400
3.114800 10.352500
3.126900 10.515900
3.139100 11.303800
3.151200 11.970600
3.163300 10.757300
3.175400 10.118900
3.187600 9.699000
3.199700 9.623400
3.211800 9.695000
3.223900 9.650500
3.236000 9.336800
3.248200 8.908400
3.260300 8.999400
3.272400 9.134200
3.284500 9.265800
3.296600 9.363100
3.308800 9.469100
3.320900 9.319400
3.333000 9.084500
3.345100 8.273000
3.357200 7.697000
3.369400 7.482600
3.381500 7.379100
3.393600 7.416800
3.405700 7.562300
3.417900 9.733100
3.430000 7.501100
3.442100 7.900800
3.454200 7.614300
3.466300 7.444500
3.478500 7.529400
3.490600 7.586400
3.502700 7.922700
3.514800 8.318200
3.526900 8.378800
3.539100 8.127100
3.551200 7.828600
3.563300 8.084700
3.575400 7.800200
3.587500 8.300100
3.599700 8.304600
3.611800 8.256500
3.623900 8.888000
3.636000 9.296300
3.648200 9.587500
3.660300 9.424000
3.672400 9.358000
3.684500 9.638200
3.696600 10.019100
3.708800 10.129100
3.720900 10.493100
3.733000 10.435300
3.745100 10.240300
3.757200 9.600900
3.769400 9.689800
3.781500 9.852000
3.793600 9.631400
3.805700 9.398400
3.817800 9.346300
3.830000 9.322200
3.842100 9.409600
3.854200 9.421700
3.866300 9.820500
3.878500 10.057300
3.890600 9.443600
3.902700 9.557400
3.914800 10.314700
3.926900 10.936900
3.939100 11.262900
3.951200 11.056600
3.963300 11.264100
3.975400 11.304300
3.987500 11.483300
3.999700 11.570700
4.011800 11.561900
4.023900 11.623300
4.036000 11.704400
4.048200 11.684500
4.060300 11.804100
4.072400 11.828600
4.084500 11.938200
4.096600 12.468100
4.108800 11.875700
4.120900 11.967900
4.133000 11.328700
4.145100 11.623700
4.157200 12.326900
4.169400 12.926000
4.181500 12.562200
4.193600 12.106300
4.205700 12.171800
4.217800 12.133400
4.230000 12.297200
4.242100 13.040700
4.254200 12.769000
4.266300 13.131000
4.278500 13.162500
4.290600 13.546100
4.302700 13.557300
4.314800 13.663200
4.326900 13.456900
4.339100 13.296300
4.351200 13.561200
4.363300 12.754500
4.375400 13.737900
4.387500 13.794200
4.399700 13.755000
4.411800 12.543100
4.423900 12.985800
4.436000 12.595500
4.448100 12.673900
4.460300 13.435700
4.472400 12.193000
4.484500 11.308400
4.496600 10.862600
4.508800 10.577300
4.520900 10.100300
4.533000 9.864300
4.545100 9.758900
4.557200 10.006300
4.569400 9.484700
4.581500 9.588400
4.593600 8.031200
4.605700 6.831000
4.617800 6.630900
4.630000 6.496000
4.642100 6.674300
4.654200 6.634400
4.666300 6.193900
4.678400 6.119500
4.690600 6.096700
4.702700 6.215100
4.714800 6.509700
4.726900 6.968300
4.739100 6.516100
4.751200 6.395400
4.763300 6.513900
4.775400 6.410300
4.787500 6.257400
4.799700 6.294000
4.811800 6.344100
4.823900 6.440600
4.836000 6.625200
4.848100 6.888100
4.860300 6.893300
4.872400 6.707900
4.884500 6.836800
4.896600 6.917200
4.908800 6.729400
4.920900 6.255300
4.933000 6.060900
4.945100 5.886600
4.957200 5.987500
4.969400 6.088000
4.981500 6.317400
4.993600 6.357500
5.005700 6.699700
5.017800 6.803000
5.030000 7.097200
5.042100 8.008800
5.054200 7.520600
5.066300 7.181800
5.078400 6.973800
5.090600 6.805300
5.102700 6.585800
5.114800 6.499200
5.126900 6.403300
5.139100 6.346100
5.151200 6.636800
5.163300 6.303100
5.175400 6.315900
5.187500 6.552800
5.199700 6.627100
5.211800 7.256500
5.223900 7.236700
5.236000 7.173000
5.248100 7.307900
5.260300 7.548400
5.272400 7.742200
5.284500 7.674600
5.296600 7.691300
5.308700 7.661700
5.320900 7.677800
5.333000 7.705900
5.345100 7.741600
5.357200 8.085300
5.369400 8.824600
5.381500 9.042800
5.393600 9.025100
5.405700 9.393400
5.417800 9.241100
5.430000 9.109800
5.442100 8.957800
5.454200 9.797100
5.466300 9.556200
5.478400 9.841300
5.490600 10.115200
5.502700 11.400700
5.514800 10.356000
5.526900 10.453600
5.539100 10.358900
5.551200 10.492400
5.563300 10.705900
5.575400 11.224900
5.587500 11.139400
5.599700 11.454100
5.611800 11.326000
5.623900 11.439400
5.636000 11.533200
5.648100 11.632600
5.660300 12.084800
5.672400 12.367100
5.684500 12.647700
5.696600 13.151600
5.708700 13.298500
5.720900 14.431900
5.733000 13.010100
5.745100 13.388600
5.757200 14.484600
5.769400 15.379500
5.781500 16.220600
5.793600 16.416800
5.805700 17.046200
5.817800 17.691900
5.830000 16.635100
5.842100 16.210800
5.854200 16.236500
5.866300 16.444700
5.878400 17.049000
5.890600 16.410000
5.902700 16.701700
5.914800 16.675800
5.926900 16.603400
5.939000 16.613800
5.951200 15.274600
5.963300 14.567500
5.975400 13.672700
5.987500 13.530600
5.999700 13.201200
6.011800 13.147400
6.023900 12.803500
6.036000 12.733400
6.048100 12.120900
6.060300 11.593100
6.072400 11.101000
6.084500 11.338400
6.096600 12.022300
6.108700 11.793700
6.120900 11.166900
6.133000 10.634600
6.145100 10.480900
6.157200 11.089700
6.169300 12.062900
6.181500 12.239800
6.193600 14.209400
6.205700 14.259800
6.217800 15.100500
6.230000 14.630700
6.242100 13.282400
6.254200 12.066800
6.266300 11.947900
6.278400 12.593200
6.290600 13.936900
6.302700 15.138500
6.314800 14.628500
6.326900 13.784200
6.339000 14.508500
6.351200 14.959900
6.363300 14.530000
6.375400 14.519500
6.387500 13.425500
6.399700 13.121100
6.411800 13.906500
6.423900 14.629800
6.436000 15.473600
6.448100 14.179400
6.460300 14.760200
6.472400 14.285200
6.484500 13.451900
6.496600 12.511200
6.508700 11.544800
6.520900 11.162300
6.533000 11.251600
6.545100 10.596900
6.557200 10.393100
6.569300 10.249500
6.581500 10.066100
6.593600 10.028300
6.605700 10.067200
6.617800 10.053200
6.630000 10.109700
6.642100 10.646000
6.654200 9.625400
6.666300 9.221600
6.678400 9.032200
6.690600 8.572300
6.702700 8.282100
6.714800 8.122100
6.726900 7.963900
6.739000 7.855900
6.751200 7.698800
6.763300 7.433000
6.775400 7.221700
6.787500 7.155600
6.799600 7.036800
6.811800 6.963700
6.823900 6.864400
6.836000 7.064500
6.848100 7.285300
6.860300 6.372300
6.872400 6.189400
6.884500 6.187300
6.896600 6.295000
6.908700 6.573400
6.920900 6.227300
6.933000 6.159700
6.945100 6.478900
6.957200 6.790400
6.969300 6.878000
6.981500 7.525900
6.993600 7.244500
7.005700 7.587300
7.017800 8.048400
7.029900 8.649900
7.042100 8.946000
7.054200 9.011300
7.066300 9.484400
7.078400 9.838700
7.090600 9.898600
7.102700 11.035800
7.114800 9.593600
7.126900 9.520700
7.139000 10.744800
7.151200 9.338100
7.163300 8.291200
7.175400 7.555300
7.187500 7.115700
7.199600 6.574200
7.211800 6.201900
7.223900 5.959300
7.236000 5.758500
7.248100 5.657000
7.260300 5.738900
7.272400 5.994900
7.284500 6.286300
7.296600 6.639400
7.308700 6.662800
7.320900 6.666100
7.333000 6.607700
7.345100 6.408600
7.357200 6.095200
7.369300 5.782600
7.381500 5.448300
7.393600 5.145400
7.405700 4.897200
7.417800 4.721300
7.429900 4.622000
7.442100 4.554900
7.454200 4.514600
7.466300 4.505600
7.478400 4.524300
7.490600 4.612900
7.502700 4.780200
7.514800 4.941800
7.526900 5.100300
7.539000 5.054400
7.551200 5.064100
7.563300 5.098100
7.575400 5.110300
7.587500 5.150600
7.599600 5.072000
7.611800 5.085600
7.623900 5.132600
7.636000 5.054900
7.648100 4.989100
7.660200 4.944000
7.672400 4.918600
7.684500 4.917100
7.696600 4.937800
7.708700 4.982600
7.720900 5.017600
7.733000 5.093000
7.745100 5.167600
7.757200 5.315700
7.769300 5.475500
7.781500 5.592500
7.793600 5.738500
7.805700 5.920500
7.817800 6.201100
7.829900 6.641300
7.842100 6.774300
7.854200 6.419900
7.866300 6.261100
7.878400 6.292100
7.890500 6.327200
7.902700 6.301700
7.914800 6.300800
7.926900 6.357200
7.939000 6.374300
7.951200 6.382100
7.963300 6.364400
7.975400 6.529600
7.987500 6.470300
7.999600 6.031200
8.011800 5.988100
8.023900 5.944200
8.036000 5.752100
8.048100 5.623900
8.060200 5.500100
8.072400 5.338200
8.084500 5.225900
8.096600 5.153500
8.108700 4.991000
8.120900 4.854400
8.133000 4.703600
8.145100 4.570100
8.157200 4.611600
8.169300 4.519300
8.181500 4.361600
8.193600 4.386400
8.205700 4.347100
8.217800 4.146800
8.229900 3.803600
8.242100 3.466700
8.254200 3.264800
8.266300 3.048200
8.278400 2.764100
8.290500 2.566800
8.302700 2.424700
8.314800 2.351400
8.326900 2.294300
8.339000 2.214400
8.351200 2.135700
8.363300 2.060600
8.375400 1.998000
8.387500 1.949300
8.399600 1.943200
8.411800 1.952800
8.423900 1.980500
8.436000 2.024200
8.448100 1.981400
8.460200 1.930900
8.472400 1.884700
8.484500 1.851700
8.496600 1.761500
8.508700 1.551500
8.520800 1.372900
8.533000 1.151800
8.545100 0.999500
8.557200 0.871500
8.569300 0.803400
8.581500 0.737400
8.593600 0.672200
8.605700 0.639900
8.617800 0.624400
8.629900 0.613800
8.642100 0.606700
8.654200 0.599300
8.666300 0.591600
8.678400 0.583700
8.690500 0.578200
8.702700 0.575500
8.714800 0.575600
8.726900 0.580300
8.739000 0.588900
8.751200 0.598800
8.763300 0.609000
8.775400 0.619500
8.787500 0.630000
8.799600 0.641700
8.811800 0.654800
8.823900 0.669300
8.836000 0.672500
8.848100 0.680500
8.860200 0.691900
8.872400 0.704400
8.884500 0.716000
8.896600 0.727300
8.908700 0.739800
8.920800 0.753800
8.933000 0.769200
8.945100 0.785800
8.957200 0.805000
8.969300 0.824700
8.981500 0.844600
8.993600 0.864600
9.005700 0.884700
9.017800 0.905400
9.029900 0.927000
9.042100 0.958800
9.054200 0.981600
9.066300 1.002900
9.078400 1.022900
9.090500 1.041800
9.102700 1.059900
9.114800 1.083600
9.126900 1.107500
9.139000 1.132100
9.151100 1.157300
9.163300 1.183500
9.175400 1.215100
9.187500 1.251000
9.199600 1.290500
9.211800 1.330300
9.223900 1.370300
9.236000 1.410500
9.248100 1.449300
9.260200 1.487700
9.272400 1.527500
9.284500 1.568900
9.296600 1.611000
9.308700 1.664600
9.320800 1.731900
9.333000 1.807700
9.345100 1.892400
