set title 'mp-7947 - Density of States'
set xlabel 'Energy (eV)'
set ylabel 'DOS (states/eV)'
set grid
set xrange [-10:10]
set yrange [0:14.852]
set xzeroaxis lt -1
set terminal png size 800,600
set output 'mp-7947_dos_gnuplot.png'
plot '-' using 1:2 with lines title 'DOS'
-20.247200 0.000000
-20.199700 0.000000
-20.152300 0.000000
-20.104900 0.000000
-20.057500 0.000000
-20.010100 0.000000
-19.962700 0.000000
-19.915300 0.000000
-19.867900 0.000000
-19.820400 0.000000
-19.773000 0.000000
-19.725600 0.000000
-19.678200 0.000000
-19.630800 0.000000
-19.583400 0.000000
-19.536000 0.000000
-19.488600 0.000000
-19.441100 0.000000
-19.393700 0.000000
-19.346300 0.000000
-19.298900 0.000000
-19.251500 0.000000
-19.204100 0.000000
-19.156700 0.000000
-19.109300 0.000000
-19.061800 0.000000
-19.014400 0.000000
-18.967000 0.000000
-18.919600 0.000000
-18.872200 0.000000
-18.824800 0.000000
-18.777400 0.000000
-18.730000 0.000000
-18.682500 0.000000
-18.635100 0.000000
-18.587700 0.000000
-18.540300 0.000000
-18.492900 0.000000
-18.445500 0.000000
-18.398100 0.000000
-18.350700 0.000000
-18.303200 0.000000
-18.255800 0.000000
-18.208400 0.000000
-18.161000 0.000000
-18.113600 0.000000
-18.066200 0.000000
-18.018800 0.000000
-17.971300 0.000000
-17.923900 0.000000
-17.876500 0.000000
-17.829100 0.000000
-17.781700 0.000000
-17.734300 0.000000
-17.686900 0.000000
-17.639500 0.000000
-17.592000 0.000000
-17.544600 0.000000
-17.497200 0.000000
-17.449800 0.000000
-17.402400 0.000000
-17.355000 0.000000
-17.307600 0.000000
-17.260200 0.000000
-17.212700 0.000000
-17.165300 0.000000
-17.117900 0.000000
-17.070500 0.000000
-17.023100 0.000000
-16.975700 0.000000
-16.928300 0.000000
-16.880900 0.000000
-16.833400 0.000000
-16.786000 0.000000
-16.738600 0.000000
-16.691200 0.000000
-16.643800 0.000000
-16.596400 0.000000
-16.549000 0.000000
-16.501600 0.000000
-16.454100 0.000000
-16.406700 0.000000
-16.359300 0.000000
-16.311900 0.000000
-16.264500 0.000000
-16.217100 0.000000
-16.169700 0.000000
-16.122200 0.000000
-16.074800 0.000000
-16.027400 0.000000
-15.980000 0.000000
-15.932600 0.004000
-15.885200 0.310700
-15.837800 0.465600
-15.790400 0.607600
-15.742900 0.750300
-15.695500 0.897500
-15.648100 1.069600
-15.600700 1.284800
-15.553300 1.532400
-15.505900 1.946700
-15.458500 4.771000
-15.411100 5.600500
-15.363600 4.185600
-15.316200 3.113200
-15.268800 2.592400
-15.221400 2.237200
-15.174000 2.446700
-15.126600 2.431000
-15.079200 2.605800
-15.031800 6.543500
-14.984300 2.934700
-14.936900 7.735500
-14.889500 8.564800
-14.842100 7.625900
-14.794700 7.610100
-14.747300 3.538700
-14.699900 1.256000
-14.652500 0.840000
-14.605000 0.503700
-14.557600 0.000500
-14.510200 0.000000
-14.462800 0.000000
-14.415400 0.000000
-14.368000 0.000000
-14.320600 0.000000
-14.273100 0.000000
-14.225700 0.000000
-14.178300 0.000000
-14.130900 0.000000
-14.083500 0.000000
-14.036100 0.000000
-13.988700 0.000000
-13.941300 0.000000
-13.893800 0.000000
-13.846400 0.000000
-13.799000 0.000000
-13.751600 0.000000
-13.704200 0.000000
-13.656800 0.000000
-13.609400 0.000000
-13.562000 0.000000
-13.514500 0.000000
-13.467100 0.000000
-13.419700 0.000000
-13.372300 0.000000
-13.324900 0.000000
-13.277500 0.000000
-13.230100 0.000000
-13.182700 0.000000
-13.135200 0.000000
-13.087800 0.000000
-13.040400 0.000000
-12.993000 0.000000
-12.945600 0.000000
-12.898200 0.000000
-12.850800 0.000000
-12.803400 0.000000
-12.755900 0.000000
-12.708500 0.000000
-12.661100 0.000000
-12.613700 0.000000
-12.566300 0.000000
-12.518900 0.000000
-12.471500 0.000000
-12.424000 0.000000
-12.376600 0.000000
-12.329200 0.000000
-12.281800 0.000000
-12.234400 0.000000
-12.187000 0.000000
-12.139600 0.000000
-12.092200 0.000000
-12.044700 0.000000
-11.997300 0.000000
-11.949900 0.000000
-11.902500 0.000000
-11.855100 0.000000
-11.807700 0.000000
-11.760300 0.000000
-11.712900 0.000000
-11.665400 0.000000
-11.618000 0.000000
-11.570600 0.000000
-11.523200 0.000000
-11.475800 0.000000
-11.428400 0.000000
-11.381000 0.000000
-11.333600 0.000000
-11.286100 0.000000
-11.238700 0.000000
-11.191300 0.000000
-11.143900 0.000000
-11.096500 0.000000
-11.049100 0.000000
-11.001700 0.000000
-10.954300 0.000000
-10.906800 0.000000
-10.859400 0.000000
-10.812000 0.000000
-10.764600 0.000000
-10.717200 0.000000
-10.669800 0.000000
-10.622400 0.000000
-10.575000 0.000000
-10.527500 0.000000
-10.480100 0.000000
-10.432700 0.000000
-10.385300 0.000000
-10.337900 0.000000
-10.290500 0.000000
-10.243100 0.000000
-10.195600 0.000000
-10.148200 0.000000
-10.100800 0.000000
-10.053400 0.000000
-10.006000 0.000000
-9.958600 0.000000
-9.911200 0.000000
-9.863800 0.000000
-9.816300 0.000000
-9.768900 0.000000
-9.721500 0.000000
-9.674100 0.000000
-9.626700 0.000000
-9.579300 0.000000
-9.531900 0.000000
-9.484500 0.000000
-9.437000 0.000000
-9.389600 0.000000
-9.342200 0.000000
-9.294800 0.000000
-9.247400 0.000000
-9.200000 0.000000
-9.152600 0.000000
-9.105200 0.000000
-9.057700 0.000000
-9.010300 0.000000
-8.962900 0.000000
-8.915500 0.000000
-8.868100 0.000000
-8.820700 0.000000
-8.773300 0.000000
-8.725900 0.000000
-8.678400 0.000000
-8.631000 0.000000
-8.583600 0.000000
-8.536200 0.000000
-8.488800 0.000000
-8.441400 0.000000
-8.394000 0.000000
-8.346500 0.000000
-8.299100 0.000000
-8.251700 0.000000
-8.204300 0.000000
-8.156900 0.000000
-8.109500 0.000000
-8.062100 0.000000
-8.014700 0.000000
-7.967200 0.000000
-7.919800 0.000000
-7.872400 0.000000
-7.825000 0.000000
-7.777600 0.000000
-7.730200 0.000000
-7.682800 0.000000
-7.635400 0.000000
-7.587900 0.000000
-7.540500 0.000000
-7.493100 0.000000
-7.445700 0.000000
-7.398300 0.000000
-7.350900 0.000000
-7.303500 0.000000
-7.256100 0.000000
-7.208600 0.000000
-7.161200 0.000000
-7.113800 0.000000
-7.066400 0.000000
-7.019000 0.000000
-6.971600 0.000000
-6.924200 0.000000
-6.876800 0.000000
-6.829300 0.000000
-6.781900 0.000000
-6.734500 0.000000
-6.687100 0.000000
-6.639700 0.000000
-6.592300 0.000000
-6.544900 0.000000
-6.497400 0.000000
-6.450000 0.000000
-6.402600 0.000000
-6.355200 0.000000
-6.307800 0.000000
-6.260400 0.000000
-6.213000 0.000000
-6.165600 0.000000
-6.118100 0.000000
-6.070700 0.000000
-6.023300 0.000000
-5.975900 0.000000
-5.928500 0.000000
-5.881100 0.000000
-5.833700 0.000000
-5.786300 0.000000
-5.738800 0.000000
-5.691400 0.000000
-5.644000 0.000000
-5.596600 0.000000
-5.549200 0.000000
-5.501800 0.000000
-5.454400 0.000000
-5.407000 0.000000
-5.359500 0.000000
-5.312100 0.000000
-5.264700 0.000000
-5.217300 0.000000
-5.169900 0.000000
-5.122500 0.000000
-5.075100 0.000000
-5.027700 0.000000
-4.980200 0.000000
-4.932800 0.000000
-4.885400 0.000000
-4.838000 0.000000
-4.790600 0.000000
-4.743200 0.000000
-4.695800 0.001200
-4.648400 0.042200
-4.600900 0.095800
-4.553500 0.136000
-4.506100 0.156300
-4.458700 0.184400
-4.411300 0.202700
-4.363900 0.223400
-4.316500 0.252800
-4.269000 0.283900
-4.221600 0.310600
-4.174200 0.328700
-4.126800 0.355100
-4.079400 0.383100
-4.032000 0.411100
-3.984600 0.440200
-3.937200 0.474300
-3.889700 0.517800
-3.842300 0.559000
-3.794900 0.601900
-3.747500 0.653600
-3.700100 0.725100
-3.652700 0.798600
-3.605300 0.879200
-3.557900 1.013100
-3.510400 1.164400
-3.463000 1.425900
-3.415600 2.211700
-3.368200 2.598200
-3.320800 2.254100
-3.273400 1.828000
-3.226000 1.702600
-3.178600 1.610400
-3.131100 1.443300
-3.083700 1.285600
-3.036300 1.297900
-2.988900 1.748400
-2.941500 2.275100
-2.894100 3.392200
-2.846700 3.289400
-2.799300 3.400500
-2.751800 3.655300
-2.704400 4.825400
-2.657000 5.114600
-2.609600 4.501700
-2.562200 4.796800
-2.514800 4.127000
-2.467400 5.106700
-2.419900 7.029100
-2.372500 7.112800
-2.325100 5.080500
-2.277700 5.141900
-2.230300 5.230000
-2.182900 4.178800
-2.135500 3.515900
-2.088100 3.198400
-2.040600 3.123000
-1.993200 2.965500
-1.945800 2.643600
-1.898400 2.395000
-1.851000 2.554900
-1.803600 2.773200
-1.756200 2.535000
-1.708800 2.396000
-1.661300 2.371300
-1.613900 2.343200
-1.566500 2.368600
-1.519100 2.619500
-1.471700 2.918900
-1.424300 3.138900
-1.376900 3.766200
-1.329500 3.988300
-1.282000 4.476400
-1.234600 3.049700
-1.187200 3.207600
-1.139800 3.175600
-1.092400 2.823200
-1.045000 2.542000
-0.997600 2.397900
-0.950200 2.270200
-0.902700 2.296800
-0.855300 2.262900
-0.807900 2.241200
-0.760500 2.349700
-0.713100 2.570900
-0.665700 2.421600
-0.618300 2.896400
-0.570800 3.044800
-0.523400 3.193700
-0.476000 3.146900
-0.428600 2.805200
-0.381200 2.796800
-0.333800 2.984900
-0.286400 3.638200
-0.239000 3.532600
-0.191500 3.322000
-0.144100 3.067700
-0.096700 2.826500
-0.049300 2.485000
-0.001900 2.248800
0.045500 1.886300
0.092900 1.543100
0.140300 1.335700
0.187800 1.174100
0.235200 1.047600
0.282600 0.886200
0.330000 0.793100
0.377400 0.733200
0.424800 0.668800
0.472200 0.580500
0.519600 0.464900
0.567100 0.367000
0.614500 0.268800
0.661900 0.222500
0.709300 0.178700
0.756700 0.129900
0.804100 0.108200
0.851500 0.105200
0.898900 0.130500
0.946400 0.259200
0.993800 0.435100
1.041200 0.367800
1.088600 0.405400
1.136000 0.460100
1.183400 0.548900
1.230800 0.657500
1.278300 0.751600
1.325700 0.899300
1.373100 1.104400
1.420500 1.417600
1.467900 1.639800
1.515300 1.872900
1.562700 2.182600
1.610100 2.549000
1.657600 2.359000
1.705000 2.374800
1.752400 2.298800
1.799800 2.113500
1.847200 2.038800
1.894600 2.087400
1.942000 2.244400
1.989400 2.360900
2.036900 2.448700
2.084300 2.943700
2.131700 3.067100
2.179100 2.933500
2.226500 2.831400
2.273900 2.556100
2.321300 2.239500
2.368700 2.136400
2.416200 2.721300
2.463600 4.757800
2.511000 6.418200
2.558400 9.252000
2.605800 6.519000
2.653200 4.927100
2.700600 5.204500
2.748000 7.881500
2.795500 7.009000
2.842900 6.190900
2.890300 5.739900
2.937700 5.437600
2.985100 5.705700
3.032500 7.964200
3.079900 7.336200
3.127300 8.513300
3.174800 7.449200
3.222200 12.754200
3.269600 13.502100
3.317000 9.202500
3.364400 8.500600
3.411800 5.746200
3.459200 4.631900
3.506700 5.747600
3.554100 5.684400
3.601500 8.015100
3.648900 7.399700
3.696300 6.995600
3.743700 8.176000
3.791100 9.597600
3.838500 6.505700
3.886000 5.209900
3.933400 6.152800
3.980800 4.897200
4.028200 3.700100
4.075600 3.139100
4.123000 2.672300
4.170400 2.516300
4.217800 1.860200
4.265300 1.655800
4.312700 1.273800
4.360100 1.167700
4.407500 0.973400
4.454900 0.911200
4.502300 0.867800
4.549700 0.859800
4.597100 0.858300
4.644600 0.859400
4.692000 0.861700
4.739400 0.865700
4.786800 0.871000
4.834200 1.011500
4.881600 1.156800
4.929000 1.255500
4.976400 1.351600
5.023900 1.611100
5.071300 1.526400
5.118700 1.475300
5.166100 1.449600
5.213500 1.476100
5.260900 1.390200
5.308300 1.276300
5.355800 1.209100
5.403200 1.218700
5.450600 1.442900
5.498000 0.526000
5.545400 0.390500
5.592800 1.029000
5.640200 1.029500
5.687600 0.829900
5.735100 0.879600
5.782500 0.950400
5.829900 1.048500
5.877300 1.151600
5.924700 1.264400
5.972100 1.393700
6.019500 1.582400
6.066900 1.899600
6.114400 2.279400
6.161800 2.829100
6.209200 2.940300
6.256600 3.042700
6.304000 2.397200
6.351400 2.924200
6.398800 1.535200
6.446200 1.349300
6.493700 1.479800
6.541100 1.760400
6.588500 1.743000
6.635900 1.670100
6.683300 1.755000
6.730700 1.841300
6.778100 2.066300
6.825500 2.143800
6.873000 2.066700
6.920400 1.929800
6.967800 1.890000
7.015200 1.968500
7.062600 2.187500
7.110000 2.513700
7.157400 3.267900
7.204900 5.750200
7.252300 4.751000
7.299700 3.413000
7.347100 2.070500
7.394500 1.890100
7.441900 3.048100
7.489300 1.568200
7.536700 1.129600
7.584200 0.971000
7.631600 0.499500
7.679000 0.310400
7.726400 0.365000
7.773800 0.336100
7.821200 0.344100
7.868600 0.354000
7.916000 0.366300
7.963500 0.380200
8.010900 0.395200
8.058300 0.411100
8.105700 0.428300
8.153100 0.446300
8.200500 0.464200
8.247900 0.492100
8.295300 0.526400
8.342800 0.560000
8.390200 0.579400
8.437600 0.599800
8.485000 0.623500
8.532400 0.650400
8.579800 0.679500
8.627200 0.715400
8.674600 0.759500
8.722100 0.817300
8.769500 0.883300
8.816900 1.158700
8.864300 1.668300
8.911700 1.618800
8.959100 1.644800
9.006500 1.760900
9.053900 2.001700
9.101400 2.121800
9.148800 1.886500
9.196200 1.567900
9.243600 1.500100
9.291000 1.408900
9.338400 1.340700
9.385800 1.280100
9.433300 1.226700
9.480700 1.169000
9.528100 1.109500
9.575500 1.023600
9.622900 1.065300
9.670300 0.918000
9.717700 0.857600
9.765100 0.808200
9.812600 0.772100
9.860000 0.789800
9.907400 0.745400
9.954800 0.745900
10.002200 0.827100
10.049600 0.946900
10.097000 1.081900
10.144400 1.251000
10.191900 1.415200
10.239300 1.509600
10.286700 1.622900
10.334100 1.898700
10.381500 2.161100
10.428900 1.915200
10.476300 1.934300
10.523700 1.935800
10.571200 1.935200
10.618600 2.349900
10.666000 1.527900
10.713400 1.516900
10.760800 1.358400
10.808200 1.217600
10.855600 1.186400
10.903000 1.158500
10.950500 1.122700
10.997900 1.056000
11.045300 1.009100
11.092700 0.996400
11.140100 0.926600
11.187500 0.817200
11.234900 0.702700
11.282400 0.643700
11.329800 0.620100
11.377200 0.571100
11.424600 0.539900
11.472000 0.494300
11.519400 0.474800
11.566800 0.463100
11.614200 0.459800
11.661700 0.464400
11.709100 0.473700
11.756500 0.487700
11.803900 0.508000
11.851300 0.524200
11.898700 0.540500
11.946100 0.554800
11.993500 0.577600
12.041000 0.650900
12.088400 0.692400
12.135800 0.705700
12.183200 0.751500
12.230600 0.790100
12.278000 0.806400
12.325400 0.807800
12.372800 0.809200
12.420300 0.829400
12.467700 0.888600
12.515100 0.882400
12.562500 0.853300
12.609900 0.872400
12.657300 0.893500
12.704700 0.911600
12.752100 0.926500
12.799600 0.940400
12.847000 0.953800
12.894400 0.967600
12.941800 0.980700
12.989200 1.000700
13.036600 1.039000
13.084000 1.043000
13.131500 1.048600
13.178900 1.066400
13.226300 1.079900
13.273700 1.097500
13.321100 1.134300
13.368500 1.164000
13.415900 1.171400
13.463300 1.093000
13.510800 0.994900
13.558200 1.057300
13.605600 1.031200
13.653000 1.024900
13.700400 1.058300
13.747800 1.022100
13.795200 1.024900
13.842600 1.025600
13.890100 1.027100
13.937500 1.039300
13.984900 1.085300
14.032300 1.046800
14.079700 1.056100
14.127100 1.070000
14.174500 1.085200
14.221900 1.083000
14.269400 1.075900
14.316800 1.083700
14.364200 1.102100
14.411600 1.134400
14.459000 1.175500
14.506400 1.222500
14.553800 1.264300
14.601200 1.330900
14.648700 1.373600
14.696100 1.350700
14.743500 1.331800
14.790900 1.328500
14.838300 1.254800
14.885700 0.952000
14.933100 0.768400
14.980600 0.692200
15.028000 0.669000
15.075400 0.637900
15.122800 0.656800
15.170200 0.734500
15.217600 0.929800
15.265000 1.533100
15.312400 1.126100
15.359900 1.205200
15.407300 1.279700
15.454700 1.363200
15.502100 1.487900
15.549500 1.778400
15.596900 2.008600
15.644300 2.273700
15.691700 2.663300
15.739200 2.521700
15.786600 2.239100
15.834000 2.215700
15.881400 2.208900
15.928800 1.717100
15.976200 1.630900
16.023600 1.599600
16.071000 1.575600
16.118500 1.560000
16.165900 1.503000
16.213300 1.461200
16.260700 1.391600
16.308100 1.362000
16.355500 1.370600
16.402900 1.305400
16.450300 1.300500
16.497800 1.335500
16.545200 1.354700
16.592600 1.439200
16.640000 1.390400
16.687400 1.358900
16.734800 1.318000
16.782200 1.303600
16.829600 1.293400
16.877100 1.275100
16.924500 1.248700
16.971900 1.289800
17.019300 1.232000
17.066700 1.172300
17.114100 1.155100
17.161500 1.172700
17.209000 1.224500
17.256400 1.193200
17.303800 1.162800
17.351200 1.178100
17.398600 1.142800
17.446000 1.135400
17.493400 1.253400
17.540800 1.249700
17.588300 1.238400
17.635700 1.271300
17.683100 1.300800
17.730500 1.532200
17.777900 1.367100
17.825300 1.412800
17.872700 1.471100
17.920100 1.575300
17.967600 1.608100
18.015000 1.586300
18.062400 1.606400
18.109800 1.617000
18.157200 1.636100
18.204600 1.639100
18.252000 1.660900
18.299400 1.680400
18.346900 1.717700
18.394300 1.751700
18.441700 1.869700
18.489100 1.950000
18.536500 1.924300
18.583900 1.789100
18.631300 1.733600
18.678700 1.733500
18.726200 1.782700
18.773600 1.874200
18.821000 1.929700
18.868400 1.997800
18.915800 2.167200
18.963200 2.289600
19.010600 2.574200
19.058100 2.641900
19.105500 2.810400
19.152900 2.625400
19.200300 2.542500
19.247700 2.458900
19.295100 2.451500
19.342500 2.630800
19.389900 2.837000
19.437400 2.928600
19.484800 2.861600
19.532200 2.404800
19.579600 1.991600
19.627000 1.525400
19.674400 1.265900
19.721800 1.113100
19.769200 0.875900
19.816700 0.849300
19.864100 0.844000
19.911500 0.831400
19.958900 0.815500
20.006300 0.813700
20.053700 0.815300
20.101100 0.869400
20.148500 0.975500
20.196000 1.067600
20.243400 0.976800
20.290800 0.966400
20.338200 0.963200
20.385600 0.955300
20.433000 0.958100
20.480400 0.968300
20.527800 0.980800
20.575300 1.005500
20.622700 1.025800
20.670100 1.048000
20.717500 1.076900
20.764900 1.114800
20.812300 1.254600
20.859700 1.378200
20.907200 1.569100
20.954600 1.724100
21.002000 1.724700
21.049400 1.648300
21.096800 1.671300
21.144200 1.651100
21.191600 1.570900
21.239000 1.528300
21.286500 1.471000
21.333900 1.430700
21.381300 1.408400
21.428700 1.407200
21.476100 1.441900
21.523500 1.505900
21.570900 1.596800
21.618300 1.853300
21.665800 1.877300
21.713200 1.858400
21.760600 1.817600
21.808000 1.746400
21.855400 1.675900
21.902800 1.612100
21.950200 1.563200
21.997600 1.534500
22.045100 1.525300
22.092500 1.532200
22.139900 1.515100
22.187300 1.513000
22.234700 1.513200
22.282100 1.718000
22.329500 1.666000
22.376900 1.759400
22.424400 1.860000
22.471800 1.939400
22.519200 2.022500
22.566600 2.058200
22.614000 2.062100
22.661400 1.905400
22.708800 1.710000
22.756200 1.605500
22.803700 1.541300
22.851100 1.576500
22.898500 1.644700
22.945900 1.748200
22.993300 1.904300
23.040700 1.984700
23.088100 1.995300
23.135600 1.979000
23.183000 1.919900
23.230400 1.950000
23.277800 2.083000
23.325200 1.959000
23.372600 1.469500
23.420000 1.554800
23.467400 1.526000
23.514900 1.562800
23.562300 1.656000
23.609700 1.793800
23.657100 1.862300
23.704500 1.839800
23.751900 1.778400
23.799300 1.730000
23.846700 1.712000
23.894200 1.644900
23.941600 1.523900
23.989000 1.424600
24.036400 1.358400
24.083800 1.291300
24.131200 1.255100
24.178600 1.250000
24.226000 1.281500
24.273500 1.338600
24.320900 1.178500
24.368300 0.967600
24.415700 0.969800
24.463100 1.011100
24.510500 1.092900
24.557900 1.175800
24.605300 1.278700
24.652800 1.448100
24.700200 1.645000
24.747600 1.801400
24.795000 1.806900
24.842400 1.783600
24.889800 1.735000
24.937200 1.690300
24.984700 1.646900
25.032100 1.645100
25.079500 1.634900
25.126900 1.668000
25.174300 1.639400
25.221700 1.564700
25.269100 1.483200
25.316500 1.376200
25.364000 1.461300
25.411400 1.186000
25.458800 1.178600
25.506200 1.176500
25.553600 1.133000
25.601000 1.122800
25.648400 1.115300
25.695800 1.107500
25.743300 1.112500
25.790700 1.086600
25.838100 1.017800
25.885500 0.939600
25.932900 0.911800
25.980300 0.932100
26.027700 0.931700
26.075100 0.860600
26.122600 0.836100
26.170000 0.870000
26.217400 0.943500
26.264800 1.022600
26.312200 1.076500
26.359600 1.119900
26.407000 1.145100
26.454400 1.172100
26.501900 1.179700
26.549300 1.190900
26.596700 1.260100
26.644100 1.400100
26.691500 1.681900
26.738900 1.983500
26.786300 2.236800
26.833800 2.309600
26.881200 2.359500
26.928600 2.320200
26.976000 2.333700
27.023400 2.286500
27.070800 2.181600
27.118200 1.953100
27.165600 1.986900
27.213100 2.250100
27.260500 2.255700
27.307900 2.102100
27.355300 2.010600
27.402700 1.931800
27.450100 1.921700
27.497500 2.349000
27.544900 2.587700
27.592400 2.471900
27.639800 2.404900
27.687200 2.456200
27.734600 2.578100
27.782000 2.180700
27.829400 1.965000
27.876800 1.896100
27.924200 1.828500
27.971700 1.671300
28.019100 1.649800
28.066500 1.675000
28.113900 1.720900
28.161300 2.004700
28.208700 2.067500
28.256100 2.031400
28.303500 2.030600
28.351000 2.101400
28.398400 2.216300
28.445800 2.443100
28.493200 2.485800
28.540600 2.682400
28.588000 2.731800
28.635400 2.561600
28.682900 2.392100
28.730300 2.258000
28.777700 2.162900
28.825100 2.096900
28.872500 2.132900
