set title 'mp-21296 - Density of States'
set xlabel 'Energy (eV)'
set ylabel 'DOS (states/eV)'
set grid
set xrange [-10:10]
set yrange [0:453.041]
set xzeroaxis lt -1
set terminal png size 800,600
set output 'mp-21296_dos_gnuplot.png'
plot '-' using 1:2 with lines title 'DOS'
-12.079700 0.000000
-12.060400 0.000000
-12.041100 0.000000
-12.021800 0.000000
-12.002500 0.000000
-11.983200 0.000000
-11.963800 0.000000
-11.944500 0.000000
-11.925200 0.000000
-11.905900 0.000000
-11.886600 0.000000
-11.867200 0.000000
-11.847900 0.000000
-11.828600 0.000000
-11.809300 0.000000
-11.790000 0.000000
-11.770600 0.000000
-11.751300 0.000000
-11.732000 0.000000
-11.712700 0.000000
-11.693400 0.000000
-11.674000 0.000000
-11.654700 0.000000
-11.635400 0.000000
-11.616100 0.000000
-11.596800 0.000000
-11.577500 0.000000
-11.558100 0.000000
-11.538800 0.000000
-11.519500 0.000000
-11.500200 0.000000
-11.480900 0.000000
-11.461500 0.000000
-11.442200 0.000000
-11.422900 0.000000
-11.403600 0.000000
-11.384300 0.000000
-11.364900 0.000000
-11.345600 0.000000
-11.326300 0.000000
-11.307000 0.000000
-11.287700 0.000000
-11.268400 0.000000
-11.249000 0.000000
-11.229700 0.000000
-11.210400 0.000000
-11.191100 0.000000
-11.171800 0.000000
-11.152400 0.000000
-11.133100 0.000000
-11.113800 0.000000
-11.094500 0.000000
-11.075200 0.000000
-11.055800 0.000000
-11.036500 0.000000
-11.017200 0.000000
-10.997900 0.000000
-10.978600 0.000000
-10.959200 0.000000
-10.939900 0.000000
-10.920600 0.000000
-10.901300 0.000000
-10.882000 0.000000
-10.862700 0.000000
-10.843300 0.000000
-10.824000 0.000000
-10.804700 0.000000
-10.785400 0.000000
-10.766100 0.000000
-10.746700 0.000000
-10.727400 0.000000
-10.708100 0.000000
-10.688800 0.000000
-10.669500 0.000000
-10.650100 0.000000
-10.630800 0.000000
-10.611500 0.000000
-10.592200 0.000000
-10.572900 0.000000
-10.553600 0.000000
-10.534200 0.000000
-10.514900 0.000000
-10.495600 0.000000
-10.476300 0.000000
-10.457000 0.000000
-10.437600 0.000000
-10.418300 0.000000
-10.399000 0.000000
-10.379700 0.000000
-10.360400 0.000000
-10.341000 0.000000
-10.321700 50.249900
-10.302400 255.670100
-10.283100 125.918100
-10.263800 218.561600
-10.244400 148.532400
-10.225100 223.092000
-10.205800 208.269000
-10.186500 309.585700
-10.167200 235.427900
-10.147900 135.174800
-10.128500 121.994600
-10.109200 212.094400
-10.089900 370.294500
-10.070600 311.011600
-10.051300 186.813800
-10.031900 186.104900
-10.012600 219.893400
-9.993300 298.049700
-9.974000 411.855200
-9.954700 0.000000
-9.935300 0.000000
-9.916000 0.000000
-9.896700 0.000000
-9.877400 0.000000
-9.858100 0.000000
-9.838800 0.000000
-9.819400 0.000000
-9.800100 0.000000
-9.780800 0.000000
-9.761500 0.000000
-9.742200 0.000000
-9.722800 0.000000
-9.703500 0.000000
-9.684200 0.000000
-9.664900 0.000000
-9.645600 0.000000
-9.626200 0.000000
-9.606900 0.000000
-9.587600 0.000000
-9.568300 0.000000
-9.549000 0.000000
-9.529700 0.000000
-9.510300 0.000000
-9.491000 0.000000
-9.471700 0.000000
-9.452400 0.000000
-9.433100 0.000000
-9.413700 0.000000
-9.394400 0.000000
-9.375100 0.000000
-9.355800 0.000000
-9.336500 0.000000
-9.317100 0.000000
-9.297800 0.000000
-9.278500 0.000000
-9.259200 0.000000
-9.239900 0.000000
-9.220500 0.000000
-9.201200 0.000000
-9.181900 0.000000
-9.162600 0.000000
-9.143300 0.000000
-9.124000 0.000000
-9.104600 0.000000
-9.085300 0.000000
-9.066000 0.000000
-9.046700 0.000000
-9.027400 0.000000
-9.008000 0.000000
-8.988700 0.000000
-8.969400 0.000000
-8.950100 0.000000
-8.930800 0.000000
-8.911400 0.000000
-8.892100 0.000000
-8.872800 0.000000
-8.853500 0.000000
-8.834200 0.000000
-8.814900 0.000000
-8.795500 0.000000
-8.776200 0.000000
-8.756900 0.000000
-8.737600 0.000000
-8.718300 0.000000
-8.698900 0.000000
-8.679600 0.000000
-8.660300 0.000000
-8.641000 0.000000
-8.621700 0.000000
-8.602300 0.000000
-8.583000 0.000000
-8.563700 0.000000
-8.544400 0.000000
-8.525100 0.000000
-8.505700 0.000000
-8.486400 0.000000
-8.467100 0.000000
-8.447800 0.000000
-8.428500 0.000000
-8.409200 0.000000
-8.389800 0.000000
-8.370500 0.000000
-8.351200 0.000000
-8.331900 0.000000
-8.312600 0.000000
-8.293200 0.000000
-8.273900 0.000000
-8.254600 0.000000
-8.235300 0.000000
-8.216000 0.000000
-8.196600 0.000000
-8.177300 0.000000
-8.158000 0.000000
-8.138700 0.000000
-8.119400 0.000000
-8.100100 0.000000
-8.080700 0.000000
-8.061400 0.000000
-8.042100 0.000000
-8.022800 0.000000
-8.003500 0.000000
-7.984100 0.000000
-7.964800 0.000000
-7.945500 0.000000
-7.926200 0.000000
-7.906900 0.000000
-7.887500 0.000000
-7.868200 0.000000
-7.848900 0.000000
-7.829600 0.000000
-7.810300 0.000000
-7.790900 0.000000
-7.771600 0.000000
-7.752300 0.000000
-7.733000 0.000000
-7.713700 0.000000
-7.694400 0.000000
-7.675000 0.000000
-7.655700 0.000000
-7.636400 0.000000
-7.617100 0.000000
-7.597800 0.000000
-7.578400 0.000000
-7.559100 0.000000
-7.539800 0.000000
-7.520500 0.000000
-7.501200 0.000000
-7.481800 0.000000
-7.462500 0.000000
-7.443200 0.000000
-7.423900 0.000000
-7.404600 0.000000
-7.385300 0.000000
-7.365900 0.000000
-7.346600 0.000000
-7.327300 0.000000
-7.308000 0.000000
-7.288700 0.000000
-7.269300 0.000000
-7.250000 0.000000
-7.230700 0.000000
-7.211400 0.000000
-7.192100 0.000000
-7.172700 0.000000
-7.153400 0.000000
-7.134100 0.000000
-7.114800 0.000000
-7.095500 0.000000
-7.076100 0.000000
-7.056800 0.000000
-7.037500 0.000000
-7.018200 0.000000
-6.998900 0.000000
-6.979600 0.000000
-6.960200 0.000000
-6.940900 0.000000
-6.921600 0.000000
-6.902300 0.000000
-6.883000 0.000000
-6.863600 0.000000
-6.844300 0.000000
-6.825000 0.000000
-6.805700 0.000000
-6.786400 0.000000
-6.767000 0.000000
-6.747700 0.000000
-6.728400 0.000000
-6.709100 0.000000
-6.689800 0.000000
-6.670500 0.000000
-6.651100 0.000000
-6.631800 0.000000
-6.612500 0.000000
-6.593200 0.000000
-6.573900 0.000000
-6.554500 0.000000
-6.535200 0.000000
-6.515900 0.000000
-6.496600 0.000000
-6.477300 0.000000
-6.457900 0.000000
-6.438600 0.000000
-6.419300 0.000000
-6.400000 0.000000
-6.380700 0.000000
-6.361400 0.000000
-6.342000 0.000000
-6.322700 0.000000
-6.303400 0.000000
-6.284100 0.000000
-6.264800 0.000000
-6.245400 0.000000
-6.226100 0.000000
-6.206800 0.000000
-6.187500 0.000000
-6.168200 0.000000
-6.148800 0.000000
-6.129500 0.000000
-6.110200 0.000000
-6.090900 0.000000
-6.071600 0.000000
-6.052200 0.000000
-6.032900 0.000000
-6.013600 0.000000
-5.994300 0.000000
-5.975000 0.000000
-5.955700 0.000000
-5.936300 0.000000
-5.917000 0.000000
-5.897700 0.000000
-5.878400 0.000000
-5.859100 0.000000
-5.839700 0.000000
-5.820400 0.000000
-5.801100 0.000000
-5.781800 0.000000
-5.762500 0.000000
-5.743100 0.000000
-5.723800 0.000000
-5.704500 0.000000
-5.685200 0.000000
-5.665900 0.000000
-5.646600 0.000000
-5.627200 0.000000
-5.607900 0.000000
-5.588600 0.000000
-5.569300 0.000000
-5.550000 0.000000
-5.530600 0.000000
-5.511300 0.000000
-5.492000 0.000000
-5.472700 0.000000
-5.453400 0.000000
-5.434000 0.000000
-5.414700 0.000000
-5.395400 0.000000
-5.376100 0.000000
-5.356800 0.000000
-5.337400 0.000000
-5.318100 0.000000
-5.298800 0.000000
-5.279500 0.000000
-5.260200 0.000000
-5.240900 0.000000
-5.221500 0.000000
-5.202200 0.000000
-5.182900 0.000000
-5.163600 0.000000
-5.144300 0.000000
-5.124900 0.000000
-5.105600 0.000000
-5.086300 0.000000
-5.067000 0.000000
-5.047700 0.000000
-5.028300 0.000000
-5.009000 0.000000
-4.989700 0.000000
-4.970400 0.000000
-4.951100 0.000000
-4.931800 0.000000
-4.912400 0.000000
-4.893100 0.000000
-4.873800 0.000000
-4.854500 0.000000
-4.835200 0.000000
-4.815800 0.000000
-4.796500 0.000000
-4.777200 0.000000
-4.757900 0.000000
-4.738600 0.000000
-4.719200 0.000000
-4.699900 0.000000
-4.680600 0.000000
-4.661300 0.000000
-4.642000 0.000000
-4.622600 0.000000
-4.603300 0.000000
-4.584000 0.019100
-4.564700 0.088700
-4.545400 0.209000
-4.526100 0.370600
-4.506700 0.502200
-4.487400 0.583200
-4.468100 0.613600
-4.448800 0.623400
-4.429500 0.649100
-4.410100 0.691800
-4.390800 0.750000
-4.371500 0.812100
-4.352200 0.876200
-4.332900 0.937900
-4.313500 0.993600
-4.294200 1.032900
-4.274900 1.055700
-4.255600 1.068700
-4.236300 1.083700
-4.217000 1.107300
-4.197600 1.138000
-4.178300 1.172300
-4.159000 1.206400
-4.139700 1.240200
-4.120400 1.273800
-4.101000 1.307000
-4.081700 1.339900
-4.062400 1.373400
-4.043100 1.410000
-4.023800 1.451100
-4.004400 1.496900
-3.985100 1.545600
-3.965800 1.740500
-3.946500 1.955600
-3.927200 2.148400
-3.907800 2.199000
-3.888500 2.119200
-3.869200 2.047200
-3.849900 1.999900
-3.830600 2.023000
-3.811300 2.039000
-3.791900 2.040900
-3.772600 2.027900
-3.753300 1.999900
-3.734000 1.960700
-3.714700 1.905400
-3.695300 1.836600
-3.676000 1.775000
-3.656700 1.732100
-3.637400 1.703800
-3.618100 1.674000
-3.598700 1.642600
-3.579400 1.609700
-3.560100 1.575300
-3.540800 1.539300
-3.521500 1.504000
-3.502200 1.615200
-3.482800 1.813400
-3.463500 2.030300
-3.444200 2.118500
-3.424900 2.068400
-3.405600 2.013200
-3.386200 2.124500
-3.366900 2.114500
-3.347600 2.108200
-3.328300 2.015000
-3.309000 2.042200
-3.289600 2.071700
-3.270300 2.114300
-3.251000 2.199000
-3.231700 2.290400
-3.212400 2.373900
-3.193000 2.420800
-3.173700 2.406100
-3.154400 2.422100
-3.135100 2.443400
-3.115800 2.490200
-3.096500 2.680100
-3.077100 2.651500
-3.057800 2.625400
-3.038500 2.539900
-3.019200 2.600600
-2.999900 2.678600
-2.980500 2.769600
-2.961200 2.842600
-2.941900 2.894400
-2.922600 2.919400
-2.903300 2.936100
-2.883900 3.055700
-2.864600 3.142300
-2.845300 3.168600
-2.826000 3.105200
-2.806700 3.115100
-2.787400 3.141700
-2.768000 3.085900
-2.748700 3.015000
-2.729400 2.940100
-2.710100 3.005700
-2.690800 2.882600
-2.671400 3.031700
-2.652100 2.513400
-2.632800 2.365500
-2.613500 2.224200
-2.594200 2.067800
-2.574800 1.990800
-2.555500 1.941000
-2.536200 1.918300
-2.516900 1.922800
-2.497600 1.949300
-2.478300 1.979100
-2.458900 2.075500
-2.439600 2.453500
-2.420300 2.702400
-2.401000 2.916800
-2.381700 3.357500
-2.362300 3.806600
-2.343000 4.314400
-2.323700 4.644200
-2.304400 4.470400
-2.285100 4.435600
-2.265700 5.476600
-2.246400 5.102400
-2.227100 4.465300
-2.207800 4.374200
-2.188500 4.284400
-2.169100 4.394600
-2.149800 4.683700
-2.130500 4.933900
-2.111200 4.792000
-2.091900 4.751600
-2.072600 4.591300
-2.053200 4.392000
-2.033900 4.529700
-2.014600 4.643600
-1.995300 4.576400
-1.976000 4.577300
-1.956600 4.675000
-1.937300 4.771000
-1.918000 4.687900
-1.898700 4.561900
-1.879400 4.492500
-1.860000 4.415200
-1.840700 4.613100
-1.821400 4.783800
-1.802100 5.057900
-1.782800 5.406400
-1.763500 5.548900
-1.744100 5.124000
-1.724800 5.143800
-1.705500 5.168600
-1.686200 5.162100
-1.666900 5.167400
-1.647500 5.129100
-1.628200 5.142500
-1.608900 5.232400
-1.589600 4.764200
-1.570300 4.780500
-1.550900 4.622000
-1.531600 4.565600
-1.512300 4.252400
-1.493000 4.322700
-1.473700 4.435500
-1.454300 4.581200
-1.435000 4.803100
-1.415700 4.661300
-1.396400 4.884400
-1.377100 5.651600
-1.357800 4.796700
-1.338400 5.061800
-1.319100 5.316100
-1.299800 5.624900
-1.280500 5.959700
-1.261200 6.238800
-1.241800 6.228700
-1.222500 6.722800
-1.203200 6.346300
-1.183900 5.864100
-1.164600 5.742800
-1.145200 5.596500
-1.125900 5.454600
-1.106600 5.552200
-1.087300 5.878600
-1.068000 6.175200
-1.048700 6.245200
-1.029300 6.308000
-1.010000 6.441900
-0.990700 6.335000
-0.971400 6.212100
-0.952100 5.957700
-0.932700 4.794400
-0.913400 4.305400
-0.894100 4.526400
-0.874800 4.981200
-0.855500 5.289800
-0.836100 5.493300
-0.816800 5.809400
-0.797500 5.754100
-0.778200 6.085900
-0.758900 6.528500
-0.739500 7.375900
-0.720200 6.394300
-0.700900 5.387700
-0.681600 4.822800
-0.662300 4.629500
-0.643000 4.733400
-0.623600 4.979100
-0.604300 5.362300
-0.585000 6.300000
-0.565700 6.682600
-0.546400 6.237600
-0.527000 5.864300
-0.507700 5.691500
-0.488400 5.598700
-0.469100 5.487600
-0.449800 5.441000
-0.430400 5.468200
-0.411100 5.498800
-0.391800 5.742400
-0.372500 5.211900
-0.353200 5.043900
-0.333900 4.969600
-0.314500 4.959800
-0.295200 4.643400
-0.275900 4.735200
-0.256600 5.330000
-0.237300 5.805300
-0.217900 6.229800
-0.198600 6.602100
-0.179300 6.348200
-0.160000 4.500100
-0.140700 2.697200
-0.121300 1.814600
-0.102000 0.780400
-0.082700 0.000000
-0.063400 0.000000
-0.044100 0.000000
-0.024700 0.000000
-0.005400 0.000000
0.013900 0.000000
0.033200 0.000000
0.052500 0.000000
0.071800 0.000000
0.091200 0.000000
0.110500 0.000000
0.129800 0.000000
0.149100 0.000000
0.168400 0.000000
0.187800 0.000000
0.207100 0.000000
0.226400 0.000000
0.245700 0.000000
0.265000 0.000000
0.284400 0.000000
0.303700 0.000000
0.323000 0.000000
0.342300 0.000000
0.361600 0.000000
0.380900 0.000000
0.400300 0.000000
0.419600 0.000000
0.438900 0.000000
0.458200 0.000000
0.477500 0.000000
0.496900 0.000000
0.516200 0.000000
0.535500 0.000000
0.554800 0.000000
0.574100 0.000000
0.593500 0.000000
0.612800 0.000000
0.632100 0.000000
0.651400 0.000000
0.670700 0.000000
0.690000 0.000000
0.709400 0.000000
0.728700 0.000000
0.748000 0.000000
0.767300 0.000000
0.786600 0.000000
0.806000 0.000000
0.825300 0.000000
0.844600 0.000000
0.863900 0.000000
0.883200 0.000000
0.902600 0.000000
0.921900 0.000000
0.941200 0.000000
0.960500 0.000000
0.979800 0.000000
0.999200 0.000000
1.018500 0.000000
1.037800 0.000000
1.057100 0.000000
1.076400 0.000000
1.095700 0.000000
1.115100 0.000000
1.134400 0.000000
1.153700 0.000000
1.173000 0.000000
1.192300 0.000000
1.211700 0.000000
1.231000 0.000000
1.250300 0.000000
1.269600 0.000000
1.288900 0.000000
1.308300 0.000000
1.327600 0.000000
1.346900 0.000000
1.366200 0.000000
1.385500 0.000000
1.404800 0.000000
1.424200 0.000000
1.443500 0.000000
1.462800 0.000000
1.482100 0.000000
1.501400 0.000000
1.520800 0.000000
1.540100 0.000000
1.559400 0.000000
1.578700 0.000000
1.598000 0.000000
1.617400 0.000000
1.636700 0.000000
1.656000 0.000000
1.675300 0.000000
1.694600 0.000400
1.714000 0.006000
1.733300 0.018000
1.752600 0.036000
1.771900 0.056800
1.791200 0.080100
1.810500 0.105800
1.829900 0.134100
1.849200 0.164700
1.868500 0.197900
1.887800 0.233500
1.907100 0.271400
1.926500 0.307500
1.945800 0.340600
1.965100 0.371600
1.984400 0.403600
2.003700 0.443700
2.023100 0.492900
2.042400 0.551300
2.061700 0.613900
2.081000 0.673400
2.100300 0.734800
2.119600 0.799700
2.139000 0.871500
2.158300 0.952100
2.177600 1.038000
2.196900 1.124300
2.216200 1.210700
2.235600 1.297100
2.254900 1.385100
2.274200 1.497100
2.293500 1.640000
2.312800 1.815500
2.332200 2.078400
2.351500 2.408700
2.370800 2.729300
2.390100 3.057600
2.409400 3.647200
2.428800 4.017100
2.448100 4.235000
2.467400 4.484800
2.486700 4.637900
2.506000 4.771000
2.525300 4.795100
2.544700 4.467200
2.564000 4.370400
2.583300 4.175700
2.602600 3.963600
2.621900 3.686300
2.641300 3.652800
2.660600 3.668200
2.679900 3.684500
2.699200 3.719800
2.718500 3.772100
2.737900 3.862300
2.757200 3.983200
2.776500 4.138600
2.795800 4.280500
2.815100 4.412500
2.834400 4.529000
2.853800 4.635300
2.873100 4.802000
2.892400 5.070700
2.911700 5.405100
2.931000 5.765100
2.950400 6.118000
2.969700 6.520500
2.989000 6.525900
3.008300 6.424800
3.027600 6.503000
3.047000 6.704700
3.066300 7.679500
3.085600 9.959600
3.104900 11.278100
3.124200 10.832400
3.143600 10.608100
3.162900 11.004000
3.182200 11.146600
3.201500 11.368500
3.220800 13.419600
3.240100 13.195600
3.259500 13.288500
3.278800 14.433400
3.298100 13.250900
3.317400 13.009400
3.336700 12.855200
3.356100 12.150900
3.375400 12.337600
3.394700 13.418700
3.414000 16.164900
3.433300 12.472600
3.452700 11.416100
3.472000 18.250500
3.491300 17.840100
3.510600 16.960600
3.529900 21.304000
3.549200 24.301900
3.568600 21.006500
3.587900 18.043200
3.607200 20.192700
3.626500 15.686900
3.645800 14.827800
3.665200 15.029000
3.684500 11.980500
3.703800 9.216500
3.723100 7.943500
3.742400 8.703300
3.761800 10.916600
3.781100 14.196700
3.800400 19.550900
3.819700 17.973500
3.839000 16.894100
3.858400 17.145700
3.877700 16.367000
3.897000 15.242200
3.916300 11.800900
3.935600 14.008600
3.954900 15.063800
3.974300 15.727900
3.993600 17.243200
4.012900 18.989000
4.032200 22.267800
4.051500 24.840600
4.070900 19.750400
4.090200 15.894200
4.109500 11.633900
4.128800 11.452300
4.148100 15.461400
4.167500 15.460600
4.186800 11.814000
4.206100 9.791500
4.225400 7.424700
4.244700 6.355800
4.264000 5.702800
4.283400 5.134200
4.302700 4.887800
4.322000 4.208300
4.341300 3.986600
4.360600 3.784200
4.380000 3.896000
4.399300 4.260400
4.418600 5.411500
4.437900 4.357300
4.457200 4.303000
4.476600 5.490600
4.495900 6.702900
4.515200 9.102400
4.534500 12.287700
4.553800 13.410500
4.573100 14.666300
4.592500 17.152400
4.611800 13.849200
4.631100 9.327800
4.650400 8.386200
4.669700 7.650000
4.689100 7.225100
4.708400 6.024500
4.727700 5.940800
4.747000 6.466700
4.766300 6.960400
4.785700 7.777800
4.805000 7.905700
4.824300 7.870400
4.843600 7.834900
4.862900 7.047200
4.882300 5.682100
4.901600 5.094600
4.920900 4.622600
4.940200 4.397100
4.959500 5.122100
4.978800 6.031200
4.998200 6.218100
5.017500 6.655200
5.036800 7.336100
5.056100 8.544700
5.075400 9.485800
5.094800 9.398600
5.114100 8.765300
5.133400 7.582200
5.152700 6.696600
5.172000 5.833600
5.191400 5.038700
5.210700 4.772300
5.230000 4.670400
5.249300 4.852700
5.268600 5.218800
5.287900 5.582300
5.307300 5.912300
5.326600 6.141600
5.345900 6.009600
5.365200 5.221300
5.384500 4.859100
5.403900 4.752700
5.423200 4.746400
5.442500 4.726900
5.461800 4.687900
5.481100 4.667400
5.500500 4.614400
5.519800 4.869700
5.539100 5.110200
5.558400 5.340000
5.577700 5.793500
5.597100 6.358400
5.616400 6.679300
5.635700 6.323700
5.655000 6.102300
5.674300 5.872000
5.693600 6.034100
5.713000 6.077700
5.732300 5.753300
5.751600 5.726800
5.770900 5.509800
5.790200 5.381500
5.809600 5.276500
5.828900 5.182300
5.848200 5.178200
5.867500 5.161000
5.886800 5.220400
5.906200 4.762700
5.925500 4.927500
5.944800 5.090400
5.964100 5.250500
5.983400 5.661400
6.002700 5.842300
6.022100 6.123600
6.041400 6.142700
6.060700 6.516100
6.080000 6.853600
6.099300 7.228600
6.118700 6.142500
6.138000 5.588700
6.157300 5.094900
6.176600 4.779500
6.195900 4.540700
6.215300 4.617100
6.234600 4.549200
6.253900 4.472500
6.273200 4.144700
6.292500 4.346200
6.311900 4.453100
6.331200 4.559700
6.350500 4.712400
6.369800 4.808900
6.389100 5.215300
6.408400 4.506700
6.427800 4.737800
6.447100 4.918300
6.466400 5.813600
6.485700 6.325700
6.505000 6.221500
6.524400 6.084300
6.543700 5.950900
6.563000 5.802700
6.582300 5.460400
6.601600 5.071800
6.621000 4.648300
6.640300 4.055000
6.659600 3.928900
6.678900 3.935500
6.698200 3.872800
6.717500 3.867500
6.736900 3.914300
6.756200 3.987400
6.775500 4.581500
6.794800 4.906300
6.814100 5.109100
6.833500 5.425500
6.852800 5.676800
6.872100 5.951900
6.891400 5.981200
6.910700 6.060700
6.930100 6.127200
6.949400 6.535300
6.968700 5.934200
6.988000 5.152400
7.007300 4.879600
7.026700 4.878100
7.046000 5.050400
7.065300 5.806900
7.084600 6.729000
7.103900 7.197800
7.123200 6.592800
7.142600 6.428300
7.161900 6.658900
7.181200 7.066000
7.200500 6.219900
7.219800 5.776700
7.239200 5.776000
7.258500 5.814800
7.277800 5.093000
7.297100 4.442900
7.316400 3.748200
7.335800 3.406400
7.355100 3.247000
7.374400 3.095900
7.393700 3.264000
7.413000 3.430300
7.432300 3.739700
7.451700 4.547600
7.471000 5.026500
7.490300 5.009400
7.509600 4.888800
7.528900 4.778500
7.548300 4.620700
7.567600 4.487400
7.586900 4.348600
7.606200 4.623200
7.625500 4.415400
7.644900 4.376600
7.664200 3.548200
7.683500 3.510800
7.702800 3.450900
7.722100 3.407000
7.741400 3.381300
7.760800 3.360700
7.780100 3.361200
7.799400 3.531300
7.818700 3.742900
7.838000 3.913100
7.857400 3.836100
7.876700 3.725200
7.896000 3.846400
7.915300 4.111800
7.934600 4.102100
7.954000 4.039000
7.973300 4.082100
7.992600 4.159800
8.011900 4.244400
8.031200 4.428600
8.050600 4.624400
8.069900 4.869000
8.089200 4.987300
8.108500 5.002900
8.127800 5.129200
8.147100 5.222100
8.166500 5.678100
