set title 'mp-980204 - Density of States'
set xlabel 'Energy (eV)'
set ylabel 'DOS (states/eV)'
set grid
set xrange [-10:10]
set yrange [0:3.919]
set xzeroaxis lt -1
set terminal png size 800,600
set output 'mp-980204_dos_gnuplot.png'
plot '-' using 1:2 with lines title 'DOS'
-27.599700 0.000000
-27.564500 0.000000
-27.529400 0.000000
-27.494300 0.000000
-27.459200 0.000000
-27.424000 0.000000
-27.388900 0.000000
-27.353800 0.000000
-27.318600 0.000000
-27.283500 0.000000
-27.248400 0.000000
-27.213200 0.000000
-27.178100 0.000000
-27.143000 0.000000
-27.107900 0.000000
-27.072700 0.000000
-27.037600 0.000000
-27.002500 0.000000
-26.967300 0.000000
-26.932200 0.000000
-26.897100 0.000000
-26.862000 0.000000
-26.826800 0.000000
-26.791700 0.000000
-26.756600 0.000000
-26.721400 0.000000
-26.686300 0.000000
-26.651200 0.000000
-26.616000 0.000000
-26.580900 0.000000
-26.545800 0.000000
-26.510700 0.000000
-26.475500 0.000000
-26.440400 0.000000
-26.405300 0.000000
-26.370100 0.000000
-26.335000 0.000000
-26.299900 0.000000
-26.264800 0.000000
-26.229600 0.000000
-26.194500 0.000000
-26.159400 0.000000
-26.124200 0.000000
-26.089100 0.000000
-26.054000 0.000000
-26.018800 0.000000
-25.983700 0.000000
-25.948600 0.000000
-25.913500 0.000000
-25.878300 0.000000
-25.843200 0.000000
-25.808100 0.000000
-25.772900 0.000000
-25.737800 0.000000
-25.702700 0.000000
-25.667500 0.000000
-25.632400 0.000000
-25.597300 0.000000
-25.562200 0.000000
-25.527000 0.000000
-25.491900 0.000000
-25.456800 0.000000
-25.421600 0.000000
-25.386500 0.000000
-25.351400 0.000000
-25.316300 0.000000
-25.281100 0.000000
-25.246000 0.000000
-25.210900 0.000000
-25.175700 0.000000
-25.140600 0.000000
-25.105500 0.000000
-25.070300 0.000000
-25.035200 0.000000
-25.000100 0.000000
-24.965000 0.000000
-24.929800 0.000000
-24.894700 0.000000
-24.859600 0.000000
-24.824400 0.000000
-24.789300 0.000000
-24.754200 0.000000
-24.719100 0.000000
-24.683900 0.000000
-24.648800 0.000000
-24.613700 0.000000
-24.578500 0.000000
-24.543400 0.000900
-24.508300 0.039900
-24.473100 0.758700
-24.438000 6.149900
-24.402900 22.604900
-24.367800 41.771100
-24.332600 45.928600
-24.297500 34.257700
-24.262400 15.511500
-24.227200 3.434600
-24.192100 0.326300
-24.157000 0.012600
-24.121900 0.000200
-24.086700 0.000000
-24.051600 0.000000
-24.016500 0.000000
-23.981300 0.000000
-23.946200 0.000000
-23.911100 0.000000
-23.875900 0.000000
-23.840800 0.000000
-23.805700 0.000000
-23.770600 0.000000
-23.735400 0.000000
-23.700300 0.000000
-23.665200 0.000000
-23.630000 0.000000
-23.594900 0.000000
-23.559800 0.000000
-23.524700 0.000000
-23.489500 0.000000
-23.454400 0.000000
-23.419300 0.000000
-23.384100 0.000000
-23.349000 0.000000
-23.313900 0.000000
-23.278700 0.000000
-23.243600 0.000000
-23.208500 0.000000
-23.173400 0.000000
-23.138200 0.000000
-23.103100 0.000000
-23.068000 0.000000
-23.032800 0.000000
-22.997700 0.000000
-22.962600 0.000000
-22.927500 0.000000
-22.892300 0.000000
-22.857200 0.000000
-22.822100 0.000000
-22.786900 0.000000
-22.751800 0.000000
-22.716700 0.000000
-22.681500 0.000000
-22.646400 0.000000
-22.611300 0.000000
-22.576200 0.000000
-22.541000 0.000000
-22.505900 0.000000
-22.470800 0.000000
-22.435600 0.000000
-22.400500 0.000000
-22.365400 0.000000
-22.330300 0.000000
-22.295100 0.000000
-22.260000 0.000000
-22.224900 0.000000
-22.189700 0.000000
-22.154600 0.000000
-22.119500 0.000000
-22.084300 0.000000
-22.049200 0.000000
-22.014100 0.000000
-21.979000 0.000000
-21.943800 0.000000
-21.908700 0.000000
-21.873600 0.000000
-21.838400 0.000000
-21.803300 0.000000
-21.768200 0.000000
-21.733000 0.000000
-21.697900 0.000000
-21.662800 0.000000
-21.627700 0.000000
-21.592500 0.000000
-21.557400 0.000000
-21.522300 0.000000
-21.487100 0.000000
-21.452000 0.000000
-21.416900 0.000000
-21.381800 0.000000
-21.346600 0.000000
-21.311500 0.000000
-21.276400 0.000000
-21.241200 0.000000
-21.206100 0.000000
-21.171000 0.000000
-21.135800 0.000000
-21.100700 0.000000
-21.065600 0.000000
-21.030500 0.000000
-20.995300 0.000000
-20.960200 0.000000
-20.925100 0.000000
-20.889900 0.000000
-20.854800 0.000000
-20.819700 0.000000
-20.784600 0.000000
-20.749400 0.000000
-20.714300 0.000000
-20.679200 0.000000
-20.644000 0.000000
-20.608900 0.000000
-20.573800 0.000000
-20.538600 0.000000
-20.503500 0.000000
-20.468400 0.000000
-20.433300 0.000000
-20.398100 0.000000
-20.363000 0.000000
-20.327900 0.000000
-20.292700 0.000000
-20.257600 0.000000
-20.222500 0.000000
-20.187400 0.000000
-20.152200 0.000000
-20.117100 0.000000
-20.082000 0.000000
-20.046800 0.000000
-20.011700 0.000000
-19.976600 0.000000
-19.941400 0.000000
-19.906300 0.000000
-19.871200 0.000000
-19.836100 0.000000
-19.800900 0.000000
-19.765800 0.000000
-19.730700 0.000000
-19.695500 0.000000
-19.660400 0.000000
-19.625300 0.000000
-19.590200 0.000000
-19.555000 0.000000
-19.519900 0.000000
-19.484800 0.000000
-19.449600 0.000000
-19.414500 0.000000
-19.379400 0.000000
-19.344200 0.000000
-19.309100 0.000000
-19.274000 0.000000
-19.238900 0.000000
-19.203700 0.000000
-19.168600 0.000000
-19.133500 0.000000
-19.098300 0.000000
-19.063200 0.000000
-19.028100 0.000000
-18.993000 0.000000
-18.957800 0.000000
-18.922700 0.000000
-18.887600 0.000000
-18.852400 0.000000
-18.817300 0.000000
-18.782200 0.000000
-18.747000 0.000000
-18.711900 0.000000
-18.676800 0.000000
-18.641700 0.000000
-18.606500 0.000000
-18.571400 0.000000
-18.536300 0.000000
-18.501100 0.000000
-18.466000 0.000000
-18.430900 0.000000
-18.395800 0.000000
-18.360600 0.000000
-18.325500 0.000000
-18.290400 0.000000
-18.255200 0.000000
-18.220100 0.000000
-18.185000 0.000000
-18.149800 0.000000
-18.114700 0.000000
-18.079600 0.000000
-18.044500 0.000000
-18.009300 0.000000
-17.974200 0.000000
-17.939100 0.000000
-17.903900 0.000000
-17.868800 0.000000
-17.833700 0.000000
-17.798600 0.000000
-17.763400 0.000000
-17.728300 0.000000
-17.693200 0.000000
-17.658000 0.000000
-17.622900 0.000000
-17.587800 0.000000
-17.552600 0.000000
-17.517500 0.000000
-17.482400 0.000000
-17.447300 0.000000
-17.412100 0.000000
-17.377000 0.000000
-17.341900 0.000000
-17.306700 0.000000
-17.271600 0.000000
-17.236500 0.000000
-17.201300 0.000000
-17.166200 0.000000
-17.131100 0.000000
-17.096000 0.000000
-17.060800 0.000000
-17.025700 0.000000
-16.990600 0.000000
-16.955400 0.000000
-16.920300 0.000000
-16.885200 0.000000
-16.850100 0.000000
-16.814900 0.000000
-16.779800 0.000000
-16.744700 0.000000
-16.709500 0.000000
-16.674400 0.000000
-16.639300 0.000000
-16.604100 0.000000
-16.569000 0.000000
-16.533900 0.000000
-16.498800 0.000000
-16.463600 0.000000
-16.428500 0.000000
-16.393400 0.000000
-16.358200 0.000000
-16.323100 0.000000
-16.288000 0.000000
-16.252900 0.000000
-16.217700 0.000000
-16.182600 0.000000
-16.147500 0.000000
-16.112300 0.000000
-16.077200 0.000000
-16.042100 0.000000
-16.006900 0.000000
-15.971800 0.000000
-15.936700 0.000000
-15.901600 0.000000
-15.866400 0.000000
-15.831300 0.000000
-15.796200 0.000000
-15.761000 0.000000
-15.725900 0.000000
-15.690800 0.000000
-15.655700 0.000000
-15.620500 0.000000
-15.585400 0.000000
-15.550300 0.000000
-15.515100 0.000000
-15.480000 0.000000
-15.444900 0.000000
-15.409700 0.000000
-15.374600 0.000000
-15.339500 0.000000
-15.304400 0.000000
-15.269200 0.000000
-15.234100 0.000000
-15.199000 0.000000
-15.163800 0.000000
-15.128700 0.000000
-15.093600 0.000000
-15.058500 0.000000
-15.023300 0.000000
-14.988200 0.000000
-14.953100 0.000000
-14.917900 0.000000
-14.882800 0.000000
-14.847700 0.000000
-14.812500 0.000000
-14.777400 0.000000
-14.742300 0.000000
-14.707200 0.000000
-14.672000 0.000000
-14.636900 0.000000
-14.601800 0.000000
-14.566600 0.000000
-14.531500 0.000000
-14.496400 0.000000
-14.461300 0.000000
-14.426100 0.000000
-14.391000 0.000000
-14.355900 0.000000
-14.320700 0.000000
-14.285600 0.000000
-14.250500 0.000000
-14.215300 0.000000
-14.180200 0.000000
-14.145100 0.000000
-14.110000 0.000000
-14.074800 0.000000
-14.039700 0.000000
-14.004600 0.000000
-13.969400 0.000000
-13.934300 0.000000
-13.899200 0.000000
-13.864100 0.000000
-13.828900 0.000000
-13.793800 0.000000
-13.758700 0.000000
-13.723500 0.000000
-13.688400 0.000000
-13.653300 0.000000
-13.618100 0.000000
-13.583000 0.000000
-13.547900 0.000000
-13.512800 0.000000
-13.477600 0.000000
-13.442500 0.000000
-13.407400 0.000000
-13.372200 0.000000
-13.337100 0.000000
-13.302000 0.000000
-13.266900 0.000000
-13.231700 0.000000
-13.196600 0.000000
-13.161500 0.000000
-13.126300 0.000000
-13.091200 0.000000
-13.056100 0.000000
-13.020900 0.000000
-12.985800 0.000000
-12.950700 0.000000
-12.915600 0.000000
-12.880400 0.000000
-12.845300 0.000000
-12.810200 0.000000
-12.775000 0.000000
-12.739900 0.000000
-12.704800 0.000000
-12.669600 0.000000
-12.634500 0.000000
-12.599400 0.000000
-12.564300 0.000000
-12.529100 0.000000
-12.494000 0.000000
-12.458900 0.000000
-12.423700 0.000000
-12.388600 0.000000
-12.353500 0.000000
-12.318400 0.000000
-12.283200 0.000000
-12.248100 0.000000
-12.213000 0.000000
-12.177800 0.000000
-12.142700 0.000000
-12.107600 0.000000
-12.072400 0.000000
-12.037300 0.000000
-12.002200 0.000000
-11.967100 0.000000
-11.931900 0.000000
-11.896800 0.000000
-11.861700 0.000000
-11.826500 0.000000
-11.791400 0.000000
-11.756300 0.000000
-11.721200 0.000000
-11.686000 0.000000
-11.650900 0.000000
-11.615800 0.000000
-11.580600 0.000000
-11.545500 0.000000
-11.510400 0.000000
-11.475200 0.000000
-11.440100 0.000000
-11.405000 0.000000
-11.369900 0.000000
-11.334700 0.000000
-11.299600 0.000000
-11.264500 0.000000
-11.229300 0.000000
-11.194200 0.000000
-11.159100 0.000000
-11.124000 0.000000
-11.088800 0.000000
-11.053700 0.000000
-11.018600 0.000000
-10.983400 0.000000
-10.948300 0.000000
-10.913200 0.000000
-10.878000 0.000000
-10.842900 0.000000
-10.807800 0.000000
-10.772700 0.000000
-10.737500 0.000000
-10.702400 0.000000
-10.667300 0.000000
-10.632100 0.000000
-10.597000 0.000000
-10.561900 0.000000
-10.526800 0.000000
-10.491600 0.000000
-10.456500 0.000000
-10.421400 0.000000
-10.386200 0.000000
-10.351100 0.000000
-10.316000 0.000000
-10.280800 0.000000
-10.245700 0.000000
-10.210600 0.000000
-10.175500 0.000000
-10.140300 0.000000
-10.105200 0.000000
-10.070100 0.000000
-10.034900 0.000000
-9.999800 0.000000
-9.964700 0.000000
-9.929600 0.000000
-9.894400 0.000000
-9.859300 0.000000
-9.824200 0.000000
-9.789000 0.000000
-9.753900 0.000000
-9.718800 0.000000
-9.683600 0.000000
-9.648500 0.000000
-9.613400 0.000000
-9.578300 0.000000
-9.543100 0.000000
-9.508000 0.000000
-9.472900 0.000000
-9.437700 0.000000
-9.402600 0.000000
-9.367500 0.000000
-9.332400 0.000000
-9.297200 0.000000
-9.262100 0.000000
-9.227000 0.000000
-9.191800 0.000000
-9.156700 0.000000
-9.121600 0.000000
-9.086400 0.000000
-9.051300 0.000000
-9.016200 0.000000
-8.981100 0.000000
-8.945900 0.000000
-8.910800 0.000000
-8.875700 0.000000
-8.840500 0.000000
-8.805400 0.000000
-8.770300 0.000000
-8.735100 0.000000
-8.700000 0.000000
-8.664900 0.000000
-8.629800 0.000000
-8.594600 0.000000
-8.559500 0.000000
-8.524400 0.000000
-8.489200 0.000000
-8.454100 0.000000
-8.419000 0.000000
-8.383900 0.000000
-8.348700 0.000000
-8.313600 0.000000
-8.278500 0.000000
-8.243300 0.000000
-8.208200 0.000000
-8.173100 0.000000
-8.137900 0.000000
-8.102800 0.000000
-8.067700 0.000000
-8.032600 0.000000
-7.997400 0.000000
-7.962300 0.000000
-7.927200 0.000000
-7.892000 0.000000
-7.856900 0.000000
-7.821800 0.000000
-7.786700 0.000000
-7.751500 0.000000
-7.716400 0.000000
-7.681300 0.000000
-7.646100 0.000000
-7.611000 0.000000
-7.575900 0.000000
-7.540700 0.000000
-7.505600 0.000000
-7.470500 0.000000
-7.435400 0.000000
-7.400200 0.000000
-7.365100 0.000000
-7.330000 0.000000
-7.294800 0.000000
-7.259700 0.000000
-7.224600 0.000000
-7.189500 0.000000
-7.154300 0.000000
-7.119200 0.000000
-7.084100 0.000000
-7.048900 0.000000
-7.013800 0.000000
-6.978700 0.000000
-6.943500 0.000000
-6.908400 0.000000
-6.873300 0.000000
-6.838200 0.000000
-6.803000 0.000000
-6.767900 0.000000
-6.732800 0.000000
-6.697600 0.000000
-6.662500 0.000000
-6.627400 0.000000
-6.592300 0.000000
-6.557100 0.000000
-6.522000 0.000000
-6.486900 0.000000
-6.451700 0.000000
-6.416600 0.000000
-6.381500 0.000000
-6.346300 0.000000
-6.311200 0.000000
-6.276100 0.000000
-6.241000 0.000000
-6.205800 0.000000
-6.170700 0.000000
-6.135600 0.000000
-6.100400 0.000000
-6.065300 0.000300
-6.030200 0.003500
-5.995100 0.015900
-5.959900 0.037400
-5.924800 0.074200
-5.889700 0.141900
-5.854500 0.199400
-5.819400 0.190300
-5.784300 0.152900
-5.749100 0.199300
-5.714000 0.261900
-5.678900 0.227100
-5.643800 0.206400
-5.608600 0.324100
-5.573500 0.487200
-5.538400 0.437600
-5.503200 0.261700
-5.468100 0.242100
-5.433000 0.340100
-5.397900 0.328100
-5.362700 0.268600
-5.327600 0.324000
-5.292500 0.481800
-5.257300 0.635400
-5.222200 0.627600
-5.187100 0.531500
-5.151900 0.507900
-5.116800 0.384700
-5.081700 0.279700
-5.046600 0.436100
-5.011400 0.756200
-4.976300 0.839200
-4.941200 0.626400
-4.906000 0.514800
-4.870900 0.474600
-4.835800 0.365000
-4.800700 0.409600
-4.765500 0.717700
-4.730400 0.974100
-4.695300 0.930400
-4.660100 0.711500
-4.625000 0.560000
-4.589900 0.570100
-4.554700 0.597100
-4.519600 0.609600
-4.484500 0.694700
-4.449400 0.811200
-4.414200 0.693300
-4.379100 0.505900
-4.344000 0.494000
-4.308800 0.482000
-4.273700 0.357200
-4.238600 0.437800
-4.203400 0.745500
-4.168300 0.904200
-4.133200 0.871300
-4.098100 0.872900
-4.062900 0.831900
-4.027800 0.576400
-3.992700 0.370800
-3.957500 0.536800
-3.922400 0.892000
-3.887300 1.006400
-3.852200 0.828200
-3.817000 0.634900
-3.781900 0.486100
-3.746800 0.374000
-3.711600 0.467500
-3.676500 0.760200
-3.641400 0.940300
-3.606200 0.736900
-3.571100 0.458300
-3.536000 0.410200
-3.500900 0.471800
-3.465700 0.718500
-3.430600 1.132800
-3.395500 1.222700
-3.360300 0.889300
-3.325200 0.660900
-3.290100 0.628500
-3.255000 0.727500
-3.219800 0.888200
-3.184700 0.982400
-3.149600 0.823300
-3.114400 0.501600
-3.079300 0.386900
-3.044200 0.407700
-3.009000 0.450100
-2.973900 0.575900
-2.938800 0.712900
-2.903700 0.810200
-2.868500 0.674400
-2.833400 0.467200
-2.798300 0.585500
-2.763100 0.796000
-2.728000 0.898800
-2.692900 0.963900
-2.657800 0.751000
-2.622600 0.599800
-2.587500 1.059200
-2.552400 1.670200
-2.517200 1.758400
-2.482100 1.564300
-2.447000 1.241100
-2.411800 0.890100
-2.376700 0.762500
-2.341600 0.866500
-2.306500 1.021600
-2.271300 1.092300
-2.236200 1.171300
-2.201100 1.116100
-2.165900 0.978800
-2.130800 1.196500
-2.095700 1.587400
-2.060600 1.549400
-2.025400 1.145700
-1.990300 0.818400
-1.955200 0.755800
-1.920000 0.896900
-1.884900 1.160100
-1.849800 1.287600
-1.814600 1.244500
-1.779500 1.167600
-1.744400 0.923000
-1.709300 0.887900
-1.674100 1.113200
-1.639000 1.156100
-1.603900 0.940200
-1.568700 0.845000
-1.533600 0.976900
-1.498500 1.057300
-1.463400 0.995000
-1.428200 1.034500
-1.393100 1.020100
-1.358000 0.798500
-1.322800 0.689700
-1.287700 0.775900
-1.252600 0.900800
-1.217400 0.969300
-1.182300 1.041200
-1.147200 1.178000
-1.112100 1.058700
-1.076900 0.858100
-1.041800 0.866100
-1.006700 0.846200
-0.971500 0.731100
-0.936400 0.648700
-0.901300 0.651300
-0.866200 0.879500
-0.831000 1.191500
-0.795900 1.257500
-0.760800 1.138800
-0.725600 1.136300
-0.690500 1.330500
-0.655400 1.781000
-0.620200 2.305200
-0.585100 2.269900
-0.550000 1.825200
-0.514900 1.452800
-0.479700 1.236200
-0.444600 1.190000
-0.409500 1.525000
-0.374300 1.864700
-0.339200 1.568700
-0.304100 1.252300
-0.269000 1.282500
-0.233800 1.511100
-0.198700 1.606700
-0.163600 1.488400
-0.128400 1.622800
-0.093300 1.836500
-0.058200 1.633400
-0.023000 1.569800
0.012100 2.007400
0.047200 2.223800
0.082300 2.003000
0.117500 1.686300
0.152600 1.609900
0.187700 1.480900
0.222900 1.019300
0.258000 0.657500
0.293100 0.569900
0.328300 0.627600
0.363400 0.721600
0.398500 0.745100
0.433600 0.606000
0.468800 0.503600
0.503900 0.380900
0.539000 0.148500
0.574200 0.024200
0.609300 0.001800
0.644400 0.003900
0.679500 0.030400
0.714700 0.105300
0.749800 0.176400
0.784900 0.169800
0.820100 0.139000
0.855200 0.119600
0.890300 0.102800
0.925500 0.114700
0.960600 0.115700
0.995700 0.160000
1.030800 0.296300
1.066000 0.433800
1.101100 0.443600
1.136200 0.422200
1.171400 0.372200
1.206500 0.295700
1.241600 0.303800
1.276700 0.292900
1.311900 0.279700
1.347000 0.392600
1.382100 0.517200
1.417300 0.463800
1.452400 0.323900
1.487500 0.208600
1.522700 0.111100
1.557800 0.059700
1.592900 0.050700
1.628000 0.052300
1.663200 0.037000
1.698300 0.042200
1.733400 0.058300
1.768600 0.092400
1.803700 0.258400
1.838800 0.512500
1.873900 0.569800
1.909100 0.419800
1.944200 0.392900
1.979300 0.444800
2.014500 0.331400
2.049600 0.194300
2.084700 0.237300
2.119900 0.391100
2.155000 0.440200
2.190100 0.447300
2.225200 0.545200
2.260400 0.562000
2.295500 0.408000
2.330600 0.352200
2.365800 0.456900
2.400900 0.554800
2.436000 0.622000
2.471100 0.816200
2.506300 1.049700
2.541400 1.073300
2.576500 0.920200
2.611700 0.904800
2.646800 1.059200
2.681900 1.261500
2.717100 1.198400
2.752200 0.853400
2.787300 0.625000
2.822400 0.634100
2.857600 0.809100
2.892700 1.086300
2.927800 1.745000
2.963000 2.257100
2.998100 2.088100
3.033200 1.622100
3.068300 1.385400
3.103500 1.773800
3.138600 2.349600
3.173700 2.387700
3.208900 1.990900
3.244000 1.794300
3.279100 1.631800
3.314300 1.437400
3.349400 1.649900
3.384500 1.977800
3.419600 1.984000
3.454800 1.843700
3.489900 1.719500
3.525000 1.487900
3.560200 1.245300
3.595300 1.086300
3.630400 1.138400
3.665500 1.327000
3.700700 1.428000
3.735800 1.554900
3.770900 2.042100
3.806100 2.117000
3.841200 1.604700
3.876300 1.648600
3.911500 2.169200
3.946600 2.313400
3.981700 2.162700
4.016800 1.913100
4.052000 1.969000
4.087100 2.140300
4.122200 1.850200
4.157400 1.599300
4.192500 1.763900
4.227600 1.930600
4.262800 1.876600
4.297900 1.908000
4.333000 2.266400
4.368100 2.539000
4.403300 2.353000
4.438400 2.095100
4.473500 1.971200
4.508700 1.644100
4.543800 1.224400
4.578900 1.283100
4.614000 1.756300
4.649200 2.160100
4.684300 2.273500
4.719400 1.978000
4.754600 1.730500
4.789700 1.922500
4.824800 2.198900
4.860000 2.474400
4.895100 2.590800
4.930200 2.314900
4.965300 2.108100
5.000500 2.320800
5.035600 2.470900
5.070700 2.421800
5.105900 2.150200
5.141000 2.034600
5.176100 2.488000
5.211200 2.795100
5.246400 2.383600
5.281500 1.691900
5.316600 1.277700
5.351800 1.232200
5.386900 1.541600
5.422000 1.971500
5.457200 2.219400
5.492300 2.141900
5.527400 2.015700
5.562500 1.938500
5.597700 1.860500
5.632800 1.982100
5.667900 2.045700
5.703100 1.733200
5.738200 1.406700
5.773300 1.291700
5.808400 1.050400
5.843600 0.772100
5.878700 0.976400
5.913800 1.533800
5.949000 1.836400
5.984100 1.874400
6.019200 1.902700
6.054400 1.617300
6.089500 1.218000
6.124600 1.175100
6.159700 1.530300
6.194900 1.976100
6.230000 2.041800
6.265100 1.881600
6.300300 1.632700
6.335400 1.441000
6.370500 1.519100
6.405600 1.457900
6.440800 1.190900
6.475900 1.169200
6.511000 1.293700
6.546200 1.636700
6.581300 1.879500
6.616400 1.577200
6.651600 1.077600
6.686700 0.856900
6.721800 1.034100
6.756900 1.830800
6.792100 2.612500
6.827200 2.386500
6.862300 1.879900
6.897500 1.763300
6.932600 1.817000
6.967700 1.690900
7.002800 1.397300
7.038000 1.643800
7.073100 2.115900
7.108200 2.194000
7.143400 2.381200
7.178500 2.878600
7.213600 2.713900
7.248800 2.231300
7.283900 2.211700
7.319000 2.284900
7.354100 2.502300
7.389300 2.507300
7.424400 2.339700
7.459500 2.406700
7.494700 2.256700
7.529800 1.802000
7.564900 1.628900
7.600000 1.482100
7.635200 1.466700
7.670300 1.681200
7.705400 1.648000
7.740600 1.420600
7.775700 1.724300
7.810800 2.070100
7.846000 1.763600
7.881100 1.532000
7.916200 1.909900
7.951300 2.439500
7.986500 2.332200
8.021600 1.778100
8.056700 1.612900
8.091900 1.666900
8.127000 1.556100
8.162100 1.622500
8.197200 1.878800
8.232400 1.889500
8.267500 1.760300
8.302600 1.789700
