set title 'mp-685048 - Density of States'
set xlabel 'Energy (eV)'
set ylabel 'DOS (states/eV)'
set grid
set xrange [-10:10]
set yrange [0:110.920]
set xzeroaxis lt -1
set terminal png size 800,600
set output 'mp-685048_dos_gnuplot.png'
plot '-' using 1:2 with lines title 'DOS'
-9.874900 0.000000
-9.861600 0.000000
-9.848300 0.000000
-9.835000 0.000000
-9.821600 0.000000
-9.808300 0.000000
-9.795000 0.000000
-9.781700 0.000000
-9.768400 0.000000
-9.755000 0.000000
-9.741700 0.000000
-9.728400 0.000000
-9.715100 0.000000
-9.701800 0.000000
-9.688400 0.000000
-9.675100 0.000000
-9.661800 0.000000
-9.648500 0.000000
-9.635200 0.000000
-9.621800 0.000000
-9.608500 0.000000
-9.595200 0.000000
-9.581900 0.000000
-9.568500 0.000000
-9.555200 0.000000
-9.541900 0.000000
-9.528600 0.000000
-9.515300 0.000000
-9.501900 0.000000
-9.488600 0.000000
-9.475300 0.000000
-9.462000 0.000000
-9.448700 0.000000
-9.435300 0.000000
-9.422000 0.000000
-9.408700 0.000000
-9.395400 0.000000
-9.382100 0.000000
-9.368700 0.000000
-9.355400 0.000000
-9.342100 0.000000
-9.328800 0.000000
-9.315500 0.000000
-9.302100 0.000000
-9.288800 0.000000
-9.275500 0.000000
-9.262200 0.000000
-9.248900 0.000000
-9.235500 0.000000
-9.222200 0.000000
-9.208900 0.000000
-9.195600 0.000000
-9.182300 0.000000
-9.168900 0.000000
-9.155600 0.000000
-9.142300 0.000000
-9.129000 0.000000
-9.115700 0.000000
-9.102300 0.000000
-9.089000 0.000000
-9.075700 0.000000
-9.062400 0.000000
-9.049100 0.000000
-9.035700 0.000000
-9.022400 0.000000
-9.009100 0.000000
-8.995800 0.000000
-8.982400 0.000000
-8.969100 0.000000
-8.955800 0.000000
-8.942500 0.000000
-8.929200 0.000000
-8.915800 0.000000
-8.902500 0.000000
-8.889200 0.000000
-8.875900 0.000000
-8.862600 0.000000
-8.849200 0.000000
-8.835900 0.000000
-8.822600 0.000000
-8.809300 0.000000
-8.796000 0.000000
-8.782600 0.000000
-8.769300 0.000000
-8.756000 0.000000
-8.742700 0.000000
-8.729400 0.000000
-8.716000 0.000000
-8.702700 0.000000
-8.689400 0.000000
-8.676100 0.000000
-8.662800 0.108300
-8.649400 1.299800
-8.636100 2.491200
-8.622800 1.736900
-8.609500 1.859900
-8.596200 1.982800
-8.582800 2.105800
-8.569500 2.228700
-8.556200 2.258700
-8.542900 2.230100
-8.529600 2.240400
-8.516200 2.303100
-8.502900 2.377200
-8.489600 2.451300
-8.476300 2.525400
-8.463000 2.603300
-8.449600 2.707200
-8.436300 2.801800
-8.423000 2.926400
-8.409700 3.033400
-8.396300 3.140400
-8.383000 3.246300
-8.369700 3.352100
-8.356400 3.457800
-8.343100 3.800100
-8.329700 6.319900
-8.316400 7.149900
-8.303100 7.538200
-8.289800 8.182500
-8.276500 8.847700
-8.263100 9.450000
-8.249800 11.019800
-8.236500 15.384800
-8.223200 15.676900
-8.209900 15.162600
-8.196500 12.499200
-8.183200 11.120600
-8.169900 4.672200
-8.156600 4.961200
-8.143300 5.244300
-8.129900 5.691100
-8.116600 6.521000
-8.103300 7.934200
-8.090000 12.063200
-8.076700 13.064100
-8.063300 27.167300
-8.050000 17.787600
-8.036700 17.132000
-8.023400 13.805100
-8.010100 3.730300
-7.996700 3.926200
-7.983400 4.122000
-7.970100 4.381200
-7.956800 4.680200
-7.943500 4.972700
-7.930100 5.263400
-7.916800 5.553600
-7.903500 6.255000
-7.890200 7.008500
-7.876900 8.208300
-7.863500 9.351000
-7.850200 11.277000
-7.836900 18.463100
-7.823600 17.909400
-7.810200 14.071100
-7.796900 0.000000
-7.783600 0.000000
-7.770300 0.000000
-7.757000 0.000000
-7.743600 0.000000
-7.730300 0.000000
-7.717000 0.000000
-7.703700 0.000000
-7.690400 0.000000
-7.677000 0.000000
-7.663700 0.223100
-7.650400 1.632100
-7.637100 3.041100
-7.623800 1.922500
-7.610400 2.065400
-7.597100 2.208300
-7.583800 2.351300
-7.570500 2.433000
-7.557200 2.396800
-7.543800 2.382300
-7.530500 2.441500
-7.517200 2.523200
-7.503900 2.604900
-7.490600 2.686600
-7.477200 4.569100
-7.463900 6.862200
-7.450600 5.453900
-7.437300 5.787300
-7.424000 6.120800
-7.410600 6.373300
-7.397300 6.418600
-7.384000 6.602900
-7.370700 6.902300
-7.357400 7.307600
-7.344000 7.658500
-7.330700 9.003700
-7.317400 13.226400
-7.304100 12.544100
-7.290800 13.489500
-7.277400 14.469700
-7.264100 15.685300
-7.250800 18.075800
-7.237500 25.948700
-7.224100 28.515900
-7.210800 26.513700
-7.197500 30.344600
-7.184200 37.239100
-7.170900 29.678800
-7.157500 30.066200
-7.144200 23.005500
-7.130900 24.887300
-7.117600 38.074200
-7.104300 42.511100
-7.090900 40.279800
-7.077600 27.835000
-7.064300 0.000000
-7.051000 0.000000
-7.037700 0.000000
-7.024300 0.000000
-7.011000 0.000000
-6.997700 0.000000
-6.984400 0.000000
-6.971100 0.000000
-6.957700 0.000000
-6.944400 0.000000
-6.931100 0.000000
-6.917800 0.000000
-6.904500 0.000000
-6.891100 0.000000
-6.877800 0.000000
-6.864500 0.000000
-6.851200 0.000000
-6.837900 0.000000
-6.824500 0.000000
-6.811200 0.000000
-6.797900 0.000000
-6.784600 0.000000
-6.771300 0.000000
-6.757900 0.000000
-6.744600 0.000000
-6.731300 0.000000
-6.718000 0.000000
-6.704700 0.000000
-6.691300 0.000000
-6.678000 0.000000
-6.664700 0.000000
-6.651400 0.000000
-6.638000 0.000000
-6.624700 0.000000
-6.611400 0.000000
-6.598100 0.000000
-6.584800 0.000000
-6.571400 0.000000
-6.558100 0.000000
-6.544800 0.000000
-6.531500 0.000000
-6.518200 0.000000
-6.504800 0.000000
-6.491500 0.000000
-6.478200 0.000000
-6.464900 0.000000
-6.451600 0.000000
-6.438200 0.000000
-6.424900 0.000000
-6.411600 0.000000
-6.398300 0.000000
-6.385000 0.000000
-6.371600 0.000000
-6.358300 0.000000
-6.345000 0.000000
-6.331700 0.000000
-6.318400 0.000000
-6.305000 0.000000
-6.291700 0.000000
-6.278400 0.000000
-6.265100 0.000000
-6.251800 0.000000
-6.238400 0.000000
-6.225100 0.000000
-6.211800 0.000000
-6.198500 0.000000
-6.185200 0.000000
-6.171800 0.000000
-6.158500 0.000000
-6.145200 0.000000
-6.131900 0.000000
-6.118500 0.000000
-6.105200 0.000000
-6.091900 0.000000
-6.078600 0.000000
-6.065300 0.000000
-6.051900 0.000000
-6.038600 0.000000
-6.025300 0.000000
-6.012000 0.000000
-5.998700 0.000000
-5.985300 0.000000
-5.972000 0.000000
-5.958700 0.000000
-5.945400 0.000000
-5.932100 0.000000
-5.918700 0.000000
-5.905400 0.000000
-5.892100 0.000000
-5.878800 0.000000
-5.865500 0.000000
-5.852100 0.000000
-5.838800 0.000000
-5.825500 0.000000
-5.812200 0.000000
-5.798900 0.000000
-5.785500 0.000000
-5.772200 0.000000
-5.758900 0.000000
-5.745600 0.000000
-5.732300 0.000000
-5.718900 0.000000
-5.705600 0.000000
-5.692300 0.000000
-5.679000 0.000000
-5.665700 0.000000
-5.652300 0.000000
-5.639000 0.000000
-5.625700 0.000000
-5.612400 0.000000
-5.599100 0.000000
-5.585700 0.000000
-5.572400 0.000000
-5.559100 0.000000
-5.545800 0.000000
-5.532400 0.000000
-5.519100 0.000000
-5.505800 0.000000
-5.492500 0.000000
-5.479200 0.000000
-5.465800 0.000000
-5.452500 0.000000
-5.439200 0.000000
-5.425900 0.000000
-5.412600 0.000000
-5.399200 0.000000
-5.385900 0.000000
-5.372600 0.000000
-5.359300 0.000000
-5.346000 0.000000
-5.332600 0.000000
-5.319300 0.000000
-5.306000 0.000000
-5.292700 0.000000
-5.279400 0.000000
-5.266000 0.000000
-5.252700 0.000000
-5.239400 0.000000
-5.226100 0.000000
-5.212800 0.000000
-5.199400 0.000000
-5.186100 0.000000
-5.172800 0.000000
-5.159500 0.000000
-5.146200 0.000000
-5.132800 0.000000
-5.119500 0.000000
-5.106200 0.000000
-5.092900 0.000000
-5.079600 0.000000
-5.066200 0.000000
-5.052900 0.000000
-5.039600 0.000000
-5.026300 0.000000
-5.013000 0.000000
-4.999600 0.000000
-4.986300 0.000000
-4.973000 0.000000
-4.959700 0.000000
-4.946300 0.000000
-4.933000 0.000000
-4.919700 0.000000
-4.906400 0.000000
-4.893100 0.000000
-4.879700 0.000000
-4.866400 0.000000
-4.853100 0.000000
-4.839800 0.000000
-4.826500 0.000000
-4.813100 0.000000
-4.799800 0.000000
-4.786500 0.000000
-4.773200 0.000000
-4.759900 0.000000
-4.746500 0.000000
-4.733200 0.000000
-4.719900 0.000000
-4.706600 0.000000
-4.693300 0.000000
-4.679900 0.000000
-4.666600 0.000000
-4.653300 0.000000
-4.640000 0.000000
-4.626700 0.000000
-4.613300 0.000000
-4.600000 0.000000
-4.586700 0.000000
-4.573400 0.000000
-4.560100 0.000000
-4.546700 0.000000
-4.533400 0.000000
-4.520100 0.000000
-4.506800 0.000000
-4.493500 0.000000
-4.480100 0.000000
-4.466800 0.000000
-4.453500 0.000000
-4.440200 0.000000
-4.426900 0.000000
-4.413500 0.000000
-4.400200 0.000000
-4.386900 0.000000
-4.373600 0.000000
-4.360200 0.000000
-4.346900 0.000000
-4.333600 0.000000
-4.320300 0.000000
-4.307000 0.000000
-4.293600 0.000000
-4.280300 0.000000
-4.267000 0.000000
-4.253700 0.000000
-4.240400 0.000000
-4.227000 0.000000
-4.213700 0.000000
-4.200400 0.000000
-4.187100 0.000000
-4.173800 0.000000
-4.160400 0.000000
-4.147100 0.000000
-4.133800 0.000000
-4.120500 0.000000
-4.107200 0.000000
-4.093800 0.000000
-4.080500 0.000000
-4.067200 0.000000
-4.053900 0.000000
-4.040600 0.000000
-4.027200 0.000000
-4.013900 0.000000
-4.000600 0.000000
-3.987300 0.000000
-3.974000 0.000000
-3.960600 0.000000
-3.947300 0.000000
-3.934000 0.000000
-3.920700 0.000000
-3.907400 0.000000
-3.894000 0.000000
-3.880700 0.000000
-3.867400 0.000000
-3.854100 0.000000
-3.840800 0.000000
-3.827400 0.000000
-3.814100 0.000000
-3.800800 0.000000
-3.787500 0.000000
-3.774100 0.000000
-3.760800 0.000000
-3.747500 0.000000
-3.734200 0.000000
-3.720900 0.000000
-3.707500 0.000000
-3.694200 0.000000
-3.680900 0.000000
-3.667600 0.000000
-3.654300 0.000000
-3.640900 0.000000
-3.627600 0.000000
-3.614300 0.000000
-3.601000 0.000000
-3.587700 0.000000
-3.574300 0.000000
-3.561000 0.000000
-3.547700 0.000000
-3.534400 0.000000
-3.521100 0.000000
-3.507700 0.000000
-3.494400 0.000000
-3.481100 0.000000
-3.467800 0.000000
-3.454500 0.000000
-3.441100 0.000000
-3.427800 0.000000
-3.414500 0.000000
-3.401200 0.000000
-3.387900 0.000000
-3.374500 0.000000
-3.361200 0.000000
-3.347900 0.000000
-3.334600 0.000000
-3.321300 0.000000
-3.307900 0.000000
-3.294600 0.000000
-3.281300 0.000000
-3.268000 0.000000
-3.254700 0.000000
-3.241300 0.000000
-3.228000 0.000000
-3.214700 0.000000
-3.201400 0.000000
-3.188000 0.000000
-3.174700 0.000000
-3.161400 0.000000
-3.148100 0.000000
-3.134800 0.000000
-3.121400 0.000000
-3.108100 0.000000
-3.094800 0.000000
-3.081500 0.000000
-3.068200 0.000000
-3.054800 0.000000
-3.041500 0.000000
-3.028200 0.000000
-3.014900 0.000000
-3.001600 0.000000
-2.988200 0.000000
-2.974900 0.000000
-2.961600 0.000000
-2.948300 0.000000
-2.935000 0.000000
-2.921600 0.000000
-2.908300 0.000000
-2.895000 0.000000
-2.881700 2.689800
-2.868400 10.923700
-2.855000 11.992500
-2.841700 13.579400
-2.828400 18.971900
-2.815100 14.770200
-2.801800 11.135000
-2.788400 9.744600
-2.775100 7.994100
-2.761800 7.589900
-2.748500 7.033400
-2.735200 6.109900
-2.721800 3.093700
-2.708500 2.526300
-2.695200 2.379800
-2.681900 2.273400
-2.668600 3.678800
-2.655200 8.669700
-2.641900 8.411600
-2.628600 8.823800
-2.615300 11.672600
-2.601900 23.578600
-2.588600 16.958000
-2.575300 17.023600
-2.562000 19.160000
-2.548700 15.396100
-2.535300 9.116100
-2.522000 6.017400
-2.508700 5.104800
-2.495400 4.741000
-2.482100 4.636400
-2.468700 3.625800
-2.455400 1.110600
-2.442100 0.178700
-2.428800 2.755400
-2.415500 5.571900
-2.402100 3.655400
-2.388800 4.473900
-2.375500 7.495200
-2.362200 19.688900
-2.348900 43.120900
-2.335500 25.741100
-2.322200 13.716900
-2.308900 9.357600
-2.295600 14.196200
-2.282300 13.371600
-2.268900 9.838900
-2.255600 9.242200
-2.242300 13.971700
-2.229000 18.161600
-2.215700 18.135300
-2.202300 21.251500
-2.189000 24.656400
-2.175700 25.966800
-2.162400 21.792400
-2.149100 13.227000
-2.135700 17.583100
-2.122400 17.204100
-2.109100 23.285200
-2.095800 18.976500
-2.082500 25.060700
-2.069100 23.135200
-2.055800 27.313800
-2.042500 46.250300
-2.029200 43.591900
-2.015800 30.181900
-2.002500 15.876800
-1.989200 14.768800
-1.975900 13.575700
-1.962600 23.433100
-1.949200 21.377200
-1.935900 24.975500
-1.922600 39.969000
-1.909300 27.627500
-1.896000 24.305300
-1.882600 22.847400
-1.869300 23.559500
-1.856000 28.500100
-1.842700 26.081700
-1.829400 38.884000
-1.816000 41.836600
-1.802700 34.835300
-1.789400 51.125900
-1.776100 40.185500
-1.762800 32.719700
-1.749400 32.168000
-1.736100 29.807800
-1.722800 42.648200
-1.709500 38.330000
-1.696200 31.287600
-1.682800 35.451700
-1.669500 35.547000
-1.656200 44.036200
-1.642900 28.575300
-1.629600 28.757300
-1.616200 50.695400
-1.602900 44.811200
-1.589600 52.798000
-1.576300 46.331700
-1.563000 43.626200
-1.549600 55.136700
-1.536300 20.286800
-1.523000 22.551400
-1.509700 42.361400
-1.496400 88.072000
-1.483000 39.362100
-1.469700 35.189200
-1.456400 46.959300
-1.443100 51.969500
-1.429700 77.589200
-1.416400 47.023200
-1.403100 44.332700
-1.389800 72.126900
-1.376500 58.626500
-1.363100 70.696700
-1.349800 53.847900
-1.336500 43.816500
-1.323200 61.198400
-1.309900 64.543800
-1.296500 58.607400
-1.283200 52.843700
-1.269900 35.944200
-1.256600 88.175400
-1.243300 61.669700
-1.229900 36.613700
-1.216600 45.202000
-1.203300 77.358700
-1.190000 47.791100
-1.176700 51.105900
-1.163300 54.573400
-1.150000 52.285500
-1.136700 32.275700
-1.123400 40.407700
-1.110100 86.982000
-1.096700 39.104700
-1.083400 28.067100
-1.070100 81.908300
-1.056800 46.682300
-1.043500 73.340200
-1.030100 38.121200
-1.016800 72.569400
-1.003500 74.258000
-0.990200 50.804300
-0.976900 90.729100
-0.963500 43.830200
-0.950200 73.296800
-0.936900 55.276900
-0.923600 61.416400
-0.910300 49.592700
-0.896900 66.445100
-0.883600 55.731800
-0.870300 79.939000
-0.857000 80.969300
-0.843600 78.687500
-0.830300 55.359400
-0.817000 73.829100
-0.803700 44.811100
-0.790400 49.330600
-0.777000 71.750100
-0.763700 74.468600
-0.750400 52.858700
-0.737100 64.200900
-0.723800 59.010400
-0.710400 87.555800
-0.697100 78.707100
-0.683800 58.945800
-0.670500 76.737600
-0.657200 91.484900
-0.643800 58.818200
-0.630500 65.919400
-0.617200 45.195800
-0.603900 87.053000
-0.590600 50.934100
-0.577200 89.219800
-0.563900 77.930900
-0.550600 73.962600
-0.537300 66.118100
-0.524000 76.120700
-0.510600 56.260100
-0.497300 75.537200
-0.484000 58.129400
-0.470700 82.335100
-0.457400 88.376000
-0.444000 78.901900
-0.430700 88.610900
-0.417400 65.333400
-0.404100 69.226300
-0.390800 66.604600
-0.377400 73.198800
-0.364100 64.472000
-0.350800 100.836800
-0.337500 56.292500
-0.324200 74.551700
-0.310800 66.760900
-0.297500 60.955900
-0.284200 65.704300
-0.270900 78.923800
-0.257500 86.471600
-0.244200 84.975300
-0.230900 47.202400
-0.217600 39.567800
-0.204300 48.137000
-0.190900 55.712500
-0.177600 35.320400
-0.164300 27.135900
-0.151000 46.268900
-0.137700 41.406700
-0.124300 54.485300
-0.111000 33.380400
-0.097700 38.910000
-0.084400 58.739200
-0.071100 24.005000
-0.057700 32.112900
-0.044400 48.978000
-0.031100 44.015500
-0.017800 33.422000
-0.004500 30.885100
0.008900 38.725400
0.022200 45.994000
0.035500 40.244700
0.048800 50.561300
0.062100 35.611400
0.075500 42.289600
0.088800 82.490200
0.102100 33.890800
0.115400 67.241600
0.128700 58.746100
0.142100 35.263300
0.155400 38.818300
0.168700 93.908600
0.182000 65.709700
0.195300 53.838100
0.208700 49.791800
0.222000 55.335000
0.235300 54.195000
0.248600 44.243300
0.261900 48.175100
0.275300 76.496300
0.288600 88.813200
0.301900 43.172500
0.315200 33.289500
0.328600 41.789500
0.341900 37.474900
0.355200 40.267900
0.368500 45.193800
0.381800 29.360500
0.395200 53.713400
0.408500 37.729400
0.421800 42.090000
0.435100 36.376800
0.448400 36.632600
0.461800 23.144300
0.475100 24.880800
0.488400 29.882500
0.501700 31.678600
0.515000 30.011900
0.528400 16.760400
0.541700 14.237600
0.555000 11.135100
0.568300 13.897000
0.581600 11.678400
0.595000 10.383800
0.608300 17.964700
0.621600 14.117000
0.634900 14.835100
0.648200 18.066400
0.661600 18.040600
0.674900 21.846000
0.688200 18.481200
0.701500 16.020200
0.714800 16.182500
0.728200 16.769400
0.741500 17.185000
0.754800 17.605800
0.768100 20.308300
0.781400 20.836700
0.794800 19.731100
0.808100 21.601400
0.821400 19.813600
0.834700 19.348100
0.848000 21.275600
0.861400 24.204000
0.874700 15.130400
0.888000 15.266100
0.901300 14.223700
0.914700 13.510300
0.928000 13.042100
0.941300 12.457500
0.954600 12.113600
0.967900 11.661300
0.981300 11.234000
0.994600 11.099000
1.007900 10.953400
1.021200 10.715400
1.034500 10.873700
1.047900 11.434900
1.061200 12.068500
1.074500 12.669800
1.087800 23.775600
1.101100 12.218000
1.114500 11.091000
1.127800 10.411300
1.141100 10.730500
1.154400 11.062500
1.167700 11.065400
1.181100 10.179400
1.194400 9.733500
1.207700 9.624700
1.221000 9.508900
1.234300 9.566100
1.247700 12.097200
1.261000 12.376600
1.274300 12.743500
1.287600 12.492600
1.300900 10.206300
1.314300 9.618400
1.327600 9.436100
1.340900 9.307900
1.354200 9.666400
1.367500 10.150100
1.380900 10.922400
1.394200 11.488000
1.407500 11.167900
1.420800 11.368700
1.434100 11.726500
1.447500 11.645900
1.460800 12.454500
1.474100 12.234500
1.487400 12.323600
1.500800 12.357400
1.514100 12.310700
1.527400 12.750300
1.540700 12.576400
1.554000 12.406100
1.567400 12.063000
1.580700 11.876000
1.594000 11.771100
1.607300 11.799100
1.620600 11.813500
1.634000 13.135200
1.647300 13.324500
1.660600 11.870500
1.673900 12.087300
1.687200 12.455500
1.700600 12.824100
1.713900 13.206900
1.727200 13.224100
1.740500 13.305500
1.753800 13.219000
1.767200 12.425100
1.780500 12.014700
1.793800 12.215300
1.807100 12.956000
1.820400 13.296700
1.833800 12.996800
1.847100 12.778300
1.860400 12.803800
1.873700 12.878000
1.887000 12.547400
1.900400 12.063300
1.913700 11.789800
1.927000 11.590600
1.940300 11.359100
1.953600 11.182700
1.967000 13.075700
1.980300 13.060600
1.993600 13.213700
2.006900 13.466200
2.020200 12.709900
2.033600 12.372800
2.046900 12.556600
2.060200 12.194700
2.073500 11.999500
2.086900 11.518100
2.100200 11.415100
2.113500 11.312100
2.126800 11.224800
2.140100 11.157500
2.153500 13.452400
2.166800 11.510400
2.180100 11.154000
2.193400 13.106700
2.206700 13.932900
2.220100 13.668200
2.233400 14.125900
2.246700 13.612400
2.260000 13.177800
2.273300 12.619600
2.286700 11.618600
2.300000 11.542400
2.313300 12.294200
2.326600 12.688300
2.339900 12.585000
2.353300 13.088600
2.366600 13.803700
2.379900 13.811700
2.393200 13.455500
2.406500 12.958400
2.419900 12.655300
2.433200 12.296700
2.446500 12.210900
2.459800 12.063200
2.473100 12.217900
2.486500 12.387600
2.499800 12.041900
2.513100 12.184500
2.526400 12.235100
2.539700 12.124900
2.553100 12.142300
2.566400 12.979700
2.579700 12.662200
2.593000 12.536300
2.606300 12.619300
2.619700 12.698300
2.633000 12.718100
2.646300 12.771900
2.659600 12.617100
2.673000 12.349100
2.686300 11.965900
2.699600 12.319200
2.712900 12.183800
2.726200 12.028400
2.739600 11.885600
2.752900 11.743200
2.766200 12.443200
2.779500 12.361600
2.792800 12.298400
2.806200 12.288400
2.819500 12.039700
2.832800 11.739500
2.846100 11.554800
2.859400 11.449100
2.872800 11.334800
2.886100 11.170000
2.899400 11.200600
2.912700 10.984300
2.926000 10.740700
2.939400 10.519900
2.952700 10.282000
2.966000 10.118900
2.979300 9.991800
2.992600 9.647500
3.006000 9.356600
3.019300 8.973000
3.032600 8.668300
3.045900 8.535400
3.059200 8.804500
3.072600 9.264000
3.085900 9.245300
3.099200 8.908100
3.112500 8.586200
3.125800 7.860500
3.139200 7.667600
3.152500 7.569000
3.165800 7.349700
3.179100 7.257500
3.192400 7.146000
3.205800 7.129100
3.219100 7.086500
3.232400 6.922200
3.245700 6.439000
3.259100 6.098100
3.272400 6.174800
3.285700 6.484400
3.299000 7.555400
3.312300 7.565700
3.325700 7.629700
3.339000 6.305600
3.352300 6.362200
3.365600 6.408900
3.378900 6.247100
3.392300 5.541600
3.405600 5.903300
3.418900 6.595400
3.432200 5.910000
3.445500 5.202500
3.458900 4.634200
3.472200 4.547900
3.485500 4.458800
3.498800 4.428300
3.512100 5.604300
3.525500 6.149000
3.538800 6.669100
3.552100 4.830500
3.565400 4.317900
3.578700 4.361600
3.592100 4.093100
3.605400 3.913000
3.618700 3.919800
3.632000 4.030500
3.645300 3.944900
3.658700 3.893700
3.672000 3.815700
3.685300 3.897000
3.698600 3.951800
3.711900 3.833100
3.725300 4.142300
3.738600 4.249800
3.751900 4.457900
3.765200 4.753900
3.778500 5.049800
3.791900 4.647000
3.805200 4.699600
3.818500 4.736800
3.831800 4.774000
