set title 'mp-22375 - Density of States'
set xlabel 'Energy (eV)'
set ylabel 'DOS (states/eV)'
set grid
set xrange [-10:10]
set yrange [0:459.828]
set xzeroaxis lt -1
set terminal png size 800,600
set output 'mp-22375_dos_gnuplot.png'
plot '-' using 1:2 with lines title 'DOS'
-10.777300 0.000000
-10.764300 0.000000
-10.751400 0.000000
-10.738400 0.000000
-10.725500 0.000000
-10.712500 0.000000
-10.699600 0.000000
-10.686600 0.000000
-10.673700 0.000000
-10.660800 0.000000
-10.647800 0.000000
-10.634900 0.000000
-10.621900 0.000000
-10.609000 0.000000
-10.596000 0.000000
-10.583100 0.000000
-10.570100 0.000000
-10.557200 0.000000
-10.544200 0.000000
-10.531300 0.000000
-10.518400 0.000000
-10.505400 0.000000
-10.492500 0.000000
-10.479500 0.000000
-10.466600 0.000000
-10.453600 0.000000
-10.440700 0.000000
-10.427700 0.000000
-10.414800 0.000000
-10.401800 0.000000
-10.388900 0.000000
-10.375900 0.000000
-10.363000 0.000000
-10.350100 0.000000
-10.337100 0.000000
-10.324200 0.000000
-10.311200 0.000000
-10.298300 0.000000
-10.285300 0.000000
-10.272400 0.000000
-10.259400 0.000000
-10.246500 0.000000
-10.233500 0.000000
-10.220600 0.000000
-10.207600 0.000000
-10.194700 0.000000
-10.181800 0.000000
-10.168800 0.000000
-10.155900 0.000000
-10.142900 0.000000
-10.130000 0.000000
-10.117000 0.000000
-10.104100 0.000000
-10.091100 0.000000
-10.078200 0.000000
-10.065200 0.000000
-10.052300 0.000000
-10.039300 0.000000
-10.026400 0.000000
-10.013500 0.000000
-10.000500 0.000000
-9.987600 0.000000
-9.974600 0.000000
-9.961700 0.000000
-9.948700 0.000000
-9.935800 0.000000
-9.922800 0.000000
-9.909900 0.000000
-9.896900 0.000000
-9.884000 0.000000
-9.871100 0.000000
-9.858100 0.000000
-9.845200 0.000000
-9.832200 0.000000
-9.819300 0.000000
-9.806300 0.000000
-9.793400 0.000000
-9.780400 0.000000
-9.767500 0.000000
-9.754500 0.000000
-9.741600 0.000000
-9.728600 0.000000
-9.715700 0.000000
-9.702800 0.000000
-9.689800 0.000000
-9.676900 0.000000
-9.663900 0.000000
-9.651000 0.000000
-9.638000 0.000000
-9.625100 0.000000
-9.612100 0.000000
-9.599200 0.058500
-9.586200 9.341100
-9.573300 15.507500
-9.560300 23.326300
-9.547400 44.032800
-9.534500 32.311600
-9.521500 28.945000
-9.508600 31.420800
-9.495600 38.135700
-9.482700 35.732600
-9.469700 35.923800
-9.456800 11.716000
-9.443800 14.705900
-9.430900 39.953700
-9.417900 36.696300
-9.405000 28.533100
-9.392000 24.961300
-9.379100 20.407400
-9.366200 20.258900
-9.353200 27.896100
-9.340300 31.387800
-9.327300 41.441900
-9.314400 17.193400
-9.301400 11.775900
-9.288500 22.749300
-9.275500 45.291700
-9.262600 36.836700
-9.249600 28.095600
-9.236700 35.417100
-9.223800 32.697800
-9.210800 123.901400
-9.197900 39.753200
-9.184900 134.985600
-9.172000 44.321100
-9.159000 13.537300
-9.146100 418.025800
-9.133100 0.000000
-9.120200 0.000000
-9.107200 243.633500
-9.094300 290.075400
-9.081300 221.755100
-9.068400 118.322400
-9.055500 402.054000
-9.042500 0.000000
-9.029600 0.000000
-9.016600 0.000000
-9.003700 0.000000
-8.990700 0.000000
-8.977800 0.000000
-8.964800 0.000000
-8.951900 0.000000
-8.938900 0.000000
-8.926000 0.000000
-8.913000 0.000000
-8.900100 0.000000
-8.887200 0.000000
-8.874200 0.000000
-8.861300 0.000000
-8.848300 0.000000
-8.835400 0.000000
-8.822400 0.000000
-8.809500 0.000000
-8.796500 0.000000
-8.783600 0.000000
-8.770600 0.000000
-8.757700 0.000000
-8.744800 0.000000
-8.731800 0.000000
-8.718900 0.000000
-8.705900 0.000000
-8.693000 0.000000
-8.680000 0.000000
-8.667100 0.000000
-8.654100 0.000000
-8.641200 0.000000
-8.628200 0.000000
-8.615300 0.000000
-8.602300 0.000000
-8.589400 0.000000
-8.576500 0.000000
-8.563500 0.000000
-8.550600 0.000000
-8.537600 0.000000
-8.524700 0.000000
-8.511700 0.000000
-8.498800 0.000000
-8.485800 0.000000
-8.472900 0.000000
-8.459900 0.000000
-8.447000 0.000000
-8.434000 0.000000
-8.421100 0.000000
-8.408200 0.000000
-8.395200 0.000000
-8.382300 0.000000
-8.369300 0.000000
-8.356400 0.049200
-8.343400 0.243300
-8.330500 0.538500
-8.317500 0.500300
-8.304600 0.581200
-8.291600 0.667300
-8.278700 0.758900
-8.265700 0.848700
-8.252800 0.911000
-8.239900 0.940900
-8.226900 0.974000
-8.214000 1.025200
-8.201000 1.079700
-8.188100 1.135100
-8.175100 1.191500
-8.162200 1.248900
-8.149200 1.303100
-8.136300 1.338200
-8.123300 1.379200
-8.110400 1.415300
-8.097500 1.452900
-8.084500 1.490700
-8.071600 1.529800
-8.058600 1.571300
-8.045700 1.614400
-8.032700 1.659000
-8.019800 1.704600
-8.006800 1.750400
-7.993900 1.793900
-7.980900 1.831800
-7.968000 1.867800
-7.955000 1.905600
-7.942100 1.943400
-7.929200 1.980300
-7.916200 2.018500
-7.903300 2.057400
-7.890300 2.096800
-7.877400 2.137200
-7.864400 2.178700
-7.851500 2.223000
-7.838500 2.270500
-7.825600 2.326800
-7.812600 2.387200
-7.799700 2.443200
-7.786700 2.492100
-7.773800 2.538600
-7.760900 2.582200
-7.747900 2.632900
-7.735000 2.760400
-7.722000 2.805400
-7.709100 2.818300
-7.696100 2.865600
-7.683200 2.934900
-7.670200 3.018700
-7.657300 3.139500
-7.644300 3.206300
-7.631400 3.175400
-7.618500 3.189600
-7.605500 3.207300
-7.592600 3.275600
-7.579600 3.346300
-7.566700 3.308800
-7.553700 3.318700
-7.540800 3.379400
-7.527800 3.437700
-7.514900 3.488700
-7.501900 3.668100
-7.489000 3.904600
-7.476000 4.394100
-7.463100 4.472700
-7.450200 4.498000
-7.437200 4.397000
-7.424300 4.247900
-7.411300 3.769500
-7.398400 3.399800
-7.385400 3.184700
-7.372500 3.337200
-7.359500 3.566200
-7.346600 3.652300
-7.333600 4.173900
-7.320700 4.504400
-7.307700 4.675300
-7.294800 4.676100
-7.281900 4.637900
-7.268900 4.465900
-7.256000 4.324800
-7.243000 4.168200
-7.230100 4.020500
-7.217100 3.895400
-7.204200 3.878800
-7.191200 3.847400
-7.178300 3.833400
-7.165300 3.789500
-7.152400 3.711600
-7.139400 3.652500
-7.126500 3.603300
-7.113600 4.360800
-7.100600 3.882800
-7.087700 3.643800
-7.074700 3.647800
-7.061800 4.008400
-7.048800 4.699600
-7.035900 5.159000
-7.022900 5.755200
-7.010000 5.905700
-6.997000 5.809600
-6.984100 5.802000
-6.971200 5.756500
-6.958200 5.829000
-6.945300 5.962700
-6.932300 6.087100
-6.919400 6.551600
-6.906400 7.173000
-6.893500 8.356500
-6.880500 9.042600
-6.867600 9.097100
-6.854600 9.191100
-6.841700 9.301200
-6.828700 8.585700
-6.815800 7.490500
-6.802900 7.568600
-6.789900 7.499700
-6.777000 7.559200
-6.764000 7.590200
-6.751100 7.662900
-6.738100 7.753600
-6.725200 7.655100
-6.712200 7.613800
-6.699300 7.607300
-6.686300 7.614200
-6.673400 7.633100
-6.660400 7.422200
-6.647500 7.246000
-6.634600 6.757800
-6.621600 6.232700
-6.608700 5.627500
-6.595700 5.425900
-6.582800 6.174900
-6.569800 6.988200
-6.556900 6.422200
-6.543900 6.885700
-6.531000 6.828800
-6.518000 6.926000
-6.505100 6.938900
-6.492200 6.514600
-6.479200 6.361500
-6.466300 7.591100
-6.453300 8.093600
-6.440400 8.633100
-6.427400 7.580000
-6.414500 7.503700
-6.401500 7.058200
-6.388600 6.134900
-6.375600 6.114800
-6.362700 6.499400
-6.349700 6.807700
-6.336800 7.009400
-6.323900 7.409300
-6.310900 8.139100
-6.298000 9.042100
-6.285000 10.006400
-6.272100 8.523700
-6.259100 7.476400
-6.246200 6.807500
-6.233200 6.700600
-6.220300 7.018100
-6.207300 7.346500
-6.194400 7.654700
-6.181400 8.094700
-6.168500 8.502700
-6.155600 8.271200
-6.142600 7.968100
-6.129700 7.345100
-6.116700 7.002900
-6.103800 6.707600
-6.090800 7.079200
-6.077900 7.529300
-6.064900 9.977100
-6.052000 10.315800
-6.039000 9.898200
-6.026100 9.555100
-6.013100 9.589500
-6.000200 10.004600
-5.987300 10.842500
-5.974300 12.434000
-5.961400 14.241300
-5.948400 9.396800
-5.935500 1.936600
-5.922500 0.000000
-5.909600 0.000000
-5.896600 0.000000
-5.883700 0.000000
-5.870700 0.000000
-5.857800 0.000000
-5.844900 0.000000
-5.831900 0.000000
-5.819000 0.000000
-5.806000 0.000000
-5.793100 0.000000
-5.780100 0.000000
-5.767200 0.000000
-5.754200 0.000000
-5.741300 0.000000
-5.728300 0.000000
-5.715400 0.000000
-5.702400 0.000000
-5.689500 0.000000
-5.676600 0.000000
-5.663600 0.000000
-5.650700 0.000000
-5.637700 0.000000
-5.624800 0.000000
-5.611800 0.000000
-5.598900 0.000000
-5.585900 0.000000
-5.573000 0.000000
-5.560000 0.000000
-5.547100 0.000000
-5.534100 0.000000
-5.521200 0.000000
-5.508300 0.000000
-5.495300 0.000000
-5.482400 0.000000
-5.469400 0.000000
-5.456500 0.000000
-5.443500 0.000000
-5.430600 0.000000
-5.417600 0.000000
-5.404700 0.000000
-5.391700 0.000000
-5.378800 0.000000
-5.365800 0.000000
-5.352900 0.000000
-5.340000 0.000000
-5.327000 0.000000
-5.314100 0.000000
-5.301100 0.000000
-5.288200 0.000000
-5.275200 0.000000
-5.262300 0.000000
-5.249300 0.000000
-5.236400 0.000000
-5.223400 0.000000
-5.210500 0.000000
-5.197600 0.000000
-5.184600 0.000000
-5.171700 0.000000
-5.158700 0.000000
-5.145800 0.000000
-5.132800 0.000000
-5.119900 0.000000
-5.106900 0.000000
-5.094000 0.000000
-5.081000 0.000000
-5.068100 0.000000
-5.055100 0.000000
-5.042200 0.000000
-5.029300 0.000000
-5.016300 0.000000
-5.003400 0.000000
-4.990400 0.000000
-4.977500 0.000000
-4.964500 0.000000
-4.951600 0.000000
-4.938600 0.000000
-4.925700 0.000000
-4.912700 0.000000
-4.899800 0.000000
-4.886800 0.000000
-4.873900 0.000000
-4.861000 0.000000
-4.848000 0.000000
-4.835100 0.000000
-4.822100 0.000000
-4.809200 0.000000
-4.796200 0.000000
-4.783300 0.000000
-4.770300 0.000000
-4.757400 0.000000
-4.744400 0.000000
-4.731500 0.000000
-4.718600 0.000000
-4.705600 0.000000
-4.692700 0.000000
-4.679700 0.000000
-4.666800 0.000000
-4.653800 0.000000
-4.640900 0.000000
-4.627900 0.000000
-4.615000 0.000000
-4.602000 0.000000
-4.589100 0.000000
-4.576100 0.000000
-4.563200 0.000000
-4.550300 0.000000
-4.537300 0.000000
-4.524400 0.000000
-4.511400 0.000000
-4.498500 0.000000
-4.485500 0.000000
-4.472600 0.000000
-4.459600 0.000000
-4.446700 0.000000
-4.433700 0.000000
-4.420800 0.000000
-4.407800 0.000000
-4.394900 0.000000
-4.382000 0.000000
-4.369000 0.000000
-4.356100 0.000000
-4.343100 0.000000
-4.330200 0.000000
-4.317200 0.000000
-4.304300 0.000000
-4.291300 0.000000
-4.278400 0.000000
-4.265400 0.000000
-4.252500 0.000000
-4.239500 0.000000
-4.226600 0.000000
-4.213700 0.000000
-4.200700 0.000000
-4.187800 0.000000
-4.174800 0.000000
-4.161900 0.000000
-4.148900 0.000000
-4.136000 0.000000
-4.123000 0.000000
-4.110100 0.000000
-4.097100 0.000000
-4.084200 0.000000
-4.071300 0.000000
-4.058300 0.000000
-4.045400 0.000000
-4.032400 0.000000
-4.019500 0.000000
-4.006500 0.000000
-3.993600 0.000000
-3.980600 0.000000
-3.967700 0.000000
-3.954700 0.000000
-3.941800 0.000000
-3.928800 0.000000
-3.915900 0.000000
-3.903000 0.000000
-3.890000 0.000000
-3.877100 0.000000
-3.864100 0.000000
-3.851200 0.000000
-3.838200 0.000000
-3.825300 0.000000
-3.812300 0.000000
-3.799400 0.000000
-3.786400 0.000000
-3.773500 0.000000
-3.760500 0.000000
-3.747600 0.000000
-3.734700 0.000000
-3.721700 0.000000
-3.708800 0.000000
-3.695800 0.000000
-3.682900 0.000000
-3.669900 0.000000
-3.657000 0.000000
-3.644000 0.000000
-3.631100 0.000000
-3.618100 0.000000
-3.605200 0.000000
-3.592300 0.000000
-3.579300 0.000000
-3.566400 0.000000
-3.553400 0.000000
-3.540500 0.000000
-3.527500 0.000000
-3.514600 0.000000
-3.501600 0.000000
-3.488700 0.000000
-3.475700 0.000000
-3.462800 0.000000
-3.449800 0.000000
-3.436900 0.000000
-3.424000 0.000000
-3.411000 0.000000
-3.398100 0.000000
-3.385100 0.000000
-3.372200 0.000000
-3.359200 0.000000
-3.346300 0.000000
-3.333300 0.000000
-3.320400 0.000000
-3.307400 0.000000
-3.294500 0.000000
-3.281500 0.000000
-3.268600 0.000000
-3.255700 0.000000
-3.242700 0.000000
-3.229800 0.000000
-3.216800 0.000000
-3.203900 0.000000
-3.190900 0.000000
-3.178000 0.000000
-3.165000 0.000000
-3.152100 0.000000
-3.139100 0.000000
-3.126200 0.000000
-3.113200 0.000000
-3.100300 0.000000
-3.087400 0.000000
-3.074400 0.000000
-3.061500 0.000000
-3.048500 0.000000
-3.035600 0.000000
-3.022600 0.000000
-3.009700 0.000000
-2.996700 0.000000
-2.983800 0.000000
-2.970800 0.000000
-2.957900 0.000000
-2.945000 0.000000
-2.932000 0.000000
-2.919100 0.000000
-2.906100 0.000000
-2.893200 0.000000
-2.880200 0.000000
-2.867300 0.000000
-2.854300 0.000000
-2.841400 0.000000
-2.828400 0.000000
-2.815500 0.000000
-2.802500 0.000000
-2.789600 0.000000
-2.776700 0.000000
-2.763700 0.000000
-2.750800 0.000000
-2.737800 0.000000
-2.724900 0.000000
-2.711900 0.000000
-2.699000 0.000000
-2.686000 0.000000
-2.673100 0.000000
-2.660100 0.000000
-2.647200 0.000000
-2.634200 0.000000
-2.621300 0.000000
-2.608400 0.000000
-2.595400 0.000000
-2.582500 0.000000
-2.569500 0.000000
-2.556600 0.000000
-2.543600 0.000000
-2.530700 0.000000
-2.517700 0.000000
-2.504800 0.000000
-2.491800 0.000000
-2.478900 0.000000
-2.466000 0.000000
-2.453000 0.000000
-2.440100 0.000000
-2.427100 0.000000
-2.414200 0.000000
-2.401200 0.000000
-2.388300 0.000000
-2.375300 0.000000
-2.362400 0.000000
-2.349400 0.000000
-2.336500 0.000000
-2.323500 0.000000
-2.310600 0.000000
-2.297700 0.000000
-2.284700 0.000000
-2.271800 0.000000
-2.258800 0.000000
-2.245900 0.000000
-2.232900 0.000000
-2.220000 0.000000
-2.207000 0.000000
-2.194100 0.000000
-2.181100 0.000000
-2.168200 0.000000
-2.155200 0.000000
-2.142300 0.000000
-2.129400 0.000000
-2.116400 0.000000
-2.103500 0.000000
-2.090500 0.000000
-2.077600 0.000000
-2.064600 0.000000
-2.051700 0.000000
-2.038700 0.000000
-2.025800 0.000000
-2.012800 0.000000
-1.999900 0.000000
-1.986900 0.000000
-1.974000 0.000000
-1.961100 0.000000
-1.948100 0.000000
-1.935200 0.000000
-1.922200 0.000000
-1.909300 0.000000
-1.896300 0.000000
-1.883400 0.000000
-1.870400 0.000000
-1.857500 0.000000
-1.844500 0.000000
-1.831600 0.000000
-1.818700 0.000000
-1.805700 0.000000
-1.792800 0.000000
-1.779800 0.000000
-1.766900 0.000000
-1.753900 0.000000
-1.741000 0.000000
-1.728000 0.000000
-1.715100 0.000000
-1.702100 0.000000
-1.689200 0.000600
-1.676200 0.025000
-1.663300 0.085100
-1.650400 0.180900
-1.637400 0.287000
-1.624500 0.339600
-1.611500 0.360700
-1.598600 0.382300
-1.585600 0.417600
-1.572700 0.454000
-1.559700 0.492300
-1.546800 0.532700
-1.533800 0.575300
-1.520900 0.620500
-1.507900 0.669100
-1.495000 0.696700
-1.482100 0.734600
-1.469100 0.764400
-1.456200 0.798000
-1.443200 0.831700
-1.430300 0.866100
-1.417300 0.899900
-1.404400 0.940900
-1.391400 0.987100
-1.378500 1.036600
-1.365500 1.088800
-1.352600 1.143700
-1.339600 1.201000
-1.326700 1.260400
-1.313800 1.369900
-1.300800 1.569700
-1.287900 1.848700
-1.274900 1.901300
-1.262000 1.999200
-1.249000 2.112800
-1.236100 2.233300
-1.223100 2.359300
-1.210200 2.477100
-1.197200 2.581200
-1.184300 2.674400
-1.171400 2.774300
-1.158400 2.880800
-1.145500 2.988400
-1.132500 3.097400
-1.119600 3.210300
-1.106600 3.332900
-1.093700 3.457900
-1.080700 3.679000
-1.067800 3.818800
-1.054800 3.932100
-1.041900 4.049000
-1.028900 4.174600
-1.016000 4.300300
-1.003100 4.421400
-0.990100 4.532600
-0.977200 4.650300
-0.964200 4.891200
-0.951300 5.208700
-0.938300 5.379400
-0.925400 5.619200
-0.912400 6.087300
-0.899500 6.477600
-0.886500 6.734800
-0.873600 6.844500
-0.860600 6.557500
-0.847700 6.553900
-0.834800 6.558100
-0.821800 5.937600
-0.808900 5.590300
-0.795900 5.461100
-0.783000 5.398300
-0.770000 5.370700
-0.757100 5.449900
-0.744100 5.584100
-0.731200 5.595700
-0.718200 5.622100
-0.705300 5.612300
-0.692400 5.868900
-0.679400 6.008600
-0.666500 5.079500
-0.653500 4.617100
-0.640600 4.394200
-0.627600 4.300700
-0.614700 4.360100
-0.601700 4.280900
-0.588800 4.289500
-0.575800 4.398300
-0.562900 4.536800
-0.549900 4.706400
-0.537000 4.939900
-0.524100 5.242900
-0.511100 5.699400
-0.498200 6.274400
-0.485200 6.819600
-0.472300 6.905500
-0.459300 6.793100
-0.446400 6.621700
-0.433400 6.366100
-0.420500 5.746700
-0.407500 5.304300
-0.394600 5.077400
-0.381600 4.931900
-0.368700 4.878400
-0.355800 4.865300
-0.342800 4.949000
-0.329900 4.942600
-0.316900 5.012500
-0.304000 5.101100
-0.291000 5.160700
-0.278100 5.140900
-0.265100 4.989100
-0.252200 4.492100
-0.239200 4.031500
-0.226300 3.635400
-0.213300 3.258400
-0.200400 2.947900
-0.187500 2.741500
-0.174500 2.606200
-0.161600 2.528400
-0.148600 2.470700
-0.135700 2.430900
-0.122700 2.457100
-0.109800 2.452900
-0.096800 2.339500
-0.083900 2.189800
-0.070900 2.119500
-0.058000 2.054700
-0.045100 2.047200
-0.032100 2.173600
-0.019200 2.276000
-0.006200 2.360300
0.006700 2.503000
0.019700 2.647800
0.032600 2.741300
0.045600 2.821000
0.058500 2.961100
0.071500 3.058500
0.084400 3.145700
0.097400 3.138300
0.110300 2.971000
0.123200 2.741900
0.136200 2.543300
0.149100 2.479100
0.162100 2.267200
0.175000 2.170100
0.188000 2.126800
0.200900 2.011400
0.213900 1.914800
0.226800 1.837700
0.239800 1.783000
0.252700 1.761700
0.265700 1.693600
0.278600 1.645400
0.291500 1.651900
0.304500 1.708500
0.317400 1.671100
0.330400 1.596000
0.343300 1.593200
0.356300 1.597200
0.369200 1.600600
0.382200 1.602300
0.395100 1.602500
0.408100 1.602300
0.421000 1.613300
0.433900 1.643400
0.446900 1.691000
0.459800 1.723600
0.472800 1.725500
0.485700 1.701600
0.498700 1.679500
0.511600 1.649600
0.524600 1.634800
0.537500 1.638300
0.550500 1.665600
0.563400 1.700400
0.576400 1.733600
0.589300 1.754400
0.602200 1.756700
0.615200 1.782900
0.628100 1.815700
0.641100 1.850700
0.654000 1.889600
0.667000 1.936600
0.679900 1.993900
0.692900 2.062400
0.705800 2.136400
0.718800 2.202000
0.731700 2.273000
0.744700 2.357700
0.757600 2.495600
0.770500 2.705600
0.783500 3.008700
0.796400 3.333900
0.809400 3.756400
0.822300 4.186600
0.835300 4.336700
0.848200 4.057900
0.861200 3.779900
0.874100 3.652400
0.887100 3.627200
0.900000 3.447400
0.913000 3.184600
0.925900 3.026000
0.938800 2.859800
0.951800 2.534600
0.964700 2.301200
0.977700 1.943200
0.990600 1.751200
1.003600 1.597800
1.016500 1.514700
1.029500 1.587400
1.042400 1.907700
1.055400 2.366600
1.068300 2.706200
1.081200 3.357200
1.094200 3.906500
1.107100 3.789500
1.120100 4.241600
1.133000 4.621800
1.146000 5.006000
1.158900 5.859900
1.171900 6.323400
1.184800 6.003100
1.197800 5.835000
1.210700 5.756300
1.223700 5.750900
1.236600 5.877800
1.249500 6.285800
1.262500 6.850400
1.275400 7.524800
1.288400 7.962600
1.301300 7.168700
1.314300 5.922400
1.327200 4.602200
1.340200 3.898200
1.353100 3.992800
1.366100 4.225500
1.379000 4.451500
1.392000 4.649400
1.404900 4.880300
1.417800 5.063000
1.430800 5.220100
1.443700 5.567400
1.456700 6.353600
1.469600 7.665700
1.482600 9.162600
1.495500 8.839900
1.508500 9.084400
1.521400 8.304200
1.534400 7.692800
1.547300 7.048100
1.560200 6.440000
1.573200 6.390900
1.586100 6.754300
1.599100 7.069500
1.612000 7.796300
1.625000 7.548700
1.637900 7.436800
1.650900 7.159100
1.663800 6.923200
1.676800 6.604800
1.689700 6.510100
1.702700 6.588400
1.715600 7.121700
1.728500 7.553400
1.741500 8.273900
1.754400 8.041000
1.767400 8.868200
1.780300 8.848800
1.793300 8.785300
1.806200 8.597400
1.819200 8.569100
1.832100 8.848200
1.845100 7.776800
1.858000 6.972300
1.871000 6.761200
1.883900 6.431500
1.896800 6.449000
1.909800 6.914000
1.922700 7.429600
1.935700 7.872900
1.948600 8.054900
1.961600 8.348200
1.974500 8.234000
1.987500 8.325000
2.000400 8.229200
2.013400 7.895800
2.026300 7.294000
2.039300 6.833500
2.052200 6.791700
2.065100 6.571600
2.078100 5.902500
2.091000 5.580100
2.104000 5.573300
2.116900 5.787500
2.129900 5.729700
2.142800 5.590200
2.155800 5.547200
2.168700 5.388600
2.181700 5.361900
2.194600 5.549200
2.207500 5.835000
2.220500 6.396200
2.233400 6.357500
2.246400 6.780400
2.259300 6.420700
2.272300 5.684500
2.285200 5.324200
2.298200 5.375200
2.311100 5.403200
2.324100 5.364700
2.337000 5.337700
2.350000 5.438000
2.362900 5.630200
2.375800 5.866700
2.388800 6.335300
2.401700 6.874400
2.414700 7.500500
2.427600 7.279000
2.440600 7.342900
2.453500 7.270700
2.466500 7.279900
2.479400 7.346800
2.492400 7.422700
2.505300 7.415500
2.518300 7.478900
2.531200 7.647400
2.544100 7.874300
2.557100 8.078700
2.570000 8.149100
2.583000 8.405600
2.595900 8.645400
2.608900 8.123100
2.621800 7.580000
2.634800 6.986200
2.647700 6.396000
2.660700 6.104400
2.673600 6.225800
2.686600 6.718400
2.699500 6.880300
2.712400 6.531100
