set title 'mp-567597 - Density of States'
set xlabel 'Energy (eV)'
set ylabel 'DOS (states/eV)'
set grid
set xrange [-10:10]
set yrange [0:1.059]
set xzeroaxis lt -1
set terminal png size 800,600
set output 'mp-567597_dos_gnuplot.png'
plot '-' using 1:2 with lines title 'DOS'
-9.533400 0.000000
-9.513600 0.000000
-9.493800 0.000000
-9.474000 0.000000
-9.454200 0.000000
-9.434400 0.000000
-9.414600 0.000000
-9.394800 0.000000
-9.375000 0.000000
-9.355200 0.000000
-9.335500 0.000000
-9.315700 0.000000
-9.295900 0.000000
-9.276100 0.000000
-9.256300 0.000000
-9.236500 0.000000
-9.216700 0.000000
-9.196900 0.000000
-9.177100 0.000000
-9.157300 0.000000
-9.137500 0.000000
-9.117800 0.000000
-9.098000 0.000000
-9.078200 0.000000
-9.058400 0.000000
-9.038600 0.000000
-9.018800 0.000000
-8.999000 0.000000
-8.979200 0.000000
-8.959400 0.000000
-8.939600 0.000000
-8.919800 0.000000
-8.900100 0.000000
-8.880300 0.000000
-8.860500 0.000000
-8.840700 0.000000
-8.820900 0.000000
-8.801100 0.000000
-8.781300 0.000000
-8.761500 0.000000
-8.741700 0.000000
-8.721900 0.000000
-8.702100 0.000000
-8.682400 0.000000
-8.662600 0.000000
-8.642800 0.000000
-8.623000 0.000000
-8.603200 0.000000
-8.583400 0.000000
-8.563600 0.000000
-8.543800 0.000000
-8.524000 0.000000
-8.504200 0.000000
-8.484400 0.000000
-8.464700 0.000000
-8.444900 0.000000
-8.425100 0.000000
-8.405300 0.000000
-8.385500 0.000000
-8.365700 0.000000
-8.345900 0.000000
-8.326100 0.000000
-8.306300 0.000000
-8.286500 0.000000
-8.266700 0.000000
-8.247000 0.000000
-8.227200 0.000000
-8.207400 0.000000
-8.187600 0.000000
-8.167800 0.000000
-8.148000 0.000000
-8.128200 0.000000
-8.108400 0.000000
-8.088600 0.000000
-8.068800 0.000000
-8.049000 0.000000
-8.029300 0.000000
-8.009500 0.000000
-7.989700 0.000000
-7.969900 0.000000
-7.950100 0.000000
-7.930300 0.000000
-7.910500 0.000000
-7.890700 0.000000
-7.870900 0.000000
-7.851100 0.000000
-7.831300 0.000000
-7.811600 0.000000
-7.791800 0.000000
-7.772000 0.000000
-7.752200 0.000000
-7.732400 0.000100
-7.712600 0.014600
-7.692800 0.049700
-7.673000 0.069100
-7.653200 0.072600
-7.633400 0.082800
-7.613600 0.097400
-7.593800 0.112200
-7.574100 0.120000
-7.554300 0.122400
-7.534500 0.128300
-7.514700 0.136000
-7.494900 0.143700
-7.475100 0.151100
-7.455300 0.158700
-7.435500 0.167300
-7.415700 0.173900
-7.395900 0.177500
-7.376100 0.182000
-7.356400 0.187500
-7.336600 0.192800
-7.316800 0.198000
-7.297000 0.203000
-7.277200 0.208700
-7.257400 0.215000
-7.237600 0.221400
-7.217800 0.227900
-7.198000 0.233300
-7.178200 0.237100
-7.158400 0.241200
-7.138700 0.245800
-7.118900 0.250400
-7.099100 0.255000
-7.079300 0.259600
-7.059500 0.264500
-7.039700 0.269700
-7.019900 0.275000
-7.000100 0.280300
-6.980300 0.285700
-6.960500 0.291100
-6.940700 0.296400
-6.921000 0.300700
-6.901200 0.305000
-6.881400 0.309800
-6.861600 0.314600
-6.841800 0.319400
-6.822000 0.324200
-6.802200 0.329000
-6.782400 0.334100
-6.762600 0.339200
-6.742800 0.344400
-6.723000 0.349500
-6.703300 0.354700
-6.683500 0.360000
-6.663700 0.365300
-6.643900 0.370700
-6.624100 0.376300
-6.604300 0.381900
-6.584500 0.387600
-6.564700 0.393300
-6.544900 0.399100
-6.525100 0.404900
-6.505300 0.410800
-6.485600 0.416700
-6.465800 0.422600
-6.446000 0.428600
-6.426200 0.434600
-6.406400 0.440700
-6.386600 0.446800
-6.366800 0.453000
-6.347000 0.460300
-6.327200 0.468900
-6.307400 0.477400
-6.287600 0.485700
-6.267900 0.494100
-6.248100 0.502700
-6.228300 0.511600
-6.208500 0.520300
-6.188700 0.528800
-6.168900 0.537500
-6.149100 0.546200
-6.129300 0.555000
-6.109500 0.565500
-6.089700 0.582700
-6.069900 0.602500
-6.050200 0.620200
-6.030400 0.637800
-6.010600 0.656300
-5.990800 0.675600
-5.971000 0.716000
-5.951200 0.782300
-5.931400 0.780400
-5.911600 0.756200
-5.891800 0.761600
-5.872000 0.765400
-5.852200 0.767600
-5.832500 0.758000
-5.812700 0.745500
-5.792900 0.744500
-5.773100 0.742900
-5.753300 0.741100
-5.733500 0.738900
-5.713700 0.736300
-5.693900 0.734300
-5.674100 0.728700
-5.654300 0.720800
-5.634500 0.717400
-5.614700 0.714900
-5.595000 0.712400
-5.575200 0.709600
-5.555400 0.706600
-5.535600 0.704300
-5.515800 0.701800
-5.496000 0.699000
-5.476200 0.696000
-5.456400 0.691500
-5.436600 0.685500
-5.416800 0.681700
-5.397000 0.678600
-5.377300 0.675800
-5.357500 0.673000
-5.337700 0.670300
-5.317900 0.667800
-5.298100 0.665200
-5.278300 0.662400
-5.258500 0.659600
-5.238700 0.656700
-5.218900 0.653700
-5.199100 0.650500
-5.179300 0.646000
-5.159600 0.642200
-5.139800 0.639200
-5.120000 0.636300
-5.100200 0.633400
-5.080400 0.630400
-5.060600 0.627600
-5.040800 0.624900
-5.021000 0.622100
-5.001200 0.619300
-4.981400 0.616500
-4.961600 0.613700
-4.941900 0.610900
-4.922100 0.608200
-4.902300 0.605300
-4.882500 0.602600
-4.862700 0.599800
-4.842900 0.596900
-4.823100 0.593900
-4.803300 0.590900
-4.783500 0.587900
-4.763700 0.584800
-4.743900 0.581600
-4.724200 0.578700
-4.704400 0.575900
-4.684600 0.573200
-4.664800 0.570600
-4.645000 0.568000
-4.625200 0.565400
-4.605400 0.563100
-4.585600 0.562700
-4.565800 0.560900
-4.546000 0.557800
-4.526200 0.554500
-4.506500 0.550900
-4.486700 0.547300
-4.466900 0.544000
-4.447100 0.540700
-4.427300 0.537500
-4.407500 0.534300
-4.387700 0.531100
-4.367900 0.528100
-4.348100 0.530000
-4.328300 0.535400
-4.308500 0.532300
-4.288800 0.526300
-4.269000 0.519200
-4.249200 0.511200
-4.229400 0.502000
-4.209600 0.543000
-4.189800 0.504500
-4.170000 0.440300
-4.150200 0.424700
-4.130400 0.409700
-4.110600 0.395200
-4.090800 0.381400
-4.071100 0.362300
-4.051300 0.352600
-4.031500 0.342900
-4.011700 0.333500
-3.991900 0.324400
-3.972100 0.315500
-3.952300 0.306900
-3.932500 0.298600
-3.912700 0.287800
-3.892900 0.281400
-3.873100 0.275100
-3.853400 0.268800
-3.833600 0.262500
-3.813800 0.256000
-3.794000 0.249700
-3.774200 0.243700
-3.754400 0.237700
-3.734600 0.231900
-3.714800 0.226300
-3.695000 0.220800
-3.675200 0.214700
-3.655400 0.210100
-3.635700 0.205500
-3.615900 0.201000
-3.596100 0.196600
-3.576300 0.192100
-3.556500 0.187700
-3.536700 0.183200
-3.516900 0.178800
-3.497100 0.174600
-3.477300 0.170500
-3.457500 0.166400
-3.437700 0.162400
-3.417900 0.157900
-3.398200 0.154400
-3.378400 0.150900
-3.358600 0.147500
-3.338800 0.144100
-3.319000 0.140700
-3.299200 0.137400
-3.279400 0.134100
-3.259600 0.130800
-3.239800 0.127600
-3.220000 0.124400
-3.200200 0.121300
-3.180500 0.118200
-3.160700 0.115200
-3.140900 0.112200
-3.121100 0.109200
-3.101300 0.106200
-3.081500 0.103300
-3.061700 0.100500
-3.041900 0.097700
-3.022100 0.094900
-3.002300 0.092200
-2.982500 0.089600
-2.962800 0.086900
-2.943000 0.084600
-2.923200 0.082200
-2.903400 0.079700
-2.883600 0.077300
-2.863800 0.074800
-2.844000 0.072400
-2.824200 0.069900
-2.804400 0.068100
-2.784600 0.065200
-2.764800 0.062400
-2.745100 0.059600
-2.725300 0.057000
-2.705500 0.054500
-2.685700 0.052300
-2.665900 0.050200
-2.646100 0.047900
-2.626300 0.045700
-2.606500 0.043300
-2.586700 0.040900
-2.566900 0.038500
-2.547100 0.039400
-2.527400 0.034800
-2.507600 0.030400
-2.487800 0.026300
-2.468000 0.022400
-2.448200 0.018800
-2.428400 0.015400
-2.408600 0.012300
-2.388800 0.000000
-2.369000 0.000000
-2.349200 0.000000
-2.329400 0.000000
-2.309700 0.000000
-2.289900 0.000000
-2.270100 0.000000
-2.250300 0.000000
-2.230500 0.000000
-2.210700 0.000000
-2.190900 0.000000
-2.171100 0.000000
-2.151300 0.000000
-2.131500 0.000000
-2.111700 0.000000
-2.092000 0.000000
-2.072200 0.000000
-2.052400 0.000000
-2.032600 0.000000
-2.012800 0.000000
-1.993000 0.000000
-1.973200 0.000000
-1.953400 0.000000
-1.933600 0.000000
-1.913800 0.000000
-1.894000 0.000000
-1.874300 0.000000
-1.854500 0.000000
-1.834700 0.000000
-1.814900 0.000000
-1.795100 0.000000
-1.775300 0.000000
-1.755500 0.000000
-1.735700 0.000000
-1.715900 0.000000
-1.696100 0.000000
-1.676300 0.000000
-1.656600 0.000000
-1.636800 0.000000
-1.617000 0.000000
-1.597200 0.000000
-1.577400 0.000000
-1.557600 0.000000
-1.537800 0.000000
-1.518000 0.000000
-1.498200 0.000000
-1.478400 0.000000
-1.458600 0.000000
-1.438900 0.000000
-1.419100 0.000000
-1.399300 0.000000
-1.379500 0.000000
-1.359700 0.000000
-1.339900 0.000000
-1.320100 0.000000
-1.300300 0.000000
-1.280500 0.000000
-1.260700 0.000000
-1.240900 0.000000
-1.221100 0.000000
-1.201400 0.000000
-1.181600 0.000000
-1.161800 0.000000
-1.142000 0.000000
-1.122200 0.000000
-1.102400 0.000000
-1.082600 0.000000
-1.062800 0.000000
-1.043000 0.000000
-1.023200 0.000000
-1.003400 0.000000
-0.983700 0.000000
-0.963900 0.000000
-0.944100 0.000000
-0.924300 0.000000
-0.904500 0.000000
-0.884700 0.000000
-0.864900 0.000000
-0.845100 0.000000
-0.825300 0.000000
-0.805500 0.000000
-0.785700 0.000000
-0.766000 0.000000
-0.746200 0.000000
-0.726400 0.000000
-0.706600 0.000000
-0.686800 0.000000
-0.667000 0.000000
-0.647200 0.000000
-0.627400 0.000000
-0.607600 0.000000
-0.587800 0.000000
-0.568000 0.000000
-0.548300 0.000000
-0.528500 0.000000
-0.508700 0.000000
-0.488900 0.000000
-0.469100 0.000000
-0.449300 0.000000
-0.429500 0.000000
-0.409700 0.000000
-0.389900 0.000000
-0.370100 0.000000
-0.350300 0.000000
-0.330600 0.000000
-0.310800 0.000000
-0.291000 0.000000
-0.271200 0.000000
-0.251400 0.000000
-0.231600 0.000000
-0.211800 0.000000
-0.192000 0.000000
-0.172200 0.000000
-0.152400 0.000000
-0.132600 0.000000
-0.112900 0.000000
-0.093100 0.000000
-0.073300 0.000000
-0.053500 0.000000
-0.033700 0.000000
-0.013900 0.000000
0.005900 0.000000
0.025700 0.000000
0.045500 0.000000
0.065300 0.000000
0.085100 0.000000
0.104800 0.000000
0.124600 0.000000
0.144400 0.000000
0.164200 0.000000
0.184000 0.000000
0.203800 0.000000
0.223600 0.000000
0.243400 0.000000
0.263200 0.000000
0.283000 0.000000
0.302800 0.000000
0.322500 0.000000
0.342300 0.000000
0.362100 0.000000
0.381900 0.000000
0.401700 0.000000
0.421500 0.000000
0.441300 0.000000
0.461100 0.055900
0.480900 0.108500
0.500700 0.101000
0.520500 0.100800
0.540200 0.115900
0.560000 0.131700
0.579800 0.148200
0.599600 0.152500
0.619400 0.154600
0.639200 0.165200
0.659000 0.175900
0.678800 0.186900
0.698600 0.198000
0.718400 0.209200
0.738200 0.221500
0.758000 0.232600
0.777700 0.238900
0.797500 0.244200
0.817300 0.249200
0.837100 0.254900
0.856900 0.261300
0.876700 0.267300
0.896500 0.273300
0.916300 0.279600
0.936100 0.286300
0.955900 0.293600
0.975700 0.301000
0.995400 0.306200
1.015200 0.310400
1.035000 0.316200
1.054800 0.322100
1.074600 0.328000
1.094400 0.333900
1.114200 0.340000
1.134000 0.346600
1.153800 0.353300
1.173600 0.360100
1.193400 0.367000
1.213100 0.373900
1.232900 0.380900
1.252700 0.388000
1.272500 0.393700
1.292300 0.399500
1.312100 0.406100
1.331900 0.412700
1.351700 0.419500
1.371500 0.426300
1.391300 0.432900
1.411100 0.438900
1.430800 0.444400
1.450600 0.450400
1.470400 0.456400
1.490200 0.462400
1.510000 0.468300
1.529800 0.474200
1.549600 0.480300
1.569400 0.486700
1.589200 0.493200
1.609000 0.499700
1.628800 0.506300
1.648500 0.512900
1.668300 0.519600
1.688100 0.526300
1.707900 0.533000
1.727700 0.539900
1.747500 0.546800
1.767300 0.553800
1.787100 0.560900
1.806900 0.568100
1.826700 0.575300
1.846500 0.582900
1.866200 0.593100
1.886000 0.603000
1.905800 0.611900
1.925600 0.620900
1.945400 0.630200
1.965200 0.639600
1.985000 0.649200
2.004800 0.658500
2.024600 0.668000
2.044400 0.677600
2.064200 0.687400
2.083900 0.697300
2.103700 0.732000
2.123500 0.769400
2.143300 0.785300
2.163100 0.800300
2.182900 0.817400
2.202700 0.840900
2.222500 0.858600
2.242300 0.957000
2.262100 0.948500
2.281900 0.883300
2.301600 0.884600
2.321400 0.884900
2.341200 0.883500
2.361000 0.881600
2.380800 0.867900
2.400600 0.866400
2.420400 0.863200
2.440200 0.861200
2.460000 0.863000
2.479800 0.867200
2.499600 0.872700
2.519300 0.887100
2.539100 0.895300
2.558900 0.905500
2.578700 0.901400
2.598500 0.884800
2.618300 0.879800
2.638100 0.876800
2.657900 0.872300
2.677700 0.867100
2.697500 0.861600
2.717300 0.857400
2.737000 0.854200
2.756800 0.848400
2.776600 0.845100
2.796400 0.841600
2.816200 0.838800
2.836000 0.837200
2.855800 0.836500
2.875600 0.836400
2.895400 0.837800
2.915200 0.839700
2.935000 0.842300
2.954800 0.845200
2.974500 0.848300
2.994300 0.851400
3.014100 0.854800
3.033900 0.860300
3.053700 0.868900
3.073500 0.865000
3.093300 0.860500
3.113100 0.859400
3.132900 0.857900
3.152700 0.855700
3.172500 0.852900
3.192200 0.849000
3.212000 0.844400
3.231800 0.839600
3.251600 0.835500
3.271400 0.831300
3.291200 0.826900
3.311000 0.822800
3.330800 0.818700
3.350600 0.815200
3.370400 0.812200
3.390200 0.810000
3.409900 0.808700
3.429700 0.808000
3.449500 0.808600
3.469300 0.809500
3.489100 0.810600
3.508900 0.811900
3.528700 0.813500
3.548500 0.815100
3.568300 0.818600
3.588100 0.821600
3.607900 0.823300
3.627600 0.825000
3.647400 0.823000
3.667200 0.815400
3.687000 0.811700
3.706800 0.809200
3.726600 0.805300
3.746400 0.801900
3.766200 0.805200
3.786000 0.809600
3.805800 0.829200
3.825600 0.823700
3.845300 0.817300
3.865100 0.810000
3.884900 0.801800
3.904700 0.791500
3.924500 0.769900
3.944300 0.758400
3.964100 0.746800
3.983900 0.736000
4.003700 0.726000
4.023500 0.715800
4.043300 0.705500
4.063000 0.694200
4.082800 0.682900
4.102600 0.672700
4.122400 0.668200
4.142200 0.670400
4.162000 0.674500
4.181800 0.682100
4.201600 0.689000
4.221400 0.693300
4.241200 0.694800
4.261000 0.693500
4.280700 0.678200
4.300500 0.675800
4.320300 0.673600
4.340100 0.671300
4.359900 0.659700
4.379700 0.646800
4.399500 0.641200
4.419300 0.636700
4.439100 0.632400
4.458900 0.628300
4.478700 0.624800
4.498400 0.622400
4.518200 0.620700
4.538000 0.620300
4.557800 0.619800
4.577600 0.619100
4.597400 0.618400
4.617200 0.618000
4.637000 0.629600
4.656800 0.643000
4.676600 0.643700
4.696400 0.642400
4.716100 0.640100
4.735900 0.636600
4.755700 0.632500
4.775500 0.627300
4.795300 0.610500
4.815100 0.608300
4.834900 0.606300
4.854700 0.604400
4.874500 0.608400
4.894300 0.603700
4.914100 0.599300
4.933800 0.594400
4.953600 0.590900
4.973400 0.587000
4.993200 0.583300
5.013000 0.580800
5.032800 0.578900
5.052600 0.577300
5.072400 0.575700
5.092200 0.575000
5.112000 0.575900
5.131800 0.578400
5.151600 0.583300
5.171300 0.579300
5.191100 0.571600
5.210900 0.571900
5.230700 0.573000
5.250500 0.573900
5.270300 0.574400
5.290100 0.574700
5.309900 0.576900
5.329700 0.578900
5.349500 0.580300
5.369300 0.581000
5.389000 0.581200
5.408800 0.580800
5.428600 0.579800
5.448400 0.569600
5.468200 0.569800
5.488000 0.568900
5.507800 0.567800
5.527600 0.566400
5.547400 0.564400
5.567200 0.561700
5.587000 0.558300
5.606700 0.554100
5.626500 0.555400
5.646300 0.567500
5.666100 0.587400
5.685900 0.580300
5.705700 0.564000
5.725500 0.555200
5.745300 0.552400
5.765100 0.550200
5.784900 0.552600
5.804700 0.552700
5.824400 0.544500
5.844200 0.535200
5.864000 0.529500
5.883800 0.526700
5.903600 0.525900
5.923400 0.526800
5.943200 0.527700
5.963000 0.528400
5.982800 0.531600
6.002600 0.537900
6.022400 0.545900
6.042100 0.554800
6.061900 0.564100
6.081700 0.565300
6.101500 0.555300
6.121300 0.555500
6.141100 0.558900
6.160900 0.561600
6.180700 0.563500
6.200500 0.557600
6.220300 0.556800
6.240100 0.552700
6.259800 0.550000
6.279600 0.545300
6.299400 0.523300
6.319200 0.522500
6.339000 0.521900
6.358800 0.521500
6.378600 0.522100
6.398400 0.522800
6.418200 0.523600
6.438000 0.524400
6.457800 0.525200
6.477500 0.526100
6.497300 0.526900
6.517100 0.528400
6.536900 0.536800
6.556700 0.534800
6.576500 0.532400
6.596300 0.529600
6.616100 0.526300
6.635900 0.522200
6.655700 0.519700
6.675500 0.517900
6.695200 0.516500
6.715000 0.515500
6.734800 0.518500
6.754600 0.569300
6.774400 0.512200
6.794200 0.513500
6.814000 0.514700
6.833800 0.515700
6.853600 0.516600
6.873400 0.517100
6.893200 0.517100
6.912900 0.516700
6.932700 0.516200
6.952500 0.515600
6.972300 0.514900
6.992100 0.515700
7.011900 0.525600
7.031700 0.553800
7.051500 0.578900
7.071300 0.587700
7.091100 0.572400
7.110900 0.531400
7.130700 0.516200
7.150400 0.516400
7.170200 0.516800
7.190000 0.517300
7.209800 0.518000
7.229600 0.519000
7.249400 0.520100
7.269200 0.521600
7.289000 0.523300
7.308800 0.527600
7.328600 0.530600
7.348400 0.531800
7.368100 0.529400
7.387900 0.525500
7.407700 0.527100
7.427500 0.528700
7.447300 0.530000
7.467100 0.531100
7.486900 0.532000
7.506700 0.532600
7.526500 0.533100
7.546300 0.533700
7.566100 0.544300
7.585800 0.539300
7.605600 0.534100
7.625400 0.530100
7.645200 0.527100
7.665000 0.524900
7.684800 0.523400
7.704600 0.524000
7.724400 0.525500
7.744200 0.529900
7.764000 0.571100
7.783800 0.540800
7.803500 0.534400
7.823300 0.536300
7.843100 0.537600
7.862900 0.538600
7.882700 0.539300
7.902500 0.573300
7.922300 0.648400
7.942100 0.578000
7.961900 0.567600
7.981700 0.561400
8.001500 0.567200
8.021200 0.574200
8.041000 0.584400
8.060800 0.598800
8.080600 0.665000
8.100400 0.641100
8.120200 0.649000
8.140000 0.659800
8.159800 0.671200
8.179600 0.683100
8.199400 0.688400
8.219200 0.699300
8.238900 0.710800
8.258700 0.721400
8.278500 0.731700
8.298300 0.743400
8.318100 0.757700
8.337900 0.781400
8.357700 0.799100
8.377500 0.765600
8.397300 0.761900
8.417100 0.761300
8.436900 0.760000
8.456600 0.758100
8.476400 0.753600
8.496200 0.751000
8.516000 0.752800
8.535800 0.753400
8.555600 0.753300
8.575400 0.753500
8.595200 0.762700
8.615000 0.766500
8.634800 0.770300
8.654600 0.793100
8.674300 0.782600
8.694100 0.775900
8.713900 0.774700
8.733700 0.780400
8.753500 0.786900
8.773300 0.793400
8.793100 0.798100
8.812900 0.802300
8.832700 0.806400
8.852500 0.808800
8.872300 0.807700
8.892000 0.801000
8.911800 0.796300
8.931600 0.792600
8.951400 0.775800
8.971200 0.774700
8.991000 0.775600
9.010800 0.780400
9.030600 0.785900
9.050400 0.792500
9.070200 0.800100
9.090000 0.808700
9.109700 0.818200
9.129500 0.828800
9.149300 0.819500
9.169100 0.814600
9.188900 0.810500
9.208700 0.808000
9.228500 0.806700
9.248300 0.807200
9.268100 0.808100
9.287900 0.807900
9.307700 0.809100
9.327500 0.809600
9.347200 0.809900
9.367000 0.810800
9.386800 0.813100
9.406600 0.815400
9.426400 0.817800
9.446200 0.820400
9.466000 0.823600
9.485800 0.829800
9.505600 0.842000
9.525400 0.849400
9.545200 0.857000
9.564900 0.864400
9.584700 0.872300
9.604500 0.871900
9.624300 0.864300
9.644100 0.857500
9.663900 0.839500
9.683700 0.836500
9.703500 0.840800
9.723300 0.848700
9.743100 0.855500
9.762900 0.861400
9.782600 0.864900
9.802400 0.853200
9.822200 0.865800
9.842000 0.875000
9.861800 0.900500
9.881600 0.914200
9.901400 0.945500
9.921200 0.954700
9.941000 0.963100
9.960800 0.958100
9.980600 0.951600
10.000300 0.951000
10.020100 0.943400
10.039900 0.932800
10.059700 0.919300
10.079500 0.902900
10.099300 0.975000
10.119100 0.895500
10.138900 0.822500
10.158700 0.797200
10.178500 0.773900
10.198300 0.753800
10.218000 0.737100
10.237800 0.758300
10.257600 0.713600
10.277400 0.705900
10.297200 0.699400
10.317000 0.693700
10.336800 0.691100
10.356600 0.675900
10.376400 0.660700
10.396200 0.641000
10.416000 0.611700
10.435700 0.587800
10.455500 0.570400
10.475300 0.552300
10.495100 0.541400
10.514900 0.543900
10.534700 0.528400
10.554500 0.514900
10.574300 0.501900
10.594100 0.489600
10.613900 0.499300
10.633700 0.497900
10.653400 0.498900
10.673200 0.502300
10.693000 0.514400
10.712800 0.531600
10.732600 0.566200
10.752400 0.604300
10.772200 0.631800
10.792000 0.607600
10.811800 0.569000
10.831600 0.577800
10.851400 0.585300
10.871100 0.593400
10.890900 0.600100
10.910700 0.604900
10.930500 0.608600
10.950300 0.612000
10.970100 0.617400
10.989900 0.625600
11.009700 0.634000
11.029500 0.642200
11.049300 0.649700
11.069100 0.625700
11.088800 0.621300
11.108600 0.618300
11.128400 0.612700
11.148200 0.606300
11.168000 0.600400
11.187800 0.594800
11.207600 0.589400
11.227400 0.573900
11.247200 0.570100
11.267000 0.568700
11.286800 0.567100
11.306500 0.566900
11.326300 0.566700
11.346100 0.575600
11.365900 0.586000
11.385700 0.565100
11.405500 0.564000
11.425300 0.564800
11.445100 0.566000
11.464900 0.567600
11.484700 0.569400
11.504500 0.573200
