set title 'mp-754382 - Density of States'
set xlabel 'Energy (eV)'
set ylabel 'DOS (states/eV)'
set grid
set xrange [-10:10]
set yrange [0:1.944]
set xzeroaxis lt -1
set terminal png size 800,600
set output 'mp-754382_dos_gnuplot.png'
plot '-' using 1:2 with lines title 'DOS'
-22.688100 0.000000
-22.611900 0.000000
-22.535800 0.000000
-22.459700 0.000000
-22.383600 0.000000
-22.307500 0.000000
-22.231400 0.000000
-22.155200 0.000000
-22.079100 0.000000
-22.003000 0.000000
-21.926900 0.000000
-21.850800 0.000000
-21.774600 0.000000
-21.698500 0.000000
-21.622400 0.000000
-21.546300 0.000000
-21.470200 0.000000
-21.394100 0.000000
-21.317900 0.000000
-21.241800 0.000000
-21.165700 0.000000
-21.089600 0.000000
-21.013500 0.000000
-20.937400 0.000000
-20.861200 0.000000
-20.785100 0.000000
-20.709000 0.000000
-20.632900 0.000000
-20.556800 0.000000
-20.480600 0.000000
-20.404500 0.000000
-20.328400 0.000000
-20.252300 0.000000
-20.176200 0.000000
-20.100100 0.000000
-20.023900 0.000000
-19.947800 0.000000
-19.871700 0.000000
-19.795600 0.000000
-19.719500 0.000000
-19.643400 0.000000
-19.567200 0.000000
-19.491100 0.000000
-19.415000 0.000000
-19.338900 0.000000
-19.262800 0.000000
-19.186600 0.000000
-19.110500 0.000000
-19.034400 0.000000
-18.958300 0.000000
-18.882200 0.000000
-18.806100 0.000000
-18.729900 0.000000
-18.653800 0.000000
-18.577700 0.000000
-18.501600 0.000000
-18.425500 0.000000
-18.349400 0.000000
-18.273200 0.000000
-18.197100 0.000000
-18.121000 0.000000
-18.044900 0.000000
-17.968800 0.000000
-17.892600 0.000000
-17.816500 0.000000
-17.740400 0.000000
-17.664300 0.000000
-17.588200 0.000000
-17.512100 0.000000
-17.435900 0.000000
-17.359800 0.000000
-17.283700 0.000000
-17.207600 0.000000
-17.131500 0.000000
-17.055400 0.000000
-16.979200 0.000000
-16.903100 0.000000
-16.827000 0.000000
-16.750900 0.000000
-16.674800 0.000000
-16.598600 0.000000
-16.522500 0.000000
-16.446400 0.000000
-16.370300 0.000000
-16.294200 0.000000
-16.218100 0.000000
-16.141900 0.000000
-16.065800 0.000000
-15.989700 0.000000
-15.913600 0.000000
-15.837500 0.000000
-15.761400 0.001500
-15.685200 0.167600
-15.609100 0.237300
-15.533000 0.336000
-15.456900 0.403200
-15.380800 0.487700
-15.304600 0.582700
-15.228500 0.688300
-15.152400 0.803200
-15.076300 0.955600
-15.000200 1.171700
-14.924100 1.430500
-14.847900 2.099100
-14.771800 2.536700
-14.695700 2.384000
-14.619600 1.975500
-14.543500 1.826300
-14.467400 1.738700
-14.391200 1.679900
-14.315100 1.677800
-14.239000 1.666800
-14.162900 1.135500
-14.086800 0.000000
-14.010600 0.000000
-13.934500 0.000000
-13.858400 0.000000
-13.782300 0.000000
-13.706200 0.000000
-13.630100 0.000000
-13.553900 0.000000
-13.477800 0.000000
-13.401700 0.000000
-13.325600 0.000000
-13.249500 0.000000
-13.173400 0.000000
-13.097200 0.000000
-13.021100 0.000000
-12.945000 0.000000
-12.868900 0.000000
-12.792800 0.000000
-12.716600 0.000000
-12.640500 0.000000
-12.564400 0.000000
-12.488300 0.000000
-12.412200 0.000000
-12.336100 0.000000
-12.259900 0.000000
-12.183800 0.000000
-12.107700 0.000000
-12.031600 0.000000
-11.955500 0.000000
-11.879400 0.000000
-11.803200 0.000000
-11.727100 0.000000
-11.651000 0.000000
-11.574900 0.000000
-11.498800 0.000000
-11.422600 0.000000
-11.346500 0.000000
-11.270400 0.000000
-11.194300 0.000000
-11.118200 0.000000
-11.042100 0.000000
-10.965900 0.000000
-10.889800 0.000000
-10.813700 0.000000
-10.737600 0.000000
-10.661500 0.000000
-10.585300 0.000000
-10.509200 0.000000
-10.433100 0.000000
-10.357000 0.000000
-10.280900 0.000000
-10.204800 0.000000
-10.128600 0.000000
-10.052500 0.000000
-9.976400 0.000000
-9.900300 0.000000
-9.824200 0.000000
-9.748100 0.000000
-9.671900 0.000000
-9.595800 0.000000
-9.519700 0.000000
-9.443600 0.000000
-9.367500 0.000000
-9.291300 0.000000
-9.215200 0.000000
-9.139100 0.000000
-9.063000 0.000000
-8.986900 0.000000
-8.910800 0.000000
-8.834600 0.000000
-8.758500 0.000000
-8.682400 0.000000
-8.606300 0.000000
-8.530200 0.000000
-8.454100 0.000000
-8.377900 0.000000
-8.301800 0.000000
-8.225700 0.000000
-8.149600 0.000000
-8.073500 0.000000
-7.997300 0.000000
-7.921200 0.000000
-7.845100 0.000000
-7.769000 0.000000
-7.692900 0.000000
-7.616800 0.000000
-7.540600 0.000000
-7.464500 0.000000
-7.388400 0.000000
-7.312300 0.000000
-7.236200 0.000000
-7.160100 0.000000
-7.083900 0.000000
-7.007800 0.000000
-6.931700 0.000000
-6.855600 0.000000
-6.779500 0.000000
-6.703300 0.000000
-6.627200 0.000000
-6.551100 0.000000
-6.475000 0.000000
-6.398900 0.000000
-6.322800 0.000000
-6.246600 0.000000
-6.170500 0.000000
-6.094400 0.000000
-6.018300 0.000000
-5.942200 0.000000
-5.866100 0.000000
-5.789900 0.000000
-5.713800 0.000000
-5.637700 0.000000
-5.561600 0.000000
-5.485500 0.000000
-5.409300 0.000000
-5.333200 0.000000
-5.257100 0.000000
-5.181000 0.000000
-5.104900 0.000000
-5.028800 0.000000
-4.952600 0.000000
-4.876500 0.000000
-4.800400 0.000000
-4.724300 0.000000
-4.648200 0.000000
-4.572100 0.000000
-4.495900 0.000000
-4.419800 0.000000
-4.343700 0.000000
-4.267600 0.000000
-4.191500 0.000000
-4.115300 0.000000
-4.039200 0.000000
-3.963100 0.000000
-3.887000 0.000000
-3.810900 0.000000
-3.734800 0.000000
-3.658600 0.000000
-3.582500 0.000000
-3.506400 0.000000
-3.430300 0.000000
-3.354200 0.000000
-3.278100 0.000000
-3.201900 0.000000
-3.125800 0.000000
-3.049700 0.000000
-2.973600 0.000000
-2.897500 0.000000
-2.821300 0.000000
-2.745200 0.000000
-2.669100 0.000000
-2.593000 0.000000
-2.516900 0.000000
-2.440800 0.000000
-2.364600 0.000000
-2.288500 0.000000
-2.212400 0.000000
-2.136300 0.000000
-2.060200 0.000000
-1.984100 0.000000
-1.907900 0.000000
-1.831800 0.000000
-1.755700 0.000000
-1.679600 0.000000
-1.603500 0.000000
-1.527300 0.000000
-1.451200 0.000000
-1.375100 0.000000
-1.299000 0.000000
-1.222900 0.000000
-1.146800 0.000000
-1.070600 0.000000
-0.994500 0.000000
-0.918400 0.000000
-0.842300 0.000000
-0.766200 0.000000
-0.690000 0.000000
-0.613900 0.000000
-0.537800 0.000000
-0.461700 0.000000
-0.385600 0.000000
-0.309500 0.000000
-0.233300 0.000000
-0.157200 0.000000
-0.081100 0.000000
-0.005000 0.000000
0.071100 0.000000
0.147200 0.000000
0.223400 0.000000
0.299500 0.000000
0.375600 0.000000
0.451700 0.000000
0.527800 0.000000
0.604000 0.000000
0.680100 0.000000
0.756200 0.000000
0.832300 0.000000
0.908400 0.000000
0.984500 0.000000
1.060700 0.000000
1.136800 0.000000
1.212900 0.000000
1.289000 0.000000
1.365100 0.000000
1.441200 0.000000
1.517400 0.000000
1.593500 0.000000
1.669600 0.000000
1.745700 0.000000
1.821800 0.000000
1.898000 0.000000
1.974100 0.000000
2.050200 0.000000
2.126300 0.000000
2.202400 0.000000
2.278500 0.000000
2.354700 0.000000
2.430800 0.000000
2.506900 0.000000
2.583000 0.007900
2.659100 0.031100
2.735200 0.062600
2.811400 0.068500
2.887500 0.076900
2.963600 0.092900
3.039700 0.146000
3.115800 0.288300
3.192000 0.494600
3.268100 0.632000
3.344200 0.853700
3.420300 1.293700
3.496400 1.416700
3.572500 1.767300
3.648700 1.530000
3.724800 0.988300
3.800900 0.831200
3.877000 0.749900
3.953100 0.701100
4.029200 0.657300
4.105400 0.611200
4.181500 0.571400
4.257600 0.539600
4.333700 0.521100
4.409800 0.502100
4.486000 0.497900
4.562100 0.462000
4.638200 0.425700
4.714300 0.389500
4.790400 0.374000
4.866500 0.359700
4.942700 0.346500
5.018800 0.334200
5.094900 0.321700
5.171000 0.306600
5.247100 0.294600
5.323200 0.282600
5.399400 0.270500
5.475500 0.260100
5.551600 0.250700
5.627700 0.241000
5.703800 0.233100
5.780000 0.226000
5.856100 0.219200
5.932200 0.212500
6.008300 0.205000
6.084400 0.198700
6.160500 0.212500
6.236700 0.212500
6.312800 0.199700
6.388900 0.197100
6.465000 0.195400
6.541100 0.194200
6.617200 0.193400
6.693400 0.193000
6.769500 0.193000
6.845600 0.190700
6.921700 0.190500
6.997800 0.189400
7.074000 0.187600
7.150100 0.184600
7.226200 0.181700
7.302300 0.179300
7.378400 0.177400
7.454500 0.175700
7.530700 0.174300
7.606800 0.171800
7.682900 0.170000
7.759000 0.167000
7.835100 0.163200
7.911200 0.161200
7.987400 0.160800
8.063500 0.162900
8.139600 0.183900
8.215700 0.216400
8.291800 0.257100
8.368000 0.313900
8.444100 0.376400
8.520200 0.417800
8.596300 0.454600
8.672400 0.495200
8.748500 0.556700
8.824700 0.632200
8.900800 0.691200
8.976900 0.764200
9.053000 0.817300
9.129100 0.811500
9.205200 0.788200
9.281400 0.741800
9.357500 0.728700
9.433600 0.735800
9.509700 0.718900
9.585800 0.653000
9.662000 0.636800
9.738100 0.622400
9.814200 0.604000
9.890300 0.570800
9.966400 0.534300
10.042500 0.496900
10.118700 0.446700
10.194800 0.422200
10.270900 0.399800
10.347000 0.384400
10.423100 0.377900
10.499300 0.363300
10.575400 0.374300
10.651500 0.360600
10.727600 0.352800
10.803700 0.348700
10.879800 0.336300
10.956000 0.332700
11.032100 0.331700
11.108200 0.330100
11.184300 0.322400
11.260400 0.321500
11.336500 0.323700
11.412700 0.327000
11.488800 0.330800
11.564900 0.329800
11.641000 0.330000
11.717100 0.330100
11.793300 0.330600
11.869400 0.368600
11.945500 0.400800
12.021600 0.377800
12.097700 0.367600
12.173800 0.355000
12.250000 0.342100
12.326100 0.340900
12.402200 0.342800
12.478300 0.346000
12.554400 0.349700
12.630500 0.353700
12.706700 0.357900
12.782800 0.362500
12.858900 0.367200
12.935000 0.372100
13.011100 0.377600
13.087300 0.424500
13.163400 0.411600
13.239500 0.405900
13.315600 0.407500
13.391700 0.413100
13.467800 0.417900
13.544000 0.421000
13.620100 0.425500
13.696200 0.433200
13.772300 0.448600
13.848400 0.462500
13.924500 0.476000
14.000700 0.485300
14.076800 0.489600
14.152900 0.489500
14.229000 0.486400
14.305100 0.492500
14.381300 0.504900
14.457400 0.519400
14.533500 0.536300
14.609600 0.637800
14.685700 0.688200
14.761800 0.737200
14.838000 0.837400
14.914100 0.994700
14.990200 0.934200
15.066300 0.772100
15.142400 0.642900
15.218500 0.611700
15.294700 0.573200
15.370800 0.531600
15.446900 0.501700
15.523000 0.486100
15.599100 0.471700
15.675300 0.457600
15.751400 0.443000
15.827500 0.429200
15.903600 0.416000
15.979700 0.403300
16.055800 0.392100
16.132000 0.384600
16.208100 0.378900
16.284200 0.375500
16.360300 0.375500
16.436400 0.381500
16.512500 0.387400
16.588700 0.390700
16.664800 0.390700
16.740900 0.391000
16.817000 0.390600
16.893100 0.389500
16.969300 0.390600
17.045400 0.391500
17.121500 0.392300
17.197600 0.393000
17.273700 0.393000
17.349800 0.392300
17.426000 0.394600
17.502100 0.399400
17.578200 0.406200
17.654300 0.416700
17.730400 0.426200
17.806500 0.431900
17.882700 0.438600
17.958800 0.447000
18.034900 0.454400
18.111000 0.461200
18.187100 0.468900
18.263300 0.477300
18.339400 0.486400
18.415500 0.496200
18.491600 0.507600
18.567700 0.521400
18.643800 0.535300
18.720000 0.546800
18.796100 0.559800
18.872200 0.575700
18.948300 0.596800
19.024400 0.655200
19.100500 0.716100
19.176700 0.774400
19.252800 0.805700
19.328900 0.825300
19.405000 0.762300
19.481100 0.720000
19.557300 0.690700
19.633400 0.681700
19.709500 0.674500
19.785600 0.665800
19.861700 0.656300
19.937800 0.637100
20.014000 0.609800
20.090100 0.580800
20.166200 0.553300
20.242300 0.530700
20.318400 0.513000
20.394600 0.499900
20.470700 0.486400
20.546800 0.471500
20.622900 0.458900
20.699000 0.447700
20.775100 0.437400
20.851300 0.428300
20.927400 0.419800
21.003500 0.412100
21.079600 0.405000
21.155700 0.400100
21.231800 0.403300
21.308000 0.418900
21.384100 0.428900
21.460200 0.433300
21.536300 0.438100
21.612400 0.442600
21.688600 0.447800
21.764700 0.454500
21.840800 0.462800
21.916900 0.471900
21.993000 0.480500
22.069100 0.488700
22.145300 0.497000
22.221400 0.505500
22.297500 0.519400
22.373600 0.545000
22.449700 0.557600
22.525800 0.561700
22.602000 0.570200
22.678100 0.581800
22.754200 0.598100
22.830300 0.620500
22.906400 0.645600
22.982600 0.673600
23.058700 0.700500
23.134800 0.728300
23.210900 0.760200
23.287000 0.784800
23.363100 0.814400
23.439300 0.840500
23.515400 0.897600
23.591500 1.024300
23.667600 0.955100
23.743700 0.926100
23.819800 0.912500
23.896000 0.891900
23.972100 0.737800
24.048200 0.685900
24.124300 0.656500
24.200400 0.641300
24.276600 0.632400
24.352700 0.618700
24.428800 0.572400
24.504900 0.553300
24.581000 0.535200
24.657100 0.519100
24.733300 0.559400
24.809400 0.560400
24.885500 0.546400
24.961600 0.528100
25.037700 0.507300
25.113800 0.499800
25.190000 0.500100
25.266100 0.503600
25.342200 0.512600
25.418300 0.528600
25.494400 0.543500
25.570600 0.560000
25.646700 0.582600
25.722800 0.605900
25.798900 0.632800
25.875000 0.648300
25.951100 0.656800
26.027300 0.649500
26.103400 0.632200
26.179500 0.643800
26.255600 0.660600
26.331700 0.685300
26.407800 0.696500
26.484000 0.684900
26.560100 0.664500
26.636200 0.633600
26.712300 0.603300
26.788400 0.560400
26.864600 0.532200
26.940700 0.527100
27.016800 0.518300
27.092900 0.514300
27.169000 0.511200
27.245100 0.496700
27.321300 0.488400
27.397400 0.486600
27.473500 0.484900
27.549600 0.483200
27.625700 0.479900
27.701800 0.497400
27.778000 0.489600
27.854100 0.486700
27.930200 0.489700
28.006300 0.494300
28.082400 0.496900
28.158600 0.494200
28.234700 0.486300
28.310800 0.475900
28.386900 0.481300
28.463000 0.494600
28.539100 0.523100
28.615300 0.575900
28.691400 0.630300
28.767500 0.694500
28.843600 0.794200
28.919700 0.806900
28.995800 0.801200
29.072000 0.781800
29.148100 0.764700
29.224200 0.750200
29.300300 0.709600
29.376400 0.673700
29.452600 0.659600
29.528700 0.653700
29.604800 0.651400
29.680900 0.655900
29.757000 0.666100
29.833100 0.679900
29.909300 0.687500
29.985400 0.670100
30.061500 0.643200
30.137600 0.635000
30.213700 0.623500
30.289800 0.612300
30.366000 0.603500
30.442100 0.600000
30.518200 0.585900
30.594300 0.574600
30.670400 0.562900
30.746600 0.556000
30.822700 0.551900
30.898800 0.548000
30.974900 0.551900
31.051000 0.555800
31.127100 0.557300
31.203300 0.564800
31.279400 0.575000
31.355500 0.572200
31.431600 0.584800
31.507700 0.597500
31.583900 0.607700
31.660000 0.615700
31.736100 0.623100
31.812200 0.627200
31.888300 0.632400
31.964400 0.641700
32.040600 0.647900
32.116700 0.644800
32.192800 0.674000
32.268900 0.676100
32.345000 0.658800
32.421100 0.658900
32.497300 0.681900
32.573400 0.714800
32.649500 0.722100
32.725600 0.726000
32.801700 0.720800
32.877900 0.723200
32.954000 0.730000
33.030100 0.731100
33.106200 0.730500
33.182300 0.726700
33.258400 0.724000
33.334600 0.728500
33.410700 0.741400
33.486800 0.767000
33.562900 0.786300
33.639000 0.773000
33.715100 0.752900
33.791300 0.753500
33.867400 0.808600
33.943500 0.745400
34.019600 0.706800
34.095700 0.699700
34.171900 0.695300
34.248000 0.710900
34.324100 0.707400
34.400200 0.708300
34.476300 0.701600
34.552400 0.691500
34.628600 0.706600
34.704700 0.726400
34.780800 0.754400
34.856900 0.782000
34.933000 0.711200
35.009100 0.700200
35.085300 0.686800
35.161400 0.669000
35.237500 0.646300
35.313600 0.621200
35.389700 0.594600
35.465900 0.568700
35.542000 0.545600
35.618100 0.523900
35.694200 0.505100
35.770300 0.531600
35.846400 0.530700
35.922600 0.532000
35.998700 0.502500
36.074800 0.481900
36.150900 0.490800
36.227000 0.502300
36.303100 0.518300
36.379300 0.539400
36.455400 0.563700
36.531500 0.585200
36.607600 0.609000
36.683700 0.737800
36.759900 0.688600
36.836000 0.715600
36.912100 0.731900
36.988200 0.745300
37.064300 0.755300
37.140400 0.759400
37.216600 0.741700
37.292700 0.713700
37.368800 0.715000
37.444900 0.715300
37.521000 0.714000
37.597100 0.717000
37.673300 0.724800
37.749400 0.736900
37.825500 0.745900
37.901600 0.758600
37.977700 0.786200
38.053900 0.790800
38.130000 0.789000
38.206100 0.790200
38.282200 0.796100
38.358300 0.798000
38.434400 0.775600
38.510600 0.733200
38.586700 0.712000
38.662800 0.700400
38.738900 0.695100
38.815000 0.689000
38.891100 0.682900
38.967300 0.677700
39.043400 0.675200
39.119500 0.676000
39.195600 0.682100
39.271700 0.691900
39.347900 0.704000
39.424000 0.714600
39.500100 0.722900
39.576200 0.729400
39.652300 0.735800
39.728400 0.744100
39.804600 0.757500
39.880700 0.767600
39.956800 0.773700
40.032900 0.781400
40.109000 0.790400
40.185100 0.777800
40.261300 0.771800
40.337400 0.755900
40.413500 0.738400
40.489600 0.725000
40.565700 0.708400
40.641900 0.695000
40.718000 0.682600
40.794100 0.658900
40.870200 0.655200
40.946300 0.659700
41.022400 0.669800
41.098600 0.672800
41.174700 0.678500
41.250800 0.691900
41.326900 0.713300
41.403000 0.748000
41.479100 0.759600
41.555300 0.757000
41.631400 0.755200
41.707500 0.724300
41.783600 0.713200
41.859700 0.708800
41.935900 0.706000
42.012000 0.700800
42.088100 0.696700
42.164200 0.702100
42.240300 0.714200
42.316400 0.725900
42.392600 0.729400
42.468700 0.727400
42.544800 0.724200
42.620900 0.722600
42.697000 0.735300
42.773200 0.753900
42.849300 0.777400
42.925400 0.806200
43.001500 0.825100
43.077600 0.816000
43.153700 0.814500
43.229900 0.800200
43.306000 0.785000
43.382100 0.772500
43.458200 0.753000
43.534300 0.748600
43.610400 0.748300
43.686600 0.753000
43.762700 0.762900
43.838800 0.778700
43.914900 0.784500
43.991000 0.772600
44.067200 0.775600
44.143300 0.782900
44.219400 0.789800
44.295500 0.802900
44.371600 0.834800
44.447700 0.811200
44.523900 0.801000
44.600000 0.793500
44.676100 0.780500
44.752200 0.775800
44.828300 0.772300
44.904400 0.769200
44.980600 0.767700
45.056700 0.764200
45.132800 0.760100
45.208900 0.757400
45.285000 0.752900
45.361200 0.760300
45.437300 0.777300
45.513400 0.815400
45.589500 0.855100
45.665600 0.887300
45.741700 0.916900
45.817900 0.931600
45.894000 0.928100
45.970100 0.905900
46.046200 0.851700
46.122300 0.817300
46.198400 0.791800
46.274600 0.771100
46.350700 0.744100
46.426800 0.737500
46.502900 0.731800
46.579000 0.728100
46.655200 0.726200
46.731300 0.727600
46.807400 0.731200
46.883500 0.782200
46.959600 0.785000
47.035700 0.778900
47.111900 0.771700
47.188000 0.761200
47.264100 0.747200
47.340200 0.730500
47.416300 0.713500
47.492400 0.697100
47.568600 0.680100
47.644700 0.659700
47.720800 0.650300
47.796900 0.647900
47.873000 0.649500
47.949200 0.650600
48.025300 0.653100
48.101400 0.663600
48.177500 0.675400
48.253600 0.694700
48.329700 0.696500
48.405900 0.731400
48.482000 0.785500
48.558100 0.814000
48.634200 0.831000
48.710300 0.854100
48.786400 0.878100
48.862600 0.903700
48.938700 0.930900
49.014800 0.961800
49.090900 0.998600
49.167000 0.953900
49.243200 0.908400
49.319300 0.909200
49.395400 0.897400
49.471500 0.878900
49.547600 0.857300
49.623700 0.832700
49.699900 0.795500
49.776000 0.768700
49.852100 0.741800
49.928200 0.717800
50.004300 0.696600
50.080400 0.676000
50.156600 0.656900
50.232700 0.647600
50.308800 0.648400
50.384900 0.654800
50.461000 0.665300
50.537200 0.675900
50.613300 0.683200
50.689400 0.685600
50.765500 0.698500
50.841600 0.719500
50.917700 0.740500
50.993900 0.760300
51.070000 0.778200
51.146100 0.794400
51.222200 0.809400
51.298300 0.823100
51.374400 0.879700
51.450600 0.914200
51.526700 0.918200
51.602800 0.914500
51.678900 0.917400
51.755000 0.922800
51.831200 0.933100
51.907300 0.941400
51.983400 0.939300
52.059500 0.921100
52.135600 0.904800
52.211700 0.890000
52.287900 0.877400
52.364000 0.929500
52.440100 0.885300
52.516200 0.859700
52.592300 0.815800
52.668500 0.781300
52.744600 0.747700
52.820700 0.736000
52.896800 0.764700
52.972900 0.751900
53.049000 0.748500
53.125200 0.751200
53.201300 0.769100
53.277400 0.832200
53.353500 0.878200
53.429600 0.911600
53.505700 0.906800
53.581900 0.911900
53.658000 0.928900
53.734100 0.904800
53.810200 0.884900
53.886300 0.875400
53.962500 0.877000
54.038600 0.919800
54.114700 0.891900
54.190800 0.825300
54.266900 0.784300
54.343000 0.766500
54.419200 0.760100
54.495300 0.741500
54.571400 0.726000
54.647500 0.743300
54.723600 0.776000
54.799700 0.821100
54.875900 0.852200
54.952000 0.870000
55.028100 0.888800
55.104200 0.899600
55.180300 0.891000
55.256500 0.881000
55.332600 0.874400
55.408700 0.866000
55.484800 0.855800
55.560900 0.841200
55.637000 0.827700
55.713200 0.810200
55.789300 0.791300
55.865400 0.777800
55.941500 0.766500
56.017600 0.760000
56.093700 0.752700
