set title 'mp-982510 - Density of States'
set xlabel 'Energy (eV)'
set ylabel 'DOS (states/eV)'
set grid
set xrange [-10:10]
set yrange [0:15.995]
set xzeroaxis lt -1
set terminal png size 800,600
set output 'mp-982510_dos_gnuplot.png'
plot '-' using 1:2 with lines title 'DOS'
-11.628400 0.000000
-11.606100 0.000000
-11.583800 0.000000
-11.561500 0.000000
-11.539200 0.000000
-11.516900 0.000000
-11.494700 0.000000
-11.472400 0.000000
-11.450100 0.000000
-11.427800 0.000000
-11.405500 0.000000
-11.383200 0.000000
-11.360900 0.000000
-11.338600 0.000000
-11.316300 0.000000
-11.294000 0.000000
-11.271700 0.000000
-11.249400 0.000000
-11.227100 0.000000
-11.204900 0.000000
-11.182600 0.000000
-11.160300 0.000000
-11.138000 0.000000
-11.115700 0.000000
-11.093400 0.000000
-11.071100 0.000000
-11.048800 0.000000
-11.026500 0.000000
-11.004200 0.000000
-10.981900 0.000000
-10.959600 0.000000
-10.937300 0.000000
-10.915000 0.000000
-10.892800 0.000000
-10.870500 0.000000
-10.848200 0.000000
-10.825900 0.000000
-10.803600 0.000000
-10.781300 0.000000
-10.759000 0.000000
-10.736700 0.000000
-10.714400 0.000000
-10.692100 0.000000
-10.669800 0.000000
-10.647500 0.000000
-10.625200 0.000000
-10.602900 0.000000
-10.580700 0.000000
-10.558400 0.000000
-10.536100 0.000000
-10.513800 0.000000
-10.491500 0.000000
-10.469200 0.000000
-10.446900 0.000000
-10.424600 0.000000
-10.402300 0.000000
-10.380000 0.000000
-10.357700 0.000000
-10.335400 0.000000
-10.313100 0.000000
-10.290800 0.000000
-10.268600 0.000000
-10.246300 0.000000
-10.224000 0.000000
-10.201700 0.000000
-10.179400 0.000000
-10.157100 0.000000
-10.134800 0.000000
-10.112500 0.000000
-10.090200 0.000000
-10.067900 0.000000
-10.045600 0.000000
-10.023300 0.000000
-10.001000 0.000000
-9.978700 0.000000
-9.956500 0.000000
-9.934200 0.000000
-9.911900 0.000000
-9.889600 0.000000
-9.867300 0.000000
-9.845000 0.000000
-9.822700 0.000000
-9.800400 0.000000
-9.778100 0.000000
-9.755800 0.000000
-9.733500 0.000000
-9.711200 0.000000
-9.688900 0.000000
-9.666700 0.000000
-9.644400 0.000000
-9.622100 0.000000
-9.599800 0.001500
-9.577500 0.094700
-9.555200 0.245500
-9.532900 0.396200
-9.510600 0.547000
-9.488300 0.648500
-9.466000 0.609700
-9.443700 0.559400
-9.421400 0.509200
-9.399100 0.461800
-9.376800 0.460100
-9.354600 0.477100
-9.332300 0.494000
-9.310000 0.511000
-9.287700 0.528000
-9.265400 0.544900
-9.243100 0.561900
-9.220800 0.578800
-9.198500 0.591900
-9.176200 0.575700
-9.153900 0.552100
-9.131600 0.528600
-9.109300 0.505000
-9.087000 0.496300
-9.064700 0.499800
-9.042500 0.503200
-9.020200 0.506700
-8.997900 0.510200
-8.975600 0.513600
-8.953300 0.517100
-8.931000 0.520500
-8.908700 0.524000
-8.886400 0.527500
-8.864100 0.530900
-8.841800 0.534400
-8.819500 0.537800
-8.797200 0.542400
-8.774900 0.548800
-8.752600 0.555100
-8.730400 0.561500
-8.708100 0.566600
-8.685800 0.558900
-8.663500 0.547800
-8.641200 0.536700
-8.618900 0.525600
-8.596600 0.520600
-8.574300 0.521000
-8.552000 0.521400
-8.529700 0.521700
-8.507400 0.522100
-8.485100 0.522500
-8.462800 0.522800
-8.440500 0.523200
-8.418300 0.523600
-8.396000 0.523900
-8.373700 0.524300
-8.351400 0.524700
-8.329100 0.537400
-8.306800 0.605100
-8.284500 0.721000
-8.262200 0.840000
-8.239900 0.959000
-8.217600 1.070000
-8.195300 1.111300
-8.173000 1.082500
-8.150700 1.045400
-8.128500 1.008400
-8.106200 0.977600
-8.083900 0.972000
-8.061600 0.989300
-8.039300 1.007500
-8.017000 1.023300
-7.994700 1.032000
-7.972400 1.040500
-7.950100 1.049000
-7.927800 1.058200
-7.905500 1.072200
-7.883200 1.083100
-7.860900 1.077500
-7.838600 1.057700
-7.816400 1.038200
-7.794100 1.022900
-7.771800 1.021500
-7.749500 1.029600
-7.727200 1.034400
-7.704900 1.039300
-7.682600 1.044200
-7.660300 1.049000
-7.638000 1.054500
-7.615700 1.061000
-7.593400 1.067700
-7.571100 1.074300
-7.548800 1.080900
-7.526500 1.087600
-7.504300 1.096200
-7.482000 1.108800
-7.459700 1.123200
-7.437400 1.137600
-7.415100 1.152000
-7.392800 1.166300
-7.370500 1.180700
-7.348200 1.190500
-7.325900 1.192000
-7.303600 1.190000
-7.281300 1.189600
-7.259000 1.193200
-7.236700 1.198700
-7.214400 1.204300
-7.192200 1.217400
-7.169900 1.239600
-7.147600 1.884100
-7.125300 1.954900
-7.103000 1.953200
-7.080700 1.964500
-7.058400 1.599800
-7.036100 1.496300
-7.013800 1.508100
-6.991500 1.519900
-6.969200 1.531700
-6.946900 1.543500
-6.924600 1.555300
-6.902300 1.567200
-6.880100 1.579000
-6.857800 1.596700
-6.835500 1.631600
-6.813200 1.676000
-6.790900 2.696200
-6.768600 3.009300
-6.746300 3.310100
-6.724000 4.037600
-6.701700 2.748200
-6.679400 2.548300
-6.657100 2.536800
-6.634800 2.474400
-6.612500 2.356900
-6.590300 2.219200
-6.568000 1.731400
-6.545700 1.336600
-6.523400 1.318000
-6.501100 1.303400
-6.478800 1.291400
-6.456500 1.282100
-6.434200 1.273000
-6.411900 1.264000
-6.389600 1.255000
-6.367300 1.246000
-6.345000 1.428500
-6.322700 3.553400
-6.300400 2.096600
-6.278200 1.272100
-6.255900 1.214300
-6.233600 1.156900
-6.211300 1.152800
-6.189000 1.670400
-6.166700 1.880600
-6.144400 0.871300
-6.122100 0.466500
-6.099800 0.301600
-6.077500 0.295800
-6.055200 0.353100
-6.032900 0.625100
-6.010600 1.506700
-5.988300 1.714500
-5.966100 0.755300
-5.943800 0.672300
-5.921500 0.677400
-5.899200 0.682500
-5.876900 0.687700
-5.854600 0.692800
-5.832300 0.697900
-5.810000 0.703100
-5.787700 0.708300
-5.765400 0.713400
-5.743100 0.622900
-5.720800 0.603500
-5.698500 0.606800
-5.676200 0.610200
-5.654000 0.613500
-5.631700 0.616900
-5.609400 0.620200
-5.587100 0.623600
-5.564800 0.626900
-5.542500 0.630300
-5.520200 0.633600
-5.497900 0.637000
-5.475600 0.640400
-5.453300 0.643700
-5.431000 0.647100
-5.408700 0.650400
-5.386400 0.653800
-5.364100 0.657100
-5.341900 0.640400
-5.319600 0.644800
-5.297300 0.649300
-5.275000 0.653700
-5.252700 0.658200
-5.230400 0.662600
-5.208100 0.667000
-5.185800 0.671500
-5.163500 0.675900
-5.141200 0.680400
-5.118900 0.684800
-5.096600 0.587200
-5.074300 0.595200
-5.052000 0.603100
-5.029800 0.611100
-5.007500 0.619000
-4.985200 0.627000
-4.962900 0.634900
-4.940600 0.642900
-4.918300 0.650800
-4.896000 1.065000
-4.873700 1.057000
-4.851400 1.044700
-4.829100 1.032200
-4.806800 1.019600
-4.784500 1.008900
-4.762200 0.999800
-4.740000 0.990800
-4.717700 0.640700
-4.695400 0.632000
-4.673100 0.623300
-4.650800 0.614600
-4.628500 0.605900
-4.606200 0.597200
-4.583900 0.588700
-4.561600 0.581800
-4.539300 0.574800
-4.517000 0.567800
-4.494700 0.560800
-4.472400 0.553900
-4.450100 0.546900
-4.427900 0.539900
-4.405600 0.533000
-4.383300 0.526000
-4.361000 0.519000
-4.338700 0.512100
-4.316400 0.455000
-4.294100 0.451500
-4.271800 0.448000
-4.249500 0.444500
-4.227200 0.441000
-4.204900 0.437600
-4.182600 0.434100
-4.160300 0.430600
-4.138000 0.427100
-4.115800 0.423600
-4.093500 0.420100
-4.071200 0.416600
-4.048900 0.413100
-4.026600 0.409600
-4.004300 0.406200
-3.982000 0.402700
-3.959700 0.399200
-3.937400 0.395700
-3.915100 0.392200
-3.892800 0.388700
-3.870500 0.385200
-3.848200 0.381700
-3.825900 0.378200
-3.803700 0.374700
-3.781400 0.371300
-3.759100 0.367800
-3.736800 0.364300
-3.714500 0.360800
-3.692200 0.357300
-3.669900 0.353800
-3.647600 0.350300
-3.625300 0.346800
-3.603000 0.914600
-3.580700 0.950500
-3.558400 0.986400
-3.536100 1.024500
-3.513800 1.078200
-3.491600 0.747500
-3.469300 0.778600
-3.447000 0.810700
-3.424700 0.846300
-3.402400 0.882000
-3.380100 0.917600
-3.357800 0.794900
-3.335500 0.812000
-3.313200 0.829000
-3.290900 0.846100
-3.268600 0.863100
-3.246300 0.880200
-3.224000 0.897200
-3.201800 0.914300
-3.179500 0.931300
-3.157200 0.948400
-3.134900 0.965400
-3.112600 0.982500
-3.090300 0.956400
-3.068000 1.035300
-3.045700 1.114100
-3.023400 1.192900
-3.001100 1.271800
-2.978800 1.341800
-2.956500 1.225200
-2.934200 1.179100
-2.911900 1.234200
-2.889700 1.290900
-2.867400 1.348000
-2.845100 1.405100
-2.822800 1.462200
-2.800500 1.519300
-2.778200 1.576300
-2.755900 1.633400
-2.733600 1.760200
-2.711300 1.986500
-2.689000 2.212800
-2.666700 2.439100
-2.644400 2.665400
-2.622100 1.418600
-2.599800 1.394700
-2.577600 1.370900
-2.555300 1.347000
-2.533000 1.323100
-2.510700 1.299300
-2.488400 1.275400
-2.466100 1.684500
-2.443800 1.750000
-2.421500 1.815400
-2.399200 1.867500
-2.376900 1.943000
-2.354600 2.028900
-2.332300 2.115600
-2.310000 2.202200
-2.287700 1.928200
-2.265500 1.934000
-2.243200 1.939700
-2.220900 1.946600
-2.198600 1.958100
-2.176300 1.962600
-2.154000 1.966700
-2.131700 2.112500
-2.109400 2.150500
-2.087100 2.189300
-2.064800 2.294800
-2.042500 2.610300
-2.020200 2.853100
-1.997900 2.892000
-1.975600 2.890700
-1.953400 2.884700
-1.931100 2.878700
-1.908800 2.872700
-1.886500 2.822800
-1.864200 3.956300
-1.841900 3.678200
-1.819600 2.035300
-1.797300 2.254500
-1.775000 2.575800
-1.752700 3.082900
-1.730400 3.292800
-1.708100 3.502700
-1.685800 4.046700
-1.663600 3.647000
-1.641300 3.436600
-1.619000 3.223900
-1.596700 2.781900
-1.574400 2.374800
-1.552100 2.303000
-1.529800 2.281900
-1.507500 2.260800
-1.485200 2.239700
-1.462900 2.024800
-1.440600 1.991600
-1.418300 1.958300
-1.396000 1.925100
-1.373700 1.889600
-1.351500 1.848200
-1.329200 1.820500
-1.306900 1.799100
-1.284600 1.777600
-1.262300 1.756100
-1.240000 1.734600
-1.217700 1.175700
-1.195400 0.482700
-1.173100 0.493200
-1.150800 0.503800
-1.128500 0.750500
-1.106200 2.537800
-1.083900 3.603200
-1.061600 3.169600
-1.039400 3.330200
-1.017100 3.609900
-0.994800 3.765400
-0.972500 3.878100
-0.950200 4.025200
-0.927900 3.975700
-0.905600 3.880600
-0.883300 3.783600
-0.861000 3.706200
-0.838700 3.748300
-0.816400 3.761000
-0.794100 3.728100
-0.771800 3.690100
-0.749500 3.086600
-0.727300 2.280200
-0.705000 2.406600
-0.682700 2.798500
-0.660400 3.210300
-0.638100 3.344600
-0.615800 3.452500
-0.593500 3.406400
-0.571200 4.278000
-0.548900 5.681400
-0.526600 5.383600
-0.504300 5.122300
-0.482000 4.926100
-0.459700 8.435700
-0.437400 4.260800
-0.415200 4.141600
-0.392900 2.605400
-0.370600 2.350700
-0.348300 1.850700
-0.326000 1.559600
-0.303700 2.294900
-0.281400 2.422600
-0.259100 3.031200
-0.236800 3.055100
-0.214500 3.140400
-0.192200 3.364700
-0.169900 4.168600
-0.147600 3.601400
-0.125300 5.276400
-0.103100 3.538200
-0.080800 3.663100
-0.058500 3.789400
-0.036200 3.926900
-0.013900 4.091300
0.008400 4.796600
0.030700 4.701300
0.053000 5.262600
0.075300 5.868100
0.097600 6.315900
0.119900 6.619400
0.142200 7.404900
0.164500 9.346200
0.186700 10.655200
0.209000 10.274500
0.231300 12.060500
0.253600 14.541000
0.275900 6.502200
0.298200 4.860600
0.320500 3.295100
0.342800 2.933000
0.365100 3.476500
0.387400 3.271400
0.409700 2.610600
0.432000 3.857800
0.454300 3.952500
0.476600 3.821900
0.498800 3.462000
0.521100 3.170800
0.543400 2.315300
0.565700 1.642400
0.588000 1.528100
0.610300 1.503500
0.632600 1.483500
0.654900 1.487000
0.677200 1.490900
0.699500 1.537700
0.721800 1.708200
0.744100 2.001600
0.766400 1.945100
0.788700 2.044300
0.810900 1.964800
0.833200 3.054600
0.855500 2.121800
0.877800 2.127500
0.900100 2.140700
0.922400 2.150900
0.944700 2.156100
0.967000 2.382100
0.989300 2.894200
1.011600 3.202600
1.033900 4.004400
1.056200 4.306500
1.078500 4.420300
1.100800 4.351300
1.123000 4.631700
1.145300 3.278900
1.167600 2.806000
1.189900 2.429800
1.212200 2.401400
1.234500 3.729000
1.256800 2.705800
1.279100 2.332200
1.301400 2.618900
1.323700 2.789800
1.346000 2.825200
1.368300 2.574000
1.390600 2.396900
1.412900 2.442100
1.435100 2.466400
1.457400 2.461800
1.479700 2.426700
1.502000 2.381600
1.524300 2.332500
1.546600 2.284100
1.568900 2.226100
1.591200 2.153700
1.613500 2.064900
1.635800 1.922100
1.658100 1.826600
1.680400 1.766200
1.702700 1.735600
1.724900 1.832400
1.747200 1.848000
1.769500 1.828400
1.791800 1.897100
1.814100 1.698100
1.836400 1.558500
1.858700 1.548100
1.881000 1.585300
1.903300 1.631600
1.925600 1.684500
1.947900 1.731300
1.970200 1.763300
1.992500 1.783700
2.014800 1.803700
2.037000 1.837400
2.059300 1.855600
2.081600 1.900700
2.103900 1.973100
2.126200 2.117800
2.148500 2.185000
2.170800 2.183800
2.193100 2.194300
2.215400 2.219100
2.237700 2.241300
2.260000 2.243900
2.282300 2.230400
2.304600 2.215000
2.326900 2.195200
2.349100 2.181100
2.371400 2.149300
2.393700 2.096200
2.416000 2.042200
2.438300 2.025100
2.460600 2.017300
2.482900 1.944600
2.505200 1.880900
2.527500 1.843600
2.549800 1.881300
2.572100 2.036400
2.594400 1.818000
2.616700 1.673600
2.639000 1.559900
2.661200 1.479200
2.683500 1.433400
2.705800 1.408800
2.728100 1.394500
2.750400 1.395500
2.772700 1.429600
2.795000 1.465200
2.817300 1.492100
2.839600 1.525500
2.861900 1.574400
2.884200 1.625400
2.906500 1.662400
2.928800 1.677900
2.951100 1.675100
2.973300 1.676100
2.995600 1.677900
3.017900 1.688600
3.040200 1.710300
3.062500 1.739200
3.084800 3.018700
3.107100 1.994700
3.129400 2.032900
3.151700 2.122600
3.174000 2.221800
3.196300 2.385200
3.218600 2.429600
3.240900 2.427000
3.263100 2.509400
3.285400 2.507400
3.307700 2.543200
3.330000 2.588000
3.352300 2.606900
3.374600 2.570700
3.396900 2.428600
3.419200 2.439200
3.441500 2.436200
3.463800 2.425500
3.486100 2.382400
3.508400 2.342900
3.530700 2.281100
3.553000 2.201600
3.575200 2.308800
3.597500 2.419800
3.619800 2.543100
3.642100 2.558400
3.664400 2.528700
3.686700 2.629300
3.709000 2.853200
3.731300 3.177600
3.753600 3.356900
3.775900 3.478900
3.798200 3.687800
3.820500 4.322300
3.842800 3.311700
3.865100 3.337400
3.887300 3.240900
3.909600 3.006200
3.931900 3.067300
3.954200 3.000300
3.976500 2.852400
3.998800 2.762500
4.021100 2.750400
4.043400 2.685100
4.065700 2.654100
4.088000 2.520100
4.110300 2.442800
4.132600 2.441500
4.154900 2.421700
4.177200 2.384800
4.199400 2.425200
4.221700 2.573200
4.244000 2.866100
4.266300 2.829000
4.288600 2.758900
4.310900 2.717400
4.333200 2.760600
4.355500 3.148400
4.377800 3.202300
4.400100 2.890400
4.422400 2.938200
4.444700 2.979700
4.467000 2.949800
4.489300 2.955400
4.511500 3.027900
4.533800 3.100400
4.556100 3.229900
4.578400 3.497600
4.600700 3.336600
4.623000 3.324900
4.645300 3.165700
4.667600 3.171700
4.689900 3.186500
4.712200 3.226000
4.734500 3.287400
4.756800 3.302100
4.779100 3.302900
4.801300 3.235300
4.823600 3.373400
4.845900 3.373700
4.868200 3.298500
4.890500 2.973400
4.912800 2.819500
4.935100 2.807500
4.957400 2.835100
4.979700 2.832400
5.002000 2.757400
5.024300 2.706800
5.046600 2.623700
5.068900 2.538900
5.091200 2.431100
5.113400 2.362600
5.135700 2.228500
5.158000 2.085800
5.180300 1.888400
5.202600 1.614100
5.224900 1.406000
5.247200 1.248700
5.269500 1.193000
5.291800 1.167200
5.314100 1.144800
5.336400 1.147700
5.358700 1.233800
5.381000 1.256700
5.403300 1.269800
5.425500 1.275700
5.447800 1.280800
5.470100 1.285900
5.492400 1.291000
5.514700 1.294800
5.537000 1.284000
5.559300 1.253000
5.581600 1.135900
5.603900 1.041500
5.626200 0.995400
5.648500 0.964500
5.670800 0.941300
5.693100 0.936600
5.715400 0.942300
5.737600 0.956000
5.759900 0.971400
5.782200 0.989000
5.804500 1.015100
5.826800 1.046100
5.849100 1.077200
5.871400 1.116000
5.893700 1.160100
5.916000 1.204100
5.938300 1.248200
5.960600 1.292200
5.982900 1.335700
6.005200 1.309600
6.027500 1.283500
6.049700 1.257300
6.072000 1.231200
6.094300 1.206200
6.116600 1.188100
6.138900 1.170000
6.161200 1.151900
6.183500 1.148500
6.205800 1.106800
6.228100 1.064900
6.250400 1.023000
6.272700 0.993600
6.295000 1.013500
6.317300 1.029500
6.339600 1.062200
6.361800 1.089200
6.384100 1.096500
6.406400 1.103700
6.428700 1.111000
6.451000 1.118300
6.473300 1.125500
6.495600 1.132800
6.517900 1.140000
6.540200 1.147400
6.562500 1.154900
6.584800 1.162500
6.607100 1.165800
6.629400 1.163500
6.651600 1.158600
6.673900 1.150400
6.696200 1.144600
6.718500 1.142400
6.740800 1.142300
6.763100 1.144600
6.785400 1.147700
6.807700 1.150900
6.830000 1.162700
6.852300 1.188900
6.874600 1.211000
6.896900 1.233100
6.919200 1.255200
6.941500 1.277300
6.963700 1.354300
6.986000 1.322700
7.008300 1.314900
7.030600 1.307100
7.052900 1.299300
7.075200 1.291500
7.097500 1.139300
7.119800 1.139500
7.142100 1.139700
7.164400 1.139900
7.186700 1.140100
7.209000 1.140200
7.231300 1.140400
7.253600 1.140600
7.275800 1.131200
7.298100 1.129200
7.320400 1.148700
7.342700 1.177500
7.365000 1.206100
7.387300 1.234700
7.409600 1.263200
7.431900 1.285300
7.454200 1.303000
7.476500 1.321800
7.498800 1.352500
7.521100 1.296900
7.543400 1.338800
7.565700 0.904000
7.587900 0.868300
7.610200 0.862400
7.632500 0.856500
7.654800 0.850900
7.677100 0.856200
7.699400 0.857800
7.721700 0.845900
7.744000 0.834500
7.766300 0.823600
7.788600 0.880900
7.810900 1.065700
7.833200 1.252000
7.855500 1.444400
7.877800 1.641900
7.900000 1.869500
7.922300 1.945300
7.944600 1.958500
7.966900 1.834300
7.989200 1.614600
8.011500 1.544500
8.033800 1.537300
8.056100 1.541400
8.078400 1.543800
8.100700 1.545800
8.123000 1.546500
8.145300 1.555200
8.167600 1.574300
8.189800 1.612400
8.212100 1.672000
8.234400 1.704400
8.256700 1.747800
8.279000 1.692500
8.301300 1.585600
8.323600 1.442500
8.345900 1.344100
8.368200 1.270900
8.390500 1.214500
8.412800 1.223000
8.435100 1.311300
8.457400 1.382300
8.479700 1.419900
8.501900 1.472200
8.524200 1.536600
8.546500 1.591000
8.568800 1.708100
8.591100 1.814800
8.613400 1.870900
8.635700 1.925800
8.658000 1.979600
8.680300 2.016700
8.702600 2.051400
8.724900 2.210000
8.747200 2.350900
8.769500 2.429800
8.791800 2.578000
8.814000 2.808300
8.836300 2.815000
8.858600 2.635000
8.880900 2.558600
8.903200 2.484000
8.925500 2.403800
8.947800 2.233900
8.970100 2.147700
8.992400 2.079700
9.014700 2.000000
9.037000 1.936900
9.059300 1.878000
9.081600 1.840700
9.103900 1.833700
9.126100 1.817100
9.148400 1.793700
9.170700 1.773400
9.193000 1.756400
9.215300 1.742400
9.237600 1.741900
9.259900 1.749500
9.282200 1.749800
9.304500 1.797800
9.326800 1.872400
9.349100 1.926000
9.371400 1.970300
9.393700 1.991300
9.416000 1.992700
9.438200 2.020900
9.460500 2.071000
9.482800 2.019600
9.505100 1.992000
9.527400 1.843700
9.549700 1.739800
9.572000 1.676700
9.594300 1.624600
9.616600 1.587000
9.638900 1.548400
9.661200 1.563400
9.683500 1.636400
9.705800 1.592700
9.728000 1.485000
9.750300 1.399700
9.772600 1.191400
9.794900 1.246700
9.817200 1.664900
9.839500 1.637300
9.861800 1.557100
9.884100 1.575100
9.906400 1.598900
9.928700 1.614600
9.951000 1.679900
9.973300 1.687400
9.995600 1.712600
10.017900 1.817600
10.040100 1.901800
10.062400 1.939900
10.084700 1.989600
10.107000 1.882400
10.129300 1.917400
10.151600 1.972400
10.173900 1.970100
10.196200 1.984100
10.218500 1.995500
10.240800 2.004000
10.263100 2.009500
10.285400 2.014200
10.307700 2.019900
10.330000 2.025800
10.352200 2.033800
10.374500 2.091800
10.396800 2.214700
10.419100 2.330000
10.441400 2.373300
10.463700 2.403000
10.486000 2.428800
10.508300 2.459500
10.530600 2.491900
10.552900 2.376600
10.575200 2.333800
10.597500 2.352900
10.619800 2.404500
10.642100 2.432800
10.664300 2.410000
10.686600 2.337200
10.708900 2.363400
10.731200 2.362400
10.753500 2.374600
10.775800 2.385100
10.798100 2.394400
10.820400 2.393500
10.842700 2.333700
10.865000 2.187500
10.887300 2.200000
10.909600 2.297400
10.931900 2.407700
10.954200 2.345200
10.976400 2.291700
10.998700 2.258400
11.021000 2.242600
11.043300 2.215700
11.065600 2.146100
11.087900 2.038600
11.110200 1.943200
11.132500 1.880100
11.154800 1.879200
11.177100 1.904000
11.199400 1.878000
11.221700 1.868900
11.244000 1.881600
11.266300 1.955300
11.288500 2.021100
11.310800 2.099900
11.333100 2.218800
11.355400 2.334200
11.377700 2.408800
11.400000 2.484400
11.422300 2.583900
11.444600 2.744800
11.466900 2.850300
11.489200 2.955300
11.511500 3.342200
11.533800 3.161100
11.556100 3.106000
11.578300 3.285600
11.600600 3.240600
11.622900 3.189600
11.645200 3.153300
11.667500 3.093500
11.689800 2.926500
11.712100 2.775800
11.734400 2.656600
11.756700 2.565300
11.779000 2.521100
11.801300 2.499200
11.823600 2.493000
11.845900 2.495100
11.868200 2.502700
11.890400 2.521800
11.912700 2.546500
