set title 'mp-1017579 - Density of States'
set xlabel 'Energy (eV)'
set ylabel 'DOS (states/eV)'
set grid
set xrange [-10:10]
set yrange [0:173.427]
set xzeroaxis lt -1
set terminal png size 800,600
set output 'mp-1017579_dos_gnuplot.png'
plot '-' using 1:2 with lines title 'DOS'
-10.844300 0.000000
-10.822400 0.000000
-10.800600 0.000000
-10.778800 0.000000
-10.757000 0.000000
-10.735200 0.000000
-10.713400 0.000000
-10.691600 0.000000
-10.669800 0.000000
-10.648000 0.000000
-10.626100 0.000000
-10.604300 0.000000
-10.582500 0.000000
-10.560700 0.000000
-10.538900 0.000000
-10.517100 0.000000
-10.495300 0.000000
-10.473500 0.000000
-10.451600 0.000000
-10.429800 0.000000
-10.408000 0.000000
-10.386200 0.000000
-10.364400 0.000000
-10.342600 0.000000
-10.320800 0.000000
-10.299000 0.000000
-10.277200 0.000000
-10.255300 0.000000
-10.233500 0.000000
-10.211700 0.000000
-10.189900 0.000000
-10.168100 0.000000
-10.146300 0.000000
-10.124500 0.000000
-10.102700 0.000000
-10.080800 0.000000
-10.059000 0.000000
-10.037200 0.000000
-10.015400 0.000000
-9.993600 0.000000
-9.971800 0.000000
-9.950000 0.000000
-9.928200 0.000000
-9.906400 0.000000
-9.884500 0.000000
-9.862700 0.000000
-9.840900 0.000000
-9.819100 0.000000
-9.797300 0.000000
-9.775500 0.000000
-9.753700 0.000000
-9.731900 0.000000
-9.710100 0.000000
-9.688200 0.000000
-9.666400 0.000000
-9.644600 0.000000
-9.622800 0.000000
-9.601000 0.000000
-9.579200 0.000000
-9.557400 0.000000
-9.535600 0.000000
-9.513700 0.000000
-9.491900 0.000000
-9.470100 0.000000
-9.448300 0.000000
-9.426500 0.000000
-9.404700 0.000000
-9.382900 0.000000
-9.361100 0.000000
-9.339300 0.000000
-9.317400 0.000000
-9.295600 0.000000
-9.273800 0.000000
-9.252000 0.000000
-9.230200 0.000000
-9.208400 0.000000
-9.186600 0.000000
-9.164800 0.000000
-9.142900 0.000000
-9.121100 0.000000
-9.099300 0.000000
-9.077500 0.000000
-9.055700 0.000000
-9.033900 0.000000
-9.012100 0.000000
-8.990300 0.000000
-8.968500 0.000000
-8.946600 0.000000
-8.924800 0.000000
-8.903000 0.000000
-8.881200 0.000000
-8.859400 3.264900
-8.837600 156.240000
-8.815800 58.608600
-8.794000 96.860100
-8.772100 91.103000
-8.750300 63.365700
-8.728500 103.387600
-8.706700 157.660900
-8.684900 23.211400
-8.663100 17.162000
-8.641300 14.659600
-8.619500 61.575200
-8.597700 0.000000
-8.575800 0.000000
-8.554000 0.000000
-8.532200 0.000000
-8.510400 0.000000
-8.488600 0.000000
-8.466800 0.000000
-8.445000 0.000000
-8.423200 0.000000
-8.401400 0.000000
-8.379500 0.000000
-8.357700 0.000000
-8.335900 0.000000
-8.314100 0.000000
-8.292300 0.000000
-8.270500 0.000000
-8.248700 0.000000
-8.226900 0.000000
-8.205000 0.000000
-8.183200 0.000000
-8.161400 0.000000
-8.139600 0.000000
-8.117800 0.000000
-8.096000 0.000000
-8.074200 0.000000
-8.052400 0.000000
-8.030600 0.000000
-8.008700 0.000000
-7.986900 0.000000
-7.965100 0.000000
-7.943300 0.000000
-7.921500 0.000000
-7.899700 0.000000
-7.877900 0.000000
-7.856100 0.000000
-7.834200 0.000000
-7.812400 0.000000
-7.790600 0.000000
-7.768800 0.000000
-7.747000 0.000000
-7.725200 0.000000
-7.703400 0.000000
-7.681600 0.000000
-7.659800 0.000000
-7.637900 0.000000
-7.616100 0.000000
-7.594300 0.000000
-7.572500 0.000000
-7.550700 0.000000
-7.528900 0.000000
-7.507100 0.000000
-7.485300 0.000000
-7.463400 0.000000
-7.441600 0.000000
-7.419800 0.000000
-7.398000 0.000000
-7.376200 0.000000
-7.354400 0.000000
-7.332600 0.000000
-7.310800 0.000000
-7.289000 0.000000
-7.267100 0.000000
-7.245300 0.000000
-7.223500 0.000000
-7.201700 0.000000
-7.179900 0.000000
-7.158100 0.000000
-7.136300 0.000000
-7.114500 0.000000
-7.092700 0.000000
-7.070800 0.000000
-7.049000 0.000000
-7.027200 0.000000
-7.005400 0.000000
-6.983600 0.000000
-6.961800 0.000000
-6.940000 0.000000
-6.918200 0.000000
-6.896300 0.000000
-6.874500 0.000000
-6.852700 0.000000
-6.830900 0.000000
-6.809100 0.000000
-6.787300 0.000000
-6.765500 0.000000
-6.743700 0.000000
-6.721900 0.000000
-6.700000 0.000000
-6.678200 0.000000
-6.656400 0.000000
-6.634600 0.000000
-6.612800 0.000000
-6.591000 0.000000
-6.569200 0.000000
-6.547400 0.000000
-6.525500 0.000000
-6.503700 0.000000
-6.481900 0.000000
-6.460100 0.000000
-6.438300 0.000000
-6.416500 0.000000
-6.394700 0.000000
-6.372900 0.000000
-6.351100 0.000000
-6.329200 0.000000
-6.307400 0.000000
-6.285600 0.000000
-6.263800 0.000000
-6.242000 0.000000
-6.220200 0.000000
-6.198400 0.000000
-6.176600 0.000000
-6.154800 0.000000
-6.132900 0.000000
-6.111100 0.000000
-6.089300 0.000000
-6.067500 0.000000
-6.045700 0.000000
-6.023900 0.000000
-6.002100 0.000000
-5.980300 0.000000
-5.958400 0.000000
-5.936600 0.000000
-5.914800 0.000000
-5.893000 0.000000
-5.871200 0.000000
-5.849400 0.000000
-5.827600 0.000000
-5.805800 0.000000
-5.784000 0.000000
-5.762100 0.000000
-5.740300 0.000000
-5.718500 0.000000
-5.696700 0.000000
-5.674900 0.000000
-5.653100 0.000000
-5.631300 0.000000
-5.609500 0.000000
-5.587600 0.000000
-5.565800 0.000000
-5.544000 0.000000
-5.522200 0.000000
-5.500400 0.000000
-5.478600 0.000000
-5.456800 0.000000
-5.435000 0.000000
-5.413200 0.000000
-5.391300 0.000000
-5.369500 0.000000
-5.347700 0.000000
-5.325900 0.000000
-5.304100 0.000000
-5.282300 0.000000
-5.260500 0.000000
-5.238700 0.000000
-5.216800 0.000000
-5.195000 0.000000
-5.173200 0.000000
-5.151400 0.000000
-5.129600 0.000000
-5.107800 0.000000
-5.086000 0.000000
-5.064200 0.000000
-5.042400 0.000000
-5.020500 0.000000
-4.998700 0.000000
-4.976900 0.000000
-4.955100 0.000000
-4.933300 0.000000
-4.911500 0.000000
-4.889700 0.000000
-4.867900 0.000000
-4.846100 0.000000
-4.824200 0.000000
-4.802400 0.000000
-4.780600 0.000000
-4.758800 0.000000
-4.737000 0.000000
-4.715200 0.000000
-4.693400 0.000000
-4.671600 0.000000
-4.649700 0.000000
-4.627900 0.000000
-4.606100 0.000000
-4.584300 0.000000
-4.562500 0.000000
-4.540700 0.000000
-4.518900 0.000000
-4.497100 0.000000
-4.475300 0.000000
-4.453400 0.000000
-4.431600 0.000000
-4.409800 0.000000
-4.388000 0.000000
-4.366200 0.000000
-4.344400 0.000000
-4.322600 0.000000
-4.300800 0.000000
-4.278900 0.000000
-4.257100 0.000000
-4.235300 0.000000
-4.213500 0.000000
-4.191700 0.000000
-4.169900 0.000000
-4.148100 0.000000
-4.126300 0.000000
-4.104500 0.000000
-4.082600 0.000000
-4.060800 0.000000
-4.039000 0.000000
-4.017200 0.000000
-3.995400 0.000000
-3.973600 0.000000
-3.951800 0.000000
-3.930000 0.000000
-3.908100 0.000000
-3.886300 0.000000
-3.864500 0.000000
-3.842700 0.000000
-3.820900 0.000000
-3.799100 0.000000
-3.777300 0.000000
-3.755500 0.000000
-3.733700 0.000000
-3.711800 0.000000
-3.690000 0.000000
-3.668200 0.000000
-3.646400 0.000000
-3.624600 0.000000
-3.602800 0.000000
-3.581000 0.000000
-3.559200 0.000000
-3.537400 0.002700
-3.515500 0.025300
-3.493700 0.071100
-3.471900 0.137200
-3.450100 0.183200
-3.428300 0.198600
-3.406500 0.200800
-3.384700 0.214300
-3.362900 0.236400
-3.341000 0.259200
-3.319200 0.282700
-3.297400 0.306900
-3.275600 0.328500
-3.253800 0.343500
-3.232000 0.352000
-3.210200 0.356900
-3.188400 0.366300
-3.166600 0.377600
-3.144700 0.390700
-3.122900 0.404500
-3.101100 0.418200
-3.079300 0.431900
-3.057500 0.445700
-3.035700 0.459600
-3.013900 0.474000
-2.992100 0.489000
-2.970200 0.503900
-2.948400 0.514500
-2.926600 0.523700
-2.904800 0.532800
-2.883000 0.544200
-2.861200 0.555400
-2.839400 0.566500
-2.817600 0.577400
-2.795800 0.588400
-2.773900 0.599600
-2.752100 0.611100
-2.730300 0.623000
-2.708500 0.635400
-2.686700 0.648100
-2.664900 0.661000
-2.643100 0.674000
-2.621300 0.708900
-2.599500 0.748100
-2.577600 0.783500
-2.555800 0.814700
-2.534000 0.769700
-2.512200 0.776900
-2.490400 0.784000
-2.468600 0.791300
-2.446800 0.798500
-2.425000 0.805600
-2.403100 0.812600
-2.381300 0.819400
-2.359500 0.823000
-2.337700 0.825600
-2.315900 0.828600
-2.294100 0.832300
-2.272300 0.839200
-2.250500 0.847000
-2.228700 0.854900
-2.206800 0.862800
-2.185000 0.870800
-2.163200 0.878800
-2.141400 0.886900
-2.119600 0.895000
-2.097800 0.905600
-2.076000 0.917600
-2.054200 0.930200
-2.032300 0.941000
-2.010500 0.954800
-1.988700 0.969900
-1.966900 0.987800
-1.945100 1.008500
-1.923300 1.031100
-1.901500 1.055200
-1.879700 1.080500
-1.857900 1.125700
-1.836000 1.237100
-1.814200 1.391800
-1.792400 1.404800
-1.770600 1.466600
-1.748800 1.484800
-1.727000 1.494800
-1.705200 1.497800
-1.683400 1.528500
-1.661500 1.680000
-1.639700 1.678200
-1.617900 1.549300
-1.596100 1.544900
-1.574300 1.539200
-1.552500 1.534200
-1.530700 1.530400
-1.508900 1.527900
-1.487100 1.518600
-1.465200 1.483800
-1.443400 1.472500
-1.421600 1.460000
-1.399800 1.490400
-1.378000 1.448600
-1.356200 1.377500
-1.334400 1.366200
-1.312600 1.356800
-1.290800 1.349100
-1.268900 1.346700
-1.247100 1.361700
-1.225300 1.376200
-1.203500 1.371100
-1.181700 1.379400
-1.159900 1.531900
-1.138100 1.653000
-1.116300 1.659400
-1.094400 1.640400
-1.072600 1.647300
-1.050800 1.702100
-1.029000 2.068900
-1.007200 2.438600
-0.985400 2.693500
-0.963600 2.767600
-0.941800 2.844300
-0.920000 2.973700
-0.898100 3.125400
-0.876300 3.354100
-0.854500 3.607000
-0.832700 3.973100
-0.810900 4.503800
-0.789100 5.313600
-0.767300 6.299000
-0.745500 7.675400
-0.723600 7.787800
-0.701800 5.285700
-0.680000 4.017700
-0.658200 2.756900
-0.636400 2.002100
-0.614600 1.652200
-0.592800 1.496000
-0.571000 0.401700
-0.549200 0.203400
-0.527300 0.060600
-0.505500 0.000000
-0.483700 0.000000
-0.461900 0.000000
-0.440100 0.000000
-0.418300 0.007900
-0.396500 0.045000
-0.374700 0.112700
-0.352800 0.211200
-0.331000 0.374400
-0.309200 0.773300
-0.287400 1.357700
-0.265600 1.776300
-0.243800 1.966500
-0.222000 2.275400
-0.200200 2.711300
-0.178400 3.607500
-0.156500 4.122500
-0.134700 5.414900
-0.112900 5.112400
-0.091100 4.850100
-0.069300 4.791700
-0.047500 4.857300
-0.025700 5.323400
-0.003900 6.380600
0.017900 7.389600
0.039800 7.613200
0.061600 6.687200
0.083400 6.538500
0.105200 6.405800
0.127000 5.116300
0.148800 5.009500
0.170600 5.004700
0.192400 4.943900
0.214300 4.916900
0.236100 5.219200
0.257900 5.522200
0.279700 6.127900
0.301500 7.005900
0.323300 8.053100
0.345100 8.480500
0.366900 7.698300
0.388700 6.516000
0.410600 6.429600
0.432400 5.977500
0.454200 6.423100
0.476000 9.126600
0.497800 12.141900
0.519600 13.469100
0.541400 13.917400
0.563200 12.472200
0.585100 10.941000
0.606900 9.880400
0.628700 11.451000
0.650500 12.520800
0.672300 11.673400
0.694100 11.788300
0.715900 11.270000
0.737700 11.503900
0.759500 12.435100
0.781400 11.644200
0.803200 10.430800
0.825000 10.229500
0.846800 12.068500
0.868600 14.455900
0.890400 11.287000
0.912200 9.473600
0.934000 10.135700
0.955800 13.431700
0.977700 17.571900
0.999500 18.876800
1.021300 13.958100
1.043100 12.455300
1.064900 14.172800
1.086700 13.547700
1.108500 12.207600
1.130300 10.724700
1.152200 10.709500
1.174000 10.097800
1.195800 9.510400
1.217600 9.727800
1.239400 9.163500
1.261200 9.253700
1.283000 9.256600
1.304800 9.199400
1.326600 9.298500
1.348500 10.579500
1.370300 10.563200
1.392100 10.011700
1.413900 8.215400
1.435700 9.677100
1.457500 8.886400
1.479300 8.569200
1.501100 8.609300
1.523000 9.184000
1.544800 9.656100
1.566600 8.814200
1.588400 8.705500
1.610200 7.766600
1.632000 8.170000
1.653800 9.095900
1.675600 9.012400
1.697400 8.771400
1.719300 8.514200
1.741100 9.604300
1.762900 9.539600
1.784700 9.710500
1.806500 9.275500
1.828300 8.712100
1.850100 9.394500
1.871900 11.372600
1.893800 13.634000
1.915600 4.334700
1.937400 3.884300
1.959200 4.224100
1.981000 6.326800
2.002800 7.446600
2.024600 8.428700
2.046400 9.454700
2.068200 9.140100
2.090100 7.302200
2.111900 5.381500
2.133700 4.405100
2.155500 3.874400
2.177300 3.557600
2.199100 4.902500
2.220900 6.191500
2.242700 8.221900
2.264500 8.879800
2.286400 11.129600
2.308200 11.173400
2.330000 9.212000
2.351800 8.287800
2.373600 9.314400
2.395400 9.762000
2.417200 9.102300
2.439000 8.732200
2.460900 16.115200
2.482700 16.907000
2.504500 14.295900
2.526300 14.076200
2.548100 19.984700
2.569900 16.392900
2.591700 16.126700
2.613500 19.946000
2.635300 15.514300
2.657200 10.244900
2.679000 7.976800
2.700800 9.090800
2.722600 12.842800
2.744400 10.279500
2.766200 9.927500
2.788000 10.404700
2.809800 9.834600
2.831700 10.846800
2.853500 8.428700
2.875300 5.700000
2.897100 3.977000
2.918900 3.086100
2.940700 2.289500
2.962500 1.956200
2.984300 1.700000
3.006100 1.562300
3.028000 1.489100
3.049800 1.454200
3.071600 1.489900
3.093400 1.540200
3.115200 1.557300
3.137000 1.554700
3.158800 1.557900
3.180600 1.560900
3.202500 1.565800
3.224300 1.579200
3.246100 1.601700
3.267900 1.610900
3.289700 1.642500
3.311500 1.690500
3.333300 1.814800
3.355100 1.981000
3.376900 2.116400
3.398800 2.198600
3.420600 2.251400
3.442400 2.292200
3.464200 2.331200
3.486000 2.373400
3.507800 2.461600
3.529600 2.233900
3.551400 2.027200
3.573200 1.929300
3.595100 1.787300
3.616900 1.724600
3.638700 1.783000
3.660500 1.910800
3.682300 2.324800
3.704100 2.197800
3.725900 2.237900
3.747700 2.279400
3.769600 2.331900
3.791400 2.304200
3.813200 2.289100
3.835000 2.242200
3.856800 2.225500
3.878600 2.203300
3.900400 2.195200
3.922200 2.222000
3.944000 2.192200
3.965900 2.159100
3.987700 2.122800
4.009500 2.083200
4.031300 2.053500
4.053100 2.028800
4.074900 1.996900
4.096700 1.970600
4.118500 1.945800
4.140400 1.925200
4.162200 1.916400
4.184000 1.912600
4.205800 1.896100
4.227600 1.864000
4.249400 1.850700
4.271200 1.853300
4.293000 1.856200
4.314800 1.829900
4.336700 1.821300
4.358500 1.828400
4.380300 1.840700
4.402100 1.853600
4.423900 1.865800
4.445700 1.883100
4.467500 1.901200
4.489300 1.933700
4.511200 1.956400
4.533000 1.965600
4.554800 1.961800
4.576600 1.919700
4.598400 1.896700
4.620200 1.866700
4.642000 1.827700
4.663800 1.814400
4.685600 1.820400
4.707500 1.745700
4.729300 1.709800
4.751100 1.684300
4.772900 1.666400
4.794700 1.656600
4.816500 1.659900
4.838300 1.669000
4.860100 1.673800
4.881900 1.724100
4.903800 1.779100
4.925600 1.823700
4.947400 1.859700
4.969200 1.897000
4.991000 1.928500
5.012800 1.952500
5.034600 1.971300
5.056400 1.978500
5.078300 1.972200
5.100100 1.957300
5.121900 1.946500
5.143700 1.936400
5.165500 1.930000
5.187300 1.918600
5.209100 1.903500
5.230900 1.891400
5.252700 1.881900
5.274600 1.893500
5.296400 1.938200
5.318200 1.927900
5.340000 1.913500
5.361800 1.896100
5.383600 1.879200
5.405400 1.899900
5.427200 1.819800
5.449100 1.804900
5.470900 1.800200
5.492700 1.782300
5.514500 1.753300
5.536300 1.726100
5.558100 1.694500
5.579900 1.662400
5.601700 1.641100
5.623500 1.622200
5.645400 1.600200
5.667200 1.572300
5.689000 1.547100
5.710800 1.519100
5.732600 1.460700
5.754400 1.418200
5.776200 1.393300
5.798000 1.363900
5.819800 1.336300
5.841700 1.313000
5.863500 1.295600
5.885300 1.283700
5.907100 1.279600
5.928900 1.282500
5.950700 1.291900
5.972500 1.301100
5.994300 1.305600
6.016200 1.310100
6.038000 1.313000
6.059800 1.314500
6.081600 1.314400
6.103400 1.313500
6.125200 1.313200
6.147000 1.313400
6.168800 1.314300
6.190600 1.313200
6.212500 1.311500
6.234300 1.313500
6.256100 1.318900
6.277900 1.327000
6.299700 1.336100
6.321500 1.345900
6.343300 1.378400
6.365100 1.419500
6.387000 1.445200
6.408800 1.461500
6.430600 1.476100
6.452400 1.496100
6.474200 1.521700
6.496000 1.574900
6.517800 1.628300
6.539600 1.686300
6.561400 1.747100
6.583300 1.807100
6.605100 1.863500
6.626900 1.885200
6.648700 1.899400
6.670500 1.920700
6.692300 1.949300
6.714100 1.983800
6.735900 2.010400
6.757800 2.031100
6.779600 2.039400
6.801400 2.039800
6.823200 2.024000
6.845000 2.014100
6.866800 1.991500
6.888600 1.953600
6.910400 1.918100
6.932200 1.878700
6.954100 1.830400
6.975900 1.779400
6.997700 1.744500
7.019500 1.720100
7.041300 1.697300
7.063100 1.681500
7.084900 1.668200
7.106700 1.656400
7.128500 1.648700
7.150400 1.645900
7.172200 1.652700
7.194000 1.664200
7.215800 1.679700
7.237600 1.700400
7.259400 1.718300
7.281200 1.741600
7.303000 1.764900
7.324900 1.792300
7.346700 1.807300
7.368500 1.814400
7.390300 1.805300
7.412100 1.787100
7.433900 1.761800
7.455700 1.741500
7.477500 1.726700
7.499300 1.706200
7.521200 1.693000
7.543000 1.687200
7.564800 1.685200
7.586600 1.690100
7.608400 1.721500
7.630200 1.753300
7.652000 1.701800
7.673800 1.639600
7.695700 1.579600
7.717500 1.527200
7.739300 1.483000
7.761100 1.442000
7.782900 1.425700
7.804700 1.431900
7.826500 1.452100
7.848300 1.486000
7.870100 1.522800
7.892000 1.568500
7.913800 1.630900
7.935600 1.694500
7.957400 1.763300
7.979200 1.875700
8.001000 2.014700
8.022800 2.156800
8.044600 2.317500
8.066500 2.379900
8.088300 2.385200
8.110100 2.392900
8.131900 2.382400
8.153700 2.358800
8.175500 2.330000
8.197300 2.303000
8.219100 2.271100
8.240900 2.228100
8.262800 2.176200
8.284600 2.133100
8.306400 2.070800
8.328200 2.018200
8.350000 1.994000
8.371800 1.987900
8.393600 1.997400
8.415400 2.015600
8.437200 2.049500
8.459100 2.101200
8.480900 2.153200
8.502700 2.195200
8.524500 2.216300
8.546300 2.198400
8.568100 2.178000
8.589900 2.161200
8.611700 2.143900
8.633600 2.148300
8.655400 2.213300
8.677200 2.336200
8.699000 2.472700
8.720800 2.304100
8.742600 2.078100
8.764400 2.014100
8.786200 1.982900
8.808000 1.950800
8.829900 1.908300
8.851700 1.909400
8.873500 1.918600
8.895300 1.968600
8.917100 2.146600
8.938900 2.162400
8.960700 2.163300
8.982500 2.189100
9.004400 2.217500
9.026200 2.242700
9.048000 2.285200
9.069800 2.297200
9.091600 2.286600
9.113400 2.261100
9.135200 2.205900
9.157000 2.222300
9.178800 2.270700
9.200700 2.294400
9.222500 2.227700
9.244300 2.212800
9.266100 2.210500
9.287900 2.204800
9.309700 2.208500
9.331500 2.185500
9.353300 2.153900
9.375100 2.128700
9.397000 2.108700
9.418800 2.093600
9.440600 2.090500
9.462400 2.085300
9.484200 2.067900
9.506000 2.031900
9.527800 1.969800
9.549600 1.922300
9.571500 1.877300
9.593300 1.867400
9.615100 1.874700
9.636900 1.919600
9.658700 1.970100
9.680500 1.970800
9.702300 1.974400
9.724100 1.974900
9.745900 1.979200
9.767800 2.001400
9.789600 2.039400
9.811400 2.073300
9.833200 2.112000
9.855000 2.156800
9.876800 2.208100
9.898600 2.247000
9.920400 2.262100
9.942300 2.307900
9.964100 2.362500
9.985900 2.410200
10.007700 2.440600
10.029500 2.468300
10.051300 2.492600
10.073100 2.520900
10.094900 2.571300
10.116700 2.849100
10.138600 2.847900
10.160400 2.840000
10.182200 2.832900
10.204000 2.830300
10.225800 2.780400
10.247600 2.721300
10.269400 2.676200
10.291200 2.601500
10.313100 2.484000
10.334900 2.446100
10.356700 2.477500
10.378500 2.502200
10.400300 2.529000
10.422100 2.586800
10.443900 2.653900
10.465700 2.738100
10.487500 2.848100
10.509400 3.001900
10.531200 3.256700
10.553000 3.254300
10.574800 3.151800
10.596600 3.069400
10.618400 3.024500
10.640200 2.978100
10.662000 2.988500
10.683800 2.980700
10.705700 2.848900
10.727500 2.706800
10.749300 2.544000
10.771100 2.386900
10.792900 2.240100
10.814700 2.123700
10.836500 2.038400
10.858300 1.975300
10.880200 1.929600
10.902000 1.900500
10.923800 1.852100
10.945600 1.836700
10.967400 1.817800
10.989200 1.793800
11.011000 1.783800
11.032800 1.806800
11.054600 1.820400
11.076500 1.824900
11.098300 1.835200
11.120100 1.867300
11.141900 1.932000
11.163700 2.004200
11.185500 2.012900
11.207300 1.965900
11.229100 1.967100
11.251000 1.972100
11.272800 1.979700
11.294600 1.986700
11.316400 1.985300
11.338200 1.988200
11.360000 1.978300
11.381800 1.944400
11.403600 1.925500
11.425400 1.898200
11.447300 1.888300
11.469100 1.891800
11.490900 1.910400
11.512700 1.938100
11.534500 1.982000
11.556300 2.013100
11.578100 2.086400
11.599900 2.124900
11.621800 2.143000
11.643600 2.152600
11.665400 2.151900
11.687200 2.177300
11.709000 2.241900
11.730800 2.308100
11.752600 2.371300
11.774400 2.499200
11.796200 2.367100
11.818100 2.312700
11.839900 2.275200
11.861700 2.231800
11.883500 2.193400
11.905300 2.198200
11.927100 2.188400
11.948900 2.156600
11.970700 2.116500
11.992500 2.074800
12.014400 2.030600
12.036200 1.985900
12.058000 1.942000
12.079800 1.910300
12.101600 1.894900
12.123400 1.900800
12.145200 1.931100
12.167000 1.969300
