set title 'mp-1387852 - Density of States'
set xlabel 'Energy (eV)'
set ylabel 'DOS (states/eV)'
set grid
set xrange [-10:10]
set yrange [0:9.464]
set xzeroaxis lt -1
set terminal png size 800,600
set output 'mp-1387852_dos_gnuplot.png'
plot '-' using 1:2 with lines title 'DOS'
-14.923500 0.000000
-14.894900 0.000000
-14.866400 0.000000
-14.837800 0.000000
-14.809200 0.000000
-14.780600 0.000000
-14.752000 0.000000
-14.723400 0.000000
-14.694800 0.000000
-14.666200 0.000000
-14.637700 0.000000
-14.609100 0.000000
-14.580500 0.000000
-14.551900 0.000000
-14.523300 0.000000
-14.494700 0.000000
-14.466100 0.000000
-14.437500 0.000000
-14.409000 0.000000
-14.380400 0.000000
-14.351800 0.000000
-14.323200 0.000000
-14.294600 0.000000
-14.266000 0.000000
-14.237400 0.000000
-14.208800 0.000000
-14.180200 0.000000
-14.151700 0.000000
-14.123100 0.000000
-14.094500 0.000000
-14.065900 0.000000
-14.037300 0.000000
-14.008700 0.000000
-13.980100 0.000000
-13.951500 0.000000
-13.923000 0.000000
-13.894400 0.000000
-13.865800 0.000000
-13.837200 0.000000
-13.808600 0.000000
-13.780000 0.000000
-13.751400 0.000000
-13.722800 0.000000
-13.694200 0.000000
-13.665700 0.000000
-13.637100 0.000000
-13.608500 0.000000
-13.579900 0.000000
-13.551300 0.000000
-13.522700 0.000000
-13.494100 0.000000
-13.465500 0.000000
-13.437000 0.000000
-13.408400 0.000000
-13.379800 0.000000
-13.351200 0.000000
-13.322600 0.000000
-13.294000 0.000000
-13.265400 0.000000
-13.236800 0.000000
-13.208200 0.000000
-13.179700 0.000000
-13.151100 0.000000
-13.122500 0.000000
-13.093900 0.000000
-13.065300 0.000000
-13.036700 0.000000
-13.008100 0.000000
-12.979500 0.000000
-12.951000 0.000000
-12.922400 0.000000
-12.893800 0.000000
-12.865200 0.000000
-12.836600 0.000000
-12.808000 0.000000
-12.779400 0.000000
-12.750800 0.000000
-12.722300 0.000000
-12.693700 0.000000
-12.665100 0.000000
-12.636500 0.000000
-12.607900 0.000000
-12.579300 0.000000
-12.550700 0.000000
-12.522100 0.000000
-12.493500 0.000000
-12.465000 0.000000
-12.436400 0.000000
-12.407800 0.000000
-12.379200 0.000000
-12.350600 0.000000
-12.322000 0.002600
-12.293400 0.111500
-12.264800 0.231400
-12.236300 0.351300
-12.207700 0.218100
-12.179100 0.228800
-12.150500 0.239500
-12.121900 0.250300
-12.093300 0.261000
-12.064700 0.271700
-12.036100 0.282400
-12.007500 0.280200
-11.979000 0.269900
-11.950400 0.259500
-11.921800 0.253100
-11.893200 0.257600
-11.864600 0.262000
-11.836000 0.266500
-11.807400 0.270900
-11.778800 0.275400
-11.750300 0.279800
-11.721700 0.284300
-11.693100 0.288700
-11.664500 0.293200
-11.635900 0.281000
-11.607300 0.282200
-11.578700 0.283400
-11.550100 0.284600
-11.521500 0.285800
-11.493000 0.287000
-11.464400 0.288900
-11.435800 0.292100
-11.407200 0.295200
-11.378600 0.298400
-11.350000 0.301500
-11.321400 0.304700
-11.292800 0.307800
-11.264300 0.311000
-11.235700 0.314100
-11.207100 0.316500
-11.178500 0.318200
-11.149900 0.319800
-11.121300 0.322700
-11.092700 0.326100
-11.064100 0.329400
-11.035600 0.332700
-11.007000 0.336100
-10.978400 0.339400
-10.949800 0.342800
-10.921200 0.346100
-10.892600 0.349700
-10.864000 0.353400
-10.835400 0.357100
-10.806800 0.360700
-10.778300 0.364400
-10.749700 0.368100
-10.721100 0.371700
-10.692500 0.385800
-10.663900 0.394400
-10.635300 0.403000
-10.606700 0.411700
-10.578100 0.420300
-10.549600 0.428500
-10.521000 0.436600
-10.492400 0.444700
-10.463800 0.452900
-10.435200 0.523100
-10.406600 0.898900
-10.378000 1.007000
-10.349400 0.942600
-10.320800 0.996400
-10.292300 1.050100
-10.263700 1.067000
-10.235100 1.062400
-10.206500 1.132500
-10.177900 1.212400
-10.149300 1.286900
-10.120700 1.361400
-10.092100 1.521800
-10.063600 1.895500
-10.035000 1.618700
-10.006400 1.348700
-9.977800 1.297400
-9.949200 1.269300
-9.920600 1.243800
-9.892000 1.395100
-9.863400 2.039100
-9.834800 1.541100
-9.806300 2.105500
-9.777700 2.791900
-9.749100 7.023900
-9.720500 3.119300
-9.691900 2.536600
-9.663300 2.584100
-9.634700 4.869100
-9.606100 0.000000
-9.577600 0.000000
-9.549000 0.000000
-9.520400 0.000000
-9.491800 0.000000
-9.463200 0.000000
-9.434600 0.000000
-9.406000 0.000000
-9.377400 0.000000
-9.348800 0.000000
-9.320300 0.000000
-9.291700 0.000000
-9.263100 0.000000
-9.234500 0.000000
-9.205900 0.000000
-9.177300 0.000000
-9.148700 0.000000
-9.120100 0.000000
-9.091600 0.000000
-9.063000 0.000000
-9.034400 0.000000
-9.005800 0.000000
-8.977200 0.000000
-8.948600 0.000000
-8.920000 0.000000
-8.891400 0.000000
-8.862900 0.000000
-8.834300 0.000000
-8.805700 0.000000
-8.777100 0.000000
-8.748500 0.000000
-8.719900 0.000000
-8.691300 0.000000
-8.662700 0.000000
-8.634100 0.000000
-8.605600 0.000000
-8.577000 0.000000
-8.548400 0.000000
-8.519800 0.000000
-8.491200 0.000000
-8.462600 0.000000
-8.434000 0.000000
-8.405400 0.000000
-8.376900 0.000000
-8.348300 0.000000
-8.319700 0.000000
-8.291100 0.000000
-8.262500 0.000000
-8.233900 0.000000
-8.205300 0.000000
-8.176700 0.000000
-8.148100 0.000000
-8.119600 0.000000
-8.091000 0.000000
-8.062400 0.000000
-8.033800 0.000000
-8.005200 0.000000
-7.976600 0.000000
-7.948000 0.000000
-7.919400 0.000000
-7.890900 0.000000
-7.862300 0.000000
-7.833700 0.000000
-7.805100 0.000000
-7.776500 0.000000
-7.747900 0.000000
-7.719300 0.000000
-7.690700 0.000000
-7.662100 0.000000
-7.633600 0.000000
-7.605000 0.000000
-7.576400 0.000000
-7.547800 0.000000
-7.519200 0.000000
-7.490600 0.000000
-7.462000 0.000000
-7.433400 0.000000
-7.404900 0.000000
-7.376300 0.000000
-7.347700 0.000000
-7.319100 0.000000
-7.290500 0.000000
-7.261900 0.000000
-7.233300 0.000000
-7.204700 0.000000
-7.176200 0.000000
-7.147600 0.000000
-7.119000 0.000000
-7.090400 0.000000
-7.061800 0.000000
-7.033200 0.000000
-7.004600 0.000000
-6.976000 0.000000
-6.947400 0.000000
-6.918900 0.000000
-6.890300 0.000000
-6.861700 0.000000
-6.833100 0.000000
-6.804500 0.000000
-6.775900 0.000000
-6.747300 0.000000
-6.718700 0.000000
-6.690200 0.000000
-6.661600 0.000000
-6.633000 0.000000
-6.604400 0.000000
-6.575800 0.000000
-6.547200 0.000000
-6.518600 0.000000
-6.490000 0.000000
-6.461400 0.000000
-6.432900 0.000000
-6.404300 0.000000
-6.375700 0.000000
-6.347100 0.000000
-6.318500 0.000000
-6.289900 0.000000
-6.261300 0.000000
-6.232700 0.000000
-6.204200 0.000000
-6.175600 0.000000
-6.147000 0.000000
-6.118400 0.000000
-6.089800 0.000000
-6.061200 0.000000
-6.032600 0.000000
-6.004000 0.000000
-5.975400 0.000000
-5.946900 0.000000
-5.918300 0.000000
-5.889700 0.000000
-5.861100 0.000000
-5.832500 0.000000
-5.803900 0.000000
-5.775300 0.000000
-5.746700 0.000000
-5.718200 0.000000
-5.689600 0.000000
-5.661000 0.000000
-5.632400 0.000000
-5.603800 0.000000
-5.575200 0.000000
-5.546600 0.000000
-5.518000 0.000000
-5.489500 0.000000
-5.460900 0.000000
-5.432300 0.000000
-5.403700 0.000000
-5.375100 0.000000
-5.346500 0.000000
-5.317900 0.000000
-5.289300 0.000000
-5.260700 0.000000
-5.232200 0.000000
-5.203600 0.000000
-5.175000 0.000000
-5.146400 0.000000
-5.117800 0.000000
-5.089200 0.000000
-5.060600 0.000000
-5.032000 0.000000
-5.003500 0.000000
-4.974900 0.000000
-4.946300 0.000000
-4.917700 0.000000
-4.889100 0.000000
-4.860500 0.000000
-4.831900 0.000000
-4.803300 0.000000
-4.774700 0.000000
-4.746200 0.000000
-4.717600 0.000000
-4.689000 0.000000
-4.660400 0.000000
-4.631800 0.000000
-4.603200 0.000000
-4.574600 0.000000
-4.546000 0.000000
-4.517500 0.000000
-4.488900 0.000000
-4.460300 0.000000
-4.431700 0.000000
-4.403100 0.000000
-4.374500 0.000000
-4.345900 0.000000
-4.317300 0.000000
-4.288700 0.000000
-4.260200 0.000000
-4.231600 0.000000
-4.203000 0.000000
-4.174400 0.000000
-4.145800 0.000000
-4.117200 0.000000
-4.088600 0.000000
-4.060000 0.000000
-4.031500 0.000000
-4.002900 0.000000
-3.974300 0.000000
-3.945700 0.000000
-3.917100 0.000000
-3.888500 0.000000
-3.859900 0.028800
-3.831300 0.126900
-3.802800 0.224900
-3.774200 0.322900
-3.745600 0.420900
-3.717000 0.519000
-3.688400 0.517300
-3.659800 0.490600
-3.631200 0.463800
-3.602600 0.437100
-3.574000 0.410400
-3.545500 0.404400
-3.516900 0.419000
-3.488300 0.433600
-3.459700 0.448200
-3.431100 0.462800
-3.402500 0.477300
-3.373900 0.491900
-3.345300 0.506500
-3.316800 0.521100
-3.288200 0.535700
-3.259600 0.544600
-3.231000 0.548800
-3.202400 0.553100
-3.173800 0.557600
-3.145200 0.567400
-3.116600 0.835400
-3.088000 0.798200
-3.059500 0.760900
-3.030900 0.723700
-3.002300 0.686500
-2.973700 0.649300
-2.945100 0.612000
-2.916500 0.574800
-2.887900 0.553100
-2.859300 0.556900
-2.830800 0.576500
-2.802200 0.572900
-2.773600 0.612700
-2.745000 0.736000
-2.716400 0.858100
-2.687800 0.781700
-2.659200 0.735300
-2.630600 1.004600
-2.602000 1.279500
-2.573500 3.228800
-2.544900 1.976300
-2.516300 2.030500
-2.487700 8.603700
-2.459100 2.252200
-2.430500 2.064000
-2.401900 1.953200
-2.373300 1.909400
-2.344800 1.875500
-2.316200 1.866600
-2.287600 1.810000
-2.259000 1.371500
-2.230400 1.042100
-2.201800 0.874500
-2.173200 0.756400
-2.144600 0.656800
-2.116000 0.608000
-2.087500 0.783900
-2.058900 1.141200
-2.030300 1.938400
-2.001700 2.007100
-1.973100 1.875200
-1.944500 1.505100
-1.915900 1.024900
-1.887300 0.724900
-1.858800 0.506400
-1.830200 0.465200
-1.801600 0.448100
-1.773000 0.437800
-1.744400 0.432500
-1.715800 0.427300
-1.687200 0.422200
-1.658600 0.417500
-1.630100 0.415000
-1.601500 0.413000
-1.572900 0.415700
-1.544300 0.436200
-1.515700 0.456700
-1.487100 0.477100
-1.458500 0.503600
-1.429900 0.797600
-1.401300 1.274600
-1.372800 1.820900
-1.344200 1.914400
-1.315600 1.968300
-1.287000 2.283000
-1.258400 2.211700
-1.229800 2.015500
-1.201200 1.865300
-1.172600 2.431500
-1.144100 2.367300
-1.115500 4.849300
-1.086900 2.222200
-1.058300 3.940700
-1.029700 3.153300
-1.001100 8.551300
-0.972500 5.184200
-0.943900 3.726100
-0.915300 3.304700
-0.886800 1.198400
-0.858200 0.572000
-0.829600 0.339100
-0.801000 0.300200
-0.772400 0.334200
-0.743800 0.398200
-0.715200 0.515600
-0.686600 0.651900
-0.658100 0.788500
-0.629500 0.925200
-0.600900 1.062100
-0.572300 0.991000
-0.543700 0.946200
-0.515100 0.999500
-0.486500 1.151600
-0.457900 1.637800
-0.429300 2.023600
-0.400800 0.910200
-0.372200 0.683700
-0.343600 0.599100
-0.315000 0.620900
-0.286400 0.675600
-0.257800 0.730200
-0.229200 0.784800
-0.200600 0.839500
-0.172100 0.894000
-0.143500 0.948600
-0.114900 0.986900
-0.086300 0.994900
-0.057700 0.994800
-0.029100 1.013300
-0.000500 1.066100
0.028100 1.176100
0.056600 1.241900
0.085200 1.345200
0.113800 1.408900
0.142400 1.472900
0.171000 1.632600
0.199600 1.708900
0.228200 1.785200
0.256800 1.861400
0.285400 1.929200
0.313900 1.944900
0.342500 1.900200
0.371100 1.544700
0.399700 1.383500
0.428300 1.321900
0.456900 1.305600
0.485500 1.358400
0.514100 1.412100
0.542600 1.428600
0.571200 1.336300
0.599800 1.230700
0.628400 1.114400
0.657000 1.074400
0.685600 0.902700
0.714200 1.055700
0.742800 0.807100
0.771400 0.568000
0.799900 0.470900
0.828500 0.487000
0.857100 0.494900
0.885700 0.501400
0.914300 0.507800
0.942900 0.522700
0.971500 0.644900
1.000100 0.855600
1.028600 1.032000
1.057200 1.321300
1.085800 1.864600
1.114400 2.065000
1.143000 2.253200
1.171600 3.059100
1.200200 2.841900
1.228800 4.135100
1.257400 3.765500
1.285900 3.981300
1.314500 3.209500
1.343100 2.376100
1.371700 2.191000
1.400300 2.051400
1.428900 1.574300
1.457500 1.521100
1.486100 2.227100
1.514600 2.575700
1.543200 2.738500
1.571800 2.534600
1.600400 2.396300
1.629000 2.343200
1.657600 2.079800
1.686200 2.133200
1.714800 2.229900
1.743300 2.340300
1.771900 2.365700
1.800500 2.092700
1.829100 1.959400
1.857700 1.995900
1.886300 2.050000
1.914900 2.609000
1.943500 3.003700
1.972100 2.143100
2.000600 2.167600
2.029200 2.151800
2.057800 2.053500
2.086400 1.910800
2.115000 1.792400
2.143600 1.723000
2.172200 1.665800
2.200800 1.627900
2.229300 1.581000
2.257900 1.512700
2.286500 1.364700
2.315100 1.256000
2.343700 1.169500
2.372300 1.098400
2.400900 1.055100
2.429500 0.976600
2.458100 0.862700
2.486600 0.725400
2.515200 0.670300
2.543800 0.646000
2.572400 0.621800
2.601000 0.597500
2.629600 0.574000
2.658200 0.546000
2.686800 0.511600
2.715300 0.512500
2.743900 0.704100
2.772500 0.605800
2.801100 0.507500
2.829700 0.409200
2.858300 0.589700
2.886900 0.000000
2.915500 0.000000
2.944100 0.000000
2.972600 0.000000
3.001200 0.000000
3.029800 0.000000
3.058400 0.000000
3.087000 0.000000
3.115600 0.000000
3.144200 0.000000
3.172800 0.000000
3.201300 0.000000
3.229900 0.000000
3.258500 0.000000
3.287100 0.000000
3.315700 0.000000
3.344300 0.000000
3.372900 0.000000
3.401500 0.000000
3.430100 0.000000
3.458600 0.014400
3.487200 0.106700
3.515800 0.269300
3.544400 0.495100
3.573000 0.721100
3.601600 0.946700
3.630200 1.215800
3.658800 1.348100
3.687300 1.315400
3.715900 1.305900
3.744500 1.313400
3.773100 1.336100
3.801700 1.383100
3.830300 1.682300
3.858900 1.782100
3.887500 1.687600
3.916000 1.594600
3.944600 1.522200
3.973200 1.291200
4.001800 1.095100
4.030400 1.071600
4.059000 1.041000
4.087600 1.010600
4.116200 0.983700
4.144800 0.954900
4.173300 0.912200
4.201900 0.980300
4.230500 1.103300
4.259100 1.186000
4.287700 1.283300
4.316300 1.424100
4.344900 1.737800
4.373500 2.006500
4.402000 2.863400
4.430600 3.010700
4.459200 3.198100
4.487800 3.411600
4.516400 2.827100
4.545000 2.413500
4.573600 2.133000
4.602200 2.097700
4.630800 2.130200
4.659300 2.161200
4.687900 1.125300
4.716500 0.545800
4.745100 0.506700
4.773700 0.467500
4.802300 0.428200
4.830900 0.386400
4.859500 0.344900
4.888000 0.303400
4.916600 0.262000
4.945200 0.220500
4.973800 0.218800
5.002400 0.343400
5.031000 0.200600
5.059600 0.057700
5.088200 0.000000
5.116800 0.000000
5.145300 0.000000
5.173900 0.000000
5.202500 0.000000
5.231100 0.000000
5.259700 0.000000
5.288300 0.000000
5.316900 0.000000
5.345500 0.000000
5.374000 0.000000
5.402600 0.000000
5.431200 0.000000
5.459800 0.000000
5.488400 0.000000
5.517000 0.000000
5.545600 0.000000
5.574200 0.000000
5.602700 0.000000
5.631300 0.000000
5.659900 0.000000
5.688500 0.000000
5.717100 0.000000
5.745700 0.000000
5.774300 0.000000
5.802900 0.000000
5.831500 0.000000
5.860000 0.000000
5.888600 0.000000
5.917200 0.000000
5.945800 0.000000
5.974400 0.000000
6.003000 0.000000
6.031600 0.000000
6.060200 0.000000
6.088700 0.000000
6.117300 0.000000
6.145900 0.000000
6.174500 0.000000
6.203100 0.000000
6.231700 0.000000
6.260300 0.000000
6.288900 0.000000
6.317500 0.000000
6.346000 0.000000
6.374600 0.000000
6.403200 0.000000
6.431800 0.000000
6.460400 0.000000
6.489000 0.000000
6.517600 0.000000
6.546200 0.000000
6.574700 0.000000
6.603300 0.000000
6.631900 0.000000
6.660500 0.000000
6.689100 0.000000
6.717700 0.000000
6.746300 0.000000
6.774900 0.000000
6.803500 0.000000
6.832000 0.000000
6.860600 0.000000
6.889200 0.000000
6.917800 0.000000
6.946400 0.000000
6.975000 0.000000
7.003600 0.000000
7.032200 0.000000
7.060700 0.000000
7.089300 0.000000
7.117900 0.000000
7.146500 0.000000
7.175100 0.000000
7.203700 0.000000
7.232300 0.000000
7.260900 0.000000
7.289400 0.000000
7.318000 0.000000
7.346600 0.000000
7.375200 0.000000
7.403800 0.000000
7.432400 0.000000
7.461000 0.000000
7.489600 0.000000
7.518200 0.000000
7.546700 0.000000
7.575300 0.000000
7.603900 0.000000
7.632500 0.000000
7.661100 0.000000
7.689700 0.000000
7.718300 0.000000
7.746900 0.000000
7.775400 0.000000
7.804000 0.000000
7.832600 0.000000
7.861200 0.000000
7.889800 0.000000
7.918400 0.000000
7.947000 0.000000
7.975600 0.000000
8.004200 0.000000
8.032700 0.000000
8.061300 0.000000
8.089900 0.000000
8.118500 0.013800
8.147100 0.060300
8.175700 0.104600
8.204300 0.139700
8.232900 0.176800
8.261400 0.215300
8.290000 0.255300
8.318600 0.297100
8.347200 0.338100
8.375800 0.363500
8.404400 0.377400
8.433000 0.390500
8.461600 0.414100
8.490200 0.440300
8.518700 0.469600
8.547300 0.497700
8.575900 0.523400
8.604500 0.547300
8.633100 0.569000
8.661700 0.590500
8.690300 0.612700
8.718900 0.638200
8.747400 0.669600
8.776000 0.710800
8.804600 0.787200
8.833200 0.849900
8.861800 0.889300
8.890400 0.918300
8.919000 0.941600
8.947600 0.959100
8.976100 0.968900
9.004700 0.967300
9.033300 0.986700
9.061900 1.025400
9.090500 1.075700
9.119100 1.086100
9.147700 1.093100
9.176300 1.046700
9.204900 1.024500
9.233400 0.882000
9.262000 0.806800
9.290600 0.774400
9.319200 0.764100
9.347800 0.757800
9.376400 0.782700
9.405000 0.804800
9.433600 0.803000
9.462100 0.805100
9.490700 0.745200
9.519300 0.786300
9.547900 0.762000
9.576500 0.687900
9.605100 0.602400
9.633700 0.564400
9.662300 0.535800
9.690900 0.524000
9.719400 0.558400
9.748000 0.578100
9.776600 0.625500
9.805200 0.673000
9.833800 0.719100
9.862400 0.747700
9.891000 0.733000
9.919600 0.752800
9.948100 0.778500
9.976700 0.809400
10.005300 0.863300
10.033900 0.892300
10.062500 0.942000
10.091100 1.030000
10.119700 1.161600
10.148300 1.189800
10.176900 1.157500
10.205400 1.176000
10.234000 1.201500
10.262600 1.238400
10.291200 1.262000
10.319800 1.275500
10.348400 1.285700
10.377000 1.305300
10.405600 1.338300
10.434100 1.363200
10.462700 1.314800
10.491300 1.333500
10.519900 1.363500
10.548500 1.392300
10.577100 1.551700
10.605700 1.174500
10.634300 1.013800
10.662900 0.932400
10.691400 0.866300
10.720000 0.809400
10.748600 0.764900
10.777200 0.727900
10.805800 0.728100
10.834400 0.850800
10.863000 0.862300
10.891600 0.811600
10.920100 0.764600
10.948700 0.727300
10.977300 0.704400
11.005900 0.715500
11.034500 0.759500
11.063100 0.788700
11.091700 0.839300
11.120300 0.884800
11.148800 0.898500
11.177400 0.870200
11.206000 0.918700
11.234600 0.973300
11.263200 1.022700
11.291800 1.036900
11.320400 1.087700
11.349000 1.158800
11.377600 1.221700
11.406100 1.278100
11.434700 1.339400
11.463300 1.385800
11.491900 1.423400
11.520500 1.461200
11.549100 1.506100
11.577700 1.551100
11.606300 1.514300
11.634800 1.470000
11.663400 1.336300
11.692000 1.277600
11.720600 1.239700
11.749200 1.244300
11.777800 1.280800
11.806400 1.343300
11.835000 1.464000
11.863600 1.560800
11.892100 1.671300
11.920700 1.682100
11.949300 1.594200
11.977900 1.571300
12.006500 1.690100
12.035100 1.579800
12.063700 1.484600
12.092300 1.486200
12.120800 1.502900
12.149400 1.500600
12.178000 1.508600
12.206600 1.515800
12.235200 1.541100
12.263800 1.548600
12.292400 1.551400
12.321000 1.563300
12.349600 1.560100
12.378100 1.564900
12.406700 1.484200
12.435300 1.525200
12.463900 1.516000
12.492500 1.458900
12.521100 1.438600
12.549700 1.248700
12.578300 1.181600
12.606800 1.113100
12.635400 1.062400
12.664000 1.015000
12.692600 0.988300
12.721200 0.991200
12.749800 1.044000
12.778400 1.056400
12.807000 1.074100
12.835500 1.123500
12.864100 1.182700
12.892700 1.262000
12.921300 1.370500
12.949900 1.509000
12.978500 1.690800
13.007100 1.827300
13.035700 1.531400
13.064300 1.484300
13.092800 1.449300
13.121400 1.435600
13.150000 1.435500
13.178600 1.441200
13.207200 1.389300
13.235800 1.375700
13.264400 1.360700
13.293000 1.347300
13.321500 1.446900
13.350100 1.455600
13.378700 1.507900
13.407300 1.529200
13.435900 1.558500
13.464500 1.557000
13.493100 1.529200
13.521700 1.484300
13.550300 1.444000
13.578800 1.336000
13.607400 1.175400
13.636000 1.011900
13.664600 0.891800
13.693200 0.824200
13.721800 0.780700
13.750400 0.728100
13.779000 0.667400
13.807500 0.639600
13.836100 0.661700
13.864700 0.763300
13.893300 0.809700
13.921900 0.853700
13.950500 0.884700
13.979100 0.899100
14.007700 0.893400
14.036300 0.959900
14.064800 1.031400
14.093400 1.154100
14.122000 1.302000
14.150600 1.444000
14.179200 1.548700
14.207800 1.575900
14.236400 1.274500
14.265000 1.075200
14.293500 0.973800
14.322100 0.898500
14.350700 0.840500
14.379300 0.786600
14.407900 0.761900
14.436500 0.838500
14.465100 0.926000
14.493700 1.077500
14.522200 1.224800
14.550800 1.408100
14.579400 1.229000
14.608000 1.207900
14.636600 1.225300
14.665200 1.235300
14.693800 1.266000
14.722400 1.297000
14.751000 1.332600
14.779500 1.401400
14.808100 1.340600
14.836700 1.309900
14.865300 1.299300
14.893900 1.285200
14.922500 1.188900
14.951100 1.063500
14.979700 1.088700
