set title 'mp-570572 - Density of States'
set xlabel 'Energy (eV)'
set ylabel 'DOS (states/eV)'
set grid
set xrange [-10:10]
set yrange [0:11.443]
set xzeroaxis lt -1
set terminal png size 800,600
set output 'mp-570572_dos_gnuplot.png'
plot '-' using 1:2 with lines title 'DOS'
-22.116300 0.000000
-22.088000 0.000000
-22.059700 0.000000
-22.031300 0.000000
-22.003000 0.000000
-21.974700 0.000000
-21.946400 0.000000
-21.918100 0.000000
-21.889800 0.000000
-21.861500 0.000000
-21.833200 0.000000
-21.804900 0.000000
-21.776500 0.000000
-21.748200 0.000000
-21.719900 0.000000
-21.691600 0.000000
-21.663300 0.000000
-21.635000 0.000000
-21.606700 0.000000
-21.578400 0.000000
-21.550100 0.000000
-21.521700 0.000000
-21.493400 0.000000
-21.465100 0.000000
-21.436800 0.000000
-21.408500 0.000000
-21.380200 0.000000
-21.351900 0.000000
-21.323600 0.000000
-21.295300 0.000000
-21.266900 0.000000
-21.238600 0.000000
-21.210300 0.000000
-21.182000 0.000000
-21.153700 0.000000
-21.125400 0.000000
-21.097100 0.000000
-21.068800 0.000000
-21.040500 0.000000
-21.012100 0.000000
-20.983800 0.000000
-20.955500 0.000000
-20.927200 0.000000
-20.898900 0.000000
-20.870600 0.000000
-20.842300 0.000000
-20.814000 0.000000
-20.785700 0.000000
-20.757400 0.000000
-20.729000 0.000000
-20.700700 0.000000
-20.672400 0.000000
-20.644100 0.000000
-20.615800 0.000000
-20.587500 0.000000
-20.559200 0.000000
-20.530900 0.000000
-20.502600 0.000000
-20.474200 0.000000
-20.445900 0.000000
-20.417600 0.000000
-20.389300 0.000000
-20.361000 0.000000
-20.332700 0.000000
-20.304400 0.000000
-20.276100 0.000000
-20.247800 0.000000
-20.219400 0.000000
-20.191100 0.000000
-20.162800 0.000000
-20.134500 0.000000
-20.106200 0.000000
-20.077900 0.000000
-20.049600 0.000000
-20.021300 0.000000
-19.993000 0.000000
-19.964600 0.000000
-19.936300 0.000000
-19.908000 0.000000
-19.879700 0.000000
-19.851400 0.000000
-19.823100 0.000000
-19.794800 0.000000
-19.766500 0.000000
-19.738200 0.000000
-19.709800 0.000000
-19.681500 0.000000
-19.653200 0.000000
-19.624900 0.000000
-19.596600 0.000000
-19.568300 0.000000
-19.540000 0.001600
-19.511700 0.195400
-19.483400 0.564500
-19.455000 1.101800
-19.426700 1.423000
-19.398400 1.622700
-19.370100 1.664200
-19.341800 1.473900
-19.313500 1.547800
-19.285200 1.621700
-19.256900 1.695500
-19.228600 1.742800
-19.200300 1.761600
-19.171900 1.749900
-19.143600 1.733700
-19.115300 1.742300
-19.087000 1.778400
-19.058700 1.835400
-19.030400 1.892400
-19.002100 1.949400
-18.973800 2.006400
-18.945500 2.063500
-18.917100 2.133300
-18.888800 2.278700
-18.860500 2.503000
-18.832200 2.813300
-18.803900 3.392400
-18.775600 4.191600
-18.747300 4.178200
-18.719000 3.483700
-18.690700 2.787700
-18.662300 2.151700
-18.634000 2.375200
-18.605700 3.442400
-18.577400 0.654500
-18.549100 0.000000
-18.520800 0.000000
-18.492500 0.000000
-18.464200 0.000000
-18.435900 0.000000
-18.407500 0.000000
-18.379200 0.000000
-18.350900 0.000000
-18.322600 0.000000
-18.294300 0.000000
-18.266000 0.000000
-18.237700 0.000000
-18.209400 0.000000
-18.181100 0.000000
-18.152700 0.000000
-18.124400 0.000000
-18.096100 0.000000
-18.067800 0.000000
-18.039500 0.000000
-18.011200 0.000000
-17.982900 0.000000
-17.954600 0.000000
-17.926300 0.000000
-17.897900 0.000000
-17.869600 0.000000
-17.841300 0.000000
-17.813000 0.000000
-17.784700 0.000000
-17.756400 0.000000
-17.728100 0.000000
-17.699800 0.000000
-17.671500 0.000000
-17.643200 0.000000
-17.614800 0.000000
-17.586500 5.373800
-17.558200 3.099500
-17.529900 1.470200
-17.501600 1.921000
-17.473300 2.371700
-17.445000 2.822400
-17.416700 3.272900
-17.388400 3.156600
-17.360000 2.180500
-17.331700 2.052900
-17.303400 1.925300
-17.275100 1.797700
-17.246800 1.670100
-17.218500 1.542600
-17.190200 1.415000
-17.161900 1.160400
-17.133600 1.076000
-17.105200 1.059500
-17.076900 1.043000
-17.048600 1.026400
-17.020300 1.009900
-16.992000 0.993400
-16.963700 0.976900
-16.935400 0.960300
-16.907100 0.943800
-16.878800 0.927300
-16.850400 0.910800
-16.822100 0.894300
-16.793800 0.877700
-16.765500 0.861200
-16.737200 0.844300
-16.708900 0.821500
-16.680600 0.791800
-16.652300 0.761300
-16.624000 0.730800
-16.595600 0.700400
-16.567300 0.669900
-16.539000 0.639400
-16.510700 0.609000
-16.482400 0.583700
-16.454100 0.572400
-16.425800 0.564200
-16.397500 0.555900
-16.369200 0.547600
-16.340800 0.539300
-16.312500 0.531100
-16.284200 0.522800
-16.255900 0.514500
-16.227600 0.506200
-16.199300 0.498000
-16.171000 0.489700
-16.142700 0.481400
-16.114400 0.473100
-16.086100 0.464900
-16.057700 0.456600
-16.029400 0.448300
-16.001100 0.440000
-15.972800 0.431700
-15.944500 0.423500
-15.916200 0.415200
-15.887900 0.395100
-15.859600 0.358600
-15.831300 0.342700
-15.802900 0.326900
-15.774600 0.311100
-15.746300 1.590900
-15.718000 1.725400
-15.689700 1.859900
-15.661400 1.994700
-15.633100 2.129600
-15.604800 2.264600
-15.576500 2.400200
-15.548100 2.557900
-15.519800 2.739100
-15.491500 2.923100
-15.463200 3.234000
-15.434900 3.456000
-15.406600 3.599900
-15.378300 3.743800
-15.350000 3.887700
-15.321700 4.031600
-15.293300 3.740100
-15.265000 3.273900
-15.236700 2.779600
-15.208400 2.842500
-15.180100 2.755600
-15.151800 2.490800
-15.123500 2.159100
-15.095200 1.827200
-15.066900 1.495100
-15.038500 2.255200
-15.010200 1.729500
-14.981900 0.365400
-14.953600 0.047300
-14.925300 0.102500
-14.897000 0.157700
-14.868700 0.212800
-14.840400 0.268000
-14.812100 0.323200
-14.783800 0.378400
-14.755400 0.433500
-14.727100 0.488700
-14.698800 0.543900
-14.670500 0.599100
-14.642200 0.654300
-14.613900 1.104800
-14.585600 1.449000
-14.557300 1.709700
-14.529000 1.970500
-14.500600 2.231400
-14.472300 2.553700
-14.444000 4.255900
-14.415700 5.022200
-14.387400 4.740000
-14.359100 4.512500
-14.330800 4.284900
-14.302500 4.057400
-14.274200 3.829800
-14.245800 3.602300
-14.217500 2.942000
-14.189200 2.770300
-14.160900 2.582600
-14.132600 2.375700
-14.104300 2.168800
-14.076000 1.961900
-14.047700 1.755100
-14.019400 1.548200
-13.991000 1.341400
-13.962700 0.000000
-13.934400 0.000000
-13.906100 0.000000
-13.877800 0.000000
-13.849500 0.000000
-13.821200 0.000000
-13.792900 0.000000
-13.764600 0.000000
-13.736200 0.000000
-13.707900 0.000000
-13.679600 0.000000
-13.651300 0.000000
-13.623000 0.000000
-13.594700 0.000000
-13.566400 0.000000
-13.538100 0.000000
-13.509800 0.000000
-13.481400 0.000000
-13.453100 0.000000
-13.424800 0.000000
-13.396500 0.000000
-13.368200 0.000000
-13.339900 0.000000
-13.311600 0.000000
-13.283300 0.000000
-13.255000 0.000000
-13.226700 0.000000
-13.198300 0.000000
-13.170000 0.000000
-13.141700 0.000000
-13.113400 0.000000
-13.085100 0.000000
-13.056800 0.000000
-13.028500 0.000000
-13.000200 0.000000
-12.971900 0.000000
-12.943500 0.000000
-12.915200 0.000000
-12.886900 0.000000
-12.858600 0.000000
-12.830300 0.000000
-12.802000 0.000000
-12.773700 0.000000
-12.745400 0.000000
-12.717100 0.000000
-12.688700 0.000000
-12.660400 0.000000
-12.632100 0.000000
-12.603800 0.000000
-12.575500 0.000000
-12.547200 0.000000
-12.518900 0.000000
-12.490600 0.000000
-12.462300 0.000000
-12.433900 0.000000
-12.405600 0.000000
-12.377300 0.000000
-12.349000 0.000000
-12.320700 0.000000
-12.292400 0.000000
-12.264100 0.000000
-12.235800 0.000000
-12.207500 0.000000
-12.179100 0.000000
-12.150800 0.000000
-12.122500 0.000000
-12.094200 0.000000
-12.065900 0.000000
-12.037600 0.000000
-12.009300 0.000000
-11.981000 0.000000
-11.952700 0.000000
-11.924300 0.000000
-11.896000 0.000000
-11.867700 0.000000
-11.839400 0.000000
-11.811100 0.000000
-11.782800 0.000000
-11.754500 0.000000
-11.726200 0.000000
-11.697900 0.000000
-11.669600 0.000000
-11.641200 0.000000
-11.612900 0.000000
-11.584600 0.000000
-11.556300 0.000000
-11.528000 0.000000
-11.499700 0.000000
-11.471400 0.000000
-11.443100 0.000000
-11.414800 0.000000
-11.386400 0.000000
-11.358100 0.025700
-11.329800 0.171200
-11.301500 0.350500
-11.273200 0.529900
-11.244900 0.709300
-11.216600 0.888700
-11.188300 1.068100
-11.160000 1.247500
-11.131600 1.164200
-11.103300 1.063000
-11.075000 1.115800
-11.046700 1.168600
-11.018400 1.221400
-10.990100 1.274200
-10.961800 1.327000
-10.933500 1.291100
-10.905200 1.154700
-10.876800 1.175000
-10.848500 1.195200
-10.820200 1.215500
-10.791900 1.236400
-10.763600 1.260000
-10.735300 1.284200
-10.707000 1.308300
-10.678700 1.332400
-10.650400 1.356600
-10.622000 1.380700
-10.593700 1.405200
-10.565400 1.432500
-10.537100 1.461400
-10.508800 1.490300
-10.480500 1.519200
-10.452200 1.548100
-10.423900 1.577000
-10.395600 1.605900
-10.367200 1.634800
-10.338900 1.663800
-10.310600 1.692700
-10.282300 1.721600
-10.254000 1.750500
-10.225700 1.844100
-10.197400 1.978800
-10.169100 2.100500
-10.140800 2.220700
-10.112500 2.339200
-10.084100 2.457600
-10.055800 2.576100
-10.027500 3.789900
-9.999200 3.401300
-9.970900 3.012700
-9.942600 2.624100
-9.914300 2.235400
-9.886000 1.846800
-9.857700 1.656000
-9.829300 1.832100
-9.801000 2.008300
-9.772700 2.184300
-9.744400 2.952800
-9.716100 0.483500
-9.687800 0.486200
-9.659500 0.489000
-9.631200 0.491700
-9.602900 0.494400
-9.574500 0.497200
-9.546200 0.499900
-9.517900 0.502600
-9.489600 0.505400
-9.461300 0.508100
-9.433000 0.510800
-9.404700 0.513600
-9.376400 0.516300
-9.348100 0.519000
-9.319700 0.521800
-9.291400 0.524500
-9.263100 0.527200
-9.234800 0.530000
-9.206500 0.532700
-9.178200 0.535500
-9.149900 0.538200
-9.121600 0.540900
-9.093300 0.543700
-9.064900 0.546400
-9.036600 0.549100
-9.008300 0.551900
-8.980000 0.678800
-8.951700 0.924300
-8.923400 0.935200
-8.895100 0.946000
-8.866800 0.956900
-8.838500 0.967700
-8.810100 0.978600
-8.781800 0.989500
-8.753500 1.000300
-8.725200 1.011200
-8.696900 1.022000
-8.668600 1.032900
-8.640300 1.043700
-8.612000 1.054600
-8.583700 1.065500
-8.555400 1.076300
-8.527000 1.599800
-8.498700 1.538600
-8.470400 1.477500
-8.442100 1.416300
-8.413800 2.041100
-8.385500 1.853200
-8.357200 1.665300
-8.328900 1.477400
-8.300600 1.289500
-8.272200 1.101500
-8.243900 0.913600
-8.215600 0.725600
-8.187300 0.537700
-8.159000 0.349700
-8.130700 0.161700
-8.102400 0.000000
-8.074100 0.000000
-8.045800 0.000000
-8.017400 0.000000
-7.989100 0.000000
-7.960800 0.000000
-7.932500 0.000000
-7.904200 0.000000
-7.875900 0.000000
-7.847600 0.000000
-7.819300 0.000000
-7.791000 0.000000
-7.762600 0.000000
-7.734300 0.000000
-7.706000 0.000000
-7.677700 0.000000
-7.649400 0.000000
-7.621100 0.000000
-7.592800 0.000000
-7.564500 0.348900
-7.536200 0.907400
-7.507800 1.466100
-7.479500 2.024900
-7.451200 2.583900
-7.422900 10.403000
-7.394600 1.647900
-7.366300 1.714200
-7.338000 1.780600
-7.309700 1.846900
-7.281400 1.913300
-7.253100 1.979700
-7.224700 2.046100
-7.196400 2.112500
-7.168100 2.178900
-7.139800 2.245300
-7.111500 1.778300
-7.083200 1.316500
-7.054900 1.211300
-7.026600 1.186500
-6.998300 1.161700
-6.969900 1.136900
-6.941600 1.112100
-6.913300 1.087200
-6.885000 1.062400
-6.856700 2.035300
-6.828400 1.981000
-6.800100 1.897600
-6.771800 1.814300
-6.743500 1.730900
-6.715100 1.647600
-6.686800 1.564300
-6.658500 1.481000
-6.630200 1.398000
-6.601900 1.397300
-6.573600 1.404500
-6.545300 1.443300
-6.517000 1.542300
-6.488700 1.641400
-6.460300 1.740500
-6.432000 1.813400
-6.403700 1.817600
-6.375400 1.821200
-6.347100 1.824900
-6.318800 1.828600
-6.290500 1.832300
-6.262200 1.836000
-6.233900 1.839600
-6.205500 1.843300
-6.177200 1.847000
-6.148900 1.850700
-6.120600 1.854400
-6.092300 2.087700
-6.064000 2.519400
-6.035700 2.270800
-6.007400 2.022100
-5.979100 1.773400
-5.950700 1.524700
-5.922400 1.237900
-5.894100 1.759100
-5.865800 2.279900
-5.837500 1.652000
-5.809200 0.701700
-5.780900 0.709000
-5.752600 0.767800
-5.724300 0.867500
-5.696000 0.941900
-5.667600 0.990000
-5.639300 1.029600
-5.611000 1.077200
-5.582700 1.132700
-5.554400 1.195900
-5.526100 1.264600
-5.497800 1.338500
-5.469500 1.417400
-5.441200 1.517000
-5.412800 1.647300
-5.384500 1.109200
-5.356200 1.067600
-5.327900 1.022900
-5.299600 0.975100
-5.271300 0.930200
-5.243000 0.895400
-5.214700 0.870600
-5.186400 1.263000
-5.158000 1.335400
-5.129700 1.430700
-5.101400 1.549200
-5.073100 1.666900
-5.044800 1.768900
-5.016500 1.884300
-4.988200 2.016300
-4.959900 2.164800
-4.931600 2.443100
-4.903200 2.763500
-4.874900 2.692600
-4.846600 2.689200
-4.818300 2.619200
-4.790000 2.545800
-4.761700 2.299200
-4.733400 2.145100
-4.705100 2.228600
-4.676800 2.317200
-4.648400 2.430400
-4.620100 2.569400
-4.591800 2.734000
-4.563500 2.924300
-4.535200 3.097700
-4.506900 2.811800
-4.478600 3.300800
-4.450300 3.550300
-4.422000 4.566000
-4.393600 5.190800
-4.365300 4.360900
-4.337000 4.305600
-4.308700 4.293200
-4.280400 4.311200
-4.252100 4.359100
-4.223800 4.667600
-4.195500 5.156100
-4.167200 5.779700
-4.138900 6.162500
-4.110500 5.611100
-4.082200 4.604700
-4.053900 3.730200
-4.025600 3.042500
-3.997300 2.755700
-3.969000 2.097900
-3.940700 1.769000
-3.912400 1.491900
-3.884100 1.266400
-3.855700 1.078300
-3.827400 1.702800
-3.799100 1.576400
-3.770800 1.066300
-3.742500 0.560800
-3.714200 0.078700
-3.685900 0.057400
-3.657600 0.126200
-3.629300 0.195000
-3.600900 0.263700
-3.572600 0.332500
-3.544300 0.401300
-3.516000 0.470100
-3.487700 0.538800
-3.459400 0.607600
-3.431100 0.676400
-3.402800 0.745100
-3.374500 0.488700
-3.346100 0.615900
-3.317800 0.968300
-3.289500 1.288600
-3.261200 1.532400
-3.232900 2.029800
-3.204600 2.216200
-3.176300 2.259000
-3.148000 2.364100
-3.119700 2.545500
-3.091300 2.563800
-3.063000 2.699300
-3.034700 2.702300
-3.006400 2.654300
-2.978100 2.600100
-2.949800 2.539800
-2.921500 2.470500
-2.893200 2.616800
-2.864900 3.700100
-2.836500 3.349400
-2.808200 3.242300
-2.779900 3.108600
-2.751600 2.948300
-2.723300 2.798600
-2.695000 2.654700
-2.666700 2.460400
-2.638400 1.892800
-2.610100 1.324300
-2.581800 0.919500
-2.553400 0.568800
-2.525100 0.272300
-2.496800 0.037700
-2.468500 0.000000
-2.440200 0.000000
-2.411900 0.000000
-2.383600 0.002900
-2.355300 0.026200
-2.327000 0.062300
-2.298600 0.108700
-2.270300 0.165300
-2.242000 0.232200
-2.213700 0.309800
-2.185400 0.400700
-2.157100 0.512100
-2.128800 0.644700
-2.100500 0.798400
-2.072200 0.973200
-2.043800 1.167100
-2.015500 1.368700
-1.987200 1.636500
-1.958900 2.157300
-1.930600 3.150100
-1.902300 3.315000
-1.874000 2.663100
-1.845700 2.411000
-1.817400 2.219600
-1.789000 2.055400
-1.760700 1.918500
-1.732400 1.808800
-1.704100 1.726300
-1.675800 1.693500
-1.647500 1.673600
-1.619200 1.653500
-1.590900 1.633000
-1.562600 2.207300
-1.534200 2.114100
-1.505900 2.021600
-1.477600 1.929900
-1.449300 1.838800
-1.421000 1.748500
-1.392700 1.660900
-1.364400 1.579600
-1.336100 1.607100
-1.307800 2.439700
-1.279500 2.155000
-1.251100 2.003300
-1.222800 1.877500
-1.194500 1.714000
-1.166200 2.590800
-1.137900 3.363100
-1.109600 3.534200
-1.081300 4.368600
-1.053000 4.086500
-1.024700 4.221500
-0.996300 4.426500
-0.968000 4.830200
-0.939700 4.254200
-0.911400 3.978700
-0.883100 3.763100
-0.854800 3.599200
-0.826500 3.355400
-0.798200 3.084000
-0.769900 2.818500
-0.741500 2.581400
-0.713200 2.446400
-0.684900 2.290100
-0.656600 2.172900
-0.628300 2.121900
-0.600000 1.984700
-0.571700 1.718500
-0.543400 1.173900
-0.515100 1.081000
-0.486700 0.329600
-0.458400 0.000000
-0.430100 0.000000
-0.401800 0.000000
-0.373500 0.000000
-0.345200 0.000000
-0.316900 0.000000
-0.288600 0.000000
-0.260300 0.000000
-0.231900 0.000000
-0.203600 0.000000
-0.175300 0.000000
-0.147000 0.000000
-0.118700 0.000000
-0.090400 0.000000
-0.062100 0.000000
-0.033800 0.000000
-0.005500 0.034900
0.022900 0.878000
0.051200 1.788900
0.079500 2.700200
0.107800 1.046600
0.136100 1.161300
0.164400 1.276000
0.192700 1.390800
0.221000 1.506100
0.249300 1.636800
0.277600 1.786800
0.306000 1.540900
0.334300 1.222000
0.362600 1.301100
0.390900 1.388300
0.419200 1.484300
0.447500 1.589600
0.475800 1.736500
0.504100 1.913900
0.532400 2.100300
0.560800 2.294600
0.589100 2.497200
0.617400 2.709300
0.645700 2.930600
0.674000 3.089300
0.702300 3.333400
0.730600 3.670100
0.758900 3.926700
0.787200 4.178600
0.815600 4.412700
0.843900 5.058400
0.872200 5.321200
0.900500 1.792300
0.928800 2.446000
0.957100 2.679500
0.985400 2.909900
1.013700 3.114700
1.042000 3.268000
1.070400 3.419200
1.098700 3.149900
1.127000 2.907100
1.155300 2.692600
1.183600 2.489400
1.211900 2.454000
1.240200 2.607500
1.268500 1.188600
1.296800 0.746300
1.325200 0.731400
1.353500 0.716600
1.381800 0.701700
1.410100 0.686900
1.438400 0.672000
1.466700 0.657200
1.495000 0.642400
1.523300 0.627600
1.551600 0.612800
1.580000 0.600200
1.608300 0.590200
1.636600 0.580300
1.664900 0.570400
1.693200 0.560400
1.721500 0.550500
1.749800 0.540500
1.778100 0.530600
1.806400 0.520700
1.834700 0.510700
1.863100 0.500800
1.891400 0.490800
1.919700 0.480900
1.948000 0.470900
1.976300 0.465300
2.004600 0.461200
2.032900 0.457100
2.061200 1.339000
2.089500 1.412300
2.117900 1.485600
2.146200 1.558900
2.174500 1.632200
2.202800 1.705500
2.231100 1.778800
2.259400 1.852100
2.287700 1.925400
2.316000 1.998700
2.344300 2.135800
2.372700 2.427400
2.401000 2.719100
2.429300 3.010800
2.457600 3.478800
2.485900 3.678800
2.514200 3.809500
2.542500 3.940200
2.570800 4.070800
2.599100 3.850500
2.627500 3.292800
2.655800 3.019300
2.684100 2.745800
2.712400 2.472300
2.740700 2.593800
2.769000 2.751800
2.797300 2.507200
2.825600 2.262600
2.853900 2.018000
2.882300 1.773400
2.910600 1.528800
2.938900 2.217800
2.967200 1.959900
2.995500 0.816400
3.023800 0.024300
3.052100 0.000000
3.080400 0.000000
3.108700 0.000000
3.137100 0.000000
3.165400 0.000000
3.193700 0.000000
3.222000 0.000000
3.250300 0.000000
3.278600 0.000000
3.306900 0.000000
3.335200 0.000000
3.363500 0.000000
3.391800 0.000000
3.420200 0.000000
3.448500 0.000000
3.476800 0.000000
3.505100 0.000000
3.533400 0.000000
3.561700 0.000000
3.590000 0.000000
3.618300 0.000000
3.646600 0.000000
3.675000 0.000000
3.703300 0.000000
3.731600 0.000000
3.759900 0.000000
3.788200 0.000000
3.816500 0.000000
3.844800 0.000000
3.873100 0.000000
3.901400 0.000000
3.929800 0.000000
3.958100 0.000000
3.986400 0.000000
4.014700 0.000000
4.043000 0.000000
4.071300 0.000000
4.099600 0.000000
4.127900 0.000000
4.156200 0.000000
4.184600 0.000000
4.212900 0.000000
4.241200 0.000000
4.269500 0.000000
4.297800 0.000000
4.326100 0.000000
4.354400 0.000000
4.382700 0.000000
4.411000 0.000000
4.439400 0.000000
4.467700 0.016500
4.496000 0.071000
4.524300 0.163500
4.552600 0.275400
4.580900 0.385300
4.609200 0.502900
4.637500 0.648100
4.665800 0.757300
4.694100 0.879600
4.722500 1.024000
4.750800 1.178100
4.779100 1.355600
4.807400 1.602400
4.835700 1.852400
4.864000 2.068400
4.892300 2.259100
4.920600 2.474900
4.948900 2.712700
4.977300 2.883400
5.005600 3.067600
5.033900 7.266300
5.062200 7.618600
5.090500 7.142100
5.118800 6.200500
5.147100 4.794300
5.175400 4.118800
5.203700 3.643100
5.232100 2.977400
5.260400 2.332000
5.288700 1.996300
5.317000 1.707300
5.345300 1.447700
5.373600 1.214200
5.401900 1.003200
5.430200 0.824800
5.458500 0.595600
5.486900 0.504700
5.515200 0.513300
5.543500 0.521800
5.571800 0.529700
5.600100 0.536400
5.628400 0.542200
5.656700 0.547700
5.685000 0.552800
5.713300 0.557600
5.741700 0.562700
5.770000 0.568700
5.798300 0.575000
5.826600 0.581600
5.854900 0.588500
5.883200 0.595900
5.911500 0.603700
5.939800 0.612100
5.968100 0.621200
5.996500 0.630800
6.024800 0.642100
6.053100 0.653400
6.081400 0.664800
6.109700 0.676300
6.138000 0.687700
6.166300 0.699100
6.194600 0.710500
6.222900 0.721900
6.251200 0.733400
6.279600 0.744800
6.307900 0.756300
6.336200 0.767700
6.364500 0.779200
6.392800 0.790700
6.421100 0.802200
6.449400 0.813700
6.477700 0.825200
6.506000 0.836700
6.534400 0.862800
6.562700 0.958000
6.591000 1.130300
6.619300 1.236800
6.647600 1.323500
6.675900 1.418500
6.704200 1.520700
6.732500 1.584400
6.760800 1.688300
6.789200 1.611600
6.817500 1.534800
6.845800 1.457900
6.874100 1.380900
6.902400 1.303700
6.930700 1.226500
6.959000 1.149100
