set title 'mp-1220954 - Density of States'
set xlabel 'Energy (eV)'
set ylabel 'DOS (states/eV)'
set grid
set xrange [-10:10]
set yrange [0:3.199]
set xzeroaxis lt -1
set terminal png size 800,600
set output 'mp-1220954_dos_gnuplot.png'
plot '-' using 1:2 with lines title 'DOS'
-26.084200 0.000000
-26.039900 0.000000
-25.995600 0.000000
-25.951300 0.000000
-25.907100 0.000000
-25.862800 0.000000
-25.818500 0.000000
-25.774200 0.000000
-25.729900 0.000000
-25.685700 0.000000
-25.641400 0.000000
-25.597100 0.000000
-25.552800 0.000000
-25.508600 0.000000
-25.464300 0.000000
-25.420000 0.000000
-25.375700 0.000000
-25.331500 0.000000
-25.287200 0.000000
-25.242900 0.000000
-25.198600 0.000000
-25.154400 0.000000
-25.110100 0.000000
-25.065800 0.000000
-25.021500 0.000000
-24.977300 0.000000
-24.933000 0.000000
-24.888700 0.000000
-24.844400 0.000000
-24.800100 0.000000
-24.755900 0.000000
-24.711600 0.000000
-24.667300 0.000000
-24.623000 0.000000
-24.578800 0.000000
-24.534500 0.000000
-24.490200 0.000000
-24.445900 0.000000
-24.401700 0.000000
-24.357400 0.000000
-24.313100 0.000000
-24.268800 0.000000
-24.224600 0.000000
-24.180300 0.000000
-24.136000 0.000000
-24.091700 0.000000
-24.047500 0.000000
-24.003200 0.000000
-23.958900 0.000000
-23.914600 0.000000
-23.870300 0.000000
-23.826100 0.000000
-23.781800 0.000000
-23.737500 0.000000
-23.693200 0.000000
-23.649000 0.000000
-23.604700 0.000000
-23.560400 0.000000
-23.516100 0.000000
-23.471900 0.000000
-23.427600 0.000000
-23.383300 0.000000
-23.339000 0.000000
-23.294800 0.000000
-23.250500 0.000000
-23.206200 0.000000
-23.161900 0.000000
-23.117700 0.000000
-23.073400 0.000000
-23.029100 0.000000
-22.984800 0.000000
-22.940500 0.000000
-22.896300 0.000000
-22.852000 0.000000
-22.807700 0.000000
-22.763400 0.000000
-22.719200 0.000000
-22.674900 0.000000
-22.630600 0.000000
-22.586300 0.000000
-22.542100 0.000000
-22.497800 0.000000
-22.453500 0.000000
-22.409200 0.000000
-22.365000 0.000000
-22.320700 0.000000
-22.276400 0.000000
-22.232100 0.000000
-22.187900 0.000000
-22.143600 0.000000
-22.099300 0.000000
-22.055000 0.636400
-22.010700 2.727000
-21.966500 4.935800
-21.922200 3.188500
-21.877900 2.641000
-21.833600 2.357700
-21.789400 2.253700
-21.745100 2.999500
-21.700800 13.990500
-21.656500 11.138100
-21.612300 25.604100
-21.568000 0.870900
-21.523700 2.561100
-21.479400 8.374000
-21.435200 6.508400
-21.390900 4.035400
-21.346600 0.000000
-21.302300 0.000000
-21.258100 0.000000
-21.213800 0.000000
-21.169500 0.000000
-21.125200 0.000000
-21.080900 0.000000
-21.036700 0.000000
-20.992400 0.000000
-20.948100 0.000000
-20.903800 0.000000
-20.859600 0.000000
-20.815300 0.000000
-20.771000 0.000000
-20.726700 0.000000
-20.682500 0.000000
-20.638200 0.000000
-20.593900 0.000000
-20.549600 0.000000
-20.505400 0.000000
-20.461100 0.000000
-20.416800 0.000000
-20.372500 0.000000
-20.328300 0.000000
-20.284000 0.000000
-20.239700 0.000000
-20.195400 0.000000
-20.151100 0.000000
-20.106900 0.000000
-20.062600 0.000000
-20.018300 0.000000
-19.974000 0.000000
-19.929800 0.000000
-19.885500 0.000000
-19.841200 0.000000
-19.796900 0.000000
-19.752700 0.000000
-19.708400 0.000000
-19.664100 0.000000
-19.619800 0.000000
-19.575600 0.000000
-19.531300 0.000000
-19.487000 0.000000
-19.442700 0.000000
-19.398400 0.000000
-19.354200 0.000000
-19.309900 0.000000
-19.265600 0.000000
-19.221300 0.000000
-19.177100 0.000000
-19.132800 0.000000
-19.088500 0.000000
-19.044200 0.000000
-19.000000 0.000000
-18.955700 0.000000
-18.911400 0.000000
-18.867100 0.000000
-18.822900 0.000000
-18.778600 0.000000
-18.734300 0.000000
-18.690000 0.000000
-18.645800 0.000000
-18.601500 0.000000
-18.557200 0.000000
-18.512900 0.000000
-18.468600 0.000000
-18.424400 0.000000
-18.380100 0.000000
-18.335800 0.000000
-18.291500 0.000000
-18.247300 0.000000
-18.203000 0.000000
-18.158700 0.000000
-18.114400 0.000000
-18.070200 0.000000
-18.025900 0.000000
-17.981600 0.000000
-17.937300 0.000000
-17.893100 0.000000
-17.848800 0.000000
-17.804500 0.000000
-17.760200 0.000000
-17.716000 0.000000
-17.671700 0.000000
-17.627400 0.000000
-17.583100 0.000000
-17.538800 0.000000
-17.494600 0.000000
-17.450300 0.000000
-17.406000 0.000000
-17.361700 0.000000
-17.317500 0.000000
-17.273200 0.000000
-17.228900 0.000000
-17.184600 0.000000
-17.140400 0.000000
-17.096100 0.000000
-17.051800 0.000000
-17.007500 0.000000
-16.963300 0.000000
-16.919000 0.000000
-16.874700 0.000000
-16.830400 0.000000
-16.786200 0.000000
-16.741900 0.000000
-16.697600 0.000000
-16.653300 0.000000
-16.609000 0.000000
-16.564800 0.000000
-16.520500 0.000000
-16.476200 0.000000
-16.431900 0.000000
-16.387700 0.000000
-16.343400 0.000000
-16.299100 0.000000
-16.254800 0.000000
-16.210600 0.000000
-16.166300 0.000000
-16.122000 0.000000
-16.077700 0.000000
-16.033500 0.000000
-15.989200 0.000000
-15.944900 0.000000
-15.900600 0.000000
-15.856400 0.000000
-15.812100 0.000000
-15.767800 0.000000
-15.723500 0.000000
-15.679200 0.000000
-15.635000 0.000000
-15.590700 0.000000
-15.546400 0.000000
-15.502100 0.000000
-15.457900 0.000000
-15.413600 0.000000
-15.369300 0.000000
-15.325000 0.000000
-15.280800 0.000000
-15.236500 0.000000
-15.192200 0.000000
-15.147900 0.000000
-15.103700 0.000000
-15.059400 0.000000
-15.015100 0.000000
-14.970800 0.000000
-14.926600 0.000000
-14.882300 0.000000
-14.838000 0.000000
-14.793700 0.000000
-14.749400 0.000000
-14.705200 0.000000
-14.660900 0.000000
-14.616600 0.000000
-14.572300 0.000000
-14.528100 0.000000
-14.483800 0.000000
-14.439500 0.000000
-14.395200 0.000000
-14.351000 0.000000
-14.306700 0.000000
-14.262400 0.000000
-14.218100 0.000000
-14.173900 0.000000
-14.129600 0.000000
-14.085300 0.000000
-14.041000 0.000000
-13.996800 0.000000
-13.952500 0.000000
-13.908200 0.000000
-13.863900 0.000000
-13.819600 0.000000
-13.775400 0.000000
-13.731100 0.000000
-13.686800 0.000000
-13.642500 0.000000
-13.598300 0.000000
-13.554000 0.189900
-13.509700 0.371300
-13.465400 0.540100
-13.421200 0.725800
-13.376900 0.949000
-13.332600 1.279900
-13.288300 2.007300
-13.244100 2.058900
-13.199800 2.046300
-13.155500 2.042500
-13.111200 2.024300
-13.067000 2.020700
-13.022700 1.584800
-12.978400 1.134600
-12.934100 0.903900
-12.889800 0.724000
-12.845600 0.590600
-12.801300 0.472600
-12.757000 0.374100
-12.712700 0.273700
-12.668500 0.195100
-12.624200 0.000000
-12.579900 0.000000
-12.535600 0.000000
-12.491400 0.000000
-12.447100 0.000000
-12.402800 0.000000
-12.358500 0.000000
-12.314300 0.000000
-12.270000 0.000000
-12.225700 0.000000
-12.181400 0.000000
-12.137200 0.000000
-12.092900 0.000000
-12.048600 0.000000
-12.004300 0.000000
-11.960000 0.000000
-11.915800 0.000000
-11.871500 0.000000
-11.827200 0.000000
-11.782900 0.000000
-11.738700 0.000000
-11.694400 0.000000
-11.650100 0.000000
-11.605800 0.000000
-11.561600 0.000000
-11.517300 0.000000
-11.473000 0.000000
-11.428700 0.000000
-11.384500 0.000000
-11.340200 0.000000
-11.295900 0.000000
-11.251600 0.000000
-11.207400 0.000000
-11.163100 0.000000
-11.118800 0.000000
-11.074500 0.000000
-11.030200 0.000000
-10.986000 0.000000
-10.941700 0.000000
-10.897400 0.000000
-10.853100 0.000000
-10.808900 0.000000
-10.764600 0.000000
-10.720300 0.000000
-10.676000 0.000000
-10.631800 0.000000
-10.587500 0.000000
-10.543200 0.000000
-10.498900 0.000000
-10.454700 0.000000
-10.410400 0.000000
-10.366100 0.000000
-10.321800 0.000000
-10.277500 0.000000
-10.233300 0.000000
-10.189000 0.000000
-10.144700 0.000000
-10.100400 0.000000
-10.056200 0.000000
-10.011900 0.000000
-9.967600 0.000000
-9.923300 0.000000
-9.879100 0.000000
-9.834800 0.000000
-9.790500 0.000000
-9.746200 0.000000
-9.702000 0.000000
-9.657700 0.000000
-9.613400 0.000000
-9.569100 0.000000
-9.524900 0.000000
-9.480600 0.000000
-9.436300 0.000000
-9.392000 0.000000
-9.347700 0.000000
-9.303500 0.000000
-9.259200 0.000000
-9.214900 0.000000
-9.170600 0.000000
-9.126400 0.000000
-9.082100 0.000000
-9.037800 0.000000
-8.993500 0.000000
-8.949300 0.000000
-8.905000 0.000000
-8.860700 0.000000
-8.816400 0.000000
-8.772200 0.000000
-8.727900 0.000000
-8.683600 0.000000
-8.639300 0.000000
-8.595100 0.000000
-8.550800 0.000000
-8.506500 0.000000
-8.462200 0.000000
-8.417900 0.000000
-8.373700 0.000000
-8.329400 0.000000
-8.285100 0.000000
-8.240800 0.000000
-8.196600 0.000000
-8.152300 0.000000
-8.108000 0.000000
-8.063700 0.000000
-8.019500 0.000000
-7.975200 0.000000
-7.930900 0.000000
-7.886600 0.000000
-7.842400 0.000000
-7.798100 0.000000
-7.753800 0.000000
-7.709500 0.000000
-7.665300 0.000000
-7.621000 0.000000
-7.576700 0.000000
-7.532400 0.000000
-7.488100 0.000000
-7.443900 0.000000
-7.399600 0.000000
-7.355300 0.000000
-7.311000 0.000000
-7.266800 0.000000
-7.222500 0.000000
-7.178200 0.000000
-7.133900 0.000000
-7.089700 0.000000
-7.045400 0.000000
-7.001100 0.000000
-6.956800 0.000000
-6.912600 0.000000
-6.868300 0.000000
-6.824000 0.000000
-6.779700 0.000000
-6.735500 0.000000
-6.691200 0.000000
-6.646900 0.000000
-6.602600 0.000000
-6.558300 0.000000
-6.514100 0.000000
-6.469800 0.000000
-6.425500 0.000000
-6.381200 0.000000
-6.337000 0.000000
-6.292700 0.000000
-6.248400 0.000000
-6.204100 0.000000
-6.159900 0.000000
-6.115600 0.000000
-6.071300 0.000000
-6.027000 0.000000
-5.982800 0.000000
-5.938500 0.000000
-5.894200 0.000000
-5.849900 0.000000
-5.805700 0.000000
-5.761400 0.000000
-5.717100 0.000000
-5.672800 0.000000
-5.628500 0.801400
-5.584300 1.323700
-5.540000 1.115000
-5.495700 1.120100
-5.451400 1.180200
-5.407200 1.229500
-5.362900 1.346200
-5.318600 1.503500
-5.274300 1.961900
-5.230100 2.023300
-5.185800 1.933200
-5.141500 1.651900
-5.097200 1.374900
-5.053000 1.198300
-5.008700 1.065300
-4.964400 0.880600
-4.920100 0.557800
-4.875900 0.324400
-4.831600 0.149900
-4.787300 0.128600
-4.743000 0.313800
-4.698700 0.529000
-4.654500 0.797100
-4.610200 1.345400
-4.565900 1.854500
-4.521600 1.946300
-4.477400 1.847200
-4.433100 1.737200
-4.388800 1.609600
-4.344500 1.378300
-4.300300 1.227800
-4.256000 1.107100
-4.211700 1.010800
-4.167400 0.960400
-4.123200 0.929200
-4.078900 0.898700
-4.034600 0.886800
-3.990300 0.905300
-3.946100 0.884900
-3.901800 0.883500
-3.857500 0.918900
-3.813200 0.970500
-3.768900 1.058900
-3.724700 1.086500
-3.680400 1.219300
-3.636100 1.434500
-3.591800 1.759300
-3.547600 2.379300
-3.503300 2.035300
-3.459000 1.919700
-3.414700 1.676600
-3.370500 1.770200
-3.326200 1.401600
-3.281900 0.938700
-3.237600 0.694500
-3.193400 0.326400
-3.149100 0.000000
-3.104800 0.000000
-3.060500 0.000000
-3.016300 0.000000
-2.972000 0.000000
-2.927700 0.000000
-2.883400 0.000000
-2.839100 0.000000
-2.794900 0.000000
-2.750600 0.000000
-2.706300 0.000000
-2.662000 0.000000
-2.617800 0.000000
-2.573500 0.000000
-2.529200 0.000000
-2.484900 0.000000
-2.440700 0.000000
-2.396400 0.000000
-2.352100 0.000000
-2.307800 0.000000
-2.263600 0.000000
-2.219300 0.000000
-2.175000 0.000000
-2.130700 0.000000
-2.086500 0.000000
-2.042200 0.000000
-1.997900 0.000000
-1.953600 0.000000
-1.909300 0.000000
-1.865100 0.000000
-1.820800 0.000000
-1.776500 0.000000
-1.732200 0.000000
-1.688000 0.000000
-1.643700 0.000000
-1.599400 0.000000
-1.555100 0.000000
-1.510900 0.000000
-1.466600 0.000000
-1.422300 0.000000
-1.378000 0.000000
-1.333800 0.000000
-1.289500 0.000000
-1.245200 0.000000
-1.200900 0.000000
-1.156600 0.000000
-1.112400 0.000000
-1.068100 0.000000
-1.023800 0.000000
-0.979500 0.000000
-0.935300 0.000000
-0.891000 0.000000
-0.846700 0.000000
-0.802400 0.000000
-0.758200 0.000000
-0.713900 0.000000
-0.669600 0.000000
-0.625300 0.000000
-0.581100 0.000000
-0.536800 0.000000
-0.492500 0.000000
-0.448200 0.000000
-0.404000 0.000000
-0.359700 0.000000
-0.315400 0.000000
-0.271100 0.000000
-0.226800 0.000000
-0.182600 0.000000
-0.138300 0.000000
-0.094000 0.000000
-0.049700 0.000000
-0.005500 0.000000
0.038800 0.000000
0.083100 0.601700
0.127400 0.896300
0.171600 1.169000
0.215900 1.542300
0.260200 2.223500
0.304500 2.908400
0.348700 1.993500
0.393000 1.630200
0.437300 1.316900
0.481600 1.149100
0.525800 1.086200
0.570100 1.050000
0.614400 0.991300
0.658700 0.900400
0.703000 0.855600
0.747200 0.840300
0.791500 0.843600
0.835800 0.864100
0.880100 0.860800
0.924300 0.857000
0.968600 0.855400
1.012900 0.946700
1.057200 1.003900
1.101400 1.078800
1.145700 1.215200
1.190000 1.545800
1.234300 1.997200
1.278500 1.877500
1.322800 2.289500
1.367100 2.063700
1.411400 1.443500
1.455600 1.160700
1.499900 0.966500
1.544200 0.794700
1.588500 0.632700
1.632800 0.485400
1.677000 0.274800
1.721300 0.000000
1.765600 0.000000
1.809900 0.000000
1.854100 0.000000
1.898400 0.000000
1.942700 0.000000
1.987000 0.000000
2.031200 0.000000
2.075500 0.000000
2.119800 0.000000
2.164100 0.000000
2.208300 0.000000
2.252600 0.000000
2.296900 0.000000
2.341200 0.000000
2.385400 0.000000
2.429700 0.000000
2.474000 0.000000
2.518300 0.000000
2.562600 0.000000
2.606800 0.000000
2.651100 0.000000
2.695400 0.000000
2.739700 0.000000
2.783900 0.000000
2.828200 0.000000
2.872500 0.000000
2.916800 0.000000
2.961000 0.000000
3.005300 0.000000
3.049600 0.000000
3.093900 0.000000
3.138100 0.000000
3.182400 0.000000
3.226700 0.000000
3.271000 0.000000
3.315200 0.000000
3.359500 0.000000
3.403800 0.000000
3.448100 0.000000
3.492400 0.000000
3.536600 0.000000
3.580900 0.000000
3.625200 0.000000
3.669500 0.000000
3.713700 0.000000
3.758000 0.000000
3.802300 0.000000
3.846600 0.000000
3.890800 0.000000
3.935100 0.000000
3.979400 0.000000
4.023700 0.000000
4.067900 0.000000
4.112200 0.000000
4.156500 0.000000
4.200800 0.000000
4.245000 0.000000
4.289300 0.000000
4.333600 0.000000
4.377900 0.000000
4.422200 0.000000
4.466400 0.000000
4.510700 0.000000
4.555000 0.000000
4.599300 0.000000
4.643500 0.000000
4.687800 0.000000
4.732100 0.000000
4.776400 0.000000
4.820600 0.000000
4.864900 0.000000
4.909200 0.000000
4.953500 0.000100
4.997700 0.016700
5.042000 0.044000
5.086300 0.061700
5.130600 0.069900
5.174800 0.080100
5.219100 0.093700
5.263400 0.108000
5.307700 0.117600
5.352000 0.127100
5.396200 0.137400
5.440500 0.147600
5.484800 0.157300
5.529100 0.167300
5.573300 0.178900
5.617600 0.193800
5.661900 0.208100
5.706200 0.223400
5.750400 0.233900
5.794700 0.244700
5.839000 0.255700
5.883300 0.276000
5.927500 0.296000
5.971800 0.317300
6.016100 0.337900
6.060400 0.357700
6.104600 0.383900
6.148900 0.407000
6.193200 0.432400
6.237500 0.457500
6.281800 0.486000
6.326000 0.547900
6.370300 0.653200
6.414600 0.686700
6.458900 0.645600
6.503100 0.657700
6.547400 0.675000
6.591700 0.671500
6.636000 0.687900
6.680200 0.709000
6.724500 0.731500
6.768800 0.768700
6.813100 0.826800
6.857300 0.913300
6.901600 1.120900
6.945900 1.219500
6.990200 1.266900
7.034500 0.717500
7.078700 0.643300
7.123000 0.442600
7.167300 0.298200
7.211600 0.217800
7.255800 0.169000
7.300100 0.140100
7.344400 0.122100
7.388700 0.106800
7.432900 0.092100
7.477200 0.078300
7.521500 0.066700
7.565800 0.087500
7.610000 0.113400
7.654300 0.149200
7.698600 0.183400
7.742900 0.171500
7.787100 0.140400
7.831400 0.131700
7.875700 0.125600
7.920000 0.119500
7.964300 0.118400
8.008500 0.122100
8.052800 0.121700
8.097100 0.122100
8.141400 0.125900
8.185600 0.130200
8.229900 0.134600
8.274200 0.139100
8.318500 0.142900
8.362700 0.147800
8.407000 0.152000
8.451300 0.155900
8.495600 0.159300
8.539800 0.162800
8.584100 0.168000
8.628400 0.175100
8.672700 0.181500
8.716900 0.187900
8.761200 0.194400
8.805500 0.201000
8.849800 0.207700
8.894100 0.216200
8.938300 0.226700
8.982600 0.238000
9.026900 0.248400
9.071200 0.285600
9.115400 0.366700
9.159700 0.455000
9.204000 0.527900
9.248300 0.547300
9.292500 0.567400
9.336800 0.585100
9.381100 0.611600
9.425400 0.633800
9.469600 0.669800
9.513900 0.723900
9.558200 0.771000
9.602500 1.002700
9.646700 0.956800
9.691000 0.858100
9.735300 0.841400
9.779600 0.836200
9.823900 0.960100
9.868100 1.013200
9.912400 1.010700
9.956700 0.693700
10.001000 0.488900
10.045200 0.422900
10.089500 0.360800
10.133800 0.307100
10.178100 0.267600
10.222300 0.191800
10.266600 0.143900
10.310900 0.115000
10.355200 0.069900
10.399400 0.057500
10.443700 0.069000
10.488000 0.103100
10.532300 0.207400
10.576500 0.188100
10.620800 0.179800
10.665100 0.184000
10.709400 0.198800
10.753700 0.247000
10.797900 0.326500
10.842200 0.405700
10.886500 0.526000
10.930800 0.641700
10.975000 0.746100
11.019300 0.742500
11.063600 0.809800
11.107900 0.879700
11.152100 0.926400
11.196400 0.904400
11.240700 0.811800
11.285000 0.786500
11.329200 0.795600
11.373500 0.790800
11.417800 0.788100
11.462100 0.842100
11.506300 0.957800
11.550600 0.894800
11.594900 0.820900
11.639200 0.764600
11.683500 0.714700
11.727700 0.699800
11.772000 0.703800
11.816300 0.709100
11.860600 0.720900
11.904800 0.748700
11.949100 0.814000
11.993400 0.921200
12.037700 0.913600
12.081900 0.916900
12.126200 0.938500
12.170500 0.969400
12.214800 1.170500
12.259000 1.060800
12.303300 0.993100
12.347600 0.911400
12.391900 0.812900
12.436100 0.759100
12.480400 0.725700
12.524700 0.707800
12.569000 0.673700
12.613300 0.642000
12.657500 0.605500
12.701800 0.570900
12.746100 0.540800
12.790400 0.525000
12.834600 0.506100
12.878900 0.487500
12.923200 0.471500
12.967500 0.457800
13.011700 0.444500
13.056000 0.427600
13.100300 0.411200
13.144600 0.396400
13.188800 0.379100
13.233100 0.365900
13.277400 0.354600
13.321700 0.342400
13.365900 0.329900
13.410200 0.318300
13.454500 0.309100
13.498800 0.319300
13.543100 0.304000
13.587300 0.281100
13.631600 0.247600
13.675900 0.222800
13.720200 0.204100
13.764400 0.186700
13.808700 0.190100
13.853000 0.180500
13.897300 0.141600
13.941500 0.095000
13.985800 0.109900
14.030100 0.129600
14.074400 0.145600
14.118600 0.149500
14.162900 0.151200
14.207200 0.160200
14.251500 0.168500
14.295700 0.176500
14.340000 0.186100
14.384300 0.197600
14.428600 0.210500
14.472900 0.227500
14.517100 0.244200
14.561400 0.255600
14.605700 0.276700
14.650000 0.285600
14.694200 0.285500
14.738500 0.291000
14.782800 0.295200
14.827100 0.299200
14.871300 0.304100
14.915600 0.310000
14.959900 0.318100
15.004200 0.325700
15.048400 0.332200
15.092700 0.338100
15.137000 0.342800
15.181300 0.346600
15.225500 0.351700
15.269800 0.385500
15.314100 0.366200
15.358400 0.358000
15.402700 0.367600
15.446900 0.416600
15.491200 0.497500
15.535500 0.485100
15.579800 0.481100
15.624000 0.485800
15.668300 0.491700
15.712600 0.497700
15.756900 0.504000
15.801100 0.512800
15.845400 0.523900
15.889700 0.570200
15.934000 0.592000
15.978200 0.607800
16.022500 0.606300
16.066800 0.620900
16.111100 0.634200
16.155400 0.643600
16.199600 0.644900
16.243900 0.646800
16.288200 0.653100
16.332500 0.692400
16.376700 0.685800
16.421000 0.701500
16.465300 0.704800
16.509600 0.729800
16.553800 0.623300
16.598100 0.487400
16.642400 0.506100
16.686700 0.746500
16.730900 0.695200
16.775200 0.776700
16.819500 0.757700
16.863800 0.773600
16.908000 0.822000
16.952300 0.898800
16.996600 0.929600
17.040900 0.897200
17.085200 0.900900
17.129400 0.827100
17.173700 0.797300
17.218000 0.768300
17.262300 0.750900
17.306500 0.742500
17.350800 0.735200
17.395100 0.729900
17.439400 0.736700
17.483600 0.723300
17.527900 0.711100
17.572200 0.712500
17.616500 0.680000
17.660700 0.674800
17.705000 0.661400
17.749300 0.648000
17.793600 0.646200
17.837800 0.657200
17.882100 0.646800
17.926400 0.642200
17.970700 0.645300
18.015000 0.661000
18.059200 0.679000
18.103500 0.684900
18.147800 0.669600
18.192100 0.681000
18.236300 0.702400
18.280600 0.726500
18.324900 0.744800
18.369200 0.753200
18.413400 0.744100
18.457700 0.736500
18.502000 0.736100
18.546300 0.702600
18.590500 0.686000
18.634800 0.687500
18.679100 0.680500
18.723400 0.696400
18.767600 0.700200
18.811900 0.691900
18.856200 0.655000
18.900500 0.635900
18.944800 0.644000
18.989000 0.579000
19.033300 0.557700
19.077600 0.550700
19.121900 0.548000
19.166100 0.572400
19.210400 0.509900
19.254700 0.496800
19.299000 0.501100
19.343200 0.511000
19.387500 0.530500
19.431800 0.595700
19.476100 0.654700
