set title 'mp-2237 - Density of States'
set xlabel 'Energy (eV)'
set ylabel 'DOS (states/eV)'
set grid
set xrange [-10:10]
set yrange [0:16.040]
set xzeroaxis lt -1
set terminal png size 800,600
set output 'mp-2237_dos_gnuplot.png'
plot '-' using 1:2 with lines title 'DOS'
-15.843800 0.000000
-15.824400 0.000000
-15.804900 0.000000
-15.785400 0.000000
-15.765900 0.000000
-15.746500 0.000000
-15.727000 0.000000
-15.707500 0.000000
-15.688000 0.000000
-15.668500 0.000000
-15.649100 0.000000
-15.629600 0.000000
-15.610100 0.000000
-15.590600 0.000000
-15.571200 0.000000
-15.551700 0.000000
-15.532200 0.000000
-15.512700 0.000000
-15.493200 0.000000
-15.473800 0.000000
-15.454300 0.000000
-15.434800 0.000000
-15.415300 0.000000
-15.395900 0.000000
-15.376400 0.000000
-15.356900 0.000000
-15.337400 0.000000
-15.317900 0.000000
-15.298500 0.000000
-15.279000 0.000000
-15.259500 0.000000
-15.240000 0.000000
-15.220500 0.000000
-15.201100 0.000000
-15.181600 0.000000
-15.162100 0.000000
-15.142600 0.000000
-15.123200 0.000000
-15.103700 0.000000
-15.084200 0.000000
-15.064700 0.000000
-15.045200 0.000000
-15.025800 0.000000
-15.006300 0.000000
-14.986800 0.000000
-14.967300 0.000000
-14.947900 0.000000
-14.928400 0.000000
-14.908900 0.000000
-14.889400 0.000000
-14.869900 0.000000
-14.850500 0.000000
-14.831000 0.000000
-14.811500 0.000000
-14.792000 0.000000
-14.772600 0.000000
-14.753100 0.000000
-14.733600 0.000000
-14.714100 0.000000
-14.694600 0.000000
-14.675200 0.000000
-14.655700 0.000000
-14.636200 0.000000
-14.616700 0.000000
-14.597300 0.000000
-14.577800 0.000000
-14.558300 0.000000
-14.538800 0.000000
-14.519300 0.000000
-14.499900 0.000000
-14.480400 0.000000
-14.460900 0.000000
-14.441400 0.000000
-14.422000 0.000000
-14.402500 0.000000
-14.383000 0.000000
-14.363500 0.000000
-14.344000 0.000000
-14.324600 0.000000
-14.305100 0.000000
-14.285600 0.000000
-14.266100 0.000000
-14.246600 0.000000
-14.227200 0.000000
-14.207700 0.000000
-14.188200 0.000000
-14.168700 0.000000
-14.149300 0.000000
-14.129800 0.000000
-14.110300 0.000000
-14.090800 0.000000
-14.071300 0.119800
-14.051900 0.241300
-14.032400 0.356700
-14.012900 0.411500
-13.993400 0.459800
-13.974000 0.521500
-13.954500 0.597000
-13.935000 0.634100
-13.915500 0.666900
-13.896000 0.704000
-13.876600 0.749500
-13.857100 0.798700
-13.837600 0.848600
-13.818100 0.883400
-13.798700 0.916600
-13.779200 0.951300
-13.759700 0.986900
-13.740200 1.024200
-13.720700 1.063700
-13.701300 1.105300
-13.681800 1.147600
-13.662300 1.185600
-13.642800 1.221700
-13.623400 1.254800
-13.603900 1.290600
-13.584400 1.328300
-13.564900 1.368600
-13.545400 1.410300
-13.526000 1.453000
-13.506500 1.496900
-13.487000 1.760400
-13.467500 1.793000
-13.448100 1.763800
-13.428600 1.758700
-13.409100 1.748400
-13.389600 1.742900
-13.370100 1.722000
-13.350700 1.717800
-13.331200 1.705300
-13.311700 1.692600
-13.292200 1.683200
-13.272700 2.123500
-13.253300 2.178700
-13.233800 2.240300
-13.214300 2.328400
-13.194800 2.418100
-13.175400 2.533200
-13.155900 2.892200
-13.136400 2.938900
-13.116900 2.825000
-13.097400 2.849300
-13.078000 2.863700
-13.058500 2.848400
-13.039000 2.869900
-13.019500 2.880100
-13.000100 2.891300
-12.980600 2.907700
-12.961100 2.904000
-12.941600 2.911400
-12.922100 2.925700
-12.902700 2.949700
-12.883200 2.984600
-12.863700 3.016900
-12.844200 3.029800
-12.824800 3.058600
-12.805300 3.090100
-12.785800 3.129900
-12.766300 3.183500
-12.746800 3.405800
-12.727400 3.498100
-12.707900 3.514100
-12.688400 3.542400
-12.668900 3.585000
-12.649500 3.758100
-12.630000 3.831200
-12.610500 3.929300
-12.591000 4.053700
-12.571500 4.171300
-12.552100 4.522500
-12.532600 4.365600
-12.513100 4.226500
-12.493600 5.143800
-12.474200 9.941100
-12.454700 2.877800
-12.435200 2.475000
-12.415700 2.179600
-12.396200 1.964800
-12.376800 1.715800
-12.357300 1.532200
-12.337800 1.449500
-12.318300 1.239200
-12.298800 1.074900
-12.279400 1.495500
-12.259900 2.446100
-12.240400 3.112100
-12.220900 4.693000
-12.201500 5.019200
-12.182000 5.073100
-12.162500 5.091400
-12.143000 5.278100
-12.123500 5.484300
-12.104100 5.653400
-12.084600 6.035000
-12.065100 6.489800
-12.045600 11.124000
-12.026200 14.105500
-12.006700 18.940400
-11.987200 21.485600
-11.967700 22.236600
-11.948200 16.963900
-11.928800 12.221800
-11.909300 9.850300
-11.889800 7.342400
-11.870300 8.402600
-11.850900 11.696500
-11.831400 0.000000
-11.811900 0.000000
-11.792400 0.000000
-11.772900 0.000000
-11.753500 0.000000
-11.734000 0.000000
-11.714500 0.000000
-11.695000 0.000000
-11.675600 0.000000
-11.656100 0.000000
-11.636600 0.000000
-11.617100 0.000000
-11.597600 0.000000
-11.578200 0.000000
-11.558700 0.000000
-11.539200 0.000000
-11.519700 0.000000
-11.500300 0.000000
-11.480800 0.000000
-11.461300 0.000000
-11.441800 0.000000
-11.422300 0.000000
-11.402900 0.000000
-11.383400 0.000000
-11.363900 0.000000
-11.344400 0.000000
-11.324900 0.000000
-11.305500 0.000000
-11.286000 0.000000
-11.266500 0.000000
-11.247000 0.000000
-11.227600 0.000000
-11.208100 0.000000
-11.188600 0.000000
-11.169100 0.000000
-11.149600 0.000000
-11.130200 0.000000
-11.110700 0.000000
-11.091200 0.000000
-11.071700 0.000000
-11.052300 0.000000
-11.032800 0.000000
-11.013300 0.000000
-10.993800 0.000000
-10.974300 0.000000
-10.954900 0.000000
-10.935400 0.000000
-10.915900 0.000000
-10.896400 0.000000
-10.877000 0.000000
-10.857500 0.000000
-10.838000 0.000000
-10.818500 0.000000
-10.799000 0.000000
-10.779600 0.000000
-10.760100 0.000000
-10.740600 0.000000
-10.721100 0.000000
-10.701700 0.000000
-10.682200 0.000000
-10.662700 0.000000
-10.643200 0.000000
-10.623700 0.000000
-10.604300 0.000000
-10.584800 0.000000
-10.565300 0.000000
-10.545800 0.000000
-10.526400 0.000000
-10.506900 0.000000
-10.487400 0.000000
-10.467900 0.000000
-10.448400 0.000000
-10.429000 0.000000
-10.409500 0.000000
-10.390000 0.000000
-10.370500 0.000000
-10.351000 0.000000
-10.331600 0.000000
-10.312100 0.000000
-10.292600 0.000000
-10.273100 0.000000
-10.253700 0.000000
-10.234200 0.000000
-10.214700 0.000000
-10.195200 0.000000
-10.175700 0.000000
-10.156300 0.000000
-10.136800 0.000000
-10.117300 0.000000
-10.097800 0.000000
-10.078400 0.000000
-10.058900 0.000000
-10.039400 0.000000
-10.019900 0.000000
-10.000400 0.000000
-9.981000 0.000000
-9.961500 0.000000
-9.942000 0.000000
-9.922500 0.000000
-9.903100 0.000000
-9.883600 0.000000
-9.864100 0.000000
-9.844600 0.000000
-9.825100 0.000000
-9.805700 0.000000
-9.786200 0.000000
-9.766700 0.000000
-9.747200 0.000000
-9.727800 0.000000
-9.708300 0.000000
-9.688800 0.000000
-9.669300 0.000000
-9.649800 0.000000
-9.630400 0.000000
-9.610900 0.000000
-9.591400 0.000000
-9.571900 0.000000
-9.552500 0.000000
-9.533000 0.000000
-9.513500 0.000000
-9.494000 0.000000
-9.474500 0.000000
-9.455100 0.000000
-9.435600 0.000000
-9.416100 0.000000
-9.396600 0.000000
-9.377100 0.000000
-9.357700 0.000000
-9.338200 0.000000
-9.318700 0.000000
-9.299200 0.000000
-9.279800 0.000000
-9.260300 0.000000
-9.240800 0.000000
-9.221300 0.000000
-9.201800 0.000000
-9.182400 0.000000
-9.162900 0.000000
-9.143400 0.000000
-9.123900 0.000000
-9.104500 0.000000
-9.085000 0.000000
-9.065500 0.000000
-9.046000 0.000000
-9.026500 0.000000
-9.007100 0.000000
-8.987600 0.000000
-8.968100 0.000000
-8.948600 0.000000
-8.929200 0.000000
-8.909700 0.000000
-8.890200 0.000000
-8.870700 0.000000
-8.851200 0.000000
-8.831800 0.000000
-8.812300 0.000000
-8.792800 0.000000
-8.773300 0.000000
-8.753900 0.000000
-8.734400 0.000000
-8.714900 0.000000
-8.695400 0.000000
-8.675900 0.000000
-8.656500 0.000000
-8.637000 0.000000
-8.617500 0.000000
-8.598000 0.000000
-8.578600 0.000000
-8.559100 0.000000
-8.539600 0.000000
-8.520100 0.000000
-8.500600 0.000000
-8.481200 0.000000
-8.461700 0.000000
-8.442200 0.000000
-8.422700 0.000000
-8.403200 0.000000
-8.383800 0.000000
-8.364300 0.000000
-8.344800 0.000000
-8.325300 0.000000
-8.305900 0.000000
-8.286400 0.000000
-8.266900 0.000000
-8.247400 0.000000
-8.227900 0.000000
-8.208500 0.000000
-8.189000 0.000000
-8.169500 0.000000
-8.150000 0.000000
-8.130600 0.000000
-8.111100 0.000000
-8.091600 0.000000
-8.072100 0.000000
-8.052600 0.000000
-8.033200 0.000000
-8.013700 0.000000
-7.994200 0.000000
-7.974700 0.000000
-7.955300 0.000000
-7.935800 0.000000
-7.916300 0.000000
-7.896800 0.000000
-7.877300 0.000000
-7.857900 0.000000
-7.838400 0.000000
-7.818900 0.000000
-7.799400 0.000000
-7.780000 0.000000
-7.760500 0.000000
-7.741000 0.000000
-7.721500 0.000000
-7.702000 0.000000
-7.682600 0.000000
-7.663100 0.000000
-7.643600 0.000000
-7.624100 0.000000
-7.604700 0.000000
-7.585200 0.000000
-7.565700 0.000000
-7.546200 0.000000
-7.526700 0.000000
-7.507300 0.000000
-7.487800 0.000000
-7.468300 0.000000
-7.448800 0.000000
-7.429300 0.000000
-7.409900 0.000000
-7.390400 0.000000
-7.370900 0.000000
-7.351400 0.000000
-7.332000 0.000000
-7.312500 0.000000
-7.293000 0.000000
-7.273500 0.000000
-7.254000 0.000000
-7.234600 0.000000
-7.215100 0.000000
-7.195600 0.000000
-7.176100 0.000000
-7.156700 0.000000
-7.137200 0.000000
-7.117700 0.000000
-7.098200 0.000000
-7.078700 0.000000
-7.059300 0.000000
-7.039800 0.000000
-7.020300 0.000000
-7.000800 0.000000
-6.981400 0.000000
-6.961900 0.000000
-6.942400 0.000000
-6.922900 0.000000
-6.903400 0.000000
-6.884000 0.000000
-6.864500 0.000000
-6.845000 0.000000
-6.825500 0.000000
-6.806100 0.000000
-6.786600 0.288200
-6.767100 0.443800
-6.747600 0.364900
-6.728100 0.432100
-6.708700 0.490800
-6.689200 0.559000
-6.669700 0.568300
-6.650200 0.564900
-6.630800 0.559600
-6.611300 0.576700
-6.591800 0.599100
-6.572300 0.616300
-6.552800 0.639500
-6.533400 0.667100
-6.513900 0.697400
-6.494400 0.731200
-6.474900 0.769900
-6.455400 0.784200
-6.436000 0.801500
-6.416500 0.812800
-6.397000 0.821700
-6.377500 0.845000
-6.358100 0.866400
-6.338600 0.894700
-6.319100 0.927200
-6.299600 0.962000
-6.280100 0.995900
-6.260700 1.030600
-6.241200 1.071900
-6.221700 1.117700
-6.202200 1.174800
-6.182800 1.368700
-6.163300 1.657200
-6.143800 1.859200
-6.124300 2.145400
-6.104800 2.762000
-6.085400 2.928000
-6.065900 2.987400
-6.046400 3.150700
-6.026900 3.058500
-6.007500 2.740700
-5.988000 2.566800
-5.968500 2.499800
-5.949000 2.437900
-5.929500 2.382500
-5.910100 2.339700
-5.890600 2.296500
-5.871100 2.270800
-5.851600 2.266000
-5.832200 2.245800
-5.812700 2.227900
-5.793200 2.329400
-5.773700 2.101200
-5.754200 2.148600
-5.734800 2.259200
-5.715300 2.365300
-5.695800 2.528500
-5.676300 3.094200
-5.656800 2.026000
-5.637400 1.972900
-5.617900 1.918000
-5.598400 1.873600
-5.578900 1.842000
-5.559500 1.811600
-5.540000 1.781900
-5.520500 1.752100
-5.501000 1.721200
-5.481500 1.687900
-5.462100 1.665500
-5.442600 1.640600
-5.423100 1.617900
-5.403600 1.594500
-5.384200 1.570500
-5.364700 1.554600
-5.345200 1.544300
-5.325700 1.526500
-5.306200 1.508100
-5.286800 1.485500
-5.267300 1.488500
-5.247800 1.481300
-5.228300 1.467500
-5.208900 1.521300
-5.189400 1.544200
-5.169900 1.433900
-5.150400 1.363700
-5.130900 1.281800
-5.111500 1.253200
-5.092000 1.225700
-5.072500 1.194400
-5.053000 1.169600
-5.033600 1.145300
-5.014100 1.119200
-4.994600 1.102400
-4.975100 1.085900
-4.955600 1.071500
-4.936200 1.063600
-4.916700 1.058200
-4.897200 1.062700
-4.877700 1.046000
-4.858300 1.030200
-4.838800 1.015500
-4.819300 1.013300
-4.799800 1.011000
-4.780300 1.012900
-4.760900 1.094900
-4.741400 1.084300
-4.721900 1.081500
-4.702400 1.070600
-4.682900 1.155600
-4.663500 1.211400
-4.644000 1.231000
-4.624500 1.206900
-4.605000 1.176700
-4.585600 1.151000
-4.566100 1.209000
-4.546600 1.316400
-4.527100 0.860900
-4.507600 0.838800
-4.488200 0.817400
-4.468700 0.796500
-4.449200 0.775900
-4.429700 0.755900
-4.410300 0.736700
-4.390800 0.718400
-4.371300 0.701400
-4.351800 0.686000
-4.332300 0.672800
-4.312900 0.659900
-4.293400 0.646300
-4.273900 0.632900
-4.254400 0.619900
-4.235000 0.606900
-4.215500 0.588800
-4.196000 0.578800
-4.176500 0.568700
-4.157000 0.558400
-4.137600 0.547500
-4.118100 0.536100
-4.098600 0.524700
-4.079100 0.513000
-4.059700 0.502200
-4.040200 0.491300
-4.020700 0.480800
-4.001200 0.470600
-3.981700 0.460900
-3.962300 0.451400
-3.942800 0.440900
-3.923300 0.433600
-3.903800 0.426500
-3.884400 0.419400
-3.864900 0.412500
-3.845400 0.405600
-3.825900 0.398700
-3.806400 0.391900
-3.787000 0.384700
-3.767500 0.377400
-3.748000 0.370000
-3.728500 0.362600
-3.709000 0.352600
-3.689600 0.346400
-3.670100 0.340200
-3.650600 0.334000
-3.631100 0.327900
-3.611700 0.321800
-3.592200 0.315700
-3.572700 0.309700
-3.553200 0.303400
-3.533700 0.297100
-3.514300 0.291200
-3.494800 0.285400
-3.475300 0.279500
-3.455800 0.273700
-3.436400 0.267900
-3.416900 0.262300
-3.397400 0.256900
-3.377900 0.251700
-3.358400 0.246500
-3.339000 0.241300
-3.319500 0.236600
-3.300000 0.232000
-3.280500 0.227500
-3.261100 0.223000
-3.241600 0.218600
-3.222100 0.214200
-3.202600 0.208500
-3.183100 0.204400
-3.163700 0.200800
-3.144200 0.197100
-3.124700 0.193200
-3.105200 0.189300
-3.085800 0.185300
-3.066300 0.181300
-3.046800 0.177300
-3.027300 0.172200
-3.007800 0.169300
-2.988400 0.165700
-2.968900 0.162000
-2.949400 0.158300
-2.929900 0.154700
-2.910500 0.151000
-2.891000 0.147300
-2.871500 0.143500
-2.852000 0.139400
-2.832500 0.135500
-2.813100 0.131700
-2.793600 0.128000
-2.774100 0.124500
-2.754600 0.121300
-2.735100 0.118200
-2.715700 0.115100
-2.696200 0.112100
-2.676700 0.109100
-2.657200 0.106300
-2.637800 0.103500
-2.618300 0.100800
-2.598800 0.098200
-2.579300 0.095900
-2.559800 0.093500
-2.540400 0.091100
-2.520900 0.088700
-2.501400 0.086300
-2.481900 0.082300
-2.462500 0.080000
-2.443000 0.077800
-2.423500 0.075500
-2.404000 0.073200
-2.384500 0.070900
-2.365100 0.068500
-2.345600 0.066100
-2.326100 0.063800
-2.306600 0.060800
-2.287200 0.057800
-2.267700 0.054900
-2.248200 0.052000
-2.228700 0.049300
-2.209200 0.046600
-2.189800 0.044000
-2.170300 0.041400
-2.150800 0.039000
-2.131300 0.040000
-2.111900 0.037200
-2.092400 0.034500
-2.072900 0.031800
-2.053400 0.029200
-2.033900 0.026800
-2.014500 0.024400
-1.995000 0.022100
-1.975500 0.019800
-1.956000 0.017700
-1.936600 0.015700
-1.917100 0.000000
-1.897600 0.000000
-1.878100 0.000000
-1.858600 0.000000
-1.839200 0.000000
-1.819700 0.000000
-1.800200 0.000000
-1.780700 0.000000
-1.761200 0.000000
-1.741800 0.000000
-1.722300 0.000000
-1.702800 0.000000
-1.683300 0.000000
-1.663900 0.000000
-1.644400 0.000000
-1.624900 0.000000
-1.605400 0.000000
-1.585900 0.000000
-1.566500 0.000000
-1.547000 0.277100
-1.527500 0.459900
-1.508000 0.704900
-1.488600 0.970000
-1.469100 1.112100
-1.449600 1.216800
-1.430100 1.450700
-1.410600 1.735600
-1.391200 1.776500
-1.371700 1.840000
-1.352200 1.883400
-1.332700 1.881400
-1.313300 1.847000
-1.293800 1.820900
-1.274300 1.792600
-1.254800 1.782500
-1.235300 1.783000
-1.215900 1.789200
-1.196400 1.786400
-1.176900 1.793500
-1.157400 1.807100
-1.138000 1.824900
-1.118500 1.837800
-1.099000 1.844600
-1.079500 1.854100
-1.060000 1.847000
-1.040600 1.842100
-1.021100 1.853400
-1.001600 1.861800
-0.982100 1.871000
-0.962700 1.884100
-0.943200 1.901100
-0.923700 1.920400
-0.904200 1.944100
-0.884700 1.968300
-0.865300 2.002000
-0.845800 2.050700
-0.826300 2.099400
-0.806800 2.145600
-0.787300 2.190400
-0.767900 2.252100
-0.748400 2.319100
-0.728900 2.391200
-0.709400 2.685400
-0.690000 2.742600
-0.670500 3.058200
-0.651000 2.807200
-0.631500 2.684500
-0.612000 2.610400
-0.592600 2.551500
-0.573100 2.488100
-0.553600 2.398400
-0.534100 2.569100
-0.514700 2.525900
-0.495200 2.510100
-0.475700 2.537900
-0.456200 2.581100
-0.436700 2.634000
-0.417300 2.696900
-0.397800 2.740900
-0.378300 2.904700
-0.358800 3.006500
-0.339400 3.107200
-0.319900 3.165800
-0.300400 3.262200
-0.280900 3.352000
-0.261400 3.443700
-0.242000 3.600500
-0.222500 3.833200
-0.203000 4.297500
-0.183500 4.894400
-0.164100 4.688400
-0.144600 4.678500
-0.125100 4.962700
-0.105600 4.822500
-0.086100 5.004100
-0.066700 5.265000
-0.047200 4.999000
-0.027700 5.036400
-0.008200 5.109200
0.011200 5.087700
0.030700 4.928800
0.050200 4.879400
0.069700 5.538500
0.089200 5.452300
0.108600 4.694800
0.128100 4.078400
0.147600 3.929700
0.167100 3.786100
0.186600 3.722100
0.206000 3.644500
0.225500 3.594600
0.245000 3.671500
0.264500 3.532800
0.283900 3.469100
0.303400 3.324400
0.322900 3.237400
0.342400 3.209400
0.361900 3.197300
0.381300 3.179100
0.400800 3.175100
0.420300 3.183200
0.439800 3.256800
0.459200 3.264900
0.478700 3.236200
0.498200 3.254500
0.517700 3.007700
0.537200 2.847700
0.556600 2.717700
0.576100 2.597200
0.595600 2.456000
0.615100 2.315800
0.634500 2.315600
0.654000 2.351400
0.673500 2.577800
0.693000 3.535600
0.712500 2.623400
0.731900 2.522600
0.751400 2.489700
0.770900 2.483000
0.790400 2.539000
0.809800 2.617300
0.829300 2.711000
0.848800 2.763900
0.868300 2.803700
0.887800 2.855800
0.907200 3.045400
0.926700 3.108100
0.946200 2.968000
0.965700 2.803000
0.985100 2.596500
1.004600 2.653400
1.024100 2.804300
1.043600 2.886000
1.063100 2.955600
1.082500 2.957900
1.102000 2.931900
1.121500 2.954800
1.141000 2.766000
1.160500 2.756900
1.179900 2.742600
1.199400 2.719200
1.218900 2.718900
1.238400 2.709000
1.257800 2.724700
1.277300 2.749600
1.296800 2.770400
1.316300 2.771400
1.335800 2.783400
1.355200 2.772300
1.374700 2.747900
1.394200 2.735800
1.413700 2.740000
1.433100 2.745100
1.452600 2.752900
1.472100 2.757600
1.491600 2.785100
1.511100 2.845800
1.530500 2.912300
1.550000 3.118000
1.569500 3.091800
1.589000 2.979300
1.608400 3.039200
1.627900 3.097100
1.647400 3.107000
1.666900 3.096200
1.686400 3.087500
1.705800 2.891700
1.725300 2.736700
1.744800 2.534600
1.764300 2.402100
1.783700 2.303400
1.803200 2.210500
1.822700 2.249200
1.842200 2.529800
1.861700 2.912000
1.881100 3.004500
1.900600 2.823100
1.920100 2.828400
1.939600 2.695400
1.959000 2.751800
1.978500 2.804900
1.998000 2.858900
2.017500 2.979000
2.037000 3.477000
2.056400 3.572700
2.075900 3.634400
2.095400 3.601300
2.114900 3.611900
2.134400 3.628800
2.153800 3.656800
2.173300 3.639400
2.192800 3.741100
2.212300 2.985900
2.231700 3.679200
2.251200 2.333800
2.270700 2.402100
2.290200 2.478400
2.309700 2.566200
2.329100 2.668200
2.348600 2.930600
2.368100 2.996700
2.387600 3.077500
2.407000 3.224600
2.426500 3.251900
2.446000 3.155600
2.465500 3.219600
2.485000 3.420900
2.504400 3.719200
2.523900 4.509500
2.543400 4.507100
2.562900 3.285000
2.582300 3.001600
2.601800 2.817000
2.621300 2.701300
2.640800 2.706200
2.660300 2.708400
2.679700 2.873400
2.699200 2.771100
2.718700 4.373300
2.738200 3.648300
2.757600 3.678000
2.777100 4.030800
2.796600 4.186500
2.816100 4.374500
2.835600 4.813000
2.855000 7.035600
2.874500 5.984100
2.894000 9.398100
2.913500 5.300500
2.932900 4.532400
2.952400 4.270400
2.971900 4.020000
2.991400 3.913500
3.010900 3.910200
3.030300 3.981200
3.049800 4.094500
3.069300 5.380500
3.088800 5.487700
3.108300 4.058900
3.127700 3.718200
3.147200 3.655300
3.166700 3.610100
3.186200 4.687200
3.205600 4.824800
3.225100 5.130100
3.244600 5.893500
3.264100 6.138100
3.283600 5.937400
3.303000 6.589200
3.322500 7.011200
3.342000 5.937600
3.361500 4.846700
3.380900 4.124800
3.400400 3.923800
3.419900 3.859700
3.439400 3.885500
3.458900 3.797600
3.478300 3.863300
3.497800 3.953300
3.517300 4.083500
3.536800 4.193000
3.556200 4.382300
3.575700 5.323700
3.595200 4.472500
3.614700 4.831000
3.634200 7.062100
3.653600 8.547700
3.673100 9.677800
3.692600 12.510400
3.712100 13.885800
3.731500 14.582200
3.751000 13.095900
3.770500 13.449900
3.790000 11.771700
3.809500 9.868500
3.828900 9.411000
3.848400 7.813600
3.867900 6.264400
3.887400 5.363000
3.906800 4.611700
3.926300 3.910800
3.945800 3.250700
3.965300 2.672500
3.984800 2.179900
4.004200 1.714500
4.023700 1.435800
4.043200 1.210700
4.062700 1.145200
4.082200 1.217900
4.101600 1.520800
4.121100 2.080500
4.140600 3.279100
4.160100 3.608900
4.179500 3.189200
4.199000 2.803400
4.218500 2.465100
4.238000 2.237700
4.257500 2.189000
