set title 'mp-1147746 - Density of States'
set xlabel 'Energy (eV)'
set ylabel 'DOS (states/eV)'
set grid
set xrange [-10:10]
set yrange [0:16.513]
set xzeroaxis lt -1
set terminal png size 800,600
set output 'mp-1147746_dos_gnuplot.png'
plot '-' using 1:2 with lines title 'DOS'
-12.963800 0.000000
-12.939400 0.000000
-12.915000 0.000000
-12.890600 0.000000
-12.866300 0.000000
-12.841900 0.000000
-12.817500 0.000000
-12.793100 0.000000
-12.768700 0.000000
-12.744300 0.000000
-12.719900 0.000000
-12.695500 0.000000
-12.671100 0.000000
-12.646700 0.000000
-12.622300 0.000000
-12.597900 0.000000
-12.573500 0.000000
-12.549100 0.000000
-12.524700 0.000000
-12.500300 0.000000
-12.475900 0.000000
-12.451500 0.000000
-12.427100 0.000000
-12.402700 0.000000
-12.378300 0.000000
-12.353900 0.000000
-12.329500 0.000000
-12.305100 0.000000
-12.280700 0.000000
-12.256300 0.000000
-12.231900 0.000000
-12.207600 0.000000
-12.183200 0.000000
-12.158800 0.000000
-12.134400 0.000000
-12.110000 0.000000
-12.085600 0.000000
-12.061200 0.000000
-12.036800 0.000000
-12.012400 0.000000
-11.988000 0.000000
-11.963600 0.000000
-11.939200 0.000000
-11.914800 0.000000
-11.890400 0.000000
-11.866000 0.000000
-11.841600 0.000000
-11.817200 0.000000
-11.792800 0.000000
-11.768400 0.000000
-11.744000 0.000000
-11.719600 0.000000
-11.695200 0.000000
-11.670800 0.000000
-11.646400 0.000000
-11.622000 0.000000
-11.597600 0.000000
-11.573300 0.000000
-11.548900 0.000000
-11.524500 0.000000
-11.500100 0.000000
-11.475700 0.000000
-11.451300 0.000000
-11.426900 0.000000
-11.402500 0.000000
-11.378100 0.000000
-11.353700 0.000000
-11.329300 0.000000
-11.304900 0.000000
-11.280500 0.000000
-11.256100 0.000000
-11.231700 0.000000
-11.207300 0.000000
-11.182900 0.000000
-11.158500 0.000000
-11.134100 0.000000
-11.109700 0.000000
-11.085300 0.000000
-11.060900 0.000000
-11.036500 0.000000
-11.012100 0.000000
-10.987700 0.000000
-10.963300 0.000000
-10.939000 0.000000
-10.914600 0.000000
-10.890200 0.000000
-10.865800 0.000000
-10.841400 0.000000
-10.817000 0.000000
-10.792600 0.000000
-10.768200 0.000000
-10.743800 0.000900
-10.719400 0.121400
-10.695000 0.318700
-10.670600 0.380000
-10.646200 0.457900
-10.621800 0.546700
-10.597400 0.643600
-10.573000 0.721200
-10.548600 0.802300
-10.524200 0.907200
-10.499800 1.074800
-10.475400 1.133000
-10.451000 1.118300
-10.426600 1.165200
-10.402200 1.186600
-10.377800 1.185700
-10.353400 1.185200
-10.329000 1.206400
-10.304600 1.226900
-10.280300 1.250200
-10.255900 1.273400
-10.231500 1.293500
-10.207100 1.310200
-10.182700 1.330000
-10.158300 1.351300
-10.133900 1.374700
-10.109500 1.403200
-10.085100 1.431400
-10.060700 1.459200
-10.036300 1.486000
-10.011900 1.516000
-9.987500 1.548000
-9.963100 1.584300
-9.938700 1.626400
-9.914300 1.668800
-9.889900 1.713800
-9.865500 1.764400
-9.841100 1.820900
-9.816700 1.873700
-9.792300 1.924000
-9.767900 1.978300
-9.743500 2.640500
-9.719100 2.647700
-9.694700 2.918600
-9.670300 2.209800
-9.646000 1.991200
-9.621600 1.812500
-9.597200 1.675200
-9.572800 1.956000
-9.548400 4.865100
-9.524000 4.796800
-9.499600 5.868700
-9.475200 7.040100
-9.450800 7.273100
-9.426400 7.303800
-9.402000 7.546700
-9.377600 7.636200
-9.353200 7.926200
-9.328800 8.526300
-9.304400 8.956000
-9.280000 10.050600
-9.255600 7.358600
-9.231200 0.000000
-9.206800 0.000000
-9.182400 0.000000
-9.158000 0.000000
-9.133600 0.000000
-9.109200 0.000000
-9.084800 0.000000
-9.060400 0.000000
-9.036000 0.000000
-9.011700 0.000000
-8.987300 0.000000
-8.962900 0.000000
-8.938500 0.000000
-8.914100 0.000000
-8.889700 0.000000
-8.865300 0.000000
-8.840900 0.000000
-8.816500 0.000000
-8.792100 0.000000
-8.767700 0.000000
-8.743300 0.000000
-8.718900 0.000000
-8.694500 0.000000
-8.670100 0.000000
-8.645700 0.000000
-8.621300 0.000000
-8.596900 0.000000
-8.572500 0.000000
-8.548100 0.000000
-8.523700 0.000000
-8.499300 0.000000
-8.474900 0.000000
-8.450500 0.000000
-8.426100 0.000000
-8.401700 0.000000
-8.377300 0.000000
-8.353000 0.000000
-8.328600 0.000000
-8.304200 0.000000
-8.279800 0.000000
-8.255400 0.000000
-8.231000 0.000000
-8.206600 0.000000
-8.182200 0.000000
-8.157800 0.000000
-8.133400 0.000000
-8.109000 0.000000
-8.084600 0.000000
-8.060200 0.000000
-8.035800 0.000000
-8.011400 0.000000
-7.987000 0.000000
-7.962600 0.000000
-7.938200 0.000000
-7.913800 0.000000
-7.889400 0.000000
-7.865000 0.000000
-7.840600 0.000000
-7.816200 0.000000
-7.791800 0.000000
-7.767400 0.000000
-7.743000 0.000000
-7.718700 0.000000
-7.694300 0.000000
-7.669900 0.000000
-7.645500 0.000000
-7.621100 0.000000
-7.596700 0.000000
-7.572300 0.000000
-7.547900 0.000000
-7.523500 0.000000
-7.499100 0.000000
-7.474700 0.000000
-7.450300 0.000000
-7.425900 0.000000
-7.401500 0.000000
-7.377100 0.000000
-7.352700 0.000000
-7.328300 0.000000
-7.303900 0.000000
-7.279500 0.000000
-7.255100 0.000000
-7.230700 0.000000
-7.206300 0.000000
-7.181900 0.000000
-7.157500 0.000000
-7.133100 0.000000
-7.108700 0.000000
-7.084400 0.000000
-7.060000 0.000000
-7.035600 0.000000
-7.011200 0.000000
-6.986800 0.000000
-6.962400 0.000000
-6.938000 0.000000
-6.913600 0.000000
-6.889200 0.000000
-6.864800 0.000000
-6.840400 0.000000
-6.816000 0.000000
-6.791600 0.000000
-6.767200 0.000000
-6.742800 0.000000
-6.718400 0.000000
-6.694000 0.000000
-6.669600 0.000000
-6.645200 0.000000
-6.620800 0.000000
-6.596400 0.000000
-6.572000 0.000000
-6.547600 0.000000
-6.523200 0.000000
-6.498800 0.000000
-6.474400 0.000000
-6.450000 0.000000
-6.425700 0.000000
-6.401300 0.000000
-6.376900 0.000000
-6.352500 0.000000
-6.328100 0.000000
-6.303700 0.000000
-6.279300 0.000000
-6.254900 0.000000
-6.230500 0.000000
-6.206100 0.000000
-6.181700 0.000000
-6.157300 0.000000
-6.132900 0.000000
-6.108500 0.000000
-6.084100 0.000000
-6.059700 0.000000
-6.035300 0.000000
-6.010900 0.000000
-5.986500 0.000000
-5.962100 0.000000
-5.937700 0.000000
-5.913300 0.000000
-5.888900 0.000000
-5.864500 0.000000
-5.840100 0.000000
-5.815700 0.000000
-5.791400 0.000000
-5.767000 0.000000
-5.742600 0.000000
-5.718200 0.000000
-5.693800 0.000000
-5.669400 0.000000
-5.645000 0.000000
-5.620600 0.000000
-5.596200 0.000000
-5.571800 0.000000
-5.547400 0.000000
-5.523000 0.000000
-5.498600 0.000000
-5.474200 0.000000
-5.449800 0.000000
-5.425400 0.000000
-5.401000 0.000000
-5.376600 0.000000
-5.352200 0.000000
-5.327800 0.000000
-5.303400 0.000000
-5.279000 0.000000
-5.254600 0.000000
-5.230200 0.000000
-5.205800 0.000000
-5.181400 0.000000
-5.157100 0.000000
-5.132700 0.000000
-5.108300 0.000000
-5.083900 0.000000
-5.059500 0.000000
-5.035100 0.000000
-5.010700 0.000000
-4.986300 0.000000
-4.961900 0.000000
-4.937500 0.000000
-4.913100 0.000000
-4.888700 0.000000
-4.864300 0.000000
-4.839900 0.000000
-4.815500 0.000000
-4.791100 0.000000
-4.766700 0.000000
-4.742300 0.000000
-4.717900 0.000000
-4.693500 0.000000
-4.669100 0.000000
-4.644700 0.000000
-4.620300 0.000000
-4.595900 0.000000
-4.571500 0.000000
-4.547100 0.000000
-4.522700 0.000000
-4.498400 0.000000
-4.474000 0.000000
-4.449600 0.000000
-4.425200 0.000000
-4.400800 0.000000
-4.376400 0.000000
-4.352000 0.000000
-4.327600 0.000000
-4.303200 0.000000
-4.278800 0.000000
-4.254400 0.000000
-4.230000 0.000000
-4.205600 0.000000
-4.181200 0.000000
-4.156800 0.000000
-4.132400 0.000000
-4.108000 0.000000
-4.083600 0.000000
-4.059200 0.000000
-4.034800 0.000000
-4.010400 0.000000
-3.986000 0.000000
-3.961600 0.000000
-3.937200 0.000000
-3.912800 0.000000
-3.888400 0.000000
-3.864100 0.000000
-3.839700 0.000000
-3.815300 0.000000
-3.790900 0.000000
-3.766500 0.000000
-3.742100 0.000000
-3.717700 0.000000
-3.693300 0.000000
-3.668900 0.000000
-3.644500 0.000000
-3.620100 0.000000
-3.595700 0.000000
-3.571300 0.000000
-3.546900 0.000000
-3.522500 0.000000
-3.498100 0.000000
-3.473700 0.000000
-3.449300 0.000000
-3.424900 0.000000
-3.400500 0.000000
-3.376100 0.000000
-3.351700 0.000000
-3.327300 0.000000
-3.302900 0.000000
-3.278500 0.000000
-3.254100 0.000000
-3.229800 0.000000
-3.205400 0.000000
-3.181000 0.000000
-3.156600 0.000000
-3.132200 0.000000
-3.107800 0.000000
-3.083400 0.000000
-3.059000 0.000000
-3.034600 0.000000
-3.010200 0.000000
-2.985800 0.000000
-2.961400 0.000000
-2.937000 0.000000
-2.912600 0.000000
-2.888200 0.000000
-2.863800 0.000000
-2.839400 0.000000
-2.815000 0.000000
-2.790600 0.000000
-2.766200 0.000000
-2.741800 0.000000
-2.717400 0.000000
-2.693000 0.000000
-2.668600 0.000000
-2.644200 0.000000
-2.619800 0.000000
-2.595400 0.000000
-2.571100 0.000000
-2.546700 0.000000
-2.522300 0.000000
-2.497900 0.000000
-2.473500 0.000000
-2.449100 0.000000
-2.424700 0.000000
-2.400300 0.000000
-2.375900 0.000000
-2.351500 0.377500
-2.327100 0.441200
-2.302700 0.624800
-2.278300 0.823600
-2.253900 0.975800
-2.229500 1.100800
-2.205100 1.302300
-2.180700 1.557000
-2.156300 1.887600
-2.131900 2.374800
-2.107500 2.388900
-2.083100 2.563500
-2.058700 2.682000
-2.034300 2.749200
-2.009900 2.864100
-1.985500 4.812000
-1.961100 3.986700
-1.936800 4.570900
-1.912400 4.522300
-1.888000 4.454200
-1.863600 4.382100
-1.839200 4.215300
-1.814800 4.353100
-1.790400 4.405100
-1.766000 4.413200
-1.741600 4.439200
-1.717200 4.497900
-1.692800 4.575900
-1.668400 4.657600
-1.644000 4.754800
-1.619600 5.031500
-1.595200 5.547400
-1.570800 6.687600
-1.546400 6.121300
-1.522000 5.137700
-1.497600 3.925900
-1.473200 3.137600
-1.448800 2.331300
-1.424400 1.939100
-1.400000 1.763300
-1.375600 1.692200
-1.351200 1.695700
-1.326800 1.811100
-1.302500 1.768700
-1.278100 1.702600
-1.253700 1.630600
-1.229300 1.588500
-1.204900 1.546100
-1.180500 1.483200
-1.156100 1.422600
-1.131700 1.404400
-1.107300 1.351800
-1.082900 1.224800
-1.058500 1.171300
-1.034100 1.125100
-1.009700 1.044700
-0.985300 0.962300
-0.960900 0.910700
-0.936500 0.958800
-0.912100 1.161300
-0.887700 1.460500
-0.863300 1.809700
-0.838900 1.783100
-0.814500 1.923900
-0.790100 2.048900
-0.765700 2.132500
-0.741300 2.177100
-0.716900 2.248000
-0.692500 2.366500
-0.668100 2.476200
-0.643800 3.325000
-0.619400 4.702600
-0.595000 6.689400
-0.570600 9.371400
-0.546200 6.482500
-0.521800 5.314100
-0.497400 6.470900
-0.473000 8.048700
-0.448600 9.692400
-0.424200 11.582200
-0.399800 11.941800
-0.375400 11.789200
-0.351000 8.752900
-0.326600 8.028100
-0.302200 7.364700
-0.277800 6.544900
-0.253400 6.023900
-0.229000 6.010800
-0.204600 6.542400
-0.180200 6.976100
-0.155800 6.523400
-0.131400 6.459500
-0.107000 6.805300
-0.082600 7.073000
-0.058200 7.423700
-0.033800 8.017300
-0.009500 9.044800
0.014900 9.371300
0.039300 9.025400
0.063700 9.101300
0.088100 8.697500
0.112500 8.794600
0.136900 8.420300
0.161300 6.732600
0.185700 5.135900
0.210100 4.146300
0.234500 3.399600
0.258900 3.074200
0.283300 2.828700
0.307700 2.624600
0.332100 2.441100
0.356500 2.243300
0.380900 2.123100
0.405300 2.021800
0.429700 1.904700
0.454100 1.785900
0.478500 1.681500
0.502900 1.589600
0.527300 1.543700
0.551700 1.459500
0.576100 1.305900
0.600500 1.087600
0.624800 0.892500
0.649200 0.727500
0.673600 0.626900
0.698000 0.506500
0.722400 0.405300
0.746800 0.322800
0.771200 0.290000
0.795600 0.138700
0.820000 0.135600
0.844400 0.082300
0.868800 0.000000
0.893200 0.000000
0.917600 0.641400
0.942000 1.227400
0.966400 0.920800
0.990800 0.936600
1.015200 1.050200
1.039600 1.163700
1.064000 1.117800
1.088400 1.073200
1.112800 1.089000
1.137200 1.104800
1.161600 1.124500
1.186000 1.195200
1.210400 1.268600
1.234800 1.327300
1.259200 1.249500
1.283500 1.229700
1.307900 1.279500
1.332300 1.325200
1.356700 1.353500
1.381100 1.381800
1.405500 1.426600
1.429900 1.506900
1.454300 1.590300
1.478700 1.625300
1.503100 1.602400
1.527500 1.637700
1.551900 1.752300
1.576300 1.835600
1.600700 1.896000
1.625100 1.996500
1.649500 2.148200
1.673900 2.323000
1.698300 2.485600
1.722700 2.866300
1.747100 3.162700
1.771500 3.394800
1.795900 4.185600
1.820300 5.147500
1.844700 4.699100
1.869100 3.708500
1.893500 3.431200
1.917800 3.216800
1.942200 3.125300
1.966600 3.212900
1.991000 4.157200
2.015400 3.793700
2.039800 3.726300
2.064200 3.518700
2.088600 2.667700
2.113000 2.731000
2.137400 2.778200
2.161800 2.921600
2.186200 3.008500
2.210600 3.054900
2.235000 3.174000
2.259400 3.174200
2.283800 3.329700
2.308200 3.417000
2.332600 3.543300
2.357000 3.707900
2.381400 3.711100
2.405800 3.650800
2.430200 3.758200
2.454600 3.926300
2.479000 4.212900
2.503400 4.450900
2.527800 4.724200
2.552100 4.916300
2.576500 5.289300
2.600900 5.739500
2.625300 6.208600
2.649700 6.836800
2.674100 7.539100
2.698500 7.847800
2.722900 7.355200
2.747300 6.724600
2.771700 6.338500
2.796100 7.214400
2.820500 11.562500
2.844900 13.274200
2.869300 15.011700
2.893700 13.618700
2.918100 13.127300
2.942500 13.272400
2.966900 12.274500
2.991300 11.516500
3.015700 10.120100
3.040100 9.587900
3.064500 8.927500
3.088900 9.234900
3.113300 9.730100
3.137700 10.728600
3.162100 12.086200
3.186500 7.430400
3.210800 6.201300
3.235200 5.459400
3.259600 5.050600
3.284000 5.003600
3.308400 5.019400
3.332800 4.905500
3.357200 4.660300
3.381600 4.531400
3.406000 4.712400
3.430400 4.125800
3.454800 3.111300
3.479200 2.638100
3.503600 2.044300
3.528000 1.897300
3.552400 1.902500
3.576800 1.836100
3.601200 1.830600
3.625600 1.803900
3.650000 1.769500
3.674400 1.740400
3.698800 1.733800
3.723200 1.727800
3.747600 1.719700
3.772000 1.707800
3.796400 1.670200
3.820800 1.551500
3.845100 1.376000
3.869500 1.220000
3.893900 1.124800
3.918300 1.069000
3.942700 1.057200
3.967100 1.084800
3.991500 1.114400
4.015900 1.144400
4.040300 1.173700
4.064700 1.203000
4.089100 1.232400
4.113500 1.264800
4.137900 1.305200
4.162300 1.350900
4.186700 1.398000
4.211100 1.446500
4.235500 1.494000
4.259900 1.533500
4.284300 1.559300
4.308700 1.742500
4.333100 2.055800
4.357500 2.462900
4.381900 2.650500
4.406300 2.777200
4.430700 2.976800
4.455100 3.289700
4.479400 4.066100
4.503800 4.985400
4.528200 6.837700
4.552600 6.676300
4.577000 6.765700
4.601400 7.427200
4.625800 6.839800
4.650200 6.166500
4.674600 5.566000
4.699000 5.230000
4.723400 5.109600
4.747800 5.020300
4.772200 5.037200
4.796600 5.144900
4.821000 5.248700
4.845400 5.441600
4.869800 5.439400
4.894200 5.216200
4.918600 5.215300
4.943000 5.301600
4.967400 5.529600
4.991800 5.726900
5.016200 6.059900
5.040600 6.412800
5.065000 7.074200
5.089400 7.469700
5.113800 6.155000
5.138100 5.480500
5.162500 5.088800
5.186900 4.867700
5.211300 4.622700
5.235700 4.448100
5.260100 4.315700
5.284500 4.153600
5.308900 3.979600
5.333300 3.877200
5.357700 3.857600
5.382100 4.234200
5.406500 4.055000
5.430900 3.287700
5.455300 2.819100
5.479700 2.813400
5.504100 2.828200
5.528500 2.785800
5.552900 2.572000
5.577300 2.485100
5.601700 2.413500
5.626100 2.353400
5.650500 2.316800
5.674900 2.300900
5.699300 2.265600
5.723700 2.206500
5.748100 2.156600
5.772400 2.160400
5.796800 2.198800
5.821200 2.154400
5.845600 2.152800
5.870000 2.356000
5.894400 2.547600
5.918800 2.432500
5.943200 1.836500
5.967600 1.589500
5.992000 1.324100
6.016400 1.152000
6.040800 1.073800
6.065200 0.780700
6.089600 0.596300
6.114000 0.471100
6.138400 0.357700
6.162800 0.245600
6.187200 0.182800
6.211600 0.091000
6.236000 0.000000
6.260400 0.000000
6.284800 0.000000
6.309200 0.000000
6.333600 0.000000
6.358000 0.000000
6.382400 0.000000
6.406700 0.000000
6.431100 0.000000
6.455500 0.000000
6.479900 0.000000
6.504300 0.000000
6.528700 0.000000
6.553100 0.000000
6.577500 0.000000
6.601900 0.000000
6.626300 0.000000
6.650700 0.000000
6.675100 0.000000
6.699500 0.000000
6.723900 0.000000
6.748300 0.000000
6.772700 0.000000
6.797100 0.000000
6.821500 0.000000
6.845900 0.000000
6.870300 0.000000
6.894700 0.000000
6.919100 0.000000
6.943500 0.000000
6.967900 0.000000
6.992300 0.000000
7.016700 0.000000
7.041100 0.000000
7.065400 0.000000
7.089800 0.000000
7.114200 0.000000
7.138600 0.000000
7.163000 0.000000
7.187400 0.000000
7.211800 0.000000
7.236200 0.000000
7.260600 0.000000
7.285000 0.000000
7.309400 0.000000
7.333800 0.000000
7.358200 0.000000
7.382600 0.000000
7.407000 0.000000
7.431400 0.000000
7.455800 0.000000
7.480200 0.000000
7.504600 0.000000
7.529000 0.000000
7.553400 0.000000
7.577800 0.000000
7.602200 0.000000
7.626600 0.000000
7.651000 0.000000
7.675400 0.000000
7.699700 0.000000
7.724100 0.000000
7.748500 0.000000
7.772900 0.000000
7.797300 0.000000
7.821700 0.000100
7.846100 0.000700
7.870500 0.002000
7.894900 0.003900
7.919300 0.006500
7.943700 0.009800
7.968100 0.013700
7.992500 0.018200
8.016900 0.023400
8.041300 0.029800
8.065700 0.036700
8.090100 0.042800
8.114500 0.048200
8.138900 0.053000
8.163300 0.057000
8.187700 0.060200
8.212100 0.062800
8.236500 0.064900
8.260900 0.066900
8.285300 0.069500
8.309700 0.072500
8.334000 0.076000
8.358400 0.080000
8.382800 0.084500
8.407200 0.089300
8.431600 0.094300
8.456000 0.099500
8.480400 0.104700
8.504800 0.110100
8.529200 0.115600
8.553600 0.121000
8.578000 0.125900
8.602400 0.130500
8.626800 0.134600
8.651200 0.139300
8.675600 0.145200
8.700000 0.151200
8.724400 0.157800
8.748800 0.164600
8.773200 0.171700
8.797600 0.178800
8.822000 0.185000
8.846400 0.191300
8.870800 0.197500
8.895200 0.203800
8.919600 0.210200
8.944000 0.217600
8.968400 0.233600
8.992700 0.260200
9.017100 0.292400
9.041500 0.328800
9.065900 0.360500
9.090300 0.387500
9.114700 0.416300
9.139100 0.447000
9.163500 0.477700
9.187900 0.508200
9.212300 0.537900
9.236700 0.566400
9.261100 0.596200
9.285500 0.630200
9.309900 0.668200
9.334300 0.748600
9.358700 0.860700
9.383100 1.044100
9.407500 1.320900
9.431900 1.525100
9.456300 1.645300
9.480700 1.707900
9.505100 1.829600
9.529500 1.936500
9.553900 2.101700
9.578300 2.218100
9.602700 2.311000
9.627000 2.377100
9.651400 2.426300
9.675800 2.522200
9.700200 2.600300
9.724600 2.681900
9.749000 2.744200
9.773400 2.788300
9.797800 2.807000
9.822200 2.855700
9.846600 2.954900
9.871000 3.075400
9.895400 3.125600
9.919800 3.105800
9.944200 3.165100
9.968600 3.165500
9.993000 3.186300
10.017400 3.221900
10.041800 3.236600
10.066200 3.254600
10.090600 3.262700
10.115000 3.342800
10.139400 3.192800
10.163800 3.143400
10.188200 3.083800
10.212600 3.095700
10.237000 2.962400
10.261300 2.959300
10.285700 2.903500
10.310100 2.414600
10.334500 2.356200
10.358900 2.316500
10.383300 2.317800
10.407700 2.363300
10.432100 2.356600
10.456500 2.339700
10.480900 2.336600
10.505300 2.358200
10.529700 2.367800
10.554100 2.295000
10.578500 2.355700
10.602900 2.396300
10.627300 2.399600
10.651700 2.373000
10.676100 2.436800
10.700500 2.403900
10.724900 2.390400
10.749300 2.268800
10.773700 2.231800
10.798100 2.280000
10.822500 2.185200
10.846900 1.879300
10.871300 1.778500
10.895700 1.956000
10.920000 1.564900
10.944400 1.526500
10.968800 1.507600
10.993200 1.505400
11.017600 1.529800
11.042000 1.577300
11.066400 1.654900
11.090800 1.744500
11.115200 1.865300
11.139600 2.017000
11.164000 2.366400
11.188400 2.610100
11.212800 2.958500
11.237200 3.133700
11.261600 3.539500
11.286000 3.600600
11.310400 3.676500
11.334800 3.691600
11.359200 3.713200
11.383600 3.933300
11.408000 4.056400
11.432400 3.983000
11.456800 3.749800
11.481200 3.309200
11.505600 2.930300
11.530000 2.907700
11.554300 3.155200
11.578700 4.460400
11.603100 3.719000
11.627500 3.602100
11.651900 3.502600
11.676300 3.358300
11.700700 3.226300
11.725100 3.190400
11.749500 3.248900
11.773900 3.620200
11.798300 4.053800
11.822700 4.531000
11.847100 4.766400
11.871500 4.734200
11.895900 4.359900
11.920300 4.129600
11.944700 3.842900
11.969100 3.326200
11.993500 3.183500
12.017900 3.168000
12.042300 3.152500
12.066700 3.131500
12.091100 3.139300
12.115500 3.177500
12.139900 3.133600
12.164300 3.045100
12.188600 3.042600
12.213000 3.076800
12.237400 3.085700
12.261800 3.077400
12.286200 3.244000
12.310600 2.965800
12.335000 2.691100
12.359400 2.525800
12.383800 2.605300
12.408200 2.617900
12.432600 2.651900
12.457000 2.894700
12.481400 2.920600
12.505800 2.788900
12.530200 2.663200
12.554600 2.650200
12.579000 2.673300
12.603400 2.681000
12.627800 2.718500
12.652200 2.816700
12.676600 2.770800
