set title 'mp-1014013 - Density of States'
set xlabel 'Energy (eV)'
set ylabel 'DOS (states/eV)'
set grid
set xrange [-10:10]
set yrange [0:11.712]
set xzeroaxis lt -1
set terminal png size 800,600
set output 'mp-1014013_dos_gnuplot.png'
plot '-' using 1:2 with lines title 'DOS'
-19.685100 0.000000
-19.671100 0.000000
-19.657200 0.000000
-19.643300 0.000000
-19.629300 0.000000
-19.615400 0.000000
-19.601400 0.000000
-19.587500 0.000000
-19.573600 0.000000
-19.559600 0.000000
-19.545700 0.000000
-19.531700 0.000000
-19.517800 0.000000
-19.503900 0.000000
-19.489900 0.000000
-19.476000 0.000000
-19.462000 0.000000
-19.448100 0.000000
-19.434200 0.000000
-19.420200 0.000000
-19.406300 0.000000
-19.392300 0.000000
-19.378400 0.000000
-19.364500 0.000000
-19.350500 0.000000
-19.336600 0.000000
-19.322600 0.000000
-19.308700 0.000000
-19.294800 0.000000
-19.280800 0.000000
-19.266900 0.000000
-19.253000 0.000000
-19.239000 0.000000
-19.225100 0.000000
-19.211100 0.000000
-19.197200 0.000000
-19.183300 0.000000
-19.169300 0.000000
-19.155400 0.000000
-19.141400 0.000000
-19.127500 0.000000
-19.113600 0.000000
-19.099600 0.000000
-19.085700 0.000000
-19.071700 0.000000
-19.057800 0.000000
-19.043900 0.000000
-19.029900 0.000000
-19.016000 0.000000
-19.002000 0.000000
-18.988100 0.000000
-18.974200 0.000000
-18.960200 0.000000
-18.946300 0.000000
-18.932300 0.000000
-18.918400 0.000000
-18.904500 0.000000
-18.890500 0.000000
-18.876600 0.000000
-18.862600 0.000000
-18.848700 0.000000
-18.834800 0.000000
-18.820800 0.000000
-18.806900 0.000000
-18.792900 0.000000
-18.779000 0.000000
-18.765100 0.000000
-18.751100 0.000000
-18.737200 0.000000
-18.723200 0.000000
-18.709300 0.000000
-18.695400 0.000000
-18.681400 0.000000
-18.667500 0.000000
-18.653500 0.000000
-18.639600 0.000000
-18.625700 0.000000
-18.611700 0.000000
-18.597800 0.000000
-18.583800 0.000000
-18.569900 0.000000
-18.556000 0.000000
-18.542000 0.000000
-18.528100 0.000000
-18.514100 0.000000
-18.500200 0.000000
-18.486300 0.000000
-18.472300 0.000000
-18.458400 0.000000
-18.444400 0.000000
-18.430500 0.000000
-18.416600 0.008500
-18.402600 0.101500
-18.388700 0.194600
-18.374700 0.287700
-18.360800 0.380700
-18.346900 0.473800
-18.332900 0.566900
-18.319000 0.660000
-18.305000 0.753000
-18.291100 0.846100
-18.277200 0.913200
-18.263200 0.946200
-18.249300 0.979100
-18.235400 1.012100
-18.221400 0.996500
-18.207500 0.966700
-18.193500 0.936800
-18.179600 0.907000
-18.165700 0.877100
-18.151700 0.847300
-18.137800 0.817400
-18.123800 0.787600
-18.109900 0.757700
-18.096000 0.735200
-18.082000 0.746300
-18.068100 0.757500
-18.054100 0.768600
-18.040200 0.779800
-18.026300 0.790900
-18.012300 0.802000
-17.998400 0.813200
-17.984400 0.824300
-17.970500 0.835400
-17.956600 0.846600
-17.942600 0.857700
-17.928700 0.868800
-17.914700 0.880000
-17.900800 0.891100
-17.886900 0.896000
-17.872900 0.895900
-17.859000 0.895700
-17.845000 0.895600
-17.831100 0.895500
-17.817200 0.895300
-17.803200 0.895200
-17.789300 0.895100
-17.775300 0.895000
-17.761400 0.894800
-17.747500 0.894700
-17.733500 0.894600
-17.719600 0.894400
-17.705600 0.898100
-17.691700 0.905800
-17.677800 0.910400
-17.663800 0.905600
-17.649900 0.900900
-17.635900 0.896100
-17.622000 0.891300
-17.608100 0.886600
-17.594100 0.881800
-17.580200 0.877000
-17.566200 0.872200
-17.552300 0.867500
-17.538400 0.869900
-17.524400 0.873000
-17.510500 0.876100
-17.496500 0.879300
-17.482600 0.882400
-17.468700 0.885500
-17.454700 0.888600
-17.440800 0.891700
-17.426800 0.894900
-17.412900 0.898000
-17.399000 0.901100
-17.385000 0.904200
-17.371100 0.907300
-17.357100 0.910500
-17.343200 0.913600
-17.329300 0.916700
-17.315300 0.919800
-17.301400 0.921800
-17.287500 0.922400
-17.273500 0.923000
-17.259600 0.923600
-17.245600 0.924200
-17.231700 0.924800
-17.217800 0.925400
-17.203800 0.925900
-17.189900 0.926500
-17.175900 0.927100
-17.162000 0.930600
-17.148100 0.934100
-17.134100 0.937600
-17.120200 0.941400
-17.106200 0.945400
-17.092300 0.949400
-17.078400 0.953400
-17.064400 0.957300
-17.050500 0.961300
-17.036500 0.965300
-17.022600 0.969300
-17.008700 0.973200
-16.994700 0.977200
-16.980800 0.981200
-16.966800 0.985200
-16.952900 0.989200
-16.939000 0.993100
-16.925000 0.997100
-16.911100 1.001100
-16.897100 1.005100
-16.883200 1.009100
-16.869300 1.013000
-16.855300 1.017000
-16.841400 1.021000
-16.827400 1.025000
-16.813500 1.028900
-16.799600 1.032900
-16.785600 1.036400
-16.771700 1.035200
-16.757700 1.034000
-16.743800 1.032800
-16.729900 1.031600
-16.715900 1.030400
-16.702000 1.029200
-16.688000 1.028000
-16.674100 1.026800
-16.660200 1.027500
-16.646200 1.030200
-16.632300 1.037900
-16.618300 1.045600
-16.604400 1.053500
-16.590500 1.062400
-16.576500 1.071300
-16.562600 1.080100
-16.548600 1.089000
-16.534700 1.097900
-16.520800 1.106700
-16.506800 1.115600
-16.492900 1.124500
-16.478900 1.133300
-16.465000 1.141300
-16.451100 1.146300
-16.437100 1.151300
-16.423200 1.156200
-16.409200 1.161200
-16.395300 1.166200
-16.381400 1.171200
-16.367400 1.176100
-16.353500 1.181100
-16.339500 1.186100
-16.325600 1.191200
-16.311700 1.197400
-16.297700 1.203600
-16.283800 1.209800
-16.269900 1.216000
-16.255900 1.222200
-16.242000 1.228300
-16.228000 1.234500
-16.214100 1.240700
-16.200200 1.246900
-16.186200 1.253100
-16.172300 1.259300
-16.158300 1.265500
-16.144400 1.271700
-16.130500 1.280100
-16.116500 1.329200
-16.102600 1.378300
-16.088600 1.427300
-16.074700 1.476400
-16.060800 1.525500
-16.046800 1.574500
-16.032900 1.623600
-16.018900 1.672700
-16.005000 1.721700
-15.991100 1.770800
-15.977100 1.819900
-15.963200 1.868900
-15.949200 1.915300
-15.935300 1.874400
-15.921400 1.832500
-15.907400 1.790500
-15.893500 1.748600
-15.879500 1.706700
-15.865600 1.664700
-15.851700 1.622800
-15.837700 1.580800
-15.823800 1.538900
-15.809800 1.502400
-15.795900 1.467000
-15.782000 1.431600
-15.768000 1.396200
-15.754100 1.360800
-15.740100 1.362300
-15.726200 1.368100
-15.712300 1.373900
-15.698300 1.379700
-15.684400 1.385600
-15.670400 1.391400
-15.656500 1.397200
-15.642600 1.403000
-15.628600 1.408800
-15.614700 1.414600
-15.600700 1.421300
-15.586800 1.430500
-15.572900 1.439700
-15.558900 1.448900
-15.545000 1.458100
-15.531000 1.467300
-15.517100 1.493300
-15.503200 1.523400
-15.489200 1.553400
-15.475300 1.583500
-15.461300 1.613500
-15.447400 1.643600
-15.433500 1.673600
-15.419500 1.703700
-15.405600 1.733700
-15.391600 1.762800
-15.377700 1.790600
-15.363800 1.818400
-15.349800 1.841400
-15.335900 1.852600
-15.321900 1.863700
-15.308000 1.874800
-15.294100 1.885900
-15.280100 1.897000
-15.266200 1.908200
-15.252300 1.919300
-15.238300 0.951700
-15.224400 0.932200
-15.210400 0.912800
-15.196500 0.893300
-15.182600 0.873900
-15.168600 0.855800
-15.154700 0.840300
-15.140700 0.824800
-15.126800 0.809300
-15.112900 0.793800
-15.098900 0.778300
-15.085000 0.762800
-15.071000 0.747300
-15.057100 0.731800
-15.043200 0.716300
-15.029200 0.700800
-15.015300 0.685300
-15.001300 0.669800
-14.987400 0.654300
-14.973500 0.638800
-14.959500 0.623300
-14.945600 0.607800
-14.931600 0.592300
-14.917700 0.576800
-14.903800 0.561300
-14.889800 0.545800
-14.875900 0.530300
-14.861900 0.514800
-14.848000 0.499300
-14.834100 0.483800
-14.820100 0.468300
-14.806200 0.452800
-14.792200 0.437300
-14.778300 0.421800
-14.764400 0.406300
-14.750400 0.390800
-14.736500 0.375300
-14.722500 0.359800
-14.708600 0.347400
-14.694700 0.336100
-14.680700 0.324900
-14.666800 0.313700
-14.652800 0.302500
-14.638900 0.291300
-14.625000 0.280000
-14.611000 0.268800
-14.597100 0.257600
-14.583100 0.246400
-14.569200 0.235100
-14.555300 0.223900
-14.541300 0.212700
-14.527400 0.201500
-14.513400 0.190300
-14.499500 0.179000
-14.485600 0.167800
-14.471600 0.156600
-14.457700 0.145400
-14.443700 0.134200
-14.429800 0.122900
-14.415900 0.111700
-14.401900 0.100500
-14.388000 0.089300
-14.374000 0.078000
-14.360100 0.066800
-14.346200 0.055600
-14.332200 0.044400
-14.318300 0.033200
-14.304400 0.021900
-14.290400 0.010700
-14.276500 0.000000
-14.262500 0.000000
-14.248600 0.000000
-14.234700 0.000000
-14.220700 0.000000
-14.206800 0.008600
-14.192800 0.018800
-14.178900 0.029000
-14.165000 0.039300
-14.151000 0.049500
-14.137100 0.059700
-14.123100 0.069900
-14.109200 0.080200
-14.095300 0.090400
-14.081300 0.100600
-14.067400 0.110800
-14.053400 0.121100
-14.039500 0.131300
-14.025600 0.141500
-14.011600 0.151800
-13.997700 0.162000
-13.983700 0.172200
-13.969800 0.182400
-13.955900 0.192700
-13.941900 0.202900
-13.928000 0.213100
-13.914000 0.223300
-13.900100 0.233600
-13.886200 0.243800
-13.872200 0.254000
-13.858300 0.264200
-13.844300 0.274500
-13.830400 0.284700
-13.816500 0.294900
-13.802500 0.305100
-13.788600 0.315400
-13.774600 0.325600
-13.760700 0.337700
-13.746800 0.352300
-13.732800 0.366900
-13.718900 0.381500
-13.704900 0.396100
-13.691000 0.410700
-13.677100 0.425200
-13.663100 0.439800
-13.649200 0.454400
-13.635200 0.469000
-13.621300 0.483600
-13.607400 0.498200
-13.593400 0.512800
-13.579500 0.527300
-13.565500 0.541900
-13.551600 0.556500
-13.537700 0.571100
-13.523700 0.585700
-13.509800 0.600300
-13.495800 0.614800
-13.481900 0.629400
-13.468000 0.644000
-13.454000 0.658600
-13.440100 0.673200
-13.426100 0.687800
-13.412200 0.702400
-13.398300 0.716900
-13.384300 0.731500
-13.370400 0.746100
-13.356400 0.760700
-13.342500 0.775300
-13.328600 0.789900
-13.314600 0.804400
-13.300700 0.819000
-13.286800 0.833600
-13.272800 0.848200
-13.258900 1.022500
-13.244900 1.263700
-13.231000 1.504900
-13.217100 1.746100
-13.203100 1.930900
-13.189200 1.863700
-13.175200 1.796500
-13.161300 1.739300
-13.147400 1.706400
-13.133400 1.686600
-13.119500 1.666700
-13.105500 1.646800
-13.091600 1.627000
-13.077700 1.607100
-13.063700 1.587200
-13.049800 1.567300
-13.035800 1.547500
-13.021900 1.527600
-13.008000 1.507700
-12.994000 1.484700
-12.980100 1.459000
-12.966100 1.451000
-12.952200 1.446800
-12.938300 1.442600
-12.924300 1.438400
-12.910400 1.434200
-12.896400 1.440100
-12.882500 1.447900
-12.868600 1.455600
-12.854600 1.463300
-12.840700 1.471000
-12.826700 1.478700
-12.812800 1.486400
-12.798900 1.494200
-12.784900 1.501900
-12.771000 1.509600
-12.757000 1.517300
-12.743100 1.525000
-12.729200 1.532800
-12.715200 1.540500
-12.701300 1.548200
-12.687300 1.555900
-12.673400 2.754000
-12.659500 4.150200
-12.645500 4.385200
-12.631600 4.620200
-12.617600 3.631300
-12.603700 2.518900
-12.589800 1.946400
-12.575800 1.948200
-12.561900 1.949900
-12.547900 1.950900
-12.534000 1.951800
-12.520100 1.922700
-12.506100 1.882500
-12.492200 1.842300
-12.478200 1.802100
-12.464300 1.761900
-12.450400 1.660900
-12.436400 1.436400
-12.422500 1.212000
-12.408500 1.111200
-12.394600 1.107700
-12.380700 1.104300
-12.366700 1.100800
-12.352800 1.097300
-12.338900 1.093800
-12.324900 1.090300
-12.311000 1.086800
-12.297000 1.083300
-12.283100 1.079800
-12.269200 1.076400
-12.255200 1.072900
-12.241300 1.069400
-12.227300 1.065900
-12.213400 1.062400
-12.199500 1.058900
-12.185500 1.055400
-12.171600 1.052000
-12.157600 1.048500
-12.143700 1.045000
-12.129800 1.041500
-12.115800 1.038000
-12.101900 1.034500
-12.087900 1.031000
-12.074000 1.027500
-12.060100 1.024100
-12.046100 1.020600
-12.032200 1.017100
-12.018200 1.013600
-12.004300 1.010100
-11.990400 1.006600
-11.976400 1.003100
-11.962500 0.999600
-11.948500 0.996200
-11.934600 0.992700
-11.920700 0.989000
-11.906700 0.982200
-11.892800 0.975500
-11.878800 0.968700
-11.864900 0.960400
-11.851000 0.935200
-11.837000 0.910000
-11.823100 0.884800
-11.809100 0.856600
-11.795200 0.778600
-11.781300 0.768600
-11.767300 0.766600
-11.753400 0.764700
-11.739400 0.762700
-11.725500 0.760800
-11.711600 0.758800
-11.697600 0.756900
-11.683700 0.754900
-11.669700 0.752900
-11.655800 0.751000
-11.641900 0.749000
-11.627900 0.747100
-11.614000 0.745100
-11.600000 0.743200
-11.586100 0.741200
-11.572200 0.739300
-11.558200 0.737300
-11.544300 0.735400
-11.530300 0.733400
-11.516400 0.731500
-11.502500 0.729500
-11.488500 0.727600
-11.474600 0.725600
-11.460600 0.723600
-11.446700 0.720900
-11.432800 0.717600
-11.418800 0.714400
-11.404900 0.711200
-11.390900 0.708000
-11.377000 0.704800
-11.363100 0.701600
-11.349100 0.698400
-11.335200 0.695100
-11.321300 0.691900
-11.307300 0.688700
-11.293400 0.685500
-11.279400 0.682200
-11.265500 0.678900
-11.251600 0.675500
-11.237600 0.672200
-11.223700 0.668900
-11.209700 0.665600
-11.195800 0.662200
-11.181900 0.658900
-11.167900 0.655600
-11.154000 0.652300
-11.140000 0.649000
-11.126100 0.645600
-11.112200 0.642300
-11.098200 0.639000
-11.084300 0.635700
-11.070300 0.632400
-11.056400 0.629000
-11.042500 0.625700
-11.028500 0.622400
-11.014600 0.619100
-11.000600 0.615700
-10.986700 0.612400
-10.972800 0.609100
-10.958800 0.605800
-10.944900 0.602500
-10.930900 0.598100
-10.917000 0.589500
-10.903100 0.579900
-10.889100 0.570200
-10.875200 0.560600
-10.861200 0.550900
-10.847300 0.547500
-10.833400 0.545400
-10.819400 0.543200
-10.805500 0.541100
-10.791500 0.538900
-10.777600 0.536800
-10.763700 0.534600
-10.749700 0.532500
-10.735800 0.530300
-10.721800 0.528200
-10.707900 0.526000
-10.694000 0.523900
-10.680000 0.521700
-10.666100 0.519500
-10.652100 0.517400
-10.638200 0.515200
-10.624300 0.513100
-10.610300 0.510900
-10.596400 0.508800
-10.582400 0.506600
-10.568500 0.504500
-10.554600 0.502300
-10.540600 0.500200
-10.526700 0.498000
-10.512700 0.495900
-10.498800 0.493700
-10.484900 0.491600
-10.470900 0.489400
-10.457000 0.487300
-10.443000 0.485100
-10.429100 0.483000
-10.415200 0.480800
-10.401200 0.478700
-10.387300 0.476500
-10.373300 0.474400
-10.359400 0.472200
-10.345500 0.470100
-10.331500 0.467900
-10.317600 0.465700
-10.303700 0.463600
-10.289700 0.461400
-10.275800 0.459300
-10.261800 0.457100
-10.247900 0.455000
-10.234000 0.452800
-10.220000 0.450700
-10.206100 0.448500
-10.192100 0.446400
-10.178200 0.444200
-10.164300 0.442100
-10.150300 0.439900
-10.136400 0.437800
-10.122400 0.435600
-10.108500 0.433500
-10.094600 0.431300
-10.080600 0.429200
-10.066700 0.427000
-10.052700 0.424900
-10.038800 0.422700
-10.024900 0.422300
-10.010900 0.426000
-9.997000 0.429800
-9.983000 0.433500
-9.969100 0.437300
-9.955200 0.441000
-9.941200 0.444800
-9.927300 0.448500
-9.913300 0.452300
-9.899400 0.456000
-9.885500 0.459800
-9.871500 0.463500
-9.857600 0.467300
-9.843600 0.471000
-9.829700 0.480800
-9.815800 0.499100
-9.801800 0.517400
-9.787900 0.535800
-9.773900 0.554100
-9.760000 0.559800
-9.746100 0.553900
-9.732100 0.547900
-9.718200 0.542000
-9.704200 0.536000
-9.690300 0.530100
-9.676400 0.524100
-9.662400 0.518200
-9.648500 0.512200
-9.634500 0.506300
-9.620600 0.500300
-9.606700 0.494400
-9.592700 0.488500
-9.578800 0.482500
-9.564800 0.476600
-9.550900 0.470600
-9.537000 0.464700
-9.523000 0.458500
-9.509100 0.452400
-9.495100 0.446300
-9.481200 0.440200
-9.467300 0.434000
-9.453300 0.427900
-9.439400 0.421800
-9.425400 0.415600
-9.411500 0.409500
-9.397600 0.403400
-9.383600 0.397300
-9.369700 0.391100
-9.355800 0.385000
-9.341800 0.378900
-9.327900 0.372700
-9.313900 0.366600
-9.300000 0.360500
-9.286100 0.467200
-9.272100 0.615400
-9.258200 0.763600
-9.244200 0.911900
-9.230300 1.060100
-9.216400 1.208300
-9.202400 1.356500
-9.188500 1.504700
-9.174500 1.652900
-9.160600 1.801100
-9.146700 1.949300
-9.132700 2.097500
-9.118800 2.241900
-9.104800 2.474900
-9.090900 2.744300
-9.077000 2.620700
-9.063000 2.497100
-9.049100 2.370200
-9.035100 2.241900
-9.021200 2.113600
-9.007300 2.051400
-8.993300 2.052500
-8.979400 2.057600
-8.965400 2.086700
-8.951500 2.115900
-8.937600 2.145100
-8.923600 2.174200
-8.909700 2.203400
-8.895700 2.232600
-8.881800 2.261700
-8.867900 2.290900
-8.853900 2.320000
-8.840000 2.349200
-8.826000 2.334700
-8.812100 2.264300
-8.798200 2.193800
-8.784200 2.123400
-8.770300 2.052900
-8.756300 1.982500
-8.742400 1.927700
-8.728500 1.945000
-8.714500 1.962400
-8.700600 1.979700
-8.686600 1.997100
-8.672700 2.014400
-8.658800 2.031800
-8.644800 2.049200
-8.630900 2.066500
-8.616900 2.083900
-8.603000 2.112400
-8.589100 2.182500
-8.575100 2.252700
-8.561200 2.775500
-8.547200 3.670800
-8.533300 3.946300
-8.519400 3.728200
-8.505400 3.510100
-8.491500 3.395900
-8.477500 3.460900
-8.463600 3.526000
-8.449700 3.591000
-8.435700 3.656000
-8.421800 3.721000
-8.407800 3.794500
-8.393900 3.872600
-8.380000 3.861900
-8.366000 3.763600
-8.352100 3.630200
-8.338200 3.505000
-8.324200 3.394500
-8.310300 3.283900
-8.296300 3.173300
-8.282400 3.062700
-8.268500 2.952200
-8.254500 2.572800
-8.240600 2.023700
-8.226600 1.474700
-8.212700 1.246900
-8.198800 1.268700
-8.184800 1.290500
-8.170900 1.312300
-8.156900 1.334100
-8.143000 1.353700
-8.129100 1.344900
-8.115100 1.336100
-8.101200 1.327200
-8.087200 1.318400
-8.073300 1.309600
-8.059400 1.300800
-8.045400 1.295000
-8.031500 1.296900
-8.017500 1.298900
-8.003600 1.300800
-7.989700 1.302700
-7.975700 1.304600
-7.961800 1.306900
-7.947800 1.386700
-7.933900 1.476300
-7.920000 1.565900
-7.906000 1.655600
-7.892100 1.745200
-7.878100 1.834800
-7.864200 1.924500
-7.850300 2.014100
-7.836300 2.103700
-7.822400 2.193400
-7.808400 1.941300
-7.794500 1.685700
-7.780600 1.683500
-7.766600 1.681200
-7.752700 1.571900
-7.738700 1.449100
-7.724800 1.430600
-7.710900 1.423600
-7.696900 1.419100
-7.683000 1.425600
-7.669000 1.432000
-7.655100 1.438500
-7.641200 1.444900
-7.627200 1.451400
-7.613300 1.457800
-7.599300 1.464300
-7.585400 1.470700
-7.571500 1.477200
-7.557500 1.483600
-7.543600 1.490100
-7.529600 1.496500
-7.515700 1.503000
-7.501800 1.520000
-7.487800 1.537700
-7.473900 1.555400
-7.459900 1.573100
-7.446000 1.590900
-7.432100 1.608600
-7.418100 1.626300
-7.404200 1.644700
-7.390300 1.669600
-7.376300 1.694400
-7.362400 1.719200
-7.348400 1.744000
-7.334500 1.768900
-7.320600 1.795500
-7.306600 1.822400
-7.292700 1.849400
-7.278700 1.875800
-7.264800 1.897900
-7.250900 1.920100
-7.236900 1.942300
-7.223000 1.964500
-7.209000 1.986600
-7.195100 2.008800
-7.181200 2.026500
-7.167200 2.046900
-7.153300 2.073200
-7.139300 2.099500
-7.125400 2.125800
-7.111500 2.152100
-7.097500 2.178300
-7.083600 2.204600
-7.069600 2.230900
-7.055700 2.257200
-7.041800 2.283400
-7.027800 2.309700
-7.013900 2.335400
-6.999900 2.361200
-6.986000 2.386900
-6.972100 2.412600
-6.958100 2.438400
-6.944200 2.464100
-6.930200 2.489800
-6.916300 2.525500
-6.902400 2.698600
-6.888400 2.871800
-6.874500 3.044900
-6.860500 3.218000
-6.846600 3.391100
-6.832700 3.564300
-6.818700 3.737400
-6.804800 3.910500
-6.790800 5.266000
-6.776900 6.871100
-6.763000 4.457100
-6.749000 4.244400
-6.735100 4.031700
-6.721100 3.797000
-6.707200 3.378800
-6.693300 2.960500
-6.679300 2.480800
-6.665400 2.168900
-6.651400 2.180300
-6.637500 2.274300
-6.623600 2.521000
-6.609600 2.767700
-6.595700 3.014400
-6.581700 3.261100
-6.567800 3.507800
-6.553900 3.754500
-6.539900 3.861300
-6.526000 3.894100
-6.512000 3.832100
-6.498100 3.770200
-6.484200 3.708200
-6.470200 3.646300
-6.456300 3.584300
-6.442300 3.522400
-6.428400 3.460500
-6.414500 3.398500
-6.400500 3.335200
-6.386600 3.076000
-6.372700 3.018000
-6.358700 2.960000
-6.344800 2.902000
-6.330800 2.843900
-6.316900 2.785900
-6.303000 2.727900
-6.289000 2.669900
-6.275100 2.601000
-6.261100 2.530800
-6.247200 2.433000
-6.233300 2.327600
-6.219300 2.222400
-6.205400 2.122200
-6.191400 2.021900
-6.177500 1.921600
-6.163600 1.822500
-6.149600 1.814300
-6.135700 1.806200
-6.121700 1.798100
-6.107800 1.751800
-6.093900 1.696400
-6.079900 1.641300
-6.066000 1.600300
-6.052000 1.559400
-6.038100 1.518400
-6.024200 1.477400
-6.010200 1.436400
-5.996300 1.395500
-5.982300 1.368500
-5.968400 1.362900
-5.954500 1.357300
-5.940500 1.351800
-5.926600 1.346200
-5.912600 1.340600
-5.898700 1.335000
-5.884800 1.329400
-5.870800 1.323800
-5.856900 1.318200
-5.842900 1.312700
-5.829000 1.307100
-5.815100 1.301500
-5.801100 1.295900
-5.787200 1.256400
-5.773200 1.198300
-5.759300 1.140300
-5.745400 1.082200
