set title 'mp-974332 - Density of States'
set xlabel 'Energy (eV)'
set ylabel 'DOS (states/eV)'
set grid
set xrange [-10:10]
set yrange [0:7.376]
set xzeroaxis lt -1
set terminal png size 800,600
set output 'mp-974332_dos_gnuplot.png'
plot '-' using 1:2 with lines title 'DOS'
-17.503200 0.000000
-17.479900 0.000000
-17.456600 0.000000
-17.433300 0.000000
-17.410000 0.000000
-17.386700 0.000000
-17.363400 0.000000
-17.340100 0.000000
-17.316800 0.000000
-17.293600 0.000000
-17.270300 0.000000
-17.247000 0.000000
-17.223700 0.000000
-17.200400 0.000000
-17.177100 0.000000
-17.153800 0.000000
-17.130500 0.000000
-17.107200 0.000000
-17.083900 0.000000
-17.060600 0.000000
-17.037300 0.000000
-17.014000 0.000000
-16.990700 0.000000
-16.967500 0.000000
-16.944200 0.000000
-16.920900 0.000000
-16.897600 0.000000
-16.874300 0.000000
-16.851000 0.000000
-16.827700 0.000000
-16.804400 0.000000
-16.781100 0.000000
-16.757800 0.000000
-16.734500 0.000000
-16.711200 0.000000
-16.687900 0.000000
-16.664700 0.000000
-16.641400 0.000000
-16.618100 0.000000
-16.594800 0.000000
-16.571500 0.000000
-16.548200 0.000000
-16.524900 0.000000
-16.501600 0.000000
-16.478300 0.000000
-16.455000 0.000000
-16.431700 0.000000
-16.408400 0.000000
-16.385100 0.000000
-16.361800 0.000000
-16.338600 0.000000
-16.315300 0.000000
-16.292000 0.000000
-16.268700 0.000000
-16.245400 0.000000
-16.222100 0.000000
-16.198800 0.000000
-16.175500 0.000000
-16.152200 0.000000
-16.128900 0.000000
-16.105600 0.000000
-16.082300 0.000000
-16.059000 0.000000
-16.035800 0.000000
-16.012500 0.000000
-15.989200 0.000000
-15.965900 0.000000
-15.942600 0.000000
-15.919300 0.000000
-15.896000 0.000000
-15.872700 0.000000
-15.849400 0.000000
-15.826100 0.000000
-15.802800 0.000000
-15.779500 0.000000
-15.756200 0.000000
-15.732900 0.000000
-15.709700 0.000000
-15.686400 0.000000
-15.663100 0.000000
-15.639800 0.000000
-15.616500 0.000000
-15.593200 0.000000
-15.569900 0.000000
-15.546600 0.000000
-15.523300 0.000000
-15.500000 0.000500
-15.476700 0.003700
-15.453400 0.019300
-15.430100 0.065900
-15.406900 0.150600
-15.383600 0.245300
-15.360300 0.342400
-15.337000 0.518800
-15.313700 0.788600
-15.290400 0.968400
-15.267100 0.955600
-15.243800 0.930300
-15.220500 0.972300
-15.197200 0.874800
-15.173900 0.565500
-15.150600 0.261000
-15.127300 0.156200
-15.104000 0.298500
-15.080800 0.630600
-15.057500 0.970900
-15.034200 1.204000
-15.010900 1.480900
-14.987600 1.811700
-14.964300 1.787900
-14.941000 1.238100
-14.917700 0.573600
-14.894400 0.175700
-14.871100 0.038000
-14.847800 0.024600
-14.824500 0.097100
-14.801200 0.310900
-14.778000 0.672800
-14.754700 1.025100
-14.731400 1.212300
-14.708100 1.284800
-14.684800 1.367700
-14.661500 1.562700
-14.638200 1.852700
-14.614900 1.892500
-14.591600 1.413700
-14.568300 0.718700
-14.545000 0.246300
-14.521700 0.084200
-14.498400 0.163900
-14.475100 0.528000
-14.451900 1.171800
-14.428600 1.714200
-14.405300 1.658900
-14.382000 1.105800
-14.358700 0.667400
-14.335400 0.708600
-14.312100 1.104200
-14.288800 1.589100
-14.265500 1.983100
-14.242200 2.038700
-14.218900 1.609200
-14.195600 1.071600
-14.172300 0.983500
-14.149100 1.455700
-14.125800 2.212800
-14.102500 2.904200
-14.079200 3.103000
-14.055900 2.524900
-14.032600 1.490200
-14.009300 0.655200
-13.986000 0.352700
-13.962700 0.518200
-13.939400 0.930200
-13.916100 1.378300
-13.892800 1.785200
-13.869500 2.013600
-13.846200 1.777000
-13.823000 1.148500
-13.799700 0.650500
-13.776400 0.609700
-13.753100 0.843600
-13.729800 0.986700
-13.706500 0.968300
-13.683200 0.979700
-13.659900 1.021100
-13.636600 0.958600
-13.613300 0.897500
-13.590000 0.958800
-13.566700 0.967800
-13.543400 0.778100
-13.520200 0.516700
-13.496900 0.315200
-13.473600 0.171100
-13.450300 0.071800
-13.427000 0.021000
-13.403700 0.004100
-13.380400 0.000500
-13.357100 0.000000
-13.333800 0.000000
-13.310500 0.000000
-13.287200 0.000000
-13.263900 0.000000
-13.240600 0.000100
-13.217300 0.000800
-13.194100 0.005800
-13.170800 0.027100
-13.147500 0.082900
-13.124200 0.168500
-13.100900 0.236200
-13.077600 0.272500
-13.054300 0.380000
-13.031000 0.636700
-13.007700 0.881300
-12.984400 0.882400
-12.961100 0.737000
-12.937800 0.742600
-12.914500 0.886700
-12.891300 0.862300
-12.868000 0.577300
-12.844700 0.256800
-12.821400 0.080100
-12.798100 0.047800
-12.774800 0.144000
-12.751500 0.398800
-12.728200 0.740800
-12.704900 0.945200
-12.681600 0.964800
-12.658300 1.117300
-12.635000 1.546600
-12.611700 1.801700
-12.588400 1.461700
-12.565200 0.788600
-12.541900 0.280400
-12.518600 0.065500
-12.495300 0.010100
-12.472000 0.001300
-12.448700 0.003500
-12.425400 0.023900
-12.402100 0.110400
-12.378800 0.335800
-12.355500 0.672000
-12.332200 0.891400
-12.308900 0.816100
-12.285600 0.634000
-12.262400 0.660100
-12.239100 0.870800
-12.215800 1.001800
-12.192500 1.072800
-12.169200 1.364600
-12.145900 1.755500
-12.122600 1.713600
-12.099300 1.136800
-12.076000 0.499400
-12.052700 0.144400
-12.029400 0.027500
-12.006100 0.004400
-11.982800 0.010000
-11.959500 0.063700
-11.936300 0.274400
-11.913000 0.777000
-11.889700 1.447100
-11.866400 1.773200
-11.843100 1.429600
-11.819800 0.758300
-11.796500 0.264500
-11.773200 0.060600
-11.749900 0.009100
-11.726600 0.000900
-11.703300 0.000400
-11.680000 0.003800
-11.656700 0.026000
-11.633500 0.117900
-11.610200 0.353000
-11.586900 0.707300
-11.563600 1.001800
-11.540300 1.188900
-11.517000 1.519900
-11.493700 2.041900
-11.470400 2.321000
-11.447100 2.037700
-11.423800 1.372600
-11.400500 0.701500
-11.377200 0.263500
-11.353900 0.081700
-11.330600 0.092300
-11.307400 0.326900
-11.284100 0.869400
-11.260800 1.526800
-11.237500 1.764500
-11.214200 1.341700
-11.190900 0.671800
-11.167600 0.226400
-11.144300 0.078700
-11.121000 0.119100
-11.097700 0.270200
-11.074400 0.441900
-11.051100 0.547700
-11.027800 0.646500
-11.004600 0.824000
-10.981300 0.936300
-10.958000 0.832300
-10.934700 0.743200
-10.911400 1.030000
-10.888100 1.572200
-10.864800 1.773400
-10.841500 1.372900
-10.818200 0.876500
-10.794900 0.954800
-10.771600 1.759800
-10.748300 2.802400
-10.725000 3.533100
-10.701700 3.981300
-10.678500 4.148600
-10.655200 3.524400
-10.631900 2.156900
-10.608600 0.920200
-10.585300 0.401700
-10.562000 0.642000
-10.538700 1.559000
-10.515400 2.772900
-10.492100 3.464100
-10.468800 3.213500
-10.445500 2.594300
-10.422200 2.221400
-10.398900 1.900700
-10.375700 1.355900
-10.352400 0.935900
-10.329100 1.083300
-10.305800 1.647800
-10.282500 2.069500
-10.259200 2.158700
-10.235900 2.154600
-10.212600 2.002300
-10.189300 1.517000
-10.166000 1.041700
-10.142700 1.070000
-10.119400 1.557300
-10.096100 2.021900
-10.072800 2.110800
-10.049600 1.937700
-10.026300 2.090600
-10.003000 3.247800
-9.979700 5.117000
-9.956400 6.080200
-9.933100 5.068200
-9.909800 3.053800
-9.886500 1.561200
-9.863200 0.922100
-9.839900 0.727000
-9.816600 0.819400
-9.793300 1.277800
-9.770000 1.950400
-9.746800 2.400900
-9.723500 2.361100
-9.700200 2.176200
-9.676900 2.385400
-9.653600 2.821200
-9.630300 2.904400
-9.607000 2.644100
-9.583700 2.339500
-9.560400 1.864100
-9.537100 1.147500
-9.513800 0.562700
-9.490500 0.420600
-9.467200 0.640600
-9.443900 0.870900
-9.420700 0.804900
-9.397400 0.490900
-9.374100 0.196900
-9.350800 0.051900
-9.327500 0.009000
-9.304200 0.001000
-9.280900 0.000100
-9.257600 0.000400
-9.234300 0.004800
-9.211000 0.036900
-9.187700 0.186000
-9.164400 0.625500
-9.141100 1.419300
-9.117900 2.213900
-9.094600 2.451800
-9.071300 2.065800
-9.048000 1.547200
-9.024700 1.231500
-9.001400 0.973700
-8.978100 0.613300
-8.954800 0.271600
-8.931500 0.090600
-8.908200 0.084500
-8.884900 0.293400
-8.861600 0.811800
-8.838300 1.505100
-8.815000 1.937700
-8.791800 2.008300
-8.768500 2.206400
-8.745200 2.637400
-8.721900 2.623300
-8.698600 1.846300
-8.675300 0.877600
-8.652000 0.278800
-8.628700 0.059000
-8.605400 0.008400
-8.582100 0.001300
-8.558800 0.005600
-8.535500 0.035500
-8.512200 0.148800
-8.489000 0.409900
-8.465700 0.742700
-8.442400 0.885400
-8.419100 0.694600
-8.395800 0.358400
-8.372500 0.121600
-8.349200 0.027200
-8.325900 0.004600
-8.302600 0.006600
-8.279300 0.040800
-8.256000 0.179100
-8.232700 0.533700
-8.209400 1.094200
-8.186100 1.563300
-8.162900 1.568800
-8.139600 1.105900
-8.116300 0.543300
-8.093000 0.183700
-8.069700 0.042200
-8.046400 0.006500
-8.023100 0.000700
-7.999800 0.000100
-7.976500 0.000100
-7.953200 0.001200
-7.929900 0.008400
-7.906600 0.039100
-7.883300 0.133000
-7.860100 0.358600
-7.836800 0.799500
-7.813500 1.414200
-7.790200 1.835200
-7.766900 1.664300
-7.743600 1.097000
-7.720300 0.729900
-7.697000 0.775600
-7.673700 0.900300
-7.650400 0.764100
-7.627100 0.433100
-7.603800 0.161800
-7.580500 0.039700
-7.557200 0.006400
-7.534000 0.000700
-7.510700 0.000000
-7.487400 0.000000
-7.464100 0.000000
-7.440800 0.000000
-7.417500 0.000000
-7.394200 0.000000
-7.370900 0.000000
-7.347600 0.000000
-7.324300 0.000000
-7.301000 0.000000
-7.277700 0.000000
-7.254400 0.000000
-7.231200 0.000000
-7.207900 0.000400
-7.184600 0.004600
-7.161300 0.030300
-7.138000 0.132100
-7.114700 0.379000
-7.091400 0.714600
-7.068100 0.886600
-7.044800 0.723700
-7.021500 0.388700
-6.998200 0.137300
-6.974900 0.031900
-6.951600 0.005000
-6.928300 0.001900
-6.905100 0.011900
-6.881800 0.064400
-6.858500 0.230000
-6.835200 0.540200
-6.811900 0.834400
-6.788600 0.848000
-6.765300 0.567000
-6.742000 0.249400
-6.718700 0.072100
-6.695400 0.013700
-6.672100 0.001700
-6.648800 0.000100
-6.625500 0.000000
-6.602300 0.000000
-6.579000 0.000100
-6.555700 0.000600
-6.532400 0.004500
-6.509100 0.022200
-6.485800 0.072100
-6.462500 0.154300
-6.439200 0.217100
-6.415900 0.201000
-6.392600 0.122400
-6.369300 0.049100
-6.346000 0.012900
-6.322700 0.002200
-6.299400 0.000300
-6.276200 0.000000
-6.252900 0.000000
-6.229600 0.000000
-6.206300 0.000000
-6.183000 0.000000
-6.159700 0.000000
-6.136400 0.000000
-6.113100 0.000000
-6.089800 0.000000
-6.066500 0.000000
-6.043200 0.000000
-6.019900 0.000000
-5.996600 0.000000
-5.973400 0.000000
-5.950100 0.000000
-5.926800 0.000000
-5.903500 0.000000
-5.880200 0.000000
-5.856900 0.000000
-5.833600 0.000000
-5.810300 0.000100
-5.787000 0.001100
-5.763700 0.008600
-5.740400 0.042800
-5.717100 0.140800
-5.693800 0.304300
-5.670500 0.432700
-5.647300 0.404800
-5.624000 0.250100
-5.600700 0.109300
-5.577400 0.076300
-5.554100 0.194700
-5.530800 0.481500
-5.507500 0.807300
-5.484200 0.928400
-5.460900 0.837400
-5.437600 0.809100
-5.414300 0.918100
-5.391000 0.925700
-5.367700 0.779600
-5.344500 0.737700
-5.321200 0.868800
-5.297900 0.891200
-5.274600 0.642000
-5.251300 0.308000
-5.228000 0.097300
-5.204700 0.020200
-5.181400 0.002900
-5.158100 0.002200
-5.134800 0.018000
-5.111500 0.107300
-5.088200 0.426800
-5.064900 1.137600
-5.041600 2.049200
-5.018400 2.517300
-4.995100 2.127000
-4.971800 1.243500
-4.948500 0.503600
-4.925200 0.140700
-4.901900 0.026900
-4.878600 0.003500
-4.855300 0.000300
-4.832000 0.000100
-4.808700 0.000900
-4.785400 0.008900
-4.762100 0.056100
-4.738800 0.236900
-4.715600 0.673200
-4.692300 1.294700
-4.669000 1.691300
-4.645700 1.503100
-4.622400 0.909700
-4.599100 0.384100
-4.575800 0.159100
-4.552500 0.189600
-4.529200 0.343600
-4.505900 0.468300
-4.482600 0.523400
-4.459300 0.734000
-4.436000 1.349500
-4.412700 2.181800
-4.389500 2.699300
-4.366200 2.652400
-4.342900 2.250200
-4.319600 1.811500
-4.296300 1.522400
-4.273000 1.419000
-4.249700 1.539300
-4.226400 1.821900
-4.203100 1.860200
-4.179800 1.377400
-4.156500 0.715100
-4.133200 0.377500
-4.109900 0.563400
-4.086700 1.161300
-4.063400 1.705900
-4.040100 1.657700
-4.016800 1.061200
-3.993500 0.456400
-3.970200 0.193700
-3.946900 0.336500
-3.923600 0.938600
-3.900300 1.871600
-3.877000 2.524700
-3.853700 2.309800
-3.830400 1.438600
-3.807100 0.610900
-3.783800 0.177200
-3.760600 0.040100
-3.737300 0.045600
-3.714000 0.207000
-3.690700 0.703800
-3.667400 1.658000
-3.644100 2.795300
-3.620800 3.563100
-3.597500 3.739400
-3.574200 3.553400
-3.550900 3.134100
-3.527600 2.379600
-3.504300 1.429100
-3.481000 0.720500
-3.457800 0.592000
-3.434500 1.069800
-3.411200 1.828900
-3.387900 2.395100
-3.364600 2.601400
-3.341300 2.564100
-3.318000 2.415700
-3.294700 2.329000
-3.271400 2.256500
-3.248100 1.926600
-3.224800 1.405300
-3.201500 1.072500
-3.178200 1.137000
-3.154900 1.452700
-3.131700 1.689600
-3.108400 1.679100
-3.085100 1.510000
-3.061800 1.259800
-3.038500 0.912600
-3.015200 0.624900
-2.991900 0.739900
-2.968600 1.413200
-2.945300 2.261200
-2.922000 2.534800
-2.898700 1.956200
-2.875400 1.107300
-2.852100 0.700700
-2.828900 0.894800
-2.805600 1.419000
-2.782300 1.968500
-2.759000 2.287100
-2.735700 2.132100
-2.712400 1.569500
-2.689100 1.007700
-2.665800 0.720900
-2.642500 0.700000
-2.619200 0.901400
-2.595900 1.427400
-2.572600 2.413600
-2.549300 3.551800
-2.526000 4.017200
-2.502800 3.474500
-2.479500 2.688200
-2.456200 2.439700
-2.432900 2.465700
-2.409600 2.159000
-2.386300 1.660300
-2.363000 1.565100
-2.339700 2.126700
-2.316400 3.158500
-2.293100 4.333900
-2.269800 5.489400
-2.246500 6.474300
-2.223200 6.705900
-2.200000 5.685000
-2.176700 3.893400
-2.153400 2.312300
-2.130100 1.422100
-2.106800 1.101900
-2.083500 1.013000
-2.060200 1.000900
-2.036900 1.188000
-2.013600 1.581000
-1.990300 1.869100
-1.967000 1.839900
-1.943700 1.665300
-1.920400 1.557800
-1.897100 1.539600
-1.873900 1.623100
-1.850600 1.790100
-1.827300 1.795600
-1.804000 1.417500
-1.780700 0.872200
-1.757400 0.632900
-1.734100 0.967100
-1.710800 1.793500
-1.687500 2.837000
-1.664200 3.813200
-1.640900 4.303100
-1.617600 3.859900
-1.594300 2.718500
-1.571100 1.763600
-1.547800 1.598400
-1.524500 2.110500
-1.501200 2.727400
-1.477900 2.990900
-1.454600 3.041900
-1.431300 3.204700
-1.408000 3.325500
-1.384700 3.149100
-1.361400 2.841400
-1.338100 2.775900
-1.314800 3.306800
-1.291500 4.449900
-1.268200 5.485600
-1.245000 5.675600
-1.221700 5.260800
-1.198400 4.848400
-1.175100 4.520000
-1.151800 4.200900
-1.128500 4.074400
-1.105200 4.219500
-1.081900 4.236700
-1.058600 3.640100
-1.035300 2.619600
-1.012000 1.962800
-0.988700 2.122600
-0.965400 2.697900
-0.942200 2.908400
-0.918900 2.455800
-0.895600 1.797400
-0.872300 1.563700
-0.849000 2.007000
-0.825700 3.041400
-0.802400 4.303200
-0.779100 5.121900
-0.755800 4.950400
-0.732500 3.947900
-0.709200 2.783200
-0.685900 1.912700
-0.662600 1.485700
-0.639300 1.606400
-0.616100 2.126900
-0.592800 2.509900
-0.569500 2.373600
-0.546200 1.957800
-0.522900 1.787800
-0.499600 2.087200
-0.476300 2.656100
-0.453000 3.142900
-0.429700 3.207500
-0.406400 2.644400
-0.383100 1.697900
-0.359800 0.936500
-0.336500 0.651500
-0.313300 0.766100
-0.290000 1.216200
-0.266700 2.039300
-0.243400 3.139500
-0.220100 4.085900
-0.196800 4.272000
-0.173500 3.506100
-0.150200 2.315400
-0.126900 1.465400
-0.103600 1.410100
-0.080300 2.086100
-0.057000 2.839800
-0.033700 2.920500
-0.010400 2.282800
0.012800 1.436800
0.036100 0.752400
0.059400 0.335800
0.082700 0.194100
0.106000 0.284300
0.129300 0.557700
0.152600 1.066600
0.175900 1.988300
0.199200 3.294900
0.222500 4.380100
0.245800 4.433300
0.269100 3.351200
0.292400 1.923200
0.315600 1.033100
0.338900 1.024000
0.362200 1.727500
0.385500 2.659700
0.408800 3.192900
0.432100 2.926400
0.455400 2.052100
0.478700 1.137700
0.502000 0.609900
0.525300 0.636500
0.548600 1.200900
0.571900 2.001200
0.595200 2.517900
0.618500 2.494800
0.641700 2.244500
0.665000 2.345600
0.688300 3.130200
0.711600 4.357900
0.734900 5.351100
0.758200 5.775600
0.781500 6.013600
0.804800 6.370500
0.828100 6.489600
0.851400 5.936300
0.874700 5.047300
0.898000 4.674800
0.921300 4.928200
0.944500 5.028400
0.967800 4.619900
0.991100 4.055700
1.014400 3.581800
1.037700 3.175100
1.061000 2.735600
1.084300 2.180500
1.107600 1.660300
1.130900 1.498400
1.154200 1.773600
1.177500 2.287500
1.200800 2.907100
1.224100 3.605200
1.247400 4.294400
1.270600 4.807900
1.293900 4.995900
1.317200 4.835200
1.340500 4.551400
1.363800 4.525600
1.387100 4.938900
1.410400 5.710700
1.433700 6.455100
1.457000 6.306400
1.480300 4.781400
1.503600 2.665800
1.526900 1.128100
1.550200 0.601700
1.573400 0.896300
1.596700 1.553800
1.620000 2.015000
1.643300 2.108400
1.666600 2.112800
1.689900 2.019000
1.713200 1.565400
1.736500 0.980800
1.759800 0.811400
1.783100 1.272800
1.806400 2.150500
1.829700 2.937400
1.853000 3.038800
1.876300 2.379400
1.899500 1.668000
1.922800 1.562400
1.946100 1.996300
1.969400 2.593800
1.992700 3.239500
2.016000 4.021400
2.039300 4.787500
2.062600 4.988000
2.085900 4.254300
2.109200 2.986100
2.132500 1.917100
2.155800 1.418200
2.179100 1.495400
2.202300 1.849500
2.225600 1.963500
2.248900 1.694400
2.272200 1.351800
2.295500 1.048600
2.318800 0.682500
2.342100 0.339100
2.365400 0.206200
2.388700 0.375600
2.412000 0.822300
2.435300 1.337700
2.458600 1.594000
2.481900 1.494900
2.505200 1.420100
2.528400 1.917100
2.551700 2.977100
2.575000 3.852600
2.598300 3.928100
2.621600 3.484100
2.644900 3.249900
2.668200 3.423800
2.691500 3.467800
2.714800 3.063800
2.738100 2.773500
2.761400 2.973100
2.784700 2.976300
2.808000 2.215100
2.831200 1.230100
2.854500 0.767700
2.877800 0.848000
2.901100 1.032800
2.924400 1.097200
2.947700 1.170200
2.971000 1.363900
2.994300 1.667600
3.017600 1.974400
3.040900 1.993800
3.064200 1.647800
3.087500 1.288600
3.110800 1.080100
3.134100 0.818700
3.157300 0.458000
3.180600 0.178300
3.203900 0.073300
3.227200 0.137400
3.250500 0.420200
3.273800 0.989600
3.297100 1.680600
3.320400 2.053900
3.343700 1.907400
3.367000 1.532900
3.390300 1.179000
3.413600 0.858100
3.436900 0.700600
3.460100 0.845500
3.483400 1.138100
3.506700 1.340800
3.530000 1.431100
3.553300 1.539000
3.576600 1.769400
3.599900 1.957000
3.623200 1.731400
3.646500 1.140600
3.669800 0.744700
3.693100 0.946500
3.716400 1.550000
3.739700 1.959100
3.763000 1.867700
3.786200 1.516200
3.809500 1.130500
3.832800 0.745900
3.856100 0.518700
3.879400 0.604600
3.902700 0.852700
3.926000 0.956400
3.949300 0.895600
3.972600 0.899800
3.995900 0.956100
4.019200 0.837300
4.042500 0.613700
4.065800 0.697700
4.089000 1.366900
4.112300 2.296500
4.135600 2.709500
4.158900 2.378100
4.182200 1.980800
4.205500 1.942600
4.228800 1.821000
4.252100 1.271500
4.275400 0.655100
4.298700 0.458300
4.322000 0.815700
4.345300 1.453400
4.368600 1.773600
4.391900 1.428300
4.415100 0.756900
4.438400 0.263800
4.461700 0.060700
4.485000 0.013000
4.508300 0.030200
4.531600 0.147000
4.554900 0.491400
4.578200 1.099100
4.601500 1.647100
4.624800 1.662600
4.648100 1.179900
4.671400 0.811900
4.694700 1.117600
4.717900 2.100900
4.741200 3.120600
4.764500 3.433200
4.787800 3.088300
4.811100 2.811900
4.834400 2.818700
4.857700 2.538100
4.881000 1.705500
4.904300 0.799300
4.927600 0.289500
4.950900 0.244300
4.974200 0.616600
4.997500 1.273200
5.020800 1.748600
5.044000 1.580900
5.067300 0.941200
5.090600 0.376300
5.113900 0.148100
5.137200 0.239000
5.160500 0.617400
5.183800 1.136000
5.207100 1.451600
5.230400 1.439600
5.253700 1.424900
5.277000 1.737900
5.300300 2.374500
5.323600 2.948400
5.346800 2.921300
5.370100 2.354000
5.393400 1.886900
5.416700 1.740900
5.440000 1.595200
5.463300 1.341100
5.486600 1.301500
5.509900 1.647800
5.533200 2.024800
5.556500 2.190300
5.579800 2.453800
5.603100 2.807400
5.626400 2.610200
5.649700 1.758200
5.672900 0.993400
5.696200 0.816200
5.719500 0.990000
5.742800 1.070900
5.766100 0.925700
5.789400 0.676200
5.812700 0.503200
5.836000 0.669700
5.859300 1.372700
5.882600 2.290700
5.905900 2.610800
5.929200 1.986300
5.952500 1.008900
5.975700 0.361700
5.999000 0.200400
6.022300 0.472000
6.045600 1.163600
6.068900 2.092300
6.092200 2.902600
6.115500 3.332000
6.138800 3.146700
6.162100 2.290700
6.185400 1.295500
6.208700 0.857100
6.232000 1.136500
6.255300 1.695700
6.278600 1.885300
6.301800 1.458100
6.325100 0.785100
6.348400 0.307700
6.371700 0.108800
6.395000 0.071100
6.418300 0.095500
6.441600 0.142000
6.464900 0.241200
6.488200 0.481600
6.511500 0.912600
6.534800 1.453300
6.558100 1.980500
6.581400 2.506200
6.604600 3.033100
