set title 'mp-1183988 - Density of States'
set xlabel 'Energy (eV)'
set ylabel 'DOS (states/eV)'
set grid
set xrange [-10:10]
set yrange [0:2.026]
set xzeroaxis lt -1
set terminal png size 800,600
set output 'mp-1183988_dos_gnuplot.png'
plot '-' using 1:2 with lines title 'DOS'
-15.569900 0.000000
-15.536700 0.000000
-15.503500 0.000000
-15.470200 0.000000
-15.437000 0.000000
-15.403800 0.000000
-15.370600 0.000000
-15.337400 0.000000
-15.304200 0.000000
-15.270900 0.000000
-15.237700 0.000000
-15.204500 0.000000
-15.171300 0.000000
-15.138100 0.000000
-15.104900 0.000000
-15.071700 0.000000
-15.038400 0.000000
-15.005200 0.000000
-14.972000 0.000000
-14.938800 0.000000
-14.905600 0.000000
-14.872400 0.000000
-14.839100 0.000000
-14.805900 0.000000
-14.772700 0.000000
-14.739500 0.000000
-14.706300 0.000000
-14.673100 0.000000
-14.639800 0.000000
-14.606600 0.000000
-14.573400 0.000000
-14.540200 0.000000
-14.507000 0.000000
-14.473800 0.000000
-14.440600 0.000000
-14.407300 0.000000
-14.374100 0.000000
-14.340900 0.000000
-14.307700 0.000000
-14.274500 0.000000
-14.241300 0.000000
-14.208000 0.000000
-14.174800 0.000000
-14.141600 0.000000
-14.108400 0.000000
-14.075200 0.000000
-14.042000 0.000000
-14.008700 0.000000
-13.975500 0.000000
-13.942300 0.000000
-13.909100 0.000000
-13.875900 0.000000
-13.842700 0.000000
-13.809400 0.000000
-13.776200 0.000000
-13.743000 0.000000
-13.709800 0.000000
-13.676600 0.000000
-13.643400 0.000000
-13.610200 0.000000
-13.576900 0.000000
-13.543700 0.000000
-13.510500 0.000000
-13.477300 0.000000
-13.444100 0.000000
-13.410900 0.000000
-13.377600 0.000000
-13.344400 0.000000
-13.311200 0.000000
-13.278000 0.000000
-13.244800 0.000000
-13.211600 0.000000
-13.178300 0.000000
-13.145100 0.000000
-13.111900 0.000000
-13.078700 0.000000
-13.045500 0.000000
-13.012300 0.000000
-12.979100 0.000000
-12.945800 0.000000
-12.912600 0.000000
-12.879400 0.000000
-12.846200 0.000000
-12.813000 0.000000
-12.779800 0.000000
-12.746500 0.000000
-12.713300 0.000000
-12.680100 0.000000
-12.646900 0.000000
-12.613700 0.000000
-12.580500 0.000000
-12.547200 3.753000
-12.514000 41.516200
-12.480800 66.302300
-12.447600 49.009900
-12.414400 93.719200
-12.381200 89.827300
-12.348000 142.206200
-12.314700 140.594300
-12.281500 0.000000
-12.248300 0.000000
-12.215100 0.000000
-12.181900 0.000000
-12.148700 0.000000
-12.115400 0.000000
-12.082200 0.000000
-12.049000 0.000000
-12.015800 0.000000
-11.982600 0.000000
-11.949400 0.000000
-11.916100 0.000000
-11.882900 0.000000
-11.849700 0.000000
-11.816500 0.000000
-11.783300 0.000000
-11.750100 0.000000
-11.716900 0.000000
-11.683600 0.000000
-11.650400 0.000000
-11.617200 0.000000
-11.584000 0.000000
-11.550800 0.000000
-11.517600 0.000000
-11.484300 0.000000
-11.451100 0.000000
-11.417900 0.000000
-11.384700 0.000000
-11.351500 0.000000
-11.318300 0.000000
-11.285000 0.000000
-11.251800 0.000000
-11.218600 0.000000
-11.185400 0.000000
-11.152200 0.000000
-11.119000 0.000000
-11.085800 0.000000
-11.052500 0.000000
-11.019300 0.000000
-10.986100 0.000000
-10.952900 0.000000
-10.919700 0.000000
-10.886500 0.000000
-10.853200 0.000000
-10.820000 0.000000
-10.786800 0.000000
-10.753600 0.000000
-10.720400 0.000000
-10.687200 0.000000
-10.653900 0.000000
-10.620700 0.000000
-10.587500 0.000000
-10.554300 0.000000
-10.521100 0.000000
-10.487900 0.000000
-10.454700 0.000000
-10.421400 0.000000
-10.388200 0.000000
-10.355000 0.000000
-10.321800 0.000000
-10.288600 0.000000
-10.255400 0.000000
-10.222100 0.000000
-10.188900 0.000000
-10.155700 0.000000
-10.122500 0.000000
-10.089300 0.000000
-10.056100 0.000000
-10.022800 0.000000
-9.989600 0.000000
-9.956400 0.000000
-9.923200 0.000000
-9.890000 0.000000
-9.856800 0.000000
-9.823600 0.000000
-9.790300 0.000000
-9.757100 0.000000
-9.723900 0.000000
-9.690700 0.000000
-9.657500 0.000000
-9.624300 0.000000
-9.591000 0.000000
-9.557800 0.000000
-9.524600 0.000000
-9.491400 0.000000
-9.458200 0.000000
-9.425000 0.000000
-9.391700 0.000000
-9.358500 0.000000
-9.325300 0.000000
-9.292100 0.000000
-9.258900 0.000000
-9.225700 0.000000
-9.192400 0.000000
-9.159200 0.000000
-9.126000 0.000000
-9.092800 0.000000
-9.059600 0.000000
-9.026400 0.000000
-8.993200 0.000000
-8.959900 0.000000
-8.926700 0.000000
-8.893500 0.000000
-8.860300 0.000000
-8.827100 0.000000
-8.793900 0.000000
-8.760600 0.000000
-8.727400 0.000000
-8.694200 0.000000
-8.661000 0.000000
-8.627800 0.008600
-8.594600 0.054100
-8.561300 0.101700
-8.528100 0.108900
-8.494900 0.123800
-8.461700 0.144900
-8.428500 0.167200
-8.395300 0.183700
-8.362100 0.189200
-8.328800 0.195500
-8.295600 0.206200
-8.262400 0.217800
-8.229200 0.229400
-8.196000 0.241000
-8.162800 0.253400
-8.129500 0.264600
-8.096300 0.270600
-8.063100 0.276400
-8.029900 0.283700
-7.996700 0.290600
-7.963500 0.297500
-7.930200 0.304800
-7.897000 0.312800
-7.863800 0.321400
-7.830600 0.330400
-7.797400 0.339500
-7.764200 0.348500
-7.731000 0.381400
-7.697700 0.413000
-7.664500 0.388500
-7.631300 0.391900
-7.598100 0.394900
-7.564900 0.397500
-7.531700 0.397700
-7.498400 0.394300
-7.465200 0.392500
-7.432000 0.394800
-7.398800 0.396900
-7.365600 0.399000
-7.332400 0.400900
-7.299100 0.402800
-7.265900 0.403900
-7.232700 0.430800
-7.199500 0.469500
-7.166300 0.449800
-7.133100 0.456900
-7.099900 0.464800
-7.066600 0.473600
-7.033400 0.480200
-7.000200 0.482800
-6.967000 0.486300
-6.933800 0.493000
-6.900600 0.499800
-6.867300 0.505100
-6.834100 0.510800
-6.800900 0.518000
-6.767700 0.525600
-6.734500 0.528400
-6.701300 0.534500
-6.668000 0.539900
-6.634800 0.544700
-6.601600 0.549900
-6.568400 0.555700
-6.535200 0.561600
-6.502000 0.567400
-6.468800 0.573200
-6.435500 0.579100
-6.402300 0.583600
-6.369100 0.587800
-6.335900 0.592300
-6.302700 0.597900
-6.269500 0.603600
-6.236200 0.609700
-6.203000 0.615800
-6.169800 0.622000
-6.136600 0.628300
-6.103400 0.634900
-6.070200 0.641600
-6.036900 0.648300
-6.003700 0.654700
-5.970500 0.661200
-5.937300 0.667800
-5.904100 0.673100
-5.870900 0.679300
-5.837700 0.685200
-5.804400 0.691200
-5.771200 0.697900
-5.738000 0.705000
-5.704800 0.712100
-5.671600 0.719300
-5.638400 0.726800
-5.605100 0.734600
-5.571900 0.742700
-5.538700 0.751000
-5.505500 0.759500
-5.472300 0.768100
-5.439100 0.777000
-5.405800 0.786000
-5.372600 0.794800
-5.339400 0.803600
-5.306200 0.814600
-5.273000 0.830100
-5.239800 0.845400
-5.206600 0.861200
-5.173300 0.878100
-5.140100 0.895800
-5.106900 0.914900
-5.073700 0.936200
-5.040500 0.958700
-5.007300 0.982300
-4.974000 1.006000
-4.940800 1.064100
-4.907600 1.139200
-4.874400 1.118500
-4.841200 1.087600
-4.808000 1.076200
-4.774700 1.070600
-4.741500 1.053200
-4.708300 1.038600
-4.675100 1.028200
-4.641900 1.022300
-4.608700 1.036000
-4.575400 1.060000
-4.542200 1.047700
-4.509000 1.018600
-4.475800 1.011600
-4.442600 1.003800
-4.409400 0.993700
-4.376200 0.984200
-4.342900 0.979300
-4.309700 0.973500
-4.276500 0.966800
-4.243300 1.041300
-4.210100 0.953600
-4.176900 0.889700
-4.143600 0.876800
-4.110400 0.866500
-4.077200 0.860200
-4.044000 0.858800
-4.010800 0.862400
-3.977600 0.884000
-3.944300 0.911600
-3.911100 0.940400
-3.877900 0.992800
-3.844700 0.901700
-3.811500 0.885200
-3.778300 0.866700
-3.745100 0.847100
-3.711800 0.826200
-3.678600 0.825800
-3.645400 0.830000
-3.612200 0.846400
-3.579000 0.856100
-3.545800 0.886200
-3.512500 0.898000
-3.479300 0.906900
-3.446100 0.913100
-3.412900 0.959600
-3.379700 0.997800
-3.346500 1.064800
-3.313200 1.147700
-3.280000 1.416400
-3.246800 1.180500
-3.213600 1.606100
-3.180400 1.672900
-3.147200 1.396400
-3.114000 1.320400
-3.080700 1.047100
-3.047500 0.945400
-3.014300 0.860900
-2.981100 0.743300
-2.947900 0.621300
-2.914700 0.511100
-2.881400 0.419200
-2.848200 0.381900
-2.815000 0.310700
-2.781800 0.220800
-2.748600 0.140500
-2.715400 0.075900
-2.682100 0.029500
-2.648900 0.008800
-2.615700 0.012900
-2.582500 0.019100
-2.549300 0.025800
-2.516100 0.033100
-2.482900 0.040800
-2.449600 0.048200
-2.416400 0.055300
-2.383200 0.062300
-2.350000 0.069600
-2.316800 0.077000
-2.283600 0.084700
-2.250300 0.092600
-2.217100 0.099900
-2.183900 0.104000
-2.150700 0.107600
-2.117500 0.111900
-2.084300 0.116000
-2.051000 0.120000
-2.017800 0.123900
-1.984600 0.128400
-1.951400 0.133000
-1.918200 0.137700
-1.885000 0.142500
-1.851800 0.147300
-1.818500 0.152200
-1.785300 0.157200
-1.752100 0.162500
-1.718900 0.168000
-1.685700 0.173600
-1.652500 0.179400
-1.619200 0.185400
-1.586000 0.191500
-1.552800 0.198100
-1.519600 0.205800
-1.486400 0.214600
-1.453200 0.244900
-1.419900 0.308100
-1.386700 0.404800
-1.353500 0.539400
-1.320300 0.663500
-1.287100 0.702800
-1.253900 0.770100
-1.220700 0.859800
-1.187400 1.039300
-1.154200 1.278600
-1.121000 1.429600
-1.087800 1.482200
-1.054600 1.466200
-1.021400 1.440800
-0.988100 1.418400
-0.954900 1.419900
-0.921700 1.434500
-0.888500 1.458500
-0.855300 1.616200
-0.822100 1.379500
-0.788800 1.420900
-0.755600 1.437400
-0.722400 1.429100
-0.689200 1.537500
-0.656000 1.618500
-0.622800 1.501700
-0.589600 1.388800
-0.556300 1.312800
-0.523100 1.224200
-0.489900 1.146900
-0.456700 1.097800
-0.423500 1.056700
-0.390300 1.023400
-0.357000 0.990800
-0.323800 0.963000
-0.290600 0.939500
-0.257400 0.918000
-0.224200 0.897600
-0.191000 0.869000
-0.157700 0.851600
-0.124500 0.830500
-0.091300 0.815000
-0.058100 0.802000
-0.024900 0.790200
0.008300 0.780300
0.041600 0.772100
0.074800 0.764300
0.108000 0.757700
0.141200 0.756100
0.174400 0.747400
0.207600 0.739400
0.240800 0.731900
0.274100 0.724100
0.307300 0.716800
0.340500 0.706100
0.373700 0.706700
0.406900 0.707400
0.440100 0.708800
0.473400 0.710000
0.506600 0.711100
0.539800 0.712000
0.573000 0.710800
0.606200 0.714800
0.639400 0.719900
0.672700 0.901200
0.705900 0.766800
0.739100 0.781500
0.772300 0.806500
0.805500 0.823900
0.838700 0.844700
0.871900 0.868500
0.905200 0.895000
0.938400 0.924900
0.971600 1.032800
1.004800 1.040400
1.038000 1.129400
1.071200 1.122700
1.104500 1.105500
1.137700 1.012300
1.170900 0.980900
1.204100 0.980400
1.237300 0.963200
1.270500 0.981900
1.303800 1.028400
1.337000 0.969700
1.370200 0.946600
1.403400 0.920600
1.436600 0.892700
1.469800 0.890600
1.503000 0.894100
1.536300 0.898100
1.569500 0.916500
1.602700 0.945100
1.635900 1.114000
1.669100 0.965700
1.702300 0.711100
1.735600 0.780700
1.768800 0.821100
1.802000 0.845900
1.835200 0.862000
1.868400 0.878100
1.901600 0.893600
1.934900 0.909400
1.968100 0.918800
2.001300 0.921500
2.034500 0.863300
2.067700 0.844600
2.100900 0.832300
2.134100 0.838200
2.167400 0.832600
2.200600 0.831400
2.233800 0.835100
2.267000 0.845200
2.300200 0.860600
2.333400 0.876700
2.366700 0.897100
2.399900 0.917300
2.433100 0.942000
2.466300 0.985700
2.499500 1.037200
2.532700 1.051100
2.566000 1.018500
2.599200 1.004300
2.632400 0.993100
2.665600 1.024200
2.698800 1.071700
2.732000 1.102700
2.765200 1.151400
2.798500 1.294500
2.831700 1.484400
2.864900 1.037900
2.898100 1.046000
2.931300 1.057800
2.964500 1.072000
2.997800 1.083300
3.031000 1.095000
3.064200 1.108900
3.097400 1.127200
3.130600 1.166300
3.163800 1.244700
3.197100 1.214200
3.230300 1.231900
3.263500 1.259000
3.296700 1.263600
3.329900 1.265500
3.363100 1.263400
3.396300 1.251400
3.429600 1.240400
3.462800 1.222700
3.496000 1.188200
3.529200 1.144900
3.562400 1.100300
3.595600 1.093800
3.628900 1.088800
3.662100 1.082800
3.695300 1.080500
3.728500 1.086200
3.761700 1.101100
3.794900 1.128700
3.828200 1.138500
3.861400 1.147500
3.894600 1.158900
3.927800 1.170800
3.961000 1.188200
3.994200 1.217200
4.027400 1.225200
4.060700 1.266100
4.093900 1.304200
4.127100 1.464600
4.160300 1.290000
4.193500 1.279900
4.226700 1.268700
4.260000 1.248200
4.293200 1.254400
4.326400 1.258100
4.359600 1.254700
4.392800 1.241700
4.426000 1.218000
4.459300 1.171400
4.492500 1.120400
4.525700 1.110400
4.558900 1.106300
4.592100 1.104400
4.625300 1.104000
4.658600 1.108300
4.691800 1.117400
4.725000 1.130000
4.758200 1.142000
4.791400 1.152900
4.824600 1.172000
4.857800 1.173300
4.891100 1.173900
4.924300 1.170900
4.957500 1.173000
4.990700 1.175000
5.023900 1.170200
5.057100 1.163600
5.090400 1.171700
5.123600 1.181700
5.156800 1.196000
5.190000 1.242400
5.223200 1.403900
5.256400 1.369100
5.289700 1.316900
5.322900 1.306000
5.356100 1.310400
5.389300 1.318700
5.422500 1.328700
5.455700 1.337700
5.488900 1.341800
5.522200 1.346100
5.555400 1.356500
5.588600 1.398100
5.621800 1.398100
5.655000 1.390900
5.688200 1.398500
5.721500 1.385100
5.754700 1.371600
5.787900 1.358500
5.821100 1.343300
5.854300 1.326100
5.887500 1.307500
5.920800 1.286500
5.954000 1.267500
5.987200 1.257400
6.020400 1.250800
6.053600 1.247800
6.086800 1.254000
6.120000 1.264600
6.153300 1.274300
6.186500 1.283800
6.219700 1.296200
6.252900 1.276300
6.286100 1.279700
6.319300 1.281500
6.352600 1.273700
6.385800 1.262900
6.419000 1.253400
6.452200 1.248000
6.485400 1.243900
6.518600 1.224000
6.551900 1.217900
6.585100 1.220000
6.618300 1.223700
6.651500 1.226400
6.684700 1.229700
6.717900 1.235200
6.751100 1.243700
6.784400 1.249500
6.817600 1.259900
6.850800 1.272000
6.884000 1.258100
6.917200 1.279800
6.950400 1.309400
6.983700 1.334100
7.016900 1.352100
7.050100 1.398400
7.083300 1.445500
7.116500 1.468000
7.149700 1.482000
7.183000 1.482000
7.216200 1.598600
7.249400 1.509500
7.282600 1.409200
7.315800 1.406300
7.349000 1.409100
7.382200 1.411600
7.415500 1.404200
7.448700 1.401400
7.481900 1.451400
7.515100 1.404400
7.548300 1.346900
7.581500 1.193200
7.614800 1.168200
7.648000 1.142200
7.681200 1.128200
7.714400 1.136800
7.747600 1.119700
7.780800 1.108800
7.814100 1.110300
7.847300 1.115200
7.880500 1.136200
7.913700 1.189900
7.946900 1.223000
7.980100 1.236500
8.013300 1.240900
8.046600 1.252700
8.079800 1.274500
8.113000 1.298900
8.146200 1.316900
8.179400 1.337200
8.212600 1.365600
8.245900 1.360900
8.279100 1.372400
8.312300 1.387700
8.345500 1.406400
8.378700 1.419500
8.411900 1.433500
8.445200 1.531000
8.478400 1.372800
8.511600 1.383500
8.544800 1.397700
8.578000 1.433200
8.611200 1.454600
8.644400 1.469300
8.677700 1.479600
8.710900 1.492900
8.744100 1.505500
8.777300 1.526300
8.810500 1.556600
8.843700 1.592700
8.877000 1.628800
8.910200 1.662000
8.943400 1.725300
8.976600 1.748300
9.009800 1.773700
9.043000 1.795300
9.076300 1.793600
9.109500 1.776800
9.142700 1.829500
9.175900 1.800600
9.209100 1.793400
9.242300 1.807400
9.275600 1.824700
9.308800 1.842000
9.342000 1.788200
9.375200 1.775300
9.408400 1.772500
9.441600 1.775700
9.474800 1.776300
9.508100 1.775400
9.541300 1.774800
9.574500 1.791700
9.607700 1.793400
9.640900 1.777100
9.674100 1.762600
9.707400 1.751900
9.740600 1.733800
9.773800 1.712400
9.807000 1.686200
9.840200 1.651400
9.873400 1.604200
9.906700 1.574600
9.939900 1.535400
9.973100 1.498400
10.006300 1.458400
10.039500 1.435100
10.072700 1.414500
10.105900 1.391300
10.139200 1.366300
10.172400 1.341300
10.205600 1.320100
10.238800 1.301000
10.272000 1.298800
10.305200 1.313000
10.338500 1.390600
10.371700 1.497800
10.404900 1.628600
10.438100 1.775400
10.471300 1.962000
10.504500 1.897500
10.537800 1.895500
10.571000 1.726900
10.604200 1.683000
10.637400 1.682900
10.670600 1.668400
10.703800 1.613500
10.737000 1.601700
10.770300 1.627700
10.803500 1.598500
10.836700 1.575300
10.869900 1.677900
10.903100 1.616800
10.936300 1.542900
10.969600 1.526600
11.002800 1.488100
11.036000 1.482500
11.069200 1.558200
11.102400 1.447400
11.135600 1.353600
11.168900 1.278200
11.202100 1.306400
11.235300 1.159700
11.268500 1.089000
11.301700 1.027200
11.334900 0.993400
11.368100 0.969200
11.401400 1.019500
11.434600 0.861800
11.467800 0.860800
11.501000 0.864400
11.534200 0.875800
11.567400 0.889600
11.600700 0.919400
11.633900 0.956900
11.667100 1.042700
11.700300 1.073600
11.733500 1.069400
11.766700 1.121200
11.800000 1.183100
11.833200 1.249000
11.866400 1.333500
11.899600 1.413000
11.932800 1.437200
11.966000 1.371700
11.999200 1.270900
12.032500 1.164000
12.065700 1.144000
12.098900 1.137500
12.132100 1.129200
12.165300 1.119400
12.198500 1.108400
12.231800 1.095900
12.265000 1.081500
12.298200 1.064300
12.331400 1.049600
12.364600 1.083500
12.397800 1.144500
12.431100 1.037000
12.464300 0.978900
12.497500 0.955900
12.530700 0.942600
12.563900 0.926600
12.597100 0.908400
12.630300 0.894700
12.663600 0.876100
12.696800 0.853700
12.730000 0.863300
12.763200 0.852300
12.796400 0.858900
12.829600 0.712700
12.862900 0.701400
12.896100 0.712500
12.929300 0.707000
12.962500 0.705300
12.995700 0.699800
13.028900 0.695900
13.062200 0.694400
13.095400 0.692400
13.128600 0.689700
13.161800 0.687200
13.195000 0.688000
13.228200 0.690400
13.261400 0.693400
13.294700 0.696600
13.327900 0.701000
13.361100 0.675200
13.394300 0.675500
13.427500 0.682500
13.460700 0.672800
13.494000 0.684800
13.527200 0.699200
13.560400 0.722800
13.593600 0.846900
13.626800 0.909000
13.660000 0.899200
13.693300 0.864400
13.726500 0.828200
13.759700 0.804200
13.792900 0.794100
13.826100 0.804300
13.859300 0.825500
13.892600 0.852400
13.925800 0.887200
13.959000 0.974600
13.992200 1.060300
14.025400 1.128700
14.058600 1.265600
14.091800 1.531000
14.125100 1.728600
14.158300 1.834000
14.191500 1.867300
14.224700 1.816600
14.257900 1.717500
14.291100 1.583500
14.324400 1.471600
14.357600 1.396700
14.390800 1.371300
14.424000 1.368300
14.457200 1.367500
14.490400 1.370000
14.523700 1.371900
14.556900 1.360200
14.590100 1.375600
14.623300 1.396600
14.656500 1.462700
14.689700 1.525400
14.722900 1.509200
14.756200 1.365000
14.789400 1.307100
14.822600 1.260600
14.855800 1.245500
14.889000 1.336300
14.922200 1.497600
14.955500 1.640400
14.988700 1.780200
15.021900 1.921200
15.055100 1.922900
15.088300 1.845800
15.121500 1.769100
15.154800 1.697900
15.188000 1.714100
15.221200 1.663600
15.254400 1.548800
15.287600 1.575200
15.320800 1.403000
15.354000 1.347200
15.387300 1.336500
15.420500 1.355200
15.453700 1.382000
15.486900 1.428200
15.520100 1.367300
15.553300 1.390000
15.586600 1.390100
15.619800 1.394500
15.653000 1.424100
15.686200 1.421600
15.719400 1.478400
15.752600 1.482500
15.785900 1.515700
15.819100 1.599300
15.852300 1.587300
15.885500 1.635500
15.918700 1.708900
15.951900 1.751300
15.985100 1.807200
16.018400 1.863600
16.051600 1.915400
16.084800 1.929700
16.118000 1.922900
16.151200 1.903400
16.184400 1.842500
16.217700 1.779400
16.250900 1.746900
16.284100 1.745200
16.317300 1.714200
16.350500 1.691800
16.383700 1.747600
16.417000 1.753300
16.450200 1.724100
16.483400 1.698600
16.516600 1.685500
16.549800 1.668900
16.583000 1.696500
16.616200 1.791600
16.649500 1.809700
16.682700 1.830400
16.715900 1.849800
16.749100 1.846700
16.782300 1.799300
16.815500 1.776100
16.848800 1.768000
16.882000 1.764000
16.915200 1.778300
16.948400 1.832500
16.981600 1.924400
17.014800 1.998400
17.048100 2.019500
17.081300 1.961400
17.114500 1.951800
17.147700 1.972700
17.180900 2.051600
17.214100 2.097100
17.247300 2.077600
17.280600 2.049100
17.313800 2.033700
17.347000 2.025800
17.380200 2.011200
17.413400 2.002100
17.446600 1.977400
17.479900 1.973500
17.513100 1.956800
17.546300 1.914400
17.579500 1.884800
17.612700 1.835900
17.645900 1.827200
17.679200 1.788000
17.712400 1.712700
17.745600 1.669200
17.778800 1.689000
17.812000 1.644700
17.845200 1.582000
17.878400 1.564600
17.911700 1.595300
17.944900 1.633800
17.978100 1.673100
18.011300 1.681600
18.044500 1.783900
18.077700 1.697000
18.111000 1.621200
18.144200 1.528500
18.177400 1.451600
18.210600 1.425700
18.243800 1.410000
18.277000 1.443200
18.310300 1.563500
18.343500 1.691800
18.376700 1.761500
18.409900 1.791400
18.443100 1.834000
18.476300 1.907100
18.509600 1.945600
18.542800 1.657100
18.576000 1.627800
18.609200 1.610700
18.642400 1.604500
18.675600 1.603400
18.708800 1.596700
18.742100 1.574000
18.775300 1.560900
18.808500 1.610000
18.841700 1.573300
18.874900 1.551900
18.908100 1.538100
18.941400 1.529100
18.974600 1.538100
19.007800 1.653700
19.041000 1.662300
19.074200 1.664100
