set title 'mp-493 - Density of States'
set xlabel 'Energy (eV)'
set ylabel 'DOS (states/eV)'
set grid
set xrange [-10:10]
set yrange [0:9.971]
set xzeroaxis lt -1
set terminal png size 800,600
set output 'mp-493_dos_gnuplot.png'
plot '-' using 1:2 with lines title 'DOS'
-7.066200 0.000000
-7.050200 0.000000
-7.034200 0.000000
-7.018200 0.000000
-7.002200 0.000000
-6.986200 0.000000
-6.970200 0.000000
-6.954200 0.000000
-6.938200 0.000000
-6.922200 0.000000
-6.906200 0.000000
-6.890200 0.000000
-6.874200 0.000000
-6.858200 0.000000
-6.842200 0.000000
-6.826200 0.000000
-6.810200 0.000000
-6.794200 0.000000
-6.778200 0.000000
-6.762200 0.000000
-6.746200 0.000000
-6.730200 0.000000
-6.714200 0.000000
-6.698200 0.000000
-6.682200 0.000000
-6.666200 0.000000
-6.650200 0.000000
-6.634200 0.000000
-6.618200 0.000000
-6.602200 0.000000
-6.586200 0.000000
-6.570200 0.000000
-6.554200 0.000000
-6.538200 0.000000
-6.522200 0.000000
-6.506100 0.000000
-6.490100 0.000000
-6.474100 0.000000
-6.458100 0.000000
-6.442100 0.000000
-6.426100 0.000000
-6.410100 0.000000
-6.394100 0.000000
-6.378100 0.000000
-6.362100 0.000000
-6.346100 0.000000
-6.330100 0.000000
-6.314100 0.000000
-6.298100 0.000000
-6.282100 0.000000
-6.266100 0.000000
-6.250100 0.000000
-6.234100 0.000000
-6.218100 0.000000
-6.202100 0.000000
-6.186100 0.000000
-6.170100 0.000000
-6.154100 0.000000
-6.138100 0.000000
-6.122100 0.000000
-6.106100 0.000000
-6.090100 0.000000
-6.074100 0.000000
-6.058100 0.000000
-6.042100 0.000000
-6.026100 0.000000
-6.010100 0.000000
-5.994100 0.000000
-5.978100 0.000000
-5.962100 0.000000
-5.946100 0.000000
-5.930100 0.000000
-5.914100 0.000000
-5.898100 0.000000
-5.882100 0.000000
-5.866100 0.000000
-5.850100 0.000000
-5.834100 0.000000
-5.818100 0.000000
-5.802100 0.000000
-5.786100 0.000000
-5.770100 0.000000
-5.754100 0.000000
-5.738100 0.000000
-5.722100 0.000000
-5.706100 0.000100
-5.690100 0.000300
-5.674100 0.001000
-5.658100 0.002700
-5.642100 0.006000
-5.626100 0.011200
-5.610100 0.018100
-5.594100 0.026200
-5.578100 0.035200
-5.562100 0.045400
-5.546100 0.056700
-5.530100 0.067400
-5.514100 0.074700
-5.498100 0.076400
-5.482100 0.073900
-5.466100 0.072200
-5.450100 0.076800
-5.434100 0.090000
-5.418100 0.107900
-5.402100 0.122700
-5.386100 0.128500
-5.370100 0.124500
-5.354100 0.115400
-5.338100 0.107600
-5.322100 0.105100
-5.306000 0.109100
-5.290000 0.118200
-5.274000 0.129400
-5.258000 0.139200
-5.242000 0.146000
-5.226000 0.151800
-5.210000 0.160100
-5.194000 0.171100
-5.178000 0.180200
-5.162000 0.180400
-5.146000 0.168900
-5.130000 0.151000
-5.114000 0.137100
-5.098000 0.135800
-5.082000 0.147800
-5.066000 0.166300
-5.050000 0.182900
-5.034000 0.193700
-5.018000 0.199000
-5.002000 0.201100
-4.986000 0.202300
-4.970000 0.204400
-4.954000 0.208300
-4.938000 0.212500
-4.922000 0.214500
-4.906000 0.213900
-4.890000 0.213300
-4.874000 0.215800
-4.858000 0.220500
-4.842000 0.222600
-4.826000 0.217600
-4.810000 0.207300
-4.794000 0.198900
-4.778000 0.199600
-4.762000 0.211300
-4.746000 0.229400
-4.730000 0.246200
-4.714000 0.256700
-4.698000 0.261800
-4.682000 0.267500
-4.666000 0.279600
-4.650000 0.297900
-4.634000 0.313800
-4.618000 0.315000
-4.602000 0.295900
-4.586000 0.264200
-4.570000 0.236700
-4.554000 0.226300
-4.538000 0.232100
-4.522000 0.243200
-4.506000 0.250600
-4.490000 0.257300
-4.474000 0.273400
-4.458000 0.302800
-4.442000 0.334600
-4.426000 0.352100
-4.410000 0.348500
-4.394000 0.335000
-4.378000 0.331000
-4.362000 0.346800
-4.346000 0.375300
-4.330000 0.397000
-4.314000 0.393100
-4.298000 0.358600
-4.282000 0.307000
-4.266000 0.264600
-4.250000 0.253500
-4.234000 0.277300
-4.218000 0.319700
-4.202000 0.358300
-4.186000 0.382100
-4.170000 0.396400
-4.154000 0.411800
-4.138000 0.430800
-4.122000 0.446900
-4.105900 0.455500
-4.089900 0.461000
-4.073900 0.472000
-4.057900 0.489100
-4.041900 0.500800
-4.025900 0.493400
-4.009900 0.466900
-3.993900 0.440000
-3.977900 0.435500
-3.961900 0.459700
-3.945900 0.494100
-3.929900 0.511100
-3.913900 0.499700
-3.897900 0.474300
-3.881900 0.458800
-3.865900 0.464400
-3.849900 0.486900
-3.833900 0.517900
-3.817900 0.552100
-3.801900 0.583800
-3.785900 0.603200
-3.769900 0.601100
-3.753900 0.575100
-3.737900 0.532700
-3.721900 0.489600
-3.705900 0.462600
-3.689900 0.459100
-3.673900 0.471200
-3.657900 0.482300
-3.641900 0.481500
-3.625900 0.471200
-3.609900 0.462000
-3.593900 0.461500
-3.577900 0.469100
-3.561900 0.479700
-3.545900 0.492500
-3.529900 0.512500
-3.513900 0.542000
-3.497900 0.570500
-3.481900 0.579400
-3.465900 0.558000
-3.449900 0.513000
-3.433900 0.462000
-3.417900 0.419200
-3.401900 0.391200
-3.385900 0.381900
-3.369900 0.396500
-3.353900 0.437600
-3.337900 0.497300
-3.321900 0.556700
-3.305900 0.597100
-3.289900 0.611500
-3.273900 0.604400
-3.257900 0.581500
-3.241900 0.543500
-3.225900 0.489900
-3.209900 0.428100
-3.193900 0.373000
-3.177900 0.341400
-3.161900 0.343300
-3.145900 0.379100
-3.129900 0.439200
-3.113900 0.506000
-3.097900 0.557900
-3.081900 0.578000
-3.065900 0.563200
-3.049900 0.525100
-3.033900 0.481500
-3.017900 0.446400
-3.001900 0.426900
-2.985900 0.422100
-2.969900 0.426400
-2.953900 0.433600
-2.937900 0.443100
-2.921900 0.459700
-2.905900 0.487000
-2.889800 0.519100
-2.873800 0.541300
-2.857800 0.540500
-2.841800 0.515100
-2.825800 0.475800
-2.809800 0.438600
-2.793800 0.416600
-2.777800 0.414300
-2.761800 0.425700
-2.745800 0.439200
-2.729800 0.448100
-2.713800 0.455600
-2.697800 0.467400
-2.681800 0.478600
-2.665800 0.473700
-2.649800 0.442800
-2.633800 0.395100
-2.617800 0.353200
-2.601800 0.336100
-2.585800 0.346800
-2.569800 0.371600
-2.553800 0.390100
-2.537800 0.389700
-2.521800 0.374200
-2.505800 0.359100
-2.489800 0.356900
-2.473800 0.366700
-2.457800 0.380200
-2.441800 0.392100
-2.425800 0.403700
-2.409800 0.417600
-2.393800 0.432000
-2.377800 0.438800
-2.361800 0.428200
-2.345800 0.397400
-2.329800 0.357400
-2.313800 0.326800
-2.297800 0.318700
-2.281800 0.331600
-2.265800 0.352900
-2.249800 0.369400
-2.233800 0.373900
-2.217800 0.365100
-2.201800 0.346000
-2.185800 0.321400
-2.169800 0.297100
-2.153800 0.279600
-2.137800 0.275300
-2.121800 0.287600
-2.105800 0.312500
-2.089800 0.339900
-2.073800 0.361100
-2.057800 0.374100
-2.041800 0.381100
-2.025800 0.381900
-2.009800 0.372300
-1.993800 0.351300
-1.977800 0.327200
-1.961800 0.313800
-1.945800 0.319500
-1.929800 0.340700
-1.913800 0.364500
-1.897800 0.378000
-1.881800 0.374600
-1.865800 0.354100
-1.849800 0.321300
-1.833800 0.286300
-1.817800 0.262900
-1.801800 0.260900
-1.785800 0.278500
-1.769800 0.303700
-1.753800 0.323700
-1.737800 0.331900
-1.721800 0.328300
-1.705800 0.317800
-1.689700 0.307500
-1.673700 0.303900
-1.657700 0.309800
-1.641700 0.323200
-1.625700 0.339200
-1.609700 0.351200
-1.593700 0.351700
-1.577700 0.337400
-1.561700 0.314400
-1.545700 0.296300
-1.529700 0.293300
-1.513700 0.302800
-1.497700 0.312700
-1.481700 0.312700
-1.465700 0.303100
-1.449700 0.293000
-1.433700 0.290900
-1.417700 0.297600
-1.401700 0.306500
-1.385700 0.310600
-1.369700 0.308100
-1.353700 0.302500
-1.337700 0.298800
-1.321700 0.298700
-1.305700 0.300200
-1.289700 0.300200
-1.273700 0.298500
-1.257700 0.298700
-1.241700 0.305200
-1.225700 0.318900
-1.209700 0.334800
-1.193700 0.344400
-1.177700 0.341000
-1.161700 0.326000
-1.145700 0.309700
-1.129700 0.303500
-1.113700 0.310400
-1.097700 0.324100
-1.081700 0.337300
-1.065700 0.348100
-1.049700 0.357800
-1.033700 0.364800
-1.017700 0.365600
-1.001700 0.360800
-0.985700 0.356800
-0.969700 0.360400
-0.953700 0.374800
-0.937700 0.398000
-0.921700 0.425700
-0.905700 0.451900
-0.889700 0.469400
-0.873700 0.473300
-0.857700 0.466600
-0.841700 0.460000
-0.825700 0.464200
-0.809700 0.481700
-0.793700 0.504400
-0.777700 0.518400
-0.761700 0.513900
-0.745700 0.494300
-0.729700 0.476600
-0.713700 0.479100
-0.697700 0.504800
-0.681700 0.539700
-0.665700 0.565000
-0.649700 0.571700
-0.633700 0.562300
-0.617700 0.542900
-0.601700 0.519800
-0.585700 0.501100
-0.569700 0.495100
-0.553700 0.501300
-0.537700 0.506800
-0.521700 0.497400
-0.505700 0.470500
-0.489600 0.437100
-0.473600 0.410600
-0.457600 0.396500
-0.441600 0.393400
-0.425600 0.402100
-0.409600 0.429400
-0.393600 0.478600
-0.377600 0.538400
-0.361600 0.588200
-0.345600 0.616800
-0.329600 0.632200
-0.313600 0.649300
-0.297600 0.669000
-0.281600 0.675700
-0.265600 0.656600
-0.249600 0.621400
-0.233600 0.595500
-0.217600 0.596600
-0.201600 0.621100
-0.185600 0.653300
-0.169600 0.680000
-0.153600 0.693400
-0.137600 0.685900
-0.121600 0.653400
-0.105600 0.605900
-0.089600 0.569000
-0.073600 0.568100
-0.057600 0.608500
-0.041600 0.669500
-0.025600 0.717400
-0.009600 0.727200
0.006400 0.697900
0.022400 0.653300
0.038400 0.626800
0.054400 0.642700
0.070400 0.705500
0.086400 0.802000
0.102400 0.912500
0.118400 1.018700
0.134400 1.103000
0.150400 1.147700
0.166400 1.142000
0.182400 1.092100
0.198400 1.020500
0.214400 0.953200
0.230400 0.906500
0.246400 0.881900
0.262400 0.870300
0.278400 0.861800
0.294400 0.850800
0.310400 0.836100
0.326400 0.817900
0.342400 0.797100
0.358400 0.775800
0.374400 0.756800
0.390400 0.741800
0.406400 0.733900
0.422400 0.739600
0.438400 0.765500
0.454400 0.809600
0.470400 0.857200
0.486400 0.889500
0.502400 0.899700
0.518400 0.898300
0.534400 0.901700
0.550400 0.917100
0.566400 0.938400
0.582400 0.955800
0.598400 0.965700
0.614400 0.971600
0.630400 0.976300
0.646400 0.978500
0.662400 0.979000
0.678400 0.984700
0.694400 1.005200
0.710500 1.044500
0.726500 1.094900
0.742500 1.138900
0.758500 1.158000
0.774500 1.145300
0.790500 1.107200
0.806500 1.055500
0.822500 0.999800
0.838500 0.948300
0.854500 0.911600
0.870500 0.899500
0.886500 0.917300
0.902500 0.969200
0.918500 1.061200
0.934500 1.189000
0.950500 1.323700
0.966500 1.421700
0.982500 1.455200
0.998500 1.435700
1.014500 1.404500
1.030500 1.398900
1.046500 1.423700
1.062500 1.449400
1.078500 1.437600
1.094500 1.373500
1.110500 1.279200
1.126500 1.197700
1.142500 1.158600
1.158500 1.159100
1.174500 1.174300
1.190500 1.181500
1.206500 1.169400
1.222500 1.133000
1.238500 1.074600
1.254500 1.011000
1.270500 0.972200
1.286500 0.984400
1.302500 1.054600
1.318500 1.166800
1.334500 1.290500
1.350500 1.396000
1.366500 1.466500
1.382500 1.497400
1.398500 1.490400
1.414500 1.451400
1.430500 1.393700
1.446500 1.335200
1.462500 1.289100
1.478500 1.257400
1.494500 1.233800
1.510500 1.210400
1.526500 1.181700
1.542500 1.147300
1.558500 1.114000
1.574500 1.091600
1.590500 1.084300
1.606500 1.087500
1.622500 1.095100
1.638500 1.109000
1.654500 1.139700
1.670500 1.194300
1.686500 1.268000
1.702500 1.349200
1.718500 1.430600
1.734500 1.508800
1.750500 1.576700
1.766500 1.623200
1.782500 1.643100
1.798500 1.644700
1.814500 1.646600
1.830500 1.665600
1.846500 1.700800
1.862500 1.730100
1.878500 1.724900
1.894500 1.672000
1.910600 1.583100
1.926600 1.487500
1.942600 1.417900
1.958600 1.396600
1.974600 1.424600
1.990600 1.477500
2.006600 1.516000
2.022600 1.509500
2.038600 1.456600
2.054600 1.388000
2.070600 1.347500
2.086600 1.363500
2.102600 1.427300
2.118600 1.494600
2.134600 1.515300
2.150600 1.470400
2.166600 1.387700
2.182600 1.320300
2.198600 1.309000
2.214600 1.360400
2.230600 1.451100
2.246600 1.550700
2.262600 1.640300
2.278600 1.718600
2.294600 1.794700
2.310600 1.877500
2.326600 1.970100
2.342600 2.071800
2.358600 2.183500
2.374600 2.307000
2.390600 2.440000
2.406600 2.574300
2.422600 2.698800
2.438600 2.802300
2.454600 2.876000
2.470600 2.918200
2.486600 2.934400
2.502600 2.932100
2.518600 2.917500
2.534600 2.900000
2.550600 2.894000
2.566600 2.909500
2.582600 2.939000
2.598600 2.958500
2.614600 2.945700
2.630600 2.901100
2.646600 2.856900
2.662600 2.862700
2.678600 2.952200
2.694600 3.110000
2.710600 3.266700
2.726600 3.337600
2.742600 3.281100
2.758600 3.130100
2.774600 2.971600
2.790600 2.890200
2.806600 2.916400
2.822600 3.018400
2.838600 3.140800
2.854600 3.255400
2.870600 3.378800
2.886600 3.548900
2.902600 3.795500
2.918600 4.134200
2.934600 4.576800
2.950600 5.132400
2.966600 5.794800
2.982600 6.530400
2.998600 7.277200
3.014600 7.952800
3.030600 8.474200
3.046600 8.793100
3.062600 8.921400
3.078600 8.916000
3.094600 8.832100
3.110700 8.689300
3.126700 8.481200
3.142700 8.207100
3.158700 7.889700
3.174700 7.564800
3.190700 7.256200
3.206700 6.963100
3.222700 6.675800
3.238700 6.403700
3.254700 6.185700
3.270700 6.060800
3.286700 6.014100
3.302700 5.957000
3.318700 5.785600
3.334700 5.475800
3.350700 5.111600
3.366700 4.812900
3.382700 4.639300
3.398700 4.564600
3.414700 4.530900
3.430700 4.515500
3.446700 4.545500
3.462700 4.652900
3.478700 4.822600
3.494700 4.989500
3.510700 5.080100
3.526700 5.056700
3.542700 4.933000
3.558700 4.769000
3.574700 4.647200
3.590700 4.628600
3.606700 4.707600
3.622700 4.806300
3.638700 4.827200
3.654700 4.724100
3.670700 4.532100
3.686700 4.335200
3.702700 4.203800
3.718700 4.154300
3.734700 4.148800
3.750700 4.127700
3.766700 4.049700
3.782700 3.915200
3.798700 3.754000
3.814700 3.595400
3.830700 3.451100
3.846700 3.323200
3.862700 3.214900
3.878700 3.128800
3.894700 3.060400
3.910700 3.000400
3.926700 2.945300
3.942700 2.902800
3.958700 2.883100
3.974700 2.886200
3.990700 2.899500
4.006700 2.908700
4.022700 2.910400
4.038700 2.917800
4.054700 2.953300
4.070700 3.033500
4.086700 3.153400
4.102700 3.280700
4.118700 3.367100
4.134700 3.367900
4.150700 3.262700
4.166700 3.072000
4.182700 2.863200
4.198700 2.725500
4.214700 2.710800
4.230700 2.788200
4.246700 2.865900
4.262700 2.865100
4.278700 2.774900
4.294700 2.647600
4.310800 2.554500
4.326800 2.544400
4.342800 2.620300
4.358800 2.737600
4.374800 2.825400
4.390800 2.827800
4.406800 2.741700
4.422800 2.621400
4.438800 2.546300
4.454800 2.572600
4.470800 2.699900
4.486800 2.872600
4.502800 3.016600
4.518800 3.088600
4.534800 3.099000
4.550800 3.088700
4.566800 3.086300
4.582800 3.089400
4.598800 3.082900
4.614800 3.064200
4.630800 3.043300
4.646800 3.021000
4.662800 2.978900
4.678800 2.902100
4.694800 2.809000
4.710800 2.748700
4.726800 2.765900
4.742800 2.871400
4.758800 3.039400
4.774800 3.223300
4.790800 3.372900
4.806800 3.451800
4.822800 3.455400
4.838800 3.414000
4.854800 3.372600
4.870800 3.367800
4.886800 3.417000
4.902800 3.520900
4.918800 3.668900
4.934800 3.839200
4.950800 3.998500
4.966800 4.108700
4.982800 4.144800
4.998800 4.112300
5.014800 4.045300
5.030800 3.981400
5.046800 3.935900
5.062800 3.897100
5.078800 3.847400
5.094800 3.785100
5.110800 3.726200
5.126800 3.687000
5.142800 3.667700
5.158800 3.654400
5.174800 3.636800
5.190800 3.622500
5.206800 3.630900
5.222800 3.677400
5.238800 3.762000
5.254800 3.868600
5.270800 3.967100
5.286800 4.018400
5.302800 3.985500
5.318800 3.857300
5.334800 3.671600
5.350800 3.510800
5.366800 3.459200
5.382800 3.554600
5.398800 3.772700
5.414800 4.054600
5.430800 4.351300
5.446800 4.648600
5.462800 4.956000
5.478800 5.282100
5.494800 5.624200
5.510800 5.969600
5.526900 6.287800
5.542900 6.525300
5.558900 6.631200
5.574900 6.607000
5.590900 6.526100
5.606900 6.491800
5.622900 6.556500
5.638900 6.673000
5.654900 6.720900
5.670900 6.592500
5.686900 6.269000
5.702900 5.830100
5.718900 5.402800
5.734900 5.102900
5.750900 5.002500
5.766900 5.121600
5.782900 5.434200
5.798900 5.881300
5.814900 6.387800
5.830900 6.885300
5.846900 7.335900
5.862900 7.741000
5.878900 8.123700
5.894900 8.493300
5.910900 8.818900
5.926900 9.032200
5.942900 9.064500
5.958900 8.891100
5.974900 8.544000
5.990900 8.078600
6.006900 7.531800
6.022900 6.914100
6.038900 6.239700
6.054900 5.557000
6.070900 4.943600
6.086900 4.463200
6.102900 4.126000
6.118900 3.893200
6.134900 3.717700
6.150900 3.568300
6.166900 3.423300
6.182900 3.261900
6.198900 3.078200
6.214900 2.895300
6.230900 2.752600
6.246900 2.670500
6.262900 2.632000
6.278900 2.598000
6.294900 2.534200
6.310900 2.426200
6.326900 2.277600
6.342900 2.103400
6.358900 1.926200
6.374900 1.773300
6.390900 1.671300
6.406900 1.635100
6.422900 1.659900
6.438900 1.725100
6.454900 1.807100
6.470900 1.881900
6.486900 1.918200
6.502900 1.880200
6.518900 1.755000
6.534900 1.578700
6.550900 1.427800
6.566900 1.372100
6.582900 1.429800
6.598900 1.560300
6.614900 1.697100
6.630900 1.790500
6.646900 1.828200
6.662900 1.823900
6.678900 1.794000
6.694900 1.746900
6.710900 1.692500
6.727000 1.650300
6.743000 1.637200
6.759000 1.644700
6.775000 1.636400
6.791000 1.579600
6.807000 1.482900
6.823000 1.395700
6.839000 1.370300
6.855000 1.419500
6.871000 1.511200
6.887000 1.596600
6.903000 1.642300
6.919000 1.642600
6.935000 1.610800
6.951000 1.566700
6.967000 1.528800
6.983000 1.510200
6.999000 1.509400
7.015000 1.506400
7.031000 1.472400
7.047000 1.393900
7.063000 1.288400
7.079000 1.197200
7.095000 1.159000
7.111000 1.184900
7.127000 1.252500
7.143000 1.322000
7.159000 1.360100
7.175000 1.352500
7.191000 1.302700
7.207000 1.223300
7.223000 1.131100
7.239000 1.043100
7.255000 0.969700
7.271000 0.910100
7.287000 0.856400
7.303000 0.805200
7.319000 0.765900
7.335000 0.754400
7.351000 0.775700
7.367000 0.812600
7.383000 0.834300
7.399000 0.819000
7.415000 0.767500
7.431000 0.698300
7.447000 0.634000
7.463000 0.589900
7.479000 0.569800
7.495000 0.567800
7.511000 0.577300
7.527000 0.598400
7.543000 0.636500
7.559000 0.692100
7.575000 0.753500
7.591000 0.800500
7.607000 0.814600
7.623000 0.788800
7.639000 0.733100
7.655000 0.672100
7.671000 0.632200
7.687000 0.625400
7.703000 0.642900
7.719000 0.664200
7.735000 0.673100
7.751000 0.669100
7.767000 0.664800
7.783000 0.671900
7.799000 0.687200
7.815000 0.695200
7.831000 0.685000
7.847000 0.662500
7.863000 0.647500
7.879000 0.659800
7.895000 0.704500
7.911000 0.766900
7.927100 0.821100
7.943100 0.849000
7.959100 0.850100
7.975100 0.835400
7.991100 0.815700
8.007100 0.797800
8.023100 0.788600
8.039100 0.795100
8.055100 0.822600
8.071100 0.876500
8.087100 0.961900
8.103100 1.074200
8.119100 1.189300
8.135100 1.270600
8.151100 1.296300
8.167100 1.279400
8.183100 1.256500
8.199100 1.252400
8.215100 1.259400
8.231100 1.250900
8.247100 1.212300
8.263100 1.156200
8.279100 1.114900
8.295100 1.120000
8.311100 1.180000
8.327100 1.271300
8.343100 1.351400
8.359100 1.383300
8.375100 1.352200
8.391100 1.266800
8.407100 1.151300
8.423100 1.035600
8.439100 0.946400
8.455100 0.899000
8.471100 0.891000
8.487100 0.902400
8.503100 0.905100
8.519100 0.881600
8.535100 0.835500
8.551100 0.785300
8.567100 0.748400
8.583100 0.730900
8.599100 0.727300
8.615100 0.728200
8.631100 0.727100
8.647100 0.725200
8.663100 0.729900
8.679100 0.748100
8.695100 0.777400
8.711100 0.803200
8.727100 0.803700
8.743100 0.762200
8.759100 0.682600
8.775100 0.590700
8.791100 0.518400
8.807100 0.479900
8.823100 0.466300
8.839100 0.459900
8.855100 0.450400
8.871100 0.439700
8.887100 0.435000
8.903100 0.441300
8.919100 0.456000
8.935100 0.466900
8.951100 0.458300
8.967100 0.422400
8.983100 0.368200
8.999100 0.316900
9.015100 0.288800
9.031100 0.292800
9.047100 0.326200
9.063100 0.380900
9.079100 0.446900
9.095100 0.511600
9.111100 0.558500
9.127200 0.570800
9.143200 0.541700
9.159200 0.482900
9.175200 0.423400
9.191200 0.393900
9.207200 0.408400
9.223200 0.456200
9.239200 0.511000
9.255200 0.549300
9.271200 0.564800
9.287200 0.567100
9.303200 0.570100
9.319200 0.582400
9.335200 0.606500
9.351200 0.640100
9.367200 0.676300
9.383200 0.705800
9.399200 0.722200
9.415200 0.725300
9.431200 0.720700
9.447200 0.718200
9.463200 0.727400
9.479200 0.751300
9.495200 0.783300
9.511200 0.815400
9.527200 0.847000
9.543200 0.887100
9.559200 0.943000
9.575200 1.010600
9.591200 1.077500
9.607200 1.137000
9.623200 1.195100
9.639200 1.257000
9.655200 1.311600
9.671200 1.335300
9.687200 1.314200
9.703200 1.257000
9.719200 1.184200
9.735200 1.110300
9.751200 1.041300
9.767200 0.982800
9.783200 0.942700
9.799200 0.925000
9.815200 0.927400
9.831200 0.945500
9.847200 0.972700
9.863200 0.995700
9.879200 0.995200
9.895200 0.958900
9.911200 0.892900
9.927200 0.820800
9.943200 0.769800
9.959200 0.754000
9.975200 0.764900
9.991200 0.777500
10.007200 0.770500
10.023200 0.739800
10.039200 0.692700
10.055200 0.634000
