set title 'mp-981547 - Density of States'
set xlabel 'Energy (eV)'
set ylabel 'DOS (states/eV)'
set grid
set xrange [-10:10]
set yrange [0:3.258]
set xzeroaxis lt -1
set terminal png size 800,600
set output 'mp-981547_dos_gnuplot.png'
plot '-' using 1:2 with lines title 'DOS'
-37.170200 0.000000
-37.121800 0.000000
-37.073400 0.000000
-37.024900 0.000000
-36.976500 0.000000
-36.928100 0.000000
-36.879600 0.000000
-36.831200 0.000000
-36.782800 0.000000
-36.734400 0.000000
-36.685900 0.000000
-36.637500 0.000000
-36.589100 0.000000
-36.540600 0.000000
-36.492200 0.000000
-36.443800 0.000000
-36.395300 0.000000
-36.346900 0.000000
-36.298500 0.000000
-36.250100 0.000000
-36.201600 0.000000
-36.153200 0.000000
-36.104800 0.000000
-36.056300 0.000000
-36.007900 0.000000
-35.959500 0.000000
-35.911000 0.000000
-35.862600 0.000000
-35.814200 0.000000
-35.765800 0.000000
-35.717300 0.000000
-35.668900 0.000000
-35.620500 0.000000
-35.572000 0.000000
-35.523600 0.000000
-35.475200 0.000000
-35.426700 0.000000
-35.378300 0.000000
-35.329900 0.000000
-35.281500 0.000000
-35.233000 0.000000
-35.184600 0.000000
-35.136200 0.000000
-35.087700 0.000000
-35.039300 0.000000
-34.990900 0.000000
-34.942400 0.000000
-34.894000 0.000000
-34.845600 0.000000
-34.797100 0.000000
-34.748700 0.000000
-34.700300 0.000000
-34.651900 0.000000
-34.603400 0.000000
-34.555000 0.000000
-34.506600 0.000000
-34.458100 0.000000
-34.409700 0.000000
-34.361300 0.000000
-34.312800 0.000000
-34.264400 0.000000
-34.216000 0.000000
-34.167600 0.000000
-34.119100 0.000000
-34.070700 0.000000
-34.022300 0.000000
-33.973800 0.000000
-33.925400 0.000000
-33.877000 0.000000
-33.828500 0.000000
-33.780100 0.000000
-33.731700 0.000000
-33.683300 0.000000
-33.634800 0.000000
-33.586400 0.000000
-33.538000 0.000000
-33.489500 0.000000
-33.441100 0.000000
-33.392700 0.000000
-33.344200 0.000000
-33.295800 0.000000
-33.247400 0.000000
-33.199000 0.000000
-33.150500 0.000000
-33.102100 0.000000
-33.053700 0.000000
-33.005200 0.000000
-32.956800 0.000000
-32.908400 0.000000
-32.859900 0.002200
-32.811500 0.101900
-32.763100 1.271900
-32.714700 6.368600
-32.666200 15.196900
-32.617800 13.984200
-32.569400 4.047000
-32.520900 0.318100
-32.472500 0.005800
-32.424100 0.000000
-32.375600 0.000000
-32.327200 0.000000
-32.278800 0.000000
-32.230300 0.000000
-32.181900 0.000000
-32.133500 0.000000
-32.085100 0.000000
-32.036600 0.000000
-31.988200 0.000000
-31.939800 0.000000
-31.891300 0.000000
-31.842900 0.000000
-31.794500 0.000000
-31.746000 0.000000
-31.697600 0.000000
-31.649200 0.000000
-31.600800 0.000000
-31.552300 0.000000
-31.503900 0.000000
-31.455500 0.000000
-31.407000 0.000000
-31.358600 0.000000
-31.310200 0.000000
-31.261700 0.000000
-31.213300 0.000000
-31.164900 0.000000
-31.116500 0.000000
-31.068000 0.000000
-31.019600 0.000000
-30.971200 0.000000
-30.922700 0.000000
-30.874300 0.000000
-30.825900 0.000000
-30.777400 0.000000
-30.729000 0.000000
-30.680600 0.000000
-30.632200 0.000000
-30.583700 0.000000
-30.535300 0.000000
-30.486900 0.000000
-30.438400 0.000000
-30.390000 0.000000
-30.341600 0.000000
-30.293100 0.000000
-30.244700 0.000000
-30.196300 0.000000
-30.147800 0.000000
-30.099400 0.000000
-30.051000 0.000000
-30.002600 0.000000
-29.954100 0.000000
-29.905700 0.000000
-29.857300 0.000000
-29.808800 0.000000
-29.760400 0.000000
-29.712000 0.000000
-29.663500 0.000000
-29.615100 0.000000
-29.566700 0.000000
-29.518300 0.000000
-29.469800 0.000000
-29.421400 0.000000
-29.373000 0.000000
-29.324500 0.000000
-29.276100 0.000000
-29.227700 0.000000
-29.179200 0.000000
-29.130800 0.000000
-29.082400 0.000000
-29.034000 0.000000
-28.985500 0.000000
-28.937100 0.000000
-28.888700 0.000000
-28.840200 0.000000
-28.791800 0.000000
-28.743400 0.000000
-28.694900 0.000000
-28.646500 0.000000
-28.598100 0.000000
-28.549700 0.000000
-28.501200 0.000000
-28.452800 0.000000
-28.404400 0.000000
-28.355900 0.000000
-28.307500 0.000000
-28.259100 0.000000
-28.210600 0.000000
-28.162200 0.000000
-28.113800 0.000000
-28.065300 0.000000
-28.016900 0.000000
-27.968500 0.000000
-27.920100 0.000000
-27.871600 0.000000
-27.823200 0.000000
-27.774800 0.000000
-27.726300 0.000000
-27.677900 0.000000
-27.629500 0.000000
-27.581000 0.000000
-27.532600 0.000000
-27.484200 0.000000
-27.435800 0.000000
-27.387300 0.000000
-27.338900 0.000000
-27.290500 0.000000
-27.242000 0.000000
-27.193600 0.000000
-27.145200 0.000000
-27.096700 0.000000
-27.048300 0.000000
-26.999900 0.000000
-26.951500 0.000000
-26.903000 0.000000
-26.854600 0.000000
-26.806200 0.000000
-26.757700 0.000000
-26.709300 0.000000
-26.660900 0.000000
-26.612400 0.000000
-26.564000 0.000000
-26.515600 0.000000
-26.467200 0.000000
-26.418700 0.000000
-26.370300 0.000000
-26.321900 0.000000
-26.273400 0.000000
-26.225000 0.000000
-26.176600 0.000000
-26.128100 0.000000
-26.079700 0.000000
-26.031300 0.000000
-25.982800 0.000000
-25.934400 0.000000
-25.886000 0.000000
-25.837600 0.000000
-25.789100 0.000000
-25.740700 0.000000
-25.692300 0.000000
-25.643800 0.000000
-25.595400 0.000000
-25.547000 0.000000
-25.498500 0.000000
-25.450100 0.000000
-25.401700 0.000000
-25.353300 0.000000
-25.304800 0.000000
-25.256400 0.000000
-25.208000 0.000000
-25.159500 0.000000
-25.111100 0.000000
-25.062700 0.000000
-25.014200 0.000000
-24.965800 0.000000
-24.917400 0.000000
-24.869000 0.000000
-24.820500 0.000000
-24.772100 0.000000
-24.723700 0.000000
-24.675200 0.000000
-24.626800 0.000000
-24.578400 0.000000
-24.529900 0.000000
-24.481500 0.000000
-24.433100 0.000000
-24.384700 0.000000
-24.336200 0.000000
-24.287800 0.000000
-24.239400 0.000000
-24.190900 0.000000
-24.142500 0.000000
-24.094100 0.000000
-24.045600 0.000000
-23.997200 0.000000
-23.948800 0.000000
-23.900400 0.000000
-23.851900 0.000000
-23.803500 0.000000
-23.755100 0.000000
-23.706600 0.000000
-23.658200 0.000000
-23.609800 0.000000
-23.561300 0.000000
-23.512900 0.000000
-23.464500 0.000000
-23.416000 0.000000
-23.367600 0.000000
-23.319200 0.000000
-23.270800 0.000000
-23.222300 0.000000
-23.173900 0.000000
-23.125500 0.000000
-23.077000 0.000000
-23.028600 0.000000
-22.980200 0.000000
-22.931700 0.000000
-22.883300 0.000000
-22.834900 0.000000
-22.786500 0.000000
-22.738000 0.000000
-22.689600 0.000000
-22.641200 0.000000
-22.592700 0.000000
-22.544300 0.000000
-22.495900 0.000000
-22.447400 0.000000
-22.399000 0.000000
-22.350600 0.000000
-22.302200 0.000000
-22.253700 0.000000
-22.205300 0.000000
-22.156900 0.000000
-22.108400 0.000000
-22.060000 0.000000
-22.011600 0.000000
-21.963100 0.000000
-21.914700 0.000000
-21.866300 0.000000
-21.817900 0.000000
-21.769400 0.000000
-21.721000 0.000000
-21.672600 0.000000
-21.624100 0.000000
-21.575700 0.000000
-21.527300 0.000000
-21.478800 0.000000
-21.430400 0.000000
-21.382000 0.000000
-21.333500 0.000000
-21.285100 0.000000
-21.236700 0.000000
-21.188300 0.000000
-21.139800 0.000000
-21.091400 0.000000
-21.043000 0.000000
-20.994500 0.000000
-20.946100 0.000000
-20.897700 0.000000
-20.849200 0.000000
-20.800800 0.000000
-20.752400 0.000000
-20.704000 0.000000
-20.655500 0.000000
-20.607100 0.000000
-20.558700 0.000000
-20.510200 0.000000
-20.461800 0.000000
-20.413400 0.000000
-20.364900 0.000000
-20.316500 0.000000
-20.268100 0.000000
-20.219700 0.000000
-20.171200 0.000000
-20.122800 0.000000
-20.074400 0.000000
-20.025900 0.000000
-19.977500 0.000000
-19.929100 0.000000
-19.880600 0.000000
-19.832200 0.000000
-19.783800 0.000000
-19.735400 0.000000
-19.686900 0.000000
-19.638500 0.000000
-19.590100 0.000000
-19.541600 0.000000
-19.493200 0.000000
-19.444800 0.000000
-19.396300 0.000000
-19.347900 0.000000
-19.299500 0.000000
-19.251000 0.000000
-19.202600 0.000000
-19.154200 0.000000
-19.105800 0.000000
-19.057300 0.000000
-19.008900 0.000000
-18.960500 0.000000
-18.912000 0.000000
-18.863600 0.000000
-18.815200 0.000000
-18.766700 0.000000
-18.718300 0.000000
-18.669900 0.000000
-18.621500 0.000000
-18.573000 0.000000
-18.524600 0.000000
-18.476200 0.000000
-18.427700 0.000000
-18.379300 0.000000
-18.330900 0.000000
-18.282400 0.000000
-18.234000 0.000000
-18.185600 0.000000
-18.137200 0.000000
-18.088700 0.000000
-18.040300 0.000000
-17.991900 0.000000
-17.943400 0.000000
-17.895000 0.000000
-17.846600 0.000000
-17.798100 0.000000
-17.749700 0.000000
-17.701300 0.000000
-17.652900 0.000000
-17.604400 0.000000
-17.556000 0.000000
-17.507600 0.000000
-17.459100 0.000000
-17.410700 0.000000
-17.362300 0.000000
-17.313800 0.000000
-17.265400 0.000000
-17.217000 0.000000
-17.168600 0.000000
-17.120100 0.000000
-17.071700 0.000000
-17.023300 0.000000
-16.974800 0.000000
-16.926400 0.000000
-16.878000 0.000000
-16.829500 0.000000
-16.781100 0.000000
-16.732700 0.000000
-16.684200 0.000000
-16.635800 0.000000
-16.587400 0.000000
-16.539000 0.000000
-16.490500 0.000000
-16.442100 0.000000
-16.393700 0.000000
-16.345200 0.000000
-16.296800 0.000000
-16.248400 0.000000
-16.199900 0.000000
-16.151500 0.000000
-16.103100 0.000000
-16.054700 0.000000
-16.006200 0.000000
-15.957800 0.000000
-15.909400 0.000000
-15.860900 0.000000
-15.812500 0.000000
-15.764100 0.000000
-15.715600 0.000000
-15.667200 0.000000
-15.618800 0.000000
-15.570400 0.000000
-15.521900 0.000000
-15.473500 0.000500
-15.425100 0.022600
-15.376600 0.279700
-15.328200 1.225800
-15.279800 3.022800
-15.231300 5.691100
-15.182900 7.363900
-15.134500 6.801300
-15.086100 5.397400
-15.037600 3.860100
-14.989200 3.324300
-14.940800 3.783000
-14.892300 4.392500
-14.843900 4.961000
-14.795500 5.029000
-14.747000 5.699800
-14.698600 8.148000
-14.650200 11.439900
-14.601700 11.700800
-14.553300 10.271800
-14.504900 8.682600
-14.456500 7.047000
-14.408000 4.407300
-14.359600 1.224600
-14.311200 0.110100
-14.262700 0.002500
-14.214300 0.000000
-14.165900 0.000000
-14.117400 0.000000
-14.069000 0.000000
-14.020600 0.000000
-13.972200 0.000000
-13.923700 0.000000
-13.875300 0.000000
-13.826900 0.000000
-13.778400 0.000000
-13.730000 0.000000
-13.681600 0.000000
-13.633100 0.000000
-13.584700 0.000000
-13.536300 0.000000
-13.487900 0.000000
-13.439400 0.000000
-13.391000 0.000000
-13.342600 0.000000
-13.294100 0.000000
-13.245700 0.000000
-13.197300 0.000000
-13.148800 0.000000
-13.100400 0.000000
-13.052000 0.000000
-13.003600 0.000000
-12.955100 0.000000
-12.906700 0.000000
-12.858300 0.000000
-12.809800 0.000000
-12.761400 0.000000
-12.713000 0.000000
-12.664500 0.000000
-12.616100 0.000000
-12.567700 0.000000
-12.519200 0.000000
-12.470800 0.000000
-12.422400 0.000000
-12.374000 0.000000
-12.325500 0.000000
-12.277100 0.000000
-12.228700 0.000000
-12.180200 0.000000
-12.131800 0.000000
-12.083400 0.000000
-12.034900 0.000000
-11.986500 0.000000
-11.938100 0.000000
-11.889700 0.000000
-11.841200 0.000000
-11.792800 0.000000
-11.744400 0.000000
-11.695900 0.000000
-11.647500 0.000000
-11.599100 0.000000
-11.550600 0.000000
-11.502200 0.000000
-11.453800 0.000000
-11.405400 0.000000
-11.356900 0.000000
-11.308500 0.000000
-11.260100 0.000000
-11.211600 0.000000
-11.163200 0.000000
-11.114800 0.000000
-11.066300 0.000000
-11.017900 0.000000
-10.969500 0.000000
-10.921100 0.000000
-10.872600 0.000000
-10.824200 0.000000
-10.775800 0.000000
-10.727300 0.000000
-10.678900 0.000000
-10.630500 0.000000
-10.582000 0.000000
-10.533600 0.000000
-10.485200 0.000000
-10.436700 0.000000
-10.388300 0.000000
-10.339900 0.000000
-10.291500 0.000000
-10.243000 0.000000
-10.194600 0.000000
-10.146200 0.000000
-10.097700 0.000000
-10.049300 0.000000
-10.000900 0.000000
-9.952400 0.000000
-9.904000 0.000000
-9.855600 0.000000
-9.807200 0.000000
-9.758700 0.000000
-9.710300 0.000000
-9.661900 0.000000
-9.613400 0.000000
-9.565000 0.000000
-9.516600 0.000000
-9.468100 0.000000
-9.419700 0.000000
-9.371300 0.000000
-9.322900 0.000000
-9.274400 0.000000
-9.226000 0.000000
-9.177600 0.000000
-9.129100 0.000000
-9.080700 0.000000
-9.032300 0.000000
-8.983800 0.000000
-8.935400 0.000000
-8.887000 0.000000
-8.838600 0.000000
-8.790100 0.000000
-8.741700 0.000000
-8.693300 0.000000
-8.644800 0.000000
-8.596400 0.000000
-8.548000 0.000000
-8.499500 0.000000
-8.451100 0.000000
-8.402700 0.000000
-8.354300 0.000000
-8.305800 0.000000
-8.257400 0.000000
-8.209000 0.000000
-8.160500 0.000000
-8.112100 0.000000
-8.063700 0.000000
-8.015200 0.000000
-7.966800 0.000000
-7.918400 0.000000
-7.869900 0.000000
-7.821500 0.000000
-7.773100 0.000000
-7.724700 0.000000
-7.676200 0.000000
-7.627800 0.000000
-7.579400 0.000000
-7.530900 0.000000
-7.482500 0.000000
-7.434100 0.000000
-7.385600 0.000000
-7.337200 0.000000
-7.288800 0.000000
-7.240400 0.000000
-7.191900 0.000000
-7.143500 0.000000
-7.095100 0.000000
-7.046600 0.000000
-6.998200 0.000000
-6.949800 0.000000
-6.901300 0.000000
-6.852900 0.000000
-6.804500 0.000000
-6.756100 0.000000
-6.707600 0.000000
-6.659200 0.000000
-6.610800 0.000000
-6.562300 0.000000
-6.513900 0.000000
-6.465500 0.000000
-6.417000 0.000000
-6.368600 0.000000
-6.320200 0.000000
-6.271800 0.000000
-6.223300 0.000000
-6.174900 0.000000
-6.126500 0.000000
-6.078000 0.000000
-6.029600 0.000000
-5.981200 0.000000
-5.932700 0.000000
-5.884300 0.000000
-5.835900 0.000000
-5.787400 0.000000
-5.739000 0.000000
-5.690600 0.000000
-5.642200 0.000000
-5.593700 0.000000
-5.545300 0.000000
-5.496900 0.000000
-5.448400 0.000000
-5.400000 0.000000
-5.351600 0.000000
-5.303100 0.000000
-5.254700 0.000000
-5.206300 0.000000
-5.157900 0.000000
-5.109400 0.000000
-5.061000 0.000000
-5.012600 0.000000
-4.964100 0.000000
-4.915700 0.000000
-4.867300 0.000000
-4.818800 0.000000
-4.770400 0.000000
-4.722000 0.000000
-4.673600 0.000000
-4.625100 0.000000
-4.576700 0.000000
-4.528300 0.000000
-4.479800 0.000000
-4.431400 0.000000
-4.383000 0.000000
-4.334500 0.000000
-4.286100 0.000100
-4.237700 0.003300
-4.189300 0.017800
-4.140800 0.035300
-4.092400 0.030800
-4.044000 0.047300
-3.995500 0.119600
-3.947100 0.078400
-3.898700 0.033000
-3.850200 0.063000
-3.801800 0.112400
-3.753400 0.126500
-3.704900 0.103400
-3.656500 0.167800
-3.608100 0.177100
-3.559700 0.098200
-3.511200 0.083100
-3.462800 0.081000
-3.414400 0.098600
-3.365900 0.242600
-3.317500 0.302800
-3.269100 0.193600
-3.220600 0.101100
-3.172200 0.227200
-3.123800 0.236000
-3.075400 0.255300
-3.026900 0.170600
-2.978500 0.077700
-2.930100 0.123200
-2.881600 0.214700
-2.833200 0.474300
-2.784800 0.546200
-2.736300 0.232200
-2.687900 0.240800
-2.639500 0.330900
-2.591100 0.321000
-2.542600 0.261100
-2.494200 0.123000
-2.445800 0.167100
-2.397300 0.414800
-2.348900 0.675600
-2.300500 0.754000
-2.252000 0.480900
-2.203600 0.448000
-2.155200 0.582700
-2.106800 0.400300
-2.058300 0.368000
-2.009900 0.351900
-1.961500 0.731200
-1.913000 1.122300
-1.864600 1.211000
-1.816200 0.935900
-1.767700 0.857600
-1.719300 0.992800
-1.670900 0.891700
-1.622500 0.714500
-1.574000 0.745400
-1.525600 1.360000
-1.477200 1.453200
-1.428700 1.133100
-1.380300 1.379700
-1.331900 1.809700
-1.283400 1.645200
-1.235000 1.916600
-1.186600 2.381700
-1.138100 2.338300
-1.089700 2.160800
-1.041300 1.807800
-0.992900 1.632100
-0.944400 1.603900
-0.896000 1.702700
-0.847600 1.605500
-0.799100 1.061500
-0.750700 0.967600
-0.702300 1.341100
-0.653800 1.971500
-0.605400 2.131000
-0.557000 1.518600
-0.508600 1.499700
-0.460100 1.822600
-0.411700 2.417200
-0.363300 2.704500
-0.314800 2.748600
-0.266400 2.600400
-0.218000 2.226500
-0.169500 2.210800
-0.121100 2.068700
-0.072700 2.008000
-0.024300 1.746800
0.024200 1.202600
0.072600 0.962800
0.121000 1.180400
0.169500 1.376000
0.217900 1.136200
0.266300 1.165000
0.314800 1.221800
0.363200 1.422000
0.411600 1.377900
0.460000 1.190200
0.508500 0.967500
0.556900 1.053400
0.605300 1.237000
0.653800 1.223400
0.702200 1.257500
0.750600 1.044400
0.799100 1.003400
0.847500 1.272900
0.895900 1.446200
0.944400 1.042500
0.992800 0.776400
1.041200 0.875100
1.089600 0.875200
1.138100 0.695700
1.186500 0.689900
1.234900 0.950100
1.283400 0.974700
1.331800 0.537700
1.380200 0.452100
1.428700 0.521600
1.477100 0.387100
1.525500 0.420500
1.573900 0.687100
1.622400 0.737900
1.670800 0.598200
1.719200 0.541300
1.767700 0.499900
1.816100 0.348500
1.864500 0.269300
1.913000 0.402000
1.961400 0.720300
2.009800 0.624400
2.058200 0.423500
2.106700 0.349300
2.155100 0.246700
2.203500 0.374000
2.252000 0.491700
2.300400 0.334000
2.348800 0.192200
2.397300 0.308200
2.445700 0.277200
2.494100 0.369800
2.542500 0.409100
2.591000 0.414100
2.639400 0.419900
2.687800 0.392900
2.736300 0.312000
2.784700 0.217600
2.833100 0.072900
2.881600 0.091800
2.930000 0.235800
2.978400 0.342500
3.026900 0.327500
3.075300 0.193200
3.123700 0.048400
3.172100 0.105200
3.220600 0.193600
3.269000 0.174000
3.317400 0.178900
3.365900 0.115500
3.414300 0.212800
3.462700 0.187900
3.511200 0.101400
3.559600 0.153400
3.608000 0.165900
3.656400 0.097500
3.704900 0.018300
3.753300 0.000800
3.801700 0.000400
3.850200 0.011700
3.898600 0.083900
3.947000 0.218600
3.995500 0.268700
4.043900 0.183000
4.092300 0.216700
4.140700 0.302800
4.189200 0.242600
4.237600 0.252700
4.286000 0.644100
4.334500 1.005700
4.382900 0.862700
4.431300 0.636100
4.479800 0.573000
4.528200 0.389600
4.576600 0.324300
4.625000 0.545800
4.673500 0.891300
4.721900 0.915000
4.770300 0.782700
4.818800 0.693300
4.867200 1.003500
4.915600 1.265600
4.964100 1.147000
5.012500 0.909700
5.060900 0.920000
5.109300 0.872800
5.157800 1.180100
5.206200 1.799900
5.254600 1.884500
5.303100 1.547400
5.351500 1.388800
5.399900 1.740600
5.448400 2.223500
5.496800 2.390900
5.545200 2.427600
5.593700 2.155400
5.642100 1.808400
5.690500 1.450100
5.738900 1.493900
5.787400 1.581600
5.835800 1.631000
5.884200 1.548500
5.932700 1.350700
5.981100 1.096800
6.029500 1.152800
6.078000 1.566400
6.126400 1.501700
6.174800 1.363600
6.223200 1.403600
6.271700 1.180400
6.320100 1.070700
6.368500 1.543300
6.417000 1.883500
6.465400 1.461500
6.513800 1.168300
6.562300 1.163200
6.610700 1.258000
6.659100 1.381400
6.707500 1.386500
6.756000 1.269200
6.804400 1.124000
6.852800 1.122600
6.901300 1.254600
6.949700 1.503900
6.998100 1.754800
7.046600 1.604200
7.095000 1.599300
7.143400 1.471200
7.191800 1.785200
7.240300 2.212600
7.288700 1.777400
7.337100 1.660800
7.385600 1.660200
7.434000 1.610700
7.482400 2.053900
7.530900 2.419100
7.579300 2.214300
7.627700 2.399900
7.676200 2.318700
7.724600 2.490500
7.773000 2.961600
7.821400 2.736700
7.869900 2.581400
7.918300 2.622700
7.966700 2.234800
8.015200 1.987600
8.063600 1.808400
8.112000 1.755000
8.160500 1.821900
8.208900 1.810200
8.257300 1.822300
8.305700 2.306300
8.354200 2.800400
8.402600 2.436500
8.451000 2.324400
8.499500 2.309500
8.547900 1.860400
8.596300 1.578200
8.644800 1.741800
8.693200 1.825500
8.741600 1.624900
8.790000 1.446000
8.838500 1.387900
8.886900 1.221700
8.935300 1.379200
8.983800 1.339800
9.032200 0.861400
9.080600 0.745500
9.129100 0.931400
9.177500 1.075200
9.225900 1.117300
9.274300 1.316500
9.322800 1.210200
9.371200 1.215000
9.419600 1.389000
9.468100 1.539600
9.516500 1.451800
9.564900 1.115100
9.613400 1.092500
9.661800 1.345300
9.710200 1.079600
9.758700 0.969800
9.807100 1.018300
9.855500 0.941200
9.903900 1.287200
9.952400 1.459800
10.000800 1.268600
10.049200 1.223600
10.097700 1.004400
10.146100 0.952500
10.194500 1.417500
10.243000 1.528800
10.291400 1.033900
10.339800 0.974300
10.388200 1.207400
10.436700 1.460000
10.485100 1.953100
10.533500 2.425100
10.582000 2.375400
10.630400 2.387200
10.678800 1.969400
10.727300 1.539100
10.775700 2.024300
10.824100 2.197100
10.872500 1.847400
10.921000 1.606000
10.969400 1.337700
11.017800 0.994200
11.066300 0.848200
11.114700 1.068700
11.163100 1.255400
11.211600 1.199100
11.260000 0.850000
11.308400 0.929200
11.356800 0.930300
11.405300 1.066900
11.453700 0.937900
11.502100 1.089500
11.550600 1.519100
11.599000 1.441100
11.647400 1.463900
11.695900 1.632100
11.744300 1.842400
11.792700 1.341100
11.841200 0.927700
11.889600 1.095500
11.938000 1.127600
11.986400 1.078100
12.034900 0.850900
12.083300 0.845600
12.131700 0.630900
