set title 'mp-981391 - Density of States'
set xlabel 'Energy (eV)'
set ylabel 'DOS (states/eV)'
set grid
set xrange [-10:10]
set yrange [0:27.875]
set xzeroaxis lt -1
set terminal png size 800,600
set output 'mp-981391_dos_gnuplot.png'
plot '-' using 1:2 with lines title 'DOS'
-7.197300 0.000000
-7.178000 0.000000
-7.158600 0.000000
-7.139300 0.000000
-7.120000 0.000000
-7.100700 0.000000
-7.081400 0.000000
-7.062100 0.000000
-7.042800 0.000000
-7.023400 0.000000
-7.004100 0.000000
-6.984800 0.000000
-6.965500 0.000000
-6.946200 0.000000
-6.926900 0.000000
-6.907600 0.000000
-6.888200 0.000000
-6.868900 0.000000
-6.849600 0.000000
-6.830300 0.000000
-6.811000 0.000000
-6.791700 0.000000
-6.772400 0.000000
-6.753000 0.000000
-6.733700 0.000000
-6.714400 0.000000
-6.695100 0.000000
-6.675800 0.000000
-6.656500 0.000000
-6.637200 0.000000
-6.617800 0.000000
-6.598500 0.000000
-6.579200 0.000000
-6.559900 0.000000
-6.540600 0.000000
-6.521300 0.000000
-6.502000 0.000000
-6.482600 0.000000
-6.463300 0.000000
-6.444000 0.000000
-6.424700 0.000000
-6.405400 0.000000
-6.386100 0.000000
-6.366800 0.000000
-6.347400 0.000000
-6.328100 0.000000
-6.308800 0.000000
-6.289500 0.000000
-6.270200 0.000000
-6.250900 0.000000
-6.231600 0.000000
-6.212200 0.000000
-6.192900 0.000000
-6.173600 0.000000
-6.154300 0.000000
-6.135000 0.000000
-6.115700 0.000000
-6.096400 0.000000
-6.077000 0.000000
-6.057700 0.000000
-6.038400 0.000000
-6.019100 0.000000
-5.999800 0.000000
-5.980500 0.000000
-5.961200 0.000000
-5.941800 0.000000
-5.922500 0.000000
-5.903200 0.000000
-5.883900 0.000000
-5.864600 0.000000
-5.845300 0.000000
-5.826000 0.000000
-5.806600 0.000000
-5.787300 0.000000
-5.768000 0.000000
-5.748700 0.000000
-5.729400 0.000000
-5.710100 0.000000
-5.690800 0.000000
-5.671400 0.000000
-5.652100 0.000000
-5.632800 0.000000
-5.613500 0.000000
-5.594200 0.000000
-5.574900 0.000000
-5.555600 0.000000
-5.536200 0.000000
-5.516900 0.000000
-5.497600 0.000000
-5.478300 0.000000
-5.459000 0.000000
-5.439700 0.000000
-5.420300 0.005700
-5.401000 0.021100
-5.381700 0.046100
-5.362400 0.077700
-5.343100 0.104000
-5.323800 0.132000
-5.304500 0.140300
-5.285100 0.148800
-5.265800 0.157700
-5.246500 0.167400
-5.227200 0.178400
-5.207900 0.190700
-5.188600 0.194500
-5.169300 0.206400
-5.149900 0.218900
-5.130600 0.231700
-5.111300 0.244900
-5.092000 0.258400
-5.072700 0.271000
-5.053400 0.280700
-5.034100 0.287600
-5.014700 0.292500
-4.995400 0.302300
-4.976100 0.311500
-4.956800 0.320500
-4.937500 0.330200
-4.918200 0.340000
-4.898900 0.349800
-4.879500 0.359700
-4.860200 0.369600
-4.840900 0.379900
-4.821600 0.390500
-4.802300 0.401400
-4.783000 0.412600
-4.763700 0.424800
-4.744300 0.438200
-4.725000 0.452400
-4.705700 0.467900
-4.686400 0.484800
-4.667100 0.503000
-4.647800 0.520900
-4.628500 0.539000
-4.609100 0.556800
-4.589800 0.574300
-4.570500 0.591800
-4.551200 0.609900
-4.531900 0.628700
-4.512600 0.648300
-4.493300 0.668500
-4.473900 0.689400
-4.454600 0.719600
-4.435300 0.748700
-4.416000 0.788500
-4.396700 0.843100
-4.377400 0.892200
-4.358100 0.955300
-4.338700 1.025400
-4.319400 1.092800
-4.300100 1.153600
-4.280800 1.213900
-4.261500 1.299200
-4.242200 1.462400
-4.222900 1.689800
-4.203500 1.937800
-4.184200 2.192400
-4.164900 2.510300
-4.145600 3.375200
-4.126300 5.424300
-4.107000 6.728400
-4.087700 5.958600
-4.068300 6.384900
-4.049000 7.495300
-4.029700 7.534400
-4.010400 7.783000
-3.991100 7.430700
-3.971800 6.890300
-3.952500 6.756300
-3.933100 6.790800
-3.913800 7.038100
-3.894500 7.710600
-3.875200 8.273100
-3.855900 9.461400
-3.836600 10.439400
-3.817300 12.032800
-3.797900 13.874300
-3.778600 13.842600
-3.759300 13.285300
-3.740000 12.739600
-3.720700 12.193700
-3.701400 12.026800
-3.682100 11.096400
-3.662700 11.473300
-3.643400 11.531500
-3.624100 12.157700
-3.604800 12.172700
-3.585500 11.425000
-3.566200 11.583400
-3.546900 12.301300
-3.527500 12.593600
-3.508200 12.933100
-3.488900 13.811200
-3.469600 15.184800
-3.450300 14.264400
-3.431000 13.257500
-3.411700 13.277200
-3.392300 11.291200
-3.373000 10.420700
-3.353700 10.244900
-3.334400 10.858100
-3.315100 10.539300
-3.295800 10.642400
-3.276500 10.570200
-3.257100 16.595200
-3.237800 15.268400
-3.218500 14.071200
-3.199200 20.229400
-3.179900 13.453600
-3.160600 11.248800
-3.141300 8.649000
-3.121900 9.086200
-3.102600 8.190000
-3.083300 8.611700
-3.064000 8.387800
-3.044700 7.380800
-3.025400 9.795200
-3.006000 14.176000
-2.986700 13.903600
-2.967400 12.954800
-2.948100 11.927600
-2.928800 9.953200
-2.909500 8.039900
-2.890200 9.372500
-2.870800 11.636000
-2.851500 13.155300
-2.832200 13.571800
-2.812900 12.165800
-2.793600 13.417100
-2.774300 16.453200
-2.755000 12.938900
-2.735600 12.063600
-2.716300 12.928200
-2.697000 15.860300
-2.677700 16.241400
-2.658400 19.919300
-2.639100 25.340900
-2.619800 17.859500
-2.600400 14.129500
-2.581100 12.093000
-2.561800 11.136900
-2.542500 10.209100
-2.523200 9.827600
-2.503900 10.687800
-2.484600 12.494700
-2.465200 16.013200
-2.445900 17.308700
-2.426600 16.282300
-2.407300 16.446800
-2.388000 15.737500
-2.368700 15.950100
-2.349400 15.906000
-2.330000 16.053600
-2.310700 15.227100
-2.291400 12.654000
-2.272100 9.807100
-2.252800 10.169800
-2.233500 12.583700
-2.214200 13.666000
-2.194800 14.259900
-2.175500 13.872400
-2.156200 10.972000
-2.136900 11.579000
-2.117600 11.080100
-2.098300 10.387300
-2.079000 10.344200
-2.059600 10.382200
-2.040300 10.733800
-2.021000 10.992200
-2.001700 10.868500
-1.982400 10.529500
-1.963100 10.572000
-1.943800 10.339200
-1.924400 10.322900
-1.905100 9.340900
-1.885800 8.870000
-1.866500 8.578200
-1.847200 8.581600
-1.827900 9.132100
-1.808600 9.434800
-1.789200 9.374900
-1.769900 9.071300
-1.750600 11.149900
-1.731300 16.916700
-1.712000 13.699900
-1.692700 9.854400
-1.673400 9.427700
-1.654000 7.290900
-1.634700 6.459700
-1.615400 5.379500
-1.596100 5.037500
-1.576800 4.787900
-1.557500 4.542800
-1.538200 5.314200
-1.518800 6.084100
-1.499500 5.772400
-1.480200 5.734300
-1.460900 4.871500
-1.441600 4.514600
-1.422300 3.754900
-1.403000 3.135400
-1.383600 2.824200
-1.364300 2.527400
-1.345000 2.280800
-1.325700 2.132100
-1.306400 1.994700
-1.287100 1.888200
-1.267800 1.834100
-1.248400 1.809000
-1.229100 1.790800
-1.209800 1.772300
-1.190500 1.741200
-1.171200 1.738700
-1.151900 1.725500
-1.132600 1.690600
-1.113200 1.540600
-1.093900 1.364500
-1.074600 1.189600
-1.055300 1.038000
-1.036000 0.914200
-1.016700 0.900300
-0.997400 0.873900
-0.978000 0.841000
-0.958700 0.801200
-0.939400 0.781300
-0.920100 0.777300
-0.900800 0.782600
-0.881500 0.853400
-0.862200 0.932700
-0.842800 1.011400
-0.823500 1.105400
-0.804200 1.197600
-0.784900 1.246600
-0.765600 1.278300
-0.746300 1.307600
-0.727000 1.355500
-0.707600 1.445800
-0.688300 1.490400
-0.669000 1.526000
-0.649700 1.561300
-0.630400 1.596000
-0.611100 1.630000
-0.591700 1.640600
-0.572400 1.644200
-0.553100 1.686900
-0.533800 1.642700
-0.514500 1.510900
-0.495200 1.412000
-0.475900 1.323400
-0.456500 1.252200
-0.437200 1.168400
-0.417900 1.046000
-0.398600 1.035100
-0.379300 1.033500
-0.360000 1.041400
-0.340700 1.061600
-0.321300 1.056900
-0.302000 1.033100
-0.282700 1.019800
-0.263400 1.002600
-0.244100 0.990900
-0.224800 0.982800
-0.205500 0.977700
-0.186100 0.972600
-0.166800 0.966900
-0.147500 0.960600
-0.128200 0.956100
-0.108900 0.969600
-0.089600 0.968300
-0.070300 0.965500
-0.050900 0.954600
-0.031600 0.952300
-0.012300 0.955200
0.007000 0.957600
0.026300 0.959400
0.045600 0.960800
0.064900 0.961100
0.084300 0.960000
0.103600 0.956300
0.122900 0.952300
0.142200 0.960300
0.161500 0.973600
0.180800 0.976500
0.200100 0.977100
0.219500 0.978100
0.238800 0.979500
0.258100 0.981200
0.277400 0.982900
0.296700 0.984500
0.316000 0.985700
0.335300 0.986300
0.354700 0.985600
0.374000 0.983300
0.393300 0.983200
0.412600 0.985300
0.431900 0.987200
0.451200 0.988300
0.470500 0.985600
0.489900 0.983100
0.509200 0.981800
0.528500 0.982100
0.547800 0.983400
0.567100 0.985500
0.586400 0.988100
0.605700 0.990900
0.625100 0.994100
0.644400 0.997600
0.663700 1.001400
0.683000 1.005800
0.702300 1.010700
0.721600 1.016000
0.740900 1.021800
0.760300 1.027900
0.779600 1.033600
0.798900 1.039600
0.818200 1.045800
0.837500 1.053100
0.856800 1.088600
0.876100 1.093500
0.895500 1.100400
0.914800 1.110300
0.934100 1.118700
0.953400 1.127200
0.972700 1.136000
0.992000 1.145000
1.011300 1.147200
1.030700 1.149200
1.050000 1.155500
1.069300 1.166000
1.088600 1.179700
1.107900 1.201000
1.127200 1.224300
1.146500 1.245500
1.165900 1.264800
1.185200 1.281300
1.204500 1.314600
1.223800 1.320400
1.243100 1.328500
1.262400 1.347600
1.281700 1.381900
1.301100 1.394300
1.320400 1.405000
1.339700 1.418800
1.359000 1.406200
1.378300 1.422300
1.397600 1.463900
1.416900 1.571400
1.436300 1.643600
1.455600 1.718900
1.474900 1.831500
1.494200 1.864900
1.513500 1.892300
1.532800 1.905800
1.552100 1.941900
1.571500 2.028400
1.590800 2.175300
1.610100 2.210100
1.629400 2.199600
1.648700 2.206000
1.668000 2.220900
1.687300 2.259200
1.706700 2.260800
1.726000 2.131500
1.745300 2.035000
1.764600 1.968900
1.783900 1.984900
1.803200 1.707100
1.822600 1.551600
1.841900 1.664700
1.861200 1.632900
1.880500 1.594800
1.899800 1.546700
1.919100 1.503700
1.938400 1.504200
1.957800 1.454500
1.977100 1.418100
1.996400 1.340200
2.015700 1.323500
2.035000 1.365800
2.054300 1.392400
2.073600 1.529500
2.093000 1.651400
2.112300 1.868700
2.131600 2.119100
2.150900 2.428400
2.170200 2.678700
2.189500 2.933600
2.208800 3.085000
2.228200 3.286800
2.247500 3.518600
2.266800 3.842800
2.286100 4.116900
2.305400 4.593700
2.324700 5.575600
2.344000 4.473800
2.363400 4.123300
2.382700 4.053100
2.402000 4.133600
2.421300 4.201000
2.440600 4.244100
2.459900 4.195700
2.479200 4.062300
2.498600 3.606400
2.517900 3.157400
2.537200 2.891000
2.556500 2.424700
2.575800 1.845500
2.595100 1.871000
2.614400 2.050600
2.633800 2.175500
2.653100 2.245500
2.672400 2.448100
2.691700 3.014600
2.711000 3.316100
2.730300 3.695200
2.749600 4.540200
2.769000 5.249500
2.788300 5.560200
2.807600 5.806900
2.826900 5.965900
2.846200 5.630700
2.865500 5.493300
2.884800 6.445800
2.904200 7.124300
2.923500 8.065800
2.942800 7.730100
2.962100 7.753800
2.981400 8.144200
3.000700 8.425000
3.020000 8.467900
3.039400 8.775800
3.058700 8.985400
3.078000 9.300800
3.097300 8.710900
3.116600 8.131000
3.135900 8.418900
3.155200 8.937700
3.174600 7.792900
3.193900 6.519000
3.213200 6.275200
3.232500 5.943900
3.251800 5.496100
3.271100 4.457500
3.290400 3.250100
3.309800 2.752300
3.329100 2.458700
3.348400 2.318800
3.367700 2.236800
3.387000 2.217600
3.406300 2.283500
3.425600 2.402600
3.445000 2.656800
3.464300 2.870300
3.483600 3.258500
3.502900 3.911300
3.522200 4.362600
3.541500 5.385200
3.560800 5.637100
3.580200 6.302600
3.599500 5.837700
3.618800 5.843600
3.638100 5.994600
3.657400 5.999500
3.676700 6.160800
3.696000 6.687700
3.715400 6.183600
3.734700 5.326600
3.754000 4.500400
3.773300 4.021000
3.792600 3.758700
3.811900 3.577700
3.831200 3.421200
3.850600 3.279600
3.869900 3.193500
3.889200 3.147600
3.908500 3.036100
3.927800 2.922200
3.947100 2.787600
3.966400 2.634600
3.985800 2.493700
4.005100 2.374700
4.024400 2.288300
4.043700 2.206500
4.063000 2.145100
4.082300 2.086000
4.101600 2.027900
4.121000 1.967700
4.140300 1.905700
4.159600 1.856100
4.178900 1.832600
4.198200 1.815300
4.217500 1.789000
4.236900 1.764000
4.256200 1.740800
4.275500 1.713900
4.294800 1.695200
4.314100 1.678500
4.333400 1.661200
4.352700 1.642700
4.372100 1.628700
4.391400 1.614100
4.410700 1.598700
4.430000 1.549700
4.449300 1.502200
4.468600 1.448100
4.487900 1.388000
4.507300 1.356600
4.526600 1.333000
4.545900 1.328700
4.565200 1.312700
4.584500 1.155400
4.603800 1.054700
4.623100 1.011600
4.642500 0.987300
4.661800 0.984900
4.681100 0.991500
4.700400 1.004300
4.719700 1.023000
4.739000 1.018700
4.758300 1.372900
4.777700 1.031400
4.797000 1.031300
4.816300 1.034000
4.835600 1.044300
4.854900 1.079200
4.874200 1.092500
4.893500 1.165400
4.912900 1.164700
4.932200 1.103200
4.951500 1.128400
4.970800 1.158300
4.990100 1.183100
5.009400 1.211700
5.028700 1.251800
5.048100 1.225600
5.067400 1.206300
5.086700 1.201300
5.106000 1.186900
5.125300 1.160800
5.144600 1.164600
5.163900 1.168800
5.183300 1.169500
5.202600 1.157800
5.221900 1.145100
5.241200 1.133900
5.260500 1.131000
5.279800 1.128200
5.299100 1.126900
5.318500 1.125900
5.337800 1.125200
5.357100 1.122400
5.376400 1.122900
5.395700 1.123800
5.415000 1.151200
5.434300 1.148000
5.453700 1.145100
5.473000 1.143800
5.492300 1.144100
5.511600 1.146700
5.530900 1.152300
5.550200 1.159800
5.569500 1.171900
5.588900 1.189200
5.608200 1.217300
5.627500 1.286700
5.646800 1.365800
5.666100 1.550900
5.685400 1.787700
5.704700 2.041100
5.724100 2.301900
5.743400 2.467200
5.762700 2.599400
5.782000 2.703200
5.801300 2.849400
5.820600 3.036300
5.839900 3.245300
5.859300 3.211600
5.878600 3.339800
5.897900 3.181700
5.917200 3.047200
5.936500 2.944900
5.955800 2.836300
5.975100 2.664700
5.994500 2.561200
6.013800 2.489000
6.033100 2.457000
6.052400 2.457100
6.071700 2.513000
6.091000 2.331200
6.110300 2.171600
6.129700 2.015000
6.149000 1.802600
6.168300 1.677800
6.187600 1.606000
6.206900 1.537700
6.226200 1.422900
6.245500 1.332900
6.264900 1.259900
6.284200 1.202600
6.303500 1.157100
6.322800 1.107900
6.342100 1.077600
6.361400 1.164100
6.380700 1.209000
6.400100 1.167500
6.419400 1.141000
6.438700 1.119200
6.458000 1.159500
6.477300 1.158500
6.496600 1.161400
6.516000 1.168400
6.535300 1.177900
6.554600 1.191100
6.573900 1.210200
6.593200 1.235800
6.612500 1.269700
6.631800 1.202800
6.651200 1.216900
6.670500 1.229000
6.689800 1.237700
6.709100 1.247200
6.728400 1.257800
6.747700 1.270100
6.767000 1.283700
6.786400 1.298500
6.805700 1.295800
6.825000 1.292900
6.844300 1.301600
6.863600 1.258100
6.882900 1.215600
6.902200 1.174500
6.921600 1.154100
6.940900 1.135400
6.960200 1.133400
6.979500 1.134000
6.998800 1.136600
7.018100 1.140600
7.037400 1.146800
7.056800 1.156100
7.076100 1.168000
7.095400 1.182700
7.114700 1.200200
7.134000 1.216400
7.153300 1.228800
7.172600 1.251400
7.192000 1.276200
7.211300 1.304400
7.230600 1.334400
7.249900 1.365500
7.269200 1.398900
7.288500 1.434600
7.307800 1.472400
7.327200 1.512500
7.346500 1.557100
7.365800 1.632200
7.385100 1.689100
7.404400 1.736600
7.423700 1.790700
7.443000 1.835100
7.462400 1.882500
7.481700 1.943800
7.501000 1.879000
7.520300 1.863200
7.539600 1.870000
7.558900 1.871400
7.578200 1.862800
7.597600 1.855700
7.616900 1.846100
7.636200 1.820800
7.655500 1.804800
7.674800 1.787000
7.694100 1.770100
7.713400 1.755500
7.732800 1.742400
7.752100 1.730300
7.771400 1.719200
7.790700 1.706400
7.810000 1.693400
7.829300 1.680500
7.848600 1.667900
7.868000 1.655800
7.887300 1.657600
7.906600 1.668000
7.925900 1.674400
7.945200 1.682500
7.964500 1.691800
7.983800 1.701200
8.003200 1.709800
8.022500 1.717600
8.041800 1.754800
8.061100 1.729200
8.080400 1.705200
8.099700 1.683400
8.119000 1.665700
8.138400 1.651300
8.157700 1.664200
8.177000 1.649600
8.196300 1.635500
8.215600 1.622100
8.234900 1.609200
8.254200 1.626200
8.273600 1.612700
8.292900 1.581700
8.312200 1.568500
8.331500 1.551000
8.350800 1.527800
8.370100 1.499700
8.389400 1.474400
8.408800 1.464900
8.428100 1.454800
8.447400 1.443800
8.466700 1.432000
8.486000 1.413900
8.505300 1.381700
8.524600 1.344100
8.544000 1.328000
8.563300 1.316000
8.582600 1.305500
8.601900 1.294600
8.621200 1.283900
8.640500 1.273500
8.659800 1.263200
8.679200 1.254000
8.698500 1.245700
8.717800 1.238100
8.737100 1.230900
8.756400 1.224300
8.775700 1.218200
8.795000 1.214300
8.814400 1.447900
8.833700 1.226800
8.853000 1.219500
8.872300 1.220500
8.891600 1.234600
8.910900 1.246000
8.930300 1.258400
8.949600 1.317100
8.968900 1.286000
8.988200 1.281300
9.007500 1.285300
9.026800 1.292200
9.046100 1.301100
9.065500 1.306900
9.084800 1.310000
9.104100 1.314400
9.123400 1.315800
9.142700 1.328800
9.162000 1.343200
9.181300 1.350900
9.200700 1.363000
9.220000 1.375600
9.239300 1.357800
9.258600 1.350600
9.277900 1.350500
9.297200 1.351800
9.316500 1.351400
9.335900 1.368300
9.355200 1.389800
9.374500 1.315300
9.393800 1.321700
9.413100 1.327200
9.432400 1.331100
9.451700 1.333600
9.471100 1.334700
9.490400 1.335000
9.509700 1.334900
9.529000 1.335100
9.548300 1.337200
9.567600 1.339800
9.586900 1.342500
9.606300 1.345100
9.625600 1.348900
9.644900 1.352500
9.664200 1.361200
9.683500 1.378100
9.702800 1.373100
9.722100 1.358600
9.741500 1.348400
9.760800 1.341000
9.780100 1.335900
9.799400 1.329500
9.818700 1.322600
9.838000 1.321100
9.857300 1.324100
9.876700 1.330700
9.896000 1.339300
9.915300 1.351000
9.934600 1.365400
9.953900 1.382000
9.973200 1.400400
9.992500 1.420400
10.011900 1.445400
10.031200 1.458800
10.050500 1.470600
10.069800 1.481400
10.089100 1.491200
10.108400 1.499800
10.127700 1.507900
10.147100 1.516800
10.166400 1.526300
10.185700 1.534900
10.205000 1.543700
10.224300 1.552100
10.243600 1.559900
10.262900 1.565600
10.282300 1.568600
10.301600 1.569300
10.320900 1.568700
10.340200 1.567600
10.359500 1.551600
10.378800 1.546300
10.398100 1.542800
10.417500 1.539300
10.436800 1.535800
10.456100 1.532600
10.475400 1.529700
10.494700 1.528200
10.514000 1.526900
10.533300 1.526000
10.552700 1.525900
10.572000 1.528400
10.591300 1.534100
10.610600 1.541000
10.629900 1.549700
10.649200 1.560300
10.668500 1.572700
10.687900 1.586100
10.707200 1.628500
10.726500 1.651000
10.745800 1.667200
10.765100 1.676600
10.784400 1.625200
10.803700 1.586900
10.823100 1.579400
10.842400 1.567500
10.861700 1.552700
10.881000 1.536000
10.900300 1.518100
10.919600 1.498400
10.938900 1.480700
10.958300 1.465300
10.977600 1.450400
10.996900 1.430100
11.016200 1.412100
11.035500 1.394100
11.054800 1.370600
11.074100 1.356100
11.093500 1.346200
11.112800 1.339900
11.132100 1.334300
11.151400 1.329300
11.170700 1.328000
11.190000 1.327400
11.209300 1.327100
11.228700 1.327200
11.248000 1.327700
11.267300 1.328400
11.286600 1.329000
11.305900 1.348900
11.325200 1.450900
11.344600 1.366000
11.363900 1.378000
11.383200 1.389100
11.402500 1.399900
11.421800 1.410400
11.441100 1.421000
11.460400 1.550000
11.479800 1.591900
11.499100 1.560100
11.518400 1.550000
11.537700 1.535000
11.557000 1.549600
11.576300 1.592000
11.595600 1.586500
11.615000 1.603300
11.634300 1.621200
11.653600 1.640900
11.672900 1.660300
11.692200 1.680900
11.711500 1.693300
11.730800 1.693100
11.750200 1.687900
11.769500 1.685800
11.788800 1.687800
11.808100 1.701100
11.827400 1.699300
11.846700 1.684300
11.866000 1.669200
11.885400 1.667800
11.904700 1.695100
11.924000 1.717400
11.943300 1.745800
11.962600 1.785600
11.981900 1.814700
12.001200 1.835400
12.020600 2.104300
12.039900 2.236100
12.059200 2.344000
12.078500 2.263400
12.097800 2.175400
12.117100 2.129500
12.136400 2.065000
12.155800 1.963500
12.175100 1.855300
12.194400 1.789000
12.213700 1.782400
12.233000 1.791800
12.252300 1.835300
12.271600 1.946200
12.291000 1.867100
12.310300 1.877000
12.329600 1.881200
12.348900 1.916100
12.368200 1.986300
12.387500 2.068700
12.406800 2.088700
12.426200 2.144500
12.445500 2.262000
12.464800 2.390400
12.484100 2.454200
12.503400 2.459800
12.522700 2.427000
12.542000 2.337500
12.561400 2.234000
12.580700 2.151900
12.600000 2.088900
12.619300 2.056300
12.638600 2.042900
12.657900 2.033900
12.677200 2.024500
12.696600 2.022500
12.715900 2.030000
12.735200 2.033500
12.754500 2.026800
12.773800 2.012700
12.793100 1.993800
12.812400 1.970000
12.831800 1.939100
12.851100 1.909400
12.870400 1.874400
12.889700 1.864100
12.909000 1.860000
12.928300 1.935600
12.947600 1.990700
12.967000 1.922900
12.986300 1.920900
13.005600 1.960300
13.024900 1.986900
13.044200 1.999200
13.063500 2.008700
13.082800 2.035500
13.102200 2.000100
13.121500 1.977900
13.140800 1.998000
13.160100 2.032500
13.179400 2.090000
13.198700 2.167500
13.218000 2.230100
13.237400 2.284000
13.256700 2.323600
