set title 'mp-1120747 - Density of States'
set xlabel 'Energy (eV)'
set ylabel 'DOS (states/eV)'
set grid
set xrange [-10:10]
set yrange [0:3.954]
set xzeroaxis lt -1
set terminal png size 800,600
set output 'mp-1120747_dos_gnuplot.png'
plot '-' using 1:2 with lines title 'DOS'
-7.243200 0.000000
-7.224200 0.000000
-7.205300 0.000000
-7.186300 0.000000
-7.167400 0.000000
-7.148400 0.000000
-7.129500 0.000000
-7.110500 0.000000
-7.091500 0.000000
-7.072600 0.000000
-7.053600 0.000000
-7.034700 0.000000
-7.015700 0.000000
-6.996800 0.000000
-6.977800 0.000000
-6.958900 0.000000
-6.939900 0.000000
-6.920900 0.000000
-6.902000 0.000000
-6.883000 0.000000
-6.864100 0.000000
-6.845100 0.000000
-6.826200 0.000000
-6.807200 0.000000
-6.788300 0.000000
-6.769300 0.000000
-6.750300 0.000000
-6.731400 0.000000
-6.712400 0.000000
-6.693500 0.000000
-6.674500 0.000000
-6.655600 0.000000
-6.636600 0.000000
-6.617700 0.000000
-6.598700 0.000000
-6.579700 0.000000
-6.560800 0.000000
-6.541800 0.000000
-6.522900 0.000000
-6.503900 0.000000
-6.485000 0.000000
-6.466000 0.000000
-6.447000 0.000000
-6.428100 0.000000
-6.409100 0.000000
-6.390200 0.000000
-6.371200 0.000000
-6.352300 0.000000
-6.333300 0.000000
-6.314400 0.000000
-6.295400 0.000000
-6.276400 0.000000
-6.257500 0.000000
-6.238500 0.000000
-6.219600 0.000000
-6.200600 0.000000
-6.181700 0.000000
-6.162700 0.000000
-6.143800 0.000000
-6.124800 0.000000
-6.105800 0.000000
-6.086900 0.000000
-6.067900 0.000000
-6.049000 0.000000
-6.030000 0.000000
-6.011100 0.000000
-5.992100 0.000000
-5.973200 0.000000
-5.954200 0.000000
-5.935200 0.000000
-5.916300 0.000000
-5.897300 0.000000
-5.878400 0.000000
-5.859400 0.000000
-5.840500 0.000000
-5.821500 0.000000
-5.802600 0.000000
-5.783600 0.000000
-5.764600 0.000000
-5.745700 0.000000
-5.726700 0.000000
-5.707800 0.000000
-5.688800 0.000000
-5.669900 0.000000
-5.650900 0.000000
-5.632000 0.000000
-5.613000 0.000000
-5.594000 0.000000
-5.575100 0.000000
-5.556100 0.000000
-5.537200 0.000000
-5.518200 0.000100
-5.499300 0.019700
-5.480300 0.072300
-5.461400 0.158100
-5.442400 0.216700
-5.423400 0.244500
-5.404500 0.253200
-5.385500 0.268900
-5.366600 0.297800
-5.347600 0.327800
-5.328700 0.358500
-5.309700 0.386200
-5.290700 0.408900
-5.271800 0.426300
-5.252800 0.439300
-5.233900 0.451000
-5.214900 0.463000
-5.196000 0.481200
-5.177000 0.499400
-5.158100 0.517700
-5.139100 0.536000
-5.120100 0.554300
-5.101200 0.572600
-5.082200 0.588500
-5.063300 0.603100
-5.044300 0.617700
-5.025400 0.633700
-5.006400 0.651000
-4.987500 0.668200
-4.968500 0.684900
-4.949500 0.700400
-4.930600 0.714700
-4.911600 0.729300
-4.892700 0.745300
-4.873700 0.761300
-4.854800 0.777400
-4.835800 0.794100
-4.816900 0.810900
-4.797900 0.828500
-4.778900 0.847200
-4.760000 0.867400
-4.741000 0.889300
-4.722100 0.912300
-4.703100 0.936300
-4.684200 0.960900
-4.665200 0.986100
-4.646300 1.012000
-4.627300 1.040100
-4.608300 1.071000
-4.589400 1.104900
-4.570400 1.140800
-4.551500 1.177500
-4.532500 1.214600
-4.513600 1.252300
-4.494600 1.317100
-4.475700 1.563700
-4.456700 1.664400
-4.437700 1.684200
-4.418800 1.586700
-4.399800 1.513800
-4.380900 1.494900
-4.361900 1.470400
-4.343000 1.447200
-4.324000 1.458100
-4.305100 1.556500
-4.286100 1.479500
-4.267100 1.387100
-4.248200 1.270900
-4.229200 1.160900
-4.210300 1.132200
-4.191300 1.105800
-4.172400 1.081200
-4.153400 1.058400
-4.134500 1.037400
-4.115500 1.018300
-4.096500 0.998900
-4.077600 0.975500
-4.058600 0.946600
-4.039700 0.937900
-4.020700 0.979900
-4.001800 1.017800
-3.982800 1.051600
-3.963800 0.963900
-3.944900 0.946200
-3.925900 0.922300
-3.907000 0.908400
-3.888000 0.895000
-3.869100 0.882000
-3.850100 0.866900
-3.831200 0.845800
-3.812200 0.825800
-3.793200 0.806400
-3.774300 0.791500
-3.755300 0.774900
-3.736400 0.766000
-3.717400 0.756800
-3.698500 0.747400
-3.679500 0.737800
-3.660600 0.727800
-3.641600 0.717600
-3.622600 0.707200
-3.603700 0.689300
-3.584700 0.677500
-3.565800 0.665600
-3.546800 0.653000
-3.527900 0.637300
-3.508900 0.620000
-3.490000 0.608500
-3.471000 0.597200
-3.452000 0.586300
-3.433100 0.575700
-3.414100 0.565400
-3.395200 0.563700
-3.376200 0.610200
-3.357300 0.658500
-3.338300 0.708000
-3.319400 0.627200
-3.300400 0.629200
-3.281400 0.632700
-3.262500 0.636200
-3.243500 0.639700
-3.224600 0.643200
-3.205600 0.641300
-3.186700 0.634500
-3.167700 0.628300
-3.148800 0.626500
-3.129800 0.628400
-3.110800 0.630000
-3.091900 0.631100
-3.072900 0.631800
-3.054000 0.632100
-3.035000 0.632000
-3.016100 0.675800
-2.997100 1.085600
-2.978200 0.587500
-2.959200 0.558600
-2.940200 0.531100
-2.921300 0.505100
-2.902300 0.480600
-2.883400 0.457600
-2.864400 0.436700
-2.845500 0.453500
-2.826500 0.483600
-2.807500 0.511500
-2.788600 0.316700
-2.769600 0.325500
-2.750700 0.339800
-2.731700 0.369800
-2.712800 0.415800
-2.693800 0.472100
-2.674900 0.534100
-2.655900 0.603200
-2.636900 0.678700
-2.618000 0.793000
-2.599000 0.886200
-2.580100 0.948900
-2.561100 0.966100
-2.542200 0.993200
-2.523200 1.037700
-2.504300 1.095700
-2.485300 1.156500
-2.466300 1.217500
-2.447400 1.279200
-2.428400 1.342800
-2.409500 1.404100
-2.390500 1.511900
-2.371600 1.562300
-2.352600 1.613300
-2.333700 1.745200
-2.314700 1.868800
-2.295700 1.818200
-2.276800 1.697600
-2.257800 1.616000
-2.238900 1.615500
-2.219900 1.622400
-2.201000 1.650100
-2.182000 1.678600
-2.163100 1.709400
-2.144100 1.586000
-2.125100 1.587800
-2.106200 1.594900
-2.087200 1.625000
-2.068300 1.657900
-2.049300 1.693700
-2.030400 1.727000
-2.011400 1.753900
-1.992500 1.765000
-1.973500 1.760100
-1.954500 1.694200
-1.935600 1.634200
-1.916600 1.580000
-1.897700 1.559900
-1.878700 1.538600
-1.859800 1.530000
-1.840800 1.476600
-1.821900 1.413200
-1.802900 1.352000
-1.783900 1.293700
-1.765000 1.227900
-1.746000 1.172200
-1.727100 1.115100
-1.708100 1.067200
-1.689200 1.028200
-1.670200 0.996800
-1.651300 0.970300
-1.632300 0.948700
-1.613300 0.932700
-1.594400 0.922400
-1.575400 0.906100
-1.556500 0.956300
-1.537500 0.997200
-1.518600 1.020200
-1.499600 1.023600
-1.480600 1.023000
-1.461700 1.019400
-1.442700 1.052600
-1.423800 1.095100
-1.404800 1.146900
-1.385900 1.229100
-1.366900 1.445200
-1.348000 2.081400
-1.329000 2.115700
-1.310000 2.177700
-1.291100 2.472200
-1.272100 2.579700
-1.253200 1.935300
-1.234200 1.942300
-1.215300 1.905900
-1.196300 1.859200
-1.177400 1.883400
-1.158400 1.867500
-1.139400 1.852000
-1.120500 1.860500
-1.101500 1.814200
-1.082600 1.772400
-1.063600 1.708900
-1.044700 1.685900
-1.025700 1.664100
-1.006800 1.654200
-0.987800 1.669700
-0.968800 1.694500
-0.949900 1.722800
-0.930900 1.747400
-0.912000 1.766900
-0.893000 1.781300
-0.874100 1.815800
-0.855100 1.911700
-0.836200 2.010300
-0.817200 1.888800
-0.798200 1.892100
-0.779300 1.819200
-0.760300 1.774600
-0.741400 1.746900
-0.722400 1.733700
-0.703500 1.722700
-0.684500 1.716800
-0.665600 1.719700
-0.646600 1.720800
-0.627600 1.717000
-0.608700 1.708100
-0.589700 1.698500
-0.570800 1.667600
-0.551800 1.681000
-0.532900 1.693900
-0.513900 1.708600
-0.495000 1.725100
-0.476000 1.739100
-0.457000 1.715400
-0.438100 1.717700
-0.419100 1.716700
-0.400200 1.704100
-0.381200 1.679800
-0.362300 1.642600
-0.343300 1.595700
-0.324300 1.585200
-0.305400 1.578200
-0.286400 1.561700
-0.267500 1.546000
-0.248500 1.530400
-0.229600 1.514800
-0.210600 1.499700
-0.191700 1.486700
-0.172700 1.474400
-0.153700 1.462700
-0.134800 1.451700
-0.115800 1.441400
-0.096900 1.431600
-0.077900 1.422500
-0.059000 1.414000
-0.040000 1.405200
-0.021100 1.390100
-0.002100 1.361800
0.016900 1.342300
0.035800 1.319700
0.054800 1.348900
0.073700 1.328300
0.092700 1.314200
0.111600 1.304600
0.130600 1.298500
0.149500 1.294800
0.168500 1.296200
0.187500 1.304900
0.206400 1.311300
0.225400 1.315800
0.244300 1.360900
0.263300 1.453800
0.282200 1.590400
0.301200 1.633600
0.320100 1.636600
0.339100 1.596100
0.358100 1.519500
0.377000 1.432500
0.396000 1.396900
0.414900 1.383600
0.433900 1.378100
0.452800 1.376200
0.471800 1.375500
0.490700 1.376500
0.509700 1.379000
0.528700 1.383700
0.547600 1.390800
0.566600 1.407500
0.585500 1.430100
0.604500 1.457000
0.623400 1.488300
0.642400 1.647200
0.661300 1.706200
0.680300 1.769100
0.699300 1.819600
0.718200 1.789400
0.737200 1.735500
0.756100 1.761500
0.775100 1.797100
0.794000 1.889300
0.813000 1.950400
0.831900 2.041500
0.850900 2.208600
0.869900 2.334600
0.888800 2.387000
0.907800 2.376800
0.926700 2.302600
0.945700 2.216100
0.964600 2.168300
0.983600 2.101400
1.002600 2.094500
1.021500 2.085300
1.040500 2.075400
1.059400 2.064000
1.078400 2.047000
1.097300 2.022100
1.116300 1.999500
1.135200 1.980000
1.154200 1.967700
1.173200 1.941000
1.192100 1.922100
1.211100 1.904400
1.230000 1.889900
1.249000 1.878300
1.267900 1.869200
1.286900 1.860600
1.305800 1.848800
1.324800 1.837400
1.343800 1.826900
1.362700 1.817500
1.381700 1.809400
1.400600 1.803100
1.419600 1.798700
1.438500 1.796000
1.457500 1.783700
1.476400 1.760400
1.495400 1.750000
1.514400 1.740700
1.533300 1.735900
1.552300 1.719900
1.571200 1.704900
1.590200 1.693500
1.609100 1.684200
1.628100 1.681400
1.647000 1.678900
1.666000 1.676500
1.685000 1.675900
1.703900 1.686700
1.722900 1.690900
1.741800 1.695900
1.760800 1.703400
1.779700 1.731400
1.798700 1.740900
1.817600 1.750600
1.836600 1.759400
1.855600 1.767400
1.874500 1.775500
1.893500 1.783700
1.912400 1.791300
1.931400 1.804700
1.950300 1.829300
1.969300 1.856400
1.988200 1.888400
2.007200 1.923600
2.026200 1.962700
2.045100 1.994500
2.064100 2.018500
2.083000 2.031500
2.102000 2.023000
2.120900 2.018400
2.139900 2.012000
2.158800 2.013500
2.177800 2.015900
2.196800 2.016000
2.215700 2.016300
2.234700 1.714100
2.253600 1.550000
2.272600 1.409300
2.291500 1.363500
2.310500 1.353900
2.329500 1.325400
2.348400 1.300900
2.367400 1.279900
2.386300 1.263600
2.405300 1.251200
2.424200 1.243500
2.443200 1.242300
2.462100 1.225100
2.481100 1.189500
2.500100 1.177400
2.519000 1.177800
2.538000 1.178500
2.556900 1.180000
2.575900 1.180600
2.594800 1.188000
2.613800 1.200000
2.632700 1.214100
2.651700 1.234000
2.670700 1.257200
2.689600 1.285700
2.708600 1.328700
2.727500 1.355600
2.746500 1.396100
2.765400 1.443900
2.784400 1.493000
2.803300 1.541200
2.822300 1.588500
2.841300 1.635300
2.860200 1.685500
2.879200 1.761100
2.898100 2.024100
2.917100 1.863400
2.936000 1.699200
2.955000 1.760400
2.973900 1.821600
2.992900 1.891700
3.011900 1.917200
3.030800 2.039400
3.049800 2.193300
3.068700 2.300600
3.087700 2.349700
3.106600 2.393900
3.125600 2.427100
3.144500 2.425900
3.163500 2.386600
3.182500 2.301400
3.201400 2.292600
3.220400 2.284600
3.239300 2.280400
3.258300 2.240800
3.277200 2.238700
3.296200 2.237300
3.315100 2.241700
3.334100 2.250900
3.353100 2.267700
3.372000 2.279700
3.391000 2.285400
3.409900 2.281700
3.428900 2.288400
3.447800 2.303400
3.466800 2.322600
3.485800 2.372700
3.504700 2.412800
3.523700 2.442000
3.542600 2.505600
3.561600 2.583700
3.580500 2.660000
3.599500 2.796900
3.618400 2.715600
3.637400 2.554700
3.656400 2.332600
3.675300 2.340800
3.694300 2.348300
3.713200 2.355300
3.732200 2.361200
3.751100 2.367800
3.770100 2.393100
3.789000 2.441400
3.808000 2.506900
3.827000 2.594800
3.845900 2.689400
3.864900 2.782000
3.883800 2.865800
3.902800 2.969300
3.921700 3.093000
3.940700 3.212700
3.959600 3.379700
3.978600 3.435100
3.997600 3.494700
4.016500 3.538100
4.035500 3.594800
4.054400 3.474900
4.073400 3.198500
4.092300 3.076800
4.111300 2.995100
4.130200 2.885500
4.149200 2.742000
4.168200 2.561500
4.187100 2.353300
4.206100 2.233900
4.225000 2.126600
4.244000 1.982100
4.262900 1.878200
4.281900 1.812700
4.300800 1.820300
4.319800 1.830600
4.338800 1.658300
4.357700 1.636700
4.376700 1.627800
4.395600 1.625400
4.414600 1.636200
4.433500 1.650200
4.452500 1.663000
4.471400 1.677000
4.490400 1.695200
4.509400 1.722700
4.528300 1.772200
4.547300 1.839900
4.566200 1.923200
4.585200 2.032200
4.604100 2.157200
4.623100 2.339200
4.642000 2.430500
4.661000 2.457000
4.680000 2.529700
4.698900 2.598700
4.717900 2.683700
4.736800 2.774400
4.755800 2.975600
4.774700 3.192400
4.793700 3.234000
4.812700 3.225800
4.831600 3.201600
4.850600 3.173100
4.869500 3.213200
4.888500 2.851900
4.907400 2.537800
4.926400 2.480000
4.945300 2.463000
4.964300 2.455800
4.983300 2.440400
5.002200 2.425800
5.021200 2.380500
5.040100 2.354700
5.059100 2.331500
5.078000 2.288600
5.097000 2.232200
5.115900 2.134200
5.134900 2.101700
5.153900 2.063200
5.172800 2.020300
5.191800 1.917600
5.210700 1.963900
5.229700 2.002000
5.248600 2.029700
5.267600 2.036200
5.286500 2.123700
5.305500 2.110900
5.324500 2.082100
5.343400 2.056900
5.362400 2.030800
5.381300 1.992700
5.400300 1.970500
5.419200 1.966000
5.438200 1.947300
5.457100 1.952900
5.476100 1.962800
5.495100 1.964200
5.514000 1.959900
5.533000 1.950800
5.551900 1.936200
5.570900 1.918100
5.589800 1.905500
5.608800 1.898400
5.627700 2.162400
5.646700 2.069400
5.665700 2.181900
5.684600 2.105100
5.703600 2.241700
5.722500 2.100700
5.741500 2.019800
5.760400 1.917500
5.779400 1.856100
5.798300 1.810600
5.817300 1.781500
5.836300 1.767600
5.855200 1.787800
5.874200 1.847400
5.893100 1.918200
5.912100 2.020300
5.931000 2.135400
5.950000 2.267400
5.969000 2.420600
5.987900 2.583800
6.006900 2.738100
6.025800 2.860000
6.044800 2.961800
6.063700 3.047300
6.082700 3.070400
6.101600 3.061000
6.120600 3.085000
6.139600 3.110600
6.158500 3.292800
6.177500 3.121600
6.196400 3.045200
6.215400 2.959600
6.234300 2.893600
6.253300 2.844800
6.272200 2.807600
6.291200 2.787500
6.310200 2.790600
6.329100 2.813800
6.348100 2.828900
6.367000 2.790600
6.386000 2.795800
6.404900 2.777300
6.423900 2.746000
6.442800 2.730100
6.461800 2.733300
6.480800 2.733500
6.499700 2.714600
6.518700 2.680700
6.537600 2.702100
6.556600 2.679900
6.575500 2.655900
6.594500 2.630500
6.613400 2.603900
6.632400 2.576900
6.651400 2.556800
6.670300 2.542200
6.689300 2.542200
6.708200 2.569500
6.727200 2.549600
6.746100 2.508400
6.765100 2.411300
6.784000 2.359800
6.803000 2.319200
6.822000 2.285200
6.840900 2.254000
6.859900 2.228400
6.878800 2.208400
6.897800 2.184900
6.916700 2.161400
6.935700 2.149600
6.954600 2.144900
6.973600 2.142300
6.992600 2.564600
7.011500 2.597600
7.030500 2.384500
7.049400 2.332700
7.068400 2.281000
7.087300 2.238600
7.106300 2.205700
7.125200 2.194600
7.144200 2.165000
7.163200 2.147700
7.182100 2.152900
7.201100 2.168600
7.220000 2.174800
7.239000 2.162500
7.257900 2.206500
7.276900 2.239400
7.295900 2.324300
7.314800 2.432100
7.333800 2.539300
7.352700 2.616700
7.371700 2.678500
7.390600 2.732400
7.409600 2.786500
7.428500 2.867900
7.447500 2.947900
7.466500 2.993600
7.485400 3.021900
7.504400 3.054000
7.523300 3.048900
7.542300 3.008200
7.561200 2.950600
7.580200 2.894800
7.599100 2.811300
7.618100 2.726300
7.637100 2.621300
7.656000 2.525900
7.675000 2.455700
7.693900 2.401200
7.712900 2.354400
7.731800 2.329300
7.750800 2.315400
7.769700 2.303800
7.788700 2.286500
7.807700 2.249000
7.826600 2.314400
7.845600 2.310500
7.864500 2.310700
7.883500 2.305200
7.902400 2.354100
7.921400 2.355700
7.940300 2.361700
7.959300 2.370900
7.978300 2.300400
7.997200 2.329800
8.016200 2.364000
8.035100 2.404300
8.054100 2.444600
8.073000 2.491500
8.092000 2.526400
8.110900 2.546900
8.129900 2.611100
8.148900 2.602800
8.167800 2.620800
8.186800 2.578000
8.205700 2.571900
8.224700 2.587500
8.243600 2.614600
8.262600 2.637000
8.281500 2.767800
8.300500 2.833300
8.319500 2.797400
8.338400 2.711400
8.357400 2.721400
8.376300 2.727200
8.395300 2.689100
8.414200 2.646000
8.433200 2.586300
8.452100 2.536900
8.471100 2.490600
8.490100 2.449000
8.509000 2.423700
8.528000 2.410500
8.546900 2.407200
8.565900 2.353100
8.584800 2.360700
8.603800 2.379000
8.622800 2.413300
8.641700 2.442800
8.660700 2.479400
8.679600 2.563900
8.698600 2.729700
8.717500 2.853700
8.736500 2.821800
8.755400 2.771800
8.774400 2.694900
8.793400 2.582100
8.812300 2.452100
8.831300 2.298300
8.850200 2.171500
8.869200 2.042600
8.888100 1.939500
8.907100 1.924500
8.926000 1.979200
8.945000 1.988300
8.964000 2.005400
8.982900 2.089700
9.001900 2.203700
9.020800 2.237900
9.039800 2.248200
9.058700 2.257900
9.077700 2.266700
9.096600 2.274600
9.115600 2.277200
9.134600 2.238800
9.153500 2.208500
9.172500 2.171200
9.191400 2.169700
9.210400 2.250000
9.229300 2.260300
9.248300 2.178100
9.267200 2.089300
9.286200 2.020900
9.305200 2.001500
9.324100 2.002500
9.343100 1.980600
9.362000 1.999000
9.381000 2.031300
9.399900 2.081700
9.418900 2.214200
9.437800 2.273300
9.456800 2.332500
9.475800 2.567100
9.494700 2.412500
9.513700 2.430000
9.532600 2.503800
9.551600 2.563200
9.570500 2.633400
9.589500 2.739500
9.608400 2.876700
9.627400 3.021700
9.646400 3.082900
9.665300 3.152000
9.684300 3.241900
9.703200 3.273600
9.722200 3.349000
9.741100 3.423100
9.760100 3.491400
9.779100 3.563700
9.798000 3.543600
9.817000 3.530700
9.835900 3.539200
9.854900 3.412600
9.873800 3.131800
9.892800 3.075200
9.911700 3.026200
9.930700 2.986500
9.949700 2.945900
9.968600 2.914000
9.987600 2.898400
10.006500 2.896500
10.025500 3.458600
10.044400 2.978700
10.063400 3.033900
10.082300 3.122800
10.101300 3.222000
10.120300 3.316900
10.139200 3.398000
10.158200 3.497100
10.177100 3.524000
10.196100 3.530300
10.215000 3.530600
10.234000 3.536500
10.252900 3.546200
10.271900 3.554500
10.290900 3.559200
10.309800 3.610600
10.328800 3.629400
10.347700 3.611600
10.366700 3.453900
10.385600 3.285300
10.404600 3.259500
10.423500 3.233400
10.442500 3.208600
10.461500 3.170400
10.480400 3.112800
10.499400 3.044000
10.518300 2.961000
10.537300 2.803700
10.556200 2.755200
10.575200 2.699000
10.594100 2.649300
10.613100 2.594900
10.632100 2.544600
10.651000 2.511800
10.670000 2.472800
10.688900 2.423700
10.707900 2.406300
10.726800 2.424500
10.745800 2.456500
10.764700 2.450900
10.783700 2.415700
10.802700 2.402100
10.821600 2.376400
10.840600 2.409100
10.859500 2.456800
10.878500 2.426000
10.897400 2.363800
10.916400 2.329500
10.935300 2.219200
10.954300 2.261000
10.973300 2.288000
10.992200 2.347600
11.011200 2.405100
11.030100 2.451400
11.049100 2.500400
11.068000 2.555000
11.087000 2.615100
11.106000 2.674300
11.124900 2.772100
11.143900 2.885400
11.162800 3.016000
11.181800 3.153600
11.200700 3.289700
11.219700 3.409300
11.238600 3.456200
11.257600 3.479700
11.276600 3.524700
11.295500 3.508500
11.314500 3.407200
11.333400 3.399100
11.352400 3.483000
11.371300 3.549700
11.390300 3.583200
11.409200 3.543200
11.428200 3.371600
11.447200 3.196700
11.466100 3.072900
11.485100 2.952800
11.504000 2.847800
11.523000 2.797800
11.541900 3.309900
11.560900 3.491700
11.579800 2.902100
11.598800 2.583500
11.617800 2.490300
11.636700 2.806600
11.655700 2.643600
11.674600 2.703500
11.693600 2.767400
11.712500 2.818500
11.731500 2.843000
11.750400 2.848600
11.769400 2.898800
11.788400 2.953300
11.807300 3.002200
11.826300 3.061900
11.845200 3.136800
11.864200 3.227700
11.883100 3.283300
11.902100 3.314800
11.921000 3.386600
11.940000 3.388600
11.959000 3.382200
11.977900 3.321500
11.996900 3.358000
12.015800 3.457400
12.034800 3.613000
12.053700 3.629500
12.072700 3.585300
12.091600 3.546900
12.110600 3.461600
12.129600 3.361900
12.148500 3.254300
12.167500 3.148000
12.186400 2.951800
12.205400 2.893300
12.224300 2.854200
12.243300 2.820700
12.262300 2.834200
12.281200 2.870500
12.300200 2.743400
12.319100 2.765900
12.338100 2.780600
12.357000 2.699000
12.376000 2.717200
12.394900 2.764000
12.413900 2.817100
12.432900 2.910600
12.451800 2.968600
12.470800 3.010800
12.489700 3.027700
12.508700 3.066900
12.527600 3.295000
12.546600 3.473900
12.565500 3.510800
12.584500 3.836700
12.603500 3.966200
12.622400 4.121300
12.641400 4.209300
12.660300 4.319500
12.679300 4.920400
12.698200 3.979700
12.717200 3.843100
12.736100 3.750100
12.755100 3.655800
12.774100 3.616800
12.793000 3.464700
12.812000 3.314400
12.830900 3.165700
12.849900 3.017000
12.868800 2.828400
12.887800 2.561000
12.906700 2.365500
12.925700 2.251400
