set title 'mp-1009071 - Density of States'
set xlabel 'Energy (eV)'
set ylabel 'DOS (states/eV)'
set grid
set xrange [-10:10]
set yrange [0:8.744]
set xzeroaxis lt -1
set terminal png size 800,600
set output 'mp-1009071_dos_gnuplot.png'
plot '-' using 1:2 with lines title 'DOS'
-13.225700 0.000000
-13.186500 0.000000
-13.147400 0.000000
-13.108300 0.000000
-13.069100 0.000000
-13.030000 0.000000
-12.990900 0.000000
-12.951700 0.000000
-12.912600 0.000000
-12.873400 0.000000
-12.834300 0.000000
-12.795200 0.000000
-12.756000 0.000000
-12.716900 0.000000
-12.677800 0.000000
-12.638600 0.000000
-12.599500 0.000000
-12.560400 0.000000
-12.521200 0.000000
-12.482100 0.000000
-12.442900 0.000000
-12.403800 0.000000
-12.364700 0.000000
-12.325500 0.000000
-12.286400 0.000000
-12.247300 0.000000
-12.208100 0.000000
-12.169000 0.000000
-12.129900 0.000000
-12.090700 0.000000
-12.051600 0.000000
-12.012500 0.000000
-11.973300 0.000000
-11.934200 0.000000
-11.895000 0.000000
-11.855900 0.000000
-11.816800 0.000000
-11.777600 0.000000
-11.738500 0.000000
-11.699400 0.000000
-11.660200 0.000000
-11.621100 0.000000
-11.582000 0.000000
-11.542800 0.000000
-11.503700 0.000000
-11.464500 0.000000
-11.425400 0.000000
-11.386300 0.000000
-11.347100 0.000000
-11.308000 0.000000
-11.268900 0.000000
-11.229700 0.000000
-11.190600 0.000000
-11.151500 0.000000
-11.112300 0.000000
-11.073200 0.000000
-11.034000 0.000000
-10.994900 0.000000
-10.955800 0.000000
-10.916600 0.000000
-10.877500 0.000000
-10.838400 0.000000
-10.799200 0.000000
-10.760100 0.000000
-10.721000 0.000000
-10.681800 0.000000
-10.642700 0.000000
-10.603500 0.000000
-10.564400 0.000000
-10.525300 0.000000
-10.486100 0.000000
-10.447000 0.000000
-10.407900 0.000000
-10.368700 0.000000
-10.329600 0.000000
-10.290500 0.000000
-10.251300 0.000000
-10.212200 0.000000
-10.173000 0.000000
-10.133900 0.000000
-10.094800 0.000000
-10.055600 0.000000
-10.016500 0.000000
-9.977400 0.000000
-9.938200 0.000000
-9.899100 0.000000
-9.860000 0.000000
-9.820800 0.000000
-9.781700 0.000000
-9.742500 0.000000
-9.703400 0.000000
-9.664300 0.000500
-9.625100 0.077600
-9.586000 0.116600
-9.546900 0.163400
-9.507700 0.198500
-9.468600 0.221000
-9.429500 0.251700
-9.390300 0.285700
-9.351200 0.314400
-9.312000 0.340800
-9.272900 0.366100
-9.233800 0.402500
-9.194600 0.437700
-9.155500 0.471100
-9.116400 0.506400
-9.077200 0.547400
-9.038100 0.587200
-8.999000 0.630300
-8.959800 0.689200
-8.920700 0.747400
-8.881500 0.808900
-8.842400 0.883700
-8.803300 0.963100
-8.764100 1.060500
-8.725000 1.190900
-8.685900 1.341300
-8.646700 1.533900
-8.607600 1.760700
-8.568500 2.172100
-8.529300 2.867700
-8.490200 3.771900
-8.451100 4.406000
-8.411900 5.608000
-8.372800 7.485300
-8.333600 7.949100
-8.294500 0.000000
-8.255400 0.000000
-8.216200 0.000000
-8.177100 0.000000
-8.138000 0.000000
-8.098800 0.000000
-8.059700 0.000000
-8.020600 0.000000
-7.981400 0.000000
-7.942300 0.000000
-7.903100 0.000000
-7.864000 0.000000
-7.824900 0.000000
-7.785700 0.000000
-7.746600 0.000000
-7.707500 0.000000
-7.668300 0.000000
-7.629200 0.000000
-7.590100 0.000000
-7.550900 0.000000
-7.511800 0.000000
-7.472600 0.000000
-7.433500 0.000000
-7.394400 0.000000
-7.355200 0.000000
-7.316100 0.000000
-7.277000 0.000000
-7.237800 0.000000
-7.198700 0.000000
-7.159600 0.000000
-7.120400 0.000000
-7.081300 0.000000
-7.042100 0.000000
-7.003000 0.000000
-6.963900 0.000000
-6.924700 0.000000
-6.885600 0.000000
-6.846500 0.000000
-6.807300 0.000000
-6.768200 0.000000
-6.729100 0.000000
-6.689900 0.000000
-6.650800 0.000000
-6.611600 0.000000
-6.572500 0.000000
-6.533400 0.000000
-6.494200 0.000000
-6.455100 0.000000
-6.416000 0.000000
-6.376800 0.000000
-6.337700 0.000000
-6.298600 0.000000
-6.259400 0.000000
-6.220300 0.000000
-6.181100 0.000000
-6.142000 0.000000
-6.102900 0.000000
-6.063700 0.000000
-6.024600 0.000000
-5.985500 0.000000
-5.946300 0.000000
-5.907200 0.000000
-5.868100 0.000000
-5.828900 0.000000
-5.789800 0.000000
-5.750600 0.000000
-5.711500 0.000000
-5.672400 0.000000
-5.633200 0.000000
-5.594100 0.000000
-5.555000 0.000000
-5.515800 0.000000
-5.476700 0.000000
-5.437600 0.000000
-5.398400 0.000000
-5.359300 0.000000
-5.320100 0.000000
-5.281000 0.000000
-5.241900 0.000000
-5.202700 0.000000
-5.163600 0.000000
-5.124500 0.000000
-5.085300 0.000000
-5.046200 0.000000
-5.007100 0.000000
-4.967900 0.000000
-4.928800 0.000000
-4.889700 0.000000
-4.850500 0.000000
-4.811400 0.000000
-4.772200 0.000000
-4.733100 0.000000
-4.694000 0.000000
-4.654800 0.000000
-4.615700 0.000000
-4.576600 0.000000
-4.537400 0.000000
-4.498300 0.000000
-4.459200 0.000000
-4.420000 0.000000
-4.380900 0.000000
-4.341700 0.000000
-4.302600 0.000000
-4.263500 0.000000
-4.224300 0.000000
-4.185200 0.000000
-4.146100 0.000000
-4.106900 0.000000
-4.067800 0.000000
-4.028700 0.000000
-3.989500 0.000000
-3.950400 0.000000
-3.911200 0.000000
-3.872100 0.000000
-3.833000 0.000000
-3.793800 0.000000
-3.754700 0.000000
-3.715600 0.000000
-3.676400 0.000000
-3.637300 0.000000
-3.598200 0.000000
-3.559000 0.000000
-3.519900 0.000000
-3.480700 0.000000
-3.441600 0.000000
-3.402500 0.000000
-3.363300 0.000000
-3.324200 0.000000
-3.285100 0.000000
-3.245900 0.000000
-3.206800 0.000000
-3.167700 0.000000
-3.128500 0.000000
-3.089400 0.000000
-3.050200 0.000000
-3.011100 0.000000
-2.972000 0.000000
-2.932800 0.000000
-2.893700 0.083400
-2.854600 0.216100
-2.815400 0.316400
-2.776300 0.448900
-2.737200 0.541700
-2.698000 0.632500
-2.658900 0.767700
-2.619700 1.087000
-2.580600 1.631500
-2.541500 2.232300
-2.502300 1.621000
-2.463200 1.500100
-2.424100 1.412600
-2.384900 1.337900
-2.345800 1.277200
-2.306700 1.241500
-2.267500 1.216700
-2.228400 1.196600
-2.189200 1.174200
-2.150100 1.158700
-2.111000 1.143800
-2.071800 1.141700
-2.032700 1.165100
-1.993600 1.183200
-1.954400 1.127500
-1.915300 1.096000
-1.876200 1.097700
-1.837000 1.045800
-1.797900 1.025100
-1.758700 0.964500
-1.719600 0.915900
-1.680500 0.899500
-1.641300 0.858400
-1.602200 0.831300
-1.563100 0.801700
-1.523900 0.786100
-1.484800 0.771900
-1.445700 0.753200
-1.406500 0.741300
-1.367400 0.751700
-1.328200 0.770600
-1.289100 0.743500
-1.250000 0.749400
-1.210800 0.756900
-1.171700 0.766400
-1.132600 0.814000
-1.093400 0.919300
-1.054300 1.009800
-1.015200 0.793800
-0.976000 0.563700
-0.936900 0.386600
-0.897800 0.284200
-0.858600 0.255400
-0.819500 0.235000
-0.780300 0.219200
-0.741200 0.181000
-0.702100 0.180100
-0.662900 0.181900
-0.623800 0.186300
-0.584700 0.193300
-0.545500 0.208500
-0.506400 0.226000
-0.467300 0.227200
-0.428100 0.208500
-0.389000 0.229500
-0.349800 0.222200
-0.310700 0.244900
-0.271600 0.262500
-0.232400 0.271100
-0.193300 0.304500
-0.154200 0.320600
-0.115000 0.328800
-0.075900 0.345900
-0.036800 0.364700
0.002400 0.385100
0.041500 0.409100
0.080700 0.479400
0.119800 0.523200
0.158900 0.595800
0.198100 0.722800
0.237200 0.903900
0.276300 1.158200
0.315500 1.637400
0.354600 2.446100
0.393700 3.167300
0.432900 3.163500
0.472000 3.158500
0.511200 3.107100
0.550300 2.977400
0.589400 2.456900
0.628600 1.854100
0.667700 1.753900
0.706800 1.757300
0.746000 1.907600
0.785100 2.488300
0.824200 2.607700
0.863400 2.534100
0.902500 2.635800
0.941700 2.773900
0.980800 2.986700
1.019900 3.264600
1.059100 4.005700
1.098200 4.242100
1.137300 4.202900
1.176500 3.372900
1.215600 2.482400
1.254700 2.217900
1.293900 2.654500
1.333000 3.157400
1.372200 2.704500
1.411300 2.337300
1.450400 2.208700
1.489600 2.144100
1.528700 2.027500
1.567800 1.943000
1.607000 1.870600
1.646100 1.815200
1.685200 1.766000
1.724400 1.720100
1.763500 1.678100
1.802700 1.679000
1.841800 1.688800
1.880900 1.706900
1.920100 1.762500
1.959200 1.867200
1.998300 1.872800
2.037500 1.830700
2.076600 1.760600
2.115700 1.638100
2.154900 1.502300
2.194000 1.426200
2.233200 1.384400
2.272300 1.301900
2.311400 1.229000
2.350600 1.165200
2.389700 1.082700
2.428800 1.043500
2.468000 1.022100
2.507100 1.010500
2.546200 1.012400
2.585400 1.027700
2.624500 1.061800
2.663600 1.097000
2.702800 1.132300
2.741900 1.141300
2.781100 1.156700
2.820200 1.174600
2.859300 1.184500
2.898500 1.196800
2.937600 1.186200
2.976700 1.195900
3.015900 1.274300
3.055000 1.351600
3.094100 1.346600
3.133300 1.306900
3.172400 1.215800
3.211600 1.006600
3.250700 0.944500
3.289800 0.845000
3.329000 0.735400
3.368100 0.682600
3.407200 0.624700
3.446400 0.569600
3.485500 0.564600
3.524600 0.574300
3.563800 0.575400
3.602900 0.574700
3.642100 0.549500
3.681200 0.552500
3.720300 0.565500
3.759500 0.585200
3.798600 0.605000
3.837700 0.627500
3.876900 0.656000
3.916000 0.681800
3.955100 0.710700
3.994300 0.733500
4.033400 0.758200
4.072600 0.783100
4.111700 0.815000
4.150800 0.844200
4.190000 0.877000
4.229100 0.914400
4.268200 1.017200
4.307400 0.984200
4.346500 0.987800
4.385600 1.004800
4.424800 1.027300
4.463900 1.033800
4.503100 1.039100
4.542200 1.049000
4.581300 1.069000
4.620500 1.094900
4.659600 1.122900
4.698700 1.175400
4.737900 1.198100
4.777000 1.241700
4.816100 1.295100
4.855300 1.368600
4.894400 1.455400
4.933600 1.554700
4.972700 1.595500
5.011800 1.589400
5.051000 1.612200
5.090100 1.588700
5.129200 1.645300
5.168400 1.706000
5.207500 1.703000
5.246600 1.740900
5.285800 1.681900
5.324900 1.912700
5.364100 2.110900
5.403200 2.119700
5.442300 2.203900
5.481500 2.434000
5.520600 2.677300
5.559700 3.225400
5.598900 3.977000
5.638000 4.035500
5.677100 3.640900
5.716300 3.572700
5.755400 3.206700
5.794600 3.144000
5.833700 3.263500
5.872800 3.512500
5.912000 4.043400
5.951100 3.373700
5.990200 2.740100
6.029400 2.694700
6.068500 4.957900
6.107600 2.855200
6.146800 2.388600
6.185900 2.313800
6.225000 2.318000
6.264200 2.320300
6.303300 2.403500
6.342500 2.603000
6.381600 2.641800
6.420700 2.640400
6.459900 2.784500
6.499000 3.173400
6.538100 2.698800
6.577300 2.563300
6.616400 2.482700
6.655500 2.495800
6.694700 2.485700
6.733800 2.403600
6.773000 1.269400
6.812100 1.254500
6.851200 1.204600
6.890400 1.118200
6.929500 1.111200
6.968600 1.181300
7.007800 1.159000
7.046900 1.143500
7.086000 1.155400
7.125200 1.308800
7.164300 1.315700
7.203500 1.203400
7.242600 1.099400
7.281700 0.986200
7.320900 0.948800
7.360000 0.931700
7.399100 0.907200
7.438300 0.883800
7.477400 0.861400
7.516500 0.843300
7.555700 0.828700
7.594800 0.818000
7.634000 0.814200
7.673100 0.813400
7.712200 0.813300
7.751400 0.808800
7.790500 0.817600
7.829600 0.824200
7.868800 0.833700
7.907900 0.864000
7.947000 0.844400
7.986200 0.856800
8.025300 0.864300
8.064500 0.870600
8.103600 0.876600
8.142700 0.877200
8.181900 0.865700
8.221000 0.855700
8.260100 0.850400
8.299300 0.847800
8.338400 0.845500
8.377500 0.845200
8.416700 0.845800
8.455800 0.846700
8.495000 0.849100
8.534100 0.852600
8.573200 0.855100
8.612400 0.857500
8.651500 0.859600
8.690600 0.864200
8.729800 0.869800
8.768900 0.872400
8.808000 0.878800
8.847200 0.885400
8.886300 0.892600
8.925500 0.900100
8.964600 0.908200
9.003700 0.917300
9.042900 0.935900
9.082000 0.960400
9.121100 0.982200
9.160300 0.995500
9.199400 1.010600
9.238500 1.038800
9.277700 1.079400
9.316800 1.151900
9.356000 1.141100
9.395100 1.132600
9.434200 0.997600
9.473400 0.940900
9.512500 1.049500
9.551600 1.226600
9.590800 1.432200
9.629900 1.494800
9.669000 1.479900
9.708200 1.501200
9.747300 1.343500
9.786500 1.166900
9.825600 1.055100
9.864700 1.070700
9.903900 1.204700
9.943000 1.462600
9.982100 1.451800
10.021300 1.525400
10.060400 1.601500
10.099500 1.649000
10.138700 1.658000
10.177800 1.702200
10.216900 1.725700
10.256100 1.741500
10.295200 1.756900
10.334400 1.785200
10.373500 1.731400
10.412600 1.667600
10.451800 1.653200
10.490900 1.665500
10.530000 1.695800
10.569200 1.699300
10.608300 1.781200
10.647400 1.758100
10.686600 1.776500
10.725700 1.811100
10.764900 1.853900
10.804000 1.901700
10.843100 2.187600
10.882300 2.127200
10.921400 2.107000
10.960500 2.111600
10.999700 2.162500
11.038800 2.221300
11.077900 2.276700
11.117100 2.433000
11.156200 2.629600
11.195400 2.781800
11.234500 2.759100
11.273600 2.665300
11.312800 2.476400
11.351900 2.187600
11.391000 2.072500
11.430200 1.872100
11.469300 1.775700
11.508400 1.703800
11.547600 1.642800
11.586700 1.590600
11.625900 1.557100
11.665000 1.544200
11.704100 1.533800
11.743300 1.556200
11.782400 1.560900
11.821500 1.599200
11.860700 1.515900
11.899800 1.460500
11.938900 1.412200
11.978100 1.373100
12.017200 1.363400
12.056400 1.371400
12.095500 1.374400
12.134600 1.365700
12.173800 1.340400
12.212900 1.303900
12.252000 1.261200
12.291200 1.188400
12.330300 1.128000
12.369400 0.920200
12.408600 0.919100
12.447700 0.805100
12.486900 0.787800
12.526000 0.767800
12.565100 0.746600
12.604300 0.734600
12.643400 0.786400
12.682500 0.870200
12.721700 0.700400
12.760800 0.495400
12.799900 0.425900
12.839100 0.376700
12.878200 0.382000
12.917400 0.334100
12.956500 0.342400
12.995600 0.399100
13.034800 0.458100
13.073900 0.486300
13.113000 0.491700
13.152200 0.496200
13.191300 0.498600
13.230400 0.502400
13.269600 0.518200
13.308700 0.532800
13.347900 0.550400
13.387000 0.559900
13.426100 0.558000
13.465300 0.556000
13.504400 0.555900
13.543500 0.571200
13.582700 0.493400
13.621800 0.472300
13.660900 0.493200
13.700100 0.461700
13.739200 0.443800
13.778300 0.435000
13.817500 0.441800
13.856600 0.454000
13.895800 0.467200
13.934900 0.478700
13.974000 0.489100
14.013200 0.505400
14.052300 0.520300
14.091400 0.534700
14.130600 0.545500
14.169700 0.556700
14.208800 0.574400
14.248000 0.594100
14.287100 0.616200
14.326300 0.639300
14.365400 0.675800
14.404500 0.727300
14.443700 0.769300
14.482800 0.808900
14.521900 0.844400
14.561100 0.846200
14.600200 0.821000
14.639300 0.796700
14.678500 0.788000
14.717600 0.778800
14.756800 0.758400
14.795900 0.735000
14.835000 0.724500
14.874200 0.707400
14.913300 0.697500
14.952400 0.683500
14.991600 0.666000
15.030700 0.654200
15.069800 0.641700
15.109000 0.590100
15.148100 0.544000
15.187300 0.521900
15.226400 0.507400
15.265500 0.495700
15.304700 0.485900
15.343800 0.477100
15.382900 0.468400
15.422100 0.458700
15.461200 0.451000
15.500300 0.444300
15.539500 0.444300
15.578600 0.445400
15.617800 0.445100
15.656900 0.444300
15.696000 0.452500
15.735200 0.467200
15.774300 0.483300
15.813400 0.498300
15.852600 0.519100
15.891700 0.543700
15.930800 0.543400
15.970000 0.536800
16.009100 0.538000
16.048300 0.531900
16.087400 0.542600
16.126500 0.535600
16.165700 0.528600
16.204800 0.515400
16.243900 0.511800
16.283100 0.511500
16.322200 0.518600
16.361300 0.514400
16.400500 0.513200
16.439600 0.488600
16.478800 0.480500
16.517900 0.480900
16.557000 0.489400
16.596200 0.501800
16.635300 0.516100
16.674400 0.538100
16.713600 0.553200
16.752700 0.569900
16.791800 0.590800
16.831000 0.613700
16.870100 0.633600
16.909300 0.652300
16.948400 0.673800
16.987500 0.697100
17.026700 0.724100
17.065800 0.758000
17.104900 0.798900
17.144100 0.850700
17.183200 0.908300
17.222300 0.951100
17.261500 1.003300
17.300600 1.075600
17.339800 1.239500
17.378900 1.669500
17.418000 1.756300
17.457200 1.528700
17.496300 1.442100
17.535400 1.287700
17.574600 1.168000
17.613700 1.119900
17.652800 1.074100
17.692000 1.046900
17.731100 1.042900
17.770200 1.037400
17.809400 1.035500
17.848500 1.039800
17.887700 1.034600
17.926800 1.014500
17.965900 1.006100
18.005100 1.012000
18.044200 1.037300
18.083300 1.121700
18.122500 1.035500
18.161600 1.117000
18.200700 1.177000
18.239900 1.226600
18.279000 1.202700
18.318200 1.170700
18.357300 1.059900
18.396400 0.919400
18.435600 0.816800
18.474700 0.689100
18.513800 0.661200
18.553000 0.707300
18.592100 0.792400
18.631200 0.935300
18.670400 1.033800
18.709500 1.095600
18.748700 1.178000
18.787800 1.231400
18.826900 1.265800
18.866100 1.292900
18.905200 1.360300
18.944300 1.373900
18.983500 1.494200
19.022600 1.646000
19.061700 1.479100
19.100900 1.403600
19.140000 1.334500
19.179200 1.286800
19.218300 1.236900
19.257400 1.226300
19.296600 1.132600
19.335700 1.031100
19.374800 0.966000
19.414000 0.923000
19.453100 0.878900
19.492200 0.851900
19.531400 0.809100
19.570500 0.796600
19.609700 0.790800
19.648800 0.796200
19.687900 0.796100
19.727100 0.792400
19.766200 0.798600
19.805300 0.788100
19.844500 0.782400
19.883600 0.809000
19.922700 0.822400
19.961900 0.749600
20.001000 0.578000
20.040200 0.525800
20.079300 0.500300
20.118400 0.484300
20.157600 0.485100
20.196700 0.488300
20.235800 0.497200
20.275000 0.507000
20.314100 0.514500
20.353200 0.512400
20.392400 0.514500
20.431500 0.525800
20.470700 0.535500
20.509800 0.546000
20.548900 0.558000
20.588100 0.569300
20.627200 0.579700
20.666300 0.589200
20.705500 0.601300
20.744600 0.613200
20.783700 0.623600
20.822900 0.632200
20.862000 0.641000
20.901200 0.651000
20.940300 0.672000
20.979400 0.684300
21.018600 0.696600
21.057700 0.709900
21.096800 0.724900
21.136000 0.763300
21.175100 0.805100
21.214200 0.848500
21.253400 0.843400
21.292500 0.688000
21.331600 0.655300
21.370800 0.643800
21.409900 0.650600
21.449100 0.665000
21.488200 0.687600
21.527300 0.711600
21.566500 0.701800
21.605600 0.719700
21.644700 0.740500
21.683900 0.764100
21.723000 0.792700
21.762100 0.824800
21.801300 0.862900
21.840400 0.906600
21.879600 0.961200
21.918700 1.010200
21.957800 1.063100
21.997000 1.118000
22.036100 1.166400
22.075200 1.204100
22.114400 1.207300
22.153500 1.186100
22.192600 1.198100
22.231800 1.226400
22.270900 1.233300
22.310100 1.233000
22.349200 1.240200
22.388300 1.239300
22.427500 1.236800
22.466600 1.243700
22.505700 1.257800
22.544900 1.269600
22.584000 1.292700
22.623100 1.326600
22.662300 1.358600
22.701400 1.341600
22.740600 1.307000
22.779700 1.225800
22.818800 1.147100
22.858000 1.066100
22.897100 1.010200
22.936200 0.994100
22.975400 0.987500
23.014500 0.983900
23.053600 1.023700
23.092800 1.039500
23.131900 1.063000
23.171100 1.097100
23.210200 1.188400
23.249300 1.471200
23.288500 1.407800
23.327600 1.378700
23.366700 1.379700
23.405900 1.376000
23.445000 1.385800
23.484100 1.417800
23.523300 1.462900
23.562400 1.521900
23.601600 1.601100
23.640700 1.667200
23.679800 1.706900
23.719000 1.680800
23.758100 1.584300
23.797200 1.477800
23.836400 1.464300
23.875500 1.457500
23.914600 1.465000
23.953800 1.445800
23.992900 1.423900
24.032100 1.350300
24.071200 1.239500
24.110300 1.222300
24.149500 1.094400
24.188600 1.114100
24.227700 1.107500
24.266900 1.058500
24.306000 1.040800
24.345100 1.016900
24.384300 0.999600
24.423400 1.090200
24.462600 0.971800
24.501700 0.957600
24.540800 0.942000
24.580000 0.925300
24.619100 0.908800
24.658200 0.894700
24.697400 0.884600
24.736500 0.889900
24.775600 0.893400
24.814800 0.896300
24.853900 0.903700
24.893000 0.933200
24.932200 0.937400
24.971300 0.902200
25.010500 0.861800
25.049600 0.819100
25.088700 0.780100
25.127900 0.789900
25.167000 0.836400
25.206100 0.840900
25.245300 0.883600
25.284400 0.910100
25.323500 0.882400
25.362700 0.922200
25.401800 0.937200
25.441000 0.940200
25.480100 0.892500
25.519200 0.830400
25.558400 0.787900
25.597500 0.765600
25.636600 0.746200
25.675800 0.733800
25.714900 0.732200
25.754000 0.763700
25.793200 0.862700
25.832300 0.862400
25.871500 0.863400
25.910600 0.887200
25.949700 0.913300
25.988900 0.955000
26.028000 0.998400
26.067100 1.041500
26.106300 1.077900
26.145400 1.116700
26.184500 1.173100
26.223700 1.224300
26.262800 1.276300
26.302000 1.302200
26.341100 1.339500
26.380200 1.391700
26.419400 1.486300
26.458500 1.571800
26.497600 1.686400
26.536800 1.814500
26.575900 1.951400
26.615000 2.104800
26.654200 2.290500
26.693300 2.058500
26.732500 1.941700
26.771600 1.970100
26.810700 2.000000
26.849900 1.988700
26.889000 1.942300
26.928100 1.863600
26.967300 1.768300
27.006400 1.691000
27.045500 1.633800
27.084700 1.596100
27.123800 1.593700
27.163000 1.622900
27.202100 1.616200
27.241200 1.602800
27.280400 1.586700
27.319500 1.525500
27.358600 1.501600
27.397800 1.507800
27.436900 1.532600
27.476000 1.551000
27.515200 1.675100
27.554300 1.859800
27.593500 1.921300
27.632600 1.917600
27.671700 1.927800
27.710900 1.891000
