set title 'mp-1183256 - Density of States'
set xlabel 'Energy (eV)'
set ylabel 'DOS (states/eV)'
set grid
set xrange [-10:10]
set yrange [0:29.917]
set xzeroaxis lt -1
set terminal png size 800,600
set output 'mp-1183256_dos_gnuplot.png'
plot '-' using 1:2 with lines title 'DOS'
-12.836000 0.000000
-12.816400 0.000000
-12.796800 0.000000
-12.777200 0.000000
-12.757700 0.000000
-12.738100 0.000000
-12.718500 0.000000
-12.698900 0.000000
-12.679300 0.000000
-12.659800 0.000000
-12.640200 0.000000
-12.620600 0.000000
-12.601000 0.000000
-12.581400 0.000000
-12.561900 0.000000
-12.542300 0.000000
-12.522700 0.000000
-12.503100 0.000000
-12.483500 0.000000
-12.464000 0.000000
-12.444400 0.000000
-12.424800 0.000000
-12.405200 0.000000
-12.385600 0.000000
-12.366100 0.000000
-12.346500 0.000000
-12.326900 0.000000
-12.307300 0.000000
-12.287700 0.000000
-12.268200 0.000000
-12.248600 0.000000
-12.229000 0.000000
-12.209400 0.000000
-12.189800 0.000000
-12.170200 0.000000
-12.150700 0.000000
-12.131100 0.000000
-12.111500 0.000000
-12.091900 0.000000
-12.072300 0.000000
-12.052800 0.000000
-12.033200 0.000000
-12.013600 0.000000
-11.994000 0.000000
-11.974400 0.000000
-11.954900 0.000000
-11.935300 0.000000
-11.915700 0.000000
-11.896100 0.000000
-11.876500 0.000000
-11.857000 0.000000
-11.837400 0.000000
-11.817800 0.000000
-11.798200 0.000000
-11.778600 0.000000
-11.759100 0.000000
-11.739500 0.000000
-11.719900 0.000000
-11.700300 0.000000
-11.680700 0.000000
-11.661200 0.000000
-11.641600 0.000000
-11.622000 0.000000
-11.602400 0.000000
-11.582800 0.000000
-11.563300 0.000000
-11.543700 0.000000
-11.524100 0.000000
-11.504500 0.000000
-11.484900 0.000000
-11.465400 0.000000
-11.445800 0.000000
-11.426200 0.000000
-11.406600 0.000000
-11.387000 0.000000
-11.367500 0.000000
-11.347900 0.000000
-11.328300 0.000000
-11.308700 0.000000
-11.289100 0.000000
-11.269600 0.000000
-11.250000 0.000000
-11.230400 0.000000
-11.210800 0.000000
-11.191200 0.000300
-11.171700 0.002900
-11.152100 0.020900
-11.132500 0.117100
-11.112900 0.507600
-11.093300 1.730500
-11.073800 4.720100
-11.054200 10.522400
-11.034600 19.647200
-11.015000 31.556600
-10.995400 44.807900
-10.975900 57.684500
-10.956300 68.574300
-10.936700 75.843200
-10.917100 78.163200
-10.897500 75.909000
-10.878000 71.922800
-10.858400 69.941500
-10.838800 72.178300
-10.819200 78.269900
-10.799600 85.575500
-10.780100 90.410800
-10.760500 90.259100
-10.740900 85.624800
-10.721300 79.525200
-10.701700 74.636300
-10.682200 70.592800
-10.662600 64.239000
-10.643000 52.917500
-10.623400 37.541900
-10.603800 22.181700
-10.584300 10.693100
-10.564700 4.157500
-10.545100 1.296000
-10.525500 0.322800
-10.505900 0.063900
-10.486400 0.010000
-10.466800 0.001200
-10.447200 0.000100
-10.427600 0.000000
-10.408000 0.000000
-10.388500 0.000000
-10.368900 0.000000
-10.349300 0.000000
-10.329700 0.000000
-10.310100 0.000000
-10.290600 0.000000
-10.271000 0.000000
-10.251400 0.000000
-10.231800 0.000000
-10.212200 0.000000
-10.192700 0.000000
-10.173100 0.000000
-10.153500 0.000000
-10.133900 0.000000
-10.114300 0.000000
-10.094800 0.000000
-10.075200 0.000000
-10.055600 0.000000
-10.036000 0.000000
-10.016400 0.000000
-9.996900 0.000000
-9.977300 0.000000
-9.957700 0.000000
-9.938100 0.000000
-9.918500 0.000000
-9.899000 0.000000
-9.879400 0.000000
-9.859800 0.000000
-9.840200 0.000000
-9.820600 0.000000
-9.801100 0.000000
-9.781500 0.000000
-9.761900 0.000000
-9.742300 0.000000
-9.722700 0.000000
-9.703200 0.000000
-9.683600 0.000000
-9.664000 0.000000
-9.644400 0.000000
-9.624800 0.000000
-9.605300 0.000000
-9.585700 0.000000
-9.566100 0.000000
-9.546500 0.000000
-9.526900 0.000000
-9.507400 0.000000
-9.487800 0.000000
-9.468200 0.000000
-9.448600 0.000000
-9.429000 0.000000
-9.409500 0.000000
-9.389900 0.000000
-9.370300 0.000000
-9.350700 0.000000
-9.331100 0.000000
-9.311600 0.000000
-9.292000 0.000000
-9.272400 0.000000
-9.252800 0.000000
-9.233200 0.000000
-9.213700 0.000000
-9.194100 0.000000
-9.174500 0.000000
-9.154900 0.000000
-9.135300 0.000000
-9.115800 0.000000
-9.096200 0.000000
-9.076600 0.000000
-9.057000 0.000000
-9.037400 0.000000
-9.017900 0.000000
-8.998300 0.000000
-8.978700 0.000000
-8.959100 0.000000
-8.939500 0.000000
-8.920000 0.000000
-8.900400 0.000000
-8.880800 0.000000
-8.861200 0.000000
-8.841600 0.000000
-8.822100 0.000000
-8.802500 0.000000
-8.782900 0.000000
-8.763300 0.000000
-8.743700 0.000000
-8.724200 0.000000
-8.704600 0.000000
-8.685000 0.000000
-8.665400 0.000000
-8.645800 0.000000
-8.626300 0.000000
-8.606700 0.000000
-8.587100 0.000000
-8.567500 0.000000
-8.547900 0.000000
-8.528400 0.000000
-8.508800 0.000000
-8.489200 0.000000
-8.469600 0.000000
-8.450000 0.000000
-8.430500 0.000000
-8.410900 0.000000
-8.391300 0.000000
-8.371700 0.000000
-8.352100 0.000000
-8.332600 0.000000
-8.313000 0.000000
-8.293400 0.000000
-8.273800 0.000000
-8.254200 0.000000
-8.234700 0.000000
-8.215100 0.000000
-8.195500 0.000000
-8.175900 0.000000
-8.156300 0.000000
-8.136800 0.000000
-8.117200 0.000000
-8.097600 0.000000
-8.078000 0.000000
-8.058400 0.000000
-8.038900 0.000000
-8.019300 0.000000
-7.999700 0.000000
-7.980100 0.000000
-7.960500 0.000000
-7.941000 0.000000
-7.921400 0.000000
-7.901800 0.000000
-7.882200 0.000000
-7.862600 0.000000
-7.843100 0.000000
-7.823500 0.000000
-7.803900 0.000000
-7.784300 0.000000
-7.764700 0.000000
-7.745200 0.000000
-7.725600 0.000000
-7.706000 0.000000
-7.686400 0.000000
-7.666800 0.000000
-7.647300 0.000000
-7.627700 0.000000
-7.608100 0.000000
-7.588500 0.000000
-7.568900 0.000000
-7.549400 0.000000
-7.529800 0.000000
-7.510200 0.000000
-7.490600 0.000000
-7.471000 0.000000
-7.451500 0.000000
-7.431900 0.000000
-7.412300 0.000000
-7.392700 0.000000
-7.373100 0.000000
-7.353600 0.000000
-7.334000 0.000000
-7.314400 0.000000
-7.294800 0.000000
-7.275200 0.000000
-7.255700 0.000000
-7.236100 0.000000
-7.216500 0.000000
-7.196900 0.000000
-7.177300 0.000000
-7.157700 0.000000
-7.138200 0.000000
-7.118600 0.000000
-7.099000 0.000000
-7.079400 0.000000
-7.059800 0.000000
-7.040300 0.000000
-7.020700 0.000000
-7.001100 0.000000
-6.981500 0.000000
-6.961900 0.000000
-6.942400 0.000000
-6.922800 0.000000
-6.903200 0.000000
-6.883600 0.000000
-6.864000 0.000000
-6.844500 0.000000
-6.824900 0.000000
-6.805300 0.000000
-6.785700 0.000000
-6.766100 0.000000
-6.746600 0.000000
-6.727000 0.000000
-6.707400 0.000000
-6.687800 0.000000
-6.668200 0.000000
-6.648700 0.000000
-6.629100 0.000000
-6.609500 0.000000
-6.589900 0.000000
-6.570300 0.000000
-6.550800 0.000000
-6.531200 0.000000
-6.511600 0.000000
-6.492000 0.000000
-6.472400 0.000000
-6.452900 0.000000
-6.433300 0.000000
-6.413700 0.000000
-6.394100 0.000000
-6.374500 0.000000
-6.355000 0.000000
-6.335400 0.000000
-6.315800 0.000000
-6.296200 0.000000
-6.276600 0.000000
-6.257100 0.000000
-6.237500 0.000000
-6.217900 0.000000
-6.198300 0.000000
-6.178700 0.000000
-6.159200 0.000000
-6.139600 0.000000
-6.120000 0.000000
-6.100400 0.000000
-6.080800 0.000000
-6.061300 0.000000
-6.041700 0.000000
-6.022100 0.000000
-6.002500 0.000000
-5.982900 0.000000
-5.963400 0.000000
-5.943800 0.000000
-5.924200 0.000000
-5.904600 0.000000
-5.885000 0.000000
-5.865500 0.000000
-5.845900 0.000000
-5.826300 0.000000
-5.806700 0.000000
-5.787100 0.000000
-5.767600 0.000000
-5.748000 0.000000
-5.728400 0.000000
-5.708800 0.000000
-5.689200 0.000000
-5.669700 0.000000
-5.650100 0.000000
-5.630500 0.000000
-5.610900 0.000000
-5.591300 0.000000
-5.571800 0.000000
-5.552200 0.000000
-5.532600 0.000000
-5.513000 0.000000
-5.493400 0.000000
-5.473900 0.000000
-5.454300 0.000000
-5.434700 0.000000
-5.415100 0.000000
-5.395500 0.000000
-5.376000 0.000000
-5.356400 0.000000
-5.336800 0.000000
-5.317200 0.000000
-5.297600 0.000000
-5.278100 0.000000
-5.258500 0.000000
-5.238900 0.000000
-5.219300 0.000000
-5.199700 0.000000
-5.180200 0.000000
-5.160600 0.000200
-5.141000 0.000900
-5.121400 0.003600
-5.101800 0.011300
-5.082300 0.027300
-5.062700 0.052300
-5.043100 0.083000
-5.023500 0.114200
-5.003900 0.146500
-4.984400 0.193000
-4.964800 0.269600
-4.945200 0.360200
-4.925600 0.405700
-4.906000 0.360400
-4.886500 0.253000
-4.866900 0.166200
-4.847300 0.166000
-4.827700 0.261300
-4.808100 0.405300
-4.788600 0.530300
-4.769000 0.596600
-4.749400 0.614700
-4.729800 0.623500
-4.710200 0.646300
-4.690700 0.653500
-4.671100 0.586500
-4.651500 0.436500
-4.631900 0.273000
-4.612300 0.183300
-4.592800 0.208300
-4.573200 0.330700
-4.553600 0.495700
-4.534000 0.643900
-4.514400 0.746600
-4.494900 0.826900
-4.475300 0.936600
-4.455700 1.070900
-4.436100 1.118700
-4.416500 0.972800
-4.397000 0.681700
-4.377400 0.420700
-4.357800 0.325500
-4.338200 0.397400
-4.318600 0.540500
-4.299100 0.652700
-4.279500 0.698200
-4.259900 0.723000
-4.240300 0.802600
-4.220700 0.944700
-4.201200 1.042400
-4.181600 0.974000
-4.162000 0.753800
-4.142400 0.543100
-4.122800 0.507000
-4.103300 0.683600
-4.083700 0.975500
-4.064100 1.233800
-4.044500 1.362200
-4.024900 1.365500
-4.005400 1.297500
-3.985800 1.169100
-3.966200 0.951000
-3.946600 0.674000
-3.927000 0.458400
-3.907500 0.422800
-3.887900 0.595100
-3.868300 0.899000
-3.848700 1.201000
-3.829100 1.397300
-3.809600 1.484500
-3.790000 1.536400
-3.770400 1.590200
-3.750800 1.568500
-3.731200 1.369800
-3.711700 1.027000
-3.692100 0.699900
-3.672500 0.524500
-3.652900 0.539700
-3.633300 0.732600
-3.613800 1.070300
-3.594200 1.484500
-3.574600 1.861400
-3.555000 2.070700
-3.535400 2.033300
-3.515900 1.784900
-3.496300 1.453200
-3.476700 1.157700
-3.457100 0.956600
-3.437500 0.892100
-3.418000 1.011000
-3.398400 1.280300
-3.378800 1.537600
-3.359200 1.622800
-3.339600 1.548000
-3.320100 1.452500
-3.300500 1.402600
-3.280900 1.324900
-3.261300 1.142000
-3.241700 0.897400
-3.222200 0.708900
-3.202600 0.643800
-3.183000 0.688900
-3.163400 0.808800
-3.143800 0.966500
-3.124300 1.109500
-3.104700 1.186100
-3.085100 1.165800
-3.065500 1.045400
-3.045900 0.866400
-3.026400 0.709600
-3.006800 0.632900
-2.987200 0.624200
-2.967600 0.632100
-2.948000 0.625300
-2.928500 0.619500
-2.908900 0.664000
-2.889300 0.773200
-2.869700 0.864500
-2.850100 0.833200
-2.830600 0.702000
-2.811000 0.625200
-2.791400 0.746400
-2.771800 1.089800
-2.752200 1.555000
-2.732700 1.983000
-2.713100 2.255100
-2.693500 2.337400
-2.673900 2.236400
-2.654300 1.972900
-2.634800 1.617900
-2.615200 1.291500
-2.595600 1.099800
-2.576000 1.084900
-2.556400 1.213500
-2.536900 1.404700
-2.517300 1.569300
-2.497700 1.639600
-2.478100 1.611900
-2.458500 1.566500
-2.439000 1.600900
-2.419400 1.735900
-2.399800 1.893100
-2.380200 1.958000
-2.360600 1.889100
-2.341100 1.766400
-2.321500 1.701200
-2.301900 1.724600
-2.282300 1.791300
-2.262700 1.847300
-2.243200 1.868300
-2.223600 1.856300
-2.204000 1.825900
-2.184400 1.785500
-2.164800 1.715200
-2.145200 1.587600
-2.125700 1.419100
-2.106100 1.271000
-2.086500 1.214300
-2.066900 1.298500
-2.047300 1.490400
-2.027800 1.650400
-2.008200 1.657300
-1.988600 1.555400
-1.969000 1.509000
-1.949400 1.606900
-1.929900 1.794800
-1.910300 2.016500
-1.890700 2.282300
-1.871100 2.532000
-1.851500 2.602000
-1.832000 2.438300
-1.812400 2.180700
-1.792800 1.951800
-1.773200 1.713600
-1.753600 1.392800
-1.734100 1.019700
-1.714500 0.701000
-1.694900 0.541000
-1.675300 0.591400
-1.655700 0.808300
-1.636200 1.079200
-1.616600 1.351900
-1.597000 1.677700
-1.577400 2.046300
-1.557800 2.270700
-1.538300 2.176900
-1.518700 1.861800
-1.499100 1.633200
-1.479500 1.693100
-1.459900 1.950500
-1.440400 2.172500
-1.420800 2.276000
-1.401200 2.373000
-1.381600 2.535800
-1.362000 2.654800
-1.342500 2.569800
-1.322900 2.253000
-1.303300 1.834600
-1.283700 1.503000
-1.264100 1.383800
-1.244600 1.456700
-1.225000 1.571900
-1.205400 1.598300
-1.185800 1.568100
-1.166200 1.615900
-1.146700 1.785600
-1.127100 1.989400
-1.107500 2.137500
-1.087900 2.213800
-1.068300 2.241100
-1.048800 2.249500
-1.029200 2.273900
-1.009600 2.323400
-0.990000 2.348400
-0.970400 2.262800
-0.950900 2.015600
-0.931300 1.651300
-0.911700 1.295300
-0.892100 1.093300
-0.872500 1.162100
-0.853000 1.526000
-0.833400 2.064100
-0.813800 2.555000
-0.794200 2.783300
-0.774600 2.632700
-0.755100 2.173200
-0.735500 1.663000
-0.715900 1.357300
-0.696300 1.285500
-0.676700 1.257300
-0.657200 1.095900
-0.637600 0.831100
-0.618000 0.646600
-0.598400 0.675100
-0.578800 0.890800
-0.559300 1.172600
-0.539700 1.411800
-0.520100 1.544300
-0.500500 1.520900
-0.480900 1.309500
-0.461400 0.951800
-0.441800 0.576100
-0.422200 0.320000
-0.402600 0.251800
-0.383000 0.358300
-0.363500 0.558900
-0.343900 0.727400
-0.324300 0.757200
-0.304700 0.640200
-0.285100 0.461700
-0.265600 0.312900
-0.246000 0.226100
-0.226400 0.183300
-0.206800 0.155400
-0.187200 0.125600
-0.167700 0.091500
-0.148100 0.057900
-0.128500 0.030500
-0.108900 0.012900
-0.089300 0.004300
-0.069800 0.001100
-0.050200 0.000200
-0.030600 0.000000
-0.011000 0.000000
0.008600 0.000000
0.028100 0.000000
0.047700 0.000000
0.067300 0.000000
0.086900 0.000000
0.106500 0.000000
0.126000 0.000000
0.145600 0.000000
0.165200 0.000000
0.184800 0.000000
0.204400 0.000000
0.223900 0.000000
0.243500 0.000000
0.263100 0.000000
0.282700 0.000000
0.302300 0.000000
0.321800 0.000000
0.341400 0.000000
0.361000 0.000000
0.380600 0.000000
0.400200 0.000000
0.419700 0.000000
0.439300 0.000000
0.458900 0.000000
0.478500 0.000000
0.498100 0.000000
0.517600 0.000000
0.537200 0.000000
0.556800 0.000000
0.576400 0.000000
0.596000 0.000000
0.615500 0.000000
0.635100 0.000000
0.654700 0.000000
0.674300 0.000000
0.693900 0.000000
0.713400 0.000000
0.733000 0.000000
0.752600 0.000000
0.772200 0.000000
0.791800 0.000000
0.811300 0.000000
0.830900 0.000000
0.850500 0.000000
0.870100 0.000000
0.889700 0.000000
0.909200 0.000000
0.928800 0.000000
0.948400 0.000000
0.968000 0.000000
0.987600 0.000000
1.007100 0.000000
1.026700 0.000000
1.046300 0.000000
1.065900 0.000000
1.085500 0.000000
1.105000 0.000000
1.124600 0.000000
1.144200 0.000000
1.163800 0.000000
1.183400 0.000000
1.202900 0.000000
1.222500 0.000000
1.242100 0.000000
1.261700 0.000000
1.281300 0.000000
1.300800 0.000000
1.320400 0.000000
1.340000 0.000000
1.359600 0.000200
1.379200 0.000900
1.398700 0.003500
1.418300 0.011000
1.437900 0.027700
1.457500 0.061200
1.477100 0.132900
1.496600 0.294200
1.516200 0.626300
1.535800 1.212900
1.555400 2.104400
1.575000 3.314300
1.594500 4.855400
1.614100 6.747800
1.633700 8.947000
1.653300 11.290600
1.672900 13.544500
1.692400 15.463000
1.712000 16.887800
1.731600 17.952100
1.751200 19.146100
1.770800 20.994800
1.790300 23.517600
1.809900 25.957400
1.829500 27.197700
1.849100 26.632600
1.868700 24.601900
1.888200 21.985300
1.907800 19.559400
1.927400 17.769700
1.947000 16.842800
1.966600 16.900800
1.986100 17.932400
2.005700 19.595200
2.025300 21.028900
2.044900 21.089200
2.064500 19.067100
2.084000 15.316600
2.103600 11.087200
2.123200 7.583100
2.142800 5.183900
2.162400 3.563000
2.181900 2.322300
2.201500 1.339700
2.221100 0.655200
2.240700 0.269600
2.260300 0.106100
2.279800 0.073300
2.299400 0.110200
2.319000 0.189200
2.338600 0.300300
2.358200 0.431000
2.377700 0.561700
2.397300 0.689900
2.416900 0.851900
2.436500 1.098100
2.456100 1.426500
2.475600 1.737800
2.495200 1.893300
2.514800 1.842900
2.534400 1.665000
2.554000 1.477300
2.573500 1.340300
2.593100 1.227600
2.612700 1.082100
2.632300 0.920500
2.651900 0.850400
2.671400 0.956800
2.691000 1.203600
2.710600 1.469800
2.730200 1.658800
2.749800 1.740500
2.769300 1.720400
2.788900 1.627200
2.808500 1.513500
2.828100 1.442800
2.847700 1.474800
2.867300 1.625400
2.886800 1.806700
2.906400 1.865500
2.926000 1.748800
2.945600 1.598100
2.965200 1.606000
2.984700 1.783700
3.004300 1.924000
3.023900 1.826200
3.043500 1.521700
3.063100 1.209200
3.082600 1.016300
3.102200 0.952500
3.121800 1.050600
3.141400 1.390300
3.161000 1.945600
3.180500 2.512400
3.200100 2.836500
3.219700 2.766900
3.239300 2.311400
3.258900 1.646100
3.278400 1.054500
3.298000 0.761800
3.317600 0.810200
3.337200 1.100700
3.356800 1.503900
3.376300 1.892900
3.395900 2.146000
3.415500 2.220400
3.435100 2.193800
3.454700 2.158900
3.474200 2.133400
3.493800 2.124400
3.513400 2.183000
3.533000 2.317400
3.552600 2.429400
3.572100 2.412900
3.591700 2.263800
3.611300 2.056400
3.630900 1.865600
3.650500 1.744900
3.670000 1.723800
3.689600 1.779800
3.709200 1.827900
3.728800 1.771700
3.748400 1.580500
3.767900 1.316500
3.787500 1.089600
3.807100 1.002400
3.826700 1.108400
3.846300 1.369100
3.865800 1.678400
3.885400 1.970400
3.905000 2.250900
3.924600 2.491900
3.944200 2.594600
3.963700 2.520700
3.983300 2.359000
4.002900 2.202100
4.022500 2.049300
4.042100 1.871700
4.061600 1.682200
4.081200 1.504500
4.100800 1.333000
4.120400 1.171200
4.140000 1.069400
4.159500 1.074100
4.179100 1.156500
4.198700 1.221700
4.218300 1.200400
4.237900 1.142500
4.257400 1.205500
4.277000 1.488700
4.296600 1.855000
4.316200 2.012100
4.335800 1.854500
4.355300 1.630100
4.374900 1.672900
4.394500 2.033900
4.414100 2.452100
4.433700 2.683800
4.453200 2.779400
4.472800 2.943800
4.492400 3.196800
4.512000 3.339900
4.531600 3.246600
4.551100 3.008100
4.570700 2.760400
4.590300 2.524600
4.609900 2.277900
4.629500 2.060900
4.649000 1.936000
4.668600 1.909100
4.688200 1.946800
4.707800 2.025200
4.727400 2.134300
4.746900 2.262700
4.766500 2.372200
4.786100 2.384600
4.805700 2.240300
4.825300 1.986100
4.844800 1.780700
4.864400 1.781500
4.884000 1.995100
4.903600 2.253900
4.923200 2.409600
4.942700 2.513800
4.962300 2.694800
4.981900 2.903500
5.001500 2.940000
5.021100 2.720600
5.040600 2.383100
5.060200 2.122100
5.079800 2.044900
5.099400 2.182100
5.119000 2.478400
5.138500 2.742800
5.158100 2.758100
5.177700 2.491300
5.197300 2.115900
5.216900 1.826800
5.236400 1.700700
5.256000 1.724000
5.275600 1.855800
5.295200 2.022100
5.314800 2.135700
5.334300 2.173500
5.353900 2.169300
5.373500 2.113400
5.393100 1.933800
5.412700 1.620200
5.432200 1.320200
5.451800 1.246200
5.471400 1.476900
5.491000 1.873700
5.510600 2.184600
5.530100 2.240000
5.549700 2.078700
5.569300 1.875500
5.588900 1.754000
5.608500 1.716300
5.628000 1.729900
5.647600 1.785700
5.667200 1.846100
5.686800 1.814200
5.706400 1.621700
5.725900 1.329000
5.745500 1.105400
5.765100 1.103200
5.784700 1.336700
5.804300 1.649800
5.823800 1.827200
5.843400 1.800300
5.863000 1.701700
5.882600 1.680900
5.902200 1.750900
5.921700 1.823800
5.941300 1.805500
5.960900 1.666000
5.980500 1.460200
6.000100 1.251300
6.019600 1.045400
6.039200 0.846500
6.058800 0.717400
6.078400 0.721600
6.098000 0.841900
6.117500 0.996800
6.137100 1.112500
6.156700 1.164200
6.176300 1.182800
6.195900 1.229800
6.215400 1.333300
6.235000 1.459500
6.254600 1.573100
6.274200 1.677300
6.293800 1.769700
6.313300 1.829100
6.332900 1.861700
6.352500 1.907300
6.372100 1.989200
6.391700 2.097100
6.411200 2.242600
6.430800 2.482300
6.450400 2.837600
6.470000 3.243200
6.489600 3.617400
6.509100 3.901300
6.528700 3.992200
6.548300 3.753100
6.567900 3.162200
6.587500 2.387000
6.607000 1.655200
6.626600 1.116200
6.646200 0.853300
6.665800 0.899000
6.685400 1.164700
6.704900 1.447100
6.724500 1.591300
6.744100 1.607000
6.763700 1.596400
6.783300 1.635800
6.802800 1.739000
6.822400 1.881300
6.842000 2.037600
6.861600 2.183200
6.881200 2.268100
6.900700 2.239400
6.920300 2.088700
6.939900 1.863600
6.959500 1.638500
6.979100 1.469700
6.998600 1.386000
7.018200 1.407500
7.037800 1.544600
7.057400 1.789300
7.077000 2.120000
7.096500 2.494400
7.116100 2.826700
7.135700 3.015800
7.155300 3.045500
7.174900 3.023500
7.194400 3.067700
7.214000 3.207500
7.233600 3.395400
7.253200 3.512000
7.272800 3.395100
7.292300 2.979800
7.311900 2.399300
7.331500 1.901200
7.351100 1.653600
7.370700 1.629500
7.390200 1.691600
7.409800 1.765300
7.429400 1.874300
7.449000 2.043600
7.468600 2.256000
7.488100 2.469100
7.507700 2.607500
7.527300 2.614900
7.546900 2.574800
7.566500 2.653200
7.586000 2.833000
7.605600 2.843200
7.625200 2.457000
7.644800 1.763200
7.664400 1.069600
