set title 'mp-85 - Density of States'
set xlabel 'Energy (eV)'
set ylabel 'DOS (states/eV)'
set grid
set xrange [-10:10]
set yrange [0:41.143]
set xzeroaxis lt -1
set terminal png size 800,600
set output 'mp-85_dos_gnuplot.png'
plot '-' using 1:2 with lines title 'DOS'
-9.907900 0.000000
-9.885200 0.000000
-9.862500 0.000000
-9.839800 0.000000
-9.817100 0.000000
-9.794400 0.000000
-9.771700 0.000000
-9.749000 0.000000
-9.726300 0.000000
-9.703600 0.000000
-9.680900 0.000000
-9.658200 0.000000
-9.635500 0.000000
-9.612800 0.000000
-9.590100 0.000000
-9.567400 0.000000
-9.544700 0.000000
-9.522000 0.000000
-9.499300 0.000000
-9.476600 0.000000
-9.453900 0.000000
-9.431200 0.000000
-9.408500 0.000000
-9.385800 0.000000
-9.363100 0.000000
-9.340400 0.000000
-9.317700 0.000000
-9.295000 0.000000
-9.272300 0.000000
-9.249600 0.000000
-9.226900 0.000000
-9.204200 0.000000
-9.181500 0.000000
-9.158800 0.000000
-9.136100 0.000000
-9.113400 0.000000
-9.090700 0.000000
-9.068000 0.000000
-9.045300 0.000000
-9.022600 0.000000
-8.999900 0.000000
-8.977200 0.000000
-8.954500 0.000000
-8.931800 0.000000
-8.909100 0.000000
-8.886400 0.000000
-8.863700 0.000000
-8.840900 0.000000
-8.818200 0.000000
-8.795500 0.000000
-8.772800 0.000000
-8.750100 0.000000
-8.727400 0.000000
-8.704700 0.000000
-8.682000 0.000000
-8.659300 0.000000
-8.636600 0.000000
-8.613900 0.000000
-8.591200 0.000000
-8.568500 0.000000
-8.545800 0.000000
-8.523100 0.000000
-8.500400 0.000000
-8.477700 0.000000
-8.455000 0.000000
-8.432300 0.000000
-8.409600 0.000000
-8.386900 0.000000
-8.364200 0.000000
-8.341500 0.000000
-8.318800 0.000000
-8.296100 0.000000
-8.273400 0.000000
-8.250700 0.000000
-8.228000 0.000000
-8.205300 0.000000
-8.182600 0.000000
-8.159900 0.000000
-8.137200 0.000000
-8.114500 0.000000
-8.091800 0.000000
-8.069100 0.000000
-8.046400 0.000000
-8.023700 0.000000
-8.001000 0.000000
-7.978300 0.000000
-7.955600 0.000000
-7.932900 0.000000
-7.910200 0.000000
-7.887500 0.000000
-7.864800 0.000000
-7.842100 0.671000
-7.819400 2.357400
-7.796700 3.805600
-7.774000 5.523700
-7.751300 9.403500
-7.728600 13.894400
-7.705900 23.446700
-7.683200 36.131700
-7.660500 17.498100
-7.637800 37.402300
-7.615100 25.436600
-7.592400 13.341300
-7.569700 13.212600
-7.547000 24.291600
-7.524300 21.878200
-7.501600 19.373700
-7.478900 32.988400
-7.456200 25.845400
-7.433500 26.144600
-7.410800 25.124900
-7.388100 31.921800
-7.365400 15.564900
-7.342700 0.000000
-7.320000 0.000000
-7.297300 0.000000
-7.274600 0.000000
-7.251900 0.000000
-7.229200 0.000000
-7.206500 0.000000
-7.183800 0.000000
-7.161100 0.000000
-7.138400 0.000000
-7.115700 0.000000
-7.093000 0.000000
-7.070300 0.000000
-7.047600 0.000000
-7.024900 0.000000
-7.002200 0.000000
-6.979500 0.000000
-6.956800 0.000000
-6.934100 0.000000
-6.911400 0.000000
-6.888700 0.000000
-6.866000 0.000000
-6.843300 0.000000
-6.820600 0.000000
-6.797900 0.000000
-6.775100 0.000000
-6.752400 0.000000
-6.729700 0.000000
-6.707000 0.000000
-6.684300 0.000000
-6.661600 0.000000
-6.638900 0.000000
-6.616200 0.000000
-6.593500 0.000000
-6.570800 0.000000
-6.548100 0.000000
-6.525400 0.000000
-6.502700 0.000000
-6.480000 0.000000
-6.457300 0.000000
-6.434600 0.000000
-6.411900 0.000000
-6.389200 0.000000
-6.366500 0.000000
-6.343800 0.000000
-6.321100 0.000000
-6.298400 0.000000
-6.275700 0.000000
-6.253000 0.000000
-6.230300 0.000000
-6.207600 0.000000
-6.184900 0.000000
-6.162200 0.000000
-6.139500 0.000000
-6.116800 0.000000
-6.094100 0.000000
-6.071400 0.000000
-6.048700 0.000000
-6.026000 0.000000
-6.003300 0.000000
-5.980600 0.000000
-5.957900 0.000000
-5.935200 0.000000
-5.912500 0.000000
-5.889800 0.000000
-5.867100 0.000000
-5.844400 0.000000
-5.821700 0.000000
-5.799000 0.000000
-5.776300 0.000000
-5.753600 0.000000
-5.730900 0.000000
-5.708200 0.000000
-5.685500 0.000000
-5.662800 0.000000
-5.640100 0.000000
-5.617400 0.000000
-5.594700 0.000000
-5.572000 0.000000
-5.549300 0.000000
-5.526600 0.000000
-5.503900 0.000000
-5.481200 0.000000
-5.458500 0.000000
-5.435800 0.000000
-5.413100 0.000000
-5.390400 0.000000
-5.367700 0.000000
-5.345000 0.000000
-5.322300 0.000000
-5.299600 0.000000
-5.276900 0.000000
-5.254200 0.000000
-5.231500 0.000000
-5.208800 0.000000
-5.186100 0.000000
-5.163400 0.000000
-5.140700 0.000000
-5.118000 0.000000
-5.095300 0.000000
-5.072600 0.000000
-5.049900 0.000000
-5.027200 0.000000
-5.004500 0.000000
-4.981800 0.000000
-4.959100 0.000000
-4.936400 0.000000
-4.913700 0.000000
-4.891000 0.000000
-4.868300 0.000000
-4.845600 0.000000
-4.822900 0.000000
-4.800200 0.000000
-4.777500 0.000000
-4.754800 0.000000
-4.732000 0.000000
-4.709300 0.000000
-4.686600 0.000000
-4.663900 0.000000
-4.641200 0.000000
-4.618500 0.000000
-4.595800 0.000000
-4.573100 0.000000
-4.550400 0.000000
-4.527700 0.000000
-4.505000 0.000000
-4.482300 0.000000
-4.459600 0.000000
-4.436900 0.000000
-4.414200 0.000000
-4.391500 0.000000
-4.368800 0.000000
-4.346100 0.000000
-4.323400 0.000000
-4.300700 0.000000
-4.278000 0.000000
-4.255300 0.000000
-4.232600 0.000000
-4.209900 0.000000
-4.187200 0.000000
-4.164500 0.000000
-4.141800 0.000000
-4.119100 0.000000
-4.096400 0.000000
-4.073700 0.000000
-4.051000 0.000000
-4.028300 0.000000
-4.005600 0.000000
-3.982900 0.000000
-3.960200 0.000000
-3.937500 0.000000
-3.914800 0.000000
-3.892100 0.000000
-3.869400 0.000000
-3.846700 0.000000
-3.824000 0.000000
-3.801300 0.000000
-3.778600 0.000000
-3.755900 0.000000
-3.733200 0.000000
-3.710500 0.000000
-3.687800 0.000000
-3.665100 0.000000
-3.642400 0.000000
-3.619700 0.000000
-3.597000 0.000000
-3.574300 0.000000
-3.551600 0.000000
-3.528900 0.000000
-3.506200 0.000000
-3.483500 0.000000
-3.460800 0.000000
-3.438100 0.000000
-3.415400 0.000000
-3.392700 0.000000
-3.370000 0.000000
-3.347300 0.000000
-3.324600 0.000000
-3.301900 0.000000
-3.279200 0.000000
-3.256500 0.000000
-3.233800 0.000000
-3.211100 0.000000
-3.188400 0.000000
-3.165700 0.000000
-3.143000 0.000000
-3.120300 0.000000
-3.097600 0.000000
-3.074900 0.000000
-3.052200 0.000000
-3.029500 0.000000
-3.006800 0.000000
-2.984100 0.000000
-2.961400 0.000000
-2.938700 0.000000
-2.916000 0.000000
-2.893300 0.000000
-2.870600 0.000000
-2.847900 0.000000
-2.825200 0.000000
-2.802500 0.000000
-2.779800 0.000000
-2.757100 0.000000
-2.734400 0.000000
-2.711700 0.000000
-2.689000 0.000000
-2.666200 0.000000
-2.643500 0.000000
-2.620800 0.000000
-2.598100 0.000000
-2.575400 0.000000
-2.552700 0.000000
-2.530000 0.000000
-2.507300 0.000000
-2.484600 0.000000
-2.461900 0.000000
-2.439200 0.000000
-2.416500 0.000000
-2.393800 0.000000
-2.371100 0.000000
-2.348400 0.000000
-2.325700 0.000000
-2.303000 0.000000
-2.280300 0.000000
-2.257600 0.000000
-2.234900 0.000000
-2.212200 0.000000
-2.189500 0.020200
-2.166800 0.034500
-2.144100 0.042100
-2.121400 0.049100
-2.098700 0.058700
-2.076000 0.061600
-2.053300 0.065300
-2.030600 0.070600
-2.007900 0.076300
-1.985200 0.080400
-1.962500 0.083400
-1.939800 0.086600
-1.917100 0.090300
-1.894400 0.094000
-1.871700 0.098000
-1.849000 0.101500
-1.826300 0.104100
-1.803600 0.106500
-1.780900 0.109200
-1.758200 0.112000
-1.735500 0.114800
-1.712800 0.118000
-1.690100 0.121300
-1.667400 0.123800
-1.644700 0.125700
-1.622000 0.127800
-1.599300 0.130000
-1.576600 0.132300
-1.553900 0.134600
-1.531200 0.137100
-1.508500 0.139600
-1.485800 0.142200
-1.463100 0.144500
-1.440400 0.146300
-1.417700 0.148100
-1.395000 0.150000
-1.372300 0.151900
-1.349600 0.153700
-1.326900 0.155700
-1.304200 0.157800
-1.281500 0.159900
-1.258800 0.162000
-1.236100 0.164200
-1.213400 0.166100
-1.190700 0.167800
-1.168000 0.169300
-1.145300 0.170900
-1.122600 0.172500
-1.099900 0.174100
-1.077200 0.175800
-1.054500 0.177600
-1.031800 0.179400
-1.009100 0.181200
-0.986400 0.183000
-0.963700 0.184900
-0.941000 0.186800
-0.918300 0.188300
-0.895600 0.189600
-0.872900 0.191100
-0.850200 0.192500
-0.827500 0.193900
-0.804800 0.195400
-0.782100 0.197000
-0.759400 0.198600
-0.736700 0.200100
-0.714000 0.201700
-0.691300 0.203300
-0.668600 0.204900
-0.645900 0.206600
-0.623200 0.208300
-0.600400 0.209700
-0.577700 0.210900
-0.555000 0.212200
-0.532300 0.213500
-0.509600 0.214800
-0.486900 0.216100
-0.464200 0.217500
-0.441500 0.218900
-0.418800 0.220300
-0.396100 0.221700
-0.373400 0.223100
-0.350700 0.224600
-0.328000 0.226100
-0.305300 0.227600
-0.282600 0.229100
-0.259900 0.230600
-0.237200 0.231700
-0.214500 0.232900
-0.191800 0.234100
-0.169100 0.235300
-0.146400 0.236500
-0.123700 0.237800
-0.101000 0.239000
-0.078300 0.240300
-0.055600 0.241600
-0.032900 0.242900
-0.010200 0.244200
0.012500 0.245500
0.035200 0.246900
0.057900 0.248200
0.080600 0.249600
0.103300 0.250900
0.126000 0.252300
0.148700 0.253500
0.171400 0.254600
0.194100 0.255800
0.216800 0.256900
0.239500 0.258100
0.262200 0.259200
0.284900 0.260400
0.307600 0.261600
0.330300 0.262800
0.353000 0.264000
0.375700 0.265200
0.398400 0.266400
0.421100 0.267700
0.443800 0.269000
0.466500 0.270200
0.489200 0.271500
0.511900 0.272800
0.534600 0.274100
0.557300 0.275400
0.580000 0.276500
0.602700 0.277600
0.625400 0.278700
0.648100 0.279800
0.670800 0.280900
0.693500 0.282000
0.716200 0.283100
0.738900 0.284300
0.761600 0.285400
0.784300 0.286600
0.807000 0.287800
0.829700 0.289000
0.852400 0.290200
0.875100 0.291400
0.897800 0.292600
0.920500 0.293900
0.943200 0.295100
0.965900 0.296300
0.988600 0.297600
1.011300 0.298900
1.034000 0.300100
1.056700 0.301100
1.079400 0.302200
1.102100 0.303300
1.124800 0.304400
1.147500 0.305600
1.170200 0.306700
1.192900 0.307900
1.215600 0.309000
1.238300 0.310200
1.261000 0.311300
1.283700 0.312500
1.306400 0.313700
1.329100 0.314900
1.351800 0.316100
1.374500 0.317400
1.397200 0.318700
1.419900 0.319900
1.442600 0.321200
1.465400 0.322500
1.488100 0.323800
1.510800 0.325200
1.533500 0.326400
1.556200 0.327500
1.578900 0.328700
1.601600 0.329900
1.624300 0.331100
1.647000 0.332300
1.669700 0.333500
1.692400 0.334800
1.715100 0.336000
1.737800 0.337300
1.760500 0.338600
1.783200 0.340000
1.805900 0.341300
1.828600 0.342700
1.851300 0.344100
1.874000 0.345500
1.896700 0.347000
1.919400 0.348400
1.942100 0.349900
1.964800 0.351500
1.987500 0.353000
2.010200 0.354600
2.032900 0.356100
2.055600 0.357800
2.078300 0.359300
2.101000 0.360800
2.123700 0.362500
2.146400 0.364200
2.169100 0.365900
2.191800 0.367700
2.214500 0.369500
2.237200 0.371400
2.259900 0.373300
2.282600 0.375400
2.305300 0.377500
2.328000 0.379800
2.350700 0.382200
2.373400 0.384700
2.396100 0.387400
2.418800 0.390300
2.441500 0.393300
2.464200 0.396600
2.486900 0.400300
2.509600 0.404300
2.532300 0.410000
2.555000 0.415800
2.577700 0.422000
2.600400 0.429400
2.623100 0.437900
2.645800 0.446100
2.668500 0.453800
2.691200 0.457100
2.713900 0.455900
2.736600 0.449300
2.759300 0.450400
2.782000 0.450100
2.804700 0.443700
2.827400 0.439800
2.850100 0.431900
2.872800 0.431100
2.895500 0.434200
2.918200 0.439000
2.940900 0.431300
2.963600 0.420900
2.986300 0.420100
3.009000 0.420200
3.031700 0.412600
3.054400 0.408400
3.077100 0.407000
3.099800 0.416100
3.122500 0.409400
3.145200 0.407800
3.167900 0.403500
3.190600 0.396200
3.213300 0.393400
3.236000 0.390300
3.258700 0.387000
3.281400 0.383100
3.304100 0.380300
3.326800 0.382500
3.349500 0.384000
3.372200 0.383900
3.394900 0.376200
3.417600 0.373000
3.440300 0.370000
3.463000 0.371800
3.485700 0.363100
3.508500 0.359900
3.531200 0.356700
3.553900 0.353400
3.576600 0.350100
3.599300 0.350100
3.622000 0.348300
3.644700 0.349800
3.667400 0.346200
3.690100 0.344700
3.712800 0.343600
3.735500 0.338400
3.758200 0.334800
3.780900 0.331100
3.803600 0.329200
3.826300 0.327400
3.849000 0.329700
3.871700 0.336800
3.894400 0.341100
3.917100 0.346000
3.939800 0.350700
3.962500 0.355700
3.985200 0.361200
4.007900 0.365000
4.030600 0.366800
4.053300 0.371900
4.076000 0.373700
4.098700 0.375700
4.121400 0.376100
4.144100 0.375400
4.166800 0.375000
4.189500 0.373900
4.212200 0.375400
4.234900 0.381500
4.257600 0.386300
4.280300 0.386300
4.303000 0.382300
4.325700 0.383100
4.348400 0.386700
4.371100 0.387400
4.393800 0.388600
4.416500 0.392600
4.439200 0.397400
4.461900 0.401000
4.484600 0.403500
4.507300 0.404900
4.530000 0.441700
4.552700 0.433300
4.575400 0.431800
4.598100 0.430500
4.620800 0.426800
4.643500 0.431100
4.666200 0.428600
4.688900 0.427500
4.711600 0.427100
4.734300 0.428900
4.757000 0.435900
4.779700 0.433400
4.802400 0.443400
4.825100 0.461800
4.847800 0.424500
4.870500 0.385200
4.893200 0.368000
4.915900 0.351000
4.938600 0.345000
4.961300 0.329400
4.984000 0.320500
5.006700 0.312600
5.029400 0.304700
5.052100 0.308000
5.074800 0.303800
5.097500 0.294700
5.120200 0.283100
5.142900 0.275100
5.165600 0.269300
5.188300 0.270100
5.211000 0.241500
5.233700 0.283000
5.256400 0.285200
5.279100 0.291500
5.301800 0.302500
5.324500 0.305500
5.347200 0.311400
5.369900 0.319500
5.392600 0.329000
5.415300 0.335400
5.438000 0.339100
5.460700 0.343700
5.483400 0.349500
5.506100 0.356700
5.528800 0.362500
5.551500 0.366100
5.574300 0.372400
5.597000 0.379400
5.619700 0.386600
5.642400 0.394100
5.665100 0.401600
5.687800 0.408300
5.710500 0.414500
5.733200 0.422400
5.755900 0.431400
5.778600 0.442500
5.801300 0.455100
5.824000 0.465900
5.846700 0.477600
5.869400 0.491000
5.892100 0.507700
5.914800 0.521800
5.937500 0.534400
5.960200 0.546900
5.982900 0.557700
6.005600 0.569000
6.028300 0.576300
6.051000 0.578600
6.073700 0.577600
6.096400 0.574200
6.119100 0.570000
6.141800 0.565800
6.164500 0.562100
6.187200 0.570000
6.209900 0.567500
6.232600 0.558900
6.255300 0.551000
6.278000 0.549200
6.300700 0.546700
6.323400 0.543800
6.346100 0.540300
6.368800 0.536100
6.391500 0.531300
6.414200 0.525900
6.436900 0.533100
6.459600 0.520800
6.482300 0.518000
6.505000 0.514700
6.527700 0.510900
6.550400 0.506600
6.573100 0.501600
6.595800 0.496200
6.618500 0.490500
6.641200 0.485400
6.663900 0.484400
6.686600 0.494800
6.709300 0.502100
6.732000 0.548000
6.754700 0.440300
6.777400 0.429500
6.800100 0.419400
6.822800 0.413800
6.845500 0.408200
6.868200 0.402800
6.890900 0.397400
6.913600 0.388600
6.936300 0.385700
6.959000 0.433200
6.981700 0.440100
7.004400 0.444300
7.027100 0.456500
7.049800 0.454600
7.072500 0.455800
7.095200 0.458000
7.117900 0.528100
7.140600 0.517500
7.163300 0.519600
7.186000 0.518400
7.208700 0.513200
7.231400 0.506500
7.254100 0.502200
7.276800 0.503000
7.299500 0.504100
7.322200 0.504200
7.344900 0.506000
7.367600 0.507900
7.390300 0.509700
7.413000 0.512000
7.435700 0.514500
7.458400 0.516900
7.481100 0.517100
7.503800 0.516700
7.526500 0.517200
7.549200 0.517100
7.571900 0.515900
7.594600 0.514400
7.617300 0.513000
7.640100 0.511800
7.662800 0.510800
7.685500 0.510200
7.708200 0.510000
7.730900 0.510200
7.753600 0.510200
7.776300 0.510100
7.799000 0.510000
7.821700 0.510000
7.844400 0.509300
7.867100 0.509200
7.889800 0.509300
7.912500 0.509400
7.935200 0.509600
7.957900 0.510300
7.980600 0.511500
8.003300 0.512800
8.026000 0.514100
8.048700 0.515200
8.071400 0.515100
8.094100 0.514300
8.116800 0.512800
8.139500 0.511400
8.162200 0.510300
8.184900 0.509400
8.207600 0.508500
8.230300 0.507600
8.253000 0.506800
8.275700 0.505900
8.298400 0.505000
8.321100 0.504300
8.343800 0.503800
8.366500 0.503300
8.389200 0.502800
8.411900 0.502300
8.434600 0.501900
8.457300 0.501400
8.480000 0.500800
8.502700 0.514800
8.525400 0.517900
8.548100 0.521000
8.570800 0.524300
8.593500 0.524200
8.616200 0.527000
8.638900 0.529900
8.661600 0.532700
8.684300 0.534900
8.707000 0.536000
8.729700 0.537500
8.752400 0.539100
8.775100 0.537900
8.797800 0.539400
8.820500 0.540200
8.843200 0.541200
8.865900 0.542200
8.888600 0.543300
8.911300 0.544400
8.934000 0.546000
8.956700 0.547500
8.979400 0.548900
9.002100 0.550300
9.024800 0.551500
9.047500 0.552900
9.070200 0.553900
9.092900 0.555200
9.115600 0.556700
9.138300 0.558400
9.161000 0.560100
9.183700 0.561800
9.206400 0.563500
9.229100 0.565000
9.251800 0.566500
9.274500 0.567900
9.297200 0.569200
9.319900 0.570300
9.342600 0.571200
9.365300 0.571400
9.388000 0.572100
9.410700 0.572900
9.433400 0.574200
9.456100 0.575400
9.478800 0.576700
9.501500 0.578100
9.524200 0.579500
9.546900 0.580900
9.569600 0.582200
9.592300 0.583700
9.615000 0.585700
9.637700 0.587100
9.660400 0.588500
9.683100 0.589600
9.705900 0.590900
9.728600 0.592200
9.751300 0.593500
9.774000 0.594900
9.796700 0.596200
9.819400 0.597600
9.842100 0.599000
9.864800 0.600900
9.887500 0.603000
9.910200 0.604900
9.932900 0.606700
9.955600 0.608400
9.978300 0.609800
10.001000 0.611300
10.023700 0.612800
10.046400 0.614200
10.069100 0.615800
10.091800 0.617600
10.114500 0.619300
10.137200 0.621400
10.159900 0.623100
10.182600 0.624800
10.205300 0.626500
10.228000 0.628400
10.250700 0.630300
10.273400 0.632300
10.296100 0.634200
10.318800 0.636100
10.341500 0.637900
10.364200 0.639900
10.386900 0.641900
10.409600 0.644200
10.432300 0.646600
10.455000 0.649900
10.477700 0.653000
10.500400 0.656000
10.523100 0.658400
10.545800 0.662000
10.568500 0.665400
10.591200 0.668900
10.613900 0.672400
10.636600 0.676300
10.659300 0.680400
10.682000 0.685100
10.704700 0.689900
10.727400 0.694700
10.750100 0.698900
10.772800 0.708500
10.795500 0.710300
10.818200 0.726300
10.840900 0.741300
10.863600 0.752200
10.886300 0.761100
10.909000 0.764900
10.931700 0.772500
10.954400 0.766700
10.977100 0.760300
10.999800 0.752900
11.022500 0.748100
11.045200 0.745500
11.067900 0.743300
11.090600 0.740500
11.113300 0.738500
11.136000 0.754000
11.158700 0.741300
11.181400 0.734500
11.204100 0.731800
11.226800 0.730300
11.249500 0.728500
11.272200 0.725100
11.294900 0.723300
11.317600 0.721400
11.340300 0.719600
11.363000 0.717700
11.385700 0.716100
11.408400 0.720800
11.431100 0.717900
11.453800 0.711500
11.476500 0.709000
11.499200 0.706300
11.521900 0.702400
11.544600 0.699500
11.567300 0.697000
11.590000 0.694600
11.612700 0.692000
11.635400 0.689300
11.658100 0.686200
11.680800 0.684000
11.703500 0.682100
11.726200 0.684400
11.749000 0.689700
11.771700 0.680500
11.794400 0.675500
11.817100 0.673000
11.839800 0.670600
11.862500 0.668100
11.885200 0.666000
11.907900 0.664400
11.930600 0.663100
11.953300 0.661800
11.976000 0.659300
11.998700 0.656700
12.021400 0.654000
12.044100 0.651200
12.066800 0.648300
12.089500 0.646200
12.112200 0.645400
12.134900 0.645200
12.157600 0.646800
12.180300 0.642800
12.203000 0.638800
12.225700 0.636100
12.248400 0.633500
12.271100 0.631100
12.293800 0.628900
12.316500 0.626500
12.339200 0.623900
12.361900 0.621500
12.384600 0.618700
12.407300 0.616400
12.430000 0.614300
12.452700 0.612000
12.475400 0.609300
12.498100 0.606900
12.520800 0.604300
12.543500 0.602100
12.566200 0.601200
12.588900 0.600800
12.611600 0.600900
12.634300 0.601400
12.657000 0.598800
12.679700 0.594700
12.702400 0.591200
12.725100 0.588100
12.747800 0.585100
12.770500 0.582400
12.793200 0.579800
12.815900 0.577200
12.838600 0.575100
12.861300 0.572900
12.884000 0.571900
12.906700 0.570800
12.929400 0.569300
12.952100 0.567300
12.974800 0.564900
12.997500 0.562400
13.020200 0.560000
13.042900 0.557400
13.065600 0.554700
13.088300 0.552500
13.111000 0.550800
13.133700 0.549600
13.156400 0.548800
13.179100 0.548300
13.201800 0.545400
13.224500 0.541400
13.247200 0.539200
13.269900 0.537300
13.292600 0.535500
13.315300 0.533900
13.338000 0.532000
13.360700 0.529800
13.383400 0.527300
13.406100 0.524900
13.428800 0.522400
13.451500 0.519800
13.474200 0.517200
13.496900 0.514600
13.519600 0.512100
13.542300 0.509600
13.565000 0.507100
13.587700 0.504700
13.610400 0.502200
13.633100 0.499700
13.655800 0.497700
13.678500 0.496400
13.701200 0.495500
13.723900 0.494900
13.746600 0.494600
13.769300 0.494600
13.792000 0.494900
13.814800 0.489400
13.837500 0.486600
13.860200 0.483900
13.882900 0.481400
13.905600 0.479100
13.928300 0.476800
13.951000 0.474500
13.973700 0.472500
13.996400 0.470200
14.019100 0.467900
14.041800 0.465400
14.064500 0.463500
14.087200 0.461800
14.109900 0.459600
14.132600 0.476700
