set title 'mp-12105 - Density of States'
set xlabel 'Energy (eV)'
set ylabel 'DOS (states/eV)'
set grid
set xrange [-10:10]
set yrange [0:9.295]
set xzeroaxis lt -1
set terminal png size 800,600
set output 'mp-12105_dos_gnuplot.png'
plot '-' using 1:2 with lines title 'DOS'
-30.050300 0.000000
-30.002800 0.000000
-29.955200 0.000000
-29.907600 0.000000
-29.860100 0.000000
-29.812500 0.000000
-29.764900 0.000000
-29.717400 0.000000
-29.669800 0.000000
-29.622200 0.000000
-29.574700 0.000000
-29.527100 0.000000
-29.479500 0.000000
-29.432000 0.000000
-29.384400 0.000000
-29.336800 0.000000
-29.289300 0.000000
-29.241700 0.000000
-29.194100 0.000000
-29.146600 0.000000
-29.099000 0.000000
-29.051400 0.000000
-29.003900 0.000000
-28.956300 0.000000
-28.908700 0.000000
-28.861200 0.000000
-28.813600 0.000000
-28.766000 0.000000
-28.718500 0.000000
-28.670900 0.000000
-28.623300 0.000000
-28.575800 0.000000
-28.528200 0.000000
-28.480600 0.000000
-28.433100 0.000000
-28.385500 0.000000
-28.337900 0.000000
-28.290400 0.000000
-28.242800 0.000000
-28.195200 0.000000
-28.147700 0.000000
-28.100100 0.000000
-28.052500 0.000000
-28.005000 0.000000
-27.957400 0.000000
-27.909800 0.000000
-27.862300 0.000000
-27.814700 0.000000
-27.767100 0.000000
-27.719600 0.000000
-27.672000 0.000000
-27.624400 0.000000
-27.576900 0.000000
-27.529300 0.000000
-27.481700 0.000000
-27.434200 0.000000
-27.386600 0.000000
-27.339000 0.000000
-27.291500 0.000000
-27.243900 0.000000
-27.196300 0.000000
-27.148800 0.000000
-27.101200 0.000000
-27.053600 0.000000
-27.006100 0.000000
-26.958500 0.000000
-26.910900 0.000000
-26.863400 0.000000
-26.815800 0.000000
-26.768200 0.000000
-26.720700 0.000000
-26.673100 0.000000
-26.625500 0.000000
-26.578000 0.000000
-26.530400 0.000000
-26.482800 0.000000
-26.435300 0.000000
-26.387700 0.000000
-26.340100 0.000000
-26.292600 0.000000
-26.245000 0.000000
-26.197400 0.000000
-26.149900 0.000000
-26.102300 0.000000
-26.054700 0.000000
-26.007200 0.000000
-25.959600 0.000000
-25.912000 0.000000
-25.864500 0.000000
-25.816900 0.002400
-25.769300 0.109600
-25.721800 1.470200
-25.674200 6.621400
-25.626600 9.164900
-25.579100 3.361200
-25.531500 0.288200
-25.483900 0.005200
-25.436400 0.000000
-25.388800 0.000000
-25.341200 0.000000
-25.293700 0.000000
-25.246100 0.000000
-25.198500 0.000000
-25.151000 0.000000
-25.103400 0.000000
-25.055800 0.000000
-25.008300 0.000000
-24.960700 0.000000
-24.913100 0.000000
-24.865600 0.000000
-24.818000 0.000000
-24.770400 0.000000
-24.722900 0.000000
-24.675300 0.000000
-24.627700 0.000000
-24.580200 0.000000
-24.532600 0.000000
-24.485000 0.000000
-24.437500 0.000000
-24.389900 0.000000
-24.342300 0.000000
-24.294800 0.000000
-24.247200 0.000000
-24.199600 0.000000
-24.152100 0.000000
-24.104500 0.000000
-24.056900 0.000000
-24.009400 0.000000
-23.961800 0.000000
-23.914200 0.000000
-23.866700 0.000000
-23.819100 0.000000
-23.771500 0.000000
-23.724000 0.000000
-23.676400 0.000000
-23.628800 0.000000
-23.581300 0.000000
-23.533700 0.000000
-23.486100 0.000000
-23.438600 0.000000
-23.391000 0.000000
-23.343400 0.000100
-23.295900 0.019300
-23.248300 0.728400
-23.200700 5.688100
-23.153200 9.965400
-23.105600 4.176200
-23.058000 0.434200
-23.010500 0.011300
-22.962900 0.000100
-22.915300 0.000000
-22.867800 0.000000
-22.820200 0.000000
-22.772600 0.000000
-22.725100 0.000000
-22.677500 0.000000
-22.629900 0.000000
-22.582400 0.000000
-22.534800 0.000000
-22.487200 0.000000
-22.439700 0.000000
-22.392100 0.000000
-22.344500 0.000000
-22.297000 0.000000
-22.249400 0.000000
-22.201800 0.000000
-22.154300 0.000000
-22.106700 0.000000
-22.059100 0.000000
-22.011600 0.000000
-21.964000 0.000000
-21.916400 0.000000
-21.868900 0.000000
-21.821300 0.000000
-21.773700 0.000000
-21.726200 0.000000
-21.678600 0.000000
-21.631000 0.000000
-21.583500 0.000000
-21.535900 0.000000
-21.488300 0.000000
-21.440800 0.000000
-21.393200 0.000000
-21.345600 0.000000
-21.298100 0.000000
-21.250500 0.000000
-21.202900 0.000000
-21.155400 0.000000
-21.107800 0.000000
-21.060200 0.000000
-21.012700 0.000000
-20.965100 0.000000
-20.917500 0.000000
-20.870000 0.000000
-20.822400 0.000000
-20.774800 0.000000
-20.727300 0.000000
-20.679700 0.000000
-20.632100 0.000000
-20.584600 0.000000
-20.537000 0.000000
-20.489400 0.000000
-20.441900 0.000000
-20.394300 0.000000
-20.346700 0.000000
-20.299200 0.000000
-20.251600 0.000000
-20.204000 0.000000
-20.156500 0.000000
-20.108900 0.000000
-20.061300 0.000000
-20.013800 0.000000
-19.966200 0.000000
-19.918600 0.000000
-19.871100 0.000000
-19.823500 0.000000
-19.775900 0.000000
-19.728400 0.000000
-19.680800 0.000000
-19.633200 0.000000
-19.585700 0.000000
-19.538100 0.000000
-19.490500 0.000000
-19.443000 0.000000
-19.395400 0.000000
-19.347800 0.000000
-19.300300 0.000000
-19.252700 0.000000
-19.205100 0.000000
-19.157600 0.000000
-19.110000 0.000000
-19.062400 0.000000
-19.014900 0.000000
-18.967300 0.000000
-18.919700 0.000000
-18.872200 0.000000
-18.824600 0.000000
-18.777000 0.000000
-18.729500 0.000000
-18.681900 0.000000
-18.634300 0.000000
-18.586800 0.000000
-18.539200 0.000000
-18.491600 0.000000
-18.444100 0.000000
-18.396500 0.000000
-18.348900 0.000000
-18.301400 0.000000
-18.253800 0.000000
-18.206200 0.000000
-18.158700 0.000000
-18.111100 0.000000
-18.063500 0.000000
-18.016000 0.000000
-17.968400 0.000000
-17.920800 0.000000
-17.873300 0.000000
-17.825700 0.000000
-17.778100 0.000000
-17.730600 0.000000
-17.683000 0.000000
-17.635400 0.000000
-17.587900 0.000000
-17.540300 0.000000
-17.492700 0.000000
-17.445200 0.000000
-17.397600 0.000000
-17.350000 0.000000
-17.302500 0.000000
-17.254900 0.000000
-17.207300 0.000000
-17.159800 0.000000
-17.112200 0.000000
-17.064600 0.000000
-17.017100 0.000000
-16.969500 0.000000
-16.921900 0.000000
-16.874400 0.000000
-16.826800 0.000000
-16.779200 0.000000
-16.731700 0.000000
-16.684100 0.000000
-16.636500 0.000000
-16.589000 0.000000
-16.541400 0.000000
-16.493800 0.000000
-16.446300 0.000000
-16.398700 0.000000
-16.351100 0.000000
-16.303600 0.000000
-16.256000 0.000000
-16.208400 0.000000
-16.160900 0.000000
-16.113300 0.000000
-16.065700 0.000000
-16.018200 0.000000
-15.970600 0.000000
-15.923000 0.000000
-15.875500 0.000000
-15.827900 0.000000
-15.780300 0.000000
-15.732800 0.000000
-15.685200 0.000000
-15.637600 0.000000
-15.590100 0.000000
-15.542500 0.000000
-15.494900 0.000000
-15.447400 0.000000
-15.399800 0.000000
-15.352200 0.000000
-15.304700 0.000000
-15.257100 0.000000
-15.209500 0.000000
-15.162000 0.000000
-15.114400 0.000000
-15.066800 0.000000
-15.019300 0.000000
-14.971700 0.000000
-14.924100 0.000000
-14.876600 0.000000
-14.829000 0.000000
-14.781400 0.000100
-14.733900 0.007400
-14.686300 0.100100
-14.638700 0.452600
-14.591200 1.042800
-14.543600 1.922600
-14.496000 3.691300
-14.448500 6.200700
-14.400900 5.515300
-14.353300 1.868000
-14.305800 0.214700
-14.258200 0.007400
-14.210600 0.000100
-14.163100 0.000000
-14.115500 0.000000
-14.067900 0.000000
-14.020400 0.000000
-13.972800 0.000000
-13.925200 0.000000
-13.877700 0.000000
-13.830100 0.000000
-13.782500 0.000000
-13.735000 0.000000
-13.687400 0.000000
-13.639800 0.000000
-13.592300 0.000000
-13.544700 0.000000
-13.497100 0.000000
-13.449600 0.000000
-13.402000 0.000000
-13.354400 0.000000
-13.306900 0.000000
-13.259300 0.000000
-13.211700 0.000000
-13.164200 0.000000
-13.116600 0.000000
-13.069000 0.000000
-13.021500 0.000000
-12.973900 0.000000
-12.926300 0.000000
-12.878800 0.000000
-12.831200 0.000000
-12.783600 0.000000
-12.736100 0.000000
-12.688500 0.000000
-12.640900 0.000000
-12.593400 0.000000
-12.545800 0.000000
-12.498200 0.000000
-12.450700 0.000000
-12.403100 0.000000
-12.355500 0.000000
-12.308000 0.000000
-12.260400 0.000000
-12.212800 0.000000
-12.165300 0.000000
-12.117700 0.000000
-12.070100 0.000000
-12.022600 0.000000
-11.975000 0.000000
-11.927400 0.000000
-11.879900 0.000000
-11.832300 0.000000
-11.784700 0.000000
-11.737200 0.000000
-11.689600 0.000000
-11.642000 0.000000
-11.594500 0.000000
-11.546900 0.000000
-11.499300 0.000000
-11.451800 0.000000
-11.404200 0.000000
-11.356600 0.000000
-11.309100 0.000000
-11.261500 0.000000
-11.213900 0.000000
-11.166400 0.000000
-11.118800 0.000000
-11.071200 0.000000
-11.023700 0.000000
-10.976100 0.000000
-10.928500 0.000000
-10.881000 0.000000
-10.833400 0.000000
-10.785800 0.000000
-10.738300 0.000000
-10.690700 0.000000
-10.643100 0.000000
-10.595600 0.000000
-10.548000 0.000000
-10.500400 0.000000
-10.452900 0.000000
-10.405300 0.000000
-10.357700 0.000200
-10.310200 0.009000
-10.262600 0.113500
-10.215000 0.480500
-10.167500 1.044500
-10.119900 1.753500
-10.072300 2.957800
-10.024800 4.681200
-9.977200 5.934300
-9.929600 6.640300
-9.882100 7.009100
-9.834500 7.698100
-9.786900 8.450000
-9.739400 8.406000
-9.691800 5.777800
-9.644200 1.887400
-9.596700 0.219200
-9.549100 0.007100
-9.501500 0.000100
-9.454000 0.000000
-9.406400 0.000000
-9.358800 0.000000
-9.311300 0.000000
-9.263700 0.000000
-9.216100 0.000000
-9.168600 0.000000
-9.121000 0.000000
-9.073400 0.000000
-9.025900 0.000000
-8.978300 0.000000
-8.930700 0.000000
-8.883200 0.000000
-8.835600 0.000000
-8.788000 0.000000
-8.740500 0.000000
-8.692900 0.000000
-8.645300 0.000000
-8.597800 0.000000
-8.550200 0.000000
-8.502600 0.000000
-8.455100 0.000000
-8.407500 0.000000
-8.359900 0.000000
-8.312400 0.000000
-8.264800 0.000000
-8.217200 0.000000
-8.169700 0.000000
-8.122100 0.000000
-8.074500 0.000000
-8.027000 0.000000
-7.979400 0.000000
-7.931800 0.000000
-7.884300 0.000000
-7.836700 0.000000
-7.789100 0.000000
-7.741600 0.000000
-7.694000 0.000000
-7.646400 0.000000
-7.598900 0.000000
-7.551300 0.000000
-7.503700 0.000000
-7.456200 0.000000
-7.408600 0.000000
-7.361000 0.000000
-7.313500 0.000000
-7.265900 0.000000
-7.218300 0.000000
-7.170800 0.000000
-7.123200 0.000000
-7.075600 0.000000
-7.028100 0.000000
-6.980500 0.000000
-6.932900 0.000000
-6.885400 0.000000
-6.837800 0.000000
-6.790200 0.000000
-6.742700 0.000000
-6.695100 0.000300
-6.647500 0.009000
-6.600000 0.075300
-6.552400 0.232300
-6.504800 0.397100
-6.457300 0.577400
-6.409700 0.802600
-6.362100 1.172100
-6.314600 1.626500
-6.267000 1.845200
-6.219400 2.030600
-6.171900 2.152100
-6.124300 2.140100
-6.076700 2.520800
-6.029200 3.053600
-5.981600 1.982600
-5.934000 0.387800
-5.886500 0.017700
-5.838900 0.000200
-5.791300 0.000000
-5.743800 0.000000
-5.696200 0.001600
-5.648600 0.046700
-5.601100 0.449100
-5.553500 1.742200
-5.505900 3.625700
-5.458400 4.392800
-5.410800 4.080900
-5.363200 3.791600
-5.315700 3.700700
-5.268100 3.701200
-5.220500 4.447900
-5.173000 5.444200
-5.125400 4.526600
-5.077800 1.771100
-5.030300 0.303900
-4.982700 0.019700
-4.935100 0.000400
-4.887600 0.000000
-4.840000 0.000000
-4.792400 0.000000
-4.744900 0.000000
-4.697300 0.000000
-4.649700 0.000000
-4.602200 0.000000
-4.554600 0.000000
-4.507000 0.000000
-4.459500 0.000000
-4.411900 0.000000
-4.364300 0.000000
-4.316800 0.000000
-4.269200 0.000000
-4.221600 0.000000
-4.174100 0.000000
-4.126500 0.000000
-4.078900 0.000000
-4.031400 0.000000
-3.983800 0.000000
-3.936200 0.000000
-3.888700 0.000000
-3.841100 0.000000
-3.793500 0.000000
-3.746000 0.000000
-3.698400 0.000000
-3.650800 0.000000
-3.603300 0.000000
-3.555700 0.000000
-3.508100 0.000000
-3.460600 0.000000
-3.413000 0.000000
-3.365400 0.000000
-3.317900 0.000000
-3.270300 0.000000
-3.222700 0.000000
-3.175200 0.000000
-3.127600 0.000000
-3.080000 0.000000
-3.032500 0.000000
-2.984900 0.000000
-2.937300 0.000000
-2.889800 0.000000
-2.842200 0.000000
-2.794600 0.000000
-2.747100 0.000000
-2.699500 0.000000
-2.651900 0.000000
-2.604400 0.000000
-2.556800 0.000000
-2.509200 0.000000
-2.461700 0.000000
-2.414100 0.000000
-2.366500 0.000000
-2.319000 0.000000
-2.271400 0.000000
-2.223800 0.000000
-2.176300 0.000000
-2.128700 0.000000
-2.081100 0.000000
-2.033600 0.000000
-1.986000 0.000000
-1.938400 0.000000
-1.890900 0.000000
-1.843300 0.000000
-1.795700 0.000000
-1.748200 0.000000
-1.700600 0.000000
-1.653000 0.000000
-1.605500 0.000000
-1.557900 0.000000
-1.510300 0.000000
-1.462800 0.000000
-1.415200 0.000000
-1.367600 0.000000
-1.320100 0.000000
-1.272500 0.000900
-1.224900 0.020900
-1.177400 0.118400
-1.129800 0.290500
-1.082200 0.479200
-1.034700 0.582400
-0.987100 0.791800
-0.939500 0.994900
-0.892000 1.153400
-0.844400 1.508600
-0.796800 2.014800
-0.749300 2.343900
-0.701700 2.707900
-0.654100 3.274400
-0.606600 3.713200
-0.559000 4.511400
-0.511400 5.171300
-0.463900 4.726200
-0.416300 3.875100
-0.368700 2.640900
-0.321200 0.981600
-0.273600 0.138900
-0.226000 0.005700
-0.178500 0.000100
-0.130900 0.000000
-0.083300 0.000000
-0.035800 0.000000
0.011800 0.000000
0.059400 0.000000
0.106900 0.000000
0.154500 0.000000
0.202100 0.000000
0.249600 0.000000
0.297200 0.000000
0.344800 0.000000
0.392300 0.000000
0.439900 0.000000
0.487500 0.000000
0.535000 0.000000
0.582600 0.000000
0.630200 0.000000
0.677700 0.000000
0.725300 0.000000
0.772900 0.000000
0.820400 0.000000
0.868000 0.000000
0.915600 0.000000
0.963100 0.000000
1.010700 0.000000
1.058300 0.000000
1.105800 0.000000
1.153400 0.000000
1.201000 0.000000
1.248500 0.000000
1.296100 0.000000
1.343700 0.000000
1.391200 0.000000
1.438800 0.000000
1.486400 0.000000
1.533900 0.000000
1.581500 0.000000
1.629100 0.000000
1.676600 0.000000
1.724200 0.000000
1.771800 0.000000
1.819300 0.000000
1.866900 0.000000
1.914500 0.000000
1.962000 0.000000
2.009600 0.000000
2.057200 0.000000
2.104700 0.000000
2.152300 0.000000
2.199900 0.000000
2.247400 0.000000
2.295000 0.000000
2.342600 0.000000
2.390100 0.000000
2.437700 0.000000
2.485300 0.000000
2.532800 0.000000
2.580400 0.000000
2.628000 0.000000
2.675500 0.000000
2.723100 0.000000
2.770700 0.000000
2.818200 0.000000
2.865800 0.000000
2.913400 0.000000
2.960900 0.000000
3.008500 0.000000
3.056100 0.000000
3.103600 0.000000
3.151200 0.000000
3.198800 0.000000
3.246300 0.000000
3.293900 0.000000
3.341500 0.000000
3.389000 0.000000
3.436600 0.000000
3.484200 0.000000
3.531700 0.000000
3.579300 0.000000
3.626900 0.000000
3.674400 0.000000
3.722000 0.000000
3.769600 0.000000
3.817100 0.000000
3.864700 0.000000
3.912300 0.000000
3.959800 0.000600
4.007400 0.008400
4.055000 0.026800
4.102500 0.054800
4.150100 0.126200
4.197700 0.131300
4.245200 0.178900
4.292800 0.152700
4.340400 0.073000
4.387900 0.139900
4.435500 0.286800
4.483100 0.350500
4.530600 0.288600
4.578200 0.252600
4.625800 0.271800
4.673300 0.313200
4.720900 0.485800
4.768500 0.652900
4.816000 0.625300
4.863600 0.685500
4.911200 0.873400
4.958700 0.863200
5.006300 0.600300
5.053900 0.551200
5.101400 0.578900
5.149000 0.764400
5.196600 1.075400
5.244100 1.029900
5.291700 0.580700
5.339300 0.571900
5.386800 0.767700
5.434400 0.783200
5.482000 0.927600
5.529500 0.921000
5.577100 0.810500
5.624700 0.745900
5.672200 0.703500
5.719800 0.647300
5.767400 0.537600
5.814900 0.493000
5.862500 0.546500
5.910100 0.575800
5.957600 0.565100
6.005200 0.529700
6.052800 0.487500
6.100300 0.675000
6.147900 0.822700
6.195500 0.796000
6.243000 0.836800
6.290600 0.910400
6.338200 0.964300
6.385700 0.979300
6.433300 1.172000
6.480900 1.487800
6.528400 1.420200
6.576000 1.615000
6.623600 2.091100
6.671100 1.702700
6.718700 1.113500
6.766300 1.000900
6.813800 0.965000
6.861400 1.390600
6.909000 1.462500
6.956500 1.397100
7.004100 1.586600
7.051700 1.635100
7.099200 1.674400
7.146800 1.676100
7.194400 1.799200
7.241900 1.954600
7.289500 1.821500
7.337100 1.227200
7.384600 1.103900
7.432200 1.087700
7.479800 0.762500
7.527300 0.519600
7.574900 0.371500
7.622500 0.212100
7.670000 0.303700
7.717600 0.297700
7.765200 0.217300
7.812700 0.440900
7.860300 0.715600
7.907900 0.667200
7.955400 0.758900
8.003000 1.003900
8.050600 1.277500
8.098100 1.835000
8.145700 2.175200
8.193300 1.972100
8.240800 1.208900
8.288400 0.884400
8.336000 1.369700
8.383500 1.647500
8.431100 1.480300
8.478700 1.173500
8.526200 1.038600
8.573800 0.906200
8.621400 1.037900
8.668900 1.389600
8.716500 1.526400
8.764100 1.538000
8.811600 1.659100
8.859200 1.562400
8.906800 1.077500
8.954300 0.863300
9.001900 0.938500
9.049500 1.061600
9.097000 1.005900
9.144600 0.809700
9.192200 0.813800
9.239700 0.924300
9.287300 1.074400
9.334900 1.440600
9.382400 1.524000
9.430000 1.184600
9.477600 1.052800
9.525100 1.187900
9.572700 1.273600
9.620300 1.454800
9.667800 1.726500
9.715400 1.763900
9.763000 1.757300
9.810500 1.884800
9.858100 1.780500
9.905700 1.923300
9.953200 2.258800
10.000800 1.888100
10.048400 1.645200
10.095900 1.848800
10.143500 1.819600
10.191100 1.648700
10.238600 1.336000
10.286200 0.943000
10.333800 0.745500
10.381300 0.676800
10.428900 0.810900
10.476500 1.073900
10.524000 0.850900
10.571600 0.574500
10.619200 0.629900
10.666700 0.827200
10.714300 0.828400
10.761900 0.641600
10.809400 0.626400
10.857000 0.639800
10.904600 0.548400
10.952100 0.581200
10.999700 0.699400
11.047300 0.861900
11.094800 0.997500
11.142400 0.907000
11.190000 1.054200
11.237500 0.972800
11.285100 0.811700
11.332700 0.784200
11.380200 0.913300
11.427800 1.085100
11.475400 1.150900
11.522900 1.235300
11.570500 1.096200
11.618100 0.721200
11.665600 0.513500
11.713200 0.738800
11.760800 0.699600
11.808300 0.454400
11.855900 0.504800
11.903500 0.384600
11.951000 0.338400
11.998600 0.458900
12.046200 0.525000
12.093700 0.432300
12.141300 0.571000
12.188900 0.634100
12.236400 0.405000
12.284000 0.471300
12.331600 0.723300
12.379100 0.625500
12.426700 0.415800
12.474300 0.297200
12.521800 0.259100
12.569400 0.334400
12.617000 0.562000
12.664500 0.894200
12.712100 1.098700
12.759700 1.310100
12.807200 1.385600
12.854800 1.187700
12.902400 0.972300
12.949900 0.994400
12.997500 1.070700
13.045100 1.250500
13.092600 1.165500
13.140200 1.017300
13.187800 1.098900
13.235300 1.225400
13.282900 1.279300
13.330500 1.131500
13.378000 0.949500
13.425600 0.857600
13.473200 0.988300
13.520700 1.060100
13.568300 0.880500
13.615900 0.928600
13.663400 1.086000
13.711000 0.907500
13.758600 0.791400
13.806100 0.667200
13.853700 0.704800
13.901300 0.826400
13.948800 1.114600
13.996400 1.384100
14.044000 1.154100
14.091500 0.597200
14.139100 0.376500
14.186700 0.488300
14.234200 0.432500
14.281800 0.385600
14.329400 0.473300
14.376900 0.434000
14.424500 0.367400
14.472100 0.367300
14.519600 0.311800
14.567200 0.300400
14.614800 0.258500
14.662300 0.158500
14.709900 0.108600
14.757500 0.129700
14.805000 0.268800
14.852600 0.512000
14.900200 0.515100
14.947700 0.405500
14.995300 0.454600
15.042900 0.400100
15.090400 0.395600
15.138000 0.529600
15.185600 0.763400
15.233100 0.814600
15.280700 0.681900
15.328300 0.661200
15.375800 0.693300
15.423400 0.667700
15.471000 0.631000
15.518500 0.611500
15.566100 0.612600
15.613700 0.765900
15.661200 1.021400
15.708800 0.815000
15.756400 0.555900
15.803900 0.471400
15.851500 0.705700
15.899100 0.981100
15.946600 0.823400
15.994200 0.609300
16.041800 0.596600
16.089300 0.615200
16.136900 0.647800
16.184500 0.802300
16.232000 0.783200
16.279600 0.628200
16.327200 0.565000
16.374700 0.538600
16.422300 0.672100
16.469900 0.929800
16.517400 0.877800
16.565000 0.942000
16.612600 0.950900
16.660100 0.807200
16.707700 0.841400
16.755300 0.694100
16.802800 0.616200
16.850400 0.743200
16.898000 0.825100
16.945500 0.989500
16.993100 1.342900
17.040700 1.361400
17.088200 0.887700
17.135800 0.801100
17.183400 1.025900
17.230900 1.359400
17.278500 1.450700
17.326100 1.130400
17.373600 1.177400
17.421200 1.023100
17.468800 0.879700
17.516300 0.685900
17.563900 0.601600
17.611500 0.946600
17.659000 1.346800
17.706600 1.141900
17.754200 0.876300
17.801700 0.913300
17.849300 1.018700
17.896900 0.759600
17.944400 0.844500
17.992000 0.760800
18.039600 0.796500
18.087100 1.296900
18.134700 1.177600
18.182300 0.796400
18.229800 0.697200
18.277400 0.583500
18.325000 0.647700
18.372500 0.760000
18.420100 0.720300
18.467700 0.695300
18.515200 0.633900
18.562800 0.646500
18.610400 0.586100
18.657900 0.634400
18.705500 0.735000
18.753100 0.860900
