set title 'mp-1056059 - Density of States'
set xlabel 'Energy (eV)'
set ylabel 'DOS (states/eV)'
set grid
set xrange [-10:10]
set yrange [0:0.457]
set xzeroaxis lt -1
set terminal png size 800,600
set output 'mp-1056059_dos_gnuplot.png'
plot '-' using 1:2 with lines title 'DOS'
-29.615200 0.000000
-29.535500 0.000000
-29.455900 0.000000
-29.376200 0.000000
-29.296600 0.000000
-29.216900 0.000000
-29.137300 0.000000
-29.057600 0.000000
-28.978000 0.000000
-28.898400 0.000000
-28.818700 0.000000
-28.739100 0.000000
-28.659400 0.000000
-28.579800 0.000000
-28.500100 0.000000
-28.420500 0.000000
-28.340900 0.000000
-28.261200 0.000000
-28.181600 0.000000
-28.101900 0.000000
-28.022300 0.000000
-27.942600 0.000000
-27.863000 0.000000
-27.783400 0.000000
-27.703700 0.000000
-27.624100 0.000000
-27.544400 0.000000
-27.464800 0.000000
-27.385100 0.000000
-27.305500 0.000000
-27.225800 0.000000
-27.146200 0.000000
-27.066600 0.000000
-26.986900 0.000000
-26.907300 0.000000
-26.827600 0.000000
-26.748000 0.000000
-26.668300 0.000000
-26.588700 0.000000
-26.509100 0.000000
-26.429400 0.000000
-26.349800 0.000000
-26.270100 0.000000
-26.190500 0.000000
-26.110800 0.000000
-26.031200 0.000000
-25.951600 0.000000
-25.871900 0.000000
-25.792300 0.000000
-25.712600 0.000000
-25.633000 0.000000
-25.553300 0.000000
-25.473700 0.000000
-25.394000 0.000000
-25.314400 0.000000
-25.234800 0.000000
-25.155100 0.000000
-25.075500 0.000000
-24.995800 0.000000
-24.916200 0.000000
-24.836500 0.000000
-24.756900 0.000000
-24.677300 0.000000
-24.597600 0.000000
-24.518000 0.000000
-24.438300 0.000000
-24.358700 0.000000
-24.279000 0.000000
-24.199400 0.000000
-24.119800 0.000000
-24.040100 0.000000
-23.960500 0.000000
-23.880800 0.000000
-23.801200 0.000000
-23.721500 0.000000
-23.641900 0.000000
-23.562200 0.000000
-23.482600 0.000000
-23.403000 0.000000
-23.323300 0.000000
-23.243700 0.000000
-23.164000 0.000000
-23.084400 0.000000
-23.004700 0.000000
-22.925100 0.000000
-22.845500 0.000000
-22.765800 0.000000
-22.686200 0.000000
-22.606500 0.000000
-22.526900 0.000000
-22.447200 0.000000
-22.367600 0.001200
-22.288000 0.040800
-22.208300 0.068300
-22.128700 0.095300
-22.049000 0.096100
-21.969400 0.095300
-21.889700 0.096100
-21.810100 0.096700
-21.730500 0.095200
-21.650800 0.097500
-21.571200 0.097700
-21.491500 0.097500
-21.411900 0.096200
-21.332200 0.097300
-21.252600 0.099000
-21.172900 0.099000
-21.093300 0.098700
-21.013700 0.097900
-20.934000 0.098400
-20.854400 0.099400
-20.774700 0.100700
-20.695100 0.100800
-20.615400 0.100600
-20.535800 0.100100
-20.456200 0.100400
-20.376500 0.101200
-20.296900 0.102100
-20.217200 0.103100
-20.137600 0.103200
-20.057900 0.103000
-19.978300 0.103000
-19.898700 0.103500
-19.819000 0.104100
-19.739400 0.104900
-19.659700 0.105700
-19.580100 0.106400
-19.500400 0.106700
-19.420800 0.106800
-19.341100 0.107300
-19.261500 0.107900
-19.181900 0.108600
-19.102200 0.109400
-19.022600 0.110300
-18.942900 0.111200
-18.863300 0.111900
-18.783600 0.112600
-18.704000 0.113400
-18.624400 0.114300
-18.544700 0.115200
-18.465100 0.116200
-18.385400 0.117100
-18.305800 0.118100
-18.226100 0.119700
-18.146500 0.121500
-18.066900 0.123100
-17.987200 0.124600
-17.907600 0.126000
-17.827900 0.127400
-17.748300 0.128800
-17.668600 0.130500
-17.589000 0.134300
-17.509300 0.139000
-17.429700 0.142400
-17.350100 0.145400
-17.270400 0.148200
-17.190800 0.150800
-17.111100 0.160600
-17.031500 0.176200
-16.951800 0.188300
-16.872200 0.221900
-16.792600 0.231700
-16.712900 0.197300
-16.633300 0.174700
-16.553600 0.159400
-16.474000 0.148400
-16.394300 0.137700
-16.314700 0.132600
-16.235100 0.127500
-16.155400 0.120700
-16.075800 0.115700
-15.996100 0.112100
-15.916500 0.108500
-15.836800 0.104000
-15.757200 0.099800
-15.677500 0.097600
-15.597900 0.095200
-15.518300 0.092500
-15.438600 0.089500
-15.359000 0.086300
-15.279300 0.084000
-15.199700 0.082200
-15.120000 0.080400
-15.040400 0.078400
-14.960800 0.076400
-14.881100 0.073800
-14.801500 0.071800
-14.721800 0.070400
-14.642200 0.068900
-14.562500 0.067400
-14.482900 0.065800
-14.403300 0.064200
-14.323600 0.062300
-14.244000 0.060800
-14.164300 0.059600
-14.084700 0.058300
-14.005000 0.057000
-13.925400 0.055800
-13.845800 0.054500
-13.766100 0.053100
-13.686500 0.051800
-13.606800 0.050700
-13.527200 0.049500
-13.447500 0.048300
-13.367900 0.047300
-13.288200 0.046200
-13.208600 0.045200
-13.129000 0.044500
-13.049300 0.043300
-12.969700 0.042000
-12.890000 0.040800
-12.810400 0.039800
-12.730700 0.039000
-12.651100 0.038200
-12.571500 0.038300
-12.491800 0.037100
-12.412200 0.035200
-12.332500 0.033900
-12.252900 0.033000
-12.173200 0.032000
-12.093600 0.034900
-12.014000 0.032200
-11.934300 0.026600
-11.854700 0.028500
-11.775000 0.000000
-11.695400 0.000000
-11.615700 0.000000
-11.536100 0.000000
-11.456400 0.000000
-11.376800 0.000000
-11.297200 0.000000
-11.217500 0.000000
-11.137900 0.000000
-11.058200 0.000000
-10.978600 0.000000
-10.898900 0.000000
-10.819300 0.000000
-10.739700 0.000000
-10.660000 0.000000
-10.580400 0.000000
-10.500700 0.000000
-10.421100 0.000000
-10.341400 0.000000
-10.261800 0.000000
-10.182200 0.000000
-10.102500 0.000000
-10.022900 0.000000
-9.943200 0.000000
-9.863600 0.000000
-9.783900 0.000000
-9.704300 0.000000
-9.624600 0.000000
-9.545000 0.000000
-9.465400 0.000000
-9.385700 0.000000
-9.306100 0.000000
-9.226400 0.000000
-9.146800 0.000000
-9.067100 0.000000
-8.987500 0.000000
-8.907900 0.000000
-8.828200 0.000000
-8.748600 0.000000
-8.668900 0.000000
-8.589300 0.051000
-8.509600 0.104600
-8.430000 0.087700
-8.350400 0.091200
-8.270700 0.098600
-8.191100 0.103600
-8.111400 0.103100
-8.031800 0.099500
-7.952100 0.098600
-7.872500 0.099100
-7.792800 0.101300
-7.713200 0.103000
-7.633600 0.104400
-7.553900 0.106400
-7.474300 0.109100
-7.394600 0.111500
-7.315000 0.111100
-7.235300 0.110200
-7.155700 0.110900
-7.076100 0.112100
-6.996400 0.113400
-6.916800 0.114800
-6.837100 0.116300
-6.757500 0.118000
-6.677800 0.119800
-6.598200 0.121700
-6.518600 0.123800
-6.438900 0.126100
-6.359300 0.128200
-6.279600 0.129400
-6.200000 0.130200
-6.120300 0.132400
-6.040700 0.135000
-5.961100 0.137100
-5.881400 0.139400
-5.801800 0.143500
-5.722100 0.161800
-5.642500 0.173200
-5.562800 0.180900
-5.483200 0.189100
-5.403500 0.204800
-5.323900 0.216700
-5.244300 0.229800
-5.164600 0.289800
-5.085000 0.294600
-5.005300 0.248500
-4.925700 0.223300
-4.846000 0.222000
-4.766400 0.226400
-4.686800 0.249300
-4.607100 0.224700
-4.527500 0.217100
-4.447800 0.221200
-4.368200 0.227400
-4.288500 0.233600
-4.208900 0.243600
-4.129300 0.264900
-4.049600 0.270300
-3.970000 0.245400
-3.890300 0.246100
-3.810700 0.265000
-3.731000 0.288400
-3.651400 0.272800
-3.571700 0.264100
-3.492100 0.254100
-3.412500 0.263400
-3.332800 0.255900
-3.253200 0.240100
-3.173500 0.239200
-3.093900 0.238600
-3.014200 0.237800
-2.934600 0.238500
-2.855000 0.240000
-2.775300 0.241800
-2.695700 0.244700
-2.616000 0.247200
-2.536400 0.301000
-2.456700 0.289200
-2.377100 0.285900
-2.297500 0.282700
-2.217800 0.280900
-2.138200 0.280400
-2.058500 0.284400
-1.978900 0.290100
-1.899200 0.299800
-1.819600 0.311400
-1.739900 0.324200
-1.660300 0.383400
-1.580700 0.415700
-1.501000 0.390000
-1.421400 0.382400
-1.341700 0.376400
-1.262100 0.369900
-1.182400 0.367300
-1.102800 0.365800
-1.023200 0.363200
-0.943500 0.362800
-0.863900 0.363400
-0.784200 0.339600
-0.704600 0.356700
-0.624900 0.320400
-0.545300 0.324200
-0.465700 0.295400
-0.386000 0.286500
-0.306400 0.277700
-0.226700 0.266200
-0.147100 0.255900
-0.067400 0.250800
0.012200 0.251600
0.091900 0.263500
0.171500 0.288000
0.251100 0.296400
0.330800 0.256100
0.410400 0.253400
0.490100 0.255300
0.569700 0.253900
0.649400 0.243600
0.729000 0.241400
0.808600 0.239800
0.888300 0.237300
0.967900 0.235300
1.047600 0.234100
1.127200 0.248400
1.206900 0.233900
1.286500 0.215700
1.366100 0.196000
1.445800 0.181400
1.525400 0.168800
1.605100 0.165600
1.684700 0.132000
1.764400 0.132300
1.844000 0.132700
1.923600 0.133100
2.003300 0.183000
2.082900 0.137300
2.162600 0.138100
2.242200 0.139100
2.321900 0.140400
2.401500 0.142000
2.481200 0.145400
2.560800 0.160400
2.640400 0.151100
2.720100 0.151600
2.799700 0.161500
2.879400 0.158800
2.959000 0.160900
3.038700 0.163200
3.118300 0.165700
3.197900 0.168300
3.277600 0.171000
3.357200 0.183200
3.436900 0.188100
3.516500 0.201200
3.596200 0.207700
3.675800 0.214100
3.755400 0.220500
3.835100 0.394300
3.914700 0.305900
3.994400 0.352900
4.074000 0.282400
4.153700 0.253500
4.233300 0.239100
4.313000 0.227500
4.392600 0.215700
4.472200 0.206400
4.551900 0.197800
4.631500 0.191300
4.711200 0.185500
4.790800 0.182400
4.870500 0.182900
4.950100 0.182700
5.029700 0.172700
5.109400 0.165000
5.189000 0.160500
5.268700 0.167300
5.348300 0.160800
5.428000 0.049700
5.507600 0.000000
5.587200 0.000000
5.666900 0.000000
5.746500 0.000000
5.826200 0.000000
5.905800 0.000000
5.985500 0.000000
6.065100 0.000000
6.144800 0.000000
6.224400 0.000000
6.304000 0.000000
6.383700 0.000000
6.463300 0.000000
6.543000 0.000000
6.622600 0.000000
6.702300 0.000000
6.781900 0.000000
6.861500 0.000000
6.941200 0.000000
7.020800 0.000000
7.100500 0.000000
7.180100 0.000000
7.259800 0.000000
7.339400 0.000000
7.419000 0.000000
7.498700 0.000000
7.578300 0.000000
7.658000 0.000000
7.737600 0.000000
7.817300 0.000000
7.896900 0.000000
7.976600 0.000000
8.056200 0.000000
8.135800 0.000000
8.215500 0.000000
8.295100 0.000000
8.374800 0.000000
8.454400 0.000000
8.534100 0.000000
8.613700 0.000000
8.693300 0.000000
8.773000 0.000000
8.852600 0.000000
8.932300 0.000000
9.011900 0.001900
9.091600 0.006500
9.171200 0.009500
9.250800 0.011400
9.330500 0.012800
9.410100 0.014200
9.489800 0.016100
9.569400 0.018000
9.649100 0.018900
9.728700 0.020000
9.808300 0.021100
9.888000 0.022400
9.967600 0.023800
10.047300 0.024800
10.126900 0.025800
10.206600 0.027000
10.286200 0.028200
10.365900 0.029300
10.445500 0.030400
10.525100 0.031400
10.604800 0.032400
10.684400 0.033400
10.764100 0.034500
10.843700 0.035600
10.923400 0.036600
11.003000 0.037800
11.082600 0.039000
11.162300 0.040200
11.241900 0.041300
11.321600 0.042300
11.401200 0.043400
11.480900 0.044500
11.560500 0.045600
11.640100 0.046900
11.719800 0.048100
11.799400 0.049500
11.879100 0.050800
11.958700 0.052200
12.038400 0.053500
12.118000 0.054800
12.197700 0.056300
12.277300 0.057800
12.356900 0.059400
12.436600 0.061100
12.516200 0.062700
12.595900 0.064300
12.675500 0.066000
12.755200 0.067900
12.834800 0.070600
12.914400 0.073100
12.994100 0.075700
13.073700 0.078300
13.153400 0.081000
13.233000 0.083700
13.312700 0.087200
13.392300 0.094800
13.471900 0.102700
13.551600 0.106700
13.631200 0.107800
13.710900 0.108800
13.790500 0.109700
13.870200 0.111000
13.949800 0.112200
14.029500 0.114000
14.109100 0.115100
14.188700 0.116000
14.268400 0.118400
14.348000 0.120400
14.427700 0.122300
14.507300 0.124300
14.587000 0.127700
14.666600 0.131000
14.746200 0.135200
14.825900 0.143800
14.905500 0.182300
14.985200 0.221900
15.064800 0.199700
15.144500 0.194100
15.224100 0.180800
15.303700 0.174400
15.383400 0.169100
15.463000 0.161700
15.542700 0.157100
15.622300 0.153400
15.702000 0.148600
15.781600 0.144900
15.861300 0.140900
15.940900 0.137300
16.020500 0.134200
16.100200 0.130900
16.179800 0.128300
16.259500 0.125800
16.339100 0.123000
16.418800 0.119900
16.498400 0.116900
16.578000 0.114500
16.657700 0.112400
16.737300 0.110400
16.817000 0.108400
16.896600 0.106400
16.976300 0.104400
17.055900 0.102800
17.135500 0.100700
17.215200 0.098600
17.294800 0.097000
17.374500 0.095400
17.454100 0.093700
17.533800 0.092200
17.613400 0.098200
17.693100 0.097300
17.772700 0.098800
17.852300 0.100600
17.932000 0.100400
18.011600 0.100700
18.091300 0.101800
18.170900 0.103100
18.250600 0.104700
18.330200 0.106300
18.409800 0.107600
18.489500 0.109200
18.569100 0.111500
18.648800 0.117000
18.728400 0.119900
18.808100 0.124500
18.887700 0.129500
18.967300 0.134800
19.047000 0.141900
19.126600 0.147800
19.206300 0.138100
19.285900 0.133400
19.365600 0.127700
19.445200 0.121300
19.524800 0.123100
19.604500 0.114200
19.684100 0.102400
19.763800 0.081000
19.843400 0.065600
19.923100 0.053800
20.002700 0.042700
20.082400 0.035500
20.162000 0.026400
20.241600 0.016300
20.321300 0.015200
20.400900 0.016700
20.480600 0.017700
20.560200 0.017700
20.639900 0.017600
20.719500 0.019100
20.799100 0.021400
20.878800 0.023200
20.958400 0.026000
21.038100 0.029800
21.117700 0.034500
21.197400 0.039500
21.277000 0.044600
21.356600 0.049400
21.436300 0.054400
21.515900 0.059100
21.595600 0.061800
21.675200 0.065800
21.754900 0.069800
21.834500 0.074200
21.914200 0.078200
21.993800 0.082600
22.073400 0.087700
22.153100 0.093400
22.232700 0.099500
22.312400 0.105200
22.392000 0.110400
22.471700 0.115300
22.551300 0.120800
22.630900 0.126600
22.710600 0.132400
22.790200 0.138300
22.869900 0.143900
22.949500 0.151700
23.029200 0.164000
23.108800 0.172200
23.188400 0.176700
23.268100 0.180100
23.347700 0.184900
23.427400 0.190100
23.507000 0.195400
23.586700 0.200300
23.666300 0.207000
23.746000 0.218500
23.825600 0.215700
23.905200 0.217700
23.984900 0.221300
24.064500 0.242900
24.144200 0.236600
24.223800 0.239000
24.303500 0.237000
24.383100 0.244000
24.462700 0.252300
24.542400 0.261600
24.622000 0.267700
24.701700 0.272900
24.781300 0.277900
24.861000 0.280300
24.940600 0.285700
25.020200 0.291100
25.099900 0.300600
25.179500 0.310600
25.259200 0.333800
25.338800 0.334000
25.418500 0.343400
25.498100 0.355700
25.577800 0.374600
25.657400 0.394700
25.737000 0.431800
25.816700 0.427400
25.896300 0.430700
25.976000 0.443200
26.055600 0.450000
26.135300 0.466900
26.214900 0.466200
26.294500 0.438100
26.374200 0.367600
26.453800 0.307200
26.533500 0.274400
26.613100 0.250600
26.692800 0.236400
26.772400 0.222000
26.852000 0.208600
26.931700 0.200800
27.011300 0.197300
27.091000 0.192700
27.170600 0.189900
27.250300 0.187700
27.329900 0.184900
27.409500 0.182200
27.489200 0.183800
27.568800 0.185900
27.648500 0.186400
27.728100 0.185900
27.807800 0.179800
27.887400 0.172300
27.967100 0.174800
28.046700 0.175600
28.126300 0.174300
28.206000 0.176200
28.285600 0.184500
28.365300 0.167800
28.444900 0.152100
28.524600 0.137100
28.604200 0.130300
28.683800 0.125800
28.763500 0.119600
28.843100 0.115000
28.922800 0.111100
29.002400 0.107900
29.082100 0.105500
29.161700 0.104000
29.241300 0.103100
29.321000 0.103400
29.400600 0.099100
29.480300 0.097400
29.559900 0.096100
29.639600 0.094600
29.719200 0.093400
29.798900 0.095400
29.878500 0.098500
29.958100 0.102700
30.037800 0.110900
30.117400 0.123700
30.197100 0.134000
30.276700 0.143900
30.356400 0.154300
30.436000 0.164000
30.515600 0.171500
30.595300 0.181700
30.674900 0.197300
30.754600 0.239100
30.834200 0.283800
30.913900 0.262300
30.993500 0.220600
31.073100 0.200300
31.152800 0.187300
31.232400 0.177400
31.312100 0.171400
31.391700 0.164300
31.471400 0.158700
31.551000 0.155300
31.630700 0.155100
31.710300 0.147200
31.789900 0.144600
31.869600 0.143400
31.949200 0.142500
32.028900 0.150600
32.108500 0.143800
32.188200 0.144800
32.267800 0.144300
32.347400 0.145400
32.427100 0.148100
32.506700 0.146100
32.586400 0.145900
32.666000 0.146000
32.745700 0.144600
32.825300 0.141300
32.904900 0.140500
32.984600 0.140500
33.064200 0.140900
33.143900 0.140800
33.223500 0.140000
33.303200 0.139200
33.382800 0.138600
33.462500 0.138100
33.542100 0.134100
33.621700 0.133200
33.701400 0.134300
33.781000 0.134600
33.860700 0.135800
33.940300 0.136900
34.020000 0.138400
34.099600 0.140700
34.179200 0.144500
34.258900 0.151100
34.338500 0.157300
34.418200 0.170500
34.497800 0.187500
34.577500 0.203300
34.657100 0.217100
34.736700 0.235900
34.816400 0.254100
34.896000 0.276300
34.975700 0.323800
35.055300 0.339200
35.135000 0.356700
35.214600 0.378600
35.294200 0.392200
35.373900 0.411000
35.453500 0.449600
35.533200 0.490000
35.612800 0.527700
35.692500 0.488800
35.772100 0.464800
35.851800 0.445500
35.931400 0.424500
36.011000 0.393700
36.090700 0.354000
36.170300 0.335700
36.250000 0.318800
36.329600 0.298500
36.409300 0.251900
36.488900 0.228600
36.568500 0.218400
36.648200 0.215000
36.727800 0.208800
36.807500 0.200800
36.887100 0.203000
36.966800 0.205500
37.046400 0.213500
37.126000 0.222700
37.205700 0.221300
37.285300 0.217800
37.365000 0.217900
37.444600 0.220300
37.524300 0.224500
37.603900 0.233500
37.683600 0.251500
37.763200 0.258200
37.842800 0.260300
37.922500 0.263500
38.002100 0.264100
38.081800 0.270600
38.161400 0.283500
38.241100 0.297200
38.320700 0.315200
38.400300 0.309600
38.480000 0.313300
38.559600 0.310500
38.639300 0.308800
38.718900 0.308000
38.798600 0.310100
38.878200 0.312800
38.957800 0.315600
39.037500 0.318400
39.117100 0.316700
39.196800 0.306400
39.276400 0.297400
39.356100 0.286800
39.435700 0.281000
39.515400 0.265000
39.595000 0.254000
39.674600 0.244400
39.754300 0.237100
39.833900 0.233200
39.913600 0.237800
39.993200 0.237500
40.072900 0.234800
40.152500 0.231300
40.232100 0.228100
40.311800 0.230700
40.391400 0.235300
40.471100 0.239000
40.550700 0.245200
40.630400 0.251100
40.710000 0.256100
40.789600 0.257200
40.869300 0.257400
40.948900 0.256300
41.028600 0.256300
41.108200 0.258100
41.187900 0.261800
41.267500 0.269500
41.347200 0.273100
41.426800 0.270800
41.506400 0.273000
41.586100 0.273300
41.665700 0.275500
41.745400 0.279400
41.825000 0.284000
41.904700 0.289000
41.984300 0.299400
42.063900 0.316800
42.143600 0.348700
42.223200 0.402200
42.302900 0.356100
42.382500 0.313200
42.462200 0.274900
42.541800 0.257000
42.621400 0.243600
42.701100 0.232400
42.780700 0.227500
42.860400 0.224300
42.940000 0.218900
43.019700 0.207400
43.099300 0.192400
43.178900 0.183200
43.258600 0.176400
43.338200 0.171900
43.417900 0.167400
43.497500 0.162900
43.577200 0.159400
43.656800 0.158400
43.736500 0.159800
43.816100 0.159300
43.895700 0.157700
43.975400 0.154700
44.055000 0.153900
44.134700 0.154100
44.214300 0.152800
44.294000 0.153100
44.373600 0.154300
44.453200 0.153700
44.532900 0.153800
44.612500 0.153600
44.692200 0.154600
44.771800 0.156600
44.851500 0.159900
44.931100 0.164000
45.010700 0.168500
45.090400 0.175200
45.170000 0.183000
45.249700 0.177200
45.329300 0.179800
45.409000 0.184100
45.488600 0.180500
45.568300 0.177900
45.647900 0.178900
45.727500 0.181100
45.807200 0.186800
45.886800 0.197000
45.966500 0.205300
46.046100 0.209100
46.125800 0.219700
46.205400 0.230400
46.285000 0.243500
46.364700 0.259800
46.444300 0.276700
46.524000 0.283100
46.603600 0.290100
46.683300 0.296800
46.762900 0.305100
46.842500 0.315300
46.922200 0.321800
47.001800 0.324800
47.081500 0.332900
47.161100 0.420600
47.240800 0.369600
47.320400 0.359800
47.400100 0.344000
47.479700 0.311900
47.559300 0.301300
47.639000 0.302400
47.718600 0.305000
47.798300 0.298700
47.877900 0.298700
47.957600 0.303200
48.037200 0.321000
48.116800 0.344700
48.196500 0.381300
48.276100 0.382100
48.355800 0.382600
48.435400 0.390900
48.515100 0.397000
48.594700 0.410600
48.674300 0.418800
48.754000 0.381500
48.833600 0.365100
48.913300 0.352600
48.992900 0.331200
49.072600 0.313000
49.152200 0.289100
49.231900 0.259900
49.311500 0.255400
49.391100 0.252200
49.470800 0.252300
49.550400 0.246700
49.630100 0.244500
49.709700 0.241600
49.789400 0.237500
49.869000 0.235400
49.948600 0.234400
50.028300 0.233500
50.107900 0.238100
50.187600 0.232300
50.267200 0.226400
50.346900 0.222700
50.426500 0.219700
50.506100 0.217800
50.585800 0.214900
50.665400 0.212800
50.745100 0.210800
50.824700 0.209200
50.904400 0.205700
50.984000 0.201600
51.063600 0.200000
51.143300 0.200100
51.222900 0.201200
51.302600 0.202600
51.382200 0.205900
51.461900 0.209400
51.541500 0.213800
51.621200 0.218900
51.700800 0.223500
51.780400 0.227700
51.860100 0.233700
51.939700 0.238000
52.019400 0.227600
52.099000 0.226900
52.178700 0.229200
52.258300 0.242300
52.337900 0.271600
52.417600 0.284700
