set title 'mp-140 - Density of States'
set xlabel 'Energy (eV)'
set ylabel 'DOS (states/eV)'
set grid
set xrange [-10:10]
set yrange [0:0.655]
set xzeroaxis lt -1
set terminal png size 800,600
set output 'mp-140_dos_gnuplot.png'
plot '-' using 1:2 with lines title 'DOS'
-14.352500 0.000000
-14.323300 0.000000
-14.294000 0.000000
-14.264800 0.000000
-14.235500 0.000000
-14.206300 0.000000
-14.177000 0.000000
-14.147800 0.000000
-14.118600 0.000000
-14.089300 0.000000
-14.060100 0.000000
-14.030800 0.000000
-14.001600 0.000000
-13.972300 0.000000
-13.943100 0.000000
-13.913800 0.000000
-13.884600 0.000000
-13.855300 0.000000
-13.826100 0.000000
-13.796800 0.000000
-13.767600 0.000000
-13.738300 0.000000
-13.709100 0.000000
-13.679800 0.000000
-13.650600 0.000000
-13.621300 0.000000
-13.592100 0.000000
-13.562800 0.000000
-13.533600 0.000000
-13.504400 0.000000
-13.475100 0.000000
-13.445900 0.000000
-13.416600 0.000000
-13.387400 0.000000
-13.358100 0.000000
-13.328900 0.000000
-13.299600 0.000000
-13.270400 0.000000
-13.241100 0.000000
-13.211900 0.000000
-13.182600 0.000000
-13.153400 0.000000
-13.124100 0.000000
-13.094900 0.000000
-13.065600 0.000000
-13.036400 0.000000
-13.007100 0.000000
-12.977900 0.000000
-12.948600 0.000000
-12.919400 0.000000
-12.890200 0.000000
-12.860900 0.000000
-12.831700 0.000000
-12.802400 0.000000
-12.773200 0.000000
-12.743900 0.000000
-12.714700 0.000000
-12.685400 0.000000
-12.656200 0.000000
-12.626900 0.000000
-12.597700 0.000000
-12.568400 0.000000
-12.539200 0.000000
-12.509900 0.000000
-12.480700 0.000000
-12.451400 0.000000
-12.422200 0.000000
-12.392900 0.000000
-12.363700 0.000000
-12.334400 0.000000
-12.305200 0.000000
-12.276000 0.000000
-12.246700 0.000000
-12.217500 0.000000
-12.188200 0.000000
-12.159000 0.000000
-12.129700 0.000000
-12.100500 0.000000
-12.071200 0.000000
-12.042000 0.000000
-12.012700 0.000000
-11.983500 0.000000
-11.954200 0.000000
-11.925000 0.000000
-11.895700 0.000000
-11.866500 0.000000
-11.837200 0.000000
-11.808000 0.000000
-11.778700 0.000000
-11.749500 0.000000
-11.720200 0.000000
-11.691000 0.200100
-11.661800 1.350600
-11.632500 2.540800
-11.603300 5.041300
-11.574000 13.221600
-11.544800 29.842700
-11.515500 32.965900
-11.486300 34.144300
-11.457000 17.762000
-11.427800 10.195100
-11.398500 29.701000
-11.369300 36.002400
-11.340000 31.655700
-11.310800 36.457800
-11.281500 30.946600
-11.252300 16.115800
-11.223000 5.022900
-11.193800 3.075800
-11.164500 2.499000
-11.135300 2.722100
-11.106000 0.000000
-11.076800 0.000000
-11.047600 0.000000
-11.018300 0.000000
-10.989100 0.000000
-10.959800 0.000000
-10.930600 0.000000
-10.901300 0.000000
-10.872100 0.000000
-10.842800 0.000000
-10.813600 0.000000
-10.784300 0.000000
-10.755100 0.000000
-10.725800 0.000000
-10.696600 0.000000
-10.667300 0.000000
-10.638100 0.000000
-10.608800 0.000000
-10.579600 0.000000
-10.550300 0.000000
-10.521100 0.000000
-10.491900 0.000000
-10.462600 0.000000
-10.433400 0.000000
-10.404100 0.000000
-10.374900 0.000000
-10.345600 0.000000
-10.316400 0.000000
-10.287100 0.000000
-10.257900 0.000000
-10.228600 0.000000
-10.199400 0.000000
-10.170100 0.000000
-10.140900 0.000000
-10.111600 0.000000
-10.082400 0.000000
-10.053100 0.000000
-10.023900 0.000000
-9.994600 0.000000
-9.965400 0.000000
-9.936100 0.000000
-9.906900 0.000000
-9.877700 0.000000
-9.848400 0.000000
-9.819200 0.000000
-9.789900 0.000000
-9.760700 0.000000
-9.731400 0.000000
-9.702200 0.000000
-9.672900 0.000000
-9.643700 0.000000
-9.614400 0.000000
-9.585200 0.000000
-9.555900 0.000000
-9.526700 0.000000
-9.497400 0.000000
-9.468200 0.000000
-9.438900 0.000000
-9.409700 0.000000
-9.380400 0.000000
-9.351200 0.000000
-9.321900 0.000000
-9.292700 0.000000
-9.263500 0.000000
-9.234200 0.000000
-9.205000 0.000000
-9.175700 0.000000
-9.146500 0.000000
-9.117200 0.000000
-9.088000 0.000000
-9.058700 0.000000
-9.029500 0.000000
-9.000200 0.000000
-8.971000 0.000000
-8.941700 0.000000
-8.912500 0.000000
-8.883200 0.000000
-8.854000 0.000000
-8.824700 0.000000
-8.795500 0.000000
-8.766200 0.000000
-8.737000 0.000000
-8.707700 0.000000
-8.678500 0.000000
-8.649300 0.000000
-8.620000 0.000000
-8.590800 0.000000
-8.561500 0.000000
-8.532300 0.000000
-8.503000 0.000000
-8.473800 0.000000
-8.444500 0.000000
-8.415300 0.000000
-8.386000 0.000000
-8.356800 0.000000
-8.327500 0.000000
-8.298300 0.000000
-8.269000 0.000000
-8.239800 0.000000
-8.210500 0.000000
-8.181300 0.000000
-8.152000 0.000000
-8.122800 0.000000
-8.093500 0.000000
-8.064300 0.000000
-8.035100 0.000000
-8.005800 0.000000
-7.976600 0.000000
-7.947300 0.000000
-7.918100 0.000000
-7.888800 0.000000
-7.859600 0.000000
-7.830300 0.000000
-7.801100 0.000000
-7.771800 0.000000
-7.742600 0.000000
-7.713300 0.000000
-7.684100 0.000000
-7.654800 0.000000
-7.625600 0.000000
-7.596300 0.000000
-7.567100 0.000000
-7.537800 0.000000
-7.508600 0.000000
-7.479300 0.008600
-7.450100 0.028200
-7.420900 0.031000
-7.391600 0.039000
-7.362400 0.047600
-7.333100 0.050200
-7.303900 0.053200
-7.274600 0.057500
-7.245400 0.062100
-7.216100 0.067000
-7.186900 0.070700
-7.157600 0.073000
-7.128400 0.075400
-7.099100 0.077800
-7.069900 0.080500
-7.040600 0.083800
-7.011400 0.087300
-6.982100 0.090500
-6.952900 0.093200
-6.923600 0.094900
-6.894400 0.096600
-6.865100 0.098500
-6.835900 0.100700
-6.806700 0.103000
-6.777400 0.105300
-6.748200 0.107800
-6.718900 0.110300
-6.689700 0.112500
-6.660400 0.114500
-6.631200 0.116500
-6.601900 0.118000
-6.572700 0.119600
-6.543400 0.121200
-6.514200 0.122900
-6.484900 0.124700
-6.455700 0.126500
-6.426400 0.128400
-6.397200 0.130300
-6.367900 0.132400
-6.338700 0.134200
-6.309400 0.135900
-6.280200 0.137600
-6.250900 0.139200
-6.221700 0.140600
-6.192500 0.141900
-6.163200 0.143200
-6.134000 0.144600
-6.104700 0.146000
-6.075500 0.147600
-6.046200 0.149200
-6.017000 0.150800
-5.987700 0.152500
-5.958500 0.154200
-5.929200 0.155700
-5.900000 0.157100
-5.870700 0.158500
-5.841500 0.160000
-5.812200 0.161400
-5.783000 0.162600
-5.753700 0.163800
-5.724500 0.165100
-5.695200 0.166300
-5.666000 0.167600
-5.636700 0.168900
-5.607500 0.170200
-5.578300 0.171600
-5.549000 0.173000
-5.519800 0.174400
-5.490500 0.175800
-5.461300 0.177100
-5.432000 0.178200
-5.402800 0.179500
-5.373500 0.180800
-5.344300 0.182100
-5.315000 0.183500
-5.285800 0.184700
-5.256500 0.185900
-5.227300 0.187000
-5.198000 0.188100
-5.168800 0.189200
-5.139500 0.190300
-5.110300 0.191500
-5.081000 0.192600
-5.051800 0.193800
-5.022500 0.195000
-4.993300 0.196200
-4.964100 0.197500
-4.934800 0.198800
-4.905600 0.199900
-4.876300 0.201000
-4.847100 0.202200
-4.817800 0.203300
-4.788600 0.204500
-4.759300 0.205600
-4.730100 0.206800
-4.700800 0.208000
-4.671600 0.208900
-4.642300 0.209900
-4.613100 0.211000
-4.583800 0.212000
-4.554600 0.213100
-4.525300 0.214200
-4.496100 0.215300
-4.466800 0.216400
-4.437600 0.217500
-4.408300 0.218600
-4.379100 0.219800
-4.349900 0.220900
-4.320600 0.221900
-4.291400 0.222900
-4.262100 0.224000
-4.232900 0.225000
-4.203600 0.226000
-4.174400 0.227100
-4.145100 0.228100
-4.115900 0.229200
-4.086600 0.230400
-4.057400 0.231500
-4.028100 0.232500
-3.998900 0.233500
-3.969600 0.234500
-3.940400 0.235500
-3.911100 0.236500
-3.881900 0.237500
-3.852600 0.238500
-3.823400 0.239500
-3.794100 0.240500
-3.764900 0.241600
-3.735700 0.242600
-3.706400 0.243700
-3.677200 0.244700
-3.647900 0.245600
-3.618700 0.246600
-3.589400 0.247600
-3.560200 0.248600
-3.530900 0.249700
-3.501700 0.250700
-3.472400 0.251700
-3.443200 0.252800
-3.413900 0.253800
-3.384700 0.254900
-3.355400 0.256000
-3.326200 0.257000
-3.296900 0.258000
-3.267700 0.259000
-3.238400 0.259900
-3.209200 0.260900
-3.179900 0.261900
-3.150700 0.262900
-3.121500 0.263900
-3.092200 0.264900
-3.063000 0.266000
-3.033700 0.267000
-3.004500 0.268100
-2.975200 0.269200
-2.946000 0.270200
-2.916700 0.271200
-2.887500 0.272200
-2.858200 0.273200
-2.829000 0.274300
-2.799700 0.275300
-2.770500 0.276400
-2.741200 0.277400
-2.712000 0.278500
-2.682700 0.279600
-2.653500 0.280700
-2.624200 0.281800
-2.595000 0.282900
-2.565700 0.284100
-2.536500 0.285200
-2.507300 0.286300
-2.478000 0.287500
-2.448800 0.288600
-2.419500 0.289800
-2.390300 0.291000
-2.361000 0.292200
-2.331800 0.293400
-2.302500 0.294600
-2.273300 0.295900
-2.244000 0.297200
-2.214800 0.298500
-2.185500 0.299800
-2.156300 0.301200
-2.127000 0.302600
-2.097800 0.304000
-2.068500 0.305500
-2.039300 0.307100
-2.010000 0.308700
-1.980800 0.310400
-1.951500 0.312100
-1.922300 0.314000
-1.893100 0.315900
-1.863800 0.318000
-1.834600 0.320100
-1.805300 0.322400
-1.776100 0.325000
-1.746800 0.328000
-1.717600 0.331700
-1.688300 0.336000
-1.659100 0.341200
-1.629800 0.346200
-1.600600 0.351000
-1.571300 0.355600
-1.542100 0.359900
-1.512800 0.365100
-1.483600 0.371200
-1.454300 0.375900
-1.425100 0.379500
-1.395800 0.382000
-1.366600 0.379300
-1.337300 0.376800
-1.308100 0.375700
-1.278900 0.375200
-1.249600 0.377200
-1.220400 0.370100
-1.191100 0.366300
-1.161900 0.368200
-1.132600 0.355300
-1.103400 0.351200
-1.074100 0.349700
-1.044900 0.347500
-1.015600 0.347200
-0.986400 0.340200
-0.957100 0.335600
-0.927900 0.333400
-0.898600 0.331000
-0.869400 0.329000
-0.840100 0.326900
-0.810900 0.326400
-0.781600 0.343300
-0.752400 0.326800
-0.723100 0.322200
-0.693900 0.315800
-0.664700 0.310100
-0.635400 0.305300
-0.606200 0.301500
-0.576900 0.298600
-0.547700 0.295200
-0.518400 0.292400
-0.489200 0.290800
-0.459900 0.290500
-0.430700 0.287500
-0.401400 0.283000
-0.372200 0.279200
-0.342900 0.278000
-0.313700 0.276500
-0.284400 0.278000
-0.255200 0.281300
-0.225900 0.284400
-0.196700 0.288500
-0.167400 0.295100
-0.138200 0.304100
-0.109000 0.313000
-0.079700 0.316200
-0.050500 0.316600
-0.021200 0.310900
0.008000 0.303800
0.037300 0.298600
0.066500 0.294400
0.095800 0.291900
0.125000 0.291400
0.154300 0.293600
0.183500 0.299000
0.212800 0.300400
0.242000 0.300700
0.271300 0.305000
0.300500 0.309100
0.329800 0.306400
0.359000 0.301400
0.388300 0.299400
0.417500 0.298100
0.446800 0.297500
0.476000 0.297400
0.505200 0.297200
0.534500 0.299200
0.563700 0.303200
0.593000 0.311300
0.622200 0.304400
0.651500 0.304400
0.680700 0.305800
0.710000 0.308400
0.739200 0.308900
0.768500 0.310500
0.797700 0.309000
0.827000 0.314200
0.856200 0.312900
0.885500 0.316000
0.914700 0.319600
0.944000 0.322300
0.973200 0.323800
1.002500 0.326400
1.031700 0.326400
1.061000 0.326400
1.090200 0.329500
1.119400 0.330600
1.148700 0.333200
1.177900 0.335300
1.207200 0.336300
1.236400 0.338900
1.265700 0.341100
1.294900 0.343400
1.324200 0.345900
1.353400 0.349200
1.382700 0.351100
1.411900 0.353600
1.441200 0.357600
1.470400 0.361600
1.499700 0.366300
1.528900 0.370600
1.558200 0.376600
1.587400 0.383000
1.616700 0.390500
1.645900 0.399000
1.675200 0.405500
1.704400 0.411300
1.733600 0.414500
1.762900 0.415900
1.792100 0.417500
1.821400 0.418400
1.850600 0.415900
1.879900 0.411400
1.909100 0.406100
1.938400 0.402000
1.967600 0.394700
1.996900 0.390000
2.026100 0.384500
2.055400 0.380600
2.084600 0.376900
2.113900 0.373900
2.143100 0.371900
2.172400 0.370100
2.201600 0.366200
2.230900 0.363400
2.260100 0.361500
2.289400 0.360100
2.318600 0.359700
2.347800 0.360200
2.377100 0.360900
2.406300 0.362600
2.435600 0.363400
2.464800 0.364300
2.494100 0.366100
2.523300 0.367800
2.552600 0.371000
2.581800 0.376800
2.611100 0.387400
2.640300 0.399400
2.669600 0.414100
2.698800 0.426900
2.728100 0.445800
2.757300 0.464700
2.786600 0.472300
2.815800 0.472200
2.845100 0.472000
2.874300 0.471800
2.903600 0.475100
2.932800 0.475800
2.962000 0.468400
2.991300 0.462200
3.020500 0.458800
3.049800 0.455100
3.079000 0.452400
3.108300 0.450000
3.137500 0.454600
3.166800 0.443900
3.196000 0.437300
3.225300 0.430200
3.254500 0.423900
3.283800 0.419900
3.313000 0.416700
3.342300 0.414000
3.371500 0.417600
3.400800 0.418400
3.430000 0.399400
3.459300 0.392800
3.488500 0.389700
3.517800 0.386900
3.547000 0.385200
3.576200 0.383900
3.605500 0.383200
3.634700 0.382800
3.664000 0.382800
3.693200 0.382400
3.722500 0.381400
3.751700 0.381800
3.781000 0.383500
3.810200 0.385200
3.839500 0.382800
3.868700 0.381400
3.898000 0.380400
3.927200 0.379800
3.956500 0.379100
3.985700 0.378400
4.015000 0.377100
4.044200 0.376900
4.073500 0.376800
4.102700 0.376800
4.132000 0.376900
4.161200 0.377400
4.190400 0.381900
4.219700 0.394200
4.248900 0.395900
4.278200 0.401100
4.307400 0.407300
4.336700 0.413600
4.365900 0.419600
4.395200 0.425100
4.424400 0.430500
4.453700 0.436700
4.482900 0.443200
4.512200 0.446400
4.541400 0.443400
4.570700 0.442100
4.599900 0.439300
4.629200 0.443200
4.658400 0.443600
4.687700 0.443500
4.716900 0.443400
4.746200 0.442300
4.775400 0.443800
4.804600 0.443600
4.833900 0.442200
4.863100 0.442300
4.892400 0.442100
4.921600 0.442000
4.950900 0.441900
4.980100 0.440800
5.009400 0.440400
5.038600 0.440300
5.067900 0.441700
5.097100 0.444700
5.126400 0.445000
5.155600 0.445900
5.184900 0.446700
5.214100 0.447400
5.243400 0.448400
5.272600 0.449100
5.301900 0.449300
5.331100 0.449300
5.360400 0.450200
5.389600 0.450700
5.418800 0.450700
5.448100 0.451200
5.477300 0.450900
5.506600 0.450600
5.535800 0.450500
5.565100 0.453400
5.594300 0.455500
5.623600 0.454900
5.652800 0.454400
5.682100 0.453800
5.711300 0.454200
5.740600 0.455000
5.769800 0.457000
5.799100 0.459000
5.828300 0.460300
5.857600 0.460200
5.886800 0.460000
5.916100 0.459900
5.945300 0.459900
5.974600 0.460200
6.003800 0.460400
6.033000 0.460500
6.062300 0.461000
6.091500 0.461800
6.120800 0.462900
6.150000 0.464000
6.179300 0.465300
6.208500 0.466900
6.237800 0.468700
6.267000 0.470800
6.296300 0.473300
6.325500 0.475500
6.354800 0.477100
6.384000 0.478600
6.413300 0.479900
6.442500 0.481100
6.471800 0.482400
6.501000 0.487300
6.530300 0.488700
6.559500 0.488700
6.588800 0.489200
6.618000 0.493300
6.647200 0.494600
6.676500 0.493200
6.705700 0.495000
6.735000 0.492300
6.764200 0.491100
6.793500 0.492600
6.822700 0.490600
6.852000 0.488800
6.881200 0.488900
6.910500 0.489000
6.939700 0.489100
6.969000 0.489500
6.998200 0.490200
7.027500 0.491000
7.056700 0.491800
7.086000 0.492800
7.115200 0.493900
7.144500 0.495100
7.173700 0.496300
7.203000 0.497900
7.232200 0.498200
7.261400 0.499500
7.290700 0.502200
7.319900 0.499500
7.349200 0.506100
7.378400 0.507200
7.407700 0.507400
7.436900 0.507900
7.466200 0.509300
7.495400 0.511200
7.524700 0.513200
7.553900 0.515200
7.583200 0.517200
7.612400 0.519300
7.641700 0.521700
7.670900 0.524900
7.700200 0.528200
7.729400 0.531700
7.758700 0.535400
7.787900 0.541800
7.817200 0.547700
7.846400 0.550900
7.875600 0.554700
7.904900 0.564400
7.934100 0.575900
7.963400 0.581500
7.992600 0.589100
8.021900 0.592800
8.051100 0.595400
8.080400 0.591900
8.109600 0.589300
8.138900 0.588100
8.168100 0.587100
8.197400 0.586600
8.226600 0.588200
8.255900 0.586400
8.285100 0.583900
8.314400 0.581300
8.343600 0.583700
8.372900 0.580100
8.402100 0.573400
8.431400 0.569600
8.460600 0.567600
8.489800 0.566500
8.519100 0.564900
8.548300 0.563100
8.577600 0.561200
8.606800 0.559500
8.636100 0.558200
8.665300 0.560500
8.694600 0.556300
8.723800 0.556200
8.753100 0.556000
8.782300 0.552200
8.811600 0.550900
8.840800 0.549500
8.870100 0.548100
8.899300 0.547200
8.928600 0.545800
8.957800 0.544900
8.987100 0.544400
9.016300 0.545900
9.045600 0.546500
9.074800 0.545300
9.104000 0.543500
9.133300 0.540000
9.162500 0.539300
9.191800 0.538800
9.221000 0.538500
9.250300 0.538500
9.279500 0.538700
9.308800 0.539100
9.338000 0.539400
9.367300 0.539500
9.396500 0.544900
9.425800 0.542900
9.455000 0.541300
9.484300 0.540000
9.513500 0.538400
9.542800 0.537300
9.572000 0.536600
9.601300 0.536100
9.630500 0.533800
9.659700 0.532000
9.689000 0.531300
9.718200 0.530700
9.747500 0.530300
9.776700 0.529900
9.806000 0.529700
9.835200 0.529500
9.864500 0.529500
9.893700 0.529600
9.923000 0.530000
9.952200 0.531400
9.981500 0.533500
10.010700 0.535700
10.040000 0.537600
10.069200 0.539700
10.098500 0.543100
10.127700 0.547500
10.157000 0.552400
10.186200 0.556500
10.215500 0.566300
10.244700 0.572000
10.273900 0.576200
10.303200 0.576400
10.332400 0.573800
10.361700 0.575600
10.390900 0.568000
10.420200 0.560700
10.449400 0.543100
10.478700 0.523800
10.507900 0.510400
10.537200 0.498300
10.566400 0.491800
10.595700 0.485800
10.624900 0.479400
10.654200 0.474900
10.683400 0.471200
10.712700 0.468400
10.741900 0.466200
10.771200 0.462400
10.800400 0.457200
10.829700 0.456400
10.858900 0.454100
10.888100 0.449300
10.917400 0.446000
10.946600 0.443200
10.975900 0.440100
11.005100 0.447300
11.034400 0.443500
11.063600 0.439100
11.092900 0.437400
11.122100 0.437100
11.151400 0.436300
11.180600 0.435900
11.209900 0.437000
11.239100 0.439200
11.268400 0.441100
11.297600 0.441500
11.326900 0.441500
11.356100 0.441900
11.385400 0.442900
11.414600 0.444100
11.443900 0.447400
11.473100 0.449000
11.502300 0.447100
11.531600 0.449100
11.560800 0.451200
11.590100 0.454100
11.619300 0.456000
11.648600 0.456800
11.677800 0.456900
11.707100 0.456600
11.736300 0.456600
11.765600 0.457600
11.794800 0.459900
11.824100 0.461400
11.853300 0.463100
11.882600 0.464900
11.911800 0.466700
11.941100 0.468600
11.970300 0.468600
11.999600 0.466800
12.028800 0.467600
12.058100 0.467900
12.087300 0.469600
12.116500 0.468600
12.145800 0.466700
12.175000 0.466100
12.204300 0.465900
12.233500 0.465800
12.262800 0.465700
12.292000 0.466000
12.321300 0.467300
12.350500 0.468500
12.379800 0.469300
12.409000 0.470100
12.438300 0.470600
12.467500 0.471700
12.496800 0.475300
12.526000 0.474400
12.555300 0.471400
12.584500 0.470600
12.613800 0.470000
12.643000 0.469700
12.672300 0.470000
12.701500 0.470700
12.730700 0.470800
12.760000 0.472200
12.789200 0.480100
12.818500 0.474400
12.847700 0.474100
12.877000 0.473000
12.906200 0.473200
12.935500 0.473500
12.964700 0.473500
12.994000 0.474300
13.023200 0.475100
13.052500 0.475000
13.081700 0.475100
13.111000 0.474100
13.140200 0.474000
13.169500 0.474300
13.198700 0.474800
13.228000 0.475700
13.257200 0.476500
13.286500 0.477500
13.315700 0.478700
13.344900 0.479900
13.374200 0.480900
13.403400 0.481700
13.432700 0.485400
13.461900 0.486200
13.491200 0.489600
13.520400 0.493300
13.549700 0.496300
13.578900 0.498700
13.608200 0.501800
13.637400 0.503600
13.666700 0.504100
13.695900 0.503100
13.725200 0.501100
13.754400 0.501500
13.783700 0.512400
13.812900 0.503300
13.842200 0.500700
13.871400 0.499400
13.900700 0.500200
13.929900 0.497500
13.959100 0.496100
13.988400 0.494900
14.017600 0.491900
14.046900 0.491700
14.076100 0.492900
14.105400 0.495500
14.134600 0.498700
14.163900 0.501300
14.193100 0.501300
14.222400 0.501100
14.251600 0.504500
14.280900 0.507600
14.310100 0.511500
14.339400 0.517400
14.368600 0.519100
14.397900 0.515800
14.427100 0.511600
14.456400 0.509100
14.485600 0.507700
14.514900 0.505700
14.544100 0.506800
14.573300 0.526700
14.602600 0.537500
14.631800 0.549500
14.661100 0.553700
14.690300 0.552900
14.719600 0.550800
14.748800 0.550200
14.778100 0.543400
14.807300 0.536000
14.836600 0.528900
14.865800 0.524300
14.895100 0.523300
14.924300 0.523200
14.953600 0.521900
14.982800 0.524900
15.012100 0.528800
15.041300 0.532800
15.070600 0.538600
15.099800 0.545600
15.129100 0.553200
15.158300 0.561600
15.187500 0.571000
15.216800 0.580800
15.246000 0.588200
15.275300 0.596500
15.304500 0.606200
15.333800 0.616100
15.363000 0.623300
15.392300 0.629400
15.421500 0.634300
15.450800 0.640900
15.480000 0.641500
15.509300 0.643900
15.538500 0.645500
15.567800 0.649100
15.597000 0.652800
15.626300 0.654300
15.655500 0.654900
15.684800 0.656200
15.714000 0.659100
15.743300 0.660400
15.772500 0.662200
15.801700 0.671200
15.831000 0.674700
15.860200 0.670500
15.889500 0.665000
15.918700 0.654400
15.948000 0.650900
15.977200 0.647800
16.006500 0.646100
16.035700 0.645400
16.065000 0.645500
16.094200 0.645300
16.123500 0.645200
16.152700 0.645100
16.182000 0.645100
16.211200 0.644000
16.240500 0.643600
