set title 'mp-23261 - Density of States'
set xlabel 'Energy (eV)'
set ylabel 'DOS (states/eV)'
set grid
set xrange [-10:10]
set yrange [0:79.962]
set xzeroaxis lt -1
set terminal png size 800,600
set output 'mp-23261_dos_gnuplot.png'
plot '-' using 1:2 with lines title 'DOS'
-19.842100 0.000000
-19.821900 0.000000
-19.801800 0.000000
-19.781600 0.000000
-19.761400 0.000000
-19.741300 0.000000
-19.721100 0.000000
-19.701000 0.000000
-19.680800 0.000000
-19.660700 0.000000
-19.640500 0.000000
-19.620300 0.000000
-19.600200 0.000000
-19.580000 0.000000
-19.559900 0.000000
-19.539700 0.000000
-19.519600 0.000000
-19.499400 0.000000
-19.479300 0.000000
-19.459100 0.000000
-19.438900 0.000000
-19.418800 0.000000
-19.398600 0.000000
-19.378500 0.000000
-19.358300 0.000000
-19.338200 0.000000
-19.318000 0.000000
-19.297900 0.000000
-19.277700 0.000000
-19.257500 0.000000
-19.237400 0.000000
-19.217200 0.000000
-19.197100 0.000000
-19.176900 0.000000
-19.156800 0.000000
-19.136600 0.000000
-19.116400 0.000000
-19.096300 0.000000
-19.076100 0.000000
-19.056000 0.000000
-19.035800 0.000000
-19.015700 0.000000
-18.995500 0.000000
-18.975400 0.000000
-18.955200 0.000000
-18.935000 0.000000
-18.914900 0.000000
-18.894700 0.000000
-18.874600 0.000000
-18.854400 0.000000
-18.834300 0.000000
-18.814100 0.000000
-18.794000 0.000000
-18.773800 0.000000
-18.753600 0.000000
-18.733500 0.000000
-18.713300 0.000000
-18.693200 0.000000
-18.673000 0.000000
-18.652900 0.000000
-18.632700 0.000000
-18.612500 0.000000
-18.592400 0.000000
-18.572200 0.000000
-18.552100 0.000000
-18.531900 0.000000
-18.511800 0.000000
-18.491600 0.000000
-18.471500 0.000000
-18.451300 0.000000
-18.431100 0.000000
-18.411000 0.000000
-18.390800 0.000000
-18.370700 0.000000
-18.350500 0.000000
-18.330400 0.000000
-18.310200 0.000000
-18.290000 0.000000
-18.269900 0.000000
-18.249700 0.000000
-18.229600 0.000000
-18.209400 0.000000
-18.189300 0.000000
-18.169100 0.000000
-18.149000 0.000000
-18.128800 0.000000
-18.108600 0.000000
-18.088500 0.000000
-18.068300 0.000000
-18.048200 0.000000
-18.028000 0.000000
-18.007900 0.002200
-17.987700 0.323200
-17.967600 1.187300
-17.947400 2.893200
-17.927200 5.396100
-17.907100 7.743000
-17.886900 9.565700
-17.866800 9.151200
-17.846600 7.369600
-17.826500 6.760200
-17.806300 10.922500
-17.786100 16.298200
-17.766000 17.509700
-17.745800 14.501600
-17.725700 14.223900
-17.705500 16.693600
-17.685400 21.275400
-17.665200 16.257400
-17.645100 13.602700
-17.624900 17.218300
-17.604700 16.750100
-17.584600 15.172300
-17.564400 25.185400
-17.544300 34.426000
-17.524100 13.833000
-17.504000 19.995200
-17.483800 26.276400
-17.463700 17.006400
-17.443500 9.535000
-17.423300 4.398800
-17.403200 2.354500
-17.383000 0.887700
-17.362900 0.055800
-17.342700 0.000000
-17.322600 0.000000
-17.302400 0.000000
-17.282200 0.000000
-17.262100 0.060700
-17.241900 0.973000
-17.221800 3.124700
-17.201600 5.864100
-17.181500 8.869900
-17.161300 12.571100
-17.141200 16.824500
-17.121000 20.566800
-17.100800 20.372700
-17.080700 18.259500
-17.060500 22.491200
-17.040400 22.299400
-17.020200 15.072600
-17.000100 10.052800
-16.979900 12.814600
-16.959700 19.632700
-16.939600 10.615200
-16.919400 12.631600
-16.899300 13.059100
-16.879100 13.458100
-16.859000 11.389200
-16.838800 10.189900
-16.818700 9.914600
-16.798500 10.242800
-16.778300 11.244100
-16.758200 11.813300
-16.738000 11.591600
-16.717900 10.596100
-16.697700 9.380200
-16.677600 8.200000
-16.657400 7.020500
-16.637300 5.841600
-16.617100 4.665800
-16.596900 3.592200
-16.576800 2.711700
-16.556600 2.174200
-16.536500 1.640900
-16.516300 1.108000
-16.496200 0.575600
-16.476000 0.195900
-16.455800 0.028400
-16.435700 0.000000
-16.415500 0.000000
-16.395400 0.000000
-16.375200 0.000000
-16.355100 0.000000
-16.334900 0.000000
-16.314800 0.000000
-16.294600 0.000000
-16.274400 0.000000
-16.254300 0.000000
-16.234100 0.000000
-16.214000 0.000000
-16.193800 0.000000
-16.173700 0.000000
-16.153500 0.000000
-16.133400 0.000000
-16.113200 0.000000
-16.093000 0.000000
-16.072900 0.000000
-16.052700 0.000000
-16.032600 0.000000
-16.012400 0.000000
-15.992300 0.000000
-15.972100 0.000000
-15.951900 0.000000
-15.931800 0.000000
-15.911600 0.000000
-15.891500 0.000000
-15.871300 0.000000
-15.851200 0.000000
-15.831000 0.000000
-15.810900 0.000000
-15.790700 0.000000
-15.770500 0.000000
-15.750400 0.000000
-15.730200 0.000000
-15.710100 0.000000
-15.689900 0.000000
-15.669800 0.000000
-15.649600 0.000000
-15.629400 0.000000
-15.609300 0.000000
-15.589100 0.000000
-15.569000 0.000000
-15.548800 0.000000
-15.528700 0.000000
-15.508500 0.000000
-15.488400 0.000000
-15.468200 0.000000
-15.448000 0.000000
-15.427900 0.000000
-15.407700 0.000000
-15.387600 0.000000
-15.367400 4.332800
-15.347300 16.813500
-15.327100 65.027800
-15.307000 67.638800
-15.286800 34.902900
-15.266600 17.599200
-15.246500 34.490800
-15.226300 98.582700
-15.206200 30.675200
-15.186000 33.577600
-15.165900 17.849600
-15.145700 18.609300
-15.125500 23.706000
-15.105400 0.000000
-15.085200 0.000000
-15.065100 0.000000
-15.044900 0.000000
-15.024800 0.000000
-15.004600 35.365400
-14.984500 39.029300
-14.964300 102.992700
-14.944100 16.960800
-14.924000 12.012200
-14.903800 83.338300
-14.883700 54.069000
-14.863500 41.229200
-14.843400 24.877300
-14.823200 75.130700
-14.803100 25.122700
-14.782900 69.416800
-14.762700 12.196200
-14.742600 90.585600
-14.722400 106.153700
-14.702300 0.000000
-14.682100 0.000000
-14.662000 0.000000
-14.641800 0.000000
-14.621600 0.000000
-14.601500 0.000000
-14.581300 0.000000
-14.561200 0.000000
-14.541000 0.000000
-14.520900 0.000000
-14.500700 0.000000
-14.480600 0.000000
-14.460400 0.000000
-14.440200 0.000000
-14.420100 0.000000
-14.399900 0.000000
-14.379800 0.000000
-14.359600 0.000000
-14.339500 0.000000
-14.319300 0.000000
-14.299200 0.000000
-14.279000 0.000000
-14.258800 0.000000
-14.238700 0.000000
-14.218500 0.000000
-14.198400 0.000000
-14.178200 0.000000
-14.158100 0.000000
-14.137900 0.000000
-14.117700 0.000000
-14.097600 0.000000
-14.077400 0.000000
-14.057300 0.000000
-14.037100 0.000000
-14.017000 0.000000
-13.996800 0.000000
-13.976700 0.000000
-13.956500 0.000000
-13.936300 0.000000
-13.916200 0.000000
-13.896000 0.000000
-13.875900 0.000000
-13.855700 0.000000
-13.835600 0.000000
-13.815400 0.000000
-13.795200 0.000000
-13.775100 0.000000
-13.754900 0.000000
-13.734800 0.000000
-13.714600 0.000000
-13.694500 0.000000
-13.674300 0.000000
-13.654200 0.000000
-13.634000 0.000000
-13.613800 0.000000
-13.593700 0.000000
-13.573500 0.000000
-13.553400 0.000000
-13.533200 0.000000
-13.513100 0.000000
-13.492900 0.000000
-13.472800 0.000000
-13.452600 0.000000
-13.432400 0.000000
-13.412300 0.000000
-13.392100 0.000000
-13.372000 0.000000
-13.351800 0.000000
-13.331700 0.000000
-13.311500 0.000000
-13.291300 0.000000
-13.271200 0.000000
-13.251000 0.000000
-13.230900 0.000000
-13.210700 0.000000
-13.190600 0.000000
-13.170400 0.000000
-13.150300 0.000000
-13.130100 0.000000
-13.109900 0.000000
-13.089800 0.000000
-13.069600 0.000000
-13.049500 0.000000
-13.029300 0.000000
-13.009200 0.000000
-12.989000 0.000000
-12.968900 0.000000
-12.948700 0.000000
-12.928500 0.000000
-12.908400 0.000000
-12.888200 0.000000
-12.868100 0.000000
-12.847900 0.000000
-12.827800 0.000000
-12.807600 0.000000
-12.787400 0.000000
-12.767300 0.000000
-12.747100 0.000000
-12.727000 0.000000
-12.706800 0.000000
-12.686700 0.000000
-12.666500 0.000000
-12.646400 0.000000
-12.626200 0.000000
-12.606000 0.000000
-12.585900 0.000000
-12.565700 0.000000
-12.545600 0.000000
-12.525400 0.000000
-12.505300 0.000000
-12.485100 0.000000
-12.464900 0.000000
-12.444800 0.000000
-12.424600 0.000000
-12.404500 0.000000
-12.384300 0.000000
-12.364200 0.000000
-12.344000 0.000000
-12.323900 0.000000
-12.303700 0.000000
-12.283500 0.000000
-12.263400 0.000000
-12.243200 0.000000
-12.223100 0.000000
-12.202900 0.000000
-12.182800 0.000000
-12.162600 0.000000
-12.142500 0.000000
-12.122300 0.000000
-12.102100 0.000000
-12.082000 0.000000
-12.061800 0.000000
-12.041700 0.000000
-12.021500 0.000000
-12.001400 0.000000
-11.981200 0.000000
-11.961000 0.000000
-11.940900 0.000000
-11.920700 0.000000
-11.900600 0.000000
-11.880400 0.000000
-11.860300 0.000000
-11.840100 0.000000
-11.820000 0.000000
-11.799800 0.000000
-11.779600 0.000000
-11.759500 0.000000
-11.739300 0.000000
-11.719200 0.000000
-11.699000 0.000000
-11.678900 0.000000
-11.658700 0.000000
-11.638600 0.000000
-11.618400 0.000000
-11.598200 0.000000
-11.578100 0.000000
-11.557900 0.000000
-11.537800 0.000000
-11.517600 0.000000
-11.497500 0.000000
-11.477300 0.000000
-11.457100 0.000000
-11.437000 0.000000
-11.416800 0.000000
-11.396700 0.000000
-11.376500 0.000000
-11.356400 0.000000
-11.336200 0.000000
-11.316100 0.000000
-11.295900 0.000000
-11.275700 0.000000
-11.255600 0.000000
-11.235400 0.000000
-11.215300 0.000000
-11.195100 0.000000
-11.175000 0.000000
-11.154800 0.000000
-11.134600 0.000000
-11.114500 0.000000
-11.094300 0.000000
-11.074200 0.000000
-11.054000 0.000000
-11.033900 0.000000
-11.013700 0.000000
-10.993600 0.000000
-10.973400 0.000000
-10.953200 0.000000
-10.933100 0.000000
-10.912900 0.000000
-10.892800 0.000000
-10.872600 0.000000
-10.852500 0.000000
-10.832300 0.000000
-10.812200 0.000000
-10.792000 0.000000
-10.771800 0.000000
-10.751700 0.000000
-10.731500 0.000000
-10.711400 0.000000
-10.691200 0.000000
-10.671100 0.000000
-10.650900 0.000000
-10.630700 0.000000
-10.610600 0.000000
-10.590400 0.000000
-10.570300 0.000000
-10.550100 0.000000
-10.530000 0.000000
-10.509800 0.000000
-10.489700 0.000000
-10.469500 0.000000
-10.449300 0.000000
-10.429200 0.000000
-10.409000 0.000000
-10.388900 0.000000
-10.368700 0.000000
-10.348600 0.047600
-10.328400 0.216900
-10.308300 0.513400
-10.288100 1.084300
-10.267900 1.652700
-10.247800 2.218600
-10.227600 2.782000
-10.207500 3.322300
-10.187300 3.815400
-10.167200 4.893100
-10.147000 6.311600
-10.126800 7.617000
-10.106700 8.315300
-10.086500 8.378600
-10.066400 8.019100
-10.046200 7.618700
-10.026100 7.208700
-10.005900 6.788900
-9.985800 6.242700
-9.965600 5.728300
-9.945400 5.303000
-9.925300 5.049500
-9.905100 4.851800
-9.885000 4.748600
-9.864800 4.778700
-9.844700 5.295500
-9.824500 5.851000
-9.804400 6.360700
-9.784200 6.824100
-9.764000 8.308900
-9.743900 8.265800
-9.723700 8.248000
-9.703600 8.202500
-9.683400 4.671100
-9.663300 5.627000
-9.643100 6.488100
-9.622900 7.259600
-9.602800 15.067300
-9.582600 6.318600
-9.562500 5.991200
-9.542300 5.917800
-9.522200 6.013200
-9.502000 9.901700
-9.481900 14.121700
-9.461700 14.767100
-9.441500 11.308100
-9.421400 8.380300
-9.401200 8.372600
-9.381100 8.391800
-9.360900 8.397400
-9.340800 8.364700
-9.320600 10.849900
-9.300400 10.896100
-9.280300 11.472800
-9.260100 8.357900
-9.240000 6.158100
-9.219800 5.449700
-9.199700 4.633600
-9.179500 3.712900
-9.159400 2.790600
-9.139200 1.866800
-9.119000 1.020500
-9.098900 0.568000
-9.078700 0.220300
-9.058600 0.033100
-9.038400 0.000000
-9.018300 0.000000
-8.998100 0.000000
-8.978000 0.002300
-8.957800 0.023800
-8.937600 0.067900
-8.917500 0.134700
-8.897300 0.221800
-8.877200 0.324100
-8.857000 0.441500
-8.836900 0.573900
-8.816700 0.721500
-8.796500 0.884200
-8.776400 1.061900
-8.756200 1.389900
-8.736100 1.745400
-8.715900 2.086700
-8.695800 2.384400
-8.675600 2.702900
-8.655500 3.303200
-8.635300 4.084900
-8.615100 5.178400
-8.595000 6.234700
-8.574800 7.227400
-8.554700 9.454600
-8.534500 10.130900
-8.514400 10.502200
-8.494200 10.093600
-8.474100 10.285300
-8.453900 9.259400
-8.433700 9.845800
-8.413600 9.567000
-8.393400 9.241600
-8.373300 8.869800
-8.353100 8.451400
-8.333000 7.934800
-8.312800 7.006600
-8.292600 6.115700
-8.272500 5.693000
-8.252300 4.863600
-8.232200 4.904500
-8.212000 6.094400
-8.191900 5.949700
-8.171700 5.813700
-8.151600 5.819500
-8.131400 5.908500
-8.111200 6.006600
-8.091100 4.502700
-8.070900 3.458000
-8.050800 2.966400
-8.030600 2.803500
-8.010500 4.382200
-7.990300 5.314300
-7.970100 6.315200
-7.950000 6.448100
-7.929800 6.589300
-7.909700 6.759400
-7.889500 5.267500
-7.869400 5.027200
-7.849200 4.810900
-7.829100 4.724100
-7.808900 5.034600
-7.788700 5.181400
-7.768600 5.166600
-7.748400 5.087400
-7.728300 4.944000
-7.708100 4.736300
-7.688000 4.464200
-7.667800 4.127800
-7.647700 3.771400
-7.627500 3.537000
-7.607300 3.390100
-7.587200 3.296500
-7.567000 3.222200
-7.546900 3.162100
-7.526700 3.116800
-7.506600 3.086400
-7.486400 3.047900
-7.466200 2.922000
-7.446100 2.755000
-7.425900 2.560000
-7.405800 2.377800
-7.385600 2.211300
-7.365500 2.060600
-7.345300 1.944100
-7.325200 1.862400
-7.305000 1.781500
-7.284800 1.701300
-7.264700 1.621900
-7.244500 1.544700
-7.224400 1.469600
-7.204200 1.394700
-7.184100 1.320000
-7.163900 1.245400
-7.143800 1.170900
-7.123600 1.096500
-7.103400 1.022400
-7.083300 0.948300
-7.063100 0.874400
-7.043000 0.800900
-7.022800 0.727900
-7.002700 0.655200
-6.982500 0.583000
-6.962300 0.511300
-6.942200 0.440000
-6.922000 0.369100
-6.901900 0.298700
-6.881700 0.241200
-6.861600 0.202400
-6.841400 0.167100
-6.821300 0.135100
-6.801100 0.106500
-6.780900 0.081300
-6.760800 0.059500
-6.740600 0.041100
-6.720500 0.026100
-6.700300 0.014500
-6.680200 0.006300
-6.660000 0.001400
-6.639800 0.000000
-6.619700 0.000000
-6.599500 0.000000
-6.579400 0.000000
-6.559200 0.000000
-6.539100 0.000000
-6.518900 0.000000
-6.498800 0.000000
-6.478600 0.000000
-6.458400 0.000000
-6.438300 0.000000
-6.418100 0.000000
-6.398000 0.000000
-6.377800 0.000000
-6.357700 0.000000
-6.337500 0.000000
-6.317400 0.000000
-6.297200 0.000000
-6.277000 0.000000
-6.256900 0.000000
-6.236700 0.000000
-6.216600 0.000000
-6.196400 0.000000
-6.176300 0.000000
-6.156100 0.000000
-6.135900 0.000000
-6.115800 0.000000
-6.095600 0.000000
-6.075500 0.000000
-6.055300 0.000000
-6.035200 0.000000
-6.015000 0.000000
-5.994900 0.000000
-5.974700 0.000000
-5.954500 0.000000
-5.934400 0.000000
-5.914200 0.000000
-5.894100 0.000000
-5.873900 0.000000
-5.853800 0.000000
-5.833600 0.000000
-5.813500 0.000000
-5.793300 0.000000
-5.773100 0.000000
-5.753000 0.000000
-5.732800 0.000000
-5.712700 0.000000
-5.692500 0.000000
-5.672400 0.000000
-5.652200 0.000000
-5.632000 0.000000
-5.611900 0.000000
-5.591700 0.000000
-5.571600 0.000000
-5.551400 0.000000
-5.531300 0.000000
-5.511100 0.000000
-5.491000 0.000000
-5.470800 0.000000
-5.450600 0.000000
-5.430500 0.000000
-5.410300 0.000000
-5.390200 0.000000
-5.370000 0.000000
-5.349900 0.000000
-5.329700 0.000000
-5.309500 0.000000
-5.289400 0.000000
-5.269200 0.000000
-5.249100 0.000000
-5.228900 0.000000
-5.208800 0.000000
-5.188600 0.000000
-5.168500 0.000000
-5.148300 0.000000
-5.128100 0.000000
-5.108000 0.000000
-5.087800 0.000000
-5.067700 0.000000
-5.047500 0.000000
-5.027400 0.000000
-5.007200 0.000000
-4.987100 0.000000
-4.966900 0.000000
-4.946700 0.000000
-4.926600 0.000000
-4.906400 0.000000
-4.886300 0.000000
-4.866100 0.000000
-4.846000 0.000000
-4.825800 0.000000
-4.805600 1.204700
-4.785500 3.869000
-4.765300 8.106700
-4.745200 9.512700
-4.725000 11.115900
-4.704900 15.433000
-4.684700 19.761500
-4.664600 27.071700
-4.644400 14.195700
-4.624200 19.390900
-4.604100 19.849400
-4.583900 19.980900
-4.563800 19.594000
-4.543600 6.973200
-4.523500 3.235300
-4.503300 1.830000
-4.483200 1.877700
-4.463000 2.640800
-4.442800 7.229400
-4.422700 12.590300
-4.402500 14.718900
-4.382400 14.145400
-4.362200 9.955400
-4.342100 11.462400
-4.321900 16.548400
-4.301700 17.242000
-4.281600 13.449800
-4.261400 11.266500
-4.241300 9.805300
-4.221100 10.534200
-4.201000 11.539300
-4.180800 9.356300
-4.160700 7.416000
-4.140500 5.442500
-4.120300 3.435700
-4.100200 2.511400
-4.080000 1.772800
-4.059900 1.080200
-4.039700 0.433500
-4.019600 0.000000
-3.999400 0.000000
-3.979300 0.000000
-3.959100 0.000000
-3.938900 0.000000
-3.918800 0.000000
-3.898600 0.000000
-3.878500 0.000000
-3.858300 0.000000
-3.838200 0.018800
-3.818000 0.205600
-3.797800 0.458700
-3.777700 0.711400
-3.757500 0.963800
-3.737400 1.255100
-3.717200 1.636500
-3.697100 2.067200
-3.676900 2.547400
-3.656800 3.062000
-3.636600 3.578200
-3.616400 4.094700
-3.596300 4.641400
-3.576100 6.322100
-3.556000 9.227500
-3.535800 13.102100
-3.515700 12.452600
-3.495500 11.858900
-3.475300 13.032700
-3.455200 15.618400
-3.435000 18.929900
-3.414900 18.935500
-3.394700 15.153100
-3.374600 16.776200
-3.354400 19.551900
-3.334300 9.937300
-3.314100 6.163100
-3.293900 5.687200
-3.273800 6.070500
-3.253600 7.327700
-3.233500 10.080200
-3.213300 12.568100
-3.193200 14.330800
-3.173000 26.211300
-3.152900 13.677500
-3.132700 9.925400
-3.112500 8.850200
-3.092400 8.281500
-3.072200 11.913800
-3.052100 14.248100
-3.031900 14.009300
-3.011800 12.410000
-2.991600 8.534000
-2.971400 1.933300
-2.951300 0.802300
-2.931100 1.527700
-2.911000 2.352300
-2.890800 4.951800
-2.870700 11.683600
-2.850500 29.074100
-2.830400 20.985000
-2.810200 16.446200
-2.790000 34.869800
-2.769900 33.748300
-2.749700 29.469700
-2.729600 6.494500
-2.709400 2.430600
-2.689300 1.304400
-2.669100 2.711600
-2.649000 8.438700
-2.628800 11.575800
-2.608600 16.330200
-2.588500 20.699600
-2.568300 19.972800
-2.548200 19.471000
-2.528000 19.171900
-2.507900 17.695000
-2.487700 14.943700
-2.467500 13.296700
-2.447400 12.457100
-2.427200 12.249600
-2.407100 12.580100
-2.386900 13.039200
-2.366800 9.909300
-2.346600 17.940300
-2.326500 21.254600
-2.306300 16.719900
-2.286100 15.431500
-2.266000 14.725200
-2.245800 12.417100
-2.225700 9.795800
-2.205500 8.469400
-2.185400 7.577100
-2.165200 6.835500
-2.145000 5.791900
-2.124900 10.043200
-2.104700 10.015100
-2.084600 9.864500
-2.064400 8.114900
-2.044300 8.888300
-2.024100 10.579500
-2.004000 13.083400
-1.983800 15.505000
-1.963600 17.663200
-1.943500 20.376100
-1.923300 8.398500
-1.903200 17.713400
-1.883000 24.141100
-1.862900 38.916000
-1.842700 5.827700
-1.822600 4.199000
-1.802400 3.410300
-1.782200 8.367200
-1.762100 12.258300
-1.741900 13.872500
-1.721800 11.218700
-1.701600 9.896100
-1.681500 8.586100
-1.661300 46.290400
-1.641100 15.881700
-1.621000 12.068200
-1.600800 10.476900
-1.580700 15.866700
-1.560500 18.664900
-1.540400 19.175100
-1.520200 19.346600
-1.500100 16.644600
-1.479900 9.802300
-1.459700 10.667000
-1.439600 11.613600
-1.419400 12.881600
-1.399300 13.283400
-1.379100 14.104300
-1.359000 19.710300
-1.338800 16.573400
-1.318700 5.696000
-1.298500 6.911500
-1.278300 9.054900
-1.258200 23.613000
-1.238000 3.453400
-1.217900 2.141800
-1.197700 1.368900
-1.177600 3.308900
-1.157400 6.697100
-1.137200 10.179900
-1.117100 16.060900
-1.096900 18.866200
-1.076800 18.207600
-1.056600 16.740200
-1.036500 14.816100
-1.016300 12.925200
-0.996200 14.223000
-0.976000 25.074000
-0.955800 15.976600
-0.935700 9.167100
-0.915500 6.842700
-0.895400 4.663400
-0.875200 2.670000
-0.855100 1.284700
-0.834900 0.554800
-0.814700 0.126900
-0.794600 0.000000
-0.774400 0.000000
-0.754300 0.000000
-0.734100 0.000000
-0.714000 0.000000
-0.693800 0.000000
-0.673700 0.000000
-0.653500 0.182700
-0.633300 1.031900
-0.613200 3.849100
-0.593000 7.506600
-0.572900 11.046200
-0.552700 15.527900
-0.532600 20.616400
-0.512400 21.598100
-0.492300 24.514000
-0.472100 23.623100
-0.451900 21.904000
-0.431800 15.216600
-0.411600 12.066100
-0.391500 8.955700
-0.371300 6.849600
-0.351200 3.635200
-0.331000 3.241300
-0.310800 3.169000
-0.290700 4.026000
-0.270500 5.041100
-0.250400 6.241100
-0.230200 7.462700
-0.210100 8.795200
-0.189900 9.153000
-0.169800 9.187900
-0.149600 9.880800
-0.129400 11.339600
-0.109300 11.590800
-0.089100 11.455600
-0.069000 10.877900
-0.048800 12.062100
-0.028700 17.564500
-0.008500 30.231800
0.011600 40.997100
0.031800 16.341100
0.052000 31.390100
0.072100 27.611300
0.092300 18.652200
0.112400 17.783200
0.132600 24.663900
0.152700 33.207400
0.172900 30.768100
0.193100 38.528500
0.213200 22.363300
0.233400 32.391500
0.253500 52.108700
0.273700 32.739500
0.293800 27.047700
0.314000 23.532000
