set title 'mp-1072544 - Density of States'
set xlabel 'Energy (eV)'
set ylabel 'DOS (states/eV)'
set grid
set xrange [-10:10]
set yrange [0:8.505]
set xzeroaxis lt -1
set terminal png size 800,600
set output 'mp-1072544_dos_gnuplot.png'
plot '-' using 1:2 with lines title 'DOS'
-9.290200 0.000000
-9.274100 0.000000
-9.258000 0.000000
-9.241800 0.000000
-9.225700 0.000000
-9.209600 0.000000
-9.193400 0.000000
-9.177300 0.000000
-9.161200 0.000000
-9.145000 0.000000
-9.128900 0.000000
-9.112800 0.000000
-9.096600 0.000000
-9.080500 0.000000
-9.064400 0.000000
-9.048200 0.000000
-9.032100 0.000000
-9.016000 0.000000
-8.999800 0.000000
-8.983700 0.000000
-8.967600 0.000000
-8.951400 0.000000
-8.935300 0.000000
-8.919200 0.000000
-8.903000 0.000000
-8.886900 0.000000
-8.870800 0.000000
-8.854600 0.000000
-8.838500 0.000000
-8.822400 0.000000
-8.806200 0.000000
-8.790100 0.000000
-8.774000 0.000000
-8.757800 0.000000
-8.741700 0.000000
-8.725600 0.000000
-8.709400 0.000000
-8.693300 0.000000
-8.677100 0.000000
-8.661000 0.000000
-8.644900 0.000000
-8.628700 0.000000
-8.612600 0.000000
-8.596500 0.000000
-8.580300 0.000000
-8.564200 0.000000
-8.548100 0.000000
-8.531900 0.000000
-8.515800 0.000000
-8.499700 0.000000
-8.483500 0.000000
-8.467400 0.000000
-8.451300 0.000000
-8.435100 0.000000
-8.419000 0.000000
-8.402900 0.000000
-8.386700 0.000000
-8.370600 0.000000
-8.354500 0.000000
-8.338300 0.000000
-8.322200 0.000000
-8.306100 0.000000
-8.289900 0.000000
-8.273800 0.000000
-8.257700 0.000000
-8.241500 0.000000
-8.225400 0.000000
-8.209300 0.000000
-8.193100 0.000000
-8.177000 0.000000
-8.160900 0.000000
-8.144700 0.000000
-8.128600 0.000000
-8.112500 0.000000
-8.096300 0.000000
-8.080200 0.000000
-8.064100 0.000000
-8.047900 0.000000
-8.031800 0.000000
-8.015700 0.000000
-7.999500 0.000000
-7.983400 0.000000
-7.967200 0.000000
-7.951100 0.000000
-7.935000 0.000000
-7.918800 0.000000
-7.902700 0.000000
-7.886600 0.000000
-7.870400 0.000000
-7.854300 0.000000
-7.838200 0.000000
-7.822000 0.000200
-7.805900 0.027200
-7.789800 0.099800
-7.773600 0.218100
-7.757500 0.333100
-7.741400 0.372100
-7.725200 0.419900
-7.709100 0.476400
-7.693000 0.538200
-7.676800 0.593800
-7.660700 0.642300
-7.644600 0.683500
-7.628400 0.719400
-7.612300 0.735100
-7.596200 0.757400
-7.580000 0.786100
-7.563900 0.819600
-7.547800 0.857600
-7.531600 0.899900
-7.515500 0.917500
-7.499400 0.955300
-7.483200 0.993600
-7.467100 1.032500
-7.451000 1.065700
-7.434800 1.086300
-7.418700 1.094300
-7.402600 1.128200
-7.386400 1.157400
-7.370300 1.187500
-7.354200 1.218200
-7.338000 1.247300
-7.321900 1.274100
-7.305700 1.298800
-7.289600 1.321500
-7.273500 1.349300
-7.257300 1.382600
-7.241200 1.421000
-7.225100 1.461300
-7.208900 1.503100
-7.192800 1.546300
-7.176700 1.580300
-7.160500 1.614400
-7.144400 1.646200
-7.128300 1.676200
-7.112100 1.709500
-7.096000 1.743300
-7.079900 1.816200
-7.063700 1.877400
-7.047600 1.944600
-7.031500 2.018000
-7.015300 2.097600
-6.999200 2.183300
-6.983100 2.280200
-6.966900 2.428100
-6.950800 2.586400
-6.934700 2.731100
-6.918500 2.816300
-6.902400 2.849100
-6.886300 2.863100
-6.870100 2.858200
-6.854000 2.836900
-6.837900 3.096100
-6.821700 2.860500
-6.805600 2.638800
-6.789500 2.626100
-6.773300 2.507600
-6.757200 2.351800
-6.741100 2.263300
-6.724900 2.188400
-6.708800 2.106300
-6.692700 2.017000
-6.676500 1.930200
-6.660400 1.798800
-6.644300 1.668900
-6.628100 1.540600
-6.612000 1.413900
-6.595800 1.288800
-6.579700 1.095300
-6.563600 1.006100
-6.547400 1.003800
-6.531300 0.892000
-6.515200 0.770300
-6.499000 0.638800
-6.482900 0.357800
-6.466800 0.303000
-6.450600 0.273000
-6.434500 0.252800
-6.418400 0.241800
-6.402200 0.387300
-6.386100 0.105200
-6.370000 0.260900
-6.353800 0.467700
-6.337700 0.725400
-6.321600 1.269200
-6.305400 1.707400
-6.289300 2.073800
-6.273200 2.137600
-6.257000 2.249500
-6.240900 2.363800
-6.224800 2.467400
-6.208600 2.742300
-6.192500 3.014300
-6.176400 3.378300
-6.160200 3.658300
-6.144100 3.729900
-6.128000 3.663400
-6.111800 3.531300
-6.095700 3.299900
-6.079600 2.981500
-6.063400 2.717300
-6.047300 2.586900
-6.031200 2.462900
-6.015000 2.345100
-5.998900 2.233500
-5.982800 2.108000
-5.966600 2.011700
-5.950500 1.920600
-5.934400 1.834900
-5.918200 1.752300
-5.902100 1.672800
-5.885900 1.596800
-5.869800 1.537400
-5.853700 1.479900
-5.837500 1.446900
-5.821400 1.415200
-5.805300 1.384800
-5.789100 1.355800
-5.773000 1.318900
-5.756900 1.294800
-5.740700 1.271400
-5.724600 1.248900
-5.708500 1.227100
-5.692300 1.206100
-5.676200 1.185700
-5.660100 1.165900
-5.643900 1.146700
-5.627800 1.128200
-5.611700 1.110200
-5.595500 1.092500
-5.579400 1.075200
-5.563300 1.058300
-5.547100 1.082600
-5.531000 1.076700
-5.514900 1.078600
-5.498700 1.075900
-5.482600 1.074200
-5.466500 1.073400
-5.450300 1.073400
-5.434200 1.028300
-5.418100 1.024300
-5.401900 1.021300
-5.385800 1.019300
-5.369700 1.017900
-5.353500 1.017100
-5.337400 1.016900
-5.321300 1.017200
-5.305100 1.018100
-5.289000 1.019500
-5.272900 1.021500
-5.256700 1.008200
-5.240600 1.014300
-5.224500 1.020700
-5.208300 1.027600
-5.192200 1.034900
-5.176000 1.042800
-5.159900 1.052200
-5.143800 1.060500
-5.127600 1.068500
-5.111500 1.076100
-5.095400 1.083400
-5.079200 1.090200
-5.063100 1.096700
-5.047000 1.109700
-5.030800 1.129100
-5.014700 1.149300
-4.998600 1.160100
-4.982400 1.170700
-4.966300 1.181100
-4.950200 1.191400
-4.934000 1.201400
-4.917900 1.211200
-4.901800 1.220900
-4.885600 1.230400
-4.869500 1.239600
-4.853400 1.252000
-4.837200 1.268000
-4.821100 1.285400
-4.805000 1.303000
-4.788800 1.321000
-4.772700 1.339200
-4.756600 1.357700
-4.740400 1.376500
-4.724300 1.395500
-4.708200 1.413400
-4.692000 1.455400
-4.675900 1.515600
-4.659800 1.576200
-4.643600 1.637200
-4.627500 1.731800
-4.611400 1.762200
-4.595200 1.802000
-4.579100 1.840600
-4.563000 1.879400
-4.546800 1.928500
-4.530700 1.974200
-4.514500 2.016700
-4.498400 2.055800
-4.482300 2.091700
-4.466100 2.123700
-4.450000 2.149800
-4.433900 2.217000
-4.417700 2.225800
-4.401600 2.225900
-4.385500 2.184000
-4.369300 2.132000
-4.353200 2.069900
-4.337100 2.038500
-4.320900 2.015800
-4.304800 1.987100
-4.288700 1.952600
-4.272500 1.914000
-4.256400 1.872600
-4.240300 1.828300
-4.224100 1.781100
-4.208000 1.725500
-4.191900 1.695500
-4.175700 1.664200
-4.159600 1.627700
-4.143500 1.590900
-4.127300 1.648600
-4.111200 1.577700
-4.095100 1.494300
-4.078900 1.476400
-4.062800 1.460400
-4.046700 1.432600
-4.030500 1.390500
-4.014400 1.334100
-3.998300 1.251500
-3.982100 1.166700
-3.966000 1.085300
-3.949900 0.990800
-3.933700 0.907600
-3.917600 0.828400
-3.901500 0.753000
-3.885300 0.681600
-3.869200 0.602400
-3.853100 0.639300
-3.836900 0.672600
-3.820800 0.790000
-3.804600 0.896900
-3.788500 0.930300
-3.772400 0.957100
-3.756200 0.988400
-3.740100 1.024300
-3.724000 1.079600
-3.707800 1.132600
-3.691700 1.199800
-3.675600 1.269900
-3.659400 1.333900
-3.643300 1.401000
-3.627200 1.557300
-3.611000 1.644300
-3.594900 1.723800
-3.578800 1.816800
-3.562600 1.935200
-3.546500 2.067600
-3.530400 2.176500
-3.514200 2.299500
-3.498100 2.404200
-3.482000 2.488600
-3.465800 2.578200
-3.449700 2.689900
-3.433600 2.804700
-3.417400 2.920600
-3.401300 3.000600
-3.385200 3.052100
-3.369000 3.107800
-3.352900 3.172200
-3.336800 3.252700
-3.320600 3.369600
-3.304500 3.604000
-3.288400 3.289000
-3.272200 3.113200
-3.256100 3.027100
-3.240000 2.941800
-3.223800 2.855600
-3.207700 2.683200
-3.191600 2.517600
-3.175400 2.411400
-3.159300 2.610300
-3.143200 1.921100
-3.127000 1.902000
-3.110900 1.936100
-3.094700 1.952700
-3.078600 1.944900
-3.062500 1.816900
-3.046300 1.798800
-3.030200 1.781500
-3.014100 1.765000
-2.997900 1.749200
-2.981800 1.734300
-2.965700 1.729000
-2.949500 1.716100
-2.933400 1.704200
-2.917300 1.693200
-2.901100 1.683100
-2.885000 1.674000
-2.868900 1.665800
-2.852700 1.658500
-2.836600 1.652100
-2.820500 1.749600
-2.804300 1.749600
-2.788200 1.738600
-2.772100 1.690900
-2.755900 1.686700
-2.739800 1.683000
-2.723700 1.679300
-2.707500 1.675600
-2.691400 1.671900
-2.675300 1.633000
-2.659100 1.605300
-2.643000 1.577600
-2.626900 1.559400
-2.610700 1.542600
-2.594600 1.534400
-2.578500 1.526000
-2.562300 1.499200
-2.546200 1.492800
-2.530100 1.485800
-2.513900 1.478200
-2.497800 1.481600
-2.481700 1.473700
-2.465500 1.466700
-2.449400 1.462500
-2.433200 1.457800
-2.417100 1.452700
-2.401000 1.447300
-2.384800 1.441300
-2.368700 1.435000
-2.352600 1.428300
-2.336400 1.421100
-2.320300 1.413600
-2.304200 1.405800
-2.288000 1.399600
-2.271900 1.395500
-2.255800 1.393200
-2.239600 1.392900
-2.223500 1.394300
-2.207400 1.396800
-2.191200 1.401000
-2.175100 1.407100
-2.159000 1.431100
-2.142800 1.438100
-2.126700 1.394400
-2.110600 1.394800
-2.094400 1.392600
-2.078300 1.387700
-2.062200 1.380200
-2.046000 1.371000
-2.029900 1.361500
-2.013800 1.351600
-1.997600 1.341300
-1.981500 1.330700
-1.965400 1.311000
-1.949200 1.304600
-1.933100 1.298600
-1.917000 1.292400
-1.900800 1.285600
-1.884700 1.279300
-1.868600 1.273600
-1.852400 1.360400
-1.836300 1.375000
-1.820200 1.372100
-1.804000 1.351900
-1.787900 1.328800
-1.771800 1.312400
-1.755600 1.302900
-1.739500 1.300100
-1.723300 1.302400
-1.707200 1.305200
-1.691100 1.308200
-1.674900 1.311300
-1.658800 1.314600
-1.642700 1.334400
-1.626500 1.316500
-1.610400 1.300300
-1.594300 1.285900
-1.578100 1.332900
-1.562000 1.335900
-1.545900 1.339500
-1.529700 1.377000
-1.513600 1.354200
-1.497500 1.355100
-1.481300 1.354200
-1.465200 1.351500
-1.449100 1.346900
-1.432900 1.340900
-1.416800 1.342600
-1.400700 1.370900
-1.384500 1.544700
-1.368400 1.612600
-1.352300 1.402800
-1.336100 1.336500
-1.320000 1.273300
-1.303900 1.213200
-1.287700 1.156100
-1.271600 1.102000
-1.255500 1.036500
-1.239300 0.990100
-1.223200 0.947600
-1.207100 0.909100
-1.190900 0.858500
-1.174800 0.815600
-1.158700 0.811100
-1.142500 0.811600
-1.126400 1.062000
-1.110300 1.112700
-1.094100 0.926800
-1.078000 0.903800
-1.061900 0.879300
-1.045700 0.866000
-1.029600 0.868600
-1.013400 0.883700
-0.997300 0.899900
-0.981200 0.917100
-0.965000 0.935400
-0.948900 0.954700
-0.932800 0.975000
-0.916600 1.007300
-0.900500 1.041000
-0.884400 1.074600
-0.868200 1.107800
-0.852100 1.140400
-0.836000 1.172600
-0.819800 1.204300
-0.803700 1.238400
-0.787600 1.274700
-0.771400 1.313400
-0.755300 1.354400
-0.739200 1.398200
-0.723000 1.444000
-0.706900 1.491600
-0.690800 1.540900
-0.674600 1.592100
-0.658500 1.645000
-0.642400 1.705500
-0.626200 1.777900
-0.610100 1.962700
-0.594000 2.150100
-0.577800 2.373700
-0.561700 2.631400
-0.545600 2.823100
-0.529400 2.845200
-0.513300 3.020800
-0.497200 3.261200
-0.481000 3.541900
-0.464900 3.509300
-0.448800 3.583500
-0.432600 3.698900
-0.416500 3.735500
-0.400400 3.741800
-0.384200 3.732000
-0.368100 3.748400
-0.352000 3.847500
-0.335800 3.885600
-0.319700 3.838400
-0.303500 3.472600
-0.287400 2.880900
-0.271300 2.467000
-0.255100 2.098300
-0.239000 1.774800
-0.222900 1.518000
-0.206700 1.340800
-0.190600 1.185100
-0.174500 1.012400
-0.158300 0.997600
-0.142200 1.047700
-0.126100 1.100100
-0.109900 1.180100
-0.093800 1.253400
-0.077700 1.324600
-0.061500 1.393500
-0.045400 1.460200
-0.029300 1.573000
-0.013100 1.603500
0.003000 1.635700
0.019100 1.669400
0.035300 1.704700
0.051400 1.741600
0.067500 1.780100
0.083700 1.820100
0.099800 1.861700
0.115900 1.903900
0.132100 1.940500
0.148200 1.964800
0.164300 1.981400
0.180500 2.159000
0.196600 2.409300
0.212700 2.355900
0.228900 2.340500
0.245000 2.306000
0.261100 2.332700
0.277300 2.377600
0.293400 2.499600
0.309500 2.713700
0.325700 2.940100
0.341800 3.185800
0.358000 3.336500
0.374100 3.474500
0.390200 3.522800
0.406400 3.572600
0.422500 3.668100
0.438600 3.752700
0.454800 3.829200
0.470900 3.897700
0.487000 3.973100
0.503200 4.179500
0.519300 4.391300
0.535400 4.336200
0.551600 4.345700
0.567700 4.338900
0.583800 4.311800
0.600000 4.267800
0.616100 4.221100
0.632200 4.173000
0.648400 4.123100
0.664500 4.127700
0.680600 4.206600
0.696800 4.141000
0.712900 4.183500
0.729000 4.280900
0.745200 4.480200
0.761300 4.464600
0.777400 4.397600
0.793600 4.312000
0.809700 4.208000
0.825800 4.127800
0.842000 4.158500
0.858100 4.035000
0.874200 3.956500
0.890400 4.256400
0.906500 4.196800
0.922600 4.006700
0.938800 3.957600
0.954900 4.097800
0.971000 4.307600
0.987200 4.483100
1.003300 4.896800
1.019400 5.262000
1.035600 5.645500
1.051700 5.747400
1.067900 5.835900
1.084000 6.046200
1.100100 6.502500
1.116300 6.765500
1.132400 6.878100
1.148500 7.207400
1.164700 5.693300
1.180800 4.435100
1.196900 3.205900
1.213100 2.611200
1.229200 2.495500
1.245300 2.384000
1.261500 2.276900
1.277600 2.174000
1.293700 2.107700
1.309900 2.018900
1.326000 1.936200
1.342100 1.877500
1.358300 1.884000
1.374400 1.890600
1.390500 1.929600
1.406700 1.999700
1.422800 2.049900
1.438900 1.933000
1.455100 1.883400
1.471200 1.901400
1.487300 1.929900
1.503500 1.968800
1.519600 2.016300
1.535700 2.753100
1.551900 1.942100
1.568000 2.000100
1.584100 2.075600
1.600300 2.168700
1.616400 2.277100
1.632500 2.292400
1.648700 2.321700
1.664800 2.363500
1.680900 2.442900
1.697100 2.499900
1.713200 2.571600
1.729300 2.682900
1.745500 2.800600
1.761600 2.681700
1.777800 2.790400
1.793900 3.007400
1.810000 3.417900
1.826200 3.889600
1.842300 4.417700
1.858400 4.931300
1.874600 5.386400
1.890700 5.825100
1.906800 6.069600
1.923000 6.158300
1.939100 6.552900
1.955200 6.585200
1.971400 7.731500
1.987500 7.073300
2.003600 7.517000
2.019800 7.486800
2.035900 5.638900
2.052000 5.907600
2.068200 6.015000
2.084300 6.111100
2.100400 6.195900
2.116600 6.153100
2.132700 6.358400
2.148800 6.470200
2.165000 5.376400
2.181100 5.017700
2.197200 4.735800
2.213400 4.501100
2.229500 4.400700
2.245600 4.337200
2.261800 4.281900
2.277900 4.232200
2.294000 4.181700
2.310200 4.128600
2.326300 4.077600
2.342400 4.064600
2.358600 4.207800
2.374700 4.174400
2.390800 3.931000
2.407000 3.681600
2.423100 3.364400
2.439300 3.078000
2.455400 2.983700
2.471500 2.935300
2.487700 2.893300
2.503800 2.865100
2.519900 2.851000
2.536100 2.760400
2.552200 2.708000
2.568300 2.667900
2.584500 2.638300
2.600600 2.637400
2.616700 2.612400
2.632900 2.586300
2.649000 2.559200
2.665100 2.537100
2.681300 2.509400
2.697400 2.482300
2.713500 2.456000
2.729700 2.430200
2.745800 2.405200
2.761900 2.380800
2.778100 2.361800
2.794200 2.339800
2.810300 2.541800
2.826500 2.416900
2.842600 2.410000
2.858700 2.404600
2.874900 2.400400
2.891000 2.397600
2.907100 2.396100
2.923300 2.397900
2.939400 2.357900
2.955500 2.314300
2.971700 2.267900
2.987800 2.224700
3.003900 2.184100
3.020100 2.155600
3.036200 2.133400
3.052300 2.084200
3.068500 2.049200
3.084600 1.992200
3.100700 1.931400
3.116900 1.868000
3.133000 1.792500
3.149200 1.716700
3.165300 1.640600
3.181400 1.564100
3.197600 1.494900
3.213700 1.454100
3.229800 1.421700
3.246000 1.489100
3.262100 1.426000
3.278200 1.348300
3.294400 1.324900
3.310500 1.308900
3.326600 1.292500
3.342800 1.266500
3.358900 1.209500
3.375000 1.151300
3.391200 1.092000
3.407300 1.031500
3.423400 1.049100
3.439600 0.955900
3.455700 0.879500
3.471800 0.819700
3.488000 0.775400
3.504100 0.732600
3.520200 0.687300
3.536400 0.646800
3.552500 0.648800
3.568600 0.642300
3.584800 0.627100
3.600900 0.603300
3.617000 0.570800
3.633200 0.485400
3.649300 0.417600
3.665400 0.355100
3.681600 0.298000
3.697700 0.246300
3.713800 0.199900
3.730000 0.158900
3.746100 0.123200
3.762200 0.000000
3.778400 0.000000
3.794500 0.000000
3.810600 0.000000
3.826800 0.000000
3.842900 0.000000
3.859100 0.000000
3.875200 0.000000
3.891300 0.000000
3.907500 0.000000
3.923600 0.000000
3.939700 0.000000
3.955900 0.005000
3.972000 0.024900
3.988100 0.060100
4.004300 0.110600
4.020400 0.176200
4.036500 0.257200
4.052700 0.386100
4.068800 0.459100
4.084900 0.529700
4.101100 0.597900
4.117200 0.808900
4.133300 0.935600
4.149500 1.098800
4.165600 1.118700
4.181700 1.146900
4.197900 1.136300
4.214000 1.105800
4.230100 1.126800
4.246300 1.151400
4.262400 1.191300
4.278500 1.227200
4.294700 1.259000
4.310800 1.286800
4.326900 1.310600
4.343100 1.330400
4.359200 1.523400
4.375300 1.555300
4.391500 1.530600
4.407600 1.523100
4.423700 1.562000
4.439900 1.597900
4.456000 1.628600
4.472100 1.654200
4.488300 1.674700
4.504400 1.694300
4.520500 1.715800
4.536700 1.743200
4.552800 1.771500
4.569000 1.800700
4.585100 1.836600
4.601200 1.883500
4.617400 1.930800
4.633500 1.978600
4.649600 2.026900
4.665800 2.075700
4.681900 2.316600
4.698000 2.384100
4.714200 2.433800
4.730300 2.484200
4.746400 2.530500
4.762600 2.561500
4.778700 2.628600
4.794800 2.634400
4.811000 2.633200
4.827100 2.676900
4.843200 2.448100
4.859400 2.343300
4.875500 2.352800
4.891600 2.273900
4.907800 2.208900
4.923900 2.166300
4.940000 2.123500
4.956200 2.081400
4.972300 2.040000
4.988400 1.999400
5.004600 1.959500
5.020700 1.920400
5.036800 1.882000
5.053000 1.844400
5.069100 1.807500
5.085200 1.771400
5.101400 1.716000
5.117500 1.687900
5.133600 1.679600
5.149800 1.676000
5.165900 1.677300
5.182000 1.683300
5.198200 1.694300
5.214300 1.728200
5.230500 1.770500
5.246600 1.821900
5.262700 1.957900
5.278900 2.093300
5.295000 2.170800
5.311100 2.212800
5.327300 2.271700
5.343400 2.380100
5.359500 2.512900
5.375700 2.656200
5.391800 2.810100
5.407900 2.967300
5.424100 3.038300
5.440200 3.089100
5.456300 3.211400
5.472500 3.260100
5.488600 3.303400
5.504700 3.341300
5.520900 3.204000
5.537000 3.264700
5.553100 3.330300
5.569300 3.400200
5.585400 3.474300
5.601500 3.552700
5.617700 3.635400
5.633800 3.720100
5.649900 3.815500
5.666100 4.599100
5.682200 4.904100
5.698300 5.031900
5.714500 4.725800
5.730600 4.642600
5.746700 4.603400
5.762900 4.518900
5.779000 4.572900
5.795100 4.529100
5.811300 4.468800
5.827400 4.392800
5.843500 4.303000
5.859700 4.222500
5.875800 4.233100
5.891900 4.345200
5.908100 3.999200
5.924200 3.737900
5.940400 3.697300
5.956500 3.747000
5.972600 3.789600
5.988800 4.106300
6.004900 4.401700
6.021000 4.307000
6.037200 4.184900
6.053300 4.044300
6.069400 4.011600
6.085600 4.528300
6.101700 4.293000
6.117800 3.380300
6.134000 3.288500
6.150100 3.156200
6.166200 3.087200
6.182400 3.055500
6.198500 3.061400
6.214600 3.099000
6.230800 3.572000
6.246900 2.796600
6.263000 2.334300
6.279200 1.966900
6.295300 1.760900
6.311400 1.589100
6.327600 1.397600
6.343700 1.275400
6.359800 1.222500
6.376000 1.106000
6.392100 1.107000
6.408200 1.113800
6.424400 1.123700
6.440500 1.136900
6.456600 1.153300
6.472800 1.173000
6.488900 1.195900
6.505000 1.222100
6.521200 1.251600
6.537300 1.291700
6.553400 1.587400
6.569600 1.858300
6.585700 2.072300
6.601800 2.324200
6.618000 2.577000
6.634100 2.780400
6.650300 2.936500
6.666400 3.086100
6.682500 3.191100
6.698700 3.294200
6.714800 3.405600
6.730900 3.685800
6.747100 3.783000
6.763200 3.834300
6.779300 3.762800
6.795500 3.560300
6.811600 3.423100
6.827700 3.395800
6.843900 3.370100
6.860000 3.349200
6.876100 3.368300
6.892300 3.530600
6.908400 3.817400
6.924500 4.199800
6.940700 4.395000
6.956800 4.497500
6.972900 4.544800
6.989100 4.563600
7.005200 4.507600
7.021300 4.547400
7.037500 4.575400
7.053600 4.583700
7.069700 4.603400
7.085900 4.657300
7.102000 4.710000
7.118100 4.762400
7.134300 4.802800
7.150400 4.851000
7.166500 4.895400
7.182700 4.944100
7.198800 4.999400
7.214900 5.030400
7.231100 4.798600
7.247200 4.831400
7.263300 4.877100
7.279500 6.336200
7.295600 5.913000
7.311800 5.936100
7.327900 5.934600
7.344000 5.976100
7.360200 5.915800
7.376300 6.021000
7.392400 6.139100
7.408600 6.033200
7.424700 6.095000
7.440800 5.984700
7.457000 6.192000
7.473100 6.279600
7.489200 6.110400
7.505400 6.010400
7.521500 5.883300
7.537600 5.683500
7.553800 5.509500
7.569900 5.336500
7.586000 5.064700
7.602200 4.820700
7.618300 4.585800
7.634400 4.346100
7.650600 4.080800
7.666700 3.728800
7.682800 3.517900
7.699000 3.399000
7.715100 3.325200
7.731200 3.291900
7.747400 3.350000
7.763500 3.419600
7.779600 3.543700
7.795800 3.718500
7.811900 3.935600
7.828000 4.195200
7.844200 4.457100
