set title 'mp-1184608 - Density of States'
set xlabel 'Energy (eV)'
set ylabel 'DOS (states/eV)'
set grid
set xrange [-10:10]
set yrange [0:31.066]
set xzeroaxis lt -1
set terminal png size 800,600
set output 'mp-1184608_dos_gnuplot.png'
plot '-' using 1:2 with lines title 'DOS'
-7.413900 0.000000
-7.394700 0.000000
-7.375600 0.000000
-7.356400 0.000000
-7.337300 0.000000
-7.318200 0.000000
-7.299000 0.000000
-7.279900 0.000000
-7.260700 0.000000
-7.241600 0.000000
-7.222500 0.000000
-7.203300 0.000000
-7.184200 0.000000
-7.165000 0.000000
-7.145900 0.000000
-7.126800 0.000000
-7.107600 0.000000
-7.088500 0.000000
-7.069400 0.000000
-7.050200 0.000000
-7.031100 0.000000
-7.011900 0.000000
-6.992800 0.000000
-6.973700 0.000000
-6.954500 0.000000
-6.935400 0.000000
-6.916200 0.000000
-6.897100 0.000000
-6.878000 0.000000
-6.858800 0.000000
-6.839700 0.000000
-6.820500 0.000000
-6.801400 0.000000
-6.782300 0.000000
-6.763100 0.000000
-6.744000 0.000000
-6.724800 0.000000
-6.705700 0.000000
-6.686600 0.000000
-6.667400 0.000000
-6.648300 0.000000
-6.629200 0.000000
-6.610000 0.000000
-6.590900 0.000000
-6.571700 0.000000
-6.552600 0.000000
-6.533500 0.000000
-6.514300 0.000000
-6.495200 0.000000
-6.476000 0.000000
-6.456900 0.000000
-6.437800 0.000000
-6.418600 0.000000
-6.399500 0.000000
-6.380300 0.000000
-6.361200 0.000000
-6.342100 0.000000
-6.322900 0.000000
-6.303800 0.000000
-6.284600 0.000000
-6.265500 0.000000
-6.246400 0.000000
-6.227200 0.000000
-6.208100 0.000000
-6.189000 0.000000
-6.169800 0.000000
-6.150700 0.000000
-6.131500 0.000000
-6.112400 0.000000
-6.093300 0.000000
-6.074100 0.000000
-6.055000 0.000000
-6.035800 0.000000
-6.016700 0.000000
-5.997600 0.000000
-5.978400 0.000000
-5.959300 0.000000
-5.940100 0.000000
-5.921000 0.000000
-5.901900 0.000000
-5.882700 0.000000
-5.863600 0.000000
-5.844400 0.000000
-5.825300 0.000000
-5.806200 0.000000
-5.787000 0.000000
-5.767900 0.000000
-5.748800 0.000000
-5.729600 0.000000
-5.710500 0.000000
-5.691300 0.000000
-5.672200 0.000000
-5.653100 0.006200
-5.633900 0.022700
-5.614800 0.049700
-5.595600 0.083100
-5.576500 0.110000
-5.557400 0.137400
-5.538200 0.145900
-5.519100 0.154900
-5.499900 0.164300
-5.480800 0.174900
-5.461700 0.186900
-5.442500 0.193800
-5.423400 0.204200
-5.404200 0.217100
-5.385100 0.230400
-5.366000 0.244100
-5.346800 0.258200
-5.327700 0.272400
-5.308600 0.284300
-5.289400 0.293100
-5.270300 0.298900
-5.251100 0.304400
-5.232000 0.317100
-5.212900 0.326800
-5.193700 0.336800
-5.174600 0.347300
-5.155400 0.357800
-5.136300 0.368500
-5.117200 0.379000
-5.098000 0.389900
-5.078900 0.401200
-5.059700 0.412800
-5.040600 0.424700
-5.021500 0.437700
-5.002300 0.452000
-4.983200 0.467200
-4.964000 0.483900
-4.944900 0.502200
-4.925800 0.522200
-4.906600 0.542300
-4.887500 0.562600
-4.868300 0.582600
-4.849200 0.602500
-4.830100 0.622300
-4.810900 0.642700
-4.791800 0.664200
-4.772700 0.686500
-4.753500 0.709700
-4.734400 0.733700
-4.715200 0.772200
-4.696100 0.808400
-4.677000 0.866000
-4.657800 0.929400
-4.638700 1.000100
-4.619500 1.097200
-4.600400 1.187700
-4.581300 1.261500
-4.562100 1.334600
-4.543000 1.504800
-4.523800 1.685000
-4.504700 2.064100
-4.485600 2.374500
-4.466400 2.847900
-4.447300 3.861300
-4.428100 5.944200
-4.409000 7.288400
-4.389900 6.527700
-4.370700 7.142600
-4.351600 8.012500
-4.332500 8.146200
-4.313300 8.081900
-4.294200 7.560300
-4.275000 7.142200
-4.255900 7.142800
-4.236800 7.339700
-4.217600 8.733700
-4.198500 8.663700
-4.179300 9.984400
-4.160200 10.895200
-4.141100 12.616200
-4.121900 13.775700
-4.102800 14.342300
-4.083600 13.459000
-4.064500 13.268200
-4.045400 12.749100
-4.026200 13.030300
-4.007100 13.387000
-3.987900 12.176700
-3.968800 11.874400
-3.949700 11.994300
-3.930500 11.830700
-3.911400 11.943200
-3.892300 12.457000
-3.873100 12.490200
-3.854000 12.631400
-3.834800 13.143500
-3.815700 14.201500
-3.796600 15.655800
-3.777400 15.006500
-3.758300 15.314200
-3.739100 12.386300
-3.720000 12.206000
-3.700900 10.882300
-3.681700 11.626800
-3.662600 10.047900
-3.643400 10.454300
-3.624300 11.234900
-3.605200 16.629400
-3.586000 15.563200
-3.566900 14.543100
-3.547700 18.916400
-3.528600 14.040300
-3.509500 10.029300
-3.490300 10.208800
-3.471200 9.235900
-3.452100 9.092700
-3.432900 8.768500
-3.413800 8.750700
-3.394600 8.196200
-3.375500 12.814500
-3.356400 14.320800
-3.337200 16.015800
-3.318100 15.577400
-3.298900 10.819900
-3.279800 6.842500
-3.260700 9.415800
-3.241500 11.172000
-3.222400 12.393200
-3.203200 10.835100
-3.184100 11.313400
-3.165000 14.466600
-3.145800 17.029700
-3.126700 18.806800
-3.107500 15.072800
-3.088400 15.473200
-3.069300 15.951700
-3.050100 16.174300
-3.031000 20.877500
-3.011900 28.241700
-2.992700 16.385200
-2.973600 15.203900
-2.954400 13.569400
-2.935300 12.072900
-2.916200 11.990500
-2.897000 12.028200
-2.877900 14.645900
-2.858700 20.503700
-2.839600 20.434900
-2.820500 16.920600
-2.801300 14.154900
-2.782200 13.524300
-2.763000 17.659800
-2.743900 18.184000
-2.724800 17.551200
-2.705600 14.674500
-2.686500 11.361700
-2.667300 11.169100
-2.648200 12.710000
-2.629100 15.173400
-2.609900 16.430000
-2.590800 12.871200
-2.571700 12.705700
-2.552500 13.951700
-2.533400 12.233200
-2.514200 11.652900
-2.495100 11.882900
-2.476000 11.708400
-2.456800 11.491200
-2.437700 11.179800
-2.418500 11.057900
-2.399400 10.836700
-2.380300 10.591500
-2.361100 10.268500
-2.342000 9.534800
-2.322800 9.184500
-2.303700 8.716300
-2.284600 8.633000
-2.265400 9.431700
-2.246300 9.709300
-2.227100 9.126300
-2.208000 8.509000
-2.188900 9.968600
-2.169700 15.934600
-2.150600 13.923200
-2.131500 10.894900
-2.112300 9.626800
-2.093200 7.106300
-2.074000 6.107000
-2.054900 5.633100
-2.035800 5.169400
-2.016600 4.897800
-1.997500 5.472900
-1.978300 7.108600
-1.959200 6.135200
-1.940100 5.063500
-1.920900 4.774600
-1.901800 4.194000
-1.882600 3.687100
-1.863500 3.183300
-1.844400 2.684000
-1.825200 2.482900
-1.806100 2.318200
-1.786900 2.176600
-1.767800 2.041900
-1.748700 1.951100
-1.729500 1.923400
-1.710400 1.915100
-1.691300 1.991300
-1.672100 2.063300
-1.653000 1.958800
-1.633800 1.689600
-1.614700 1.484700
-1.595600 1.282600
-1.576400 1.077900
-1.557300 0.991700
-1.538100 0.956900
-1.519000 0.926600
-1.499900 0.909500
-1.480700 0.902800
-1.461600 0.899000
-1.442400 0.881600
-1.423300 0.858400
-1.404200 0.829900
-1.385000 0.794800
-1.365900 0.786800
-1.346700 0.786100
-1.327600 0.809200
-1.308500 0.901500
-1.289300 0.984700
-1.270200 1.074600
-1.251100 1.193000
-1.231900 1.269100
-1.212800 1.317400
-1.193600 1.348600
-1.174500 1.405600
-1.155400 1.487500
-1.136200 1.534000
-1.117100 1.572000
-1.097900 1.610300
-1.078800 1.648400
-1.059700 1.685800
-1.040500 1.747600
-1.021400 1.831400
-1.002200 1.768100
-0.983100 1.663700
-0.964000 1.558200
-0.944800 1.460000
-0.925700 1.368300
-0.906500 1.280900
-0.887400 1.204900
-0.868300 1.108900
-0.849100 1.099100
-0.830000 1.102500
-0.810800 1.117400
-0.791700 1.147000
-0.772600 1.132700
-0.753400 1.124100
-0.734300 1.104400
-0.715200 1.085500
-0.696000 1.074600
-0.676900 1.068500
-0.657700 1.063000
-0.638600 1.057100
-0.619500 1.050700
-0.600300 1.068100
-0.581200 1.070100
-0.562000 1.071300
-0.542900 1.071500
-0.523800 1.065000
-0.504600 1.058700
-0.485500 1.060600
-0.466300 1.062000
-0.447200 1.063000
-0.428100 1.062900
-0.408900 1.061400
-0.389800 1.057900
-0.370600 1.062300
-0.351500 1.072100
-0.332400 1.080300
-0.313200 1.082700
-0.294100 1.085400
-0.275000 1.088300
-0.255800 1.091600
-0.236700 1.095000
-0.217500 1.098100
-0.198400 1.100800
-0.179300 1.102700
-0.160100 1.093400
-0.141000 1.094900
-0.121800 1.096900
-0.102700 1.099400
-0.083600 1.102800
-0.064400 1.103900
-0.045300 1.104600
-0.026100 1.106800
-0.007000 1.110000
0.012100 1.113600
0.031300 1.117600
0.050400 1.122000
0.069600 1.126400
0.088700 1.130900
0.107800 1.136100
0.127000 1.142300
0.146100 1.149200
0.165200 1.156800
0.184400 1.164700
0.203500 1.173100
0.222700 1.181100
0.241800 1.190000
0.260900 1.199200
0.280100 1.208400
0.299200 1.249600
0.318400 1.262200
0.337500 1.283600
0.356600 1.300400
0.375800 1.317600
0.394900 1.335200
0.414100 1.353000
0.433200 1.370800
0.452300 1.378000
0.471500 1.392800
0.490600 1.416700
0.509800 1.457900
0.528900 1.508300
0.548000 1.545300
0.567200 1.568500
0.586300 1.604200
0.605400 1.622100
0.624600 1.660600
0.643700 1.714500
0.662900 1.751500
0.682000 1.828900
0.701100 1.856800
0.720300 1.832600
0.739400 1.810600
0.758600 1.800900
0.777700 1.826400
0.796800 1.857200
0.816000 1.928800
0.835100 2.039000
0.854300 2.192400
0.873400 2.439600
0.892500 2.682600
0.911700 2.843800
0.930800 3.023200
0.950000 3.430600
0.969100 3.988200
0.988200 3.329700
1.007400 3.042300
1.026500 2.408800
1.045600 2.173500
1.064800 1.927300
1.083900 1.849000
1.103100 1.853300
1.122200 2.006400
1.141300 1.698500
1.160500 1.615200
1.179600 1.599400
1.198800 1.742100
1.217900 1.948000
1.237000 2.392400
1.256200 2.949000
1.275300 3.618500
1.294500 4.132300
1.313600 4.467100
1.332700 4.880100
1.351900 6.114400
1.371000 7.002600
1.390200 7.887600
1.409300 7.364300
1.428400 6.751300
1.447600 6.116000
1.466700 5.455500
1.485800 5.347200
1.505000 5.172700
1.524100 4.891300
1.543300 4.217000
1.562400 3.498300
1.581500 3.452800
1.600700 3.342400
1.619800 3.425100
1.639000 4.114400
1.658100 4.898200
1.677200 5.079100
1.696400 6.002900
1.715500 7.370000
1.734700 9.032100
1.753800 9.589100
1.772900 9.755300
1.792100 9.487600
1.811200 9.669400
1.830400 9.979000
1.849500 11.766300
1.868600 14.108300
1.887800 16.089900
1.906900 14.265400
1.926000 13.091200
1.945200 12.511900
1.964300 13.409600
1.983500 9.707200
2.002600 7.314300
2.021700 6.060500
2.040900 5.420200
2.060000 4.753400
2.079200 3.971800
2.098300 3.288400
2.117400 2.561100
2.136600 1.997200
2.155700 1.784500
2.174900 1.886300
2.194000 1.671400
2.213100 2.142800
2.232300 3.187200
2.251400 4.255900
2.270600 5.135800
2.289700 4.840500
2.308800 4.850500
2.328000 5.164700
2.347100 5.429100
2.366200 5.537800
2.385400 5.358500
2.404500 4.882800
2.423700 4.637700
2.442800 4.415500
2.461900 4.159900
2.481100 3.832100
2.500200 3.669900
2.519400 3.527400
2.538500 3.372100
2.557600 3.151400
2.576800 2.944400
2.595900 2.807900
2.615100 2.680000
2.634200 2.578700
2.653300 2.516600
2.672500 2.506700
2.691600 2.384400
2.710800 2.322000
2.729900 2.259500
2.749000 2.200000
2.768200 2.147400
2.787300 2.102000
2.806500 2.063400
2.825600 2.025000
2.844700 1.979600
2.863900 1.941700
2.883000 1.914000
2.902100 1.887500
2.921300 1.863800
2.940400 1.839800
2.959600 1.819800
2.978700 1.800000
2.997800 1.788100
3.017000 1.770700
3.036100 1.741000
3.055300 1.712800
3.074400 1.673900
3.093500 1.654400
3.112700 1.635400
3.131800 1.609600
3.151000 1.592000
3.170100 1.575400
3.189200 1.560200
3.208400 1.547400
3.227500 1.537100
3.246700 1.532000
3.265800 1.509400
3.284900 1.515800
3.304100 1.492400
3.323200 1.442800
3.342300 1.434900
3.361500 1.426100
3.380600 1.415700
3.399800 1.404900
3.418900 1.404900
3.438000 1.415500
3.457200 1.406700
3.476300 1.424300
3.495500 1.487400
3.514600 1.518400
3.533700 1.549900
3.552900 1.668400
3.572000 1.643600
3.591200 1.570700
3.610300 1.542900
3.629400 1.538800
3.648600 1.556500
3.667700 1.576100
3.686900 1.596400
3.706000 1.504100
3.725100 1.488100
3.744300 1.476200
3.763400 1.461600
3.782500 1.436800
3.801700 1.413900
3.820800 1.394000
3.840000 1.356000
3.859100 1.306200
3.878200 1.293000
3.897400 1.296500
3.916500 1.250300
3.935700 1.235600
3.954800 1.221900
3.973900 1.207100
3.993100 1.159800
4.012200 1.150000
4.031400 1.141500
4.050500 1.130900
4.069600 1.119900
4.088800 1.107500
4.107900 1.086100
4.127100 1.064400
4.146200 1.036300
4.165300 1.016700
4.184500 1.010100
4.203600 1.007700
4.222700 1.007200
4.241900 1.006600
4.261000 1.006000
4.280200 1.005000
4.299300 1.004100
4.318400 1.003900
4.337600 1.004400
4.356700 1.006300
4.375900 1.011700
4.395000 1.020300
4.414100 1.031400
4.433300 1.049600
4.452400 1.092800
4.471600 1.148700
4.490700 1.217000
4.509800 1.297700
4.529000 1.394700
4.548100 1.509700
4.567300 1.758600
4.586400 1.869600
4.605500 1.912900
4.624700 1.957300
4.643800 2.062600
4.662900 2.282700
4.682100 2.261900
4.701200 2.259300
4.720400 2.280800
4.739500 2.317900
4.758600 2.410500
4.777800 2.397100
4.796900 2.370500
4.816100 2.315600
4.835200 2.275800
4.854300 2.214900
4.873500 2.181500
4.892600 2.154300
4.911800 2.167300
4.930900 2.156000
4.950000 2.109400
4.969200 2.057400
4.988300 2.005200
5.007500 1.961700
5.026600 1.943500
5.045700 1.932900
5.064900 1.926800
5.084000 1.918500
5.103100 1.867500
5.122300 1.867600
5.141400 1.857500
5.160600 1.794000
5.179700 1.746900
5.198800 1.664400
5.218000 1.586300
5.237100 1.515500
5.256300 1.450500
5.275400 1.390500
5.294500 1.361400
5.313700 1.351000
5.332800 1.327500
5.352000 1.273200
5.371100 1.199300
5.390200 1.142600
5.409400 1.204400
5.428500 1.297100
5.447700 1.125800
5.466800 1.108900
5.485900 1.090900
5.505100 1.087400
5.524200 1.092800
5.543300 1.096600
5.562500 1.119900
5.581600 1.128200
5.600800 1.133800
5.619900 1.147900
5.639000 1.148500
5.658200 1.149400
5.677300 1.150700
5.696500 1.152300
5.715600 1.154100
5.734700 1.155000
5.753900 1.155100
5.773000 1.155900
5.792200 1.157300
5.811300 1.159100
5.830400 1.163300
5.849600 1.167800
5.868700 1.172700
5.887900 1.178300
5.907000 1.185000
5.926100 1.190600
5.945300 1.124900
5.964400 1.115100
5.983500 1.101800
6.002700 1.094300
6.021800 1.086200
6.041000 1.056900
6.060100 1.051500
6.079200 1.047400
6.098400 1.043900
6.117500 1.043000
6.136700 1.043800
6.155800 1.046200
6.174900 1.050000
6.194100 1.054900
6.213200 1.060900
6.232400 1.068300
6.251500 1.077900
6.270600 1.091000
6.289800 1.106800
6.308900 1.106400
6.328100 1.095400
6.347200 1.114700
6.366300 1.137300
6.385500 1.162800
6.404600 1.190600
6.423700 1.222200
6.442900 1.265900
6.462000 1.311400
6.481200 1.356000
6.500300 1.402500
6.519400 1.446500
6.538600 1.499800
6.557700 1.533600
6.576900 1.580200
6.596000 1.597300
6.615100 1.630000
6.634300 1.662000
6.653400 1.692700
6.672600 1.719200
6.691700 1.721600
6.710800 1.741300
6.730000 1.759700
6.749100 1.775600
6.768300 1.789300
6.787400 1.796100
6.806500 1.804600
6.825700 1.809200
6.844800 1.808800
6.864000 1.799900
6.883100 1.784000
6.902200 1.763200
6.921400 1.742400
6.940500 1.725500
6.959600 1.710000
6.978800 1.695600
6.997900 1.688600
7.017100 1.676700
7.036200 1.666700
7.055300 1.664200
7.074500 1.662300
7.093600 1.660200
7.112800 1.659200
7.131900 1.659800
7.151000 1.661700
7.170200 1.664900
7.189300 1.667700
7.208500 1.671700
7.227600 1.677100
7.246700 1.679200
7.265900 1.679400
7.285000 1.684700
7.304200 1.684800
7.323300 1.680000
7.342400 1.694600
7.361600 1.671500
7.380700 1.647700
7.399800 1.622400
7.419000 1.603100
7.438100 1.589600
7.457300 1.588100
7.476400 1.593900
7.495500 1.602900
7.514700 1.614900
7.533800 1.633700
7.553000 1.638200
7.572100 1.596800
7.591200 1.534900
7.610400 1.488300
7.629500 1.483000
7.648700 1.444100
7.667800 1.449600
7.686900 1.406400
7.706100 1.401000
7.725200 1.382300
7.744400 1.364300
7.763500 1.350400
7.782600 1.340500
7.801800 1.332800
7.820900 1.326500
7.840000 1.318800
7.859200 1.312100
7.878300 1.306400
7.897500 1.301300
7.916600 1.296600
7.935700 1.292500
7.954900 1.288800
7.974000 1.285700
7.993200 1.287700
8.012300 1.302400
8.031400 1.285000
8.050600 1.291800
8.069700 1.302000
8.088900 1.314800
8.108000 1.364200
8.127100 1.318900
8.146300 1.314400
8.165400 1.308800
8.184600 1.305500
8.203700 1.305600
8.222800 1.325800
8.242000 1.338800
8.261100 1.343200
8.280200 1.341200
8.299400 1.374800
8.318500 1.359800
8.337700 1.358200
8.356800 1.314600
8.375900 1.314800
8.395100 1.329900
8.414200 1.340800
8.433400 1.347000
8.452500 1.348100
8.471600 1.338800
8.490800 1.333700
8.509900 1.337600
8.529100 1.333900
8.548200 1.337600
8.567300 1.340600
8.586500 1.342100
8.605600 1.341500
8.624800 1.344100
8.643900 1.352300
8.663000 1.358500
8.682200 1.360600
8.701300 1.359000
8.720400 1.355700
8.739600 1.359100
8.758700 1.363600
8.777900 1.367700
8.797000 1.374800
8.816100 1.379100
8.835300 1.384000
8.854400 1.388500
8.873600 1.392300
8.892700 1.391700
8.911800 1.385100
8.931000 1.374100
8.950100 1.358900
8.969300 1.340600
8.988400 1.329400
9.007500 1.333200
9.026700 1.330400
9.045800 1.330900
9.065000 1.334300
9.084100 1.339400
9.103200 1.347500
9.122400 1.358000
9.141500 1.370400
9.160600 1.384500
9.179800 1.400500
9.198900 1.417400
9.218100 1.440000
9.237200 1.452200
9.256300 1.463600
9.275500 1.475200
9.294600 1.485600
9.313800 1.495100
9.332900 1.504100
9.352000 1.512800
9.371200 1.521200
9.390300 1.529700
9.409500 1.538200
9.428600 1.548000
9.447700 1.556200
9.466900 1.562500
9.486000 1.567600
9.505200 1.573500
9.524300 1.578900
9.543400 1.583000
9.562600 1.584500
9.581700 1.583900
9.600800 1.584200
9.620000 1.584900
9.639100 1.586400
9.658300 1.588500
9.677400 1.592500
9.696500 1.599200
9.715700 1.608300
9.734800 1.615400
9.754000 1.623800
9.773100 1.633500
9.792200 1.644000
9.811400 1.654100
9.830500 1.664800
9.849700 1.677800
9.868800 1.696100
9.887900 1.716800
9.907100 1.732800
9.926200 1.770100
9.945400 1.760800
9.964500 1.739300
9.983600 1.716600
10.002800 1.693900
10.021900 1.670200
10.041000 1.633100
10.060200 1.597300
10.079300 1.570100
10.098500 1.539500
10.117600 1.512200
10.136700 1.487100
10.155900 1.477600
10.175000 1.452900
10.194200 1.416800
10.213300 1.381600
10.232400 1.351300
10.251600 1.326200
10.270700 1.305900
10.289900 1.290500
10.309000 1.277500
10.328100 1.263800
10.347300 1.250900
10.366400 1.243700
10.385600 1.243200
10.404700 1.244000
10.423800 1.245800
10.443000 1.249100
10.462100 1.253900
10.481300 1.260800
10.500400 1.246200
10.519500 1.256600
10.538700 1.269300
10.557800 1.288400
10.576900 1.310200
10.596100 1.329200
10.615200 1.493700
10.634400 1.457200
10.653500 1.467600
10.672600 1.478100
10.691800 1.488800
10.710900 1.499800
10.730100 1.511300
10.749200 1.526400
10.768300 1.547200
10.787500 1.570600
10.806600 1.600400
10.825800 1.634800
10.844900 1.671100
10.864000 1.691900
10.883200 1.707700
10.902300 1.718200
10.921500 1.723500
10.940600 1.723500
10.959700 1.717800
10.978900 1.689700
10.998000 1.700000
11.017100 1.717100
11.036300 1.729100
11.055400 1.695000
11.074600 1.721000
11.093700 1.750100
11.112800 1.771500
11.132000 1.784000
11.151100 1.801600
11.170300 1.838400
11.189400 1.878800
11.208500 1.926300
11.227700 1.958000
11.246800 1.988100
11.266000 2.007900
11.285100 2.077300
11.304200 2.167300
11.323400 2.270800
11.342500 2.272700
11.361700 2.298900
11.380800 2.192500
11.399900 2.121200
11.419100 2.033100
11.438200 1.916000
11.457300 1.810800
11.476500 1.772400
11.495600 1.753400
11.514800 1.781700
11.533900 1.872900
11.553000 1.935700
11.572200 1.948900
11.591300 1.979900
11.610500 2.022100
11.629600 2.073100
11.648700 2.138900
11.667900 2.179500
11.687000 2.158600
11.706200 2.148200
11.725300 2.133100
11.744400 2.122900
11.763600 2.111400
11.782700 2.099800
11.801900 2.105600
11.821000 2.127800
11.840100 2.159400
11.859300 2.192700
11.878400 2.185600
11.897500 2.147600
11.916700 2.092900
11.935800 2.059900
11.955000 2.071600
11.974100 2.114600
11.993200 2.147400
12.012400 2.130500
12.031500 2.125500
12.050700 2.120400
12.069800 2.075200
12.088900 2.001100
12.108100 1.999100
12.127200 2.068400
12.146400 2.066200
12.165500 2.059500
12.184600 2.058700
12.203800 2.078700
12.222900 2.072300
12.242100 2.068600
12.261200 2.069700
12.280300 2.113800
12.299500 2.081700
12.318600 2.067300
12.337700 2.064000
12.356900 2.077100
12.376000 2.132800
12.395200 2.218600
12.414300 2.282900
12.433400 2.275800
12.452600 2.290600
12.471700 2.303200
12.490900 2.310600
12.510000 2.312300
12.529100 2.312400
12.548300 2.306200
12.567400 2.299500
12.586600 2.292600
12.605700 2.284500
12.624800 2.267100
12.644000 2.244100
12.663100 2.216300
12.682300 2.175700
12.701400 2.114100
12.720500 2.042600
12.739700 1.966400
12.758800 1.928400
12.777900 1.913400
12.797100 1.915000
12.816200 1.921300
12.835400 1.929900
12.854500 1.938700
