set title 'mp-10155 - Density of States'
set xlabel 'Energy (eV)'
set ylabel 'DOS (states/eV)'
set grid
set xrange [-10:10]
set yrange [0:17.244]
set xzeroaxis lt -1
set terminal png size 800,600
set output 'mp-10155_dos_gnuplot.png'
plot '-' using 1:2 with lines title 'DOS'
-7.144700 0.000000
-7.131900 0.000000
-7.119100 0.000000
-7.106300 0.000000
-7.093400 0.000000
-7.080600 0.000000
-7.067800 0.000000
-7.055000 0.000000
-7.042100 0.000000
-7.029300 0.000000
-7.016500 0.000000
-7.003700 0.000000
-6.990800 0.000000
-6.978000 0.000000
-6.965200 0.000000
-6.952400 0.000000
-6.939500 0.000000
-6.926700 0.000000
-6.913900 0.000000
-6.901100 0.000000
-6.888300 0.000000
-6.875400 0.000000
-6.862600 0.000000
-6.849800 0.000000
-6.837000 0.000000
-6.824100 0.000000
-6.811300 0.000000
-6.798500 0.000000
-6.785700 0.000000
-6.772800 0.000000
-6.760000 0.000000
-6.747200 0.000000
-6.734400 0.000000
-6.721500 0.000000
-6.708700 0.000000
-6.695900 0.000000
-6.683100 0.000000
-6.670300 0.000000
-6.657400 0.000000
-6.644600 0.000000
-6.631800 0.000000
-6.619000 0.000000
-6.606100 0.000000
-6.593300 0.000000
-6.580500 0.000000
-6.567700 0.000000
-6.554800 0.000000
-6.542000 0.000000
-6.529200 0.000000
-6.516400 0.000000
-6.503500 0.000000
-6.490700 0.000000
-6.477900 0.000000
-6.465100 0.000000
-6.452200 0.000000
-6.439400 0.000000
-6.426600 0.000000
-6.413800 0.000000
-6.401000 0.000000
-6.388100 0.000000
-6.375300 0.000000
-6.362500 0.000000
-6.349700 0.000000
-6.336800 0.000000
-6.324000 0.000000
-6.311200 0.000000
-6.298400 0.000000
-6.285500 0.000000
-6.272700 0.000000
-6.259900 0.000000
-6.247100 0.000000
-6.234200 0.000000
-6.221400 0.000000
-6.208600 0.000000
-6.195800 0.000000
-6.183000 0.000000
-6.170100 0.000000
-6.157300 0.000000
-6.144500 0.000000
-6.131700 0.000000
-6.118800 0.000000
-6.106000 0.000000
-6.093200 0.000000
-6.080400 0.000000
-6.067500 0.000000
-6.054700 0.000000
-6.041900 0.000000
-6.029100 0.000000
-6.016200 0.000000
-6.003400 0.000000
-5.990600 0.000000
-5.977800 0.000200
-5.965000 0.027000
-5.952100 0.099000
-5.939300 0.213200
-5.926500 0.301900
-5.913700 0.333100
-5.900800 0.340300
-5.888000 0.366400
-5.875200 0.405600
-5.862400 0.445900
-5.849500 0.486500
-5.836700 0.525800
-5.823900 0.556700
-5.811100 0.577800
-5.798200 0.591200
-5.785400 0.609000
-5.772600 0.628700
-5.759800 0.650400
-5.747000 0.672500
-5.734100 0.695100
-5.721300 0.718200
-5.708500 0.740700
-5.695700 0.762300
-5.682800 0.785000
-5.670000 0.808400
-5.657200 0.829500
-5.644400 0.846900
-5.631500 0.862700
-5.618700 0.880600
-5.605900 0.898200
-5.593100 0.914700
-5.580200 0.930400
-5.567400 0.946600
-5.554600 0.963500
-5.541800 0.980900
-5.528900 0.998400
-5.516100 1.015600
-5.503300 1.032700
-5.490500 1.050400
-5.477700 1.068600
-5.464800 1.087200
-5.452000 1.106000
-5.439200 1.123800
-5.426400 1.140000
-5.413500 1.154700
-5.400700 1.170100
-5.387900 1.186000
-5.375100 1.202200
-5.362200 1.218800
-5.349400 1.235400
-5.336600 1.251000
-5.323800 1.266300
-5.310900 1.282000
-5.298100 1.298100
-5.285300 1.314100
-5.272500 1.329900
-5.259700 1.346100
-5.246800 1.362500
-5.234000 1.379100
-5.221200 1.396100
-5.208400 1.413300
-5.195500 1.430800
-5.182700 1.492600
-5.169900 1.569600
-5.157100 1.640300
-5.144200 1.611600
-5.131400 1.598500
-5.118600 1.615900
-5.105800 1.634000
-5.092900 1.652800
-5.080100 1.682100
-5.067300 1.714500
-5.054500 1.740600
-5.041700 1.747300
-5.028800 1.770200
-5.016000 1.794300
-5.003200 1.806300
-4.990400 1.795300
-4.977500 1.779800
-4.964700 1.760300
-4.951900 1.734600
-4.939100 1.710700
-4.926200 1.695100
-4.913400 1.683300
-4.900600 1.667500
-4.887800 1.660400
-4.874900 1.721000
-4.862100 1.789600
-4.849300 1.817300
-4.836500 1.772200
-4.823700 1.787900
-4.810800 1.808600
-4.798000 1.839600
-4.785200 1.887200
-4.772400 1.946200
-4.759500 2.007500
-4.746700 2.059500
-4.733900 2.097900
-4.721100 2.117000
-4.708200 2.143600
-4.695400 2.194500
-4.682600 2.241800
-4.669800 2.287200
-4.656900 2.335800
-4.644100 2.364800
-4.631300 2.373000
-4.618500 2.370900
-4.605600 2.370900
-4.592800 2.371800
-4.580000 2.374800
-4.567200 2.380600
-4.554400 2.385800
-4.541500 2.390400
-4.528700 2.402600
-4.515900 2.422000
-4.503100 2.445600
-4.490200 2.472400
-4.477400 2.502300
-4.464600 2.537200
-4.451800 2.574600
-4.438900 2.621500
-4.426100 2.684900
-4.413300 2.771000
-4.400500 2.877600
-4.387600 2.970600
-4.374800 3.021600
-4.362000 3.025700
-4.349200 3.111300
-4.336400 3.156500
-4.323500 3.204700
-4.310700 3.280200
-4.297900 3.393300
-4.285100 3.459800
-4.272200 3.553900
-4.259400 3.627100
-4.246600 3.676100
-4.233800 3.704200
-4.220900 3.738700
-4.208100 3.790500
-4.195300 3.873500
-4.182500 3.983200
-4.169600 4.321400
-4.156800 4.006100
-4.144000 3.970500
-4.131200 3.946900
-4.118400 3.922900
-4.105500 3.921700
-4.092700 3.962400
-4.079900 4.030400
-4.067100 4.031400
-4.054200 3.959900
-4.041400 3.928900
-4.028600 3.937100
-4.015800 4.040000
-4.002900 4.006600
-3.990100 4.040200
-3.977300 3.836300
-3.964500 3.556300
-3.951600 3.230300
-3.938800 3.506900
-3.926000 4.037000
-3.913200 4.054600
-3.900400 4.184800
-3.887500 4.476400
-3.874700 4.964100
-3.861900 5.143800
-3.849100 5.370000
-3.836200 5.611500
-3.823400 5.672600
-3.810600 6.013800
-3.797800 6.180600
-3.784900 6.359400
-3.772100 5.883600
-3.759300 6.396600
-3.746500 7.132000
-3.733600 7.859000
-3.720800 7.995500
-3.708000 7.135400
-3.695200 6.991800
-3.682400 7.303700
-3.669500 6.723500
-3.656700 6.433900
-3.643900 6.338400
-3.631100 6.325200
-3.618200 6.331600
-3.605400 6.351600
-3.592600 6.345600
-3.579800 6.397500
-3.566900 6.423200
-3.554100 6.458200
-3.541300 6.518100
-3.528500 6.632300
-3.515600 6.803900
-3.502800 6.980200
-3.490000 7.166500
-3.477200 7.097900
-3.464300 7.324100
-3.451500 7.328800
-3.438700 7.016800
-3.425900 6.364700
-3.413100 5.918400
-3.400200 5.712100
-3.387400 5.656100
-3.374600 5.464500
-3.361800 5.374800
-3.348900 5.088500
-3.336100 5.612000
-3.323300 4.181300
-3.310500 3.210700
-3.297600 2.753200
-3.284800 2.437000
-3.272000 2.276700
-3.259200 1.800500
-3.246300 1.429200
-3.233500 1.108700
-3.220700 0.841300
-3.207900 0.000000
-3.195100 0.000000
-3.182200 0.000000
-3.169400 0.000000
-3.156600 0.000000
-3.143800 0.000000
-3.130900 0.000000
-3.118100 0.000000
-3.105300 0.000000
-3.092500 0.000000
-3.079600 0.000000
-3.066800 0.000000
-3.054000 0.000000
-3.041200 0.000000
-3.028300 0.000000
-3.015500 0.000000
-3.002700 0.110600
-2.989900 0.190300
-2.977100 0.232200
-2.964200 0.277400
-2.951400 0.300600
-2.938600 0.378100
-2.925800 0.439500
-2.912900 0.462100
-2.900100 0.482200
-2.887300 0.497400
-2.874500 0.523700
-2.861600 0.550300
-2.848800 0.575300
-2.836000 0.598400
-2.823200 0.624800
-2.810300 0.655300
-2.797500 0.687200
-2.784700 0.714500
-2.771900 0.735400
-2.759100 0.759200
-2.746200 0.785300
-2.733400 0.813400
-2.720600 0.845300
-2.707800 0.875900
-2.694900 0.903100
-2.682100 0.920600
-2.669300 0.929800
-2.656500 0.945600
-2.643600 0.966500
-2.630800 0.988900
-2.618000 1.007900
-2.605200 1.038200
-2.592300 1.070300
-2.579500 1.102800
-2.566700 1.133900
-2.553900 1.165300
-2.541000 1.197500
-2.528200 1.231000
-2.515400 1.266000
-2.502600 1.300500
-2.489800 1.334200
-2.476900 1.367900
-2.464100 1.402900
-2.451300 1.437900
-2.438500 1.473300
-2.425600 1.510600
-2.412800 1.556300
-2.400000 1.610700
-2.387200 1.676700
-2.374300 1.757000
-2.361500 1.821400
-2.348700 1.885000
-2.335900 1.933500
-2.323000 1.966900
-2.310200 1.973400
-2.297400 2.005100
-2.284600 2.043800
-2.271800 2.067900
-2.258900 2.078700
-2.246100 2.080000
-2.233300 2.074500
-2.220500 2.062300
-2.207600 2.058300
-2.194800 2.075100
-2.182000 2.103100
-2.169200 2.135200
-2.156300 2.177400
-2.143500 2.223400
-2.130700 2.271000
-2.117900 2.320500
-2.105000 2.370900
-2.092200 2.414900
-2.079400 2.460300
-2.066600 2.509200
-2.053800 2.567500
-2.040900 2.634600
-2.028100 2.698700
-2.015300 2.743400
-2.002500 2.777000
-1.989600 2.809300
-1.976800 2.846200
-1.964000 2.892200
-1.951200 2.952600
-1.938300 2.956000
-1.925500 3.035100
-1.912700 3.059500
-1.899900 3.047900
-1.887000 3.071500
-1.874200 3.093600
-1.861400 3.109400
-1.848600 3.130600
-1.835800 3.164000
-1.822900 3.198300
-1.810100 3.234300
-1.797300 3.268700
-1.784500 3.283500
-1.771600 3.299300
-1.758800 3.327300
-1.746000 3.341100
-1.733200 3.326900
-1.720300 3.320800
-1.707500 3.320300
-1.694700 3.321000
-1.681900 3.317100
-1.669000 3.293400
-1.656200 3.279000
-1.643400 3.268800
-1.630600 3.263300
-1.617700 3.264000
-1.604900 3.338700
-1.592100 3.412400
-1.579300 3.465500
-1.566500 3.528700
-1.553600 3.777500
-1.540800 4.000500
-1.528000 4.299400
-1.515200 4.536800
-1.502300 4.847300
-1.489500 5.186000
-1.476700 5.406100
-1.463900 6.150300
-1.451000 6.391900
-1.438200 6.226700
-1.425400 6.360900
-1.412600 6.569200
-1.399700 6.759800
-1.386900 7.645900
-1.374100 8.096400
-1.361300 8.150300
-1.348500 8.420200
-1.335600 8.224300
-1.322800 8.033000
-1.310000 8.104900
-1.297200 8.313100
-1.284300 8.358400
-1.271500 8.195800
-1.258700 7.733600
-1.245900 7.626400
-1.233000 7.644300
-1.220200 7.488400
-1.207400 7.508500
-1.194600 7.520300
-1.181700 7.513800
-1.168900 7.517500
-1.156100 7.608100
-1.143300 7.840700
-1.130500 7.987000
-1.117600 7.874500
-1.104800 7.236300
-1.092000 6.958400
-1.079200 6.728800
-1.066300 6.456100
-1.053500 6.207100
-1.040700 5.897800
-1.027900 5.688700
-1.015000 5.659900
-1.002200 5.626600
-0.989400 5.647400
-0.976600 5.598800
-0.963700 5.559400
-0.950900 5.507400
-0.938100 5.347400
-0.925300 5.168300
-0.912500 5.156000
-0.899600 5.118800
-0.886800 4.909700
-0.874000 4.519100
-0.861200 4.240000
-0.848300 4.005900
-0.835500 3.658600
-0.822700 3.343400
-0.809900 3.129100
-0.797000 2.916100
-0.784200 2.683200
-0.771400 2.509600
-0.758600 2.381000
-0.745700 2.242700
-0.732900 2.118000
-0.720100 1.995200
-0.707300 1.881400
-0.694400 1.784000
-0.681600 1.680900
-0.668800 1.580100
-0.656000 1.472500
-0.643200 1.374900
-0.630300 1.280200
-0.617500 1.181500
-0.604700 1.020400
-0.591900 0.856000
-0.579000 0.749100
-0.566200 0.639500
-0.553400 0.527300
-0.540600 0.430700
-0.527700 0.344400
-0.514900 0.201000
-0.502100 0.050000
-0.489300 0.004400
-0.476400 0.000000
-0.463600 0.000000
-0.450800 0.000000
-0.438000 0.000000
-0.425200 0.000000
-0.412300 0.000000
-0.399500 0.000000
-0.386700 0.000000
-0.373900 0.000000
-0.361000 0.000000
-0.348200 0.000000
-0.335400 0.000000
-0.322600 0.000000
-0.309700 0.000000
-0.296900 0.000000
-0.284100 0.000000
-0.271300 0.000000
-0.258400 0.000000
-0.245600 0.000000
-0.232800 0.000000
-0.220000 0.000000
-0.207200 0.000000
-0.194300 0.000000
-0.181500 0.000000
-0.168700 0.000000
-0.155900 0.000000
-0.143000 0.000000
-0.130200 0.000000
-0.117400 0.000000
-0.104600 0.000000
-0.091700 0.000000
-0.078900 0.000000
-0.066100 0.000000
-0.053300 0.000000
-0.040400 0.000000
-0.027600 0.000000
-0.014800 0.000000
-0.002000 0.000000
0.010800 0.000000
0.023700 0.000000
0.036500 0.000000
0.049300 0.000000
0.062100 0.000000
0.075000 0.000000
0.087800 0.000000
0.100600 0.000000
0.113400 0.000000
0.126300 0.000000
0.139100 0.000000
0.151900 0.000000
0.164700 0.000000
0.177600 0.000000
0.190400 0.000000
0.203200 0.000000
0.216000 0.000000
0.228900 0.000000
0.241700 0.000000
0.254500 0.000000
0.267300 0.000000
0.280100 0.000000
0.293000 0.000000
0.305800 0.000000
0.318600 0.000000
0.331400 0.000000
0.344300 0.000000
0.357100 0.000000
0.369900 0.000000
0.382700 0.000000
0.395600 0.000000
0.408400 0.000000
0.421200 0.000000
0.434000 0.000000
0.446900 0.000000
0.459700 0.000000
0.472500 0.000000
0.485300 0.000000
0.498100 0.000000
0.511000 0.000000
0.523800 0.000000
0.536600 0.000000
0.549400 0.000000
0.562300 0.000000
0.575100 0.000000
0.587900 0.000000
0.600700 0.000000
0.613600 0.000000
0.626400 0.000000
0.639200 0.000000
0.652000 0.000000
0.664900 0.000000
0.677700 0.000000
0.690500 0.000000
0.703300 0.000000
0.716100 0.000000
0.729000 0.000000
0.741800 0.000000
0.754600 0.000000
0.767400 0.000000
0.780300 0.000000
0.793100 0.000000
0.805900 0.000000
0.818700 0.000000
0.831600 0.000000
0.844400 0.000000
0.857200 0.000000
0.870000 0.000000
0.882900 0.000000
0.895700 0.000000
0.908500 0.000000
0.921300 0.000000
0.934100 0.000000
0.947000 0.000000
0.959800 0.000000
0.972600 0.000000
0.985400 0.000000
0.998300 0.000000
1.011100 0.000000
1.023900 0.000000
1.036700 0.000000
1.049600 0.000000
1.062400 0.000000
1.075200 0.000400
1.088000 0.004600
1.100900 0.013000
1.113700 0.024000
1.126500 0.037400
1.139300 0.053200
1.152100 0.071500
1.165000 0.404900
1.177800 0.645200
1.190600 0.875200
1.203400 1.059900
1.216300 1.193200
1.229100 1.250700
1.241900 1.390500
1.254700 1.443700
1.267600 1.529000
1.280400 1.627600
1.293200 1.716200
1.306000 1.792600
1.318900 1.848900
1.331700 1.942000
1.344500 2.046100
1.357300 2.153300
1.370200 2.262200
1.383000 2.369100
1.395800 2.483500
1.408600 2.659300
1.421400 2.903600
1.434300 3.138600
1.447100 3.653300
1.459900 3.855400
1.472700 4.145400
1.485600 4.523300
1.498400 4.794500
1.511200 5.035200
1.524000 5.226900
1.536900 5.437200
1.549700 5.463400
1.562500 5.399000
1.575300 5.420900
1.588200 5.626900
1.601000 6.304200
1.613800 6.816900
1.626600 7.133700
1.639400 7.545200
1.652300 8.358800
1.665100 8.461800
1.677900 9.152200
1.690700 9.175700
1.703600 9.221400
1.716400 9.532900
1.729200 9.980300
1.742000 9.980100
1.754900 9.994600
1.767700 10.414800
1.780500 11.446100
1.793300 12.167800
1.806200 11.355300
1.819000 11.212300
1.831800 10.904700
1.844600 10.582500
1.857400 10.281800
1.870300 9.885900
1.883100 9.824900
1.895900 9.806000
1.908700 10.189000
1.921600 10.384000
1.934400 10.442500
1.947200 10.489600
1.960000 10.376400
1.972900 10.347200
1.985700 10.711800
1.998500 10.821800
2.011300 10.987600
2.024200 9.565600
2.037000 9.358400
2.049800 9.529400
2.062600 9.715600
2.075400 10.203800
2.088300 10.291100
2.101100 9.893900
2.113900 9.679400
2.126700 9.153300
2.139600 8.454100
2.152400 7.798800
2.165200 7.583700
2.178000 6.806900
2.190900 6.692500
2.203700 6.817200
2.216500 7.180300
2.229300 7.543400
2.242200 7.715800
2.255000 8.442200
2.267800 8.869500
2.280600 8.803800
2.293500 8.955500
2.306300 8.472500
2.319100 8.534200
2.331900 8.546800
2.344700 8.186500
2.357600 8.371700
2.370400 9.159600
2.383200 9.549000
2.396000 9.354600
2.408900 8.284200
2.421700 7.599100
2.434500 7.161700
2.447300 6.929500
2.460200 6.670700
2.473000 6.687700
2.485800 6.641300
2.498600 6.574100
2.511500 6.741700
2.524300 6.812000
2.537100 7.002300
2.549900 7.156200
2.562700 7.320400
2.575600 7.503600
2.588400 7.490300
2.601200 7.431800
2.614000 7.414200
2.626900 7.470700
2.639700 7.341500
2.652500 7.357000
2.665300 7.205900
2.678200 7.031900
2.691000 6.781900
2.703800 6.864900
2.716600 6.941000
2.729500 6.829800
2.742300 6.710900
2.755100 6.728800
2.767900 7.081300
2.780700 7.879800
2.793600 5.925000
2.806400 5.908900
2.819200 6.127800
2.832000 6.214000
2.844900 6.695200
2.857700 7.312900
2.870500 7.595300
2.883300 7.744300
2.896200 8.181600
2.909000 8.440400
2.921800 8.387100
2.934600 8.230200
2.947500 8.119800
2.960300 7.787000
2.973100 7.690000
2.985900 7.441900
2.998700 7.442000
3.011600 7.208200
3.024400 7.169400
3.037200 7.145600
3.050000 7.012600
3.062900 7.208900
3.075700 7.293500
3.088500 7.068700
3.101300 7.418400
3.114200 7.636100
3.127000 8.005400
3.139800 7.811500
3.152600 7.473700
3.165500 7.090900
3.178300 6.717500
3.191100 6.583400
3.203900 6.600800
3.216800 6.755000
3.229600 7.029800
3.242400 7.445600
3.255200 7.074500
3.268000 6.696900
3.280900 6.525400
3.293700 6.495900
3.306500 6.650700
3.319300 7.010300
3.332200 7.324700
3.345000 7.717600
3.357800 8.189300
3.370600 8.142600
3.383500 8.163000
3.396300 8.428600
3.409100 8.027300
3.421900 7.717500
3.434800 7.514700
3.447600 7.341600
3.460400 7.142600
3.473200 6.863800
3.486000 6.833800
3.498900 7.082300
3.511700 7.336500
3.524500 7.537300
3.537300 7.713200
3.550200 7.907400
3.563000 7.895300
3.575800 8.059200
3.588600 8.139700
3.601500 8.342200
3.614300 8.646200
3.627100 9.006600
3.639900 9.535600
3.652800 10.137500
3.665600 10.497500
3.678400 10.553000
3.691200 10.472900
3.704000 10.239500
3.716900 9.839300
3.729700 9.201100
3.742500 9.072000
3.755300 8.714000
3.768200 8.108400
3.781000 8.149100
3.793800 7.843900
3.806600 7.606200
3.819500 7.623700
3.832300 7.850400
3.845100 7.928800
3.857900 7.983300
3.870800 8.351900
3.883600 8.914400
3.896400 8.878700
3.909200 8.930700
3.922000 9.198500
3.934900 9.522500
3.947700 10.230900
3.960500 10.709100
3.973300 11.337800
3.986200 11.119100
3.999000 10.786200
4.011800 10.567200
4.024600 10.693200
4.037500 10.922600
4.050300 11.377900
4.063100 12.306200
4.075900 12.765200
4.088800 13.140000
4.101600 12.803300
4.114400 12.733300
4.127200 13.843600
4.140100 13.711700
4.152900 13.445300
4.165700 13.061700
4.178500 11.826400
4.191300 10.815800
4.204200 10.716300
4.217000 10.564300
4.229800 10.715700
4.242600 10.894300
4.255500 10.385800
4.268300 9.741800
4.281100 9.173500
4.293900 8.845500
4.306800 8.656500
4.319600 8.762000
4.332400 8.960000
4.345200 9.177000
4.358100 9.327200
4.370900 9.690300
4.383700 10.045000
4.396500 10.048100
4.409300 9.881800
4.422200 9.518700
4.435000 9.100100
4.447800 8.746200
4.460600 8.281300
4.473500 7.915000
4.486300 7.838600
4.499100 7.552300
4.511900 7.364800
4.524800 7.205300
4.537600 7.007000
4.550400 7.177900
4.563200 7.359300
4.576100 7.441900
4.588900 7.370700
4.601700 7.067600
4.614500 6.799300
4.627300 6.577600
4.640200 6.490200
4.653000 6.751000
4.665800 7.175000
4.678600 7.810100
4.691500 8.142500
4.704300 9.635600
4.717100 9.900600
4.729900 10.212900
4.742800 10.639900
4.755600 10.977500
4.768400 10.084400
4.781200 9.394500
4.794100 8.898700
4.806900 8.690900
4.819700 8.662300
4.832500 8.616700
4.845300 8.169100
4.858200 8.729900
4.871000 10.439000
4.883800 10.429200
4.896600 11.453900
4.909500 10.453800
4.922300 10.595700
4.935100 11.486600
4.947900 12.018700
4.960800 10.909600
4.973600 10.538500
4.986400 10.334200
4.999200 10.423300
5.012100 10.557800
5.024900 10.451100
5.037700 10.024300
5.050500 10.139000
5.063300 12.540800
5.076200 12.000300
5.089000 11.792700
5.101800 11.701100
5.114600 11.469300
5.127500 10.742500
5.140300 10.251500
5.153100 9.831900
5.165900 9.803700
5.178800 10.203100
5.191600 12.074100
5.204400 13.636500
5.217200 12.913900
5.230100 12.468000
5.242900 12.251700
5.255700 11.961500
5.268500 13.067800
5.281400 13.153300
5.294200 13.414000
5.307000 12.480200
5.319800 12.599200
5.332600 12.161500
5.345500 11.636600
5.358300 11.175600
5.371100 10.336600
5.383900 10.508400
5.396800 11.007000
5.409600 11.898100
5.422400 13.246800
5.435200 14.390000
5.448100 14.389300
5.460900 13.946200
5.473700 12.604100
5.486500 11.541200
5.499400 11.272800
5.512200 11.046900
5.525000 10.698000
5.537800 10.416200
5.550600 10.279600
5.563500 10.380500
5.576300 10.388100
5.589100 10.443900
5.601900 11.131700
5.614800 11.571900
5.627600 11.562000
5.640400 11.340600
5.653200 11.275400
5.666100 11.104500
5.678900 10.743700
5.691700 10.571500
5.704500 9.603300
5.717400 9.548000
5.730200 9.608800
5.743000 10.226200
5.755800 10.542900
5.768600 10.742600
5.781500 11.263400
5.794300 11.151100
5.807100 10.859400
5.819900 11.324700
5.832800 12.202100
5.845600 12.711500
5.858400 11.928900
5.871200 11.798900
5.884100 12.276900
5.896900 12.487900
5.909700 12.665600
5.922500 12.523500
5.935400 12.543700
5.948200 12.542800
5.961000 12.698200
5.973800 13.342900
5.986600 14.022500
5.999500 14.780900
6.012300 15.676500
6.025100 14.931600
6.037900 14.723400
6.050800 14.241200
6.063600 13.423200
6.076400 14.320000
6.089200 14.781400
6.102100 14.135100
6.114900 13.986300
6.127700 13.745700
6.140500 13.744400
6.153400 13.086500
6.166200 12.892900
6.179000 12.395300
6.191800 11.820300
6.204700 11.069500
6.217500 10.495600
6.230300 10.501100
6.243100 11.007700
6.255900 10.988000
6.268800 11.373900
6.281600 11.219200
6.294400 11.434000
6.307200 11.520600
6.320100 11.819300
6.332900 12.372200
6.345700 13.673300
6.358500 12.320000
6.371400 10.912700
