set title 'mp-1187936 - Density of States'
set xlabel 'Energy (eV)'
set ylabel 'DOS (states/eV)'
set grid
set xrange [-10:10]
set yrange [0:38.099]
set xzeroaxis lt -1
set terminal png size 800,600
set output 'mp-1187936_dos_gnuplot.png'
plot '-' using 1:2 with lines title 'DOS'
-8.908900 0.000000
-8.886000 0.000000
-8.863000 0.000000
-8.840100 0.000000
-8.817100 0.000000
-8.794200 0.000000
-8.771200 0.000000
-8.748200 0.000000
-8.725300 0.000000
-8.702300 0.000000
-8.679400 0.000000
-8.656400 0.000000
-8.633500 0.000000
-8.610500 0.000000
-8.587600 0.000000
-8.564600 0.000000
-8.541600 0.000000
-8.518700 0.000000
-8.495700 0.000000
-8.472800 0.000000
-8.449800 0.000000
-8.426900 0.000000
-8.403900 0.000000
-8.381000 0.000000
-8.358000 0.000000
-8.335000 0.000000
-8.312100 0.000000
-8.289100 0.000000
-8.266200 0.000000
-8.243200 0.000000
-8.220300 0.000000
-8.197300 0.000000
-8.174400 0.000000
-8.151400 0.000000
-8.128400 0.000000
-8.105500 0.000000
-8.082500 0.000000
-8.059600 0.000000
-8.036600 0.000000
-8.013700 0.000000
-7.990700 0.000000
-7.967700 0.000000
-7.944800 0.000000
-7.921800 0.000000
-7.898900 0.000000
-7.875900 0.000000
-7.853000 0.000000
-7.830000 0.000000
-7.807100 0.000000
-7.784100 0.000000
-7.761100 0.000000
-7.738200 0.000000
-7.715200 0.000000
-7.692300 0.000000
-7.669300 0.000000
-7.646400 0.000000
-7.623400 0.000000
-7.600500 0.000000
-7.577500 0.000000
-7.554500 0.000000
-7.531600 0.000000
-7.508600 0.000000
-7.485700 0.000000
-7.462700 0.000000
-7.439800 0.000000
-7.416800 0.000000
-7.393900 0.000000
-7.370900 0.000000
-7.347900 0.000000
-7.325000 0.000000
-7.302000 0.000000
-7.279100 0.000000
-7.256100 0.000000
-7.233200 0.000000
-7.210200 0.000000
-7.187200 0.000000
-7.164300 0.000000
-7.141300 0.000000
-7.118400 0.000000
-7.095400 0.000000
-7.072500 0.000000
-7.049500 0.000000
-7.026600 0.000000
-7.003600 0.000000
-6.980600 0.000000
-6.957700 0.000000
-6.934700 0.000100
-6.911800 0.000500
-6.888800 0.002500
-6.865900 0.008600
-6.842900 0.021000
-6.820000 0.038500
-6.797000 0.057800
-6.774000 0.078400
-6.751100 0.108700
-6.728100 0.160800
-6.705200 0.217600
-6.682200 0.226900
-6.659300 0.169600
-6.636300 0.098300
-6.613400 0.079600
-6.590400 0.135800
-6.567400 0.235200
-6.544500 0.317800
-6.521500 0.347100
-6.498600 0.339500
-6.475600 0.342500
-6.452700 0.366800
-6.429700 0.350300
-6.406700 0.254200
-6.383800 0.142100
-6.360800 0.100200
-6.337900 0.150000
-6.314900 0.252400
-6.292000 0.350200
-6.269000 0.411000
-6.246100 0.447400
-6.223100 0.506600
-6.200100 0.592200
-6.177200 0.606300
-6.154200 0.474400
-6.131300 0.280900
-6.108300 0.170500
-6.085400 0.188700
-6.062400 0.277400
-6.039500 0.367400
-6.016500 0.451400
-5.993500 0.559600
-5.970600 0.665100
-5.947600 0.662900
-5.924700 0.504700
-5.901700 0.304400
-5.878800 0.225000
-5.855800 0.317100
-5.832900 0.495700
-5.809900 0.628300
-5.786900 0.651500
-5.764000 0.606400
-5.741000 0.571700
-5.718100 0.574100
-5.695100 0.551700
-5.672200 0.455000
-5.649200 0.361400
-5.626200 0.395500
-5.603300 0.567700
-5.580300 0.759600
-5.557400 0.864800
-5.534400 0.892400
-5.511500 0.889400
-5.488500 0.837200
-5.465600 0.701300
-5.442600 0.526200
-5.419600 0.406800
-5.396700 0.378000
-5.373700 0.387200
-5.350800 0.400800
-5.327800 0.481300
-5.304900 0.685300
-5.281900 0.926900
-5.259000 1.040000
-5.236000 0.988200
-5.213000 0.929600
-5.190100 1.010400
-5.167100 1.177600
-5.144200 1.270200
-5.121200 1.198800
-5.098300 0.995400
-5.075300 0.767300
-5.052400 0.630600
-5.029400 0.668300
-5.006400 0.867800
-4.983500 1.082700
-4.960500 1.164900
-4.937600 1.110700
-4.914600 1.014500
-4.891700 0.962700
-4.868700 0.989500
-4.845700 1.070300
-4.822800 1.167100
-4.799800 1.277200
-4.776900 1.409900
-4.753900 1.556500
-4.731000 1.695700
-4.708000 1.779900
-4.685100 1.780600
-4.662100 1.783300
-4.639100 1.885400
-4.616200 2.027200
-4.593200 2.087600
-4.570300 2.079400
-4.547300 2.097700
-4.524400 2.131700
-4.501400 2.110000
-4.478500 2.087800
-4.455500 2.154400
-4.432500 2.240000
-4.409600 2.203700
-4.386600 1.947200
-4.363700 1.438100
-4.340700 0.819200
-4.317800 0.339600
-4.294800 0.099200
-4.271900 0.020100
-4.248900 0.002800
-4.225900 0.000300
-4.203000 0.000000
-4.180000 0.000000
-4.157100 0.000000
-4.134100 0.000000
-4.111200 0.000000
-4.088200 0.000000
-4.065200 0.000300
-4.042300 0.002100
-4.019300 0.009200
-3.996400 0.027700
-3.973400 0.057100
-3.950500 0.085400
-3.927500 0.107500
-3.904600 0.141700
-3.881600 0.197100
-3.858600 0.249300
-3.835700 0.288800
-3.812700 0.349800
-3.789800 0.452700
-3.766800 0.576000
-3.743900 0.699100
-3.720900 0.835600
-3.698000 1.050000
-3.675000 1.446400
-3.652000 2.104200
-3.629100 3.043800
-3.606100 4.225700
-3.583200 5.539200
-3.560200 6.882000
-3.537300 8.204100
-3.514300 9.325300
-3.491400 9.911500
-3.468400 9.816500
-3.445400 9.298800
-3.422500 8.935300
-3.399500 9.509100
-3.376600 11.648600
-3.353600 15.206900
-3.330700 19.386200
-3.307700 23.611700
-3.284700 27.633800
-3.261800 30.838800
-3.238800 32.346800
-3.215900 31.761700
-3.192900 29.480500
-3.170000 26.515900
-3.147000 23.735000
-3.124100 21.278000
-3.101100 19.105300
-3.078100 17.521400
-3.055200 16.960900
-3.032200 17.706900
-3.009300 19.728900
-2.986300 22.552600
-2.963400 25.283100
-2.940400 27.004300
-2.917500 27.402900
-2.894500 26.985400
-2.871500 26.539600
-2.848600 26.414700
-2.825600 26.520000
-2.802700 26.785300
-2.779700 27.298800
-2.756800 28.191400
-2.733800 29.596400
-2.710900 31.424000
-2.687900 33.052600
-2.664900 33.931100
-2.642000 34.384600
-2.619000 34.635700
-2.596100 33.925800
-2.573100 31.941000
-2.550200 29.543000
-2.527200 27.441500
-2.504200 25.520700
-2.481300 23.515300
-2.458300 21.821900
-2.435400 21.318500
-2.412400 21.889000
-2.389500 21.857800
-2.366500 19.767100
-2.343600 15.903100
-2.320600 11.650400
-2.297600 8.153500
-2.274700 5.724900
-2.251700 4.066700
-2.228800 2.840300
-2.205800 1.935900
-2.182900 1.312500
-2.159900 0.913600
-2.137000 0.748300
-2.114000 0.812800
-2.091000 0.979400
-2.068100 1.119000
-2.045100 1.217300
-2.022200 1.275100
-1.999200 1.249700
-1.976300 1.131200
-1.953300 0.974900
-1.930400 0.871500
-1.907400 0.889700
-1.884400 1.003700
-1.861500 1.123800
-1.838500 1.229600
-1.815600 1.376800
-1.792600 1.525100
-1.769700 1.522100
-1.746700 1.340300
-1.723700 1.140400
-1.700800 1.047700
-1.677800 1.066300
-1.654900 1.211500
-1.631900 1.486900
-1.609000 1.727300
-1.586000 1.714100
-1.563100 1.459200
-1.540100 1.172900
-1.517100 1.011200
-1.494200 1.004000
-1.471200 1.099600
-1.448300 1.175600
-1.425300 1.137400
-1.402400 1.024900
-1.379400 0.927400
-1.356500 0.854400
-1.333500 0.753700
-1.310500 0.614500
-1.287600 0.531000
-1.264600 0.664600
-1.241700 1.089800
-1.218700 1.642900
-1.195800 1.994100
-1.172800 1.945800
-1.149900 1.606100
-1.126900 1.202800
-1.103900 0.858700
-1.081000 0.643900
-1.058000 0.647300
-1.035100 0.832600
-1.012100 0.986700
-0.989200 0.969900
-0.966200 0.888900
-0.943200 0.898000
-0.920300 0.963700
-0.897300 0.955500
-0.874400 0.858400
-0.851400 0.767300
-0.828500 0.741000
-0.805500 0.765800
-0.782600 0.818000
-0.759600 0.891700
-0.736600 1.010300
-0.713700 1.217200
-0.690700 1.452400
-0.667800 1.564000
-0.644800 1.543800
-0.621900 1.541600
-0.598900 1.579900
-0.576000 1.486700
-0.553000 1.198300
-0.530000 0.919600
-0.507100 0.855100
-0.484100 0.961500
-0.461200 1.079700
-0.438200 1.140500
-0.415300 1.152200
-0.392300 1.097200
-0.369400 0.966500
-0.346400 0.857200
-0.323400 0.885100
-0.300500 0.993700
-0.277500 0.992500
-0.254600 0.839100
-0.231600 0.737600
-0.208700 0.867600
-0.185700 1.146800
-0.162700 1.327300
-0.139800 1.284800
-0.116800 1.134800
-0.093900 1.038300
-0.070900 1.059000
-0.048000 1.209100
-0.025000 1.434700
-0.002100 1.581000
0.020900 1.525800
0.043900 1.313200
0.066800 1.077100
0.089800 0.890300
0.112700 0.751100
0.135700 0.656800
0.158600 0.647600
0.181600 0.801000
0.204500 1.131000
0.227500 1.477300
0.250500 1.630300
0.273400 1.564400
0.296400 1.431500
0.319300 1.361300
0.342300 1.315800
0.365200 1.178300
0.388200 0.967100
0.411100 0.810900
0.434100 0.782000
0.457100 0.873400
0.480000 1.038300
0.503000 1.220100
0.525900 1.404500
0.548900 1.581000
0.571800 1.646900
0.594800 1.491000
0.617800 1.178600
0.640700 0.921800
0.663700 0.837300
0.686600 0.848400
0.709600 0.869600
0.732500 0.947700
0.755500 1.146100
0.778400 1.412800
0.801400 1.637000
0.824400 1.715100
0.847300 1.575300
0.870300 1.289700
0.893200 1.045000
0.916200 0.933100
0.939100 0.925000
0.962100 0.998900
0.985000 1.150300
1.008000 1.312500
1.031000 1.395000
1.053900 1.393900
1.076900 1.359500
1.099800 1.306300
1.122800 1.228800
1.145700 1.159600
1.168700 1.175900
1.191700 1.301600
1.214600 1.432300
1.237600 1.439100
1.260500 1.287700
1.283500 1.061200
1.306400 0.911900
1.329400 0.914700
1.352300 0.999400
1.375300 1.070700
1.398300 1.101000
1.421200 1.101400
1.444200 1.058600
1.467100 0.930500
1.490100 0.758400
1.513000 0.708200
1.536000 0.888700
1.558900 1.182300
1.581900 1.333700
1.604900 1.249500
1.627800 1.121500
1.650800 1.140400
1.673700 1.248600
1.696700 1.298700
1.719600 1.286400
1.742600 1.323800
1.765500 1.465500
1.788500 1.622900
1.811500 1.647900
1.834400 1.482300
1.857400 1.214500
1.880300 1.001800
1.903300 0.945900
1.926200 1.012500
1.949200 1.081300
1.972200 1.064200
1.995100 0.973500
2.018100 0.907000
2.041000 0.912300
2.064000 0.915400
2.086900 0.869800
2.109900 0.851800
2.132800 0.907700
2.155800 0.931600
2.178800 0.841100
2.201700 0.746100
2.224700 0.807300
2.247600 1.067800
2.270600 1.467600
2.293500 1.866700
2.316500 2.089600
2.339400 2.076200
2.362400 1.924800
2.385400 1.759400
2.408300 1.639300
2.431300 1.568700
2.454200 1.572800
2.477200 1.693100
2.500100 1.825200
2.523100 1.790900
2.546000 1.616300
2.569000 1.438500
2.592000 1.263200
2.614900 1.081500
2.637900 0.957500
2.660800 0.872800
2.683800 0.763800
2.706700 0.680800
2.729700 0.728500
2.752700 0.914400
2.775600 1.126500
2.798600 1.275600
2.821500 1.390500
2.844500 1.524000
2.867400 1.655700
2.890400 1.706300
2.913300 1.625100
2.936300 1.446700
2.959300 1.242200
2.982200 1.076400
3.005200 0.991400
3.028100 0.964200
3.051100 0.946500
3.074000 0.996600
3.097000 1.253400
3.119900 1.689200
3.142900 2.030700
3.165900 2.108200
3.188800 2.046800
3.211800 1.912500
3.234700 1.591000
3.257700 1.139100
3.280600 0.797500
3.303600 0.668000
3.326500 0.680100
3.349500 0.744000
3.372500 0.810700
3.395400 0.883800
3.418400 0.984900
3.441300 1.076500
3.464300 1.093800
3.487200 1.096500
3.510200 1.230300
3.533200 1.456600
3.556100 1.560400
3.579100 1.493600
3.602000 1.398500
3.625000 1.317800
3.647900 1.206400
3.670900 1.135100
3.693800 1.219700
3.716800 1.407800
3.739800 1.550000
3.762700 1.621900
3.785700 1.664100
3.808600 1.643200
3.831600 1.538600
3.854500 1.428800
3.877500 1.417800
3.900400 1.493700
3.923400 1.477300
3.946400 1.231900
3.969300 0.896300
3.992300 0.738700
4.015200 0.833200
4.038200 0.994500
4.061100 1.018700
4.084100 0.908100
4.107000 0.806600
4.130000 0.815500
4.153000 0.951000
4.175900 1.162600
4.198900 1.331200
4.221800 1.401300
4.244800 1.489800
4.267700 1.669300
4.290700 1.767600
4.313700 1.613900
4.336600 1.327900
4.359600 1.142500
4.382500 1.125400
4.405500 1.198700
4.428400 1.235800
4.451400 1.140500
4.474300 0.970500
4.497300 0.913600
4.520300 1.052400
4.543200 1.235300
4.566200 1.270800
4.589100 1.139200
4.612100 0.935500
4.635000 0.787900
4.658000 0.854400
4.680900 1.183300
4.703900 1.602200
4.726900 1.897500
4.749800 2.030400
4.772800 2.042700
4.795700 1.870100
4.818700 1.455600
4.841600 0.969700
4.864600 0.688900
4.887500 0.717200
4.910500 0.952800
4.933500 1.220700
4.956400 1.389500
4.979400 1.462200
5.002300 1.569800
5.025300 1.769400
5.048200 1.887800
5.071200 1.757200
5.094200 1.483500
5.117100 1.279400
5.140100 1.200600
5.163000 1.153800
5.186000 1.049200
5.208900 0.904000
5.231900 0.829000
5.254800 0.924100
5.277800 1.166200
5.300800 1.408500
5.323700 1.505300
5.346700 1.419100
5.369600 1.275400
5.392600 1.299700
5.415500 1.517500
5.438500 1.674900
5.461400 1.589100
5.484400 1.296100
5.507400 0.917500
5.530300 0.611800
5.553300 0.503800
5.576200 0.608000
5.599200 0.865900
5.622100 1.174400
5.645100 1.400500
5.668000 1.464100
5.691000 1.392100
5.714000 1.257400
5.736900 1.119800
5.759900 1.038300
5.782800 1.059600
5.805800 1.190500
5.828700 1.397000
5.851700 1.579500
5.874700 1.607100
5.897600 1.459800
5.920600 1.313900
5.943500 1.409900
5.966500 1.768000
5.989400 2.128600
6.012400 2.235800
6.035300 2.062800
6.058300 1.789300
6.081300 1.605500
6.104200 1.534100
6.127200 1.531300
6.150100 1.630400
6.173100 1.819400
6.196000 1.931600
6.219000 1.819000
6.241900 1.556200
6.264900 1.370000
6.287900 1.400300
6.310800 1.558600
6.333800 1.635500
6.356700 1.547300
6.379700 1.424500
6.402600 1.429300
6.425600 1.533900
6.448500 1.580200
6.471500 1.519200
6.494500 1.411800
6.517400 1.286700
6.540400 1.205600
6.563300 1.272100
6.586300 1.455100
6.609200 1.630900
6.632200 1.791200
6.655200 2.004300
6.678100 2.191300
6.701100 2.138200
6.724000 1.806300
6.747000 1.447700
6.769900 1.292200
6.792900 1.267800
6.815800 1.163200
6.838800 0.959400
6.861800 0.834700
6.884700 0.884300
6.907700 1.010600
6.930600 1.116200
6.953600 1.268900
6.976500 1.604300
6.999500 2.100000
7.022400 2.498200
7.045400 2.581800
7.068400 2.445000
7.091300 2.276800
7.114300 2.068900
7.137200 1.750400
7.160200 1.411300
7.183100 1.206000
7.206100 1.161800
7.229000 1.209000
7.252000 1.321000
7.275000 1.507900
7.297900 1.731600
7.320900 1.926300
7.343800 2.012000
7.366800 1.951500
7.389700 1.864400
7.412700 1.881500
7.435700 1.927400
7.458600 1.883100
7.481600 1.818700
7.504500 1.828400
7.527500 1.814400
7.550400 1.631200
7.573400 1.312400
7.596300 1.024000
7.619300 0.883100
7.642300 0.893700
7.665200 1.000600
7.688200 1.153500
7.711100 1.317100
7.734100 1.463900
7.757000 1.584300
7.780000 1.677200
7.802900 1.750000
7.825900 1.844300
7.848900 1.959600
7.871800 1.972400
7.894800 1.795100
7.917700 1.533700
7.940700 1.372600
7.963600 1.373600
7.986600 1.458200
8.009500 1.588500
8.032500 1.805500
8.055500 2.058000
8.078400 2.182100
8.101400 2.060200
8.124300 1.735000
8.147300 1.381700
8.170200 1.183500
8.193200 1.220800
8.216200 1.414900
8.239100 1.576500
8.262100 1.557900
8.285000 1.382900
8.308000 1.259000
8.330900 1.378000
8.353900 1.659700
8.376800 1.844100
8.399800 1.828500
8.422800 1.766000
8.445700 1.816400
8.468700 1.923100
8.491600 1.969300
8.514600 1.994900
8.537500 2.084600
8.560500 2.230000
8.583400 2.369300
8.606400 2.437600
8.629400 2.394900
8.652300 2.224800
8.675300 1.909100
8.698200 1.482200
8.721200 1.083300
8.744100 0.847700
8.767100 0.806100
8.790000 0.930100
8.813000 1.161300
8.836000 1.382600
8.858900 1.482400
8.881900 1.466500
8.904800 1.434600
8.927800 1.448000
8.950700 1.463300
8.973700 1.420700
8.996700 1.375400
9.019600 1.431700
9.042600 1.551000
9.065500 1.596500
9.088500 1.558000
9.111400 1.589500
9.134400 1.811500
9.157300 2.100000
9.180300 2.199000
9.203300 2.118500
9.226200 2.106700
9.249200 2.164600
9.272100 2.022200
9.295100 1.648000
9.318000 1.364300
9.341000 1.416800
9.363900 1.699300
9.386900 1.930400
9.409900 1.983700
9.432800 1.982400
9.455800 2.077900
9.478700 2.231300
9.501700 2.272700
9.524600 2.101800
9.547600 1.784700
9.570500 1.482500
9.593500 1.335500
9.616500 1.436500
9.639400 1.809100
9.662400 2.341500
9.685300 2.821600
9.708300 3.053500
9.731200 2.933400
9.754200 2.511900
9.777200 1.996700
9.800100 1.629600
9.823100 1.518900
9.846000 1.571600
9.869000 1.628400
9.891900 1.621700
9.914900 1.595000
9.937800 1.632700
9.960800 1.727200
9.983800 1.740900
10.006700 1.571100
10.029700 1.293900
10.052600 1.095900
10.075600 1.096400
10.098500 1.271500
10.121500 1.529600
10.144400 1.781900
10.167400 1.933900
10.190400 1.908700
10.213300 1.732200
10.236300 1.526400
10.259200 1.394700
10.282200 1.372000
10.305100 1.439300
10.328100 1.528600
10.351000 1.538600
10.374000 1.415700
10.397000 1.261600
10.419900 1.252300
10.442900 1.420200
10.465800 1.644200
10.488800 1.816100
10.511700 1.878100
10.534700 1.763500
10.557700 1.480700
10.580600 1.210300
10.603600 1.174000
10.626500 1.428400
10.649500 1.804700
10.672400 2.035300
10.695400 2.007800
10.718300 1.878700
10.741300 1.848500
10.764300 1.921800
10.787200 2.008400
10.810200 2.125600
10.833100 2.363800
10.856100 2.675800
10.879000 2.804200
10.902000 2.582000
10.924900 2.164800
10.947900 1.827000
10.970900 1.749000
10.993800 1.932900
11.016800 2.209800
11.039700 2.436000
11.062700 2.596300
11.085600 2.689300
11.108600 2.665400
11.131500 2.524400
11.154500 2.377400
11.177500 2.296400
11.200400 2.216200
11.223400 2.075500
11.246300 1.917500
11.269300 1.812800
11.292200 1.759600
11.315200 1.701000
11.338200 1.647400
11.361100 1.692700
11.384100 1.849200
11.407000 1.993700
11.430000 2.010700
11.452900 1.905100
11.475900 1.764900
11.498800 1.620100
11.521800 1.413100
11.544800 1.172600
11.567700 1.032300
11.590700 1.000600
11.613600 0.981400
11.636600 1.023000
11.659500 1.244400
11.682500 1.584100
11.705400 1.862700
11.728400 2.000900
11.751400 2.021800
11.774300 1.930800
11.797300 1.754700
11.820200 1.639000
11.843200 1.741200
11.866100 2.034100
11.889100 2.302900
11.912000 2.373400
11.935000 2.264600
11.958000 2.063300
11.980900 1.809400
12.003900 1.564400
12.026800 1.448300
12.049800 1.568700
12.072700 1.921600
12.095700 2.317800
12.118700 2.500500
12.141600 2.384200
12.164600 2.092700
12.187500 1.815200
12.210500 1.693300
12.233400 1.755700
12.256400 1.971400
12.279300 2.312600
12.302300 2.658300
12.325300 2.813800
12.348200 2.713600
12.371200 2.441900
12.394100 2.143800
12.417100 2.053100
12.440000 2.344600
12.463000 2.805600
12.485900 2.975900
12.508900 2.722200
12.531900 2.314000
12.554800 1.973000
12.577800 1.684100
12.600700 1.357500
12.623700 1.048800
12.646600 0.946300
12.669600 1.107900
12.692500 1.365800
12.715500 1.550700
12.738500 1.707100
12.761400 1.928300
12.784400 2.098700
12.807300 2.068000
12.830300 1.941400
12.853200 1.905500
12.876200 1.899900
12.899200 1.764600
12.922100 1.548400
12.945100 1.420500
12.968000 1.424300
12.991000 1.452600
13.013900 1.449600
13.036900 1.562600
13.059800 1.910100
13.082800 2.281800
13.105800 2.377000
13.128700 2.204900
13.151700 1.987000
13.174600 1.847200
13.197600 1.764800
13.220500 1.715500
13.243500 1.742000
13.266400 1.845900
13.289400 1.874500
13.312400 1.677000
13.335300 1.368900
13.358300 1.239200
13.381200 1.386900
13.404200 1.681900
13.427100 2.057900
13.450100 2.508800
13.473000 2.830100
13.496000 2.759500
13.519000 2.331900
13.541900 1.822700
13.564900 1.470800
13.587800 1.374300
13.610800 1.473200
13.633700 1.551700
13.656700 1.407500
13.679700 1.100200
13.702600 0.909300
13.725600 1.016000
13.748500 1.332400
13.771500 1.643300
13.794400 1.809200
13.817400 1.823700
13.840300 1.764400
13.863300 1.728500
13.886300 1.786400
13.909200 1.906200
13.932200 1.964100
13.955100 1.938600
13.978100 1.973700
14.001000 2.159500
14.024000 2.373500
14.046900 2.431500
14.069900 2.290900
14.092900 2.047600
14.115800 1.819500
14.138800 1.699800
14.161700 1.737000
14.184700 1.865400
14.207600 1.988600
14.230600 2.143500
14.253500 2.370300
14.276500 2.503100
14.299500 2.302600
14.322400 1.772400
14.345400 1.221700
14.368300 0.930700
14.391300 0.890000
14.414200 0.999700
14.437200 1.259900
14.460200 1.588300
14.483100 1.760000
14.506100 1.682900
14.529000 1.496900
14.552000 1.387500
14.574900 1.430100
14.597900 1.576500
14.620800 1.746800
14.643800 1.883600
14.666800 1.922300
14.689700 1.838300
14.712700 1.703400
14.735600 1.592300
14.758600 1.510100
14.781500 1.442800
14.804500 1.420500
14.827400 1.502100
14.850400 1.719000
14.873400 2.051500
14.896300 2.354400
14.919300 2.368000
14.942200 2.023600
14.965200 1.602400
14.988100 1.409400
15.011100 1.416400
15.034000 1.385500
15.057000 1.272800
15.080000 1.220000
15.102900 1.256300
15.125900 1.320700
15.148800 1.385900
15.171800 1.406000
15.194700 1.350600
15.217700 1.315000
15.240700 1.389300
15.263600 1.463000
15.286600 1.405900
15.309500 1.321700
15.332500 1.365100
15.355400 1.468000
