set title 'mp-1065190 - Density of States'
set xlabel 'Energy (eV)'
set ylabel 'DOS (states/eV)'
set grid
set xrange [-10:10]
set yrange [0:20.313]
set xzeroaxis lt -1
set terminal png size 800,600
set output 'mp-1065190_dos_gnuplot.png'
plot '-' using 1:2 with lines title 'DOS'
-18.921700 0.000000
-18.898900 0.000000
-18.876100 0.000000
-18.853300 0.000000
-18.830500 0.000000
-18.807700 0.000000
-18.784900 0.000000
-18.762100 0.000000
-18.739300 0.000000
-18.716400 0.000000
-18.693600 0.000000
-18.670800 0.000000
-18.648000 0.000000
-18.625200 0.000000
-18.602400 0.000000
-18.579600 0.000000
-18.556800 0.000000
-18.534000 0.000000
-18.511200 0.000000
-18.488400 0.000000
-18.465600 0.000000
-18.442800 0.000000
-18.420000 0.000000
-18.397200 0.000000
-18.374400 0.000000
-18.351600 0.000000
-18.328800 0.000000
-18.306000 0.000000
-18.283200 0.000000
-18.260400 0.000000
-18.237600 0.000000
-18.214800 0.000000
-18.192000 0.000000
-18.169200 0.000000
-18.146400 0.000000
-18.123600 0.000000
-18.100800 0.000000
-18.078000 0.000000
-18.055200 0.000000
-18.032400 0.000000
-18.009600 0.000000
-17.986800 0.000000
-17.964000 0.000000
-17.941200 0.000000
-17.918400 0.000000
-17.895600 0.000000
-17.872800 0.000000
-17.850000 0.000000
-17.827200 0.000000
-17.804400 0.000000
-17.781600 0.000000
-17.758800 0.000000
-17.736000 0.000000
-17.713200 0.000000
-17.690400 0.000000
-17.667600 0.000000
-17.644800 0.000000
-17.622000 0.000000
-17.599200 0.000000
-17.576400 0.000000
-17.553600 0.000000
-17.530800 0.000000
-17.508000 0.000000
-17.485200 0.000000
-17.462400 0.000000
-17.439600 0.000000
-17.416800 0.000000
-17.394000 0.000000
-17.371200 0.000000
-17.348400 0.000000
-17.325600 0.000000
-17.302800 0.000000
-17.280000 0.000000
-17.257200 0.000000
-17.234400 0.000000
-17.211600 0.000000
-17.188800 0.000000
-17.166000 0.000000
-17.143200 0.000000
-17.120400 0.000000
-17.097600 0.000000
-17.074700 0.000000
-17.051900 0.000000
-17.029100 0.000000
-17.006300 0.000000
-16.983500 0.000000
-16.960700 0.000000
-16.937900 0.000000
-16.915100 0.000000
-16.892300 0.000000
-16.869500 0.000000
-16.846700 0.007900
-16.823900 0.420800
-16.801100 0.642700
-16.778300 0.842800
-16.755500 1.002600
-16.732700 1.186400
-16.709900 1.375600
-16.687100 1.562200
-16.664300 1.764600
-16.641500 2.013600
-16.618700 2.274700
-16.595900 2.618800
-16.573100 3.001600
-16.550300 3.606000
-16.527500 4.497200
-16.504700 7.192100
-16.481900 8.913200
-16.459100 6.851500
-16.436300 5.223700
-16.413500 4.508400
-16.390700 3.997700
-16.367900 4.164800
-16.345100 4.015900
-16.322300 4.016800
-16.299500 3.972500
-16.276700 4.211600
-16.253900 4.411400
-16.231100 5.056500
-16.208300 5.821400
-16.185500 6.550600
-16.162700 14.909400
-16.139900 14.070100
-16.117100 14.216800
-16.094300 11.510300
-16.071500 7.320500
-16.048700 3.775300
-16.025900 2.272300
-16.003100 1.010400
-15.980300 0.000000
-15.957500 0.000000
-15.934700 0.000000
-15.911900 0.000000
-15.889100 0.000000
-15.866300 0.000000
-15.843500 0.000000
-15.820700 0.000000
-15.797900 0.000000
-15.775100 0.000000
-15.752300 0.000000
-15.729500 0.000000
-15.706700 0.000000
-15.683900 0.000000
-15.661100 0.000000
-15.638300 0.000000
-15.615500 0.000000
-15.592700 0.000000
-15.569900 0.000000
-15.547100 0.000000
-15.524300 0.000000
-15.501500 0.000000
-15.478700 0.000000
-15.455900 0.000000
-15.433100 0.000000
-15.410200 0.000000
-15.387400 0.000000
-15.364600 0.000000
-15.341800 0.000000
-15.319000 0.000000
-15.296200 0.000000
-15.273400 0.000000
-15.250600 0.000000
-15.227800 0.000000
-15.205000 0.000000
-15.182200 0.000000
-15.159400 0.000000
-15.136600 0.000000
-15.113800 0.000000
-15.091000 0.000000
-15.068200 0.000000
-15.045400 0.000000
-15.022600 0.000000
-14.999800 0.000000
-14.977000 0.000000
-14.954200 0.000000
-14.931400 0.000000
-14.908600 0.000000
-14.885800 0.000000
-14.863000 0.000000
-14.840200 0.000000
-14.817400 0.000000
-14.794600 0.000000
-14.771800 0.000000
-14.749000 0.000000
-14.726200 0.000000
-14.703400 0.000000
-14.680600 0.000000
-14.657800 0.000000
-14.635000 0.000000
-14.612200 0.000000
-14.589400 0.000000
-14.566600 0.000000
-14.543800 0.000000
-14.521000 0.000000
-14.498200 0.000000
-14.475400 0.000000
-14.452600 0.000000
-14.429800 0.000000
-14.407000 0.000000
-14.384200 0.000000
-14.361400 0.000000
-14.338600 0.000000
-14.315800 0.000000
-14.293000 0.000000
-14.270200 0.000000
-14.247400 0.000000
-14.224600 0.000000
-14.201800 0.000000
-14.179000 0.000000
-14.156200 0.000000
-14.133400 0.000000
-14.110600 0.000000
-14.087800 0.000000
-14.065000 0.000000
-14.042200 0.000000
-14.019400 0.000000
-13.996600 0.000000
-13.973800 0.000000
-13.951000 0.000000
-13.928200 0.000000
-13.905400 0.000000
-13.882600 0.000000
-13.859800 0.000000
-13.837000 0.000000
-13.814200 0.000000
-13.791400 0.000000
-13.768500 0.000000
-13.745700 0.000000
-13.722900 0.000000
-13.700100 0.000000
-13.677300 0.000000
-13.654500 0.000000
-13.631700 0.000000
-13.608900 0.000000
-13.586100 0.000000
-13.563300 0.000000
-13.540500 0.000000
-13.517700 0.000000
-13.494900 0.000000
-13.472100 0.000000
-13.449300 0.000000
-13.426500 0.000000
-13.403700 0.000000
-13.380900 0.000000
-13.358100 0.000000
-13.335300 0.000000
-13.312500 0.000000
-13.289700 0.000000
-13.266900 0.000000
-13.244100 0.000000
-13.221300 0.000000
-13.198500 0.000000
-13.175700 0.000000
-13.152900 0.000000
-13.130100 0.000000
-13.107300 0.000000
-13.084500 0.000000
-13.061700 0.000000
-13.038900 0.000000
-13.016100 0.000000
-12.993300 0.000000
-12.970500 0.000000
-12.947700 0.000000
-12.924900 0.000000
-12.902100 0.000000
-12.879300 0.000000
-12.856500 0.000000
-12.833700 0.000000
-12.810900 0.000000
-12.788100 0.000000
-12.765300 0.000000
-12.742500 0.000000
-12.719700 0.000000
-12.696900 0.000000
-12.674100 0.000000
-12.651300 0.000000
-12.628500 0.000000
-12.605700 0.000000
-12.582900 0.000000
-12.560100 0.000000
-12.537300 0.000000
-12.514500 0.000000
-12.491700 0.000000
-12.468900 0.000000
-12.446100 0.000000
-12.423300 0.000000
-12.400500 0.000000
-12.377700 0.000000
-12.354900 0.000000
-12.332100 0.000000
-12.309300 0.000000
-12.286500 0.000000
-12.263700 0.000000
-12.240900 0.000000
-12.218100 0.000000
-12.195300 0.000000
-12.172500 0.000000
-12.149700 0.000000
-12.126900 0.000000
-12.104000 0.000000
-12.081200 0.000000
-12.058400 0.000000
-12.035600 0.000000
-12.012800 0.000000
-11.990000 0.000000
-11.967200 0.000000
-11.944400 0.000000
-11.921600 0.000000
-11.898800 0.000000
-11.876000 0.000000
-11.853200 0.000000
-11.830400 0.000000
-11.807600 0.000000
-11.784800 0.000000
-11.762000 0.000000
-11.739200 0.000000
-11.716400 0.000000
-11.693600 0.000000
-11.670800 0.000000
-11.648000 0.000000
-11.625200 0.000000
-11.602400 0.000000
-11.579600 0.000000
-11.556800 0.000000
-11.534000 0.000000
-11.511200 0.000000
-11.488400 0.000000
-11.465600 0.000000
-11.442800 0.000000
-11.420000 0.000000
-11.397200 0.000000
-11.374400 0.000000
-11.351600 0.000000
-11.328800 0.000000
-11.306000 0.000000
-11.283200 0.000000
-11.260400 0.000000
-11.237600 0.000000
-11.214800 0.000000
-11.192000 0.000000
-11.169200 0.000000
-11.146400 0.000000
-11.123600 0.000000
-11.100800 0.000000
-11.078000 0.000000
-11.055200 0.000000
-11.032400 0.000000
-11.009600 0.000000
-10.986800 0.000000
-10.964000 0.000000
-10.941200 0.000000
-10.918400 0.000000
-10.895600 0.000000
-10.872800 0.000000
-10.850000 0.000000
-10.827200 0.000000
-10.804400 0.000000
-10.781600 0.000000
-10.758800 0.000000
-10.736000 0.000000
-10.713200 0.000000
-10.690400 0.000000
-10.667600 0.000000
-10.644800 0.000000
-10.622000 0.000000
-10.599200 0.000000
-10.576400 0.000000
-10.553600 0.000000
-10.530800 0.000000
-10.508000 0.000000
-10.485200 0.000000
-10.462300 0.000000
-10.439500 0.000000
-10.416700 0.000000
-10.393900 0.000000
-10.371100 0.000000
-10.348300 0.000000
-10.325500 0.000000
-10.302700 0.000000
-10.279900 0.000000
-10.257100 0.000000
-10.234300 0.000000
-10.211500 0.000000
-10.188700 0.000000
-10.165900 0.000000
-10.143100 0.000000
-10.120300 0.000000
-10.097500 0.000000
-10.074700 0.000000
-10.051900 0.000000
-10.029100 0.000000
-10.006300 0.000000
-9.983500 0.000000
-9.960700 0.000000
-9.937900 0.000000
-9.915100 0.000000
-9.892300 0.000000
-9.869500 0.000000
-9.846700 0.000000
-9.823900 0.000000
-9.801100 0.000000
-9.778300 0.000000
-9.755500 0.000000
-9.732700 0.000000
-9.709900 0.000000
-9.687100 0.000000
-9.664300 0.000000
-9.641500 0.000000
-9.618700 0.000000
-9.595900 0.000000
-9.573100 0.000000
-9.550300 0.000000
-9.527500 0.000000
-9.504700 0.000000
-9.481900 0.000000
-9.459100 0.000000
-9.436300 0.000000
-9.413500 0.000000
-9.390700 0.000000
-9.367900 0.000000
-9.345100 0.000000
-9.322300 0.000000
-9.299500 0.000000
-9.276700 0.000000
-9.253900 0.000000
-9.231100 0.000000
-9.208300 0.000000
-9.185500 0.000000
-9.162700 0.000000
-9.139900 0.000000
-9.117100 0.000000
-9.094300 0.000000
-9.071500 0.000000
-9.048700 0.000000
-9.025900 0.000000
-9.003100 0.000000
-8.980300 0.000000
-8.957500 0.000000
-8.934700 0.000000
-8.911900 0.000000
-8.889100 0.000000
-8.866300 0.000000
-8.843500 0.000000
-8.820600 0.000000
-8.797800 0.000000
-8.775000 0.000000
-8.752200 0.000000
-8.729400 0.000000
-8.706600 0.000000
-8.683800 0.000000
-8.661000 0.000000
-8.638200 0.000000
-8.615400 0.000000
-8.592600 0.000000
-8.569800 0.000000
-8.547000 0.000000
-8.524200 0.000000
-8.501400 0.000000
-8.478600 0.000000
-8.455800 0.000000
-8.433000 0.000000
-8.410200 0.000000
-8.387400 0.000000
-8.364600 0.000000
-8.341800 0.000000
-8.319000 0.000000
-8.296200 0.000000
-8.273400 0.000000
-8.250600 0.000000
-8.227800 0.000000
-8.205000 0.000000
-8.182200 0.000000
-8.159400 0.000000
-8.136600 0.000000
-8.113800 0.000000
-8.091000 0.000000
-8.068200 0.000000
-8.045400 0.000000
-8.022600 0.000000
-7.999800 0.000000
-7.977000 0.000000
-7.954200 0.000000
-7.931400 0.000000
-7.908600 0.000000
-7.885800 0.000000
-7.863000 0.000000
-7.840200 0.000000
-7.817400 0.000000
-7.794600 0.000000
-7.771800 0.000000
-7.749000 0.000000
-7.726200 0.000000
-7.703400 0.000000
-7.680600 0.000000
-7.657800 0.000000
-7.635000 0.000000
-7.612200 0.000000
-7.589400 0.000000
-7.566600 0.000000
-7.543800 0.000000
-7.521000 0.000000
-7.498200 0.000000
-7.475400 0.000000
-7.452600 0.000000
-7.429800 0.000000
-7.407000 0.000000
-7.384200 0.000000
-7.361400 0.000000
-7.338600 0.000000
-7.315800 0.000000
-7.293000 0.000000
-7.270200 0.000000
-7.247400 0.000000
-7.224600 0.000000
-7.201800 0.000000
-7.179000 0.000000
-7.156100 0.000000
-7.133300 0.000000
-7.110500 0.000000
-7.087700 0.000000
-7.064900 0.000000
-7.042100 0.000000
-7.019300 0.000000
-6.996500 0.000000
-6.973700 0.000000
-6.950900 0.000000
-6.928100 0.000000
-6.905300 0.000000
-6.882500 0.000000
-6.859700 0.000000
-6.836900 0.000000
-6.814100 0.000000
-6.791300 0.000000
-6.768500 0.000000
-6.745700 0.000000
-6.722900 0.000000
-6.700100 0.000000
-6.677300 0.000000
-6.654500 0.000000
-6.631700 0.000000
-6.608900 0.000000
-6.586100 0.000000
-6.563300 0.000000
-6.540500 0.000000
-6.517700 0.000000
-6.494900 0.000000
-6.472100 0.000000
-6.449300 0.000000
-6.426500 0.000000
-6.403700 0.000000
-6.380900 0.000000
-6.358100 0.000000
-6.335300 0.000000
-6.312500 0.000000
-6.289700 0.000000
-6.266900 0.000000
-6.244100 0.000000
-6.221300 0.000000
-6.198500 0.000000
-6.175700 0.000000
-6.152900 0.000000
-6.130100 0.000000
-6.107300 0.000000
-6.084500 0.000000
-6.061700 0.000000
-6.038900 0.000000
-6.016100 0.000000
-5.993300 0.000000
-5.970500 0.000000
-5.947700 0.000000
-5.924900 0.000000
-5.902100 0.000000
-5.879300 0.000000
-5.856500 0.000000
-5.833700 0.000000
-5.810900 0.000000
-5.788100 0.000000
-5.765300 0.000000
-5.742500 0.000000
-5.719700 0.000000
-5.696900 0.000000
-5.674100 0.000000
-5.651300 0.000000
-5.628500 0.000000
-5.605700 0.000000
-5.582900 0.000000
-5.560100 0.000000
-5.537300 0.000000
-5.514400 0.000000
-5.491600 0.021200
-5.468800 0.085900
-5.446000 0.138400
-5.423200 0.162700
-5.400400 0.193400
-5.377600 0.213500
-5.354800 0.232400
-5.332000 0.261400
-5.309200 0.292900
-5.286400 0.319800
-5.263600 0.336200
-5.240800 0.357700
-5.218000 0.381500
-5.195200 0.405700
-5.172400 0.431400
-5.149600 0.452500
-5.126800 0.484000
-5.104000 0.513500
-5.081200 0.543900
-5.058400 0.575200
-5.035600 0.612000
-5.012800 0.655300
-4.990000 0.693800
-4.967200 0.732500
-4.944400 0.775200
-4.921600 0.832900
-4.898800 0.897500
-4.876000 0.960700
-4.853200 1.049900
-4.830400 1.152700
-4.807600 1.263100
-4.784800 1.448500
-4.762000 1.718800
-4.739200 2.154500
-4.716400 3.692200
-4.693600 3.437400
-4.670800 3.290100
-4.648000 3.161900
-4.625200 2.975600
-4.602400 2.877400
-4.579600 2.780600
-4.556800 2.531800
-4.534000 2.462700
-4.511200 2.398800
-4.488400 2.182200
-4.465600 2.134500
-4.442800 2.072700
-4.420000 2.216000
-4.397200 2.470900
-4.374400 3.051700
-4.351600 3.766400
-4.328800 5.438500
-4.306000 9.446300
-4.283200 12.057900
-4.260400 11.561700
-4.237600 12.502500
-4.214800 12.535300
-4.192000 11.959300
-4.169200 12.235500
-4.146400 10.282100
-4.123600 8.777600
-4.100800 7.623100
-4.078000 6.554400
-4.055200 5.856400
-4.032400 5.400100
-4.009600 4.703800
-3.986800 4.843000
-3.964000 5.156400
-3.941200 4.663800
-3.918400 4.557900
-3.895600 4.270700
-3.872800 4.169400
-3.849900 3.935700
-3.827100 3.833200
-3.804300 3.701900
-3.781500 3.434600
-3.758700 3.121800
-3.735900 3.063300
-3.713100 3.027200
-3.690300 3.045900
-3.667500 2.924800
-3.644700 3.070500
-3.621900 3.036200
-3.599100 3.376000
-3.576300 3.782700
-3.553500 3.711100
-3.530700 3.664800
-3.507900 3.704100
-3.485100 3.587700
-3.462300 3.643600
-3.439500 3.754000
-3.416700 4.010100
-3.393900 4.122600
-3.371100 4.181800
-3.348300 4.289300
-3.325500 4.497900
-3.302700 4.625000
-3.279900 4.897700
-3.257100 4.715100
-3.234300 4.807300
-3.211500 4.960900
-3.188700 5.029500
-3.165900 5.069900
-3.143100 5.168300
-3.120300 4.652100
-3.097500 4.393300
-3.074700 4.132900
-3.051900 4.011500
-3.029100 4.029900
-3.006300 3.997400
-2.983500 3.915400
-2.960700 3.851400
-2.937900 3.812100
-2.915100 3.866900
-2.892300 4.075800
-2.869500 4.119100
-2.846700 4.100600
-2.823900 4.717800
-2.801100 4.117400
-2.778300 4.097800
-2.755500 4.381500
-2.732700 4.780900
-2.709900 4.754900
-2.687100 4.251400
-2.664300 4.552200
-2.641500 4.352800
-2.618700 4.239000
-2.595900 4.128800
-2.573100 4.244000
-2.550300 4.652700
-2.527500 5.614800
-2.504700 5.954900
-2.481900 5.784200
-2.459100 5.608100
-2.436300 5.479600
-2.413500 5.572700
-2.390700 6.651300
-2.367900 7.598200
-2.345100 8.830600
-2.322300 8.892000
-2.299500 9.130000
-2.276700 9.424500
-2.253900 9.208200
-2.231100 9.507600
-2.208200 8.755400
-2.185400 8.228500
-2.162600 8.089800
-2.139800 7.529600
-2.117000 6.881600
-2.094200 6.568100
-2.071400 7.959900
-2.048600 8.980700
-2.025800 12.203900
-2.003000 16.710300
-1.980200 13.276700
-1.957400 9.149600
-1.934600 8.907100
-1.911800 11.951600
-1.889000 14.149300
-1.866200 14.587500
-1.843400 12.932300
-1.820600 13.839000
-1.797800 14.668000
-1.775000 18.466700
-1.752200 17.486700
-1.729400 15.736700
-1.706600 13.182600
-1.683800 9.847600
-1.661000 7.495900
-1.638200 4.783200
-1.615400 3.522400
-1.592600 3.196000
-1.569800 2.950000
-1.547000 1.925900
-1.524200 1.497300
-1.501400 1.403000
-1.478600 1.257200
-1.455800 1.109100
-1.433000 1.356400
-1.410200 1.777500
-1.387400 2.617300
-1.364600 3.154900
-1.341800 2.900000
-1.319000 2.838300
-1.296200 2.838300
-1.273400 2.943800
-1.250600 2.926300
-1.227800 2.936300
-1.205000 3.025900
-1.182200 3.258600
-1.159400 3.538100
-1.136600 3.919100
-1.113800 4.421900
-1.091000 5.058600
-1.068200 6.143000
-1.045400 5.947000
-1.022600 5.882700
-0.999800 6.080600
-0.977000 6.230200
-0.954200 6.068400
-0.931400 5.252900
-0.908600 4.870700
-0.885800 4.552500
-0.863000 4.611300
-0.840200 5.136500
-0.817400 5.091200
-0.794600 5.513400
-0.771800 6.084400
-0.749000 6.451900
-0.726200 7.333300
-0.703400 8.072100
-0.680600 9.045900
-0.657800 9.375400
-0.635000 8.926400
-0.612200 7.733700
-0.589400 7.923700
-0.566500 8.396200
-0.543700 8.843800
-0.520900 8.820200
-0.498100 8.825500
-0.475300 7.987900
-0.452500 7.531500
-0.429700 7.142900
-0.406900 6.451500
-0.384100 6.770200
-0.361300 7.458000
-0.338500 8.808200
-0.315700 8.700200
-0.292900 10.254600
-0.270100 10.640300
-0.247300 7.883700
-0.224500 5.262700
-0.201700 4.466100
-0.178900 3.728800
-0.156100 2.965500
-0.133300 2.719000
-0.110500 2.374200
-0.087700 1.971200
-0.064900 1.770400
-0.042100 1.530800
-0.019300 1.350900
0.003500 1.203300
0.026300 0.822900
0.049100 0.524000
0.071900 0.443200
0.094700 0.422800
0.117500 0.595300
0.140300 0.547000
0.163100 0.581300
0.185900 0.641400
0.208700 0.609300
0.231500 0.635300
0.254300 0.455900
0.277100 0.412600
0.299900 0.394000
0.322700 0.388300
0.345500 0.388200
0.368300 0.392500
0.391100 0.399100
0.413900 0.406900
0.436700 0.415800
0.459500 0.425600
0.482300 0.435600
0.505100 0.446100
0.527900 0.457400
0.550700 0.475300
0.573500 0.497000
0.596300 0.537400
0.619100 0.595700
0.641900 0.665000
0.664700 0.716000
0.687500 0.762600
0.710300 0.812500
0.733100 0.868500
0.755900 0.960100
0.778700 1.087700
0.801500 1.137900
0.824300 1.215400
0.847100 1.307200
0.869900 1.423300
0.892700 1.592200
0.915500 1.773300
0.938300 1.942600
0.961100 1.993700
0.983900 2.082100
1.006700 2.173300
1.029500 2.308700
1.052300 2.197400
1.075100 2.089700
1.098000 2.017100
1.120800 1.950600
1.143600 1.878600
1.166400 1.861800
1.189200 1.893100
1.212000 1.963900
1.234800 2.009400
1.257600 2.057200
1.280400 2.157200
1.303200 2.211800
1.326000 2.254500
1.348800 2.315300
1.371600 2.063600
1.394400 1.914500
1.417200 1.849900
1.440000 1.842900
1.462800 1.856700
1.485600 1.887200
1.508400 1.847000
1.531200 1.846800
1.554000 1.866600
1.576800 1.895000
1.599600 1.932500
1.622400 1.881400
1.645200 1.808500
1.668000 1.654600
1.690800 1.573900
1.713600 1.576200
1.736400 1.603200
1.759200 1.647300
1.782000 1.707800
1.804800 1.745000
1.827600 1.816300
1.850400 1.876000
1.873200 1.997500
1.896000 2.160700
1.918800 2.189400
1.941600 2.242200
1.964400 2.317400
1.987200 2.405800
2.010000 2.524400
2.032800 2.709900
2.055600 2.899700
2.078400 3.143000
2.101200 3.316100
2.124000 4.236300
2.146800 5.107700
2.169600 6.283800
2.192400 5.720500
2.215200 4.051200
2.238000 3.410700
2.260800 2.910900
2.283600 2.361400
2.306400 1.853000
2.329200 1.391500
2.352000 1.016600
2.374800 0.786100
2.397600 0.619800
2.420400 0.540000
2.443200 0.476600
2.466000 0.432500
2.488800 0.377400
2.511600 0.339300
2.534400 0.310100
2.557200 0.270800
2.580000 0.187600
2.602800 0.110000
2.625600 0.043000
2.648400 0.044500
2.671200 0.047100
2.694000 0.050700
2.716800 0.054400
2.739700 0.058300
2.762500 0.062200
2.785300 0.066100
2.808100 0.069500
2.830900 0.072500
2.853700 0.075100
2.876500 0.077800
2.899300 0.080800
2.922100 0.083800
2.944900 0.086500
2.967700 0.089300
2.990500 0.092100
3.013300 0.095000
3.036100 0.098100
3.058900 0.101200
3.081700 0.104500
3.104500 0.107900
3.127300 0.111300
3.150100 0.114500
3.172900 0.117600
3.195700 0.120500
3.218500 0.123600
3.241300 0.126700
3.264100 0.129900
3.286900 0.133200
3.309700 0.136700
3.332500 0.140100
3.355300 0.143600
3.378100 0.147000
3.400900 0.150400
3.423700 0.153900
3.446500 0.157400
3.469300 0.161100
3.492100 0.164800
3.514900 0.168600
3.537700 0.172500
3.560500 0.176200
3.583300 0.179900
3.606100 0.183500
3.628900 0.187200
3.651700 0.191100
3.674500 0.195100
3.697300 0.199100
3.720100 0.203200
3.742900 0.207300
3.765700 0.211500
3.788500 0.215700
3.811300 0.220100
3.834100 0.224500
3.856900 0.229000
3.879700 0.233400
3.902500 0.237900
3.925300 0.242400
3.948100 0.246900
3.970900 0.251500
3.993700 0.256100
4.016500 0.261000
4.039300 0.265900
4.062100 0.271000
4.084900 0.276000
4.107700 0.281000
4.130500 0.286300
4.153300 0.291700
4.176100 0.297100
4.198900 0.302600
4.221700 0.308200
4.244500 0.313700
4.267300 0.319300
4.290100 0.325000
4.312900 0.333400
4.335700 0.347000
4.358500 0.361700
4.381300 0.370100
4.404200 0.373600
4.427000 0.377600
4.449800 0.402300
