set title 'mp-2753 - Density of States'
set xlabel 'Energy (eV)'
set ylabel 'DOS (states/eV)'
set grid
set xrange [-10:10]
set yrange [0:1381.857]
set xzeroaxis lt -1
set terminal png size 800,600
set output 'mp-2753_dos_gnuplot.png'
plot '-' using 1:2 with lines title 'DOS'
-10.312200 0.000000
-10.299300 0.000000
-10.286400 0.000000
-10.273500 0.000000
-10.260600 0.000000
-10.247800 0.000000
-10.234900 0.000000
-10.222000 0.000000
-10.209100 0.000000
-10.196200 0.000000
-10.183300 0.000000
-10.170400 0.000000
-10.157500 0.000000
-10.144700 0.000000
-10.131800 0.000000
-10.118900 0.000000
-10.106000 0.000000
-10.093100 0.000000
-10.080200 0.000000
-10.067300 0.000000
-10.054400 0.000000
-10.041600 0.000000
-10.028700 0.000000
-10.015800 0.000000
-10.002900 0.000000
-9.990000 0.000000
-9.977100 0.000000
-9.964200 0.000000
-9.951300 0.000000
-9.938500 0.000000
-9.925600 0.000000
-9.912700 0.000000
-9.899800 0.000000
-9.886900 0.000000
-9.874000 0.000000
-9.861100 0.000000
-9.848200 0.000000
-9.835400 0.000000
-9.822500 0.000000
-9.809600 0.000000
-9.796700 0.000000
-9.783800 0.000000
-9.770900 0.000000
-9.758000 0.000000
-9.745100 0.000000
-9.732300 0.000000
-9.719400 0.000000
-9.706500 0.000000
-9.693600 0.000000
-9.680700 0.000000
-9.667800 0.000000
-9.654900 0.000000
-9.642000 0.000000
-9.629200 0.000000
-9.616300 0.000000
-9.603400 0.000000
-9.590500 0.000000
-9.577600 0.000000
-9.564700 0.000000
-9.551800 0.000000
-9.538900 0.000000
-9.526100 0.000000
-9.513200 0.000000
-9.500300 0.000000
-9.487400 0.000000
-9.474500 0.000000
-9.461600 0.000000
-9.448700 0.000000
-9.435800 0.000000
-9.423000 0.000000
-9.410100 0.000000
-9.397200 0.000000
-9.384300 0.000000
-9.371400 0.000000
-9.358500 0.000000
-9.345600 0.000000
-9.332700 0.000000
-9.319900 0.000000
-9.307000 0.000000
-9.294100 0.000000
-9.281200 0.000000
-9.268300 0.000000
-9.255400 0.000000
-9.242500 0.000000
-9.229600 0.000000
-9.216800 0.000000
-9.203900 0.000000
-9.191000 0.000000
-9.178100 0.000000
-9.165200 0.000000
-9.152300 0.000000
-9.139400 0.078600
-9.126500 11.323800
-9.113700 101.959900
-9.100800 212.751500
-9.087900 269.994900
-9.075000 20.935500
-9.062100 0.000000
-9.049200 0.000000
-9.036300 0.000000
-9.023400 0.000000
-9.010600 0.000000
-8.997700 0.000000
-8.984800 0.000000
-8.971900 0.000000
-8.959000 0.000000
-8.946100 30.034900
-8.933200 107.116200
-8.920300 93.809800
-8.907500 93.959200
-8.894600 419.762600
-8.881700 4.462700
-8.868800 95.875200
-8.855900 62.785600
-8.843000 304.487400
-8.830100 62.294200
-8.817200 0.000000
-8.804400 0.000000
-8.791500 0.000000
-8.778600 0.000000
-8.765700 0.000000
-8.752800 0.000000
-8.739900 0.000000
-8.727000 0.000000
-8.714100 0.000000
-8.701300 0.000000
-8.688400 0.000000
-8.675500 0.000000
-8.662600 0.000000
-8.649700 0.000000
-8.636800 0.000000
-8.623900 0.000000
-8.611000 0.000000
-8.598200 0.000000
-8.585300 0.000000
-8.572400 0.000000
-8.559500 0.000000
-8.546600 0.000000
-8.533700 0.000000
-8.520800 0.000000
-8.507900 0.000000
-8.495100 0.000000
-8.482200 0.000000
-8.469300 0.000000
-8.456400 0.000000
-8.443500 0.000000
-8.430600 0.000000
-8.417700 0.000000
-8.404800 0.000000
-8.392000 0.000000
-8.379100 0.000000
-8.366200 0.000000
-8.353300 0.000000
-8.340400 0.000000
-8.327500 0.000000
-8.314600 0.000000
-8.301700 0.000000
-8.288900 0.000000
-8.276000 0.000000
-8.263100 0.000000
-8.250200 0.000000
-8.237300 0.000000
-8.224400 0.000000
-8.211500 0.000000
-8.198600 0.000000
-8.185800 0.000000
-8.172900 0.000000
-8.160000 0.000000
-8.147100 0.000000
-8.134200 0.000000
-8.121300 0.000000
-8.108400 0.000000
-8.095500 0.000000
-8.082700 0.000000
-8.069800 0.000000
-8.056900 0.000000
-8.044000 0.000000
-8.031100 0.000000
-8.018200 0.000000
-8.005300 0.000000
-7.992400 0.000000
-7.979600 0.000000
-7.966700 0.000000
-7.953800 0.000000
-7.940900 0.000000
-7.928000 0.000000
-7.915100 0.000000
-7.902200 0.000000
-7.889300 0.000000
-7.876500 0.000000
-7.863600 0.000000
-7.850700 0.000000
-7.837800 0.000000
-7.824900 0.000000
-7.812000 0.000000
-7.799100 37.451800
-7.786200 41.305300
-7.773400 41.271300
-7.760500 41.240200
-7.747600 41.212100
-7.734700 207.885100
-7.721800 0.000000
-7.708900 0.000000
-7.696000 0.000000
-7.683100 484.143100
-7.670300 144.330100
-7.657400 219.096100
-7.644500 190.135500
-7.631600 153.868300
-7.618700 0.000000
-7.605800 0.000000
-7.592900 0.000000
-7.580000 186.820800
-7.567200 78.011500
-7.554300 69.332100
-7.541400 18.688300
-7.528500 0.000000
-7.515600 1.029400
-7.502700 293.789600
-7.489800 47.529900
-7.476900 133.708500
-7.464100 74.105100
-7.451200 39.015300
-7.438300 8.782900
-7.425400 21.844800
-7.412500 44.677000
-7.399600 67.349400
-7.386700 73.340300
-7.373800 67.454400
-7.361000 23.112200
-7.348100 58.205200
-7.335200 338.420800
-7.322300 234.291400
-7.309400 444.015400
-7.296500 226.658900
-7.283600 674.205500
-7.270700 538.275300
-7.257900 204.505300
-7.245000 445.183100
-7.232100 359.239600
-7.219200 739.934100
-7.206300 1223.399600
-7.193400 698.918500
-7.180500 711.536700
-7.167600 845.462500
-7.154800 323.034400
-7.141900 704.017900
-7.129000 1256.233900
-7.116100 8.224400
-7.103200 20.121000
-7.090300 30.142900
-7.077400 41.438300
-7.064500 50.220400
-7.051700 51.799400
-7.038800 41.509100
-7.025900 33.611700
-7.013000 12.901900
-7.000100 10.412100
-6.987200 12.604200
-6.974300 19.431900
-6.961400 26.719600
-6.948600 36.500800
-6.935700 45.487000
-6.922800 60.841900
-6.909900 83.906800
-6.897000 55.322700
-6.884100 26.718300
-6.871200 35.756700
-6.858300 40.537000
-6.845500 39.696100
-6.832600 36.376100
-6.819700 39.626100
-6.806800 34.634000
-6.793900 20.436600
-6.781000 13.190100
-6.768100 9.019200
-6.755200 4.487100
-6.742400 3.725300
-6.729500 115.837700
-6.716600 128.269900
-6.703700 47.703500
-6.690800 38.239700
-6.677900 40.196000
-6.665000 68.329100
-6.652100 119.733600
-6.639300 61.185500
-6.626400 0.000000
-6.613500 0.000000
-6.600600 0.000000
-6.587700 0.000000
-6.574800 0.000000
-6.561900 0.000000
-6.549000 0.000000
-6.536200 0.000000
-6.523300 0.000000
-6.510400 0.000000
-6.497500 0.000000
-6.484600 0.000000
-6.471700 0.000000
-6.458800 0.000000
-6.445900 0.000000
-6.433100 0.000000
-6.420200 0.000000
-6.407300 0.000000
-6.394400 0.000000
-6.381500 0.000000
-6.368600 0.000000
-6.355700 0.000000
-6.342800 0.000000
-6.330000 0.000000
-6.317100 0.000000
-6.304200 0.000000
-6.291300 0.000000
-6.278400 0.000000
-6.265500 0.000000
-6.252600 0.000000
-6.239700 0.000000
-6.226900 0.000000
-6.214000 0.000000
-6.201100 0.000000
-6.188200 0.000000
-6.175300 0.000000
-6.162400 0.000000
-6.149500 0.000000
-6.136600 0.000000
-6.123800 0.000000
-6.110900 0.000000
-6.098000 0.000000
-6.085100 0.000000
-6.072200 0.000000
-6.059300 0.000000
-6.046400 0.000000
-6.033500 0.000000
-6.020700 0.000000
-6.007800 0.000000
-5.994900 0.000000
-5.982000 0.000000
-5.969100 0.000000
-5.956200 0.000000
-5.943300 0.000000
-5.930400 0.000000
-5.917600 0.000000
-5.904700 0.000000
-5.891800 0.000000
-5.878900 0.000000
-5.866000 0.000000
-5.853100 0.000000
-5.840200 0.000000
-5.827300 0.000000
-5.814500 0.000000
-5.801600 0.000000
-5.788700 0.000000
-5.775800 0.000000
-5.762900 0.000000
-5.750000 0.000000
-5.737100 0.000000
-5.724200 0.000000
-5.711400 0.000000
-5.698500 0.000000
-5.685600 0.000000
-5.672700 0.000000
-5.659800 0.000000
-5.646900 0.000000
-5.634000 0.000000
-5.621100 0.000000
-5.608300 0.000000
-5.595400 0.000000
-5.582500 0.000000
-5.569600 0.000000
-5.556700 0.000000
-5.543800 0.000000
-5.530900 0.000000
-5.518000 0.000000
-5.505200 0.000000
-5.492300 0.000000
-5.479400 0.000000
-5.466500 0.000000
-5.453600 0.000000
-5.440700 0.000000
-5.427800 0.000000
-5.414900 0.000000
-5.402100 0.000000
-5.389200 0.000000
-5.376300 0.000000
-5.363400 0.000000
-5.350500 0.000000
-5.337600 0.000000
-5.324700 0.000000
-5.311800 0.000000
-5.299000 0.000000
-5.286100 0.000000
-5.273200 0.000000
-5.260300 0.000000
-5.247400 0.000000
-5.234500 0.000000
-5.221600 0.000000
-5.208700 0.000000
-5.195900 0.000000
-5.183000 0.000000
-5.170100 0.000000
-5.157200 0.000000
-5.144300 0.000000
-5.131400 0.000000
-5.118500 0.000000
-5.105600 0.000000
-5.092800 0.000000
-5.079900 0.000000
-5.067000 0.000000
-5.054100 0.000000
-5.041200 0.000000
-5.028300 0.000000
-5.015400 0.000000
-5.002500 0.000000
-4.989700 0.000000
-4.976800 0.000000
-4.963900 0.000000
-4.951000 0.000000
-4.938100 0.000000
-4.925200 0.000000
-4.912300 0.000000
-4.899400 0.000000
-4.886600 0.000000
-4.873700 0.000000
-4.860800 0.000000
-4.847900 0.000000
-4.835000 0.000000
-4.822100 0.000000
-4.809200 0.000000
-4.796300 0.000000
-4.783500 0.000000
-4.770600 0.000000
-4.757700 0.000000
-4.744800 0.000000
-4.731900 0.000000
-4.719000 0.000000
-4.706100 0.000000
-4.693200 0.000000
-4.680400 0.000000
-4.667500 0.000000
-4.654600 0.000000
-4.641700 0.000000
-4.628800 0.000000
-4.615900 0.000000
-4.603000 0.000000
-4.590100 0.000000
-4.577300 0.000000
-4.564400 0.000000
-4.551500 0.000000
-4.538600 0.000000
-4.525700 0.000000
-4.512800 0.000000
-4.499900 0.000000
-4.487000 0.000000
-4.474200 0.000000
-4.461300 0.000000
-4.448400 0.000000
-4.435500 0.000000
-4.422600 0.000000
-4.409700 0.000000
-4.396800 0.000000
-4.383900 0.000000
-4.371100 0.000000
-4.358200 0.000000
-4.345300 0.000000
-4.332400 0.000000
-4.319500 0.000000
-4.306600 0.000000
-4.293700 0.000000
-4.280800 0.000000
-4.268000 0.000000
-4.255100 0.000000
-4.242200 0.000000
-4.229300 0.000000
-4.216400 0.000000
-4.203500 0.000000
-4.190600 0.000000
-4.177700 0.000000
-4.164900 0.000000
-4.152000 0.000000
-4.139100 0.000000
-4.126200 0.000000
-4.113300 0.000000
-4.100400 0.000000
-4.087500 0.000000
-4.074600 0.000000
-4.061800 0.000000
-4.048900 0.000000
-4.036000 0.000000
-4.023100 0.000000
-4.010200 0.000000
-3.997300 0.000000
-3.984400 0.000000
-3.971500 0.000000
-3.958700 0.000000
-3.945800 0.000000
-3.932900 0.000000
-3.920000 0.000000
-3.907100 0.000000
-3.894200 0.000000
-3.881300 0.000000
-3.868400 0.000000
-3.855600 0.000000
-3.842700 0.000000
-3.829800 0.000000
-3.816900 0.000000
-3.804000 0.000000
-3.791100 0.000000
-3.778200 0.000000
-3.765300 0.000000
-3.752500 0.000000
-3.739600 0.000000
-3.726700 0.000000
-3.713800 0.000000
-3.700900 0.000000
-3.688000 0.000000
-3.675100 0.000000
-3.662200 0.000000
-3.649400 0.000000
-3.636500 0.000000
-3.623600 0.000000
-3.610700 0.000000
-3.597800 0.000000
-3.584900 0.000000
-3.572000 0.000000
-3.559100 0.000000
-3.546300 0.000000
-3.533400 0.000000
-3.520500 0.000000
-3.507600 0.000000
-3.494700 0.000000
-3.481800 0.000000
-3.468900 0.000000
-3.456000 0.000000
-3.443200 0.000000
-3.430300 0.000000
-3.417400 0.000000
-3.404500 0.000000
-3.391600 0.000000
-3.378700 0.000000
-3.365800 0.000000
-3.352900 0.000000
-3.340100 0.000000
-3.327200 0.000000
-3.314300 0.000000
-3.301400 0.000000
-3.288500 0.000000
-3.275600 0.000000
-3.262700 0.000000
-3.249800 0.000000
-3.237000 0.000000
-3.224100 0.000000
-3.211200 0.000000
-3.198300 0.000000
-3.185400 0.000000
-3.172500 0.000000
-3.159600 0.000000
-3.146700 0.000000
-3.133900 0.000000
-3.121000 0.000000
-3.108100 0.000000
-3.095200 0.000000
-3.082300 0.000000
-3.069400 0.000000
-3.056500 0.000000
-3.043600 0.000000
-3.030800 0.013200
-3.017900 0.133400
-3.005000 0.379200
-2.992100 0.750600
-2.979200 1.247600
-2.966300 2.077900
-2.953400 2.983100
-2.940500 3.922300
-2.927700 5.290700
-2.914800 7.114300
-2.901900 8.604000
-2.889000 9.652300
-2.876100 10.551900
-2.863200 11.373800
-2.850300 12.118000
-2.837400 13.112000
-2.824600 14.174900
-2.811700 15.133200
-2.798800 16.006700
-2.785900 17.445800
-2.773000 18.587100
-2.760100 20.479000
-2.747200 22.739000
-2.734300 26.997800
-2.721500 30.359300
-2.708600 28.233200
-2.695700 19.511800
-2.682800 11.707600
-2.669900 8.590100
-2.657000 8.199200
-2.644100 10.227100
-2.631200 12.120500
-2.618400 13.789100
-2.605500 15.232700
-2.592600 16.451500
-2.579700 17.181400
-2.566800 18.055100
-2.553900 22.676000
-2.541000 23.499800
-2.528100 21.815700
-2.515300 17.623600
-2.502400 12.010300
-2.489500 11.770000
-2.476600 12.069700
-2.463700 11.309900
-2.450800 8.446500
-2.437900 7.401600
-2.425000 6.296300
-2.412200 5.130500
-2.399300 3.904300
-2.386400 2.617700
-2.373500 1.441000
-2.360600 3.777200
-2.347700 11.172900
-2.334800 16.640100
-2.321900 20.650300
-2.309100 28.718300
-2.296200 29.154500
-2.283300 21.965000
-2.270400 22.425200
-2.257500 23.294400
-2.244600 24.004300
-2.231700 24.585000
-2.218800 24.911500
-2.206000 22.267000
-2.193100 16.578900
-2.180200 11.471500
-2.167300 7.436300
-2.154400 4.233000
-2.141500 3.107700
-2.128600 3.232500
-2.115700 4.210100
-2.102900 5.315100
-2.090000 6.433500
-2.077100 16.511600
-2.064200 14.349500
-2.051300 16.202300
-2.038400 18.228100
-2.025500 19.722200
-2.012600 21.024200
-1.999800 22.362500
-1.986900 27.186500
-1.974000 24.381000
-1.961100 20.905200
-1.948200 17.736800
-1.935300 14.938900
-1.922400 12.726800
-1.909500 11.196500
-1.896700 10.216900
-1.883800 9.485800
-1.870900 8.446500
-1.858000 8.049900
-1.845100 10.747200
-1.832200 13.663700
-1.819300 16.652400
-1.806400 22.354400
-1.793600 37.240900
-1.780700 45.928800
-1.767800 36.013100
-1.754900 26.599100
-1.742000 17.362900
-1.729100 16.218100
-1.716200 15.778400
-1.703300 14.748400
-1.690500 13.050000
-1.677600 12.121800
-1.664700 9.843100
-1.651800 11.127500
-1.638900 13.896600
-1.626000 16.468500
-1.613100 18.567500
-1.600200 20.193500
-1.587400 21.422400
-1.574500 25.247400
-1.561600 35.163700
-1.548700 34.425200
-1.535800 26.844400
-1.522900 18.519200
-1.510000 14.547900
-1.497100 12.328400
-1.484300 10.228200
-1.471400 8.247400
-1.458500 6.386000
-1.445600 4.700300
-1.432700 3.562700
-1.419800 3.549600
-1.406900 4.348000
-1.394100 5.760300
-1.381200 7.786500
-1.368300 10.677800
-1.355400 15.004100
-1.342500 20.439300
-1.329600 13.918800
-1.316700 14.839900
-1.303800 15.373000
-1.291000 16.195000
-1.278100 16.794400
-1.265200 17.014200
-1.252300 16.980400
-1.239400 16.955300
-1.226500 16.946800
-1.213600 16.955100
-1.200700 16.980100
-1.187900 16.321800
-1.175000 10.771400
-1.162100 9.434000
-1.149200 8.174900
-1.136300 6.996900
-1.123400 5.900000
-1.110500 4.884200
-1.097600 3.798200
-1.084800 2.545500
-1.071900 3.000200
-1.059000 3.754700
-1.046100 4.809000
-1.033200 6.651900
-1.020300 10.170300
-1.007400 15.125700
-0.994500 24.199300
-0.981700 32.898100
-0.968800 40.873000
-0.955900 52.576200
-0.943000 33.849700
-0.930100 27.616900
-0.917200 19.921700
-0.904300 13.534500
-0.891400 8.825300
-0.878600 5.794000
-0.865700 4.419100
-0.852800 3.657400
-0.839900 2.932700
-0.827000 2.245100
-0.814100 1.594500
-0.801200 0.981200
-0.788300 0.481400
-0.775500 0.157700
-0.762600 0.010100
-0.749700 0.000000
-0.736800 0.000000
-0.723900 0.000000
-0.711000 0.000000
-0.698100 0.000000
-0.685200 0.000000
-0.672400 0.000000
-0.659500 0.000000
-0.646600 0.000000
-0.633700 0.000000
-0.620800 0.000000
-0.607900 0.000000
-0.595000 0.000000
-0.582100 0.000000
-0.569300 0.000000
-0.556400 0.000000
-0.543500 0.000000
-0.530600 0.000000
-0.517700 0.000000
-0.504800 0.000000
-0.491900 0.000000
-0.479000 0.000000
-0.466200 0.000000
-0.453300 0.000000
-0.440400 0.000000
-0.427500 0.000000
-0.414600 0.000000
-0.401700 0.000000
-0.388800 0.000000
-0.375900 0.000000
-0.363100 0.000000
-0.350200 0.000000
-0.337300 0.000000
-0.324400 0.000000
-0.311500 0.000000
-0.298600 0.000000
-0.285700 0.000000
-0.272800 0.000000
-0.260000 0.000000
-0.247100 0.000000
-0.234200 0.000000
-0.221300 0.000000
-0.208400 0.000000
-0.195500 0.000000
-0.182600 0.000000
-0.169700 0.000000
-0.156900 0.000000
-0.144000 0.000000
-0.131100 0.000000
-0.118200 0.000000
-0.105300 0.000000
-0.092400 0.000000
-0.079500 0.000000
-0.066600 0.000000
-0.053800 0.000000
-0.040900 0.000000
-0.028000 0.000000
-0.015100 0.000000
-0.002200 0.000000
0.010700 0.000000
0.023600 0.000000
0.036500 0.000000
0.049300 0.000000
0.062200 0.000000
0.075100 0.000000
0.088000 0.000000
0.100900 0.000000
0.113800 0.000000
0.126700 0.000000
0.139600 0.000000
0.152400 0.000000
0.165300 0.000000
0.178200 0.000000
0.191100 0.711100
0.204000 1.981300
0.216900 3.567000
0.229800 4.844600
0.242700 6.536200
0.255500 7.936300
0.268400 8.743300
0.281300 9.218700
0.294200 9.700600
0.307100 10.745400
0.320000 12.052900
0.332900 13.443900
0.345800 14.865100
0.358600 16.234600
0.371500 17.203300
0.384400 17.154700
0.397300 18.449700
0.410200 19.158900
0.423100 17.833900
0.436000 13.887100
0.448900 11.140400
0.461700 9.361200
0.474600 8.477500
0.487500 7.835300
0.500400 7.226700
0.513300 6.651800
0.526200 6.110400
0.539100 5.602600
0.552000 13.282300
0.564800 20.570700
0.577700 23.243100
0.590600 27.438300
0.603500 28.609100
0.616400 28.006000
0.629300 26.337500
0.642200 24.891800
0.655100 23.740700
0.667900 34.238500
0.680800 28.674200
0.693700 16.714200
0.706600 14.253100
0.719500 12.132900
0.732400 9.530800
0.745300 7.810200
0.758200 7.861100
0.771000 10.161300
0.783900 17.584200
0.796800 33.231300
0.809700 31.184000
0.822600 31.852300
0.835500 27.696300
0.848400 24.150900
0.861300 21.968700
0.874100 19.800100
0.887000 17.692100
0.899900 15.901000
0.912800 13.905100
0.925700 11.704500
0.938600 9.100900
0.951500 9.099000
0.964400 9.742700
0.977200 11.686400
0.990100 14.793000
1.003000 18.851000
1.015900 23.510600
1.028800 27.746600
1.041700 30.665700
1.054600 32.327800
1.067500 37.860400
1.080300 34.853500
1.093200 31.011600
1.106100 18.778400
1.119000 11.934800
1.131900 7.923800
1.144800 7.670000
1.157700 10.536200
1.170600 18.714700
1.183400 26.734100
1.196300 29.977600
1.209200 38.879700
1.222100 38.219800
1.235000 33.565700
1.247900 29.332300
1.260800 25.519600
1.273700 21.579200
1.286500 15.141500
1.299400 9.484200
1.312300 4.988600
1.325200 1.676100
1.338100 0.850800
1.351000 12.358700
1.363900 28.040400
1.376800 38.054600
1.389600 36.709300
1.402500 33.742200
1.415400 32.862500
1.428300 30.909800
1.441200 27.408900
1.454100 23.882500
1.467000 19.335300
1.479900 13.729200
1.492700 13.166500
1.505600 13.735300
1.518500 16.825600
1.531400 19.838400
1.544300 25.323500
1.557200 37.053900
1.570100 52.993400
1.583000 42.524600
1.595800 31.014100
1.608700 22.741000
1.621600 22.046300
1.634500 29.248700
1.647400 36.707500
1.660300 56.313100
1.673200 54.716100
1.686100 42.427300
1.698900 39.706900
1.711800 27.936300
1.724700 23.197600
1.737600 17.287900
1.750500 13.827300
1.763400 37.337200
1.776300 45.083200
1.789200 45.662400
1.802000 45.849300
1.814900 46.693300
1.827800 31.131600
1.840700 29.533600
1.853600 34.375900
1.866500 23.863700
1.879400 21.284700
1.892300 24.746900
1.905100 28.399500
1.918000 36.838900
1.930900 46.977500
1.943800 33.094300
1.956700 30.303200
1.969600 24.573300
1.982500 15.776000
1.995400 7.104600
2.008200 5.703300
2.021100 8.650300
2.034000 12.473200
2.046900 17.064500
2.059800 31.171500
2.072700 35.048700
2.085600 38.977600
2.098500 44.531200
2.111300 39.185500
2.124200 33.038100
2.137100 29.803900
2.150000 28.283200
2.162900 30.082900
2.175800 23.750700
2.188700 24.229300
2.201600 26.315400
2.214400 28.317900
2.227300 30.340400
2.240200 31.828000
2.253100 30.860500
2.266000 26.704900
2.278900 17.019100
2.291800 17.194000
2.304700 16.480600
2.317500 14.765800
2.330400 12.633200
2.343300 13.300400
2.356200 15.493500
2.369100 20.516300
2.382000 24.693600
2.394900 27.660000
2.407800 30.585100
2.420600 32.071500
2.433500 30.497600
2.446400 24.657900
2.459300 19.354900
2.472200 15.583000
2.485100 12.259000
2.498000 8.925400
2.510900 7.189800
2.523700 7.251500
2.536600 7.655900
2.549500 8.231400
2.562400 9.087800
2.575300 10.461500
2.588200 12.352400
2.601100 14.760500
2.614000 25.738400
2.626800 30.529900
2.639700 32.982400
2.652600 31.660700
2.665500 27.140600
2.678400 22.679900
2.691300 18.824800
2.704200 16.054000
2.717100 16.672000
2.729900 12.164200
2.742800 30.792000
2.755700 30.185700
2.768600 34.394800
2.781500 35.642000
2.794400 28.125300
2.807300 25.677900
2.820200 24.600700
2.833000 23.697200
2.845900 21.878200
2.858800 20.014700
2.871700 18.106800
2.884600 16.192800
2.897500 15.510800
