set title 'mp-938 - Density of States'
set xlabel 'Energy (eV)'
set ylabel 'DOS (states/eV)'
set grid
set xrange [-10:10]
set yrange [0:3.422]
set xzeroaxis lt -1
set terminal png size 800,600
set output 'mp-938_dos_gnuplot.png'
plot '-' using 1:2 with lines title 'DOS'
-24.018600 0.000000
-23.958200 0.000000
-23.897800 0.000000
-23.837400 0.000000
-23.777000 0.000000
-23.716600 0.000000
-23.656200 0.000000
-23.595800 0.000000
-23.535500 0.000000
-23.475100 0.000000
-23.414700 0.000000
-23.354300 0.000000
-23.293900 0.000000
-23.233500 0.000000
-23.173100 0.000000
-23.112700 0.000000
-23.052300 0.000000
-22.991900 0.000000
-22.931600 0.000000
-22.871200 0.000000
-22.810800 0.000000
-22.750400 0.000000
-22.690000 0.000000
-22.629600 0.000000
-22.569200 0.000000
-22.508800 0.000000
-22.448400 0.000000
-22.388000 0.000000
-22.327700 0.000000
-22.267300 0.000000
-22.206900 0.000000
-22.146500 0.000000
-22.086100 0.000000
-22.025700 0.000000
-21.965300 0.000000
-21.904900 0.000000
-21.844500 0.000000
-21.784100 0.000000
-21.723800 0.000000
-21.663400 0.000000
-21.603000 0.000000
-21.542600 0.000000
-21.482200 0.000000
-21.421800 0.000000
-21.361400 0.000000
-21.301000 0.000000
-21.240600 0.000000
-21.180200 0.000000
-21.119800 0.000000
-21.059500 0.000000
-20.999100 0.000000
-20.938700 0.000000
-20.878300 0.000000
-20.817900 0.000000
-20.757500 0.000000
-20.697100 0.000000
-20.636700 0.000000
-20.576300 0.000000
-20.515900 0.000000
-20.455600 0.000000
-20.395200 0.000000
-20.334800 0.000000
-20.274400 0.000000
-20.214000 0.000000
-20.153600 0.000000
-20.093200 0.000000
-20.032800 0.000000
-19.972400 0.000000
-19.912000 0.000000
-19.851700 0.000000
-19.791300 0.000000
-19.730900 0.000000
-19.670500 0.000000
-19.610100 0.000000
-19.549700 0.000000
-19.489300 0.000000
-19.428900 0.000000
-19.368500 0.000000
-19.308100 0.000000
-19.247800 0.000000
-19.187400 0.000000
-19.127000 0.000000
-19.066600 0.000000
-19.006200 0.000000
-18.945800 0.000000
-18.885400 0.000000
-18.825000 0.000000
-18.764600 0.000000
-18.704200 0.000000
-18.643900 0.000000
-18.583500 0.000000
-18.523100 686.448600
-18.462700 0.000000
-18.402300 0.000000
-18.341900 0.000000
-18.281500 0.000000
-18.221100 0.000000
-18.160700 0.000000
-18.100300 0.000000
-18.040000 0.000000
-17.979600 0.000000
-17.919200 0.000000
-17.858800 0.000000
-17.798400 0.000000
-17.738000 0.000000
-17.677600 0.000000
-17.617200 0.000000
-17.556800 0.000000
-17.496400 0.000000
-17.436000 0.000000
-17.375700 0.000000
-17.315300 0.000000
-17.254900 0.000000
-17.194500 0.000000
-17.134100 0.000000
-17.073700 0.000000
-17.013300 0.000000
-16.952900 0.000000
-16.892500 0.000000
-16.832100 0.000000
-16.771800 0.000000
-16.711400 0.000000
-16.651000 0.000000
-16.590600 0.000000
-16.530200 0.000000
-16.469800 0.000000
-16.409400 0.000000
-16.349000 0.000000
-16.288600 0.000000
-16.228200 0.000000
-16.167900 0.000000
-16.107500 0.000000
-16.047100 0.000000
-15.986700 0.000000
-15.926300 0.000000
-15.865900 0.000000
-15.805500 0.000000
-15.745100 0.000000
-15.684700 0.000000
-15.624300 0.000000
-15.564000 0.000000
-15.503600 0.000000
-15.443200 0.000000
-15.382800 0.000000
-15.322400 0.000000
-15.262000 0.000000
-15.201600 0.000000
-15.141200 0.000000
-15.080800 0.000000
-15.020400 0.000000
-14.960100 0.000000
-14.899700 0.000000
-14.839300 0.000000
-14.778900 0.000000
-14.718500 0.000000
-14.658100 0.000000
-14.597700 0.000000
-14.537300 0.000000
-14.476900 0.000000
-14.416500 0.000000
-14.356200 0.000000
-14.295800 0.000000
-14.235400 0.000000
-14.175000 0.000000
-14.114600 0.000000
-14.054200 0.000000
-13.993800 0.000000
-13.933400 0.000000
-13.873000 0.000000
-13.812600 0.000000
-13.752200 0.000000
-13.691900 0.000000
-13.631500 0.000000
-13.571100 0.000000
-13.510700 0.000000
-13.450300 0.000000
-13.389900 0.000000
-13.329500 0.000000
-13.269100 0.000000
-13.208700 0.000000
-13.148300 0.000000
-13.088000 0.000000
-13.027600 0.000000
-12.967200 0.000000
-12.906800 0.000000
-12.846400 0.000000
-12.786000 0.000000
-12.725600 0.000000
-12.665200 0.000000
-12.604800 0.000000
-12.544400 0.000000
-12.484100 0.000000
-12.423700 0.000000
-12.363300 0.000000
-12.302900 0.000000
-12.242500 0.000000
-12.182100 0.000000
-12.121700 0.000000
-12.061300 0.000000
-12.000900 0.000000
-11.940500 0.000000
-11.880200 0.000000
-11.819800 0.000000
-11.759400 0.000000
-11.699000 0.000000
-11.638600 0.000000
-11.578200 0.000000
-11.517800 0.000000
-11.457400 0.000000
-11.397000 0.000000
-11.336600 0.000000
-11.276300 0.000000
-11.215900 0.000000
-11.155500 0.000000
-11.095100 0.000000
-11.034700 0.000000
-10.974300 0.000000
-10.913900 0.000000
-10.853500 0.000000
-10.793100 0.000000
-10.732700 0.000000
-10.672400 0.000000
-10.612000 0.000000
-10.551600 0.000000
-10.491200 0.000000
-10.430800 0.000000
-10.370400 0.000000
-10.310000 0.000000
-10.249600 0.000000
-10.189200 0.000000
-10.128800 0.000000
-10.068500 0.000000
-10.008100 0.000000
-9.947700 0.000000
-9.887300 0.000000
-9.826900 0.000000
-9.766500 0.000000
-9.706100 0.000000
-9.645700 0.000000
-9.585300 0.000000
-9.524900 0.000000
-9.464500 0.000000
-9.404200 0.000000
-9.343800 0.000000
-9.283400 0.000000
-9.223000 0.000000
-9.162600 0.000000
-9.102200 0.000000
-9.041800 0.000000
-8.981400 0.000000
-8.921000 0.000000
-8.860600 0.000000
-8.800300 0.000000
-8.739900 0.000000
-8.679500 0.000000
-8.619100 0.000000
-8.558700 0.000000
-8.498300 0.000000
-8.437900 0.000000
-8.377500 0.000000
-8.317100 0.000000
-8.256700 0.000000
-8.196400 0.000000
-8.136000 0.000000
-8.075600 0.000000
-8.015200 0.000000
-7.954800 0.000000
-7.894400 0.000000
-7.834000 0.000000
-7.773600 0.000000
-7.713200 0.000000
-7.652800 0.000000
-7.592500 0.000000
-7.532100 0.000000
-7.471700 0.000000
-7.411300 0.000000
-7.350900 0.000000
-7.290500 0.015700
-7.230100 0.084000
-7.169700 0.206400
-7.109300 0.245000
-7.048900 0.268100
-6.988600 0.308200
-6.928200 0.350400
-6.867800 0.394800
-6.807400 0.439100
-6.747000 0.478200
-6.686600 0.510800
-6.626200 0.543100
-6.565800 0.580600
-6.505400 0.622500
-6.445000 0.666100
-6.384700 0.711600
-6.324300 0.760300
-6.263900 0.824000
-6.203500 0.901300
-6.143100 1.012200
-6.082700 1.146700
-6.022300 1.244400
-5.961900 1.306100
-5.901500 1.412800
-5.841100 1.610200
-5.780700 1.846900
-5.720400 1.986100
-5.660000 2.053700
-5.599600 2.454100
-5.539200 2.694000
-5.478800 3.110500
-5.418400 2.001500
-5.358000 0.492200
-5.297600 0.000000
-5.237200 0.000000
-5.176800 0.000000
-5.116500 0.000000
-5.056100 0.000000
-4.995700 0.000000
-4.935300 0.000000
-4.874900 0.000000
-4.814500 0.000000
-4.754100 0.000000
-4.693700 0.000000
-4.633300 0.000000
-4.572900 0.000000
-4.512600 0.000000
-4.452200 0.000000
-4.391800 0.000000
-4.331400 0.000000
-4.271000 0.000000
-4.210600 0.000000
-4.150200 0.000000
-4.089800 0.000000
-4.029400 0.000000
-3.969000 0.000000
-3.908700 0.000000
-3.848300 0.000000
-3.787900 0.000000
-3.727500 0.000000
-3.667100 0.000000
-3.606700 0.000000
-3.546300 0.000000
-3.485900 0.000000
-3.425500 0.000000
-3.365100 0.000000
-3.304800 0.000000
-3.244400 0.000000
-3.184000 0.000000
-3.123600 0.000000
-3.063200 0.098300
-3.002800 0.546000
-2.942400 0.447400
-2.882000 0.589200
-2.821600 0.748800
-2.761200 1.075100
-2.700900 2.305900
-2.640500 1.893500
-2.580100 1.977300
-2.519700 2.352900
-2.459300 1.782100
-2.398900 1.591000
-2.338500 1.454700
-2.278100 1.358900
-2.217700 1.294600
-2.157300 1.247800
-2.096900 1.202000
-2.036600 1.151000
-1.976200 0.997000
-1.915800 0.846100
-1.855400 0.649300
-1.795000 0.549100
-1.734600 0.519800
-1.674200 0.493200
-1.613800 0.467300
-1.553400 0.441600
-1.493000 0.416200
-1.432700 0.390900
-1.372300 0.365800
-1.311900 0.340900
-1.251500 0.295800
-1.191100 0.255200
-1.130700 0.230600
-1.070300 0.211100
-1.009900 0.196900
-0.949500 0.187100
-0.889100 0.178100
-0.828800 0.169300
-0.768400 0.160700
-0.708000 0.152200
-0.647600 0.143800
-0.587200 0.135600
-0.526800 0.127500
-0.466400 0.119600
-0.406000 0.111700
-0.345600 0.104100
-0.285200 0.096500
-0.224900 0.089100
-0.164500 0.080400
-0.104100 0.068500
-0.043700 0.057500
0.016700 0.047500
0.077100 0.038500
0.137500 0.030400
0.197900 0.023200
0.258300 0.017000
0.318700 0.011800
0.379000 0.007500
0.439400 0.004200
0.499800 0.058500
0.560200 0.184100
0.620600 0.296500
0.681000 0.395300
0.741400 0.479900
0.801800 0.571600
0.862200 1.342800
0.922600 0.736400
0.982900 0.782300
1.043300 0.842800
1.103700 0.848300
1.164100 0.827400
1.224500 0.808500
1.284900 0.791800
1.345300 0.775800
1.405700 0.761300
1.466100 0.748800
1.526500 0.740400
1.586900 0.740200
1.647200 1.298800
1.707600 1.191200
1.768000 1.096000
1.828400 1.120500
1.888800 1.157100
1.949200 1.205300
2.009600 1.265200
2.070000 1.336800
2.130400 1.420100
2.190800 1.516700
2.251100 1.626800
2.311500 1.754400
2.371900 1.636900
2.432300 1.675300
2.492700 1.697100
2.553100 1.703800
2.613500 1.683900
2.673900 1.675300
2.734300 1.672600
2.794700 1.675900
2.855000 1.682500
2.915400 1.690800
2.975800 1.719600
3.036200 1.798500
3.096600 1.818900
3.157000 1.788800
3.217400 1.711500
3.277800 1.645200
3.338200 1.615800
3.398600 1.615300
3.458900 1.638500
3.519300 1.682500
3.579700 1.730300
3.640100 1.766600
3.700500 1.795400
3.760900 1.816500
3.821300 1.749200
3.881700 1.657600
3.942100 1.359700
4.002500 1.219600
4.062800 1.146400
4.123200 1.084100
4.183600 1.050800
4.244000 1.110900
4.304400 1.240700
4.364800 1.423700
4.425200 1.690900
4.485600 1.563900
4.546000 1.651900
4.606400 1.690700
4.666700 1.675800
4.727100 1.624100
4.787500 1.573500
4.847900 1.458900
4.908300 1.113900
4.968700 0.759500
5.029100 0.595800
5.089500 0.444800
5.149900 0.301100
5.210300 0.181600
5.270600 0.086800
5.331000 0.021900
5.391400 0.000000
5.451800 0.000000
5.512200 0.000000
5.572600 0.000000
5.633000 0.000000
5.693400 0.000000
5.753800 0.000000
5.814200 0.000000
5.874600 0.000000
5.934900 0.000000
5.995300 0.000000
6.055700 0.000000
6.116100 0.000000
6.176500 0.000000
6.236900 0.007800
6.297300 0.027700
6.357700 0.053300
6.418100 0.084700
6.478500 0.138200
6.538800 0.249400
6.599200 0.404900
6.659600 0.608800
6.720000 0.950000
6.780400 1.555000
6.840800 1.892200
6.901200 2.109900
6.961600 2.316300
7.022000 2.781100
7.082400 2.379100
7.142700 2.249600
7.203100 2.061700
7.263500 1.894900
7.323900 1.752900
7.384300 1.644800
7.444700 1.566600
7.505100 1.530200
7.565500 1.502400
7.625900 1.479400
7.686300 1.461300
7.746600 1.448400
7.807000 1.440300
7.867400 1.436700
7.927800 1.447100
7.988200 1.496300
8.048600 1.581500
8.109000 1.706000
8.169400 1.870000
8.229800 2.049100
8.290200 1.857000
8.350500 1.723500
8.410900 1.549500
8.471300 1.356400
8.531700 1.290900
8.592100 1.205100
8.652500 1.152200
8.712900 1.140400
8.773300 1.172600
8.833700 1.268100
8.894100 1.399700
8.954400 1.490800
9.014800 1.541300
9.075200 1.551000
9.135600 1.616500
9.196000 1.585100
9.256400 1.499300
9.316800 1.404400
9.377200 1.318300
9.437600 1.240200
9.498000 1.191900
9.558400 1.175100
9.618700 1.170500
9.679100 1.161800
9.739500 1.147300
9.799900 1.125900
9.860300 1.097700
9.920700 1.035800
9.981100 0.916400
10.041500 0.854000
10.101900 0.799800
10.162300 0.740800
10.222600 0.682500
10.283000 0.630900
10.343400 0.686300
10.403800 0.856900
10.464200 1.112900
10.524600 1.361000
10.585000 1.533000
10.645400 1.637700
10.705800 1.648200
10.766200 1.615700
10.826500 1.649700
10.886900 1.704200
10.947300 1.732000
11.007700 1.752100
11.068100 1.759100
11.128500 1.731600
11.188900 2.398700
11.249300 1.454900
11.309700 2.032100
11.370100 2.004800
11.430400 1.786100
11.490800 1.678800
11.551200 1.484800
11.611600 1.464900
11.672000 1.110700
11.732400 1.061200
11.792800 0.985400
11.853200 0.924000
11.913600 0.864100
11.974000 0.807300
12.034300 0.753500
12.094700 0.695600
12.155100 0.632300
12.215500 0.601600
12.275900 0.594200
12.336300 0.588800
12.396700 0.584400
12.457100 0.578800
12.517500 0.571100
12.577900 0.611200
12.638200 0.629200
12.698600 0.654600
12.759000 0.699700
12.819400 0.758200
12.879800 0.823600
12.940200 0.893600
13.000600 0.956800
13.061000 1.011400
13.121400 1.070800
13.181800 1.141800
13.242200 1.201500
13.302500 1.194900
13.362900 1.159600
13.423300 1.205600
13.483700 1.251800
13.544100 1.334200
13.604500 1.411400
13.664900 1.399600
13.725300 1.304600
13.785700 1.256600
13.846100 1.245200
13.906400 1.261000
13.966800 1.286100
14.027200 1.307700
14.087600 1.330700
14.148000 1.339000
14.208400 1.329700
14.268800 1.303000
14.329200 1.262600
14.389600 1.278800
14.450000 1.328800
14.510300 1.353400
14.570700 1.398700
14.631100 1.503100
14.691500 1.620500
14.751900 1.760000
14.812300 1.768700
14.872700 1.808300
14.933100 1.868200
14.993500 1.941500
15.053900 2.050300
15.114200 2.123900
15.174600 2.119600
15.235000 1.967200
15.295400 1.767200
15.355800 1.638500
15.416200 1.635800
15.476600 1.623200
15.537000 1.622800
15.597400 1.668400
15.657800 1.717700
15.718100 1.799000
15.778500 1.835300
15.838900 1.875000
15.899300 1.963800
15.959700 2.022400
16.020100 2.079400
16.080500 2.045800
16.140900 1.914400
16.201300 1.806500
16.261700 1.432500
16.322000 1.453100
16.382400 1.528800
16.442800 1.567500
16.503200 1.558100
16.563600 1.638000
16.624000 1.731100
16.684400 1.691100
16.744800 1.835100
16.805200 1.980300
16.865600 2.120100
16.926000 2.114600
16.986300 2.417000
17.046700 1.995400
17.107100 1.722000
17.167500 1.535900
17.227900 1.393400
17.288300 1.297000
17.348700 1.254700
17.409100 1.261100
17.469500 1.359100
17.529900 1.523800
17.590200 2.370900
17.650600 2.542200
17.711000 2.696600
17.771400 2.585500
17.831800 2.590400
17.892200 2.426600
17.952600 2.257300
18.013000 2.091700
18.073400 1.915900
18.133800 1.732400
18.194100 1.608600
18.254500 1.530500
18.314900 1.462000
18.375300 1.451800
18.435700 1.655500
18.496100 1.781000
18.556500 1.729000
18.616900 1.760100
18.677300 1.833100
18.737700 1.851400
18.798000 1.863200
18.858400 1.841800
18.918800 1.799600
18.979200 1.767700
19.039600 1.757700
19.100000 1.595900
19.160400 1.593800
19.220800 1.633300
19.281200 1.677700
19.341600 1.724500
19.401900 1.756800
19.462300 1.785000
19.522700 1.972900
19.583100 1.900100
19.643500 2.018500
19.703900 2.133500
19.764300 2.059000
19.824700 2.089600
19.885100 2.130700
19.945500 2.174300
20.005800 2.191600
20.066200 2.166900
20.126600 2.199800
20.187000 2.348400
20.247400 2.449800
20.307800 2.221100
20.368200 2.142500
20.428600 2.072000
20.489000 2.004800
20.549400 1.982500
20.609800 2.046000
20.670100 2.128300
20.730500 2.204200
20.790900 2.262800
20.851300 2.310400
20.911700 2.318000
20.972100 2.339000
21.032500 3.474300
21.092900 1.920100
21.153300 2.129900
21.213700 2.135400
21.274000 2.003100
21.334400 1.781500
21.394800 1.574700
21.455200 1.375400
21.515600 1.258100
21.576000 1.229800
21.636400 1.424700
21.696800 1.676400
21.757200 1.850900
21.817600 2.006600
21.877900 2.185500
21.938300 2.418100
21.998700 2.698700
22.059100 2.926400
22.119500 3.077700
22.179900 3.155800
22.240300 3.111100
22.300700 3.219800
22.361100 2.793700
22.421500 2.508600
22.481800 2.277700
22.542200 2.058800
22.602600 2.026100
22.663000 1.865900
22.723400 1.756300
22.783800 1.694700
22.844200 1.676500
22.904600 1.691500
22.965000 1.640700
23.025400 1.560000
23.085700 1.631400
23.146100 1.850800
23.206500 2.168200
23.266900 2.003500
23.327300 2.003300
23.387700 2.115200
23.448100 2.275500
23.508500 2.301000
23.568900 2.089800
23.629300 1.947200
23.689600 1.714400
23.750000 1.578300
23.810400 1.701500
23.870800 1.807400
23.931200 1.806200
23.991600 1.836500
24.052000 1.917000
24.112400 2.025000
24.172800 2.135600
24.233200 2.295600
24.293500 2.494200
24.353900 2.885600
24.414300 3.103400
24.474700 2.951900
24.535100 2.713100
24.595500 2.146500
24.655900 1.933600
24.716300 1.862200
24.776700 1.888800
24.837100 1.939600
24.897500 1.968900
24.957800 1.952300
25.018200 2.339700
25.078600 2.702500
25.139000 2.754300
25.199400 2.752000
25.259800 2.754200
25.320200 2.512900
25.380600 2.146400
25.441000 2.025900
25.501400 2.091800
25.561700 2.179200
25.622100 2.327400
25.682500 2.713100
25.742900 3.049600
25.803300 3.309600
25.863700 3.260400
25.924100 3.560500
25.984500 3.050300
26.044900 2.097300
26.105300 1.956300
26.165600 1.896400
26.226000 1.884800
26.286400 2.090000
26.346800 2.348300
26.407200 2.420700
26.467600 2.384100
26.528000 2.332200
26.588400 2.259000
26.648800 2.204900
26.709200 2.065300
26.769500 1.973600
26.829900 1.915200
26.890300 1.874400
26.950700 1.854200
27.011100 1.941300
27.071500 2.069800
27.131900 2.116100
27.192300 2.051500
27.252700 2.034400
27.313100 2.064600
27.373400 2.112400
27.433800 2.167100
27.494200 2.237200
27.554600 2.344200
27.615000 2.606800
27.675400 2.761700
27.735800 2.961800
27.796200 3.107200
27.856600 3.090600
27.917000 2.916100
27.977300 2.809800
28.037700 2.772800
28.098100 2.793500
28.158500 2.703000
28.218900 2.613200
28.279300 2.584500
28.339700 2.567600
28.400100 2.536100
28.460500 2.496000
28.520900 2.515300
28.581300 2.510700
28.641600 2.508900
28.702000 2.761800
28.762400 2.887000
28.822800 2.788300
28.883200 2.746200
28.943600 2.719900
29.004000 2.695700
29.064400 2.637500
29.124800 2.524300
29.185200 2.454900
29.245500 2.441300
29.305900 2.395500
29.366300 2.413000
29.426700 2.635200
29.487100 2.777000
29.547500 2.859700
29.607900 3.025700
29.668300 2.881600
29.728700 2.664300
29.789100 2.617100
29.849400 2.647300
29.909800 2.716900
29.970200 2.772400
30.030600 2.860400
30.091000 2.739200
30.151400 2.649700
30.211800 2.559200
30.272200 2.552500
30.332600 2.576900
30.393000 2.618200
30.453300 2.589100
30.513700 2.485400
30.574100 2.359000
30.634500 2.281000
30.694900 2.220900
30.755300 2.224000
30.815700 2.265200
30.876100 2.211800
30.936500 2.070100
30.996900 1.951500
31.057200 1.902700
31.117600 1.884300
31.178000 1.883200
31.238400 1.902400
31.298800 1.999500
31.359200 2.123900
31.419600 2.138300
31.480000 2.178900
31.540400 2.314700
31.600800 2.501900
31.661100 2.302000
31.721500 2.274300
31.781900 2.242600
31.842300 2.228600
31.902700 2.279300
31.963100 2.381600
32.023500 2.453100
32.083900 2.615600
32.144300 2.911900
32.204700 3.242800
32.265100 3.104000
32.325400 2.882100
32.385800 2.740100
32.446200 2.743600
32.506600 2.807500
32.567000 2.874900
32.627400 2.956800
32.687800 2.813400
32.748200 2.668400
32.808600 2.563200
32.869000 2.341900
32.929300 2.153900
32.989700 2.025700
33.050100 1.945800
33.110500 1.947400
33.170900 2.090300
33.231300 2.402600
33.291700 3.021900
33.352100 3.680300
33.412500 3.916000
33.472900 3.541100
33.533200 3.435300
33.593600 3.347700
33.654000 3.128400
33.714400 2.934000
33.774800 2.788700
33.835200 3.215200
33.895600 2.544000
33.956000 2.160000
34.016400 2.005100
34.076800 2.127300
34.137100 2.436500
34.197500 2.860000
34.257900 3.346500
34.318300 3.809400
34.378700 4.046000
34.439100 4.096700
34.499500 3.468400
34.559900 2.889400
34.620300 2.050800
34.680700 1.596900
34.741000 1.547200
34.801400 1.547800
34.861800 1.594100
34.922200 1.730800
34.982600 2.044200
35.043000 2.382200
35.103400 2.554100
35.163800 2.627400
35.224200 2.664000
35.284600 2.569300
35.344900 2.355000
35.405300 2.226500
35.465700 2.182800
35.526100 2.490700
35.586500 3.141200
35.646900 3.385600
35.707300 3.561600
35.767700 3.743200
35.828100 4.287900
35.888500 2.810200
35.948900 2.075000
36.009200 1.785900
36.069600 1.686400
36.130000 1.737300
36.190400 1.850200
36.250800 1.976900
36.311200 2.123100
36.371600 2.296900
36.432000 2.625200
36.492400 2.928400
36.552800 3.626600
36.613100 3.267700
36.673500 2.864800
36.733900 2.890100
36.794300 2.921700
36.854700 3.324900
36.915100 2.825400
36.975500 2.493900
37.035900 2.320700
37.096300 2.242500
37.156700 2.789800
37.217000 2.936000
37.277400 2.919700
37.337800 2.901100
37.398200 2.899000
37.458600 2.705500
37.519000 2.563100
37.579400 2.594700
37.639800 2.808500
37.700200 2.989900
37.760600 2.871900
37.820900 2.771400
37.881300 2.892100
37.941700 2.883700
38.002100 2.825500
38.062500 2.784200
38.122900 2.740600
38.183300 2.710900
38.243700 2.743600
38.304100 2.908500
38.364500 2.695400
