set title 'mp-151 - Density of States'
set xlabel 'Energy (eV)'
set ylabel 'DOS (states/eV)'
set grid
set xrange [-10:10]
set yrange [0:28.530]
set xzeroaxis lt -1
set terminal png size 800,600
set output 'mp-151_dos_gnuplot.png'
plot '-' using 1:2 with lines title 'DOS'
-7.919600 0.000000
-7.899500 0.000000
-7.879400 0.000000
-7.859200 0.000000
-7.839100 0.000000
-7.819000 0.000000
-7.798900 0.000000
-7.778800 0.000000
-7.758600 0.000000
-7.738500 0.000000
-7.718400 0.000000
-7.698300 0.000000
-7.678200 0.000000
-7.658000 0.000000
-7.637900 0.000000
-7.617800 0.000000
-7.597700 0.000000
-7.577600 0.000000
-7.557400 0.000000
-7.537300 0.000000
-7.517200 0.000000
-7.497100 0.000000
-7.477000 0.000000
-7.456900 0.000000
-7.436700 0.000000
-7.416600 0.000000
-7.396500 0.000000
-7.376400 0.000000
-7.356300 0.000000
-7.336100 0.000000
-7.316000 0.000000
-7.295900 0.000000
-7.275800 0.000000
-7.255700 0.000000
-7.235500 0.000000
-7.215400 0.000000
-7.195300 0.000000
-7.175200 0.000000
-7.155100 0.000000
-7.134900 0.000000
-7.114800 0.000000
-7.094700 0.000000
-7.074600 0.000000
-7.054500 0.000000
-7.034300 0.000000
-7.014200 0.000000
-6.994100 0.000000
-6.974000 0.000000
-6.953900 0.000000
-6.933700 0.000000
-6.913600 0.000000
-6.893500 0.000000
-6.873400 0.000000
-6.853300 0.000000
-6.833100 0.000000
-6.813000 0.000000
-6.792900 0.000000
-6.772800 0.000000
-6.752700 0.000000
-6.732600 0.000000
-6.712400 0.000000
-6.692300 0.000000
-6.672200 0.000000
-6.652100 0.000000
-6.632000 0.000000
-6.611800 0.000000
-6.591700 0.000000
-6.571600 0.000000
-6.551500 0.000000
-6.531400 0.000000
-6.511200 0.000000
-6.491100 0.000000
-6.471000 0.000000
-6.450900 0.000000
-6.430800 0.000000
-6.410600 0.000000
-6.390500 0.000000
-6.370400 0.000000
-6.350300 0.000000
-6.330200 0.000000
-6.310000 0.000000
-6.289900 0.000000
-6.269800 0.000000
-6.249700 0.000000
-6.229600 0.000000
-6.209400 0.000000
-6.189300 0.000000
-6.169200 0.000000
-6.149100 0.000000
-6.129000 0.000000
-6.108800 0.000000
-6.088700 0.150700
-6.068600 1.154700
-6.048500 1.832900
-6.028400 2.509800
-6.008300 3.223100
-5.988100 4.655900
-5.968000 6.254500
-5.947900 7.978900
-5.927800 12.093900
-5.907700 19.082000
-5.887500 18.460400
-5.867400 19.361400
-5.847300 16.773100
-5.827200 9.571200
-5.807100 25.936600
-5.786900 25.087500
-5.766800 19.342800
-5.746700 14.243800
-5.726600 9.997600
-5.706500 8.376700
-5.686300 9.076600
-5.666200 16.696700
-5.646100 14.434900
-5.626000 14.753100
-5.605900 10.805100
-5.585700 10.681200
-5.565600 18.403400
-5.545500 24.095700
-5.525400 17.951600
-5.505300 17.611800
-5.485100 16.296300
-5.465000 15.322700
-5.444900 15.765300
-5.424800 16.516200
-5.404700 22.420500
-5.384500 16.123200
-5.364400 8.700700
-5.344300 5.139800
-5.324200 0.000000
-5.304100 0.000000
-5.284000 0.000000
-5.263800 0.000000
-5.243700 0.000000
-5.223600 0.000000
-5.203500 0.000000
-5.183400 0.000000
-5.163200 0.000000
-5.143100 0.000000
-5.123000 0.000000
-5.102900 0.000000
-5.082800 0.000000
-5.062600 0.000000
-5.042500 0.000000
-5.022400 0.000000
-5.002300 0.000000
-4.982200 0.000000
-4.962000 0.000000
-4.941900 0.000000
-4.921800 0.000000
-4.901700 0.000000
-4.881600 0.000000
-4.861400 0.000000
-4.841300 0.000000
-4.821200 0.000000
-4.801100 0.000000
-4.781000 0.000000
-4.760800 0.000000
-4.740700 0.000000
-4.720600 0.000000
-4.700500 0.000000
-4.680400 0.000000
-4.660200 0.000000
-4.640100 0.000000
-4.620000 0.000000
-4.599900 0.000000
-4.579800 0.000000
-4.559700 0.000000
-4.539500 0.000000
-4.519400 0.000000
-4.499300 0.000000
-4.479200 0.000000
-4.459100 0.000000
-4.438900 0.000000
-4.418800 0.000000
-4.398700 0.000000
-4.378600 0.000000
-4.358500 0.000000
-4.338300 0.000000
-4.318200 0.000000
-4.298100 0.000000
-4.278000 0.000000
-4.257900 0.000000
-4.237700 0.000000
-4.217600 0.000000
-4.197500 0.000000
-4.177400 0.000000
-4.157300 0.000000
-4.137100 0.000000
-4.117000 0.000000
-4.096900 0.000000
-4.076800 0.000000
-4.056700 0.000000
-4.036500 0.000000
-4.016400 0.000000
-3.996300 0.000000
-3.976200 0.000000
-3.956100 0.000000
-3.935900 0.000000
-3.915800 0.000000
-3.895700 0.000000
-3.875600 0.000000
-3.855500 0.000000
-3.835400 0.000000
-3.815200 0.000000
-3.795100 0.000000
-3.775000 0.000000
-3.754900 0.000000
-3.734800 0.000000
-3.714600 0.000000
-3.694500 0.007400
-3.674400 0.027600
-3.654300 0.042300
-3.634200 0.043900
-3.614000 0.050700
-3.593900 0.058000
-3.573800 0.065700
-3.553700 0.072700
-3.533600 0.076700
-3.513400 0.077600
-3.493300 0.080400
-3.473200 0.084400
-3.453100 0.088500
-3.433000 0.092700
-3.412800 0.097000
-3.392700 0.101400
-3.372600 0.105800
-3.352500 0.107400
-3.332400 0.109700
-3.312200 0.112100
-3.292100 0.114400
-3.272000 0.116500
-3.251900 0.118800
-3.231800 0.121300
-3.211600 0.124100
-3.191500 0.127100
-3.171400 0.130100
-3.151300 0.133200
-3.131200 0.136200
-3.111100 0.139200
-3.090900 0.141300
-3.070800 0.142600
-3.050700 0.143800
-3.030600 0.145700
-3.010500 0.147600
-2.990300 0.149500
-2.970200 0.151500
-2.950100 0.153400
-2.930000 0.155400
-2.909900 0.157400
-2.889700 0.159500
-2.869600 0.161800
-2.849500 0.164000
-2.829400 0.166300
-2.809300 0.168600
-2.789100 0.170900
-2.769000 0.173300
-2.748900 0.174600
-2.728800 0.176100
-2.708700 0.177600
-2.688500 0.179100
-2.668400 0.180500
-2.648300 0.181900
-2.628200 0.183400
-2.608100 0.185100
-2.587900 0.186900
-2.567800 0.188600
-2.547700 0.190400
-2.527600 0.192200
-2.507500 0.193900
-2.487400 0.195700
-2.467200 0.197400
-2.447100 0.199200
-2.427000 0.201100
-2.406900 0.203000
-2.386800 0.204900
-2.366600 0.206900
-2.346500 0.208700
-2.326400 0.210100
-2.306300 0.211200
-2.286200 0.212600
-2.266000 0.214100
-2.245900 0.215500
-2.225800 0.217000
-2.205700 0.218400
-2.185600 0.219800
-2.165400 0.221200
-2.145300 0.222700
-2.125200 0.224300
-2.105100 0.225800
-2.085000 0.227400
-2.064800 0.229000
-2.044700 0.230700
-2.024600 0.232300
-2.004500 0.233900
-1.984400 0.235600
-1.964200 0.237200
-1.944100 0.238900
-1.924000 0.240600
-1.903900 0.242200
-1.883800 0.243900
-1.863600 0.245600
-1.843500 0.246900
-1.823400 0.248300
-1.803300 0.249700
-1.783200 0.251100
-1.763100 0.252500
-1.742900 0.253900
-1.722800 0.255300
-1.702700 0.256800
-1.682600 0.258300
-1.662500 0.259800
-1.642300 0.261300
-1.622200 0.262800
-1.602100 0.264300
-1.582000 0.265800
-1.561900 0.267300
-1.541700 0.268900
-1.521600 0.270400
-1.501500 0.272000
-1.481400 0.273600
-1.461300 0.275200
-1.441100 0.276800
-1.421000 0.278500
-1.400900 0.280100
-1.380800 0.281700
-1.360700 0.283400
-1.340500 0.285000
-1.320400 0.286700
-1.300300 0.288200
-1.280200 0.289700
-1.260100 0.291200
-1.239900 0.292800
-1.219800 0.294400
-1.199700 0.295900
-1.179600 0.297500
-1.159500 0.299100
-1.139300 0.300700
-1.119200 0.302400
-1.099100 0.304000
-1.079000 0.305700
-1.058900 0.307300
-1.038800 0.309000
-1.018600 0.310700
-0.998500 0.312400
-0.978400 0.314100
-0.958300 0.315800
-0.938200 0.317600
-0.918000 0.319300
-0.897900 0.321100
-0.877800 0.322800
-0.857700 0.324600
-0.837600 0.326400
-0.817400 0.328200
-0.797300 0.330100
-0.777200 0.331900
-0.757100 0.333800
-0.737000 0.335600
-0.716800 0.337500
-0.696700 0.339500
-0.676600 0.341500
-0.656500 0.343500
-0.636400 0.345500
-0.616200 0.347600
-0.596100 0.349700
-0.576000 0.351800
-0.555900 0.353900
-0.535800 0.356000
-0.515600 0.358200
-0.495500 0.360400
-0.475400 0.362600
-0.455300 0.364900
-0.435200 0.367200
-0.415000 0.369500
-0.394900 0.371900
-0.374800 0.374300
-0.354700 0.376700
-0.334600 0.379200
-0.314500 0.381700
-0.294300 0.384200
-0.274200 0.386800
-0.254100 0.389400
-0.234000 0.392000
-0.213900 0.394700
-0.193700 0.397400
-0.173600 0.400100
-0.153500 0.403000
-0.133400 0.405900
-0.113300 0.408900
-0.093100 0.412000
-0.073000 0.415500
-0.052900 0.419300
-0.032800 0.423000
-0.012700 0.426900
0.007500 0.430800
0.027600 0.434900
0.047700 0.439200
0.067800 0.443500
0.087900 0.448000
0.108100 0.452700
0.128200 0.457600
0.148300 0.462800
0.168400 0.468200
0.188500 0.473900
0.208700 0.480000
0.228800 0.486300
0.248900 0.493000
0.269000 0.500700
0.289100 0.509300
0.309300 0.518900
0.329400 0.529500
0.349500 0.541100
0.369600 0.559600
0.389700 0.577100
0.409800 0.590900
0.430000 0.601100
0.450100 0.607400
0.470200 0.748900
0.490300 0.627100
0.510400 0.615600
0.530600 0.606100
0.550700 0.599300
0.570800 0.594200
0.590900 0.591300
0.611000 0.592200
0.631200 0.597200
0.651300 0.606200
0.671400 0.617200
0.691500 0.597700
0.711600 0.603100
0.731800 0.605000
0.751900 0.602900
0.772000 0.596600
0.792100 0.587100
0.812200 0.579100
0.832400 0.572600
0.852500 0.567500
0.872600 0.563700
0.892700 0.561100
0.912800 0.557300
0.933000 0.554300
0.953100 0.552100
0.973200 0.550900
0.993300 0.550300
1.013400 0.549400
1.033600 0.548100
1.053700 0.546300
1.073800 0.544000
1.093900 0.537100
1.114000 0.539900
1.134100 0.540200
1.154300 0.540000
1.174400 0.539300
1.194500 0.538100
1.214600 0.536100
1.234700 0.533900
1.254900 0.531600
1.275000 0.529300
1.295100 0.526200
1.315200 0.522400
1.335300 0.518800
1.355500 0.515500
1.375600 0.512600
1.395700 0.510300
1.415800 0.508600
1.435900 0.507800
1.456100 0.507600
1.476200 0.508000
1.496300 0.508600
1.516400 0.510000
1.536500 0.512400
1.556700 0.513100
1.576800 0.513000
1.596900 0.513600
1.617000 0.514000
1.637100 0.514600
1.657300 0.516400
1.677400 0.518300
1.697500 0.519800
1.717600 0.521000
1.737700 0.521800
1.757900 0.522400
1.778000 0.523700
1.798100 0.527500
1.818200 0.532500
1.838300 0.540500
1.858400 0.565300
1.878600 0.591900
1.898700 0.627300
1.918800 0.722100
1.938900 0.687000
1.959000 0.606200
1.979200 0.511400
1.999300 0.379300
2.019400 0.259400
2.039500 0.251300
2.059600 0.000000
2.079800 0.000000
2.099900 0.000000
2.120000 0.000000
2.140100 0.000000
2.160200 0.000000
2.180400 0.000000
2.200500 0.000000
2.220600 0.000000
2.240700 0.000000
2.260800 0.000000
2.281000 0.000000
2.301100 0.000000
2.321200 0.000000
2.341300 0.000000
2.361400 0.000000
2.381600 0.000000
2.401700 0.000000
2.421800 0.000000
2.441900 0.000000
2.462000 0.000000
2.482200 0.000000
2.502300 0.000000
2.522400 0.000000
2.542500 0.000000
2.562600 0.000000
2.582700 0.000000
2.602900 0.000000
2.623000 0.000000
2.643100 0.000000
2.663200 0.000000
2.683300 0.000000
2.703500 0.000000
2.723600 0.000000
2.743700 0.000000
2.763800 0.000000
2.783900 0.000000
2.804100 0.000000
2.824200 0.000000
2.844300 0.000000
2.864400 0.000000
2.884500 0.000000
2.904700 0.000000
2.924800 0.000000
2.944900 0.000000
2.965000 0.000000
2.985100 0.000000
3.005300 0.000000
3.025400 0.000000
3.045500 0.000000
3.065600 0.000000
3.085700 0.000000
3.105900 0.000000
3.126000 0.000000
3.146100 0.000000
3.166200 0.000000
3.186300 0.000000
3.206500 0.000000
3.226600 0.000000
3.246700 0.000000
3.266800 0.044900
3.286900 0.060100
3.307000 0.039700
3.327200 0.046400
3.347300 0.053600
3.367400 0.061400
3.387500 0.069700
3.407600 0.078500
3.427800 0.087900
3.447900 0.097600
3.468000 0.107200
3.488100 0.114600
3.508200 0.116300
3.528400 0.118000
3.548500 0.119900
3.568600 0.121900
3.588700 0.123700
3.608800 0.124600
3.629000 0.127800
3.649100 0.132300
3.669200 0.136800
3.689300 0.141300
3.709400 0.145900
3.729600 0.150500
3.749700 0.155100
3.769800 0.160000
3.789900 0.165300
3.810000 0.171000
3.830200 0.177100
3.850300 0.183000
3.870400 0.188000
3.890500 0.191800
3.910600 0.194400
3.930800 0.196300
3.950900 0.197500
3.971000 0.198400
3.991100 0.201400
4.011200 0.205900
4.031300 0.209400
4.051500 0.212900
4.071600 0.216500
4.091700 0.220000
4.111800 0.223700
4.131900 0.227300
4.152100 0.231000
4.172200 0.234600
4.192300 0.238200
4.212400 0.241900
4.232500 0.247900
4.252700 0.258800
4.272800 0.269200
4.292900 0.279000
4.313000 0.288400
4.333100 0.297600
4.353300 0.306500
4.373400 0.314900
4.393500 0.323400
4.413600 0.333900
4.433700 0.361400
4.453900 0.374500
4.474000 0.357700
4.494100 0.365300
4.514200 0.374900
4.534300 0.386200
4.554500 0.399100
4.574600 0.400200
4.594700 0.403800
4.614800 0.409900
4.634900 0.417700
4.655000 0.426000
4.675200 0.434800
4.695300 0.444100
4.715400 0.453900
4.735500 0.467100
4.755600 0.478700
4.775800 0.486600
4.795900 0.491200
4.816000 0.506000
4.836100 0.514600
4.856200 0.523800
4.876400 0.533400
4.896500 0.543500
4.916600 0.554100
4.936700 0.565200
4.956800 0.576900
4.977000 0.590400
4.997100 0.606600
5.017200 0.628300
5.037300 0.655800
5.057400 0.689200
5.077600 0.720500
5.097700 0.746800
5.117800 0.767400
5.137900 0.782000
5.158000 0.790800
5.178200 0.794000
5.198300 0.840300
5.218400 0.845000
5.238500 0.807500
5.258600 0.783200
5.278800 0.776900
5.298900 0.773900
5.319000 0.770000
5.339100 0.767200
5.359200 0.769400
5.379300 0.768100
5.399500 0.765100
5.419600 0.760500
5.439700 0.754200
5.459800 0.746300
5.479900 0.744600
5.500100 0.748700
5.520200 0.749900
5.540300 0.745600
5.560400 0.739200
5.580500 0.734300
5.600700 0.729300
5.620800 0.726300
5.640900 0.725100
5.661000 0.719100
5.681100 0.710100
5.701300 0.703200
5.721400 0.700800
5.741500 0.700100
5.761600 0.671100
5.781700 0.645500
5.801900 0.631200
5.822000 0.599200
5.842100 0.566800
5.862200 0.531000
5.882300 0.501000
5.902500 0.474700
5.922600 0.451400
5.942700 0.431300
5.962800 0.414300
5.982900 0.400200
6.003100 0.389100
6.023200 0.380900
6.043300 0.367000
6.063400 0.366600
6.083500 0.366900
6.103600 0.367900
6.123800 0.369500
6.143900 0.371800
6.164000 0.374700
6.184100 0.378200
6.204200 0.377800
6.224400 0.377400
6.244500 0.379600
6.264600 0.385000
6.284700 0.387500
6.304800 0.400100
6.325000 0.409800
6.345100 0.419800
6.365200 0.430200
6.385300 0.440900
6.405400 0.451300
6.425600 0.460900
6.445700 0.466200
6.465800 0.472400
6.485900 0.479400
6.506000 0.485300
6.526200 0.490300
6.546300 0.486100
6.566400 0.484500
6.586500 0.486900
6.606600 0.487800
6.626800 0.487000
6.646900 0.486000
6.667000 0.487700
6.687100 0.489600
6.707200 0.491700
6.727400 0.493700
6.747500 0.495800
6.767600 0.497900
6.787700 0.499700
6.807800 0.500900
6.827900 0.502300
6.848100 0.503100
6.868200 0.503300
6.888300 0.501800
6.908400 0.500300
6.928500 0.498900
6.948700 0.497600
6.968800 0.496400
6.988900 0.495400
7.009000 0.495100
7.029100 0.502000
7.049300 0.502700
7.069400 0.503200
7.089500 0.503500
7.109600 0.503600
7.129700 0.503200
7.149900 0.502800
7.170000 0.502400
7.190100 0.502000
7.210200 0.501600
7.230300 0.501300
7.250500 0.501400
7.270600 0.501600
7.290700 0.502000
7.310800 0.502500
7.330900 0.503100
7.351100 0.503800
7.371200 0.504600
7.391300 0.505700
7.411400 0.506200
7.431500 0.507100
7.451700 0.508200
7.471800 0.509600
7.491900 0.511000
7.512000 0.510600
7.532100 0.510100
7.552200 0.508600
7.572400 0.507200
7.592500 0.505900
7.612600 0.503900
7.632700 0.501400
7.652800 0.499300
7.673000 0.497800
7.693100 0.496800
7.713200 0.504700
7.733300 0.516100
7.753400 0.496100
7.773600 0.497000
7.793700 0.498100
7.813800 0.499500
7.833900 0.501000
7.854000 0.502700
7.874200 0.504600
7.894300 0.505000
7.914400 0.494100
7.934500 0.494100
7.954600 0.494100
7.974800 0.494200
7.994900 0.609200
8.015000 0.523100
8.035100 0.525400
8.055200 0.527900
8.075400 0.530100
8.095500 0.531900
8.115600 0.534200
8.135700 0.536800
8.155800 0.539700
8.176000 0.542800
8.196100 0.546100
8.216200 0.549500
8.236300 0.556300
8.256400 0.559900
8.276500 0.576600
8.296700 0.583300
8.316800 0.562500
8.336900 0.563300
8.357000 0.564400
8.377100 0.565100
8.397300 0.565900
8.417400 0.567000
8.437500 0.567500
8.457600 0.567900
8.477700 0.568500
8.497900 0.569300
8.518000 0.570200
8.538100 0.581300
8.558200 0.590300
8.578300 0.587500
8.598500 0.580300
8.618600 0.586600
8.638700 0.597100
8.658800 0.607200
8.678900 0.602800
8.699100 0.599700
8.719200 0.597700
8.739300 0.596800
8.759400 0.597300
8.779500 0.605200
8.799700 0.613200
8.819800 0.618000
8.839900 0.619500
8.860000 0.617100
8.880100 0.618100
8.900300 0.622400
8.920400 0.627100
8.940500 0.632400
8.960600 0.638200
8.980700 0.644400
9.000800 0.651100
9.021000 0.647300
9.041100 0.645100
9.061200 0.640900
9.081300 0.638000
9.101400 0.637700
9.121600 0.638800
9.141700 0.640500
9.161800 0.642300
9.181900 0.644400
9.202000 0.646600
9.222200 0.648900
9.242300 0.651300
9.262400 0.653800
9.282500 0.662900
9.302600 0.678700
9.322800 0.681900
9.342900 0.674600
9.363000 0.693300
9.383100 0.720600
9.403200 0.721000
9.423400 0.718800
9.443500 0.714900
9.463600 0.715800
9.483700 0.722300
9.503800 0.730900
9.524000 0.741600
9.544100 0.754000
9.564200 0.750400
9.584300 0.752100
9.604400 0.760900
9.624600 0.770600
9.644700 0.781200
9.664800 0.793100
9.684900 0.807300
9.705000 0.794500
9.725100 0.794600
9.745300 0.795900
9.765400 0.798600
9.785500 0.800200
9.805600 0.787500
9.825700 0.780600
9.845900 0.779400
9.866000 0.783900
9.886100 0.781200
9.906200 0.777900
9.926300 0.774800
9.946500 0.771900
9.966600 0.769300
9.986700 0.766200
10.006800 0.763900
10.026900 0.762000
10.047100 0.760400
10.067200 0.771100
10.087300 0.768200
10.107400 0.764300
10.127500 0.760900
10.147700 0.757800
10.167800 0.755000
10.187900 0.752700
10.208000 0.750700
10.228100 0.747900
10.248300 0.742700
10.268400 0.740600
10.288500 0.738600
10.308600 0.736900
10.328700 0.735200
10.348900 0.733200
10.369000 0.731300
10.389100 0.729500
10.409200 0.727300
10.429300 0.725700
10.449400 0.724300
10.469600 0.722700
10.489700 0.721500
10.509800 0.719900
10.529900 0.717900
10.550000 0.716200
10.570200 0.714600
10.590300 0.712900
10.610400 0.711300
10.630500 0.709500
10.650600 0.707700
10.670800 0.705900
10.690900 0.703900
10.711000 0.701700
10.731100 0.699500
10.751200 0.697200
10.771400 0.694900
10.791500 0.692700
10.811600 0.690700
10.831700 0.688700
10.851800 0.686500
10.872000 0.684600
10.892100 0.684000
10.912200 0.682400
10.932300 0.680500
10.952400 0.678600
10.972600 0.676800
10.992700 0.675000
11.012800 0.673200
11.032900 0.671500
11.053000 0.669700
11.073200 0.667800
11.093300 0.666100
11.113400 0.664400
11.133500 0.662800
11.153600 0.661500
11.173700 0.660200
11.193900 0.659000
11.214000 0.658000
11.234100 0.657100
11.254200 0.656400
11.274300 0.655800
11.294500 0.654600
11.314600 0.653300
11.334700 0.651000
11.354800 0.648700
11.374900 0.646300
11.395100 0.643900
11.415200 0.641700
11.435300 0.639200
11.455400 0.636800
11.475500 0.632800
11.495700 0.630400
11.515800 0.628200
11.535900 0.626000
11.556000 0.623900
11.576100 0.622400
11.596300 0.621000
11.616400 0.619700
11.636500 0.618300
11.656600 0.616900
11.676700 0.615500
11.696900 0.613900
11.717000 0.612300
11.737100 0.610500
11.757200 0.608700
11.777300 0.606900
11.797400 0.604900
11.817600 0.602900
11.837700 0.600900
11.857800 0.598700
11.877900 0.596400
11.898000 0.594100
11.918200 0.593500
11.938300 0.593600
11.958400 0.590700
11.978500 0.587800
11.998600 0.584800
12.018800 0.582000
12.038900 0.580000
12.059000 0.578500
12.079100 0.577200
12.099200 0.576200
12.119400 0.575300
12.139500 0.574500
12.159600 0.573900
12.179700 0.573400
12.199800 0.572000
12.220000 0.570500
12.240100 0.569000
12.260200 0.567600
12.280300 0.566200
12.300400 0.565000
12.320600 0.563800
12.340700 0.562700
12.360800 0.561600
12.380900 0.560600
12.401000 0.559500
12.421200 0.557700
12.441300 0.555700
12.461400 0.553700
12.481500 0.551600
12.501600 0.549300
12.521700 0.547000
12.541900 0.544400
12.562000 0.541200
12.582100 0.537900
12.602200 0.534600
12.622300 0.531300
12.642500 0.528100
12.662600 0.524900
12.682700 0.521900
12.702800 0.519000
12.722900 0.516200
12.743100 0.513700
12.763200 0.511300
12.783300 0.509200
12.803400 0.510100
12.823500 0.510000
12.843700 0.508700
12.863800 0.508400
12.883900 0.510700
12.904000 0.513900
12.924100 0.517700
12.944300 0.521900
12.964400 0.526500
12.984500 0.529700
13.004600 0.532800
13.024700 0.535700
13.044900 0.538200
13.065000 0.540400
13.085100 0.542400
13.105200 0.543800
13.125300 0.544100
13.145500 0.544300
13.165600 0.544700
13.185700 0.544800
13.205800 0.545600
13.225900 0.546800
13.246000 0.548600
13.266200 0.550700
13.286300 0.553300
13.306400 0.556200
13.326500 0.555800
13.346600 0.552700
13.366800 0.548100
13.386900 0.541700
13.407000 0.534100
13.427100 0.524600
13.447200 0.517600
