set title 'mp-2278 - Density of States'
set xlabel 'Energy (eV)'
set ylabel 'DOS (states/eV)'
set grid
set xrange [-10:10]
set yrange [0:17.600]
set xzeroaxis lt -1
set terminal png size 800,600
set output 'mp-2278_dos_gnuplot.png'
plot '-' using 1:2 with lines title 'DOS'
-25.274300 0.000000
-25.224300 0.000000
-25.174200 0.000000
-25.124200 0.000000
-25.074100 0.000000
-25.024000 0.000000
-24.974000 0.000000
-24.923900 0.000000
-24.873900 0.000000
-24.823800 0.000000
-24.773800 0.000000
-24.723700 0.000000
-24.673700 0.000000
-24.623600 0.000000
-24.573500 0.000000
-24.523500 0.000000
-24.473400 0.000000
-24.423400 0.000000
-24.373300 0.000000
-24.323300 0.000000
-24.273200 0.000000
-24.223200 0.000000
-24.173100 0.000000
-24.123000 0.000000
-24.073000 0.000000
-24.022900 0.000000
-23.972900 0.000000
-23.922800 0.000000
-23.872800 0.000000
-23.822700 0.000000
-23.772700 0.000000
-23.722600 0.000000
-23.672600 0.000000
-23.622500 0.000000
-23.572400 0.000000
-23.522400 0.000000
-23.472300 0.000000
-23.422300 0.000000
-23.372200 0.000000
-23.322200 0.000000
-23.272100 0.000000
-23.222100 0.000000
-23.172000 0.000000
-23.121900 0.000000
-23.071900 0.000000
-23.021800 0.000000
-22.971800 0.000000
-22.921700 0.000000
-22.871700 0.000000
-22.821600 0.000000
-22.771600 0.000000
-22.721500 0.000000
-22.671400 0.000000
-22.621400 0.000000
-22.571300 0.000000
-22.521300 0.000000
-22.471200 0.000000
-22.421200 0.000000
-22.371100 0.000000
-22.321100 0.000000
-22.271000 0.000000
-22.221000 0.000000
-22.170900 0.000000
-22.120800 0.000000
-22.070800 0.000000
-22.020700 0.000000
-21.970700 0.000000
-21.920600 0.000000
-21.870600 0.000000
-21.820500 0.000000
-21.770500 0.000000
-21.720400 0.000000
-21.670300 0.000000
-21.620300 0.000000
-21.570200 0.000000
-21.520200 0.000000
-21.470100 0.000000
-21.420100 0.000000
-21.370000 0.000000
-21.320000 0.000000
-21.269900 0.000000
-21.219800 0.000000
-21.169800 0.000000
-21.119700 0.000000
-21.069700 0.000000
-21.019600 0.000000
-20.969600 0.000000
-20.919500 0.000000
-20.869500 0.000000
-20.819400 0.000000
-20.769300 0.000000
-20.719300 0.130500
-20.669200 2.460200
-20.619200 5.319400
-20.569100 13.889000
-20.519100 16.507100
-20.469000 4.346100
-20.419000 0.000000
-20.368900 0.000000
-20.318900 0.000000
-20.268800 0.000000
-20.218700 0.000000
-20.168700 0.000000
-20.118600 0.000000
-20.068600 0.000000
-20.018500 0.000000
-19.968500 0.000000
-19.918400 0.000000
-19.868400 0.000000
-19.818300 0.000000
-19.768200 0.000000
-19.718200 0.000000
-19.668100 0.000000
-19.618100 0.000000
-19.568000 0.000000
-19.518000 0.000000
-19.467900 0.000000
-19.417900 0.000000
-19.367800 0.000000
-19.317700 0.000000
-19.267700 0.000000
-19.217600 0.000000
-19.167600 0.000000
-19.117500 0.000000
-19.067500 0.000000
-19.017400 0.000000
-18.967400 0.000000
-18.917300 0.000000
-18.867300 0.000000
-18.817200 0.000000
-18.767100 0.000000
-18.717100 0.000000
-18.667000 0.000000
-18.617000 0.000000
-18.566900 0.000000
-18.516900 0.000000
-18.466800 0.000000
-18.416800 0.000000
-18.366700 0.000000
-18.316600 0.000000
-18.266600 0.000000
-18.216500 0.000000
-18.166500 0.000000
-18.116400 0.000000
-18.066400 0.000000
-18.016300 0.000000
-17.966300 0.000000
-17.916200 0.000000
-17.866100 0.000000
-17.816100 0.000000
-17.766000 0.000000
-17.716000 0.000000
-17.665900 0.000000
-17.615900 0.000000
-17.565800 0.000000
-17.515800 0.000000
-17.465700 0.000000
-17.415600 0.000000
-17.365600 0.000000
-17.315500 0.000000
-17.265500 0.000000
-17.215400 0.000000
-17.165400 0.000000
-17.115300 0.000000
-17.065300 0.000000
-17.015200 0.000000
-16.965200 0.000000
-16.915100 0.000000
-16.865000 0.000000
-16.815000 0.000000
-16.764900 0.000000
-16.714900 0.000000
-16.664800 0.000000
-16.614800 0.000000
-16.564700 0.000000
-16.514700 0.000000
-16.464600 0.000000
-16.414500 0.000000
-16.364500 0.000000
-16.314400 0.000000
-16.264400 0.000000
-16.214300 0.000000
-16.164300 0.000000
-16.114200 0.000000
-16.064200 0.000000
-16.014100 0.000000
-15.964000 0.000000
-15.914000 0.000000
-15.863900 0.000000
-15.813900 0.000000
-15.763800 0.000000
-15.713800 0.000000
-15.663700 0.000000
-15.613700 0.000000
-15.563600 0.000000
-15.513600 0.000000
-15.463500 0.000000
-15.413400 0.000000
-15.363400 0.000000
-15.313300 0.000000
-15.263300 0.000000
-15.213200 0.000000
-15.163200 0.000000
-15.113100 0.000000
-15.063100 0.000000
-15.013000 0.000000
-14.962900 0.000000
-14.912900 0.295400
-14.862800 0.610500
-14.812800 0.880900
-14.762700 1.245100
-14.712700 1.749900
-14.662600 2.878800
-14.612600 3.327800
-14.562500 4.808200
-14.512400 3.900200
-14.462400 3.762200
-14.412300 5.128000
-14.362300 3.318700
-14.312200 2.818100
-14.262200 2.466300
-14.212100 2.176300
-14.162100 0.825400
-14.112000 0.000000
-14.062000 0.000000
-14.011900 0.000000
-13.961800 0.000000
-13.911800 0.000000
-13.861700 0.000000
-13.811700 0.000000
-13.761600 0.000000
-13.711600 0.000000
-13.661500 0.000000
-13.611500 0.000000
-13.561400 0.000000
-13.511300 0.000000
-13.461300 0.000000
-13.411200 0.000000
-13.361200 0.000000
-13.311100 0.000000
-13.261100 0.000000
-13.211000 0.000000
-13.161000 0.000000
-13.110900 0.000000
-13.060800 0.000000
-13.010800 0.000000
-12.960700 0.000000
-12.910700 0.000000
-12.860600 0.000000
-12.810600 0.000000
-12.760500 0.000000
-12.710500 0.000000
-12.660400 0.000000
-12.610300 0.000000
-12.560300 0.000000
-12.510200 0.000000
-12.460200 0.000000
-12.410100 0.000000
-12.360100 0.000000
-12.310000 0.000000
-12.260000 0.000000
-12.209900 0.000000
-12.159900 0.000000
-12.109800 0.000000
-12.059700 0.000000
-12.009700 0.000000
-11.959600 0.000000
-11.909600 0.000000
-11.859500 0.000000
-11.809500 0.000000
-11.759400 0.000000
-11.709400 0.000000
-11.659300 0.000000
-11.609200 0.000000
-11.559200 0.000000
-11.509100 0.000000
-11.459100 0.000000
-11.409000 0.000000
-11.359000 0.000000
-11.308900 0.000000
-11.258900 0.000000
-11.208800 0.000000
-11.158700 0.000000
-11.108700 0.000000
-11.058600 0.000000
-11.008600 0.000000
-10.958500 0.000000
-10.908500 0.000000
-10.858400 0.000000
-10.808400 0.000000
-10.758300 0.000000
-10.708300 0.000000
-10.658200 0.000000
-10.608100 0.000000
-10.558100 0.000000
-10.508000 0.000000
-10.458000 0.000000
-10.407900 0.000000
-10.357900 0.000000
-10.307800 0.000000
-10.257800 0.000000
-10.207700 0.000000
-10.157600 0.000000
-10.107600 0.000000
-10.057500 0.000000
-10.007500 0.000000
-9.957400 0.000000
-9.907400 0.000000
-9.857300 0.000000
-9.807300 0.000000
-9.757200 0.000000
-9.707100 0.000000
-9.657100 0.000000
-9.607000 0.000000
-9.557000 0.000000
-9.506900 0.000000
-9.456900 0.000000
-9.406800 0.000000
-9.356800 0.000000
-9.306700 0.000000
-9.256600 0.000000
-9.206600 0.000000
-9.156500 0.000000
-9.106500 0.000000
-9.056400 0.000000
-9.006400 0.000000
-8.956300 0.000000
-8.906300 0.000000
-8.856200 0.000000
-8.806200 0.000000
-8.756100 0.000000
-8.706000 0.000000
-8.656000 0.000000
-8.605900 0.000000
-8.555900 0.000000
-8.505800 0.000000
-8.455800 0.000000
-8.405700 0.000000
-8.355700 0.000000
-8.305600 0.000000
-8.255500 0.000000
-8.205500 0.000000
-8.155400 0.000000
-8.105400 0.000000
-8.055300 0.000000
-8.005300 0.000000
-7.955200 0.000000
-7.905200 0.000000
-7.855100 0.000000
-7.805000 0.000000
-7.755000 0.000000
-7.704900 0.000000
-7.654900 0.000000
-7.604800 0.000000
-7.554800 0.000000
-7.504700 0.000000
-7.454700 0.000000
-7.404600 0.000000
-7.354600 0.000000
-7.304500 0.217700
-7.254400 0.244600
-7.204400 0.363600
-7.154300 0.587200
-7.104300 1.078700
-7.054200 1.848900
-7.004200 2.087700
-6.954100 2.961300
-6.904100 2.896000
-6.854000 2.229800
-6.803900 2.016000
-6.753900 1.960600
-6.703800 2.289100
-6.653800 3.077100
-6.603700 4.015300
-6.553700 4.597700
-6.503600 5.557000
-6.453600 1.979900
-6.403500 0.825100
-6.353400 0.137600
-6.303400 0.000000
-6.253300 0.005900
-6.203300 0.087400
-6.153200 0.474000
-6.103200 0.978700
-6.053100 1.448300
-6.003100 2.230000
-5.953000 4.024500
-5.903000 4.153400
-5.852900 4.664000
-5.802800 5.273700
-5.752800 5.558500
-5.702700 5.492600
-5.652700 7.127700
-5.602600 7.058700
-5.552600 6.370200
-5.502500 5.848200
-5.452500 4.980900
-5.402400 3.640600
-5.352300 2.876600
-5.302300 2.474200
-5.252200 2.414900
-5.202200 2.100300
-5.152100 1.210600
-5.102100 1.342300
-5.052000 5.804200
-5.002000 11.139700
-4.951900 16.000100
-4.901800 10.910700
-4.851800 12.533400
-4.801700 15.327500
-4.751700 7.590200
-4.701600 3.560300
-4.651600 3.219900
-4.601500 3.514500
-4.551500 2.904000
-4.501400 2.719900
-4.451300 2.577100
-4.401300 2.583600
-4.351200 2.926000
-4.301200 2.865600
-4.251100 2.934400
-4.201100 2.621200
-4.151000 2.227300
-4.101000 2.127300
-4.050900 1.994100
-4.000900 1.934600
-3.950800 1.804100
-3.900700 1.859300
-3.850700 1.691900
-3.800600 2.024200
-3.750600 2.762300
-3.700500 3.446400
-3.650500 3.041500
-3.600400 2.679700
-3.550400 2.721400
-3.500300 2.703300
-3.450200 2.515600
-3.400200 2.053500
-3.350100 1.774400
-3.300100 1.684800
-3.250000 1.673900
-3.200000 1.920600
-3.149900 4.285300
-3.099900 2.817000
-3.049800 2.662100
-2.999700 2.619300
-2.949700 2.458000
-2.899600 2.192800
-2.849600 1.994000
-2.799500 2.170000
-2.749500 2.333300
-2.699400 2.240800
-2.649400 2.102900
-2.599300 2.052900
-2.549300 2.012900
-2.499200 1.979900
-2.449100 1.990400
-2.399100 1.686900
-2.349000 1.347800
-2.299000 0.966500
-2.248900 0.726400
-2.198900 0.627900
-2.148800 0.536600
-2.098800 0.455700
-2.048700 0.387000
-1.998600 0.322800
-1.948600 0.247700
-1.898500 0.189100
-1.848500 0.117100
-1.798400 0.018100
-1.748400 0.000000
-1.698300 0.359200
-1.648300 0.596300
-1.598200 0.822600
-1.548100 0.883200
-1.498100 0.928600
-1.448000 0.966600
-1.398000 1.023700
-1.347900 1.109800
-1.297900 1.248600
-1.247800 1.248300
-1.197800 1.278700
-1.147700 1.288100
-1.097600 1.320300
-1.047600 1.356800
-0.997500 1.389400
-0.947500 1.425800
-0.897400 1.479900
-0.847400 1.551300
-0.797300 1.706200
-0.747300 1.782800
-0.697200 1.862500
-0.647200 2.078100
-0.597100 2.189600
-0.547000 2.246100
-0.497000 2.167800
-0.446900 1.669100
-0.396900 1.432700
-0.346800 1.344100
-0.296800 1.180600
-0.246700 0.819300
-0.196700 0.679900
-0.146600 0.505700
-0.096500 0.373200
-0.046500 0.447800
0.003600 0.485900
0.053600 0.564600
0.103700 0.795500
0.153700 1.172000
0.203800 1.220800
0.253800 1.362900
0.303900 1.462200
0.354000 1.629500
0.404000 2.119900
0.454100 2.591400
0.504100 2.716000
0.554200 2.837000
0.604200 2.938600
0.654300 3.061200
0.704300 2.799800
0.754400 2.590000
0.804400 2.144400
0.854500 1.440000
0.904600 0.924200
0.954600 0.672700
1.004700 0.557800
1.054700 0.450600
1.104800 0.333500
1.154800 0.207900
1.204900 0.000000
1.254900 0.000000
1.305000 0.000000
1.355100 0.000000
1.405100 0.024300
1.455200 0.129200
1.505200 0.183300
1.555300 0.181800
1.605300 0.208600
1.655400 0.237900
1.705400 0.254000
1.755500 0.279600
1.805600 0.299300
1.855600 0.321700
1.905700 0.347100
1.955700 0.371800
2.005800 0.399700
2.055800 0.432200
2.105900 0.466300
2.155900 0.500000
2.206000 0.537200
2.256000 0.591500
2.306100 0.672400
2.356200 0.710900
2.406200 0.724700
2.456300 0.723200
2.506300 0.743600
2.556400 0.761700
2.606400 0.771600
2.656500 0.787800
2.706500 0.806800
2.756600 0.823700
2.806700 0.863400
2.856700 0.900400
2.906800 0.935200
2.956800 0.973400
3.006900 1.015600
3.056900 1.125000
3.107000 1.265400
3.157000 1.387100
3.207100 1.407100
3.257200 1.435200
3.307200 1.435000
3.357300 1.374300
3.407300 1.334300
3.457400 1.292800
3.507400 1.224900
3.557500 1.172300
3.607500 1.118800
3.657600 1.050200
3.707700 0.982600
3.757700 0.942900
3.807800 0.846700
3.857800 0.823400
3.907900 0.711600
3.957900 0.467600
4.008000 0.497800
4.058000 0.043700
4.108100 0.072100
4.158100 0.181300
4.208200 0.419000
4.258300 0.658000
4.308300 0.806400
4.358400 0.743700
4.408400 0.750300
4.458500 0.749600
4.508500 0.782600
4.558600 0.841300
4.608600 0.894400
4.658700 0.975700
4.708800 1.046500
4.758800 1.141900
4.808900 1.242500
4.858900 1.290700
4.909000 1.327800
4.959000 1.340600
5.009100 1.348400
5.059100 1.390200
5.109200 1.454000
5.159300 1.551800
5.209300 1.664100
5.259400 1.870600
5.309400 1.938700
5.359500 1.533000
5.409500 1.429800
5.459600 1.408900
5.509600 1.181100
5.559700 1.068800
5.609700 1.068300
5.659800 1.159800
5.709900 1.252000
5.759900 1.280900
5.810000 1.303700
5.860000 1.332600
5.910100 1.321600
5.960100 1.296600
6.010200 0.712500
6.060200 0.592500
6.110300 0.654800
6.160400 0.638700
6.210400 0.645800
6.260500 0.686200
6.310500 0.715800
6.360600 0.718400
6.410600 0.732900
6.460700 0.742400
6.510700 0.745300
6.560800 0.757700
6.610900 0.788100
6.660900 0.816000
6.711000 0.855200
6.761000 0.888200
6.811100 0.911600
6.861100 0.992200
6.911200 0.889100
6.961200 0.899900
7.011300 0.907500
7.061400 0.938100
7.111400 0.996300
7.161500 0.933300
7.211500 0.875700
7.261600 0.854700
7.311600 0.853800
7.361700 0.846800
7.411700 0.829500
7.461800 0.865400
7.511800 0.924200
7.561900 1.221100
7.612000 1.522600
7.662000 1.025300
7.712100 0.939600
7.762100 0.924900
7.812200 0.911900
7.862200 0.956000
7.912300 1.026400
7.962300 1.080100
8.012400 1.115200
8.062500 1.137600
8.112500 1.190000
8.162600 1.267800
8.212600 1.449000
8.262700 1.500700
8.312700 1.499100
8.362800 1.474700
8.412800 1.509000
8.462900 1.534800
8.513000 1.575100
8.563000 1.654700
8.613100 1.789700
8.663100 1.739600
8.713200 1.729900
8.763200 1.685500
8.813300 1.613600
8.863300 1.637700
8.913400 1.408700
8.963400 1.289700
9.013500 1.265000
9.063600 1.186400
9.113600 1.151500
9.163700 1.004600
9.213700 0.879000
9.263800 0.757800
9.313800 0.705300
9.363900 0.631700
9.413900 0.536100
9.464000 0.459700
9.514100 0.411700
9.564100 0.366400
9.614200 0.327200
9.664200 0.292900
9.714300 0.280000
9.764300 0.283800
9.814400 0.291100
9.864400 0.285100
9.914500 0.288100
9.964600 0.292600
10.014600 0.303700
10.064700 0.330800
10.114700 0.369500
10.164800 0.424300
10.214800 0.536500
10.264900 0.597200
10.314900 0.594000
10.365000 0.521900
10.415000 0.487700
10.465100 0.507600
10.515200 0.532200
10.565200 0.584700
10.615300 0.640400
10.665300 0.665100
10.715400 0.667900
10.765400 0.648100
10.815500 0.614100
10.865500 0.584900
10.915600 0.580400
10.965700 0.574300
11.015700 0.566000
11.065800 0.555800
11.115800 0.545600
11.165900 0.540100
11.215900 0.535500
11.266000 0.533000
11.316000 0.529500
11.366100 0.527400
11.416200 0.530900
11.466200 0.544100
11.516300 0.561000
11.566300 0.588400
11.616400 0.677700
11.666400 0.683200
11.716500 0.719000
11.766500 0.742300
11.816600 0.774800
11.866700 0.830600
11.916700 0.903400
11.966800 0.967700
12.016800 0.998100
12.066900 0.998900
12.116900 1.002200
12.167000 1.022400
12.217000 0.999600
12.267100 0.983500
12.317100 0.983000
12.367200 0.986300
12.417300 0.987400
12.467300 1.025800
12.517400 1.072800
12.567400 1.120200
12.617500 1.169400
12.667500 1.243600
12.717600 1.257000
12.767600 1.237500
12.817700 1.254600
12.867800 1.318500
12.917800 1.364800
12.967900 1.383600
13.017900 1.381600
13.068000 1.371500
13.118000 1.353100
13.168100 1.392200
13.218100 1.428000
13.268200 1.443200
13.318300 1.406500
13.368300 1.386500
13.418400 1.400100
13.468400 1.506600
13.518500 1.164800
13.568500 1.078500
13.618600 0.989900
13.668600 0.949200
13.718700 0.898100
13.768700 0.854200
13.818800 0.916000
13.868900 0.874700
13.918900 0.831700
13.969000 0.809500
14.019000 0.836500
14.069100 0.894400
14.119100 0.998900
14.169200 0.997100
14.219200 0.998000
14.269300 1.045300
14.319400 1.139400
14.369400 1.256400
14.419500 1.347000
14.469500 1.244000
14.519600 1.257000
14.569600 1.296800
14.619700 1.294700
14.669700 1.290300
14.719800 1.275900
14.769900 1.261000
14.819900 1.263800
14.870000 1.276600
14.920000 1.265200
14.970100 1.279600
15.020100 1.282000
15.070200 1.286700
15.120200 1.303500
15.170300 1.316600
15.220400 1.294200
15.270400 1.288400
15.320500 1.325700
15.370500 1.295300
15.420600 1.292100
15.470600 1.280500
15.520700 1.261400
15.570700 1.255200
15.620800 1.251400
15.670800 1.250300
15.720900 1.288800
15.771000 1.243800
15.821000 1.188700
15.871100 1.176500
15.921100 1.167900
15.971200 1.159100
16.021200 1.238400
16.071300 1.182400
16.121300 1.132000
16.171400 1.101500
16.221500 1.092300
16.271500 1.096800
16.321600 1.091500
16.371600 1.079600
16.421700 1.054200
16.471700 1.014800
16.521800 0.994600
16.571800 0.978700
16.621900 0.963900
16.672000 0.946500
16.722000 0.920200
16.772100 0.908100
16.822100 1.006600
16.872200 1.119900
16.922200 1.092600
16.972300 1.118500
17.022300 1.144900
17.072400 1.210200
17.122400 1.249900
17.172500 1.319700
17.222600 1.381000
17.272600 1.429800
17.322700 1.423000
17.372700 1.403100
17.422800 1.346500
17.472800 1.328200
17.522900 1.327100
17.572900 1.336900
17.623000 1.347100
17.673100 1.311000
17.723100 1.310300
17.773200 1.330700
17.823200 1.353700
17.873300 1.423500
17.923300 1.429900
17.973400 1.424300
18.023400 1.411400
18.073500 1.441900
18.123600 1.492400
18.173600 1.512300
18.223700 1.484000
18.273700 1.424900
18.323800 1.387500
18.373800 1.382300
18.423900 1.407500
18.473900 1.452100
18.524000 1.493900
18.574000 1.602600
18.624100 1.710500
18.674200 1.833800
18.724200 1.977800
18.774300 1.993300
18.824300 1.972300
18.874400 2.007200
18.924400 1.996700
18.974500 1.965800
19.024500 1.812300
19.074600 1.682900
19.124700 1.573400
19.174700 1.426300
19.224800 1.419200
19.274800 1.395000
19.324900 1.401400
19.374900 1.373900
19.425000 1.315100
19.475000 1.262200
19.525100 1.180900
19.575200 1.118200
19.625200 1.086800
19.675300 1.051900
19.725300 1.062700
19.775400 1.061400
19.825400 1.041900
19.875500 1.030400
19.925500 1.071200
19.975600 1.051100
20.025700 1.043900
20.075700 1.066300
20.125800 1.086900
20.175800 1.105900
20.225900 1.118200
20.275900 1.191400
20.326000 1.224800
20.376000 1.263000
20.426100 1.329400
20.476100 1.336500
20.526200 1.285000
20.576300 1.267200
20.626300 1.271600
20.676400 1.255300
20.726400 1.298600
20.776500 1.345900
20.826500 1.387600
20.876600 1.320500
20.926600 1.263200
20.976700 1.213900
21.026800 1.237400
21.076800 1.248600
21.126900 1.315400
21.176900 1.313700
21.227000 1.359900
21.277000 1.348800
21.327100 1.376000
21.377100 1.372400
21.427200 1.407400
21.477300 1.472400
21.527300 1.573500
21.577400 1.659300
21.627400 1.727300
21.677500 1.799800
21.727500 1.879700
21.777600 1.929200
21.827600 1.912700
21.877700 1.868900
21.927700 1.821500
21.977800 1.788700
22.027900 1.689800
22.077900 1.634800
22.128000 1.531800
22.178000 1.422100
22.228100 1.339300
22.278100 1.362800
22.328200 1.413800
22.378200 1.487100
22.428300 1.568400
22.478400 1.753100
22.528400 1.839600
22.578500 2.007700
22.628500 2.113900
22.678600 2.094600
22.728600 2.118900
22.778700 2.165600
22.828700 2.249700
22.878800 2.251900
22.928900 2.135300
22.978900 2.102900
23.029000 2.090900
23.079000 2.170700
23.129100 2.123700
23.179100 2.046800
23.229200 2.187500
23.279200 2.310700
23.329300 2.439600
23.379400 2.561700
23.429400 2.716600
23.479500 2.980800
23.529500 2.932200
23.579600 2.942300
23.629600 2.839900
23.679700 2.876600
23.729700 2.704500
23.779800 2.566600
23.829800 2.483100
23.879900 2.421500
23.930000 2.289000
23.980000 2.288000
24.030100 2.430800
24.080100 2.584900
24.130200 2.789200
24.180200 2.646600
24.230300 2.528000
24.280300 2.448100
24.330400 2.278200
24.380500 2.125600
24.430500 2.003800
24.480600 1.853800
24.530600 1.808300
24.580700 1.825400
24.630700 1.927700
24.680800 1.882500
24.730800 1.968500
24.780900 1.889800
24.831000 1.920100
24.881000 1.885500
24.931100 1.940500
24.981100 1.917300
25.031200 1.913200
25.081200 2.008000
25.131300 2.166700
25.181300 2.250600
25.231400 2.107000
25.281400 1.985100
25.331500 1.995600
25.381600 1.994600
25.431600 2.074000
25.481700 2.083400
25.531700 2.094000
25.581800 2.065700
25.631800 2.091900
25.681900 2.100000
25.731900 2.026600
25.782000 2.057900
25.832100 2.027300
25.882100 2.066900
25.932200 2.042200
25.982200 1.855100
26.032300 1.764300
26.082300 1.729000
26.132400 1.707200
26.182400 1.731200
26.232500 1.758100
26.282600 1.744600
26.332600 1.729900
