set title 'mp-1184258 - Density of States'
set xlabel 'Energy (eV)'
set ylabel 'DOS (states/eV)'
set grid
set xrange [-10:10]
set yrange [0:3.261]
set xzeroaxis lt -1
set terminal png size 800,600
set output 'mp-1184258_dos_gnuplot.png'
plot '-' using 1:2 with lines title 'DOS'
-12.207000 0.000000
-12.186700 0.000000
-12.166400 0.000000
-12.146100 0.000000
-12.125800 0.000000
-12.105500 0.000000
-12.085200 0.000000
-12.064900 0.000000
-12.044600 0.000000
-12.024400 0.000000
-12.004100 0.000000
-11.983800 0.000000
-11.963500 0.000000
-11.943200 0.000000
-11.922900 0.000000
-11.902600 0.000000
-11.882300 0.000000
-11.862000 0.000000
-11.841800 0.000000
-11.821500 0.000000
-11.801200 0.000000
-11.780900 0.000000
-11.760600 0.000000
-11.740300 0.000000
-11.720000 0.000000
-11.699700 0.000000
-11.679500 0.000000
-11.659200 0.000000
-11.638900 0.000000
-11.618600 0.000000
-11.598300 0.000000
-11.578000 0.000000
-11.557700 0.000000
-11.537400 0.000000
-11.517100 0.000000
-11.496900 0.000000
-11.476600 0.000000
-11.456300 0.000000
-11.436000 0.000000
-11.415700 0.000000
-11.395400 0.000000
-11.375100 0.000000
-11.354800 0.000000
-11.334500 0.000000
-11.314300 0.000000
-11.294000 0.000000
-11.273700 0.000000
-11.253400 0.000000
-11.233100 0.000000
-11.212800 0.000000
-11.192500 0.000000
-11.172200 0.000000
-11.152000 0.000000
-11.131700 0.000000
-11.111400 0.000000
-11.091100 0.000000
-11.070800 0.000000
-11.050500 0.000000
-11.030200 0.000000
-11.009900 0.000000
-10.989600 0.000000
-10.969400 0.000000
-10.949100 0.000000
-10.928800 0.000000
-10.908500 0.000000
-10.888200 0.000000
-10.867900 0.000000
-10.847600 0.000000
-10.827300 0.000000
-10.807000 0.000000
-10.786800 0.000000
-10.766500 0.000000
-10.746200 0.000000
-10.725900 0.000000
-10.705600 0.000000
-10.685300 0.000000
-10.665000 0.000000
-10.644700 0.000000
-10.624400 0.000000
-10.604200 0.000000
-10.583900 0.000000
-10.563600 0.000000
-10.543300 0.000000
-10.523000 0.000000
-10.502700 0.000000
-10.482400 0.000000
-10.462100 0.000000
-10.441900 0.000000
-10.421600 0.000000
-10.401300 0.000000
-10.381000 0.000000
-10.360700 1.454800
-10.340400 14.099500
-10.320100 29.599200
-10.299800 131.749100
-10.279500 124.131100
-10.259300 129.456700
-10.239000 121.177300
-10.218700 165.406000
-10.198400 125.817600
-10.178100 127.106200
-10.157800 176.766600
-10.137500 147.268800
-10.117200 128.767900
-10.096900 14.598500
-10.076700 0.000000
-10.056400 0.000000
-10.036100 0.000000
-10.015800 0.000000
-9.995500 0.000000
-9.975200 0.000000
-9.954900 0.000000
-9.934600 0.000000
-9.914400 0.000000
-9.894100 0.000000
-9.873800 0.000000
-9.853500 0.000000
-9.833200 0.000000
-9.812900 0.000000
-9.792600 0.000000
-9.772300 0.000000
-9.752000 0.000000
-9.731800 0.000000
-9.711500 0.000000
-9.691200 0.000000
-9.670900 0.000000
-9.650600 0.000000
-9.630300 0.000000
-9.610000 0.000000
-9.589700 0.000000
-9.569400 0.000000
-9.549200 0.000000
-9.528900 0.000000
-9.508600 0.000000
-9.488300 0.000000
-9.468000 0.000000
-9.447700 0.000000
-9.427400 0.000000
-9.407100 0.000000
-9.386800 0.000000
-9.366600 0.000000
-9.346300 0.000000
-9.326000 0.000000
-9.305700 0.000000
-9.285400 0.000000
-9.265100 0.000000
-9.244800 0.000000
-9.224500 0.000000
-9.204300 0.000000
-9.184000 0.000000
-9.163700 0.000000
-9.143400 0.000000
-9.123100 0.000000
-9.102800 0.000000
-9.082500 0.000000
-9.062200 0.000000
-9.041900 0.000000
-9.021700 0.000000
-9.001400 0.000000
-8.981100 0.000000
-8.960800 0.000000
-8.940500 0.000000
-8.920200 0.000000
-8.899900 0.000000
-8.879600 0.000000
-8.859300 0.000000
-8.839100 0.000000
-8.818800 0.000000
-8.798500 0.000000
-8.778200 0.000000
-8.757900 0.000000
-8.737600 0.000000
-8.717300 0.000000
-8.697000 0.000000
-8.676800 0.000000
-8.656500 0.000000
-8.636200 0.000000
-8.615900 0.000000
-8.595600 0.000000
-8.575300 0.000000
-8.555000 0.000000
-8.534700 0.000000
-8.514400 0.000000
-8.494200 0.000000
-8.473900 0.000000
-8.453600 0.000000
-8.433300 0.000000
-8.413000 0.000000
-8.392700 0.000000
-8.372400 0.000000
-8.352100 0.000000
-8.331800 0.000000
-8.311600 0.000000
-8.291300 0.000000
-8.271000 0.000000
-8.250700 0.000000
-8.230400 0.000000
-8.210100 0.000000
-8.189800 0.000000
-8.169500 0.000000
-8.149200 0.000000
-8.129000 0.000000
-8.108700 0.000000
-8.088400 0.000000
-8.068100 0.000000
-8.047800 0.000000
-8.027500 0.000000
-8.007200 0.000000
-7.986900 0.000000
-7.966700 0.000000
-7.946400 0.000000
-7.926100 0.000000
-7.905800 0.000000
-7.885500 0.000000
-7.865200 0.000000
-7.844900 0.000000
-7.824600 0.000000
-7.804300 0.000000
-7.784100 0.000000
-7.763800 0.000000
-7.743500 0.000000
-7.723200 0.000000
-7.702900 0.000000
-7.682600 0.000000
-7.662300 0.000000
-7.642000 0.000000
-7.621700 0.000000
-7.601500 0.000000
-7.581200 0.000000
-7.560900 0.000000
-7.540600 0.000000
-7.520300 0.000000
-7.500000 0.000000
-7.479700 0.000000
-7.459400 0.000000
-7.439100 0.000000
-7.418900 0.000000
-7.398600 0.000000
-7.378300 0.000000
-7.358000 0.000000
-7.337700 0.000000
-7.317400 0.000000
-7.297100 0.000000
-7.276800 0.000000
-7.256600 0.000000
-7.236300 0.000000
-7.216000 0.000000
-7.195700 0.000000
-7.175400 0.000000
-7.155100 0.000000
-7.134800 0.000000
-7.114500 0.000000
-7.094200 0.000000
-7.074000 0.000000
-7.053700 0.000000
-7.033400 0.000000
-7.013100 0.000000
-6.992800 0.000000
-6.972500 0.000000
-6.952200 0.000000
-6.931900 0.000000
-6.911600 0.000000
-6.891400 0.000000
-6.871100 0.000000
-6.850800 0.000000
-6.830500 0.012300
-6.810200 0.055700
-6.789900 0.121900
-6.769600 0.182300
-6.749300 0.198900
-6.729100 0.216500
-6.708800 0.236100
-6.688500 0.259100
-6.668200 0.269500
-6.647900 0.292200
-6.627600 0.316100
-6.607300 0.340700
-6.587000 0.363100
-6.566700 0.377900
-6.546500 0.386600
-6.526200 0.399200
-6.505900 0.412000
-6.485600 0.424300
-6.465300 0.437200
-6.445000 0.449900
-6.424700 0.462900
-6.404400 0.477700
-6.384100 0.492800
-6.363900 0.508100
-6.343600 0.524000
-6.323300 0.540800
-6.303000 0.558200
-6.282700 0.572700
-6.262400 0.584500
-6.242100 0.595500
-6.221800 0.607200
-6.201500 0.619400
-6.181300 0.633300
-6.161000 0.647400
-6.140700 0.661800
-6.120400 0.676400
-6.100100 0.691200
-6.079800 0.706300
-6.059500 0.721700
-6.039200 0.739800
-6.019000 0.759700
-5.998700 0.780800
-5.978400 0.808800
-5.958100 0.840300
-5.937800 0.880000
-5.917500 0.914900
-5.897200 0.937700
-5.876900 0.947800
-5.856600 0.960500
-5.836400 0.947200
-5.816100 0.957900
-5.795800 0.969800
-5.775500 0.982900
-5.755200 0.995200
-5.734900 1.003000
-5.714600 1.005600
-5.694300 1.009800
-5.674000 1.016000
-5.653800 1.024200
-5.633500 1.035300
-5.613200 1.047900
-5.592900 1.061100
-5.572600 1.075000
-5.552300 1.089300
-5.532000 1.104000
-5.511700 1.118900
-5.491500 1.133700
-5.471200 1.150600
-5.450900 1.175400
-5.430600 1.205900
-5.410300 1.243700
-5.390000 1.290200
-5.369700 1.345600
-5.349400 1.407300
-5.329100 1.554700
-5.308900 1.632600
-5.288600 1.686600
-5.268300 1.718300
-5.248000 1.715100
-5.227700 1.716800
-5.207400 1.756900
-5.187100 1.708800
-5.166800 1.539600
-5.146500 1.374200
-5.126300 1.262200
-5.106000 1.208700
-5.085700 1.152000
-5.065400 1.099500
-5.045100 1.051200
-5.024800 1.000900
-5.004500 0.954700
-4.984200 0.914200
-4.963900 0.896500
-4.943700 0.879800
-4.923400 0.862100
-4.903100 0.843400
-4.882800 0.822600
-4.862500 0.800200
-4.842200 0.775800
-4.821900 0.749700
-4.801600 0.726400
-4.781400 0.703800
-4.761100 0.683600
-4.740800 0.666100
-4.720500 0.651600
-4.700200 0.637800
-4.679900 0.624300
-4.659600 0.614000
-4.639300 0.603500
-4.619000 0.593400
-4.598800 0.584100
-4.578500 0.576800
-4.558200 0.577100
-4.537900 0.578900
-4.517600 0.575900
-4.497300 0.563200
-4.477000 0.531100
-4.456700 0.491900
-4.436400 0.466900
-4.416200 0.442100
-4.395900 0.417400
-4.375600 0.477200
-4.355300 0.501500
-4.335000 0.646000
-4.314700 0.105700
-4.294400 0.000000
-4.274100 0.000000
-4.253900 0.000000
-4.233600 0.000000
-4.213300 0.000000
-4.193000 0.000000
-4.172700 0.000000
-4.152400 0.000000
-4.132100 0.000000
-4.111800 0.000000
-4.091500 0.000000
-4.071300 0.000000
-4.051000 0.000000
-4.030700 0.060200
-4.010400 0.047900
-3.990100 0.061500
-3.969800 0.073700
-3.949500 0.084400
-3.929200 0.093700
-3.908900 0.101500
-3.888700 0.111700
-3.868400 0.124800
-3.848100 0.136100
-3.827800 0.145500
-3.807500 0.153000
-3.787200 0.159500
-3.766900 0.168100
-3.746600 0.160100
-3.726300 0.166500
-3.706100 0.173100
-3.685800 0.179800
-3.665500 0.186600
-3.645200 0.193600
-3.624900 0.200800
-3.604600 0.208000
-3.584300 0.215500
-3.564000 0.223100
-3.543800 0.230900
-3.523500 0.235200
-3.503200 0.239400
-3.482900 0.246600
-3.462600 0.253900
-3.442300 0.260900
-3.422000 0.267700
-3.401700 0.274200
-3.381400 0.280400
-3.361200 0.301300
-3.340900 0.423600
-3.320600 0.588600
-3.300300 0.621900
-3.280000 0.672400
-3.259700 0.726500
-3.239400 0.774300
-3.219100 0.821900
-3.198800 0.873200
-3.178600 0.927600
-3.158300 0.988000
-3.138000 1.058300
-3.117700 1.137700
-3.097400 1.239900
-3.077100 1.371600
-3.056800 1.412100
-3.036500 1.457500
-3.016300 1.419800
-2.996000 1.379900
-2.975700 1.349800
-2.955400 1.327100
-2.935100 1.307200
-2.914800 1.286200
-2.894500 1.263300
-2.874200 1.240100
-2.853900 1.220300
-2.833700 1.202600
-2.813400 1.185200
-2.793100 1.170800
-2.772800 1.168400
-2.752500 1.173300
-2.732200 1.177400
-2.711900 1.181000
-2.691600 1.206000
-2.671300 1.215600
-2.651100 1.219900
-2.630800 1.222200
-2.610500 1.230100
-2.590200 1.242200
-2.569900 1.255300
-2.549600 1.268200
-2.529300 1.281300
-2.509000 1.294600
-2.488700 1.278800
-2.468500 1.290900
-2.448200 1.308000
-2.427900 1.327000
-2.407600 1.346700
-2.387300 1.367100
-2.367000 1.387200
-2.346700 1.404500
-2.326400 1.423800
-2.306200 1.448900
-2.285900 1.553700
-2.265600 1.557700
-2.245300 1.546100
-2.225000 1.522300
-2.204700 1.501400
-2.184400 1.497900
-2.164100 1.521600
-2.143800 1.599800
-2.123600 1.610900
-2.103300 1.586900
-2.083000 1.556100
-2.062700 1.525600
-2.042400 1.495200
-2.022100 1.463600
-2.001800 1.469800
-1.981500 1.318500
-1.961200 1.281000
-1.941000 1.244900
-1.920700 1.210300
-1.900400 1.153100
-1.880100 1.136500
-1.859800 1.121000
-1.839500 1.105700
-1.819200 1.090700
-1.798900 0.998400
-1.778700 0.981100
-1.758400 0.989000
-1.738100 1.007400
-1.717800 1.025700
-1.697500 1.042400
-1.677200 1.053600
-1.656900 1.056800
-1.636600 1.060000
-1.616300 1.061000
-1.596100 1.064300
-1.575800 1.105000
-1.555500 1.130800
-1.535200 1.158400
-1.514900 1.184000
-1.494600 1.211200
-1.474300 1.240000
-1.454000 1.270500
-1.433700 1.302600
-1.413500 1.333300
-1.393200 1.368900
-1.372900 1.391000
-1.352600 1.365400
-1.332300 1.315800
-1.312000 1.307400
-1.291700 1.317200
-1.271400 1.328100
-1.251100 1.341000
-1.230900 1.355600
-1.210600 1.366300
-1.190300 1.371100
-1.170000 1.371000
-1.149700 1.379400
-1.129400 1.395900
-1.109100 1.423400
-1.088800 1.421900
-1.068600 1.452500
-1.048300 1.480500
-1.028000 1.504800
-1.007700 1.525200
-0.987400 1.549300
-0.967100 1.600700
-0.946800 1.620700
-0.926500 1.614800
-0.906200 1.643000
-0.886000 1.586800
-0.865700 1.542100
-0.845400 1.541400
-0.825100 1.567300
-0.804800 1.581200
-0.784500 1.528600
-0.764200 1.460900
-0.743900 1.403800
-0.723600 1.345300
-0.703400 1.300500
-0.683100 1.258700
-0.662800 1.224000
-0.642500 1.206700
-0.622200 1.193900
-0.601900 1.182700
-0.581600 1.171900
-0.561300 1.161100
-0.541100 1.154000
-0.520800 1.146700
-0.500500 1.132000
-0.480200 1.116700
-0.459900 1.103800
-0.439600 1.095100
-0.419300 1.088800
-0.399000 1.086100
-0.378700 1.084400
-0.358500 1.084200
-0.338200 1.085700
-0.317900 1.127800
-0.297600 1.138500
-0.277300 1.127900
-0.257000 1.113500
-0.236700 1.117300
-0.216400 1.130900
-0.196100 1.153300
-0.175900 1.181500
-0.155600 1.223600
-0.135300 1.280300
-0.115000 1.376500
-0.094700 1.473300
-0.074400 1.558600
-0.054100 1.628300
-0.033800 1.642100
-0.013500 1.641500
0.006700 1.648600
0.027000 1.654100
0.047300 1.656600
0.067600 1.656200
0.087900 1.656600
0.108200 1.658000
0.128500 1.654400
0.148800 1.642200
0.169000 1.619100
0.189300 1.591100
0.209600 1.563100
0.229900 1.535200
0.250200 1.510400
0.270500 1.490500
0.290800 1.489400
0.311100 1.462400
0.331400 1.498200
0.351600 1.526000
0.371900 1.546600
0.392200 1.564100
0.412500 1.579700
0.432800 1.592100
0.453100 1.600400
0.473400 1.587600
0.493700 1.548700
0.514000 1.566600
0.534200 1.560700
0.554500 1.550400
0.574800 1.714800
0.595100 1.631000
0.615400 1.582400
0.635700 1.512500
0.656000 1.438100
0.676300 1.380200
0.696500 1.338800
0.716800 1.313600
0.737100 1.299100
0.757400 1.290300
0.777700 1.280600
0.798000 1.276200
0.818300 1.286800
0.838600 1.381100
0.858900 1.327900
0.879100 1.304100
0.899400 1.289100
0.919700 1.284600
0.940000 1.278000
0.960300 1.268100
0.980600 1.268200
1.000900 1.285600
1.021200 1.324100
1.041500 1.344000
1.061700 1.356100
1.082000 1.401300
1.102300 1.276500
1.122600 1.225900
1.142900 1.187400
1.163200 1.153100
1.183500 1.124100
1.203800 1.100300
1.224100 1.067600
1.244300 1.054200
1.264600 1.047700
1.284900 1.042600
1.305200 1.039700
1.325500 1.039100
1.345800 1.055500
1.366100 1.091700
1.386400 1.124900
1.406600 1.162100
1.426900 1.204600
1.447200 1.250700
1.467500 1.301800
1.487800 1.357600
1.508100 1.393400
1.528400 1.384400
1.548700 1.414700
1.569000 1.444600
1.589200 1.397900
1.609500 1.403200
1.629800 1.404700
1.650100 1.402300
1.670400 1.417200
1.690700 1.398100
1.711000 1.373900
1.731300 1.357200
1.751600 1.342700
1.771800 1.321700
1.792100 1.322800
1.812400 1.328900
1.832700 1.325000
1.853000 1.319000
1.873300 1.302600
1.893600 1.298300
1.913900 1.294900
1.934100 1.296800
1.954400 1.305300
1.974700 1.319900
1.995000 1.338600
2.015300 1.366600
2.035600 1.404300
2.055900 1.436200
2.076200 1.440900
2.096500 1.455800
2.116700 1.484700
2.137000 1.452800
2.157300 1.469300
2.177600 1.489700
2.197900 1.513800
2.218200 1.540400
2.238500 1.562200
2.258800 1.592200
2.279100 1.621900
2.299300 1.648600
2.319600 1.697100
2.339900 1.725900
2.360200 1.756500
2.380500 1.788700
2.400800 1.821400
2.421100 1.856400
2.441400 1.895900
2.461700 1.938500
2.481900 1.976100
2.502200 2.090700
2.522500 2.094500
2.542800 2.118500
2.563100 2.153400
2.583400 2.175900
2.603700 2.199000
2.624000 2.222700
2.644200 2.240200
2.664500 2.255200
2.684800 2.268200
2.705100 2.279200
2.725400 2.284700
2.745700 2.282300
2.766000 2.234800
2.786300 2.225900
2.806600 2.215900
2.826800 2.201100
2.847100 2.180900
2.867400 2.130500
2.887700 2.141200
2.908000 2.143600
2.928300 2.084900
2.948600 2.068600
2.968900 2.050400
2.989200 2.034200
3.009400 2.020300
3.029700 1.997500
3.050000 2.016000
3.070300 1.963000
3.090600 1.919700
3.110900 1.888900
3.131200 1.859700
3.151500 1.833200
3.171800 1.809800
3.192000 1.790300
3.212300 1.768800
3.232600 1.768500
3.252900 1.761500
3.273200 1.765700
3.293500 1.843000
3.313800 1.852400
3.334100 1.819100
3.354300 1.778600
3.374600 1.774800
3.394900 1.780800
3.415200 1.789700
3.435500 1.823300
3.455800 1.839900
3.476100 1.857300
3.496400 1.874000
3.516700 1.886600
3.536900 1.898300
3.557200 1.900400
3.577500 1.885400
3.597800 1.867300
3.618100 1.845600
3.638400 1.855300
3.658700 1.868100
3.679000 1.880300
3.699300 1.903600
3.719500 1.920300
3.739800 1.922900
3.760100 1.910500
3.780400 1.891900
3.800700 1.889900
3.821000 1.853800
3.841300 1.804500
3.861600 1.772300
3.881800 1.762200
3.902100 1.741800
3.922400 1.721700
3.942700 1.756000
3.963000 1.719800
3.983300 1.690200
4.003600 1.667300
4.023900 1.650000
4.044200 1.639800
4.064400 1.641000
4.084700 1.644900
4.105000 1.653300
4.125300 1.663600
4.145600 1.676100
4.165900 1.689700
4.186200 1.704400
4.206500 1.762900
4.226800 1.864400
4.247000 1.906300
4.267300 1.927400
4.287600 1.966800
4.307900 1.985300
4.328200 2.000000
4.348500 2.017400
4.368800 2.027600
4.389100 2.042700
4.409400 2.061000
4.429600 2.082500
4.449900 2.134500
4.470200 2.187200
4.490500 2.236400
4.510800 2.264800
4.531100 2.241800
4.551400 2.185200
4.571700 2.135600
4.591900 2.125000
4.612200 2.109700
4.632500 2.095400
4.652800 2.084200
4.673100 2.075500
4.693400 2.064600
4.713700 2.053100
4.734000 2.042200
4.754300 2.023400
4.774500 1.986200
4.794800 1.921300
4.815100 1.861000
4.835400 1.816400
4.855700 1.783300
4.876000 1.747700
4.896300 1.709800
4.916600 1.674000
4.936900 1.648200
4.957100 1.624000
4.977400 1.597300
4.997700 1.575500
5.018000 1.558000
5.038300 1.541900
5.058600 1.521600
5.078900 1.496800
5.099200 1.473400
5.119400 1.458100
5.139700 1.445400
5.160000 1.432900
5.180300 1.421000
5.200600 1.411100
5.220900 1.428000
5.241200 1.459300
5.261500 1.481300
5.281800 1.498400
5.302000 1.512900
5.322300 1.526500
5.342600 1.540200
5.362900 1.552200
5.383200 1.551900
5.403500 1.570900
5.423800 1.601700
5.444100 1.627200
5.464400 1.648000
5.484600 1.676800
5.504900 1.729500
5.525200 1.761600
5.545500 1.769800
5.565800 1.773100
5.586100 1.751900
5.606400 1.725500
5.626700 1.738000
5.647000 1.756400
5.667200 1.752600
5.687500 1.747500
5.707800 1.741600
5.728100 1.732100
5.748400 1.723100
5.768700 1.714900
5.789000 1.708200
5.809300 1.702600
5.829500 1.699800
5.849800 1.701800
5.870100 1.709200
5.890400 1.713700
5.910700 1.738500
5.931000 1.791200
5.951300 1.819500
5.971600 1.850500
5.991900 1.885200
6.012100 1.916900
6.032400 1.954700
6.052700 2.017300
6.073000 2.071100
6.093300 2.146000
6.113600 2.312500
6.133900 2.397400
6.154200 2.437900
6.174500 2.389100
6.194700 2.455700
6.215000 2.518600
6.235300 2.535900
6.255600 2.523500
6.275900 2.461700
6.296200 2.359800
6.316500 2.306100
6.336800 2.246100
6.357000 2.196800
6.377300 2.152700
6.397600 2.111500
6.417900 2.081800
6.438200 2.047100
6.458500 2.016700
6.478800 1.989800
6.499100 1.964400
6.519400 1.907900
6.539600 1.910500
6.559900 1.951100
6.580200 1.811900
6.600500 1.810000
6.620800 1.845400
6.641100 1.881500
6.661400 1.898900
6.681700 1.958200
6.702000 2.049200
6.722200 2.132100
6.742500 2.204200
6.762800 2.263700
6.783100 2.514200
6.803400 2.438900
6.823700 2.388300
6.844000 2.377000
6.864300 2.360300
6.884600 2.329500
6.904800 2.304100
6.925100 2.299900
6.945400 2.342200
6.965700 2.388800
6.986000 2.437200
7.006300 2.479800
7.026600 2.515900
7.046900 2.543500
7.067100 2.563800
7.087400 2.583300
7.107700 2.672900
7.128000 2.734400
7.148300 2.748800
7.168600 2.758300
7.188900 2.699200
7.209200 2.659800
7.229500 2.631100
7.249700 2.604500
7.270000 2.690400
7.290300 2.346300
7.310600 2.267000
7.330900 2.201100
7.351200 2.139900
7.371500 2.092600
7.391800 2.085600
7.412100 2.196500
7.432300 2.190900
7.452600 2.121200
7.472900 2.074600
7.493200 2.078300
7.513500 2.088900
7.533800 2.175700
7.554100 2.100300
7.574400 2.069900
7.594600 2.058700
7.614900 2.056100
7.635200 2.062400
7.655500 2.078800
7.675800 2.093500
7.696100 2.099700
7.716400 2.106400
7.736700 2.147800
7.757000 2.198800
7.777200 2.218700
7.797500 2.236300
7.817800 2.261400
7.838100 2.295400
7.858400 2.320400
7.878700 2.314800
7.899000 2.307600
7.919300 2.303600
7.939600 2.302600
7.959800 2.304500
7.980100 2.308800
8.000400 2.334800
8.020700 2.386500
8.041000 2.457600
8.061300 2.542300
8.081600 2.541400
8.101900 2.599300
8.122200 2.578300
8.142400 2.492800
8.162700 2.417900
8.183000 2.322800
8.203300 2.274400
8.223600 2.241700
8.243900 2.232700
8.264200 2.229300
8.284500 2.181500
8.304700 2.173600
8.325000 2.201400
8.345300 2.273900
8.365600 2.241100
8.385900 2.208900
8.406200 2.194200
8.426500 2.193400
8.446800 2.195000
8.467100 2.215000
8.487300 2.250400
8.507600 2.268800
8.527900 2.284000
8.548200 2.291100
8.568500 2.305600
8.588800 2.338800
8.609100 2.380900
8.629400 2.429300
8.649700 2.477100
8.669900 2.543400
8.690200 2.604400
8.710500 2.693500
8.730800 2.772200
8.751100 2.902400
8.771400 2.962500
8.791700 2.964900
8.812000 2.961200
8.832200 2.939300
8.852500 2.906800
8.872800 2.875800
8.893100 2.819000
8.913400 2.789800
8.933700 2.778700
8.954000 2.665500
8.974300 2.625500
8.994600 2.619800
9.014800 2.616100
9.035100 2.623400
9.055400 2.638600
9.075700 2.660100
9.096000 2.686700
9.116300 2.764200
9.136600 2.754600
9.156900 2.716000
