set title 'mp-1008634 - Density of States'
set xlabel 'Energy (eV)'
set ylabel 'DOS (states/eV)'
set grid
set xrange [-10:10]
set yrange [0:8.052]
set xzeroaxis lt -1
set terminal png size 800,600
set output 'mp-1008634_dos_gnuplot.png'
plot '-' using 1:2 with lines title 'DOS'
-7.173300 0.000000
-7.141100 0.000000
-7.109000 0.000000
-7.076800 0.000000
-7.044700 0.000000
-7.012500 0.000000
-6.980400 0.000000
-6.948200 0.000000
-6.916100 0.000000
-6.883900 0.000000
-6.851800 0.000000
-6.819600 0.000000
-6.787500 0.000000
-6.755300 0.000000
-6.723100 0.000000
-6.691000 0.000000
-6.658800 0.000000
-6.626700 0.000000
-6.594500 0.000000
-6.562400 0.000000
-6.530200 0.000000
-6.498100 0.000000
-6.465900 0.000000
-6.433800 0.000000
-6.401600 0.000000
-6.369500 0.000000
-6.337300 0.000000
-6.305200 0.000000
-6.273000 0.000000
-6.240800 0.000000
-6.208700 0.000000
-6.176500 0.000000
-6.144400 0.000000
-6.112200 0.000000
-6.080100 0.000000
-6.047900 0.000000
-6.015800 0.000000
-5.983600 0.000000
-5.951500 0.000000
-5.919300 0.000000
-5.887200 0.000000
-5.855000 0.000000
-5.822800 0.000000
-5.790700 0.000000
-5.758500 0.000000
-5.726400 0.000000
-5.694200 0.000000
-5.662100 0.000000
-5.629900 0.000000
-5.597800 0.000000
-5.565600 0.000000
-5.533500 0.000000
-5.501300 0.000000
-5.469200 0.000000
-5.437000 0.000000
-5.404900 0.000000
-5.372700 0.000000
-5.340500 0.000000
-5.308400 0.000000
-5.276200 0.000000
-5.244100 0.000000
-5.211900 0.000000
-5.179800 0.000000
-5.147600 0.000000
-5.115500 0.000000
-5.083300 0.000000
-5.051200 0.000000
-5.019000 0.000000
-4.986900 0.000000
-4.954700 0.000000
-4.922600 0.000000
-4.890400 0.000000
-4.858200 0.000000
-4.826100 0.000000
-4.793900 0.000000
-4.761800 0.000000
-4.729600 0.000000
-4.697500 0.000000
-4.665300 0.000000
-4.633200 0.000000
-4.601000 0.000000
-4.568900 0.000000
-4.536700 0.000000
-4.504600 0.000000
-4.472400 0.000000
-4.440200 0.000000
-4.408100 0.000000
-4.375900 0.000000
-4.343800 0.000000
-4.311600 0.000000
-4.279500 0.000000
-4.247300 0.000000
-4.215200 0.006100
-4.183000 0.022300
-4.150900 0.047500
-4.118700 0.058700
-4.086600 0.062300
-4.054400 0.065100
-4.022300 0.073400
-3.990100 0.081900
-3.957900 0.090800
-3.925800 0.099700
-3.893600 0.106100
-3.861500 0.109600
-3.829300 0.111700
-3.797200 0.115900
-3.765000 0.120900
-3.732900 0.126200
-3.700700 0.131600
-3.668600 0.137000
-3.636400 0.142400
-3.604300 0.148000
-3.572100 0.153900
-3.539900 0.159300
-3.507800 0.163400
-3.475600 0.166900
-3.443500 0.171200
-3.411300 0.175500
-3.379200 0.179800
-3.347000 0.184100
-3.314900 0.188600
-3.282700 0.193200
-3.250600 0.198100
-3.218400 0.203300
-3.186300 0.208600
-3.154100 0.214100
-3.122000 0.219600
-3.089800 0.225300
-3.057600 0.230700
-3.025500 0.235600
-2.993300 0.240200
-2.961200 0.245300
-2.929000 0.250600
-2.896900 0.256100
-2.864700 0.261900
-2.832600 0.267900
-2.800400 0.274000
-2.768300 0.280300
-2.736100 0.286800
-2.704000 0.293500
-2.671800 0.300300
-2.639700 0.307300
-2.607500 0.314400
-2.575300 0.321800
-2.543200 0.329800
-2.511000 0.338500
-2.478900 0.347000
-2.446700 0.356600
-2.414600 0.366400
-2.382400 0.376600
-2.350300 0.387400
-2.318100 0.398800
-2.286000 0.410700
-2.253800 0.423000
-2.221700 0.435700
-2.189500 0.449500
-2.157300 0.465800
-2.125200 0.484900
-2.093000 0.504100
-2.060900 0.523700
-2.028700 0.545500
-1.996600 0.569700
-1.964400 0.598700
-1.932300 0.636800
-1.900100 0.689500
-1.868000 0.787000
-1.835800 0.891000
-1.803700 0.897600
-1.771500 0.964900
-1.739400 1.048600
-1.707200 1.181300
-1.675000 1.910100
-1.642900 2.474900
-1.610700 2.320700
-1.578600 2.266600
-1.546400 2.319400
-1.514300 2.439600
-1.482100 2.506300
-1.450000 2.461200
-1.417800 2.388700
-1.385700 2.437800
-1.353500 2.723700
-1.321400 3.065000
-1.289200 3.239700
-1.257000 3.287300
-1.224900 3.226400
-1.192700 3.211700
-1.160600 3.254500
-1.128400 3.295800
-1.096300 3.318800
-1.064100 3.384800
-1.032000 3.678900
-0.999800 3.714000
-0.967700 3.762800
-0.935500 3.455600
-0.903400 3.261900
-0.871200 3.330000
-0.839100 3.631300
-0.806900 3.211300
-0.774700 2.976200
-0.742600 3.162000
-0.710400 3.701600
-0.678300 3.508700
-0.646100 2.534700
-0.614000 2.231200
-0.581800 2.294500
-0.549700 2.703100
-0.517500 4.556400
-0.485400 7.146500
-0.453200 5.329300
-0.421100 4.565000
-0.388900 4.142100
-0.356800 4.403400
-0.324600 4.083300
-0.292400 3.532200
-0.260300 3.243700
-0.228100 3.141000
-0.196000 3.249700
-0.163800 3.471400
-0.131700 3.707400
-0.099500 3.999700
-0.067400 4.603200
-0.035200 5.415300
-0.003100 5.847600
0.029100 5.588000
0.061200 4.873800
0.093400 4.444200
0.125600 3.657300
0.157700 3.185100
0.189900 3.011700
0.222000 2.518700
0.254200 2.328400
0.286300 3.245100
0.318500 3.263200
0.350600 3.537700
0.382800 4.025800
0.414900 4.971900
0.447100 5.962000
0.479200 6.390500
0.511400 7.319800
0.543500 6.077500
0.575700 5.211900
0.607900 4.962700
0.640000 5.084300
0.672200 5.332800
0.704300 5.474100
0.736500 5.074800
0.768600 5.145200
0.800800 5.300000
0.832900 5.447700
0.865100 5.533600
0.897200 5.344300
0.929400 5.304400
0.961500 5.241000
0.993700 5.253400
1.025900 4.921100
1.058000 5.070900
1.090200 6.244300
1.122300 6.812800
1.154500 5.638300
1.186600 5.655500
1.218800 5.708500
1.250900 5.383700
1.283100 4.461800
1.315200 4.486100
1.347400 4.942400
1.379500 4.877200
1.411700 4.379000
1.443800 4.021300
1.476000 3.850800
1.508200 3.657300
1.540300 3.524500
1.572500 3.433900
1.604600 3.369400
1.636800 3.411300
1.668900 3.694500
1.701100 3.821200
1.733200 3.589700
1.765400 3.443400
1.797500 3.404200
1.829700 3.414600
1.861800 3.465800
1.894000 3.592500
1.926100 3.508800
1.958300 3.453200
1.990500 3.558600
2.022600 3.565700
2.054800 3.473800
2.086900 3.406800
2.119100 3.347100
2.151200 3.328200
2.183400 3.348700
2.215500 3.433500
2.247700 3.658600
2.279800 3.718500
2.312000 3.189700
2.344100 3.226300
2.376300 3.625400
2.408500 4.020200
2.440600 3.937900
2.472800 4.681500
2.504900 4.674100
2.537100 4.943700
2.569200 4.970200
2.601400 5.230100
2.633500 5.681200
2.665700 6.045400
2.697800 6.107400
2.730000 6.450800
2.762100 6.419200
2.794300 6.657900
2.826400 7.151400
2.858600 6.692100
2.890800 6.768400
2.922900 6.670000
2.955100 6.229700
2.987200 5.658500
3.019400 5.429900
3.051500 5.143400
3.083700 3.051000
3.115800 0.975700
3.148000 0.692600
3.180100 0.693500
3.212300 0.694200
3.244400 0.694700
3.276600 0.695300
3.308800 0.697100
3.340900 0.694300
3.373100 0.675900
3.405200 0.645900
3.437400 0.623300
3.469500 0.609600
3.501700 0.598700
3.533800 0.590800
3.566000 0.584600
3.598100 0.580800
3.630300 0.578700
3.662400 0.577300
3.694600 0.576400
3.726700 0.576000
3.758900 0.576400
3.791100 0.577000
3.823200 0.577700
3.855400 0.578500
3.887500 0.579300
3.919700 0.580200
3.951800 0.581200
3.984000 0.582200
4.016100 0.583200
4.048300 0.584300
4.080400 0.585600
4.112600 0.586900
4.144700 0.588300
4.176900 0.590100
4.209000 0.586100
4.241200 0.583800
4.273400 0.581100
4.305500 0.578700
4.337700 0.578000
4.369800 0.578900
4.402000 0.580300
4.434100 0.582100
4.466300 0.584300
4.498400 0.586500
4.530600 0.588900
4.562700 0.591300
4.594900 0.593900
4.627000 0.603300
4.659200 0.611800
4.691400 0.619100
4.723500 0.625100
4.755700 0.630300
4.787800 0.635900
4.820000 0.646100
4.852100 0.643900
4.884300 0.640000
4.916400 0.636100
4.948600 0.632100
4.980700 0.628100
5.012900 0.624000
5.045000 0.620000
5.077200 0.615500
5.109300 0.610300
5.141500 0.605200
5.173700 0.600600
5.205800 0.596100
5.238000 0.591700
5.270100 0.615300
5.302300 0.760700
5.334400 0.614600
5.366600 0.586000
5.398700 0.579400
5.430900 0.572300
5.463000 0.563400
5.495200 0.556900
5.527300 0.553900
5.559500 0.550800
5.591700 0.547700
5.623800 0.544700
5.656000 0.541700
5.688100 0.538700
5.720300 0.535700
5.752400 0.532100
5.784600 0.531500
5.816700 0.532900
5.848900 0.534600
5.881000 0.534300
5.913200 0.533800
5.945300 0.532800
5.977500 0.531500
6.009600 0.529900
6.041800 0.528700
6.074000 0.527900
6.106100 0.576100
6.138300 0.593500
6.170400 0.556900
6.202600 0.541500
6.234700 0.543900
6.266900 0.551100
6.299000 0.557200
6.331200 0.558600
6.363300 0.561200
6.395500 0.565600
6.427600 0.570700
6.459800 0.574800
6.491900 0.577900
6.524100 0.581400
6.556300 0.587200
6.588400 0.595400
6.620600 0.602500
6.652700 0.610600
6.684900 0.620900
6.717000 0.621800
6.749200 0.633500
6.781300 0.652600
6.813500 0.671900
6.845600 0.689400
6.877800 0.684000
6.909900 0.585500
6.942100 0.556900
6.974300 0.548200
7.006400 0.539200
7.038600 0.531700
7.070700 0.523200
7.102900 0.532200
7.135000 0.531800
7.167200 0.541600
7.199300 0.546200
7.231500 0.562800
7.263600 0.579100
7.295800 0.569600
7.327900 0.554700
7.360100 0.546600
7.392200 0.542900
7.424400 0.547100
7.456600 0.570600
7.488700 0.575400
7.520900 0.577800
7.553000 0.574600
7.585200 0.569500
7.617300 0.567000
7.649500 0.564900
7.681600 0.562800
7.713800 0.559700
7.745900 0.555900
7.778100 0.552100
7.810200 0.549900
7.842400 0.552200
7.874600 0.572300
7.906700 0.560800
7.938900 0.553200
7.971000 0.547900
8.003200 0.535600
8.035300 0.527300
8.067500 0.524200
8.099600 0.521200
8.131800 0.517200
8.163900 0.512300
8.196100 0.504100
8.228200 0.494300
8.260400 0.483600
8.292500 0.471900
8.324700 0.459600
8.356900 0.444600
8.389000 0.427100
8.421200 0.408000
8.453300 0.388500
8.485500 0.379400
8.517600 0.379200
8.549800 0.411700
8.581900 0.457000
8.614100 0.510000
8.646200 0.546700
8.678400 0.570800
8.710500 0.600700
8.742700 0.607400
8.774800 0.623200
8.807000 0.613700
8.839200 0.608100
8.871300 0.608500
8.903500 0.599800
8.935600 0.605700
8.967800 0.619100
8.999900 0.628500
9.032100 0.642800
9.064200 0.656000
9.096400 0.667800
9.128500 0.681100
9.160700 0.695500
9.192800 0.711700
9.225000 0.734100
9.257200 0.756700
9.289300 0.810300
9.321500 0.858100
9.353600 0.878600
9.385800 0.875100
9.417900 0.871600
9.450100 0.867000
9.482200 0.861800
9.514400 0.862300
9.546500 0.861600
9.578700 0.858800
9.610800 0.854000
9.643000 0.849100
9.675100 0.845100
9.707300 0.840900
9.739500 0.836500
9.771600 0.831800
9.803800 0.821300
9.835900 0.806000
9.868100 0.800500
9.900200 0.800800
9.932400 0.830200
9.964500 0.843900
9.996700 0.816900
10.028800 0.798700
10.061000 0.789300
10.093100 0.787900
10.125300 0.784700
10.157500 0.780100
10.189600 0.781000
10.221800 0.781500
10.253900 0.764900
10.286100 0.739500
10.318200 0.722900
10.350400 0.709800
10.382500 0.700000
10.414700 0.691800
10.446800 0.680100
10.479000 0.668800
10.511100 0.657700
10.543300 0.646500
10.575400 0.635400
10.607600 0.625300
10.639800 0.616200
10.671900 0.606500
10.704100 0.582000
10.736200 0.566200
10.768400 0.566600
10.800500 0.571000
10.832700 0.587900
10.864800 0.599900
10.897000 0.611100
10.929100 0.620500
10.961300 0.627900
10.993400 0.634000
11.025600 0.643300
11.057700 0.651700
11.089900 0.659200
11.122100 0.666000
11.154200 0.668700
11.186400 0.673800
11.218500 0.676300
11.250700 0.679200
11.282800 0.683700
11.315000 0.691500
11.347100 0.699300
11.379300 0.707300
11.411400 0.715400
11.443600 0.723800
11.475700 0.732500
11.507900 0.746900
11.540100 0.779900
11.572200 0.823500
11.604400 0.853500
11.636500 0.887600
11.668700 0.917700
11.700800 0.930100
11.733000 0.928300
11.765100 0.915400
11.797300 0.890000
11.829400 0.865100
11.861600 0.831300
11.893700 0.781900
11.925900 0.741700
11.958000 0.711600
11.990200 0.687200
12.022400 0.670600
12.054500 0.655200
12.086700 0.642000
12.118800 0.632400
12.151000 0.624500
12.183100 0.618000
12.215300 0.612300
12.247400 0.608000
12.279600 0.604600
12.311700 0.605900
12.343900 0.610000
12.376000 0.616100
12.408200 0.623400
12.440400 0.634900
12.472500 0.650200
12.504700 0.667700
12.536800 0.686500
12.569000 0.710500
12.601100 0.733300
12.633300 0.747300
12.665400 0.759400
12.697600 0.769900
12.729700 0.779000
12.761900 0.786900
12.794000 0.794800
12.826200 0.801500
12.858300 0.802900
12.890500 0.801700
12.922700 0.798300
12.954800 0.792000
12.987000 0.785700
13.019100 0.780300
13.051300 0.777300
13.083400 0.776700
13.115600 0.763300
13.147700 0.761000
13.179900 0.758500
13.212000 0.756100
13.244200 0.754400
13.276300 0.753100
13.308500 0.751900
13.340600 0.754700
13.372800 0.745200
13.405000 0.741800
13.437100 0.738400
13.469300 0.734600
13.501400 0.730300
13.533600 0.723300
13.565700 0.717500
13.597900 0.711400
13.630000 0.706300
13.662200 0.701100
13.694300 0.695000
13.726500 0.676900
13.758600 0.669100
13.790800 0.663200
13.823000 0.658900
13.855100 0.655100
13.887300 0.651600
13.919400 0.648400
13.951600 0.645800
13.983700 0.644100
14.015900 0.643200
14.048000 0.642800
14.080200 0.641300
14.112300 0.641200
14.144500 0.642500
14.176600 0.645400
14.208800 0.650300
14.240900 0.657100
14.273100 0.665600
14.305300 0.674600
14.337400 0.688900
14.369600 0.689300
14.401700 0.691000
14.433900 0.693900
14.466000 0.697600
14.498200 0.704900
14.530300 0.714700
14.562500 0.726700
14.594600 0.740700
14.626800 0.791200
14.658900 0.754800
14.691100 0.758800
14.723200 0.765800
14.755400 0.784000
14.787600 0.789000
14.819700 0.780400
14.851900 0.785200
14.884000 0.794600
14.916200 0.807200
14.948300 0.819100
14.980500 0.830100
15.012600 0.840600
15.044800 0.858100
15.076900 0.878500
15.109100 0.887400
15.141200 0.885700
15.173400 0.880600
15.205600 0.873500
15.237700 0.865700
15.269900 0.859300
15.302000 0.855500
15.334200 0.855800
15.366300 0.857700
15.398500 0.864800
15.430600 0.870800
15.462800 0.879900
15.494900 0.885500
15.527100 0.886800
15.559200 0.885400
15.591400 0.884100
15.623500 0.881700
15.655700 0.879600
15.687900 0.870800
15.720000 0.870300
15.752200 0.871600
15.784300 0.875200
15.816500 0.885600
15.848600 0.878000
15.880800 0.880700
15.912900 0.888100
15.945100 0.897000
15.977200 0.898400
16.009400 0.890900
16.041500 0.878200
16.073700 0.867800
16.105900 0.860100
16.138000 0.859600
16.170200 0.856400
16.202300 0.849200
16.234500 0.847000
16.266600 0.847000
16.298800 0.859000
16.330900 0.893600
16.363100 0.920900
16.395200 0.943300
16.427400 0.965200
16.459500 0.990700
16.491700 1.009000
16.523800 1.022000
16.556000 1.026100
16.588200 1.028800
16.620300 1.031200
16.652500 1.032700
16.684600 1.034100
16.716800 1.035100
16.748900 1.038300
16.781100 1.045900
16.813200 1.068300
16.845400 1.073900
16.877500 1.057800
16.909700 1.066400
16.941800 1.071100
16.974000 1.073500
17.006100 1.085100
17.038300 1.086800
17.070500 1.088400
17.102600 1.090700
17.134800 1.093100
17.166900 1.099400
17.199100 1.105700
17.231200 1.104800
17.263400 1.107700
17.295500 1.111900
17.327700 1.117300
17.359800 1.122500
17.392000 1.118700
17.424100 1.118600
17.456300 1.147200
17.488500 1.160800
17.520600 1.168500
17.552800 1.175100
17.584900 1.184100
17.617100 1.185100
17.649200 1.168500
17.681400 1.151500
17.713500 1.142900
17.745700 1.137100
17.777800 1.133200
17.810000 1.131200
17.842100 1.129900
17.874300 1.130000
17.906400 1.131200
17.938600 1.133800
17.970800 1.135000
18.002900 1.136200
18.035100 1.140900
18.067200 1.147900
18.099400 1.154400
18.131500 1.165400
18.163700 1.140600
18.195800 1.160700
18.228000 1.179500
18.260100 1.228600
18.292300 1.340400
18.324400 1.380600
18.356600 1.395900
18.388800 1.394700
18.420900 1.396300
18.453100 1.397100
18.485200 1.398800
18.517400 1.399700
18.549500 1.400000
18.581700 1.398400
18.613800 1.394500
18.646000 1.389300
18.678100 1.381400
18.710300 1.363900
18.742400 1.351600
18.774600 1.343600
18.806700 1.340200
18.838900 1.345500
18.871100 1.352400
18.903200 1.356400
18.935400 1.348900
18.967500 1.340600
18.999700 1.332600
19.031800 1.324300
19.064000 1.316800
19.096100 1.312500
19.128300 1.309400
19.160400 1.299100
19.192600 1.288900
19.224700 1.282400
19.256900 1.276800
19.289000 1.273100
19.321200 1.270100
19.353400 1.270400
19.385500 1.268900
19.417700 1.266700
19.449800 1.264100
19.482000 1.267500
19.514100 1.270900
19.546300 1.265300
19.578400 1.260100
19.610600 1.255400
19.642700 1.251200
19.674900 1.247900
19.707000 1.244800
19.739200 1.241300
19.771400 1.238200
19.803500 1.243200
19.835700 1.250800
19.867800 1.261500
19.900000 1.262500
19.932100 1.266000
19.964300 1.267100
19.996400 1.253200
20.028600 1.262500
20.060700 1.269200
20.092900 1.273900
20.125000 1.286800
20.157200 1.287500
20.189300 1.260600
20.221500 1.237200
20.253700 1.223000
20.285800 1.302100
20.318000 1.282500
20.350100 1.157100
20.382300 1.136300
20.414400 1.116200
20.446600 1.096600
20.478700 1.069100
20.510900 1.041200
20.543000 1.027100
20.575200 1.016700
20.607300 1.011900
20.639500 0.977400
20.671700 0.961200
20.703800 0.945700
20.736000 0.931900
20.768100 0.920000
20.800300 0.916100
20.832400 0.914100
20.864600 0.912900
20.896700 0.911300
20.928900 0.909300
20.961000 0.907300
20.993200 0.907600
21.025300 0.915800
21.057500 0.936200
21.089600 0.953600
21.121800 0.967600
21.154000 0.979500
21.186100 0.988800
21.218300 0.995000
21.250400 1.008300
21.282600 1.012100
21.314700 1.016800
21.346900 1.023700
21.379000 1.031600
21.411200 1.038100
21.443300 1.073200
21.475500 1.070500
21.507600 1.074100
21.539800 1.076900
21.571900 1.092200
21.604100 1.098800
21.636300 1.096100
21.668400 1.095000
21.700600 1.097100
21.732700 1.098500
21.764900 1.177700
21.797000 1.161300
21.829200 1.149300
21.861300 1.138900
21.893500 1.151600
21.925600 1.200100
21.957800 1.238700
21.989900 1.256100
22.022100 1.268700
22.054300 1.277900
22.086400 1.288900
22.118600 1.302200
22.150700 1.310900
22.182900 1.327400
22.215000 1.380600
22.247200 1.329800
22.279300 1.375800
22.311500 1.407900
22.343600 1.414500
22.375800 1.418600
22.407900 1.413500
22.440100 1.416500
22.472200 1.432700
22.504400 1.441000
22.536600 1.443500
22.568700 1.468600
22.600900 1.437400
22.633000 1.392500
22.665200 1.372400
22.697300 1.393300
22.729500 1.374700
22.761600 1.369600
22.793800 1.322400
22.825900 1.275500
22.858100 1.232500
22.890200 1.154800
22.922400 1.127400
22.954600 1.105200
22.986700 1.086100
23.018900 1.065500
23.051000 1.053200
23.083200 1.046200
23.115300 1.036000
23.147500 1.021800
23.179600 1.011000
23.211800 0.998200
23.243900 0.981900
23.276100 0.969600
23.308200 0.959000
23.340400 0.954400
23.372500 0.961800
23.404700 0.959100
23.436900 0.939200
23.469000 0.927800
23.501200 0.917500
23.533300 0.909400
23.565500 0.901000
23.597600 0.900200
23.629800 0.904100
23.661900 0.911200
23.694100 0.921300
23.726200 0.934500
23.758400 0.951000
23.790500 0.969900
23.822700 0.991400
23.854800 1.012200
23.887000 1.029200
23.919200 1.047100
23.951300 1.062800
23.983500 1.075300
24.015600 1.078600
24.047800 1.076200
24.079900 1.060600
24.112100 1.029500
24.144200 1.008900
24.176400 0.993300
24.208500 0.987500
24.240700 0.993900
24.272800 1.004700
24.305000 1.045800
24.337200 1.084100
24.369300 1.105600
24.401500 1.112600
24.433600 1.125800
24.465800 1.140300
24.497900 1.155800
24.530100 1.164500
24.562200 1.179200
24.594400 1.199900
24.626500 1.222500
24.658700 1.227300
24.690800 1.201100
24.723000 1.138800
24.755100 1.111600
24.787300 1.094400
24.819500 1.086100
24.851600 1.081800
24.883800 1.101800
24.915900 1.151000
24.948100 1.186400
24.980200 1.203000
25.012400 1.214100
25.044500 1.228500
25.076700 1.272000
25.108800 1.298600
25.141000 1.314400
25.173100 1.319400
25.205300 1.290700
25.237500 1.254700
25.269600 1.208700
25.301800 1.209100
25.333900 1.092700
25.366100 1.065200
25.398200 1.046800
25.430400 1.028400
25.462500 1.010100
25.494700 0.993200
25.526800 0.981700
25.559000 0.975900
25.591100 0.976800
25.623300 0.990100
25.655400 1.014400
25.687600 1.049200
25.719800 1.136000
25.751900 1.128500
25.784100 1.082100
25.816200 1.061700
25.848400 1.050700
25.880500 1.043900
25.912700 1.042500
25.944800 1.049700
25.977000 1.064600
26.009100 1.081400
26.041300 1.104300
26.073400 1.143500
26.105600 1.172300
26.137700 1.207400
26.169900 1.235800
26.202100 1.242300
26.234200 1.264400
26.266400 1.259400
26.298500 1.268300
26.330700 1.275600
26.362800 1.275400
26.395000 1.281100
26.427100 1.286300
26.459300 1.289500
26.491400 1.290000
26.523600 1.283100
26.555700 1.268500
26.587900 1.253600
26.620100 1.241500
26.652200 1.230000
26.684400 1.211400
