set title 'mp-1228806 - Density of States'
set xlabel 'Energy (eV)'
set ylabel 'DOS (states/eV)'
set grid
set xrange [-10:10]
set yrange [0:1.985]
set xzeroaxis lt -1
set terminal png size 800,600
set output 'mp-1228806_dos_gnuplot.png'
plot '-' using 1:2 with lines title 'DOS'
-7.499200 0.000000
-7.467500 0.000000
-7.435800 0.000000
-7.404100 0.000000
-7.372400 0.000000
-7.340700 0.000000
-7.308900 0.000000
-7.277200 0.000000
-7.245500 0.000000
-7.213800 0.000000
-7.182100 0.000000
-7.150400 0.000000
-7.118600 0.000000
-7.086900 0.000000
-7.055200 0.000000
-7.023500 0.000000
-6.991800 0.000000
-6.960100 0.000000
-6.928400 0.000000
-6.896600 0.000000
-6.864900 0.000000
-6.833200 0.000000
-6.801500 0.000000
-6.769800 0.000000
-6.738100 0.000000
-6.706300 0.000000
-6.674600 0.000000
-6.642900 0.000000
-6.611200 0.000000
-6.579500 0.000000
-6.547800 0.000000
-6.516000 0.000000
-6.484300 0.000000
-6.452600 0.000000
-6.420900 0.000000
-6.389200 0.000000
-6.357500 0.000000
-6.325700 0.000000
-6.294000 0.000000
-6.262300 0.000000
-6.230600 0.000000
-6.198900 0.000000
-6.167200 0.000000
-6.135400 0.000000
-6.103700 0.000000
-6.072000 0.000000
-6.040300 0.000000
-6.008600 0.000000
-5.976900 0.000000
-5.945100 0.000000
-5.913400 0.000000
-5.881700 0.000000
-5.850000 0.000000
-5.818300 0.000000
-5.786600 0.000000
-5.754900 0.000000
-5.723100 0.000000
-5.691400 0.000000
-5.659700 0.000000
-5.628000 0.000000
-5.596300 0.000000
-5.564600 0.000000
-5.532800 0.000000
-5.501100 0.000000
-5.469400 0.000000
-5.437700 0.000000
-5.406000 0.000000
-5.374300 0.000000
-5.342500 0.000000
-5.310800 0.000000
-5.279100 0.000000
-5.247400 0.000000
-5.215700 0.000000
-5.184000 0.000000
-5.152200 0.000000
-5.120500 0.000000
-5.088800 0.000000
-5.057100 0.000000
-5.025400 0.000000
-4.993700 0.000000
-4.961900 0.000000
-4.930200 0.000000
-4.898500 0.000000
-4.866800 0.000000
-4.835100 0.000000
-4.803400 0.000000
-4.771600 0.000000
-4.739900 0.000000
-4.708200 0.000000
-4.676500 0.000000
-4.644800 0.000000
-4.613100 0.000100
-4.581300 0.019200
-4.549600 0.069400
-4.517900 0.108800
-4.486200 0.117500
-4.454500 0.139300
-4.422800 0.159800
-4.391100 0.167500
-4.359300 0.184700
-4.327600 0.196300
-4.295900 0.210300
-4.264200 0.225900
-4.232500 0.239700
-4.200800 0.252200
-4.169000 0.261400
-4.137300 0.269700
-4.105600 0.276300
-4.073900 0.286200
-4.042200 0.297200
-4.010500 0.309300
-3.978700 0.321600
-3.947000 0.333100
-3.915300 0.344500
-3.883600 0.354800
-3.851900 0.365900
-3.820200 0.375000
-3.788400 0.385200
-3.756700 0.395200
-3.725000 0.405400
-3.693300 0.415800
-3.661600 0.425800
-3.629900 0.437500
-3.598100 0.449400
-3.566400 0.462100
-3.534700 0.475800
-3.503000 0.490700
-3.471300 0.506700
-3.439600 0.522800
-3.407800 0.539200
-3.376100 0.556600
-3.344400 0.575300
-3.312700 0.595100
-3.281000 0.616000
-3.249300 0.701800
-3.217500 0.732600
-3.185800 0.735300
-3.154100 0.721700
-3.122400 0.716400
-3.090700 0.714000
-3.059000 0.713800
-3.027300 0.711300
-2.995500 0.711200
-2.963800 0.710800
-2.932100 0.703600
-2.900400 0.693200
-2.868700 0.692400
-2.837000 0.690000
-2.805200 0.687900
-2.773500 0.687700
-2.741800 0.686300
-2.710100 0.684600
-2.678400 0.682700
-2.646700 0.682700
-2.614900 0.680700
-2.583200 0.678200
-2.551500 0.675500
-2.519800 0.672800
-2.488100 0.669200
-2.456400 0.666200
-2.424600 0.663900
-2.392900 0.667800
-2.361200 0.667400
-2.329500 0.664900
-2.297800 0.660100
-2.266100 0.655600
-2.234300 0.654000
-2.202600 0.650400
-2.170900 0.619800
-2.139200 0.601700
-2.107500 0.591600
-2.075800 0.583800
-2.044000 0.576200
-2.012300 0.568500
-1.980600 0.562100
-1.948900 0.557000
-1.917200 0.550500
-1.885500 0.548700
-1.853800 0.547300
-1.822000 0.546000
-1.790300 0.545300
-1.758600 0.546100
-1.726900 0.547400
-1.695200 0.549400
-1.663500 0.552300
-1.631700 0.555700
-1.600000 0.560200
-1.568300 0.566400
-1.536600 0.574200
-1.504900 0.583600
-1.473200 0.596100
-1.441400 0.611800
-1.409700 0.630200
-1.378000 0.649700
-1.346300 0.676900
-1.314600 0.711600
-1.282900 0.752900
-1.251100 0.813100
-1.219400 0.892200
-1.187700 0.963900
-1.156000 1.024600
-1.124300 1.040600
-1.092600 1.201100
-1.060800 1.175700
-1.029100 0.684100
-0.997400 0.419300
-0.965700 0.093600
-0.934000 0.034500
-0.902300 0.000000
-0.870500 0.000000
-0.838800 0.000000
-0.807100 0.000000
-0.775400 0.000000
-0.743700 0.000000
-0.712000 0.000000
-0.680200 0.000000
-0.648500 0.000000
-0.616800 0.000000
-0.585100 0.000000
-0.553400 0.000000
-0.521700 0.000000
-0.490000 0.000000
-0.458200 0.000000
-0.426500 0.000000
-0.394800 0.000000
-0.363100 0.000000
-0.331400 0.000000
-0.299700 0.000000
-0.267900 0.000000
-0.236200 0.000000
-0.204500 0.000000
-0.172800 0.000000
-0.141100 0.077700
-0.109400 0.072900
-0.077600 0.091300
-0.045900 0.107200
-0.014200 0.120800
0.017500 0.133600
0.049200 0.147000
0.080900 0.162500
0.112700 0.181400
0.144400 0.195700
0.176100 0.208000
0.207800 0.207000
0.239500 0.211100
0.271200 0.221200
0.303000 0.230200
0.334700 0.238400
0.366400 0.245700
0.398100 0.253300
0.429800 0.261700
0.461500 0.270200
0.493300 0.278600
0.525000 0.288500
0.556700 0.299000
0.588400 0.309700
0.620100 0.320600
0.651800 0.330200
0.683600 0.337400
0.715300 0.343000
0.747000 0.349300
0.778700 0.355500
0.810400 0.361700
0.842100 0.369500
0.873800 0.378200
0.905600 0.388400
0.937300 0.397300
0.969000 0.406500
1.000700 0.416000
1.032400 0.425600
1.064100 0.435500
1.095900 0.445600
1.127600 0.455600
1.159300 0.475200
1.191000 0.493800
1.222700 0.512000
1.254400 0.534300
1.286200 0.555200
1.317900 0.570800
1.349600 0.584300
1.381300 0.595100
1.413000 0.598400
1.444700 0.591200
1.476500 0.576500
1.508200 0.577200
1.539900 0.578200
1.571600 0.578900
1.603300 0.579300
1.635000 0.595600
1.666800 0.587300
1.698500 0.577200
1.730200 0.578000
1.761900 0.578800
1.793600 0.591300
1.825300 0.587700
1.857100 0.581100
1.888800 0.601300
1.920500 0.708400
1.952200 0.765500
1.983900 0.815100
2.015600 0.878200
2.047400 0.958200
2.079100 1.033600
2.110800 1.143600
2.142500 1.254500
2.174200 1.402200
2.205900 1.457000
2.237600 1.449800
2.269400 1.443200
2.301100 1.472700
2.332800 1.375800
2.364500 1.295500
2.396200 1.249200
2.427900 1.173500
2.459700 1.035100
2.491400 0.950100
2.523100 0.828800
2.554800 0.761400
2.586500 0.722700
2.618200 0.712000
2.650000 0.650900
2.681700 0.618300
2.713400 0.601600
2.745100 0.595900
2.776800 0.589100
2.808500 0.571800
2.840300 0.552700
2.872000 0.539400
2.903700 0.527400
2.935400 0.520800
2.967100 0.517200
2.998800 0.742500
3.030600 0.557800
3.062300 0.580500
3.094000 0.609700
3.125700 0.643000
3.157400 0.678600
3.189100 0.717000
3.220900 0.758000
3.252600 0.751700
3.284300 0.839600
3.316000 0.777100
3.347700 0.789500
3.379400 0.802100
3.411100 0.819900
3.442900 0.841400
3.474600 0.864100
3.506300 0.919600
3.538000 0.943800
3.569700 0.951500
3.601400 0.948200
3.633200 0.933800
3.664900 0.925700
3.696600 0.915700
3.728300 0.911500
3.760000 0.904300
3.791700 0.917400
3.823500 0.918400
3.855200 0.919700
3.886900 0.917500
3.918600 0.912500
3.950300 0.907000
3.982000 0.901900
4.013800 0.897300
4.045500 0.890300
4.077200 0.876100
4.108900 0.879400
4.140600 0.905500
4.172300 0.912600
4.204100 0.916200
4.235800 0.921400
4.267500 0.927600
4.299200 0.933900
4.330900 0.943500
4.362600 0.957700
4.394400 0.959000
4.426100 0.965600
4.457800 0.979100
4.489500 0.982800
4.521200 0.994300
4.552900 0.989400
4.584700 0.991500
4.616400 1.002000
4.648100 1.000100
4.679800 1.004900
4.711500 1.009700
4.743200 1.016100
4.774900 1.023000
4.806700 1.029200
4.838400 1.031200
4.870100 1.037400
4.901800 1.043800
4.933500 1.051300
4.965200 1.063100
4.997000 1.082400
5.028700 1.105600
5.060400 1.146900
5.092100 1.164100
5.123800 1.167300
5.155500 1.179600
5.187300 1.199400
5.219000 1.222700
5.250700 1.245800
5.282400 1.276800
5.314100 1.315900
5.345800 1.367400
5.377600 1.504500
5.409300 1.561900
5.441000 1.600900
5.472700 1.674200
5.504400 1.782300
5.536100 1.804300
5.567900 1.582400
5.599600 1.537000
5.631300 1.498200
5.663000 1.486000
5.694700 1.428800
5.726400 1.406800
5.758200 1.389300
5.789900 1.360100
5.821600 1.347300
5.853300 1.302100
5.885000 1.224600
5.916700 1.144800
5.948500 1.079300
5.980200 1.022000
6.011900 0.981200
6.043600 0.966800
6.075300 0.937200
6.107000 0.893700
6.138700 0.847500
6.170500 0.833300
6.202200 0.824300
6.233900 0.811400
6.265600 0.788900
6.297300 0.764100
6.329000 0.729900
6.360800 0.718400
6.392500 0.700800
6.424200 0.687900
6.455900 0.676600
6.487600 0.667700
6.519300 0.663500
6.551100 0.662100
6.582800 0.663900
6.614500 0.663300
6.646200 0.664000
6.677900 0.666600
6.709600 0.670800
6.741400 0.675700
6.773100 0.695600
6.804800 0.679700
6.836500 0.664800
6.868200 0.650100
6.899900 0.643800
6.931700 0.649000
6.963400 0.661300
6.995100 0.676500
7.026800 0.694000
7.058500 0.712500
7.090200 0.730700
7.122000 0.749000
7.153700 0.759200
7.185400 0.759200
7.217100 0.760900
7.248800 0.762900
7.280500 0.769700
7.312300 0.781800
7.344000 0.784500
7.375700 0.807900
7.407400 0.837200
7.439100 0.853900
7.470800 0.845300
7.502500 0.824800
7.534300 0.825300
7.566000 0.836400
7.597700 0.882400
7.629400 0.895400
7.661100 0.867800
7.692800 0.831300
7.724600 0.820800
7.756300 0.816500
7.788000 0.818200
7.819700 0.841500
7.851400 0.840400
7.883100 0.826100
7.914900 0.814000
7.946600 0.813800
7.978300 0.813900
8.010000 0.814200
8.041700 0.822500
8.073400 0.827500
8.105200 0.835300
8.136900 0.846500
8.168600 0.866600
8.200300 0.905700
8.232000 0.907700
8.263700 0.913100
8.295500 0.925000
8.327200 0.945400
8.358900 0.982400
8.390600 0.998100
8.422300 1.006600
8.454000 1.008100
8.485800 1.007500
8.517500 1.008500
8.549200 1.009700
8.580900 1.016100
8.612600 1.028200
8.644300 1.037000
8.676000 1.043800
8.707800 1.064000
8.739500 1.079400
8.771200 1.084100
8.802900 1.090700
8.834600 1.101100
8.866300 1.121200
8.898100 1.099300
8.929800 1.046100
8.961500 1.048900
8.993200 1.041300
9.024900 1.013000
9.056600 0.993300
9.088400 0.971200
9.120100 0.953900
9.151800 0.936600
9.183500 0.927200
9.215200 0.931600
9.246900 0.935100
9.278700 0.941000
9.310400 0.958200
9.342100 0.982700
9.373800 0.985600
9.405500 0.989700
9.437200 0.964900
9.469000 0.940800
9.500700 0.945800
9.532400 0.995900
9.564100 1.009800
9.595800 1.021200
9.627500 1.014700
9.659300 1.027700
9.691000 1.054700
9.722700 1.070300
9.754400 1.103600
9.786100 1.144700
9.817800 1.168300
9.849600 1.173500
9.881300 1.174700
9.913000 1.179500
9.944700 1.206400
9.976400 1.234600
10.008100 1.278000
10.039800 1.290500
10.071600 1.303000
10.103300 1.305200
10.135000 1.305000
10.166700 1.309300
10.198400 1.337000
10.230100 1.374000
10.261900 1.404200
10.293600 1.431300
10.325300 1.426200
10.357000 1.380600
10.388700 1.362200
10.420400 1.349700
10.452200 1.347200
10.483900 1.281600
10.515600 1.265900
10.547300 1.259000
10.579000 1.254600
10.610700 1.281300
10.642500 1.236800
10.674200 1.217600
10.705900 1.211800
10.737600 1.217400
10.769300 1.233700
10.801000 1.251800
10.832800 1.255000
10.864500 1.244700
10.896200 1.239900
10.927900 1.232600
10.959600 1.214400
10.991300 1.147600
11.023100 1.144000
11.054800 1.153300
11.086500 1.174600
11.118200 1.207300
11.149900 1.241100
11.181600 1.272700
11.213400 1.310000
11.245100 1.334500
11.276800 1.348100
11.308500 1.346400
11.340200 1.337400
11.371900 1.333200
11.403600 1.330600
11.435400 1.331000
11.467100 1.338300
11.498800 1.363400
11.530500 1.381000
11.562200 1.377600
11.593900 1.343100
11.625700 1.340800
11.657400 1.336700
11.689100 1.326300
11.720800 1.320700
11.752500 1.318200
11.784200 1.320300
11.816000 1.341400
11.847700 1.356600
11.879400 1.384300
11.911100 1.427600
11.942800 1.418600
11.974500 1.483000
12.006300 1.511100
12.038000 1.485100
12.069700 1.430800
12.101400 1.419800
12.133100 1.450800
12.164800 1.484700
12.196600 1.523900
12.228300 1.556800
12.260000 1.561100
12.291700 1.579300
12.323400 1.621800
12.355100 1.603200
12.386900 1.569900
12.418600 1.525600
12.450300 1.509900
12.482000 1.492700
12.513700 1.467800
12.545400 1.427200
12.577100 1.415300
12.608900 1.413800
12.640600 1.403500
12.672300 1.377700
12.704000 1.344000
12.735700 1.315900
12.767400 1.266300
12.799200 1.249100
12.830900 1.239100
12.862600 1.231800
12.894300 1.229000
12.926000 1.232100
12.957700 1.237100
12.989500 1.244500
13.021200 1.252400
13.052900 1.269100
13.084600 1.280500
13.116300 1.285100
13.148000 1.281200
13.179800 1.303200
13.211500 1.313900
13.243200 1.307300
13.274900 1.289100
13.306600 1.275700
13.338300 1.270800
13.370100 1.271500
13.401800 1.278600
13.433500 1.290200
13.465200 1.316000
13.496900 1.333800
13.528600 1.350100
13.560400 1.374200
13.592100 1.369700
13.623800 1.355400
13.655500 1.329900
13.687200 1.301000
13.718900 1.273100
13.750700 1.246600
13.782400 1.220600
13.814100 1.194700
13.845800 1.173500
13.877500 1.154100
13.909200 1.138100
13.940900 1.125400
13.972700 1.117300
14.004400 1.118400
14.036100 1.113300
14.067800 1.110100
14.099500 1.107700
14.131200 1.106100
14.163000 1.101500
14.194700 1.113900
14.226400 1.124500
14.258100 1.135500
14.289800 1.139900
14.321500 1.141300
14.353300 1.143300
14.385000 1.144900
14.416700 1.141500
14.448400 1.164000
14.480100 1.190000
14.511800 1.210900
14.543600 1.220300
14.575300 1.185300
14.607000 1.181800
14.638700 1.176300
14.670400 1.177300
14.702100 1.176600
14.733900 1.173900
14.765600 1.168800
14.797300 1.164900
14.829000 1.166200
14.860700 1.168400
14.892400 1.243200
14.924200 1.177900
14.955900 1.157000
14.987600 1.149900
15.019300 1.146100
15.051000 1.145600
15.082700 1.147300
15.114500 1.151400
15.146200 1.156000
15.177900 1.161600
15.209600 1.169500
15.241300 1.181300
15.273000 1.197300
15.304700 1.217300
15.336500 1.250200
15.368200 1.296600
15.399900 1.310200
15.431600 1.313300
15.463300 1.318900
15.495000 1.327100
15.526800 1.335000
15.558500 1.345400
15.590200 1.361600
15.621900 1.373500
15.653600 1.378300
15.685300 1.382600
15.717100 1.392900
15.748800 1.400500
15.780500 1.418900
15.812200 1.455000
15.843900 1.507400
15.875600 1.567600
15.907400 1.640600
15.939100 1.714700
15.970800 1.765500
16.002500 1.797800
16.034200 1.798100
16.065900 1.804200
16.097700 1.802900
16.129400 1.811200
16.161100 1.830500
16.192800 1.835000
16.224500 1.809600
16.256200 1.772500
16.288000 1.722300
16.319700 1.692700
16.351400 1.700200
16.383100 1.710500
16.414800 1.723000
16.446500 1.738700
16.478300 1.756900
16.510000 1.774200
16.541700 1.774600
16.573400 1.768500
16.605100 1.757900
16.636800 1.751600
16.668500 1.717500
16.700300 1.887900
16.732000 1.654300
16.763700 1.615300
16.795400 1.586800
16.827100 1.576800
16.858800 1.567800
16.890600 1.577300
16.922300 1.574100
16.954000 1.573700
16.985700 1.573500
17.017400 1.571900
17.049100 1.578900
17.080900 1.608800
17.112600 1.637000
17.144300 1.670300
17.176000 1.673700
17.207700 1.668500
17.239400 1.656300
17.271200 1.633500
17.302900 1.610700
17.334600 1.581800
17.366300 1.558000
17.398000 1.529700
17.429700 1.483600
17.461500 1.454700
17.493200 1.432100
17.524900 1.444600
17.556600 1.488500
17.588300 1.534100
17.620000 1.574300
17.651800 1.608800
17.683500 1.624900
17.715200 1.608000
17.746900 1.567600
17.778600 1.551200
17.810300 1.533300
17.842000 1.505600
17.873800 1.467000
17.905500 1.444300
17.937200 1.436100
17.968900 1.446800
18.000600 1.470500
18.032300 1.472400
18.064100 1.455200
18.095800 1.456700
18.127500 1.443100
18.159200 1.442500
18.190900 1.443100
18.222600 1.435500
18.254400 1.415100
18.286100 1.396000
18.317800 1.389000
18.349500 1.387500
18.381200 1.397400
18.412900 1.417400
18.444700 1.436300
18.476400 1.538700
18.508100 1.451200
18.539800 1.465000
18.571500 1.481300
18.603200 1.498400
18.635000 1.514100
18.666700 1.538000
18.698400 1.586000
18.730100 1.657800
18.761800 1.729500
18.793500 1.647800
18.825300 1.620800
18.857000 1.619300
18.888700 1.627500
18.920400 1.638700
18.952100 1.719100
18.983800 1.662200
19.015600 1.685900
19.047300 1.697700
19.079000 1.701300
19.110700 1.715400
19.142400 1.747000
19.174100 1.803700
19.205800 1.872100
19.237600 1.807100
19.269300 1.800000
19.301000 1.788800
19.332700 1.791100
19.364400 1.802500
19.396100 1.835000
19.427900 1.852100
19.459600 1.971400
19.491300 1.998900
19.523000 2.054300
19.554700 2.108200
19.586400 2.143700
19.618200 2.077300
19.649900 1.963000
19.681600 1.838600
19.713300 1.742000
19.745000 1.700100
19.776700 1.673300
19.808500 1.667200
19.840200 1.667400
19.871900 1.656100
19.903600 1.685200
19.935300 1.679800
19.967000 1.699200
19.998800 1.716100
20.030500 1.737300
20.062200 1.681200
20.093900 1.645700
20.125600 1.572000
20.157300 1.529700
20.189100 1.494700
20.220800 1.450500
20.252500 1.407700
20.284200 1.369800
20.315900 1.347600
20.347600 1.321000
20.379400 1.305400
20.411100 1.300500
20.442800 1.336400
20.474500 1.391000
20.506200 1.459500
20.537900 1.474000
20.569600 1.523100
20.601400 1.632400
20.633100 1.714900
20.664800 1.788800
20.696500 1.854900
20.728200 1.903800
20.759900 1.945400
20.791700 1.865600
20.823400 1.785700
20.855100 1.750000
20.886800 1.722600
20.918500 1.703300
20.950200 1.686000
20.982000 1.668000
21.013700 1.664200
21.045400 1.664900
21.077100 1.691100
21.108800 1.723400
21.140500 1.789900
21.172300 1.794800
21.204000 1.793600
21.235700 1.819900
21.267400 1.914000
21.299100 1.935400
21.330800 1.936000
21.362600 1.937500
21.394300 1.962600
21.426000 1.927500
21.457700 1.934400
21.489400 1.886100
21.521100 1.865300
21.552900 1.765000
21.584600 1.712700
21.616300 1.643500
21.648000 1.599200
21.679700 1.578400
21.711400 1.591800
21.743100 1.640200
21.774900 1.721900
21.806600 1.752700
21.838300 1.768600
21.870000 1.772700
21.901700 1.795900
21.933400 1.802200
21.965200 1.836800
21.996900 1.845000
22.028600 1.855300
22.060300 1.902500
22.092000 1.931400
22.123700 1.938900
22.155500 1.947300
22.187200 1.960100
22.218900 1.975200
22.250600 1.972700
22.282300 1.957600
22.314000 1.938100
22.345800 1.949400
22.377500 1.961000
22.409200 1.977200
22.440900 2.034300
22.472600 2.173300
22.504300 2.195300
22.536100 2.251600
22.567800 2.248900
22.599500 2.214500
22.631200 2.194000
22.662900 2.167700
22.694600 2.091800
22.726400 2.047500
22.758100 2.012900
22.789800 1.971400
22.821500 1.978800
22.853200 2.016400
22.884900 2.006000
22.916700 1.991900
22.948400 1.982500
22.980100 1.987800
23.011800 2.027000
23.043500 2.179200
23.075200 2.193600
23.106900 2.169600
23.138700 2.145400
23.170400 2.255300
23.202100 2.273800
23.233800 2.251800
23.265500 2.215700
23.297200 2.116800
23.329000 2.111000
23.360700 2.106200
23.392400 2.079200
23.424100 2.007000
23.455800 1.982100
23.487500 1.972100
23.519300 1.973800
23.551000 2.022000
23.582700 2.040100
23.614400 2.001500
23.646100 2.016600
23.677800 2.026300
23.709600 2.025000
23.741300 2.059200
23.773000 2.006900
23.804700 1.988600
23.836400 1.978100
23.868100 1.972000
23.899900 1.969400
23.931600 1.989200
23.963300 1.994800
23.995000 1.985000
24.026700 1.992900
24.058400 2.005500
24.090200 2.015700
24.121900 2.007900
24.153600 1.992500
24.185300 1.986900
24.217000 2.000200
24.248700 2.009700
24.280500 2.036500
24.312200 2.077900
24.343900 2.071500
24.375600 2.060300
24.407300 2.037300
24.439000 2.000400
24.470700 1.972100
24.502500 1.957000
24.534200 1.960400
24.565900 1.956900
24.597600 1.978100
24.629300 1.937800
24.661000 1.938700
24.692800 1.960400
24.724500 2.015000
24.756200 2.062200
24.787900 2.092400
24.819600 2.118000
24.851300 2.137500
24.883100 2.144900
24.914800 2.155000
24.946500 2.168700
24.978200 2.167900
25.009900 2.134000
25.041600 2.047800
25.073400 2.034100
25.105100 2.014600
25.136800 2.010200
25.168500 2.039700
25.200200 2.091000
25.231900 2.129200
25.263700 2.140100
25.295400 2.127200
25.327100 2.145100
25.358800 2.135400
25.390500 2.087500
25.422200 2.081200
25.454000 2.083900
25.485700 2.084900
25.517400 2.068300
25.549100 2.051700
25.580800 2.040400
25.612500 2.065800
25.644300 2.110700
25.676000 2.161400
25.707700 2.211000
25.739400 2.264200
25.771100 2.333000
25.802800 2.377400
25.834500 2.383600
25.866300 2.403500
25.898000 2.436900
