set title 'mp-19177 - Density of States'
set xlabel 'Energy (eV)'
set ylabel 'DOS (states/eV)'
set grid
set xrange [-10:10]
set yrange [0:5.471]
set xzeroaxis lt -1
set terminal png size 800,600
set output 'mp-19177_dos_gnuplot.png'
plot '-' using 1:2 with lines title 'DOS'
-47.349200 0.000000
-47.282800 0.000000
-47.216500 0.000000
-47.150100 0.000000
-47.083700 0.000000
-47.017300 0.000000
-46.951000 0.000000
-46.884600 0.000000
-46.818200 0.000000
-46.751900 0.000000
-46.685500 0.000000
-46.619100 0.000000
-46.552700 0.000000
-46.486400 0.000000
-46.420000 0.000000
-46.353600 0.000000
-46.287200 0.000000
-46.220900 0.000000
-46.154500 0.000000
-46.088100 0.000000
-46.021800 0.000000
-45.955400 0.000000
-45.889000 0.000000
-45.822600 0.000000
-45.756300 0.000000
-45.689900 0.000000
-45.623500 0.000000
-45.557100 0.000000
-45.490800 0.000000
-45.424400 0.000000
-45.358000 0.000000
-45.291700 0.000000
-45.225300 0.000000
-45.158900 0.000000
-45.092500 0.000000
-45.026200 0.000000
-44.959800 0.000000
-44.893400 0.000000
-44.827100 0.000000
-44.760700 0.000000
-44.694300 0.000000
-44.627900 0.000000
-44.561600 0.000000
-44.495200 0.000000
-44.428800 0.000000
-44.362400 0.000000
-44.296100 0.000000
-44.229700 0.000000
-44.163300 0.000000
-44.097000 0.000000
-44.030600 0.000000
-43.964200 0.000000
-43.897800 0.000000
-43.831500 0.000000
-43.765100 0.000000
-43.698700 0.000000
-43.632300 0.000000
-43.566000 0.000000
-43.499600 0.000000
-43.433200 0.000000
-43.366900 0.000000
-43.300500 0.000000
-43.234100 0.000000
-43.167700 0.000000
-43.101400 0.000000
-43.035000 0.000000
-42.968600 0.000000
-42.902200 0.000000
-42.835900 0.000000
-42.769500 0.000000
-42.703100 0.000000
-42.636800 0.000000
-42.570400 0.000000
-42.504000 0.000000
-42.437600 0.000000
-42.371300 0.000000
-42.304900 0.000000
-42.238500 0.000000
-42.172100 0.000000
-42.105800 0.000000
-42.039400 0.000000
-41.973000 0.000000
-41.906700 0.000000
-41.840300 0.000000
-41.773900 0.000000
-41.707500 0.000000
-41.641200 0.000000
-41.574800 0.000000
-41.508400 0.000000
-41.442100 0.000000
-41.375700 0.000000
-41.309300 0.000000
-41.242900 0.000000
-41.176600 0.000000
-41.110200 0.000000
-41.043800 0.000000
-40.977400 0.000000
-40.911100 0.000000
-40.844700 0.000000
-40.778300 0.000000
-40.712000 0.000000
-40.645600 0.000000
-40.579200 0.000000
-40.512800 0.000000
-40.446500 0.000000
-40.380100 0.000000
-40.313700 0.000000
-40.247300 10.254200
-40.181000 30.806600
-40.114600 0.000000
-40.048200 0.000000
-39.981900 0.000000
-39.915500 0.000000
-39.849100 0.000000
-39.782700 0.000000
-39.716400 0.000000
-39.650000 0.000000
-39.583600 0.000000
-39.517200 0.000000
-39.450900 0.000000
-39.384500 0.000000
-39.318100 0.000000
-39.251800 0.000000
-39.185400 0.000000
-39.119000 0.000000
-39.052600 0.000000
-38.986300 0.000000
-38.919900 0.000000
-38.853500 0.000000
-38.787200 0.000000
-38.720800 0.000000
-38.654400 0.000000
-38.588000 0.000000
-38.521700 0.000000
-38.455300 0.000000
-38.388900 0.000000
-38.322500 0.000000
-38.256200 0.000000
-38.189800 0.000000
-38.123400 0.000000
-38.057100 0.000000
-37.990700 0.000000
-37.924300 0.000000
-37.857900 0.000000
-37.791600 0.000000
-37.725200 0.000000
-37.658800 0.000000
-37.592400 0.000000
-37.526100 0.000000
-37.459700 0.000000
-37.393300 0.000000
-37.327000 0.000000
-37.260600 0.000000
-37.194200 0.000000
-37.127800 0.000000
-37.061500 0.000000
-36.995100 0.000000
-36.928700 0.000000
-36.862300 0.000000
-36.796000 0.000000
-36.729600 0.000000
-36.663200 0.000000
-36.596900 0.000000
-36.530500 0.000000
-36.464100 0.000000
-36.397700 0.000000
-36.331400 0.000000
-36.265000 0.000000
-36.198600 0.000000
-36.132200 0.000000
-36.065900 0.000000
-35.999500 0.000000
-35.933100 0.000000
-35.866800 0.000000
-35.800400 0.000000
-35.734000 0.000000
-35.667600 0.000000
-35.601300 0.000000
-35.534900 0.000000
-35.468500 0.000000
-35.402200 0.000000
-35.335800 0.000000
-35.269400 0.000000
-35.203000 0.000000
-35.136700 0.000000
-35.070300 0.000000
-35.003900 0.000000
-34.937500 0.000000
-34.871200 0.000000
-34.804800 0.000000
-34.738400 0.000000
-34.672100 0.000000
-34.605700 0.000000
-34.539300 0.000000
-34.472900 0.000000
-34.406600 0.000000
-34.340200 0.000000
-34.273800 0.000000
-34.207400 0.000000
-34.141100 0.000000
-34.074700 0.000000
-34.008300 0.000000
-33.942000 0.000000
-33.875600 0.000000
-33.809200 0.000000
-33.742800 0.000000
-33.676500 0.000000
-33.610100 0.000000
-33.543700 0.000000
-33.477300 0.000000
-33.411000 0.000000
-33.344600 0.000000
-33.278200 0.000000
-33.211900 0.000000
-33.145500 0.000000
-33.079100 0.000000
-33.012700 0.000000
-32.946400 0.000000
-32.880000 0.000000
-32.813600 0.000000
-32.747300 0.000000
-32.680900 0.000000
-32.614500 0.000000
-32.548100 0.000000
-32.481800 0.000000
-32.415400 0.000000
-32.349000 0.000000
-32.282600 0.000000
-32.216300 0.000000
-32.149900 0.000000
-32.083500 0.000000
-32.017200 0.000000
-31.950800 0.000000
-31.884400 0.000000
-31.818000 0.000000
-31.751700 0.000000
-31.685300 0.000000
-31.618900 0.000000
-31.552500 0.000000
-31.486200 0.000000
-31.419800 0.000000
-31.353400 0.000000
-31.287100 0.000000
-31.220700 0.000000
-31.154300 0.000000
-31.087900 0.000000
-31.021600 0.000000
-30.955200 0.000000
-30.888800 0.000000
-30.822400 0.000000
-30.756100 0.000000
-30.689700 0.000000
-30.623300 0.000000
-30.557000 0.000000
-30.490600 0.000000
-30.424200 0.000000
-30.357800 0.000000
-30.291500 0.000000
-30.225100 0.000000
-30.158700 0.000000
-30.092300 0.000000
-30.026000 0.000000
-29.959600 0.000000
-29.893200 0.000000
-29.826900 0.000000
-29.760500 0.000000
-29.694100 0.000000
-29.627700 0.000000
-29.561400 0.000000
-29.495000 0.000000
-29.428600 0.000000
-29.362300 0.000000
-29.295900 0.000000
-29.229500 0.000000
-29.163100 0.000000
-29.096800 0.000000
-29.030400 0.000000
-28.964000 0.000000
-28.897600 0.000000
-28.831300 0.000000
-28.764900 0.000000
-28.698500 0.000000
-28.632200 0.000000
-28.565800 0.000000
-28.499400 0.000000
-28.433000 0.000000
-28.366700 0.000000
-28.300300 0.000000
-28.233900 0.000000
-28.167500 0.000000
-28.101200 0.000000
-28.034800 0.000000
-27.968400 0.000000
-27.902100 0.000000
-27.835700 0.000000
-27.769300 0.000000
-27.702900 0.000000
-27.636600 0.000000
-27.570200 0.000000
-27.503800 0.000000
-27.437400 0.000000
-27.371100 0.000000
-27.304700 0.000000
-27.238300 0.000000
-27.172000 0.000000
-27.105600 0.000000
-27.039200 0.000000
-26.972800 0.000000
-26.906500 0.000000
-26.840100 0.000000
-26.773700 0.000000
-26.707400 0.000000
-26.641000 0.000000
-26.574600 0.000000
-26.508200 0.000000
-26.441900 0.000000
-26.375500 0.000000
-26.309100 0.000000
-26.242700 0.000000
-26.176400 0.000000
-26.110000 0.000000
-26.043600 0.000000
-25.977300 0.000000
-25.910900 0.000000
-25.844500 0.000000
-25.778100 0.000000
-25.711800 0.000000
-25.645400 0.000000
-25.579000 0.000000
-25.512600 0.000000
-25.446300 0.000000
-25.379900 0.000000
-25.313500 0.000000
-25.247200 0.000000
-25.180800 0.000000
-25.114400 0.000000
-25.048000 0.000000
-24.981700 0.000000
-24.915300 0.000000
-24.848900 0.000000
-24.782500 0.000000
-24.716200 0.000000
-24.649800 0.000000
-24.583400 0.000000
-24.517100 0.000000
-24.450700 0.000000
-24.384300 0.000000
-24.317900 0.000000
-24.251600 0.000000
-24.185200 0.000000
-24.118800 0.000000
-24.052400 0.000000
-23.986100 0.000000
-23.919700 0.000000
-23.853300 0.000000
-23.787000 0.000000
-23.720600 0.000000
-23.654200 0.000000
-23.587800 0.000000
-23.521500 0.000000
-23.455100 0.000000
-23.388700 0.000000
-23.322400 0.000000
-23.256000 0.000000
-23.189600 0.000000
-23.123200 0.000000
-23.056900 0.000000
-22.990500 0.000000
-22.924100 0.000000
-22.857700 0.000000
-22.791400 0.000000
-22.725000 0.000000
-22.658600 0.000000
-22.592300 0.000000
-22.525900 0.000000
-22.459500 0.000000
-22.393100 0.000000
-22.326800 0.000000
-22.260400 0.000000
-22.194000 0.000000
-22.127600 0.000000
-22.061300 0.000000
-21.994900 0.000000
-21.928500 0.000000
-21.862200 0.000000
-21.795800 0.000000
-21.729400 0.000000
-21.663000 0.000000
-21.596700 0.000000
-21.530300 0.000000
-21.463900 0.000000
-21.397500 0.000000
-21.331200 0.000000
-21.264800 0.000000
-21.198400 0.000000
-21.132100 0.000000
-21.065700 0.000000
-20.999300 0.000000
-20.932900 0.000000
-20.866600 0.000000
-20.800200 0.000000
-20.733800 0.000000
-20.667400 0.000000
-20.601100 0.000000
-20.534700 0.000000
-20.468300 0.000000
-20.402000 0.000000
-20.335600 0.000000
-20.269200 0.000000
-20.202800 0.000000
-20.136500 0.000000
-20.070100 0.000000
-20.003700 0.000000
-19.937400 0.000000
-19.871000 0.000000
-19.804600 0.000000
-19.738200 0.000000
-19.671900 0.000000
-19.605500 0.000000
-19.539100 0.000000
-19.472700 0.000000
-19.406400 0.000000
-19.340000 0.000000
-19.273600 0.000000
-19.207300 0.000000
-19.140900 0.000000
-19.074500 0.000000
-19.008100 0.000000
-18.941800 0.000000
-18.875400 0.000000
-18.809000 0.000000
-18.742600 0.000000
-18.676300 0.000000
-18.609900 0.000000
-18.543500 0.000000
-18.477200 0.000000
-18.410800 0.000000
-18.344400 0.000000
-18.278000 0.000000
-18.211700 0.000000
-18.145300 0.000000
-18.078900 0.000000
-18.012500 0.000000
-17.946200 0.000000
-17.879800 0.000000
-17.813400 0.000000
-17.747100 0.000000
-17.680700 0.000000
-17.614300 0.000000
-17.547900 0.000000
-17.481600 0.000000
-17.415200 0.000000
-17.348800 0.000000
-17.282500 0.000000
-17.216100 0.000000
-17.149700 0.000000
-17.083300 0.000000
-17.017000 0.000000
-16.950600 0.000000
-16.884200 0.000000
-16.817800 0.000000
-16.751500 0.000000
-16.685100 0.000000
-16.618700 0.000000
-16.552400 0.000000
-16.486000 0.000000
-16.419600 0.000000
-16.353200 0.000000
-16.286900 0.000000
-16.220500 0.000000
-16.154100 0.000000
-16.087700 0.000000
-16.021400 0.000000
-15.955000 0.000000
-15.888600 0.000000
-15.822300 0.000000
-15.755900 0.000000
-15.689500 0.112100
-15.623100 0.190100
-15.556800 0.254500
-15.490400 0.317000
-15.424000 0.379800
-15.357600 0.432800
-15.291300 0.498900
-15.224900 0.564100
-15.158500 0.631300
-15.092200 0.714200
-15.025800 0.951100
-14.959400 0.974400
-14.893000 0.954300
-14.826700 0.917200
-14.760300 1.434000
-14.693900 1.431200
-14.627500 1.510000
-14.561200 1.576500
-14.494800 1.678300
-14.428400 1.813200
-14.362100 2.050800
-14.295700 2.338900
-14.229300 3.292800
-14.162900 2.334700
-14.096600 1.368900
-14.030200 8.709200
-13.963800 9.786400
-13.897500 10.271700
-13.831100 3.510300
-13.764700 0.000000
-13.698300 0.000000
-13.632000 0.000000
-13.565600 0.000000
-13.499200 0.000000
-13.432800 0.000000
-13.366500 0.000000
-13.300100 0.000000
-13.233700 0.000000
-13.167400 0.000000
-13.101000 0.000000
-13.034600 0.000000
-12.968200 0.000000
-12.901900 0.000000
-12.835500 0.000000
-12.769100 0.000000
-12.702700 0.000000
-12.636400 0.000000
-12.570000 0.000000
-12.503600 0.000000
-12.437300 0.000000
-12.370900 0.000000
-12.304500 0.000000
-12.238100 0.000000
-12.171800 0.000000
-12.105400 0.000000
-12.039000 0.000000
-11.972600 0.000000
-11.906300 0.000000
-11.839900 0.000000
-11.773500 0.000000
-11.707200 0.000000
-11.640800 0.000000
-11.574400 0.000000
-11.508000 0.000000
-11.441700 0.000000
-11.375300 0.000000
-11.308900 0.000000
-11.242600 0.000000
-11.176200 0.000000
-11.109800 0.000000
-11.043400 0.000000
-10.977100 0.000000
-10.910700 0.000000
-10.844300 0.000000
-10.777900 0.000000
-10.711600 0.000000
-10.645200 0.000000
-10.578800 0.000000
-10.512500 0.000000
-10.446100 0.000000
-10.379700 0.000000
-10.313300 0.000000
-10.247000 0.000000
-10.180600 0.000000
-10.114200 0.000000
-10.047800 0.000000
-9.981500 0.000000
-9.915100 0.000000
-9.848700 0.000000
-9.782400 0.000000
-9.716000 0.000000
-9.649600 0.000000
-9.583200 0.000000
-9.516900 0.000000
-9.450500 0.000000
-9.384100 0.000000
-9.317700 0.000000
-9.251400 0.000000
-9.185000 0.000000
-9.118600 0.000000
-9.052300 0.000000
-8.985900 0.000000
-8.919500 0.000000
-8.853100 0.000000
-8.786800 0.000000
-8.720400 0.000000
-8.654000 0.000000
-8.587600 0.000000
-8.521300 0.000000
-8.454900 0.000000
-8.388500 0.000000
-8.322200 0.000000
-8.255800 0.000000
-8.189400 0.000000
-8.123000 0.000000
-8.056700 0.000000
-7.990300 0.000000
-7.923900 0.000000
-7.857600 0.000000
-7.791200 0.000000
-7.724800 0.000000
-7.658400 0.000000
-7.592100 0.000000
-7.525700 0.000000
-7.459300 0.000000
-7.392900 0.000000
-7.326600 0.000000
-7.260200 0.000000
-7.193800 0.000000
-7.127500 0.000000
-7.061100 0.000000
-6.994700 0.000000
-6.928300 0.000000
-6.862000 0.000000
-6.795600 0.000000
-6.729200 0.000000
-6.662800 0.000000
-6.596500 0.000000
-6.530100 0.000000
-6.463700 0.000000
-6.397400 0.000000
-6.331000 0.000000
-6.264600 0.000000
-6.198200 0.000000
-6.131900 0.000000
-6.065500 0.000000
-5.999100 0.000000
-5.932700 0.000000
-5.866400 0.000000
-5.800000 0.000000
-5.733600 0.000000
-5.667300 0.000000
-5.600900 0.000000
-5.534500 0.000000
-5.468100 0.000000
-5.401800 0.000000
-5.335400 0.000000
-5.269000 0.000000
-5.202700 0.000000
-5.136300 0.000000
-5.069900 0.000000
-5.003500 0.000000
-4.937200 0.000000
-4.870800 0.000000
-4.804400 0.000000
-4.738000 0.000000
-4.671700 0.000000
-4.605300 0.000000
-4.538900 0.000000
-4.472600 0.000000
-4.406200 0.000000
-4.339800 0.000000
-4.273400 0.000000
-4.207100 0.000000
-4.140700 0.000000
-4.074300 0.000000
-4.007900 0.000000
-3.941600 0.000000
-3.875200 0.003000
-3.808800 0.066800
-3.742500 0.089600
-3.676100 0.133100
-3.609700 0.168200
-3.543300 0.206200
-3.477000 0.267600
-3.410600 0.375700
-3.344200 0.713000
-3.277800 0.759900
-3.211500 0.802600
-3.145100 0.799200
-3.078700 0.827300
-3.012400 0.847600
-2.946000 0.896000
-2.879600 0.931600
-2.813200 1.195400
-2.746900 1.674200
-2.680500 1.316800
-2.614100 1.245500
-2.547700 1.192800
-2.481400 2.410700
-2.415000 2.323300
-2.348600 2.415300
-2.282300 2.569900
-2.215900 1.601200
-2.149500 1.644900
-2.083100 1.585200
-2.016800 2.182200
-1.950400 1.952600
-1.884000 1.868900
-1.817700 2.040500
-1.751300 2.022700
-1.684900 2.054600
-1.618500 2.737900
-1.552200 2.671800
-1.485800 2.813600
-1.419400 2.120200
-1.353000 1.973300
-1.286700 2.075100
-1.220300 2.460700
-1.153900 2.505000
-1.087600 2.818700
-1.021200 2.884000
-0.954800 2.862300
-0.888400 2.983200
-0.822100 2.719100
-0.755700 2.339800
-0.689300 1.946500
-0.622900 1.984600
-0.556600 1.858500
-0.490200 2.037700
-0.423800 2.128800
-0.357500 2.144500
-0.291100 2.621400
-0.224700 2.973200
-0.158300 2.902700
-0.092000 2.651500
-0.025600 3.328900
0.040800 3.690800
0.107200 2.915000
0.173500 2.176800
0.239900 1.914900
0.306300 2.066700
0.372600 2.325900
0.439000 2.397800
0.505400 2.356300
0.571800 2.925600
0.638100 2.674700
0.704500 2.892700
0.770900 2.518900
0.837300 2.260000
0.903600 2.509400
0.970000 2.074700
1.036400 2.147200
1.102700 1.944200
1.169100 1.476600
1.235500 1.731700
1.301900 3.245700
1.368200 2.352000
1.434600 2.459800
1.501000 2.766200
1.567300 3.850700
1.633700 4.973400
1.700100 3.802000
1.766500 4.788400
1.832800 3.231000
1.899200 3.244500
1.965600 3.565300
2.032000 4.087300
2.098300 3.586100
2.164700 3.553900
2.231100 2.976900
2.297400 2.397400
2.363800 2.464000
2.430200 2.251100
2.496600 1.488400
2.562900 0.974100
2.629300 0.550300
2.695700 0.400700
2.762100 0.304300
2.828400 0.240000
2.894800 0.200200
2.961200 0.123600
3.027500 0.009900
3.093900 0.000000
3.160300 0.000000
3.226700 0.000000
3.293000 0.000000
3.359400 0.000000
3.425800 0.000000
3.492200 0.000000
3.558500 0.000000
3.624900 0.000000
3.691300 0.000000
3.757600 0.000000
3.824000 0.000000
3.890400 0.000000
3.956800 0.000000
4.023100 0.000000
4.089500 0.084300
4.155900 0.429600
4.222200 1.322100
4.288600 2.376900
4.355000 1.695900
4.421400 1.437800
4.487700 1.345800
4.554100 1.358100
4.620500 1.468900
4.686900 1.368400
4.753200 1.325800
4.819600 1.275700
4.886000 1.262600
4.952300 1.211700
5.018700 1.203900
5.085100 1.261900
5.151500 1.215100
5.217800 1.287800
5.284200 1.656400
5.350600 2.204300
5.417000 2.674600
5.483300 1.245800
5.549700 1.356500
5.616100 2.738000
5.682400 4.438600
5.748800 4.560900
5.815200 4.649400
5.881600 4.724100
5.947900 3.557500
6.014300 2.234700
6.080700 1.436100
6.147100 0.832000
6.213400 0.841500
6.279800 1.818500
6.346200 3.011200
6.412500 2.517500
6.478900 3.049000
6.545300 2.472400
6.611700 2.739900
6.678000 2.263700
6.744400 1.987900
6.810800 2.203000
6.877200 0.982000
6.943500 0.637400
7.009900 0.677400
7.076300 0.882800
7.142600 1.133500
7.209000 1.442100
7.275400 1.575600
7.341800 1.723700
7.408100 1.953000
7.474500 2.672400
7.540900 2.535900
7.607200 2.836100
7.673600 2.435200
7.740000 2.329800
7.806400 2.370400
7.872700 2.564000
7.939100 3.402100
8.005500 2.234800
8.071900 0.860200
8.138200 0.332700
8.204600 0.152100
8.271000 0.048100
8.337300 0.000000
8.403700 0.000000
8.470100 0.000000
8.536500 0.000000
8.602800 0.000000
8.669200 0.000000
8.735600 0.000000
8.802000 0.000000
8.868300 0.000000
8.934700 0.000000
9.001100 0.000000
9.067400 0.000000
9.133800 0.000000
9.200200 0.000000
9.266600 0.000000
9.332900 0.000000
9.399300 0.000000
9.465700 0.000000
9.532100 0.000000
9.598400 0.000000
9.664800 0.000000
9.731200 0.000000
9.797500 0.000000
9.863900 0.000000
9.930300 0.000000
9.996700 0.000000
10.063000 0.000000
10.129400 0.000000
10.195800 0.000000
10.262100 0.000000
10.328500 0.000000
10.394900 0.000000
10.461300 0.000000
10.527600 0.000000
10.594000 0.000000
10.660400 0.000000
10.726800 0.000000
10.793100 0.000000
10.859500 0.000200
10.925900 0.008000
10.992200 0.025000
11.058600 0.035300
11.125000 0.037900
11.191400 0.043400
11.257700 0.051400
11.324100 0.059600
11.390500 0.065000
11.456900 0.068200
11.523200 0.073100
11.589600 0.078700
11.656000 0.084400
11.722300 0.090000
11.788700 0.096000
11.855100 0.102400
11.921500 0.108000
11.987800 0.113400
12.054200 0.119100
12.120600 0.124800
12.187000 0.130700
12.253300 0.137200
12.319700 0.144300
12.386100 0.151500
12.452400 0.158700
12.518800 0.166000
12.585200 0.173300
12.651600 0.180600
12.717900 0.188500
12.784300 0.197000
12.850700 0.205600
12.917100 0.216300
12.983400 0.253000
13.049800 0.258500
13.116200 0.254000
13.182500 0.259900
13.248900 0.264100
13.315300 0.265100
13.381700 0.266100
13.448000 0.272600
13.514400 0.316200
13.580800 0.334800
13.647100 0.345100
13.713500 0.365700
13.779900 0.382200
13.846300 0.400900
13.912600 0.421000
13.979000 0.448900
14.045400 0.476400
14.111800 0.505200
14.178100 0.546700
14.244500 0.616800
14.310900 0.763600
14.377200 0.832200
14.443600 0.859200
14.510000 0.875600
14.576400 0.826400
14.642700 0.805900
14.709100 0.823300
14.775500 0.864100
14.841900 0.893000
14.908200 0.963000
14.974600 1.347100
15.041000 1.022300
15.107300 1.016700
15.173700 1.019000
15.240100 0.918200
15.306500 0.870900
15.372800 0.834700
15.439200 0.796300
15.505600 0.852800
15.572000 0.891300
15.638300 0.907800
15.704700 0.830600
15.771100 0.792400
15.837400 0.779700
15.903800 0.764300
15.970200 0.709500
16.036600 0.805700
16.102900 0.767300
16.169300 0.718800
16.235700 0.709000
16.302000 0.731200
16.368400 0.830500
16.434800 0.865100
16.501200 1.350500
16.567500 0.951000
16.633900 1.055000
16.700300 1.118400
16.766700 1.157700
16.833000 0.948600
16.899400 0.962300
16.965800 0.995100
17.032100 1.048100
17.098500 1.090600
17.164900 1.146500
17.231300 1.105900
17.297600 0.974600
17.364000 0.897200
17.430400 0.841600
17.496800 0.896200
17.563100 0.722600
17.629500 0.595400
17.695900 0.540000
17.762200 0.497900
17.828600 0.422700
17.895000 0.471500
17.961400 0.714200
18.027700 1.016000
18.094100 2.194600
18.160500 2.183200
18.226900 2.535400
18.293200 2.736500
18.359600 3.072000
18.426000 2.097100
18.492300 1.807800
18.558700 1.556400
18.625100 1.367600
18.691500 1.314100
18.757800 1.307000
18.824200 1.443800
18.890600 1.266700
18.957000 0.973100
19.023300 1.120100
19.089700 1.214700
19.156100 1.297100
19.222400 1.130800
19.288800 0.899900
19.355200 0.800400
19.421600 0.849600
19.487900 1.041400
19.554300 1.184900
19.620700 1.072200
19.687000 1.090100
19.753400 1.201800
19.819800 1.500800
19.886200 1.397300
19.952500 1.266500
20.018900 1.226900
