set title 'mp-8637 - Density of States'
set xlabel 'Energy (eV)'
set ylabel 'DOS (states/eV)'
set grid
set xrange [-10:10]
set yrange [0:2.403]
set xzeroaxis lt -1
set terminal png size 800,600
set output 'mp-8637_dos_gnuplot.png'
plot '-' using 1:2 with lines title 'DOS'
-34.470200 0.000000
-34.393800 0.000000
-34.317300 0.000000
-34.240900 0.000000
-34.164500 0.000000
-34.088000 0.000000
-34.011600 0.000000
-33.935200 0.000000
-33.858700 0.000000
-33.782300 0.000000
-33.705900 0.000000
-33.629400 0.000000
-33.553000 0.000000
-33.476500 0.000000
-33.400100 0.000000
-33.323700 0.000000
-33.247200 0.000000
-33.170800 0.000000
-33.094400 0.000000
-33.017900 0.000000
-32.941500 0.000000
-32.865100 0.000000
-32.788600 0.000000
-32.712200 0.000000
-32.635800 0.000000
-32.559300 0.000000
-32.482900 0.000000
-32.406400 0.000000
-32.330000 0.000000
-32.253600 0.000000
-32.177100 0.000000
-32.100700 0.000000
-32.024300 0.000000
-31.947800 0.000000
-31.871400 0.000000
-31.795000 0.000000
-31.718500 0.000000
-31.642100 0.000000
-31.565700 0.000000
-31.489200 0.000000
-31.412800 0.000000
-31.336400 0.000000
-31.259900 0.000000
-31.183500 0.000000
-31.107000 0.000000
-31.030600 0.000000
-30.954200 0.000000
-30.877700 0.000000
-30.801300 0.000000
-30.724900 0.000000
-30.648400 0.000000
-30.572000 0.000000
-30.495600 0.000000
-30.419100 0.000000
-30.342700 0.000000
-30.266300 0.000000
-30.189800 0.000000
-30.113400 0.000000
-30.037000 0.000000
-29.960500 0.000000
-29.884100 0.000000
-29.807600 0.000000
-29.731200 0.000000
-29.654800 0.000000
-29.578300 0.000000
-29.501900 0.000000
-29.425500 0.000000
-29.349000 0.000000
-29.272600 0.000000
-29.196200 0.000000
-29.119700 0.000000
-29.043300 0.000000
-28.966900 0.000000
-28.890400 0.000000
-28.814000 0.000000
-28.737600 0.000000
-28.661100 0.000000
-28.584700 0.000000
-28.508200 0.000000
-28.431800 0.000000
-28.355400 0.000000
-28.278900 0.000000
-28.202500 0.000000
-28.126100 0.000000
-28.049600 0.000000
-27.973200 0.000000
-27.896800 0.000000
-27.820300 0.000000
-27.743900 0.000000
-27.667500 0.000000
-27.591000 0.000000
-27.514600 0.364400
-27.438100 1.773100
-27.361700 3.699800
-27.285300 7.494600
-27.208800 6.527400
-27.132400 2.139100
-27.056000 2.196100
-26.979500 2.993900
-26.903100 3.455500
-26.826700 3.796300
-26.750200 4.030200
-26.673800 7.888200
-26.597400 8.323400
-26.520900 8.842100
-26.444500 9.698300
-26.368100 4.796200
-26.291600 2.125800
-26.215200 0.000000
-26.138700 0.000000
-26.062300 0.000000
-25.985900 0.000000
-25.909400 0.000000
-25.833000 0.000000
-25.756600 0.000000
-25.680100 0.000000
-25.603700 0.000000
-25.527300 0.000000
-25.450800 0.000000
-25.374400 0.000000
-25.298000 0.000000
-25.221500 0.000000
-25.145100 0.000000
-25.068700 0.000000
-24.992200 0.000000
-24.915800 0.000000
-24.839300 0.000000
-24.762900 0.000000
-24.686500 0.000000
-24.610000 0.000000
-24.533600 0.000000
-24.457200 0.000000
-24.380700 0.000000
-24.304300 0.000000
-24.227900 0.000000
-24.151400 0.000000
-24.075000 0.000000
-23.998600 0.000000
-23.922100 0.000000
-23.845700 0.000000
-23.769300 0.000000
-23.692800 0.000000
-23.616400 0.000000
-23.539900 0.000000
-23.463500 0.000000
-23.387100 0.000000
-23.310600 0.000000
-23.234200 0.000000
-23.157800 0.000000
-23.081300 0.000000
-23.004900 0.000000
-22.928500 0.000000
-22.852000 0.000000
-22.775600 0.000000
-22.699200 0.000000
-22.622700 0.000000
-22.546300 0.000000
-22.469800 0.000000
-22.393400 0.000000
-22.317000 0.000000
-22.240500 0.000000
-22.164100 0.000000
-22.087700 0.000000
-22.011200 0.000000
-21.934800 0.000000
-21.858400 0.000000
-21.781900 0.000000
-21.705500 0.000000
-21.629100 0.000000
-21.552600 0.000000
-21.476200 0.000000
-21.399800 0.000000
-21.323300 0.000000
-21.246900 0.000000
-21.170400 0.000000
-21.094000 0.000000
-21.017600 0.000000
-20.941100 0.000000
-20.864700 0.000000
-20.788300 0.000000
-20.711800 0.000000
-20.635400 0.000000
-20.559000 0.000000
-20.482500 0.000000
-20.406100 0.000000
-20.329700 0.000000
-20.253200 0.000000
-20.176800 0.000000
-20.100400 0.000000
-20.023900 0.000000
-19.947500 0.000000
-19.871000 0.000000
-19.794600 0.000000
-19.718200 0.000000
-19.641700 0.000000
-19.565300 0.000000
-19.488900 0.000000
-19.412400 0.000000
-19.336000 0.000000
-19.259600 0.000000
-19.183100 0.000000
-19.106700 0.000000
-19.030300 0.000000
-18.953800 0.000000
-18.877400 0.000000
-18.801000 0.000000
-18.724500 0.000000
-18.648100 0.000000
-18.571600 0.000000
-18.495200 0.000000
-18.418800 0.000000
-18.342300 0.000000
-18.265900 0.000000
-18.189500 0.000000
-18.113000 0.000000
-18.036600 0.000000
-17.960200 0.000000
-17.883700 0.000000
-17.807300 0.000000
-17.730900 0.000000
-17.654400 0.000000
-17.578000 0.000000
-17.501500 0.000000
-17.425100 0.000000
-17.348700 0.000000
-17.272200 0.000000
-17.195800 0.000000
-17.119400 0.000000
-17.042900 0.000000
-16.966500 0.000000
-16.890100 0.000000
-16.813600 0.000000
-16.737200 0.000000
-16.660800 0.000000
-16.584300 0.000000
-16.507900 0.000000
-16.431500 0.000000
-16.355000 0.000000
-16.278600 0.000000
-16.202100 0.000000
-16.125700 0.000000
-16.049300 0.000000
-15.972800 0.000000
-15.896400 0.000000
-15.820000 0.000000
-15.743500 0.000000
-15.667100 0.000000
-15.590700 0.000000
-15.514200 0.000000
-15.437800 0.000000
-15.361400 0.000000
-15.284900 0.000000
-15.208500 0.000000
-15.132100 0.000000
-15.055600 0.000000
-14.979200 0.000000
-14.902700 0.000000
-14.826300 0.000000
-14.749900 0.000000
-14.673400 0.000000
-14.597000 0.000000
-14.520600 0.000000
-14.444100 0.000000
-14.367700 0.000000
-14.291300 0.000000
-14.214800 0.000000
-14.138400 0.000000
-14.062000 0.000000
-13.985500 0.000000
-13.909100 0.000000
-13.832700 0.000000
-13.756200 0.000000
-13.679800 0.000000
-13.603300 0.000000
-13.526900 0.000000
-13.450500 0.000000
-13.374000 0.000000
-13.297600 0.000000
-13.221200 0.000000
-13.144700 0.000000
-13.068300 0.000000
-12.991900 0.000000
-12.915400 0.000000
-12.839000 0.000000
-12.762600 0.000000
-12.686100 0.000000
-12.609700 0.000000
-12.533300 0.000000
-12.456800 0.000000
-12.380400 0.000000
-12.303900 0.000000
-12.227500 0.000000
-12.151100 0.000000
-12.074600 0.000000
-11.998200 0.000000
-11.921800 0.000000
-11.845300 0.000000
-11.768900 0.000000
-11.692500 0.000000
-11.616000 0.000000
-11.539600 0.000000
-11.463200 0.000000
-11.386700 0.000000
-11.310300 0.000000
-11.233800 0.000000
-11.157400 0.000000
-11.081000 0.000000
-11.004500 0.000000
-10.928100 0.000000
-10.851700 0.000000
-10.775200 0.000000
-10.698800 0.000000
-10.622400 0.000000
-10.545900 0.000000
-10.469500 0.000000
-10.393100 0.000000
-10.316600 0.000000
-10.240200 0.000000
-10.163800 0.000000
-10.087300 0.000000
-10.010900 0.000000
-9.934400 0.000000
-9.858000 0.000000
-9.781600 0.000000
-9.705100 0.000000
-9.628700 0.000000
-9.552300 0.000000
-9.475800 0.000000
-9.399400 0.000000
-9.323000 0.000000
-9.246500 0.000000
-9.170100 0.000000
-9.093700 0.000000
-9.017200 0.000000
-8.940800 0.000000
-8.864400 0.000000
-8.787900 0.000000
-8.711500 0.000000
-8.635000 0.000000
-8.558600 0.000000
-8.482200 0.000000
-8.405700 0.000000
-8.329300 0.000000
-8.252900 0.000000
-8.176400 0.000000
-8.100000 0.000000
-8.023600 0.000000
-7.947100 0.000000
-7.870700 0.000000
-7.794300 0.000000
-7.717800 0.000000
-7.641400 0.000000
-7.565000 0.000000
-7.488500 0.000000
-7.412100 0.000000
-7.335600 0.000000
-7.259200 0.000000
-7.182800 0.000000
-7.106300 0.000000
-7.029900 0.000000
-6.953500 0.000000
-6.877000 0.000000
-6.800600 0.000000
-6.724200 0.000000
-6.647700 0.000000
-6.571300 0.000000
-6.494900 0.000000
-6.418400 0.000000
-6.342000 0.000000
-6.265500 0.000000
-6.189100 0.000000
-6.112700 0.000000
-6.036200 0.000000
-5.959800 0.000000
-5.883400 0.000000
-5.806900 0.000000
-5.730500 0.000000
-5.654100 0.000000
-5.577600 0.000000
-5.501200 0.000000
-5.424800 0.000000
-5.348300 0.000000
-5.271900 0.000000
-5.195500 0.000000
-5.119000 0.000000
-5.042600 0.000000
-4.966100 0.000000
-4.889700 0.000000
-4.813300 0.000000
-4.736800 0.000000
-4.660400 0.000000
-4.584000 0.000000
-4.507500 0.000000
-4.431100 0.000000
-4.354700 0.000000
-4.278200 0.000000
-4.201800 0.000000
-4.125400 0.000000
-4.048900 0.000000
-3.972500 0.000000
-3.896100 0.000000
-3.819600 0.000000
-3.743200 0.000000
-3.666700 0.000000
-3.590300 0.000000
-3.513900 0.000000
-3.437400 0.000000
-3.361000 0.000000
-3.284600 0.000000
-3.208100 0.000000
-3.131700 0.000000
-3.055300 0.000000
-2.978800 0.000000
-2.902400 0.000000
-2.826000 0.000000
-2.749500 0.000000
-2.673100 0.000000
-2.596700 0.000000
-2.520200 0.000000
-2.443800 0.000000
-2.367300 0.000000
-2.290900 0.000000
-2.214500 0.000000
-2.138000 0.000000
-2.061600 0.000000
-1.985200 0.000000
-1.908700 0.000000
-1.832300 0.000000
-1.755900 0.000000
-1.679400 0.000000
-1.603000 0.000000
-1.526600 0.000000
-1.450100 0.000000
-1.373700 0.000000
-1.297200 0.000000
-1.220800 0.000000
-1.144400 0.000000
-1.067900 0.000000
-0.991500 0.000000
-0.915100 0.000000
-0.838600 0.000000
-0.762200 0.000000
-0.685800 0.000000
-0.609300 0.000000
-0.532900 0.000000
-0.456500 0.000000
-0.380000 0.000000
-0.303600 0.000000
-0.227200 0.000000
-0.150700 0.000000
-0.074300 0.000000
0.002200 0.000000
0.078600 0.000000
0.155000 0.000000
0.231500 0.000000
0.307900 0.000000
0.384300 0.000000
0.460800 0.000000
0.537200 0.000000
0.613600 0.000000
0.690100 0.000000
0.766500 0.000000
0.842900 0.000000
0.919400 0.000000
0.995800 0.000000
1.072200 0.000000
1.148700 0.000800
1.225100 0.017300
1.301600 0.022600
1.378000 0.029600
1.454400 0.037000
1.530900 0.040700
1.607300 0.045000
1.683700 0.050100
1.760200 0.055400
1.836600 0.059900
1.913000 0.064100
1.989500 0.068400
2.065900 0.073100
2.142300 0.078300
2.218800 0.083700
2.295200 0.088900
2.371600 0.093800
2.448100 0.099600
2.524500 0.105700
2.601000 0.112300
2.677400 0.119600
2.753800 0.127400
2.830300 0.135400
2.906700 0.144600
2.983100 0.181200
3.059600 0.263300
3.136000 0.313500
3.212400 0.368800
3.288900 0.426200
3.365300 0.695200
3.441700 0.871300
3.518200 0.884800
3.594600 0.965800
3.671000 1.077400
3.747500 1.241700
3.823900 1.312400
3.900400 1.397700
3.976800 1.454600
4.053200 1.577600
4.129700 1.642700
4.206100 1.616500
4.282500 1.537400
4.359000 1.504000
4.435400 1.485100
4.511800 1.439100
4.588300 1.366500
4.664700 1.309800
4.741100 1.230500
4.817600 1.159400
4.894000 1.086200
4.970500 0.959700
5.046900 0.863800
5.123300 0.861600
5.199800 0.823800
5.276200 1.041700
5.352600 1.157000
5.429100 1.428500
5.505500 1.294200
5.581900 1.205400
5.658400 1.104800
5.734800 1.001900
5.811200 0.843000
5.887700 0.901800
5.964100 0.926400
6.040500 0.911100
6.117000 0.931100
6.193400 1.041400
6.269900 1.211300
6.346300 1.234100
6.422700 1.274400
6.499200 1.240200
6.575600 1.198300
6.652000 1.212600
6.728500 1.242900
6.804900 1.262400
6.881300 1.391200
6.957800 1.477900
7.034200 1.518500
7.110600 1.543200
7.187100 1.699400
7.263500 1.852000
7.339900 1.785200
7.416400 1.726200
7.492800 1.745300
7.569300 2.184100
7.645700 1.374300
7.722100 1.154800
7.798600 1.173300
7.875000 1.209600
7.951400 1.289200
8.027900 1.387100
8.104300 1.055400
8.180700 0.994000
8.257200 0.969700
8.333600 0.963600
8.410000 0.976000
8.486500 0.907000
8.562900 0.932300
8.639300 0.905500
8.715800 0.918400
8.792200 0.962700
8.868700 1.109800
8.945100 1.127900
9.021500 1.166900
9.098000 1.152100
9.174400 1.227600
9.250800 1.437800
9.327300 1.240200
9.403700 1.060400
9.480100 0.961500
9.556600 0.899700
9.633000 0.844300
9.709400 0.838400
9.785900 0.939400
9.862300 0.953800
9.938800 0.926700
10.015200 0.911100
10.091600 0.892300
10.168100 0.878600
10.244500 0.846600
10.320900 0.837300
10.397400 0.828600
10.473800 0.827100
10.550200 0.835200
10.626700 0.853000
10.703100 0.886500
10.779500 0.906800
10.856000 0.928700
10.932400 0.953600
11.008800 0.998500
11.085300 0.950600
11.161700 0.984800
11.238200 1.088000
11.314600 1.179800
11.391000 1.278300
11.467500 1.539000
11.543900 1.578400
11.620300 1.567500
11.696800 1.602100
11.773200 1.718600
11.849600 1.263400
11.926100 1.107400
12.002500 0.971200
12.078900 0.904300
12.155400 0.796800
12.231800 0.695200
12.308200 0.620600
12.384700 0.292900
12.461100 0.292000
12.537600 0.292400
12.614000 0.294600
12.690400 0.296600
12.766900 0.298100
12.843300 0.298900
12.919700 0.301200
12.996200 0.301700
13.072600 0.302800
13.149000 0.303500
13.225500 0.303500
13.301900 0.302600
13.378300 0.301800
13.454800 0.302000
13.531200 0.301100
13.607600 0.300600
13.684100 0.300200
13.760500 0.299800
13.837000 0.299600
13.913400 0.299300
13.989800 0.299000
14.066300 0.298800
14.142700 0.299100
14.219100 0.299300
14.295600 0.297800
14.372000 0.296600
14.448400 0.295400
14.524900 0.293500
14.601300 0.291800
14.677700 0.290400
14.754200 0.288700
14.830600 0.286800
14.907100 0.284800
14.983500 0.283000
15.059900 0.281100
15.136400 0.279000
15.212800 0.276700
15.289200 0.274200
15.365700 0.271600
15.442100 0.268900
15.518500 0.264400
15.595000 0.259700
15.671400 0.255600
15.747800 0.251700
15.824300 0.247800
15.900700 0.243900
15.977100 0.239700
16.053600 0.235300
16.130000 0.230800
16.206500 0.225800
16.282900 0.219200
16.359300 0.212300
16.435800 0.206600
16.512200 0.201700
16.588600 0.199400
16.665100 0.197100
16.741500 0.190800
16.817900 0.181800
16.894400 0.170200
16.970800 0.156600
17.047200 0.137000
17.123700 0.116000
17.200100 0.102500
17.276500 0.091700
17.353000 0.082200
17.429400 0.074900
17.505900 0.068000
17.582300 0.060800
17.658700 0.054400
17.735200 0.048600
17.811600 0.058800
17.888000 0.126100
17.964500 0.241600
18.040900 0.303400
18.117300 0.387800
18.193800 0.498500
18.270200 0.513100
18.346600 0.515500
18.423100 0.512600
18.499500 0.517700
18.575900 0.522900
18.652400 0.533200
18.728800 0.540300
18.805300 0.533000
18.881700 0.499200
18.958100 0.454800
19.034600 0.432700
19.111000 0.419000
19.187400 0.408800
19.263900 0.401000
19.340300 0.394600
19.416700 0.394400
19.493200 0.392900
19.569600 0.387700
19.646000 0.383800
19.722500 0.377900
19.798900 0.378000
19.875400 0.378300
19.951800 0.376400
20.028200 0.371100
20.104700 0.371900
20.181100 0.387400
20.257500 0.411400
20.334000 0.389900
20.410400 0.385700
20.486800 0.401600
20.563300 0.415000
20.639700 0.409300
20.716100 0.414800
20.792600 0.431600
20.869000 0.476500
20.945400 0.470600
21.021900 0.472000
21.098300 0.492000
21.174800 0.496900
21.251200 0.513800
21.327600 0.542700
21.404100 0.558100
21.480500 0.580800
21.556900 0.577600
21.633400 0.600100
21.709800 0.582700
21.786200 0.584900
21.862700 0.603900
21.939100 0.600100
22.015500 0.578500
22.092000 0.581800
22.168400 0.630900
22.244800 0.717800
22.321300 0.907800
22.397700 0.828700
22.474200 0.825800
22.550600 0.833000
22.627000 0.838500
22.703500 0.842000
22.779900 0.828400
22.856300 0.840800
22.932800 0.858600
23.009200 0.877200
23.085600 0.906000
23.162100 0.946300
23.238500 0.987000
23.314900 1.046200
23.391400 1.122700
23.467800 1.160600
23.544200 1.159600
23.620700 1.106200
23.697100 1.038900
23.773600 0.946700
23.850000 0.892800
23.926400 0.842700
24.002900 0.776800
24.079300 0.754000
24.155700 0.720000
24.232200 0.685200
24.308600 0.661000
24.385000 0.682100
24.461500 0.749400
24.537900 0.784700
24.614300 0.808100
24.690800 0.826500
24.767200 0.861200
24.843600 0.941000
24.920100 1.086200
24.996500 1.220800
25.073000 1.447000
25.149400 1.851200
25.225800 3.007900
25.302300 1.750300
25.378700 1.291400
25.455100 1.100300
25.531600 1.107200
25.608000 0.979600
25.684400 0.844700
25.760900 0.704100
25.837300 0.634600
25.913700 0.578500
25.990200 0.525100
26.066600 0.487800
26.143100 0.445200
26.219500 0.387000
26.295900 0.347300
26.372400 0.315700
26.448800 0.288800
26.525200 0.268800
26.601700 0.258800
26.678100 0.253000
26.754500 0.251700
26.831000 0.250500
26.907400 0.250100
26.983800 0.247700
27.060300 0.248900
27.136700 0.267300
27.213100 0.293400
27.289600 0.320300
27.366000 0.366100
27.442500 0.432800
27.518900 0.459400
27.595300 0.520300
27.671800 0.596100
27.748200 0.727500
27.824600 0.833500
27.901100 0.909800
27.977500 0.867100
28.053900 0.882100
28.130400 0.781400
28.206800 0.748600
28.283200 0.733600
28.359700 0.730000
28.436100 0.728600
28.512500 0.727900
28.589000 0.735400
28.665400 0.755100
28.741900 0.793300
28.818300 0.816800
28.894700 0.820600
28.971200 0.802000
29.047600 0.778500
29.124000 0.759300
29.200500 0.751800
29.276900 0.743700
29.353300 0.733200
29.429800 0.721000
29.506200 0.709700
29.582600 0.701700
29.659100 0.683400
29.735500 0.672900
29.811900 0.674800
29.888400 0.682900
29.964800 0.683100
30.041300 0.677700
30.117700 0.643100
30.194100 0.589800
30.270600 0.539200
30.347000 0.498000
30.423400 0.465300
30.499900 0.416900
30.576300 0.416200
30.652700 0.388100
30.729200 0.323900
30.805600 0.288500
30.882000 0.271800
30.958500 0.270500
31.034900 0.270300
31.111400 0.265800
31.187800 0.259500
31.264200 0.258400
31.340700 0.253100
31.417100 0.277800
31.493500 0.294200
31.570000 0.292200
31.646400 0.330300
31.722800 0.324700
31.799300 0.342000
31.875700 0.357100
31.952100 0.373500
32.028600 0.402900
32.105000 0.440100
32.181400 0.478800
32.257900 0.529600
32.334300 0.567500
32.410800 0.620400
32.487200 0.601200
32.563600 0.601300
32.640100 0.647200
32.716500 0.763400
32.792900 0.762400
32.869400 0.775800
32.945800 0.760400
33.022200 0.752000
33.098700 0.731600
33.175100 0.715600
33.251500 0.704400
33.328000 0.712300
33.404400 0.711500
33.480800 0.701400
33.557300 0.695900
33.633700 0.695900
33.710200 0.697300
33.786600 0.734300
33.863000 0.665500
33.939500 0.586300
34.015900 0.537700
34.092300 0.530400
34.168800 0.527500
34.245200 0.522300
34.321600 0.518000
34.398100 0.519300
34.474500 0.525700
34.550900 0.537100
34.627400 0.559400
34.703800 0.608000
34.780200 0.637300
34.856700 0.707000
34.933100 0.609100
35.009600 0.600000
35.086000 0.591800
35.162400 0.594700
35.238900 0.608100
35.315300 0.604800
35.391700 0.590200
35.468200 0.590000
35.544600 0.594000
35.621000 0.613000
35.697500 0.697300
35.773900 0.784600
35.850300 0.902000
35.926800 1.020800
36.003200 1.122100
36.079700 1.263200
36.156100 1.355300
36.232500 1.464200
36.309000 1.437900
36.385400 1.634900
36.461800 1.720400
36.538300 1.774100
36.614700 1.247700
36.691100 1.200500
36.767600 1.138700
36.844000 0.974300
36.920400 0.868700
36.996900 0.818700
37.073300 0.794800
37.149700 0.761900
37.226200 0.731400
37.302600 0.727500
37.379100 0.727600
37.455500 0.723900
37.531900 0.719200
37.608400 0.742500
37.684800 0.762700
37.761200 0.741900
37.837700 0.689600
37.914100 0.630000
37.990500 0.586100
38.067000 0.548900
38.143400 0.511400
38.219800 0.469000
38.296300 0.436800
38.372700 0.427700
38.449100 0.430400
38.525600 0.434300
38.602000 0.441900
38.678500 0.447900
38.754900 0.474800
38.831300 0.484700
38.907800 0.490100
38.984200 0.499700
39.060600 0.509600
39.137100 0.522100
39.213500 0.537900
39.289900 0.623500
39.366400 0.619800
39.442800 0.548200
39.519200 0.547800
39.595700 0.546100
39.672100 0.544600
39.748500 0.540600
39.825000 0.538700
39.901400 0.541500
39.977900 0.547100
40.054300 0.554300
40.130700 0.575100
40.207200 0.584100
40.283600 0.672900
40.360000 0.686100
40.436500 0.700200
40.512900 0.739900
40.589300 0.724600
40.665800 0.694300
40.742200 0.674900
40.818600 0.685300
40.895100 0.744300
40.971500 0.738900
41.048000 0.686400
41.124400 0.674500
41.200800 0.656500
41.277300 0.649200
41.353700 0.640600
41.430100 0.638400
41.506600 0.654000
41.583000 0.634800
41.659400 0.640000
41.735900 0.666600
41.812300 0.686600
41.888700 0.741400
41.965200 0.836400
42.041600 0.848800
42.118000 0.849900
42.194500 0.848300
42.270900 0.814500
42.347400 0.764300
42.423800 0.746300
42.500200 0.685700
42.576700 0.636300
42.653100 0.627000
42.729500 0.622700
42.806000 0.613500
42.882400 0.615200
42.958800 0.659400
43.035300 0.694300
43.111700 0.700000
43.188100 0.701200
43.264600 0.683200
43.341000 0.676100
43.417400 0.700300
43.493900 0.722800
43.570300 0.727100
43.646800 0.729400
43.723200 0.737800
43.799600 0.741900
43.876100 0.746700
43.952500 0.788800
44.028900 0.808800
