set title 'mp-29803 - Density of States'
set xlabel 'Energy (eV)'
set ylabel 'DOS (states/eV)'
set grid
set xrange [-10:10]
set yrange [0:9.257]
set xzeroaxis lt -1
set terminal png size 800,600
set output 'mp-29803_dos_gnuplot.png'
plot '-' using 1:2 with lines title 'DOS'
-12.814500 0.000000
-12.778800 0.000000
-12.743000 0.000000
-12.707300 0.000000
-12.671600 0.000000
-12.635800 0.000000
-12.600100 0.000000
-12.564300 0.000000
-12.528600 0.000000
-12.492900 0.000000
-12.457100 0.000000
-12.421400 0.000000
-12.385600 0.000000
-12.349900 0.000000
-12.314100 0.000000
-12.278400 0.000000
-12.242700 0.000000
-12.206900 0.000000
-12.171200 0.000000
-12.135400 0.000000
-12.099700 0.000000
-12.063900 0.000000
-12.028200 0.000000
-11.992500 0.000000
-11.956700 0.000000
-11.921000 0.000000
-11.885200 0.000000
-11.849500 0.000000
-11.813700 0.000000
-11.778000 0.000000
-11.742300 0.000000
-11.706500 0.000000
-11.670800 0.000000
-11.635000 0.000000
-11.599300 0.000000
-11.563500 0.000000
-11.527800 0.000000
-11.492100 0.000000
-11.456300 0.000000
-11.420600 0.000000
-11.384800 0.000000
-11.349100 0.000000
-11.313400 0.000000
-11.277600 0.000000
-11.241900 0.000000
-11.206100 0.000000
-11.170400 0.000000
-11.134600 0.000000
-11.098900 0.000000
-11.063200 0.000000
-11.027400 0.000000
-10.991700 0.000000
-10.955900 0.000000
-10.920200 0.000000
-10.884400 0.000000
-10.848700 0.000000
-10.813000 0.000000
-10.777200 0.000000
-10.741500 0.000000
-10.705700 0.000000
-10.670000 0.000000
-10.634200 0.000000
-10.598500 0.000000
-10.562800 0.000000
-10.527000 0.000000
-10.491300 0.000000
-10.455500 0.000000
-10.419800 0.000000
-10.384000 0.000000
-10.348300 0.000000
-10.312600 0.000000
-10.276800 0.000000
-10.241100 0.000000
-10.205300 0.000000
-10.169600 0.000000
-10.133800 0.000000
-10.098100 0.000000
-10.062400 0.000000
-10.026600 0.000000
-9.990900 0.000000
-9.955100 0.000000
-9.919400 0.000000
-9.883700 0.000000
-9.847900 0.000000
-9.812200 0.000000
-9.776400 0.000000
-9.740700 0.000000
-9.704900 0.000000
-9.669200 0.000000
-9.633500 0.000000
-9.597700 0.000000
-9.562000 0.000500
-9.526200 0.064900
-9.490500 0.215400
-9.454700 0.393300
-9.419000 0.571200
-9.383300 0.749200
-9.347500 0.927100
-9.311800 0.787600
-9.276000 0.582200
-9.240300 0.598600
-9.204500 0.615000
-9.168800 0.631500
-9.133100 0.647900
-9.097300 0.664300
-9.061600 0.680800
-9.025800 0.697200
-8.990100 0.713600
-8.954300 0.730100
-8.918600 0.746500
-8.882900 0.757200
-8.847100 0.752900
-8.811400 0.739700
-8.775600 0.726500
-8.739900 0.713300
-8.704200 0.700000
-8.668400 0.693500
-8.632700 0.698600
-8.596900 0.708400
-8.561200 0.718200
-8.525400 0.728000
-8.489700 0.737800
-8.454000 0.747600
-8.418200 0.757400
-8.382500 0.767200
-8.346700 0.777000
-8.311000 0.786800
-8.275200 0.796600
-8.239500 0.806500
-8.203800 0.816300
-8.168000 0.826100
-8.132300 0.835900
-8.096500 0.842100
-8.060800 0.851100
-8.025000 0.876200
-7.989300 0.910400
-7.953600 0.944600
-7.917800 0.978800
-7.882100 1.013000
-7.846300 1.047300
-7.810600 1.081500
-7.774800 1.397500
-7.739100 1.616000
-7.703400 1.519800
-7.667600 1.423600
-7.631900 1.327300
-7.596100 1.231100
-7.560400 1.134900
-7.524700 1.038600
-7.488900 0.942400
-7.453200 0.846100
-7.417400 0.749900
-7.381700 0.669500
-7.345900 0.734600
-7.310200 0.928000
-7.274500 1.123500
-7.238700 1.319200
-7.203000 1.203700
-7.167200 0.000000
-7.131500 0.000000
-7.095700 0.000000
-7.060000 0.000000
-7.024300 0.000000
-6.988500 0.000000
-6.952800 0.000000
-6.917000 0.000000
-6.881300 0.000000
-6.845500 0.000000
-6.809800 0.000000
-6.774100 0.000000
-6.738300 0.000000
-6.702600 0.000000
-6.666800 0.000000
-6.631100 0.000000
-6.595300 0.000000
-6.559600 0.000000
-6.523900 0.000000
-6.488100 0.000000
-6.452400 0.000000
-6.416600 0.000000
-6.380900 0.000000
-6.345100 0.000000
-6.309400 0.000000
-6.273700 0.000000
-6.237900 0.000000
-6.202200 0.000000
-6.166400 0.000000
-6.130700 6.195700
-6.095000 0.735800
-6.059200 0.887100
-6.023500 1.038300
-5.987700 1.189600
-5.952000 1.340900
-5.916200 1.492300
-5.880500 1.643600
-5.844800 1.794900
-5.809000 1.946200
-5.773300 1.218800
-5.737500 1.195900
-5.701800 1.173000
-5.666000 1.150100
-5.630300 1.127100
-5.594600 1.104200
-5.558800 1.081200
-5.523100 1.058200
-5.487300 1.035200
-5.451600 1.012200
-5.415800 1.109800
-5.380100 1.167700
-5.344400 1.191500
-5.308600 1.189200
-5.272900 1.186800
-5.237100 1.184200
-5.201400 1.181500
-5.165600 1.429200
-5.129900 1.935500
-5.094200 3.038600
-5.058400 1.655100
-5.022700 1.529700
-4.986900 1.421600
-4.951200 1.357200
-4.915500 1.360400
-4.879700 1.353000
-4.844000 1.268200
-4.808200 1.061900
-4.772500 0.846600
-4.736700 0.621500
-4.701000 0.385000
-4.665300 0.000000
-4.629500 0.000000
-4.593800 0.000000
-4.558000 0.000000
-4.522300 0.000000
-4.486500 0.000000
-4.450800 0.000000
-4.415100 0.000000
-4.379300 0.000000
-4.343600 0.000000
-4.307800 0.000000
-4.272100 0.000000
-4.236300 0.000000
-4.200600 0.000000
-4.164900 0.000000
-4.129100 0.000000
-4.093400 0.000000
-4.057600 0.000000
-4.021900 0.000000
-3.986100 0.000000
-3.950400 0.000000
-3.914700 0.000000
-3.878900 0.000000
-3.843200 0.000000
-3.807400 0.000000
-3.771700 0.000000
-3.736000 0.000000
-3.700200 0.000000
-3.664500 0.000000
-3.628700 0.000000
-3.593000 0.000000
-3.557200 0.000000
-3.521500 0.000000
-3.485800 0.000000
-3.450000 0.000000
-3.414300 0.000000
-3.378500 0.000000
-3.342800 0.000000
-3.307000 0.000000
-3.271300 0.000000
-3.235600 0.000000
-3.199800 0.000000
-3.164100 0.000000
-3.128300 0.000000
-3.092600 0.000000
-3.056800 0.000000
-3.021100 0.000000
-2.985400 0.000000
-2.949600 0.000000
-2.913900 0.202400
-2.878100 0.698900
-2.842400 0.906100
-2.806600 1.133000
-2.770900 1.378700
-2.735200 1.654900
-2.699400 1.979500
-2.663700 2.586600
-2.627900 3.074500
-2.592200 3.336300
-2.556400 3.299000
-2.520700 3.377700
-2.485000 3.450000
-2.449200 3.383300
-2.413500 2.927000
-2.377700 1.464300
-2.342000 1.533200
-2.306300 1.619400
-2.270500 1.721400
-2.234800 1.866300
-2.199000 2.053300
-2.163300 2.135300
-2.127500 2.279700
-2.091800 2.500300
-2.056100 2.847900
-2.020300 2.967100
-1.984600 3.056700
-1.948800 6.815400
-1.913100 8.415100
-1.877300 5.606300
-1.841600 4.033400
-1.805900 3.322100
-1.770100 3.101300
-1.734400 2.901700
-1.698600 2.706800
-1.662900 2.516600
-1.627100 2.293200
-1.591400 2.076400
-1.555700 1.857000
-1.519900 1.598100
-1.484200 1.531400
-1.448400 1.527000
-1.412700 1.519900
-1.376900 1.866700
-1.341200 1.440300
-1.305500 1.321300
-1.269700 1.332400
-1.234000 1.343500
-1.198200 1.354700
-1.162500 1.365800
-1.126800 1.386500
-1.091000 1.396200
-1.055300 1.405900
-1.019500 1.415600
-0.983800 1.425300
-0.948000 1.435000
-0.912300 1.444600
-0.876600 1.454300
-0.840800 1.463900
-0.805100 1.473600
-0.769300 1.483200
-0.733600 1.492800
-0.697800 1.502400
-0.662100 1.512000
-0.626400 1.513000
-0.590600 1.398000
-0.554900 1.128800
-0.519100 1.082900
-0.483400 1.037100
-0.447600 0.991700
-0.411900 0.955200
-0.376200 0.926000
-0.340400 0.896900
-0.304700 0.867800
-0.268900 0.838700
-0.233200 0.809500
-0.197400 0.782100
-0.161700 0.755700
-0.126000 0.729300
-0.090200 0.702900
-0.054500 0.676500
-0.018700 0.650100
0.017000 0.623700
0.052700 0.597300
0.088500 0.570800
0.124200 0.544400
0.160000 0.518000
0.195700 0.491600
0.231500 0.465200
0.267200 0.438800
0.302900 0.412400
0.338700 0.386000
0.374400 0.359600
0.410200 0.656000
0.445900 0.592200
0.481700 0.528400
0.517400 0.464600
0.553100 0.400800
0.588900 0.337000
0.624600 0.273200
0.660400 0.209400
0.696100 0.145600
0.731900 0.081800
0.767600 0.017900
0.803300 0.000000
0.839100 0.000000
0.874800 0.000000
0.910600 0.000000
0.946300 0.000000
0.982100 0.000000
1.017800 0.000000
1.053500 0.000000
1.089300 0.000000
1.125000 0.000000
1.160800 0.000000
1.196500 0.000000
1.232300 0.000000
1.268000 0.000000
1.303700 0.000000
1.339500 0.000000
1.375200 0.000000
1.411000 0.000000
1.446700 0.000000
1.482400 0.000000
1.518200 0.000000
1.553900 0.000000
1.589700 0.000000
1.625400 0.000000
1.661200 0.000000
1.696900 0.000000
1.732600 0.000000
1.768400 0.000000
1.804100 0.000000
1.839900 0.000000
1.875600 0.000000
1.911400 0.000000
1.947100 0.000000
1.982800 0.000000
2.018600 0.000000
2.054300 0.000000
2.090100 0.000000
2.125800 0.000000
2.161600 0.000000
2.197300 0.000000
2.233000 0.000000
2.268800 0.000000
2.304500 0.000000
2.340300 0.000000
2.376000 0.000000
2.411800 0.000000
2.447500 0.000000
2.483200 0.000000
2.519000 0.000000
2.554700 0.000000
2.590500 0.000000
2.626200 0.000000
2.661900 0.000000
2.697700 0.000000
2.733400 0.000000
2.769200 0.000000
2.804900 0.000000
2.840700 0.000000
2.876400 0.000000
2.912100 0.000000
2.947900 0.034600
2.983600 0.128600
3.019400 0.252400
3.055100 0.321900
3.090900 0.387100
3.126600 0.461300
3.162300 0.544200
3.198100 0.619700
3.233800 0.690800
3.269600 0.758000
3.305300 0.822300
3.341100 0.884300
3.376800 0.945600
3.412500 1.007000
3.448300 1.068400
3.484000 1.129900
3.519800 1.191300
3.555500 1.252800
3.591300 1.314300
3.627000 1.375900
3.662700 1.400500
3.698500 1.395400
3.734200 1.378900
3.770000 1.333000
3.805700 1.307000
3.841400 1.281100
3.877200 1.255100
3.912900 1.229100
3.948700 1.203100
3.984400 1.177200
4.020200 1.151200
4.055900 1.125200
4.091600 1.099300
4.127400 1.128700
4.163100 1.312900
4.198900 1.429100
4.234600 1.552800
4.270400 1.710600
4.306100 2.102700
4.341800 2.660700
4.377600 2.783300
4.413300 2.468200
4.449100 2.126300
4.484800 1.876200
4.520600 1.742800
4.556300 1.704200
4.592000 1.780100
4.627800 1.914000
4.663500 2.030400
4.699300 2.300900
4.735000 3.068800
4.770800 4.006000
4.806500 4.376700
4.842200 4.684000
4.878000 4.339000
4.913700 4.227200
4.949500 3.731700
4.985200 3.257500
5.021000 2.810400
5.056700 2.496400
5.092400 2.248400
5.128200 2.139300
5.163900 2.125400
5.199700 2.114000
5.235400 2.079600
5.271100 2.035400
5.306900 1.977700
5.342600 1.906500
5.378400 1.830900
5.414100 1.916600
5.449900 2.061700
5.485600 3.079800
5.521300 3.177200
5.557100 3.223100
5.592800 3.202500
5.628600 3.114700
5.664300 3.503900
5.700100 2.852000
5.735800 2.662900
5.771500 2.467500
5.807300 2.265900
5.843000 2.056600
5.878800 1.827900
5.914500 1.643100
5.950300 1.534600
5.986000 1.431100
6.021700 1.434200
6.057500 1.463800
6.093200 1.490800
6.129000 1.494000
6.164700 1.474800
6.200500 1.405500
6.236200 1.325600
6.271900 1.284000
6.307700 0.826200
6.343400 0.873700
6.379200 0.971100
6.414900 1.184100
6.450600 1.512800
6.486400 1.977400
6.522100 2.444100
6.557900 2.844300
6.593600 3.259600
6.629400 3.690100
6.665100 4.490700
6.700800 4.108800
6.736600 4.038400
6.772300 3.773000
6.808100 3.554800
6.843800 2.606200
6.879600 1.786500
6.915300 1.197300
6.951000 1.049300
6.986800 0.905400
7.022500 0.763100
7.058300 0.607700
7.094000 0.676700
7.129800 0.693500
7.165500 1.458300
7.201200 1.118800
7.237000 1.307400
7.272700 1.364500
7.308500 1.594300
7.344200 1.836900
7.380000 2.071100
7.415700 2.285300
7.451400 2.472300
7.487200 2.659000
7.522900 2.649000
7.558700 2.053300
7.594400 1.925200
7.630100 1.798500
7.665900 1.673100
7.701600 1.596100
7.737400 1.523800
7.773100 1.445900
7.808900 1.371200
7.844600 1.309100
7.880300 1.253000
7.916100 1.207800
7.951800 1.175000
7.987600 1.147200
8.023300 1.123500
8.059100 1.104800
8.094800 1.091100
8.130500 1.082100
8.166300 1.078000
8.202000 1.074800
8.237800 1.073200
8.273500 1.075500
8.309300 1.082000
8.345000 1.092800
8.380700 1.105600
8.416500 1.119800
8.452200 1.164100
8.488000 1.186900
8.523700 1.212300
8.559500 1.240300
8.595200 1.281900
8.630900 1.300100
8.666700 1.258500
8.702400 1.340600
8.738200 1.494800
8.773900 1.555700
8.809700 1.555600
8.845400 1.562400
8.881100 1.614800
8.916900 1.670300
8.952600 1.710900
8.988400 2.089900
9.024100 2.263300
9.059800 2.190300
9.095600 2.278600
9.131300 2.340200
9.167100 2.380500
9.202800 2.488700
9.238600 2.530800
9.274300 2.524700
9.310000 2.522900
9.345800 2.482400
9.381500 2.461800
9.417300 2.454500
9.453000 2.358200
9.488800 2.196700
9.524500 2.031000
9.560200 1.889500
9.596000 1.746700
9.631700 1.604600
9.667500 1.483900
9.703200 1.382100
9.739000 1.298700
9.774700 1.233800
9.810400 1.400700
9.846200 1.448200
9.881900 1.499500
9.917700 1.549500
9.953400 1.745700
9.989200 1.795400
10.024900 1.869000
10.060600 1.961600
10.096400 2.057400
10.132100 3.224500
10.167900 2.498300
10.203600 2.322500
10.239300 2.169600
10.275100 2.044800
10.310800 1.948300
10.346600 1.897700
10.382300 1.890000
10.418100 1.886400
10.453800 1.882500
10.489500 1.878100
10.525300 1.873000
10.561000 1.867100
10.596800 1.860300
10.632500 1.926300
10.668300 1.976500
10.704000 2.014300
10.739700 2.039800
10.775500 2.037000
10.811200 2.017200
10.847000 1.926000
10.882700 1.805100
10.918500 1.741500
10.954200 1.735600
10.989900 1.764500
11.025700 1.819000
11.061400 2.009900
11.097200 2.101900
11.132900 2.167000
11.168700 2.205600
11.204400 2.228500
11.240100 2.360600
11.275900 2.396100
11.311600 2.394300
11.347400 2.455400
11.383100 2.399600
11.418800 2.277900
11.454600 2.191700
11.490300 2.092400
11.526100 1.979000
11.561800 1.841600
11.597600 1.656600
11.633300 1.606500
11.669000 1.562100
11.704800 1.540100
11.740500 1.589600
11.776300 1.710300
11.812000 1.834800
11.847800 1.990800
11.883500 2.388400
11.919200 3.065100
11.955000 3.418400
11.990700 3.471200
12.026500 3.466600
12.062200 3.408800
12.098000 3.297300
12.133700 3.128800
12.169400 2.851400
12.205200 2.499600
12.240900 2.341700
12.276700 2.233000
12.312400 2.082500
12.348200 1.886900
12.383900 1.600500
12.419600 1.181500
12.455400 1.138800
12.491100 1.144500
12.526900 1.194800
12.562600 1.352700
12.598400 1.553300
12.634100 1.786700
12.669800 2.031900
12.705600 2.290300
12.741300 2.585900
12.777100 2.628800
12.812800 2.689400
12.848500 2.882200
12.884300 3.053600
12.920000 2.780100
12.955800 2.638600
12.991500 2.461300
13.027300 2.279600
13.063000 2.096100
13.098700 2.015300
13.134500 1.935700
13.170200 1.856300
13.206000 1.788500
13.241700 1.725800
13.277500 1.677600
13.313200 1.646000
13.348900 1.638900
13.384700 1.669500
13.420400 1.696400
13.456200 1.733200
13.491900 1.791500
13.527700 1.871200
13.563400 1.970200
13.599100 2.363700
13.634900 2.432300
13.670600 2.533900
13.706400 2.657500
13.742100 2.818400
13.777900 2.983200
13.813600 3.123100
13.849300 3.110700
13.885100 3.046000
13.920800 2.879700
13.956600 2.532700
13.992300 2.318900
14.028000 2.180200
14.063800 2.113000
14.099500 2.080400
14.135300 2.083000
14.171000 2.119500
14.206800 2.171700
14.242500 2.233600
14.278200 2.304600
14.314000 2.597800
14.349700 2.813800
14.385500 2.918600
14.421200 2.961600
14.457000 2.967500
14.492700 2.925200
14.528400 2.891500
14.564200 2.859000
14.599900 2.948200
14.635700 2.940900
14.671400 2.848200
14.707200 2.743000
14.742900 2.547300
14.778600 2.319500
14.814400 2.140900
14.850100 1.986900
14.885900 1.934200
14.921600 1.896900
14.957400 1.869900
14.993100 1.851500
15.028800 1.845300
15.064600 1.982700
15.100300 2.112200
15.136100 2.231400
15.171800 2.353100
15.207500 2.478800
15.243300 2.536600
15.279000 2.675100
15.314800 2.812000
15.350500 2.938500
15.386300 3.006900
15.422000 3.185100
15.457700 3.052700
15.493500 2.586700
15.529200 2.608200
15.565000 2.608400
15.600700 2.678200
15.636500 2.750700
15.672200 2.596500
15.707900 2.436600
15.743700 2.309300
15.779400 2.164000
15.815200 2.207200
15.850900 2.324900
15.886700 2.516600
15.922400 2.790500
15.958100 3.003300
15.993900 3.372600
16.029600 3.074700
16.065400 3.282900
16.101100 3.148900
16.136900 2.960700
16.172600 2.735300
16.208300 2.369200
16.244100 2.037700
16.279800 1.889900
16.315600 1.800200
16.351300 1.767900
16.387000 1.759400
16.422800 1.766700
16.458500 1.791200
16.494300 1.836900
16.530000 1.857200
16.565800 1.885000
16.601500 1.933900
16.637200 2.000700
16.673000 2.096600
16.708700 2.216200
16.744500 2.428200
16.780200 2.283600
16.816000 2.187400
16.851700 2.145700
16.887400 2.123400
16.923200 2.109100
16.958900 2.103000
16.994700 2.393900
17.030400 2.785100
17.066200 2.903000
17.101900 3.147200
17.137600 3.041400
17.173400 2.634200
17.209100 2.338300
17.244900 2.084000
17.280600 1.871600
17.316400 1.700800
17.352100 1.584600
17.387800 1.610100
17.423600 1.778100
17.459300 2.066000
17.495100 2.443300
17.530800 2.525800
17.566600 2.538700
17.602300 2.550000
17.638000 2.569300
17.673800 2.557600
17.709500 2.394400
17.745300 2.305500
17.781000 2.189100
17.816700 2.130400
17.852500 2.070500
17.888200 2.008000
17.924000 1.969900
17.959700 1.992700
17.995500 2.042300
18.031200 2.007400
18.066900 1.999100
18.102700 1.913000
18.138400 2.074200
18.174200 2.221700
18.209900 2.351200
18.245700 2.476700
18.281400 2.637400
18.317100 2.844900
18.352900 3.844000
18.388600 4.207600
18.424400 3.999200
18.460100 3.871500
18.495900 3.734500
18.531600 3.682500
18.567300 3.047800
18.603100 3.188100
18.638800 2.882900
18.674600 2.639900
18.710300 2.889500
18.746100 2.957800
18.781800 5.381200
18.817500 3.026300
18.853300 2.471900
18.889000 2.314900
18.924800 2.219600
18.960500 2.284700
18.996200 2.487900
19.032000 2.748000
19.067700 3.033100
19.103500 3.412100
19.139200 3.580200
19.175000 3.676600
19.210700 3.761900
19.246400 3.739700
19.282200 3.618300
19.317900 3.275400
19.353700 2.885700
19.389400 2.509900
19.425200 2.164500
19.460900 1.761000
19.496600 1.540900
19.532400 1.463700
19.568100 1.458800
19.603900 1.485400
19.639600 1.541800
19.675400 1.604200
19.711100 1.660900
19.746800 1.720100
19.782600 1.781400
19.818300 1.845100
19.854100 1.911000
19.889800 1.981900
19.925600 2.070400
19.961300 2.200500
19.997000 2.253200
20.032800 2.356900
20.068500 2.469500
20.104300 2.619100
20.140000 3.051600
20.175700 5.216600
20.211500 3.687300
20.247200 3.299300
20.283000 2.941800
20.318700 2.665800
20.354500 2.422600
20.390200 2.311200
20.425900 2.273900
20.461700 2.267100
20.497400 2.258100
20.533200 2.246800
20.568900 2.225900
20.604700 2.223100
20.640400 2.269700
20.676100 2.334000
20.711900 2.398100
20.747600 2.462100
20.783400 2.541000
20.819100 2.624100
20.854900 2.694800
20.890600 2.757800
20.926300 2.883600
20.962100 2.973900
20.997800 2.846700
21.033600 2.619200
21.069300 2.384900
21.105100 2.169400
21.140800 2.094500
21.176500 2.354000
21.212300 2.820300
21.248000 2.511700
21.283800 2.619600
21.319500 3.489100
21.355300 3.472600
21.391000 3.373300
21.426700 3.090200
21.462500 2.775300
21.498200 2.242200
21.534000 2.040200
21.569700 2.018700
21.605400 2.225200
21.641200 2.423600
21.676900 2.630600
21.712700 2.809200
21.748400 2.953600
21.784200 3.046100
21.819900 3.083600
21.855600 3.176600
21.891400 3.185500
21.927100 3.181100
21.962900 3.148100
21.998600 2.984300
22.034400 2.837400
22.070100 2.842400
22.105800 2.851200
22.141600 2.851900
22.177300 2.887200
22.213100 3.037500
22.248800 3.265600
22.284600 3.539400
22.320300 3.923500
22.356000 4.431400
22.391800 4.836500
22.427500 4.181600
22.463300 3.899700
22.499000 3.646400
22.534800 3.322900
22.570500 3.050300
22.606200 2.862800
22.642000 2.668800
22.677700 2.518100
22.713500 2.512000
22.749200 2.468100
22.784900 2.356000
22.820700 2.243200
22.856400 2.159400
22.892200 2.111400
22.927900 2.122300
22.963700 2.192000
22.999400 2.355500
23.035100 2.613400
23.070900 3.038600
23.106600 3.901800
23.142400 4.302000
23.178100 4.361100
23.213900 4.130800
23.249600 3.568700
23.285300 3.180300
23.321100 2.817200
23.356800 2.512900
23.392600 2.376300
23.428300 2.121500
23.464100 2.053500
23.499800 2.022800
23.535500 2.062000
23.571300 2.170200
23.607000 2.375200
23.642800 2.561500
23.678500 2.735100
23.714300 2.825200
23.750000 2.821100
23.785700 2.749000
23.821500 2.755400
23.857200 2.979800
23.893000 3.028100
23.928700 3.020200
23.964400 2.973400
24.000200 2.909400
24.035900 2.853900
24.071700 2.816000
24.107400 2.797200
24.143200 2.797600
24.178900 2.819800
24.214600 2.999500
24.250400 2.836000
24.286100 2.565300
24.321900 2.775600
24.357600 2.681700
24.393400 2.752400
24.429100 2.919500
24.464800 3.100700
24.500600 3.203500
24.536300 3.150000
24.572100 3.015600
24.607800 2.889800
