set title 'mp-1216825 - Density of States'
set xlabel 'Energy (eV)'
set ylabel 'DOS (states/eV)'
set grid
set xrange [-10:10]
set yrange [0:34.784]
set xzeroaxis lt -1
set terminal png size 800,600
set output 'mp-1216825_dos_gnuplot.png'
plot '-' using 1:2 with lines title 'DOS'
-29.172900 0.000000
-29.129900 0.000000
-29.086900 0.000000
-29.044000 0.000000
-29.001000 0.000000
-28.958000 0.000000
-28.915000 0.000000
-28.872100 0.000000
-28.829100 0.000000
-28.786100 0.000000
-28.743100 0.000000
-28.700100 0.000000
-28.657200 0.000000
-28.614200 0.000000
-28.571200 0.000000
-28.528200 0.000000
-28.485200 0.000000
-28.442300 0.000000
-28.399300 0.000000
-28.356300 0.000000
-28.313300 0.000000
-28.270400 0.000000
-28.227400 0.000000
-28.184400 0.000000
-28.141400 0.000000
-28.098400 0.000000
-28.055500 0.000000
-28.012500 0.000000
-27.969500 0.000000
-27.926500 0.000000
-27.883500 0.000000
-27.840600 0.000000
-27.797600 0.000000
-27.754600 0.000000
-27.711600 0.000000
-27.668700 0.000000
-27.625700 0.000000
-27.582700 0.000000
-27.539700 0.000000
-27.496700 0.000000
-27.453800 0.000000
-27.410800 0.000000
-27.367800 0.000000
-27.324800 0.000000
-27.281800 0.000000
-27.238900 0.000000
-27.195900 0.000000
-27.152900 0.000000
-27.109900 0.000000
-27.067000 0.000000
-27.024000 0.000000
-26.981000 0.000000
-26.938000 0.000000
-26.895000 0.000000
-26.852100 0.000000
-26.809100 0.000000
-26.766100 0.000000
-26.723100 0.000000
-26.680200 0.000000
-26.637200 0.000000
-26.594200 0.000000
-26.551200 0.000000
-26.508200 0.000000
-26.465300 0.000000
-26.422300 0.000000
-26.379300 0.000000
-26.336300 0.000000
-26.293300 0.000000
-26.250400 0.000000
-26.207400 0.000000
-26.164400 0.000000
-26.121400 0.000000
-26.078500 0.000000
-26.035500 0.000000
-25.992500 0.000000
-25.949500 0.000000
-25.906500 0.000000
-25.863600 0.000000
-25.820600 0.000000
-25.777600 0.000000
-25.734600 0.000000
-25.691600 0.000000
-25.648700 0.000000
-25.605700 0.000000
-25.562700 0.000000
-25.519700 0.000000
-25.476800 0.000000
-25.433800 0.000000
-25.390800 0.000000
-25.347800 0.000000
-25.304800 0.000000
-25.261900 8.512500
-25.218900 33.259200
-25.175900 0.000000
-25.132900 0.000000
-25.089900 25.812800
-25.047000 11.476100
-25.004000 9.982000
-24.961000 9.919800
-24.918000 11.639300
-24.875100 25.515300
-24.832100 0.000000
-24.789100 0.000000
-24.746100 0.000000
-24.703100 0.000000
-24.660200 0.000000
-24.617200 0.000000
-24.574200 0.000000
-24.531200 0.000000
-24.488200 0.000000
-24.445300 0.000000
-24.402300 0.000000
-24.359300 0.000000
-24.316300 0.000000
-24.273400 0.000000
-24.230400 0.000000
-24.187400 0.000000
-24.144400 0.000000
-24.101400 0.000000
-24.058500 0.000000
-24.015500 0.000000
-23.972500 0.000000
-23.929500 0.000000
-23.886600 0.000000
-23.843600 0.000000
-23.800600 0.000000
-23.757600 0.000000
-23.714600 0.000000
-23.671700 0.000000
-23.628700 0.000000
-23.585700 0.000000
-23.542700 0.000000
-23.499700 0.000000
-23.456800 0.000000
-23.413800 0.000000
-23.370800 0.000000
-23.327800 0.000000
-23.284900 0.000000
-23.241900 0.000000
-23.198900 0.000000
-23.155900 0.000000
-23.112900 0.000000
-23.070000 0.000000
-23.027000 0.000000
-22.984000 0.000000
-22.941000 0.000000
-22.898000 0.000000
-22.855100 0.000000
-22.812100 0.000000
-22.769100 0.000000
-22.726100 0.000000
-22.683200 0.000000
-22.640200 0.000000
-22.597200 0.000000
-22.554200 0.000000
-22.511200 0.000000
-22.468300 0.000000
-22.425300 0.000000
-22.382300 0.000000
-22.339300 0.000000
-22.296300 0.000000
-22.253400 0.000000
-22.210400 0.000000
-22.167400 0.000000
-22.124400 0.000000
-22.081500 0.000000
-22.038500 0.000000
-21.995500 0.000000
-21.952500 0.000000
-21.909500 0.000000
-21.866600 0.000000
-21.823600 0.000000
-21.780600 0.000000
-21.737600 0.000000
-21.694700 0.000000
-21.651700 0.000000
-21.608700 0.000000
-21.565700 0.000000
-21.522700 0.000000
-21.479800 0.000000
-21.436800 0.000000
-21.393800 0.000000
-21.350800 0.000000
-21.307800 0.000000
-21.264900 0.000000
-21.221900 0.000000
-21.178900 0.000000
-21.135900 0.000000
-21.093000 0.000000
-21.050000 0.000000
-21.007000 0.000000
-20.964000 0.000000
-20.921000 0.000000
-20.878100 0.000000
-20.835100 0.000000
-20.792100 0.000000
-20.749100 0.000000
-20.706100 0.000000
-20.663200 0.000000
-20.620200 0.000000
-20.577200 0.000000
-20.534200 0.000000
-20.491300 0.000000
-20.448300 0.000000
-20.405300 0.000000
-20.362300 0.000000
-20.319300 0.000000
-20.276400 0.000000
-20.233400 0.000000
-20.190400 0.000000
-20.147400 0.000000
-20.104400 0.000000
-20.061500 0.000000
-20.018500 0.000000
-19.975500 0.000000
-19.932500 0.000000
-19.889600 0.000000
-19.846600 0.000000
-19.803600 0.000000
-19.760600 0.000000
-19.717600 0.000000
-19.674700 0.000000
-19.631700 0.000000
-19.588700 0.000000
-19.545700 0.000000
-19.502700 0.000000
-19.459800 0.000000
-19.416800 0.000000
-19.373800 0.000000
-19.330800 0.000000
-19.287900 0.000000
-19.244900 0.000000
-19.201900 0.000000
-19.158900 0.000000
-19.115900 0.000000
-19.073000 0.000000
-19.030000 0.000000
-18.987000 0.000000
-18.944000 0.000000
-18.901100 0.000000
-18.858100 0.000000
-18.815100 0.000000
-18.772100 0.000000
-18.729100 0.000000
-18.686200 0.000000
-18.643200 0.000000
-18.600200 0.000000
-18.557200 0.000000
-18.514200 0.000000
-18.471300 0.000000
-18.428300 0.000000
-18.385300 0.000000
-18.342300 0.000000
-18.299400 0.000000
-18.256400 0.000000
-18.213400 0.000000
-18.170400 0.000000
-18.127400 0.000000
-18.084500 0.000000
-18.041500 0.000000
-17.998500 0.000000
-17.955500 0.000000
-17.912500 0.000000
-17.869600 0.000000
-17.826600 0.000000
-17.783600 0.000000
-17.740600 0.000000
-17.697700 0.000000
-17.654700 0.000000
-17.611700 0.000000
-17.568700 0.000000
-17.525700 0.000000
-17.482800 0.000000
-17.439800 0.000000
-17.396800 0.000000
-17.353800 0.000000
-17.310800 0.000000
-17.267900 0.000000
-17.224900 0.000000
-17.181900 0.000000
-17.138900 0.000000
-17.096000 0.000000
-17.053000 0.000000
-17.010000 0.000000
-16.967000 0.000000
-16.924000 0.000000
-16.881100 0.000000
-16.838100 0.000000
-16.795100 0.000000
-16.752100 0.000000
-16.709100 0.000000
-16.666200 0.000000
-16.623200 0.000000
-16.580200 0.000000
-16.537200 0.000000
-16.494300 0.000000
-16.451300 0.000000
-16.408300 0.000000
-16.365300 0.000000
-16.322300 0.000000
-16.279400 0.000000
-16.236400 0.000000
-16.193400 0.000000
-16.150400 0.000000
-16.107500 0.000000
-16.064500 0.000000
-16.021500 0.000000
-15.978500 0.000000
-15.935500 0.000000
-15.892600 0.000000
-15.849600 0.000000
-15.806600 0.000000
-15.763600 0.000000
-15.720600 0.000000
-15.677700 0.000000
-15.634700 0.000000
-15.591700 0.000000
-15.548700 0.000000
-15.505800 0.000000
-15.462800 0.000000
-15.419800 0.000000
-15.376800 0.000000
-15.333800 0.000000
-15.290900 0.000000
-15.247900 0.000000
-15.204900 0.000000
-15.161900 0.000000
-15.118900 0.000000
-15.076000 0.000000
-15.033000 0.000000
-14.990000 0.000000
-14.947000 0.000000
-14.904100 0.000000
-14.861100 0.000000
-14.818100 0.000000
-14.775100 0.000000
-14.732100 0.000000
-14.689200 0.000000
-14.646200 0.000000
-14.603200 0.000000
-14.560200 0.000000
-14.517200 0.000000
-14.474300 0.000000
-14.431300 0.000000
-14.388300 0.000000
-14.345300 0.000000
-14.302400 0.000000
-14.259400 0.000000
-14.216400 0.000000
-14.173400 0.000000
-14.130400 0.000000
-14.087500 0.000000
-14.044500 0.000000
-14.001500 0.000000
-13.958500 0.000000
-13.915600 0.000000
-13.872600 0.000000
-13.829600 0.000000
-13.786600 0.000000
-13.743600 0.000000
-13.700700 0.000000
-13.657700 0.000000
-13.614700 0.000000
-13.571700 0.000000
-13.528700 0.000000
-13.485800 0.000000
-13.442800 0.000000
-13.399800 0.000000
-13.356800 0.000000
-13.313900 0.000000
-13.270900 0.000000
-13.227900 0.000000
-13.184900 0.000000
-13.141900 0.000000
-13.099000 0.000000
-13.056000 0.000000
-13.013000 0.000000
-12.970000 0.000000
-12.927000 0.000000
-12.884100 0.000000
-12.841100 0.000000
-12.798100 0.000000
-12.755100 0.000000
-12.712200 0.000000
-12.669200 0.000000
-12.626200 0.000000
-12.583200 0.000000
-12.540200 0.000000
-12.497300 0.000000
-12.454300 0.000000
-12.411300 0.000000
-12.368300 0.000000
-12.325300 0.000000
-12.282400 0.000000
-12.239400 0.000000
-12.196400 0.000000
-12.153400 0.000000
-12.110500 0.000000
-12.067500 0.000000
-12.024500 0.000000
-11.981500 0.000000
-11.938500 0.000000
-11.895600 0.000000
-11.852600 0.000000
-11.809600 0.000000
-11.766600 0.000000
-11.723600 0.000000
-11.680700 0.000000
-11.637700 0.000000
-11.594700 0.000000
-11.551700 0.000000
-11.508800 0.000000
-11.465800 0.000000
-11.422800 0.000000
-11.379800 0.000000
-11.336800 0.000000
-11.293900 0.000000
-11.250900 0.000000
-11.207900 0.000000
-11.164900 0.000000
-11.122000 0.000000
-11.079000 0.000000
-11.036000 0.000000
-10.993000 0.000000
-10.950000 0.000000
-10.907100 0.000000
-10.864100 0.000000
-10.821100 0.000000
-10.778100 0.000000
-10.735100 0.000000
-10.692200 0.000000
-10.649200 0.000000
-10.606200 0.000000
-10.563200 0.000000
-10.520300 0.000000
-10.477300 0.000000
-10.434300 0.000000
-10.391300 0.000000
-10.348300 0.000000
-10.305400 0.000000
-10.262400 0.000000
-10.219400 0.000000
-10.176400 0.000000
-10.133400 0.000000
-10.090500 0.000000
-10.047500 0.000000
-10.004500 0.000000
-9.961500 0.000000
-9.918600 0.000000
-9.875600 0.000000
-9.832600 0.000000
-9.789600 0.000000
-9.746600 0.000000
-9.703700 0.000000
-9.660700 0.000000
-9.617700 0.000000
-9.574700 0.000000
-9.531700 0.000000
-9.488800 0.000000
-9.445800 0.000000
-9.402800 0.000000
-9.359800 0.000000
-9.316900 0.000000
-9.273900 0.000000
-9.230900 0.000000
-9.187900 0.000000
-9.144900 0.000000
-9.102000 0.000000
-9.059000 0.000000
-9.016000 0.000000
-8.973000 0.000000
-8.930000 0.000000
-8.887100 0.000000
-8.844100 0.000000
-8.801100 0.000000
-8.758100 0.000000
-8.715200 0.000000
-8.672200 0.000000
-8.629200 0.000000
-8.586200 0.000000
-8.543200 0.000000
-8.500300 0.000000
-8.457300 0.000000
-8.414300 0.000000
-8.371300 0.000000
-8.328400 0.000000
-8.285400 0.000000
-8.242400 0.000000
-8.199400 0.000000
-8.156400 0.000000
-8.113500 0.000000
-8.070500 0.000000
-8.027500 0.000000
-7.984500 0.000000
-7.941500 0.000000
-7.898600 0.000000
-7.855600 0.000000
-7.812600 0.000000
-7.769600 0.000000
-7.726700 0.000000
-7.683700 0.000000
-7.640700 0.000000
-7.597700 0.000000
-7.554700 0.000000
-7.511800 0.000000
-7.468800 0.000000
-7.425800 0.000000
-7.382800 0.000000
-7.339800 0.000000
-7.296900 0.000000
-7.253900 0.000000
-7.210900 0.000000
-7.167900 0.000000
-7.125000 0.000000
-7.082000 0.000000
-7.039000 0.000000
-6.996000 0.000000
-6.953000 0.000000
-6.910100 0.000000
-6.867100 0.000000
-6.824100 0.000000
-6.781100 0.747300
-6.738100 1.658000
-6.695200 1.878100
-6.652200 2.298500
-6.609200 4.263900
-6.566200 6.594800
-6.523300 6.785500
-6.480300 5.842000
-6.437300 9.424600
-6.394300 15.121600
-6.351300 19.468200
-6.308400 17.662900
-6.265400 19.816000
-6.222400 16.086200
-6.179400 16.758500
-6.136500 21.968800
-6.093500 31.621800
-6.050500 10.315700
-6.007500 7.038200
-5.964500 7.257400
-5.921600 2.584400
-5.878600 1.591600
-5.835600 1.341100
-5.792600 1.036500
-5.749600 0.210100
-5.706700 0.000000
-5.663700 0.000000
-5.620700 0.000000
-5.577700 0.000000
-5.534800 0.000000
-5.491800 0.000000
-5.448800 0.000000
-5.405800 0.000000
-5.362800 0.000000
-5.319900 0.000000
-5.276900 0.000000
-5.233900 0.000000
-5.190900 0.000000
-5.147900 0.000000
-5.105000 0.000000
-5.062000 0.000000
-5.019000 0.000000
-4.976000 0.000000
-4.933100 0.000000
-4.890100 0.000000
-4.847100 0.000000
-4.804100 0.000000
-4.761100 0.000000
-4.718200 0.000000
-4.675200 0.000000
-4.632200 0.000000
-4.589200 0.000000
-4.546200 0.000000
-4.503300 0.000000
-4.460300 0.000000
-4.417300 0.000000
-4.374300 0.000000
-4.331400 0.000000
-4.288400 0.000000
-4.245400 0.000000
-4.202400 0.000000
-4.159400 0.000000
-4.116500 0.000000
-4.073500 0.000000
-4.030500 0.000000
-3.987500 0.000000
-3.944500 0.000000
-3.901600 0.000000
-3.858600 0.000000
-3.815600 0.000000
-3.772600 0.000000
-3.729700 0.000000
-3.686700 0.000000
-3.643700 0.000000
-3.600700 0.000000
-3.557700 0.000000
-3.514800 0.000000
-3.471800 0.000000
-3.428800 0.000000
-3.385800 0.000000
-3.342900 0.000000
-3.299900 0.000000
-3.256900 0.000000
-3.213900 0.000000
-3.170900 0.000000
-3.128000 0.000000
-3.085000 0.000000
-3.042000 0.000000
-2.999000 0.000000
-2.956000 0.000000
-2.913100 0.000000
-2.870100 0.000000
-2.827100 0.000000
-2.784100 0.000000
-2.741200 0.000000
-2.698200 0.000000
-2.655200 0.000000
-2.612200 0.000000
-2.569200 0.000000
-2.526300 0.000000
-2.483300 0.000000
-2.440300 0.000000
-2.397300 0.000000
-2.354300 0.000000
-2.311400 0.000000
-2.268400 0.000000
-2.225400 0.000000
-2.182400 0.000000
-2.139500 0.000000
-2.096500 0.000000
-2.053500 0.000000
-2.010500 0.000000
-1.967500 0.000000
-1.924600 0.000000
-1.881600 0.000000
-1.838600 0.000000
-1.795600 0.000000
-1.752600 0.000000
-1.709700 0.000000
-1.666700 0.000000
-1.623700 0.000000
-1.580700 0.000000
-1.537800 0.000000
-1.494800 0.000000
-1.451800 0.000000
-1.408800 0.000000
-1.365800 0.000000
-1.322900 0.000000
-1.279900 0.000000
-1.236900 0.003900
-1.193900 0.034500
-1.150900 0.072700
-1.108000 0.082100
-1.065000 0.090100
-1.022000 0.106800
-0.979000 0.125300
-0.936100 0.138800
-0.893100 0.142600
-0.850100 0.149000
-0.807100 0.158700
-0.764100 0.168300
-0.721200 0.177700
-0.678200 0.187400
-0.635200 0.198400
-0.592200 0.208200
-0.549300 0.214900
-0.506300 0.221300
-0.463300 0.229000
-0.420300 0.236500
-0.377300 0.244100
-0.334400 0.252400
-0.291400 0.261400
-0.248400 0.272100
-0.205400 0.284500
-0.162400 0.296600
-0.119500 0.308900
-0.076500 0.320200
-0.033500 0.330900
0.009500 0.351500
0.052400 0.396200
0.095400 0.381800
0.138400 0.381300
0.181400 0.385400
0.224400 0.386500
0.267300 0.380200
0.310300 0.381500
0.353300 0.383100
0.396300 0.384600
0.439300 0.385800
0.482200 0.387200
0.525200 0.385200
0.568200 0.383600
0.611200 0.383200
0.654100 0.383500
0.697100 0.383900
0.740100 0.384200
0.783100 0.384500
0.826100 0.384700
0.869000 0.384700
0.912000 0.383400
0.955000 0.381900
0.998000 0.382200
1.041000 0.382900
1.083900 0.383700
1.126900 0.384700
1.169900 0.386100
1.212900 0.387500
1.255800 0.388800
1.298800 0.389900
1.341800 0.390400
1.384800 0.390100
1.427800 0.389300
1.470700 0.388700
1.513700 0.388900
1.556700 0.389200
1.599700 0.389800
1.642600 0.390700
1.685600 0.391800
1.728600 0.393000
1.771600 0.394300
1.814600 0.395500
1.857500 0.396900
1.900500 0.398300
1.943500 0.399700
1.986500 0.401200
2.029500 0.402500
2.072400 0.403900
2.115400 0.405700
2.158400 0.407500
2.201400 0.409500
2.244300 0.412300
2.287300 0.416500
2.330300 0.420900
2.373300 0.425800
2.416300 0.431300
2.459200 0.437400
2.502200 0.444100
2.545200 0.452200
2.588200 0.461200
2.631200 0.472700
2.674100 0.489700
2.717100 0.506800
2.760100 0.518800
2.803100 0.530600
2.846000 0.542000
2.889000 0.552700
2.932000 0.562800
2.975000 0.572900
3.018000 0.580600
3.060900 0.511900
3.103900 0.485100
3.146900 0.457500
3.189900 0.437600
3.232900 0.424600
3.275800 0.418400
3.318800 0.411300
3.361800 0.400600
3.404800 0.391200
3.447700 0.384400
3.490700 0.378800
3.533700 0.375100
3.576700 0.372300
3.619700 0.372400
3.662600 0.376100
3.705600 0.379700
3.748600 0.380800
3.791600 0.382700
3.834600 0.386000
3.877500 0.389900
3.920500 0.394500
3.963500 0.398900
4.006500 0.403800
4.049400 0.408800
4.092400 0.414100
4.135400 0.421700
4.178400 0.431200
4.221400 0.440500
4.264300 0.449300
4.307300 0.457900
4.350300 0.467300
4.393300 0.477000
4.436200 0.486900
4.479200 0.495800
4.522200 0.503800
4.565200 0.513100
4.608200 0.522800
4.651100 0.533200
4.694100 0.545400
4.737100 0.558900
4.780100 0.573300
4.823100 0.589400
4.866000 0.606100
4.909000 0.623300
4.952000 0.642700
4.995000 0.666900
5.037900 0.680400
5.080900 0.689900
5.123900 0.698400
5.166900 0.711500
5.209900 0.729500
5.252800 0.750000
5.295800 0.772600
5.338800 0.796000
5.381800 0.823200
5.424800 0.879800
5.467700 0.923400
5.510700 0.964000
5.553700 0.938900
5.596700 0.930900
5.639600 0.994300
5.682600 0.947800
5.725600 0.940400
5.768600 0.946700
5.811600 0.969600
5.854500 1.096400
5.897500 1.125000
5.940500 1.197900
5.983500 1.273200
6.026500 1.302400
6.069400 1.262700
6.112400 1.217100
6.155400 1.163500
6.198400 1.142000
6.241300 1.459600
6.284300 1.679800
6.327300 1.777400
6.370300 1.925200
6.413300 1.908400
6.456200 1.919500
6.499200 1.960200
6.542200 2.129400
6.585200 2.632400
6.628200 2.002100
6.671100 1.848800
6.714100 1.813800
6.757100 1.743800
6.800100 1.573000
6.843000 1.466900
6.886000 1.380100
6.929000 1.300900
6.972000 1.230800
7.015000 1.172900
7.057900 1.112400
7.100900 1.076000
7.143900 1.014000
7.186900 0.957000
7.229800 0.960300
7.272800 0.988100
7.315800 0.992000
7.358800 1.038900
7.401800 1.095400
7.444700 1.184800
7.487700 2.317100
7.530700 2.155600
7.573700 2.733400
7.616700 2.693000
7.659600 2.751600
7.702600 3.214400
7.745600 2.910600
7.788600 2.450800
7.831500 2.384800
7.874500 2.343300
7.917500 2.265600
7.960500 2.165500
8.003500 1.880100
8.046400 1.781900
8.089400 1.712300
8.132400 1.641000
8.175400 1.624500
8.218400 1.600800
8.261300 1.586600
8.304300 1.608200
8.347300 1.605400
8.390300 1.520300
8.433200 1.407800
8.476200 1.449100
8.519200 1.465400
8.562200 1.301500
8.605200 1.005800
8.648100 0.934700
8.691100 0.955000
8.734100 1.194800
8.777100 1.450000
8.820100 1.483900
8.863000 2.221300
8.906000 2.362800
8.949000 2.391100
8.992000 2.481900
9.034900 2.749500
9.077900 2.757300
9.120900 2.835100
9.163900 3.025900
9.206900 3.145800
9.249800 3.289900
9.292800 3.485500
9.335800 3.567500
9.378800 4.602500
9.421700 3.950200
9.464700 3.858200
9.507700 4.151700
9.550700 4.538800
9.593700 4.278300
9.636600 4.126200
9.679600 4.732200
9.722600 5.259400
9.765600 3.822500
9.808600 3.468400
9.851500 3.661500
9.894500 3.717100
9.937500 2.340200
9.980500 2.131700
10.023400 1.996700
10.066400 1.882800
10.109400 1.832000
10.152400 1.758000
10.195400 1.709100
10.238300 1.344100
10.281300 1.370000
10.324300 1.300600
10.367300 1.290100
10.410300 1.349100
10.453200 1.558700
10.496200 1.545600
10.539200 1.469600
10.582200 1.403900
10.625100 1.432300
10.668100 1.307900
10.711100 0.913600
10.754100 0.903900
10.797100 0.987100
10.840000 1.067800
10.883000 1.109200
10.926000 1.215800
10.969000 1.348700
11.012000 1.492300
11.054900 1.705400
11.097900 2.173600
11.140900 2.771100
11.183900 3.110100
11.226800 2.999200
11.269800 1.902600
11.312800 1.891100
11.355800 2.202000
11.398800 2.030400
11.441700 1.869000
11.484700 1.702900
11.527700 1.522100
11.570700 1.364600
11.613700 1.259900
11.656600 1.171400
11.699600 1.089300
11.742600 1.037000
11.785600 0.997700
11.828500 0.956100
11.871500 0.938600
11.914500 0.899400
11.957500 0.807200
12.000500 0.770700
12.043400 0.753400
12.086400 0.740100
12.129400 0.717400
12.172400 0.697900
12.215300 0.681700
12.258300 0.680800
12.301300 0.690700
12.344300 0.698600
12.387300 0.712600
12.430200 0.721700
12.473200 0.740800
12.516200 0.745500
12.559200 0.738700
12.602200 0.725500
12.645100 0.693200
12.688100 0.677700
12.731100 0.666100
12.774100 0.656800
12.817000 0.654600
12.860000 0.667500
12.903000 0.670000
12.946000 0.700300
12.989000 0.891900
13.031900 0.994400
13.074900 1.058500
13.117900 1.100400
13.160900 1.088700
13.203900 1.084100
13.246800 1.057900
13.289800 1.017000
13.332800 0.998200
13.375800 0.990600
13.418700 0.987000
13.461700 0.990100
13.504700 0.990000
13.547700 0.996100
13.590700 1.032100
13.633600 1.020600
13.676600 1.007200
13.719600 1.015700
13.762600 1.066300
13.805600 1.096400
13.848500 1.115200
13.891500 1.129100
13.934500 1.131300
13.977500 1.133200
14.020400 1.140400
14.063400 1.159800
14.106400 1.190100
14.149400 1.227300
14.192400 1.259000
14.235300 1.283200
14.278300 1.222500
14.321300 1.199700
14.364300 1.180100
14.407300 1.175700
14.450200 1.182800
14.493200 1.155300
14.536200 1.137200
14.579200 1.105800
14.622100 1.101000
14.665100 1.082800
14.708100 1.078000
14.751100 1.074200
14.794100 1.064600
14.837000 1.038400
