set title 'mp-9924 - Density of States'
set xlabel 'Energy (eV)'
set ylabel 'DOS (states/eV)'
set grid
set xrange [-10:10]
set yrange [0:1.230]
set xzeroaxis lt -1
set terminal png size 800,600
set output 'mp-9924_dos_gnuplot.png'
plot '-' using 1:2 with lines title 'DOS'
-12.519900 0.000000
-12.481200 0.000000
-12.442500 0.000000
-12.403800 0.000000
-12.365100 0.000000
-12.326500 0.000000
-12.287800 0.000000
-12.249100 0.000000
-12.210400 0.000000
-12.171800 0.000000
-12.133100 0.000000
-12.094400 0.000000
-12.055700 0.000000
-12.017100 0.000000
-11.978400 0.000000
-11.939700 0.000000
-11.901000 0.000000
-11.862300 0.000000
-11.823700 0.000000
-11.785000 0.000000
-11.746300 0.000000
-11.707600 0.000000
-11.669000 0.000000
-11.630300 0.000000
-11.591600 0.000000
-11.552900 0.000000
-11.514300 0.000000
-11.475600 0.000000
-11.436900 0.000000
-11.398200 0.000000
-11.359600 0.000000
-11.320900 0.000000
-11.282200 0.000000
-11.243500 0.000000
-11.204800 0.000000
-11.166200 0.000000
-11.127500 0.000000
-11.088800 0.000000
-11.050100 0.000000
-11.011500 0.000000
-10.972800 0.000000
-10.934100 0.000000
-10.895400 0.000000
-10.856800 0.000000
-10.818100 0.000000
-10.779400 0.000000
-10.740700 0.000000
-10.702000 0.000000
-10.663400 0.000000
-10.624700 0.000000
-10.586000 0.000000
-10.547300 0.000000
-10.508700 0.000000
-10.470000 0.000000
-10.431300 0.000000
-10.392600 0.000000
-10.354000 0.000000
-10.315300 0.000000
-10.276600 0.000000
-10.237900 0.000000
-10.199200 0.000000
-10.160600 0.000000
-10.121900 0.000000
-10.083200 0.000000
-10.044500 0.000000
-10.005900 0.000000
-9.967200 0.000000
-9.928500 0.000000
-9.889800 0.000000
-9.851200 0.000000
-9.812500 0.000000
-9.773800 0.000000
-9.735100 0.000000
-9.696400 0.000000
-9.657800 0.000000
-9.619100 0.000000
-9.580400 0.000000
-9.541700 0.000000
-9.503100 0.000000
-9.464400 0.000000
-9.425700 0.000000
-9.387000 0.000000
-9.348400 0.000000
-9.309700 0.000000
-9.271000 0.000000
-9.232300 0.000000
-9.193700 0.000000
-9.155000 0.000000
-9.116300 0.000000
-9.077600 0.000000
-9.038900 0.000000
-9.000300 0.000800
-8.961600 0.071500
-8.922900 0.158800
-8.884200 0.240700
-8.845600 0.296500
-8.806900 0.388100
-8.768200 0.424000
-8.729500 0.423100
-8.690900 0.406400
-8.652200 0.416100
-8.613500 0.424900
-8.574800 0.431200
-8.536100 0.432900
-8.497500 0.434200
-8.458800 0.433300
-8.420100 0.425600
-8.381400 0.420800
-8.342800 0.424000
-8.304100 0.427700
-8.265400 0.430600
-8.226700 0.433400
-8.188100 0.436500
-8.149400 0.439100
-8.110700 0.442300
-8.072000 0.444800
-8.033300 0.447100
-7.994700 0.449600
-7.956000 0.450600
-7.917300 0.448600
-7.878600 0.448700
-7.840000 0.449700
-7.801300 0.450600
-7.762600 0.452200
-7.723900 0.454700
-7.685300 0.458100
-7.646600 0.461800
-7.607900 0.465600
-7.569200 0.469500
-7.530500 0.473400
-7.491900 0.477100
-7.453200 0.480800
-7.414500 0.484600
-7.375800 0.488600
-7.337200 0.492900
-7.298500 0.497800
-7.259800 0.502600
-7.221100 0.507400
-7.182500 0.512100
-7.143800 0.516900
-7.105100 0.522500
-7.066400 0.528600
-7.027800 0.535200
-6.989100 0.542000
-6.950400 0.549100
-6.911700 0.556000
-6.873000 0.562400
-6.834400 0.570800
-6.795700 0.595600
-6.757000 0.627800
-6.718300 0.675100
-6.679700 0.710300
-6.641000 0.745300
-6.602300 0.778200
-6.563600 0.810100
-6.525000 0.839100
-6.486300 0.820000
-6.447600 0.788600
-6.408900 0.761600
-6.370200 0.722300
-6.331600 0.689000
-6.292900 0.637400
-6.254200 0.582900
-6.215500 0.550200
-6.176900 0.528900
-6.138200 0.506900
-6.099500 0.488900
-6.060800 0.466400
-6.022200 0.448200
-5.983500 0.431100
-5.944800 0.413700
-5.906100 0.400000
-5.867400 0.389300
-5.828800 0.378800
-5.790100 0.371000
-5.751400 0.362800
-5.712700 0.354200
-5.674100 0.345100
-5.635400 0.335800
-5.596700 0.326400
-5.558000 0.315300
-5.519400 0.305400
-5.480700 0.296100
-5.442000 0.287500
-5.403300 0.281100
-5.364600 0.276000
-5.326000 0.270800
-5.287300 0.265500
-5.248600 0.260000
-5.209900 0.254500
-5.171300 0.249000
-5.132600 0.243500
-5.093900 0.238000
-5.055200 0.232400
-5.016600 0.227100
-4.977900 0.222200
-4.939200 0.217400
-4.900500 0.212400
-4.861900 0.207600
-4.823200 0.203100
-4.784500 0.198700
-4.745800 0.194400
-4.707100 0.190100
-4.668500 0.185900
-4.629800 0.181600
-4.591100 0.177400
-4.552400 0.173000
-4.513800 0.168100
-4.475100 0.163500
-4.436400 0.159700
-4.397700 0.156700
-4.359100 0.154600
-4.320400 0.152500
-4.281700 0.150300
-4.243000 0.148100
-4.204300 0.151100
-4.165700 0.153200
-4.127000 0.156700
-4.088300 0.146500
-4.049600 0.132000
-4.011000 0.117500
-3.972300 0.103100
-3.933600 0.088800
-3.894900 0.074600
-3.856300 0.060400
-3.817600 0.000000
-3.778900 0.000000
-3.740200 0.000000
-3.701500 0.000000
-3.662900 0.000000
-3.624200 0.000000
-3.585500 0.000000
-3.546800 0.000000
-3.508200 0.000000
-3.469500 0.000000
-3.430800 0.000000
-3.392100 0.000000
-3.353500 0.000000
-3.314800 0.000000
-3.276100 0.000000
-3.237400 0.000000
-3.198700 0.000000
-3.160100 0.000000
-3.121400 0.000000
-3.082700 0.000000
-3.044000 0.000000
-3.005400 0.000000
-2.966700 0.000000
-2.928000 0.000000
-2.889300 0.000000
-2.850700 0.000000
-2.812000 0.000000
-2.773300 0.000000
-2.734600 0.000000
-2.696000 0.000000
-2.657300 0.000000
-2.618600 0.000000
-2.579900 0.000000
-2.541200 0.000000
-2.502600 0.000000
-2.463900 0.000000
-2.425200 0.000000
-2.386500 0.000000
-2.347900 0.000000
-2.309200 0.000000
-2.270500 0.000000
-2.231800 0.000000
-2.193200 0.000000
-2.154500 0.000000
-2.115800 0.000000
-2.077100 0.000000
-2.038400 0.000000
-1.999800 0.000000
-1.961100 0.000000
-1.922400 0.000000
-1.883700 0.000000
-1.845100 0.000000
-1.806400 0.000000
-1.767700 0.000000
-1.729000 0.000000
-1.690400 0.000000
-1.651700 0.000000
-1.613000 0.000000
-1.574300 0.000000
-1.535600 0.000000
-1.497000 0.060900
-1.458300 0.116300
-1.419600 0.186100
-1.380900 0.228600
-1.342300 0.300700
-1.303600 0.329300
-1.264900 0.338900
-1.226200 0.342700
-1.187600 0.367700
-1.148900 0.388400
-1.110200 0.406900
-1.071500 0.422600
-1.032800 0.434500
-0.994200 0.442800
-0.955500 0.440600
-0.916800 0.433600
-0.878100 0.423600
-0.839500 0.414700
-0.800800 0.412100
-0.762100 0.412800
-0.723400 0.413600
-0.684800 0.415000
-0.646100 0.416900
-0.607400 0.419400
-0.568700 0.421500
-0.530100 0.425700
-0.491400 0.430300
-0.452700 0.435000
-0.414000 0.439700
-0.375300 0.444400
-0.336700 0.449600
-0.298000 0.454900
-0.259300 0.459500
-0.220600 0.464200
-0.182000 0.469600
-0.143300 0.475100
-0.104600 0.480600
-0.065900 0.486800
-0.027300 0.492500
0.011400 0.499000
0.050100 0.505600
0.088800 0.513000
0.127500 0.523800
0.166100 0.554200
0.204800 0.597900
0.243500 0.640300
0.282200 0.680200
0.320800 0.765800
0.359500 0.875100
0.398200 0.948100
0.436900 0.951200
0.475500 0.802300
0.514200 0.814400
0.552900 0.807600
0.591600 0.805200
0.630300 0.797600
0.668900 0.739900
0.707600 0.705700
0.746300 0.707100
0.785000 0.710800
0.823600 0.716800
0.862300 0.726300
0.901000 0.744400
0.939700 0.768800
0.978300 0.864500
1.017000 0.839800
1.055700 0.784200
1.094400 0.752500
1.133100 0.739000
1.171700 0.728500
1.210400 0.713000
1.249100 0.699800
1.287800 0.691800
1.326400 0.685600
1.365100 0.682100
1.403800 0.683000
1.442500 0.689200
1.481100 0.701300
1.519800 0.697300
1.558500 0.638600
1.597200 0.630800
1.635800 0.631500
1.674500 0.630200
1.713200 0.633100
1.751900 0.649000
1.790600 0.672200
1.829200 0.700200
1.867900 0.737400
1.906600 0.795600
1.945300 0.801100
1.983900 0.821800
2.022600 0.849500
2.061300 0.878300
2.100000 0.909500
2.138600 0.918700
2.177300 0.925100
2.216000 0.937600
2.254700 0.981600
2.293400 0.947500
2.332000 0.938100
2.370700 0.943500
2.409400 0.953700
2.448100 0.973800
2.486700 0.997400
2.525400 1.016700
2.564100 1.027800
2.602800 1.036600
2.641400 1.081200
2.680100 1.027000
2.718800 0.974700
2.757500 0.954200
2.796200 0.952300
2.834800 0.951300
2.873500 0.955800
2.912200 0.959000
2.950900 0.965800
2.989500 0.986400
3.028200 1.027500
3.066900 1.110600
3.105600 1.118300
3.144200 1.087800
3.182900 1.070200
3.221600 1.042600
3.260300 0.991100
3.299000 0.972800
3.337600 0.980800
3.376300 0.997100
3.415000 0.948700
3.453700 0.878000
3.492300 0.843100
3.531000 0.826600
3.569700 0.813300
3.608400 0.799500
3.647000 0.789900
3.685700 0.783200
3.724400 0.782000
3.763100 0.786200
3.801700 0.783600
3.840400 0.752600
3.879100 0.737100
3.917800 0.717300
3.956500 0.705400
3.995100 0.692100
4.033800 0.716300
4.072500 0.747600
4.111200 0.758200
4.149800 0.758000
4.188500 0.748400
4.227200 0.737600
4.265900 0.725100
4.304500 0.685400
4.343200 0.671500
4.381900 0.661800
4.420600 0.643100
4.459300 0.651100
4.497900 0.657400
4.536600 0.629400
4.575300 0.613000
4.614000 0.606100
4.652600 0.605900
4.691300 0.600600
4.730000 0.597700
4.768700 0.593200
4.807300 0.588800
4.846000 0.583600
4.884700 0.575600
4.923400 0.567900
4.962100 0.561100
5.000700 0.559600
5.039400 0.564200
5.078100 0.563600
5.116800 0.549700
5.155400 0.538000
5.194100 0.468600
5.232800 0.389400
5.271500 0.348200
5.310100 0.315300
5.348800 0.312200
5.387500 0.310300
5.426200 0.309200
5.464900 0.308700
5.503500 0.308500
5.542200 0.308500
5.580900 0.308700
5.619600 0.309000
5.658200 0.309300
5.696900 0.309800
5.735600 0.310300
5.774300 0.310900
5.812900 0.311600
5.851600 0.312800
5.890300 0.318200
5.929000 0.325800
5.967600 0.332200
6.006300 0.344800
6.045000 0.349900
6.083700 0.341500
6.122400 0.335900
6.161000 0.333100
6.199700 0.337100
6.238400 0.340800
6.277100 0.344400
6.315700 0.350500
6.354400 0.357100
6.393100 0.363200
6.431800 0.413500
6.470400 0.404300
6.509100 0.391300
6.547800 0.378900
6.586500 0.373000
6.625200 0.371200
6.663800 0.371900
6.702500 0.374000
6.741200 0.376400
6.779900 0.379300
6.818500 0.382600
6.857200 0.386200
6.895900 0.390000
6.934600 0.394100
6.973200 0.398500
7.011900 0.402900
7.050600 0.406800
7.089300 0.410200
7.128000 0.413200
7.166600 0.416000
7.205300 0.421000
7.244000 0.430900
7.282700 0.454400
7.321300 0.498400
7.360000 0.516600
7.398700 0.516400
7.437400 0.511400
7.476000 0.550900
7.514700 0.562000
7.553400 0.563300
7.592100 0.544500
7.630800 0.530800
7.669400 0.526500
7.708100 0.538100
7.746800 0.560900
7.785500 0.584200
7.824100 0.566600
7.862800 0.559300
7.901500 0.553000
7.940200 0.554200
7.978800 0.556100
8.017500 0.556700
8.056200 0.566600
8.094900 0.573900
8.133500 0.559300
8.172200 0.570300
8.210900 0.614700
8.249600 0.622900
8.288300 0.598500
8.326900 0.609600
8.365600 0.613200
8.404300 0.619300
8.443000 0.624700
8.481600 0.626600
8.520300 0.631900
8.559000 0.639800
8.597700 0.651500
8.636300 0.672400
8.675000 0.697900
8.713700 0.725100
8.752400 0.731200
8.791100 0.754400
8.829700 0.782600
8.868400 0.805400
8.907100 0.807100
8.945800 0.812900
8.984400 0.824000
9.023100 0.828100
9.061800 0.856200
9.100500 0.863300
9.139100 0.865800
9.177800 0.866700
9.216500 0.887200
9.255200 0.912200
9.293900 0.946200
9.332500 0.871800
9.371200 0.836300
9.409900 0.813100
9.448600 0.796200
9.487200 0.782900
9.525900 0.782200
9.564600 0.781800
9.603300 0.779400
9.641900 0.773300
9.680600 0.768600
9.719300 0.762900
9.758000 0.754900
9.796700 0.752500
9.835300 0.754400
9.874000 0.760400
9.912700 0.768200
9.951400 0.773600
9.990000 0.778400
10.028700 0.775800
10.067400 0.784600
10.106100 0.797700
10.144700 0.814800
10.183400 0.844400
10.222100 0.873800
10.260800 0.880400
10.299400 0.878800
10.338100 0.879100
10.376800 0.894200
10.415500 0.879400
10.454200 0.881400
10.492800 0.850000
10.531500 0.836800
10.570200 0.794800
10.608900 0.779000
10.647500 0.776200
10.686200 0.782700
10.724900 0.803900
10.763600 0.823100
10.802200 0.819800
10.840900 0.822100
10.879600 0.817700
10.918300 0.784600
10.957000 0.772400
10.995600 0.756700
11.034300 0.746000
11.073000 0.738000
11.111700 0.733900
11.150300 0.732900
11.189000 0.732000
11.227700 0.732600
11.266400 0.732200
11.305000 0.730400
11.343700 0.780400
11.382400 0.799300
11.421100 0.755900
11.459800 0.739600
11.498400 0.715500
11.537100 0.697500
11.575800 0.685800
11.614500 0.676300
11.653100 0.690500
11.691800 0.725500
11.730500 0.731300
11.769200 0.737000
11.807800 0.741600
11.846500 0.763300
11.885200 0.767900
11.923900 0.780000
11.962600 0.803900
12.001200 0.835400
12.039900 0.840900
12.078600 0.854500
12.117300 0.883600
12.155900 0.930800
12.194600 1.007200
12.233300 1.047800
12.272000 1.044500
12.310600 1.041500
12.349300 1.037000
12.388000 1.029600
12.426700 1.080100
12.465300 0.996800
12.504000 0.991900
12.542700 0.991900
12.581400 0.992800
12.620100 0.971100
12.658700 0.955400
12.697400 0.943900
12.736100 0.940600
12.774800 0.944900
12.813400 0.951700
12.852100 0.963200
12.890800 0.979500
12.929500 0.990400
12.968100 0.993500
13.006800 0.992200
13.045500 0.992800
13.084200 0.990400
13.122900 0.989900
13.161500 0.993900
13.200200 0.990500
13.238900 0.992200
13.277600 1.001900
13.316200 1.012800
13.354900 1.043900
13.393600 1.036700
13.432300 1.043500
13.470900 1.053900
13.509600 1.061600
13.548300 1.059500
13.587000 1.060600
13.625700 1.078200
13.664300 1.117100
13.703000 1.154000
13.741700 1.144500
13.780400 1.149300
13.819000 1.174400
13.857700 1.186700
13.896400 1.203300
13.935100 1.220800
13.973700 1.240200
14.012400 1.253900
14.051100 1.231300
14.089800 1.212100
14.128500 1.210200
14.167100 1.230500
14.205800 1.264500
14.244500 1.291200
14.283200 1.317000
14.321800 1.338500
14.360500 1.366600
14.399200 1.406500
14.437900 1.462300
14.476500 1.492500
14.515200 1.508000
14.553900 1.535200
14.592600 1.539500
14.631200 1.509300
14.669900 1.441300
14.708600 1.394700
14.747300 1.357300
14.786000 1.338400
14.824600 1.287300
14.863300 1.258500
14.902000 1.242300
14.940700 1.230500
14.979300 1.210300
15.018000 1.191000
15.056700 1.166800
15.095400 1.130800
15.134000 1.107300
15.172700 1.077600
15.211400 1.062900
15.250100 1.053000
15.288800 1.055800
15.327400 1.048000
15.366100 1.037700
15.404800 1.034600
15.443500 1.022600
15.482100 1.021400
15.520800 1.033600
15.559500 0.952500
15.598200 0.842600
15.636800 0.864300
15.675500 0.891200
15.714200 0.931000
15.752900 0.946400
15.791600 0.936400
15.830200 0.945800
15.868900 0.970000
15.907600 1.001400
15.946300 1.043000
15.984900 1.100700
16.023600 1.185900
16.062300 1.267800
16.101000 1.211300
16.139600 1.178200
16.178300 1.169700
16.217000 1.172500
16.255700 1.173200
16.294400 1.212100
16.333000 1.204500
16.371700 1.210000
16.410400 1.250100
16.449100 1.222900
16.487700 1.237800
16.526400 1.209300
16.565100 1.231300
16.603800 1.269300
16.642400 1.318000
16.681100 1.392900
16.719800 1.444300
16.758500 1.510500
16.797100 1.601200
16.835800 1.601000
16.874500 1.609000
16.913200 1.570200
16.951900 1.565400
16.990500 1.426800
17.029200 1.405800
17.067900 1.392100
17.106600 1.385700
17.145200 1.386100
17.183900 1.390100
17.222600 1.386300
17.261300 1.394400
17.299900 1.421100
17.338600 1.358600
17.377300 1.351300
17.416000 1.349300
17.454700 1.342800
17.493300 1.337800
17.532000 1.335300
17.570700 1.335600
17.609400 1.340000
17.648000 1.351000
17.686700 1.368400
17.725400 1.376700
17.764100 1.387700
17.802700 1.394700
17.841400 1.388300
17.880100 1.391700
17.918800 1.399900
17.957500 1.421900
17.996100 1.447400
18.034800 1.463200
18.073500 1.476100
18.112200 1.477800
18.150800 1.473900
18.189500 1.458900
18.228200 1.444600
18.266900 1.426400
18.305500 1.416000
18.344200 1.404500
18.382900 1.391400
18.421600 1.382700
18.460300 1.383000
18.498900 1.387000
18.537600 1.396700
18.576300 1.387600
18.615000 1.374000
18.653600 1.386200
18.692300 1.400200
18.731000 1.398500
18.769700 1.397700
18.808300 1.379900
18.847000 1.351900
18.885700 1.326000
18.924400 1.308500
18.963000 1.250400
19.001700 1.228400
19.040400 1.232300
19.079100 1.242700
19.117800 1.243500
19.156400 1.280700
19.195100 1.289500
19.233800 1.311500
19.272500 1.312900
19.311100 1.317700
19.349800 1.286100
19.388500 1.235700
19.427200 1.181400
19.465800 1.147400
19.504500 1.123000
19.543200 1.096400
19.581900 1.084300
19.620600 1.069700
19.659200 1.035000
19.697900 1.037900
19.736600 1.052100
19.775300 1.072900
19.813900 1.101100
19.852600 1.131900
19.891300 1.163100
19.930000 1.193300
19.968600 1.244800
20.007300 1.314100
20.046000 1.395400
20.084700 1.494400
20.123400 1.576800
20.162000 1.608200
20.200700 1.656800
20.239400 1.710900
20.278100 1.759900
20.316700 1.837300
20.355400 1.915400
20.394100 1.912500
20.432800 1.903700
20.471400 1.867400
20.510100 1.789400
20.548800 1.700100
20.587500 1.616200
20.626200 1.539900
20.664800 1.469500
20.703500 1.432300
20.742200 1.416100
20.780900 1.413100
20.819500 1.397600
20.858200 1.390400
20.896900 1.390700
20.935600 1.393700
20.974200 1.374800
21.012900 1.369600
21.051600 1.380200
21.090300 1.398500
21.128900 1.412400
21.167600 1.443600
21.206300 1.451400
21.245000 1.484100
21.283700 1.504000
21.322300 1.542900
21.361000 1.568200
21.399700 1.549900
21.438400 1.529500
21.477000 1.520600
21.515700 1.505600
21.554400 1.501400
21.593100 1.481400
21.631700 1.447900
21.670400 1.407100
21.709100 1.384600
21.747800 1.372300
21.786500 1.400500
21.825100 1.416800
21.863800 1.422400
21.902500 1.405500
21.941200 1.424400
21.979800 1.441800
22.018500 1.447700
22.057200 1.445700
22.095900 1.440900
22.134500 1.424000
22.173200 1.412600
22.211900 1.411200
22.250600 1.443700
22.289300 1.477700
22.327900 1.482300
22.366600 1.494500
22.405300 1.504000
22.444000 1.512200
22.482600 1.528500
22.521300 1.547200
22.560000 1.573200
22.598700 1.614900
22.637300 1.640000
22.676000 1.617200
22.714700 1.595700
22.753400 1.584800
22.792100 1.573700
22.830700 1.562300
22.869400 1.548200
22.908100 1.540000
22.946800 1.548100
22.985400 1.574300
23.024100 1.624700
23.062800 1.659300
23.101500 1.671800
23.140100 1.683400
23.178800 1.679800
23.217500 1.660000
23.256200 1.630000
23.294800 1.602200
23.333500 1.569800
23.372200 1.535300
23.410900 1.500600
23.449600 1.491300
23.488200 1.543800
23.526900 1.596000
23.565600 1.617400
23.604300 1.619000
23.642900 1.605600
23.681600 1.602100
23.720300 1.594900
23.759000 1.583800
23.797600 1.578300
23.836300 1.569200
23.875000 1.562600
23.913700 1.555400
23.952400 1.562200
23.991000 1.585400
24.029700 1.619700
24.068400 1.638000
24.107100 1.645200
24.145700 1.657600
24.184400 1.643000
24.223100 1.624500
24.261800 1.600800
24.300400 1.586000
24.339100 1.571900
24.377800 1.567500
24.416500 1.566400
24.455200 1.577300
24.493800 1.610600
24.532500 1.605200
24.571200 1.626400
24.609900 1.654500
24.648500 1.649500
24.687200 1.668200
24.725900 1.673300
24.764600 1.660400
24.803200 1.650700
24.841900 1.650900
24.880600 1.680300
24.919300 1.691300
24.958000 1.705400
24.996600 1.726800
25.035300 1.754200
25.074000 1.769300
25.112700 1.781100
25.151300 1.787300
25.190000 1.792400
25.228700 1.764300
25.267400 1.751500
25.306000 1.744500
25.344700 1.763300
25.383400 1.776600
25.422100 1.775500
25.460700 1.770600
25.499400 1.752700
25.538100 1.737300
25.576800 1.702800
25.615500 1.680200
25.654100 1.660800
25.692800 1.622700
25.731500 1.608100
25.770200 1.601900
25.808800 1.568000
25.847500 1.519400
25.886200 1.454600
25.924900 1.416300
25.963500 1.402500
26.002200 1.408900
26.040900 1.417500
26.079600 1.451900
26.118300 1.481900
26.156900 1.520900
26.195600 1.569200
26.234300 1.605000
26.273000 1.643000
26.311600 1.691100
26.350300 1.749900
26.389000 1.766800
26.427700 1.764300
26.466300 1.744300
26.505000 1.751400
26.543700 1.749600
26.582400 1.755500
26.621100 1.764100
26.659700 1.752900
26.698400 1.748200
26.737100 1.765800
26.775800 1.807600
26.814400 1.794300
26.853100 1.770900
26.891800 1.750900
26.930500 1.736800
26.969100 1.722800
27.007800 1.711600
27.046500 1.708800
27.085200 1.709500
27.123900 1.721300
27.162500 1.752700
27.201200 1.796900
27.239900 1.832700
27.278600 1.877200
27.317200 1.923700
27.355900 1.935700
27.394600 1.930600
27.433300 1.904400
27.471900 1.875600
27.510600 1.847100
27.549300 1.855900
27.588000 1.814100
27.626600 1.796700
27.665300 1.757000
27.704000 1.738000
27.742700 1.727200
27.781400 1.726900
27.820000 1.726600
27.858700 1.719400
27.897400 1.727400
27.936100 1.730400
27.974700 1.732000
