set title 'mp-981200 - Density of States'
set xlabel 'Energy (eV)'
set ylabel 'DOS (states/eV)'
set grid
set xrange [-10:10]
set yrange [0:51.636]
set xzeroaxis lt -1
set terminal png size 800,600
set output 'mp-981200_dos_gnuplot.png'
plot '-' using 1:2 with lines title 'DOS'
-8.751800 0.000000
-8.730500 0.000000
-8.709300 0.000000
-8.688000 0.000000
-8.666700 0.000000
-8.645400 0.000000
-8.624100 0.000000
-8.602800 0.000000
-8.581500 0.000000
-8.560200 0.000000
-8.538900 0.000000
-8.517600 0.000000
-8.496400 0.000000
-8.475100 0.000000
-8.453800 0.000000
-8.432500 0.000000
-8.411200 0.000000
-8.389900 0.000000
-8.368600 0.000000
-8.347300 0.000000
-8.326000 0.000000
-8.304700 0.000000
-8.283500 0.000000
-8.262200 0.000000
-8.240900 0.000000
-8.219600 0.000000
-8.198300 0.000000
-8.177000 0.000000
-8.155700 0.000000
-8.134400 0.000000
-8.113100 0.000000
-8.091800 0.000000
-8.070500 0.000000
-8.049300 0.000000
-8.028000 0.000000
-8.006700 0.000000
-7.985400 0.000000
-7.964100 0.000000
-7.942800 0.000000
-7.921500 0.000000
-7.900200 0.000000
-7.878900 0.000000
-7.857600 0.000000
-7.836400 0.000000
-7.815100 0.000000
-7.793800 0.000000
-7.772500 0.000000
-7.751200 0.000000
-7.729900 0.000000
-7.708600 0.000000
-7.687300 0.000000
-7.666000 0.000000
-7.644700 0.000000
-7.623500 0.000000
-7.602200 0.000000
-7.580900 0.000000
-7.559600 0.000000
-7.538300 0.000000
-7.517000 0.000000
-7.495700 0.000000
-7.474400 0.000000
-7.453100 0.000000
-7.431800 0.000000
-7.410600 0.000000
-7.389300 0.000000
-7.368000 0.000000
-7.346700 0.000000
-7.325400 0.000000
-7.304100 0.000000
-7.282800 0.000000
-7.261500 0.000000
-7.240200 0.000000
-7.218900 0.000000
-7.197600 0.000000
-7.176400 0.000000
-7.155100 0.000000
-7.133800 0.000000
-7.112500 0.000000
-7.091200 0.000000
-7.069900 0.000000
-7.048600 0.000000
-7.027300 0.000000
-7.006000 0.000000
-6.984700 0.000000
-6.963500 0.000000
-6.942200 0.000000
-6.920900 0.000200
-6.899600 0.000900
-6.878300 0.003500
-6.857000 0.010200
-6.835700 0.022200
-6.814400 0.038400
-6.793100 0.056400
-6.771800 0.076800
-6.750600 0.106100
-6.729300 0.153000
-6.708000 0.208300
-6.686700 0.234300
-6.665400 0.208200
-6.644100 0.181400
-6.622800 0.289700
-6.601500 0.722000
-6.580200 1.649000
-6.558900 3.131700
-6.537600 5.145400
-6.516400 7.753500
-6.495100 11.261700
-6.473800 16.031600
-6.452500 21.710700
-6.431200 26.841500
-6.409900 30.202400
-6.388600 32.271800
-6.367300 34.345100
-6.346000 36.777000
-6.324700 38.662600
-6.303500 38.494600
-6.282200 35.232100
-6.260900 29.541400
-6.239600 23.591500
-6.218300 19.054200
-6.197000 15.879200
-6.175700 13.221700
-6.154400 10.663500
-6.133100 8.283800
-6.111800 6.233300
-6.090600 4.511300
-6.069300 3.016900
-6.048000 1.756300
-6.026700 0.873400
-6.005400 0.438800
-5.984100 0.335000
-5.962800 0.367400
-5.941500 0.410500
-5.920200 0.450500
-5.898900 0.519800
-5.877700 0.600100
-5.856400 0.609900
-5.835100 0.506300
-5.813800 0.359300
-5.792500 0.289000
-5.771200 0.346000
-5.749900 0.470500
-5.728600 0.565400
-5.707300 0.602600
-5.686000 0.626000
-5.664700 0.659800
-5.643500 0.673400
-5.622200 0.623600
-5.600900 0.501500
-5.579600 0.369900
-5.558300 0.337400
-5.537000 0.460600
-5.515700 0.682800
-5.494400 0.881300
-5.473100 0.979500
-5.451800 0.988900
-5.430600 0.937000
-5.409300 0.822000
-5.388000 0.662000
-5.366700 0.519500
-5.345400 0.455300
-5.324100 0.482700
-5.302800 0.575400
-5.281500 0.715400
-5.260200 0.901200
-5.238900 1.113900
-5.217700 1.328100
-5.196400 1.537800
-5.175100 1.742200
-5.153800 2.007600
-5.132500 2.590200
-5.111200 3.813100
-5.089900 5.625700
-5.068600 7.405400
-5.047300 8.458300
-5.026000 8.644700
-5.004700 8.360900
-4.983500 8.133000
-4.962200 8.371900
-4.940900 9.310700
-4.919600 11.037000
-4.898300 13.545300
-4.877000 16.712000
-4.855700 20.325000
-4.834400 24.243300
-4.813100 28.463200
-4.791800 32.973900
-4.770600 37.444900
-4.749300 41.063500
-4.728000 43.007300
-4.706700 43.059700
-4.685400 41.550500
-4.664100 39.128500
-4.642800 36.824400
-4.621500 35.606100
-4.600200 35.448300
-4.578900 35.372100
-4.557700 34.687900
-4.536400 33.608600
-4.515100 32.525200
-4.493800 31.606300
-4.472500 31.210100
-4.451200 31.849900
-4.429900 33.794200
-4.408600 37.003000
-4.387300 41.047400
-4.366000 44.851300
-4.344700 46.942000
-4.323500 46.537700
-4.302200 44.338900
-4.280900 41.882100
-4.259600 40.222800
-4.238300 39.416900
-4.217000 38.888400
-4.195700 37.713400
-4.174400 34.716200
-4.153100 29.158900
-4.131800 21.709800
-4.110600 14.299600
-4.089300 8.664900
-4.068000 5.188500
-4.046700 3.208400
-4.025400 2.018400
-4.004100 1.300700
-3.982800 0.933500
-3.961500 0.806500
-3.940200 0.810400
-3.918900 0.850700
-3.897700 0.864500
-3.876400 0.840400
-3.855100 0.825700
-3.833800 0.897700
-3.812500 1.061200
-3.791200 1.185500
-3.769900 1.127600
-3.748600 0.909600
-3.727300 0.715200
-3.706000 0.711800
-3.684800 0.903100
-3.663500 1.145300
-3.642200 1.266500
-3.620900 1.172900
-3.599600 0.910800
-3.578300 0.637000
-3.557000 0.502100
-3.535700 0.556400
-3.514400 0.723300
-3.493100 0.844600
-3.471800 0.812800
-3.450600 0.664500
-3.429300 0.510800
-3.408000 0.427000
-3.386700 0.438300
-3.365400 0.537100
-3.344100 0.683400
-3.322800 0.816400
-3.301500 0.891600
-3.280200 0.926300
-3.258900 0.981400
-3.237700 1.051700
-3.216400 1.033900
-3.195100 0.873000
-3.173800 0.675400
-3.152500 0.604500
-3.131200 0.715900
-3.109900 0.929300
-3.088600 1.101700
-3.067300 1.115300
-3.046000 0.946600
-3.024800 0.685800
-3.003500 0.479500
-2.982200 0.426300
-2.960900 0.519600
-2.939600 0.683200
-2.918300 0.840200
-2.897000 0.960700
-2.875700 1.067100
-2.854400 1.185900
-2.833100 1.291700
-2.811800 1.309900
-2.790600 1.180800
-2.769300 0.944000
-2.748000 0.733300
-2.726700 0.641000
-2.705400 0.632300
-2.684100 0.635800
-2.662800 0.649600
-2.641500 0.713600
-2.620200 0.822000
-2.598900 0.906400
-2.577700 0.898100
-2.556400 0.793200
-2.535100 0.658600
-2.513800 0.575200
-2.492500 0.573000
-2.471200 0.609200
-2.449900 0.606300
-2.428600 0.536600
-2.407300 0.469300
-2.386000 0.506200
-2.364800 0.687500
-2.343500 0.956500
-2.322200 1.178300
-2.300900 1.227900
-2.279600 1.112700
-2.258300 0.975100
-2.237000 0.944900
-2.215700 1.007600
-2.194400 1.042200
-2.173100 0.993200
-2.151800 0.930600
-2.130600 0.939200
-2.109300 1.049600
-2.088000 1.230100
-2.066700 1.357300
-2.045400 1.311300
-2.024100 1.145700
-2.002800 1.010500
-1.981500 0.930200
-1.960200 0.820200
-1.938900 0.664100
-1.917700 0.540000
-1.896400 0.506100
-1.875100 0.550500
-1.853800 0.624300
-1.832500 0.669300
-1.811200 0.661200
-1.789900 0.657500
-1.768600 0.757300
-1.747300 0.990200
-1.726000 1.268100
-1.704800 1.452100
-1.683500 1.456900
-1.662200 1.290000
-1.640900 1.025700
-1.619600 0.757600
-1.598300 0.554300
-1.577000 0.455000
-1.555700 0.492600
-1.534400 0.655100
-1.513100 0.841500
-1.491900 0.950200
-1.470600 0.996000
-1.449300 1.066200
-1.428000 1.184800
-1.406700 1.283600
-1.385400 1.297400
-1.364100 1.222000
-1.342800 1.077700
-1.321500 0.898600
-1.300200 0.748400
-1.278900 0.679000
-1.257700 0.701400
-1.236400 0.801300
-1.215100 0.922600
-1.193800 0.988700
-1.172500 0.974500
-1.151200 0.900300
-1.129900 0.808000
-1.108600 0.778600
-1.087300 0.860200
-1.066000 0.991800
-1.044800 1.107600
-1.023500 1.242200
-1.002200 1.424100
-0.980900 1.567700
-0.959600 1.567700
-0.938300 1.420100
-0.917000 1.203000
-0.895700 0.996300
-0.874400 0.842900
-0.853100 0.748600
-0.831900 0.686100
-0.810600 0.622200
-0.789300 0.571200
-0.768000 0.584800
-0.746700 0.674600
-0.725400 0.796000
-0.704100 0.897900
-0.682800 0.937500
-0.661500 0.878700
-0.640200 0.737400
-0.618900 0.602100
-0.597700 0.568100
-0.576400 0.666400
-0.555100 0.871000
-0.533800 1.139100
-0.512500 1.411900
-0.491200 1.622600
-0.469900 1.741700
-0.448600 1.769900
-0.427300 1.692600
-0.406000 1.506700
-0.384800 1.280000
-0.363500 1.121200
-0.342200 1.071700
-0.320900 1.079600
-0.299600 1.106500
-0.278300 1.172800
-0.257000 1.267000
-0.235700 1.297200
-0.214400 1.182800
-0.193100 0.949100
-0.171900 0.706300
-0.150600 0.587500
-0.129300 0.703400
-0.108000 1.045000
-0.086700 1.402400
-0.065400 1.519000
-0.044100 1.362200
-0.022800 1.111300
-0.001500 0.896000
0.019800 0.723600
0.041100 0.614200
0.062300 0.598500
0.083600 0.623500
0.104900 0.624700
0.126200 0.637600
0.147500 0.730100
0.168800 0.887400
0.190100 1.041400
0.211400 1.182400
0.232700 1.356500
0.254000 1.552800
0.275200 1.668900
0.296500 1.600600
0.317800 1.349400
0.339100 1.072700
0.360400 0.972900
0.381700 1.095800
0.403000 1.315800
0.424300 1.502000
0.445600 1.583000
0.466900 1.516000
0.488100 1.340200
0.509400 1.196200
0.530700 1.185700
0.552000 1.257500
0.573300 1.288500
0.594600 1.247700
0.615900 1.204200
0.637200 1.191500
0.658500 1.158600
0.679800 1.055000
0.701000 0.894600
0.722300 0.744300
0.743600 0.704100
0.764900 0.865700
0.786200 1.201100
0.807500 1.515500
0.828800 1.610200
0.850100 1.492800
0.871400 1.342300
0.892700 1.274500
0.914000 1.255300
0.935200 1.235700
0.956500 1.212500
0.977800 1.156300
0.999100 1.024400
1.020400 0.848700
1.041700 0.728200
1.063000 0.720900
1.084300 0.802100
1.105600 0.942000
1.126900 1.129200
1.148100 1.309100
1.169400 1.395500
1.190700 1.334500
1.212000 1.126900
1.233300 0.844400
1.254600 0.621800
1.275900 0.554700
1.297200 0.611900
1.318500 0.690600
1.339800 0.719700
1.361000 0.706200
1.382300 0.717700
1.403600 0.792600
1.424900 0.880100
1.446200 0.939000
1.467500 1.038500
1.488800 1.266700
1.510100 1.579100
1.531400 1.801900
1.552700 1.782300
1.574000 1.540100
1.595200 1.247400
1.616500 1.036600
1.637800 0.916600
1.659100 0.878000
1.680400 0.937000
1.701700 1.077900
1.723000 1.261100
1.744300 1.457500
1.765600 1.634500
1.786900 1.737200
1.808100 1.712700
1.829400 1.578500
1.850700 1.439100
1.872000 1.365800
1.893300 1.301900
1.914600 1.159500
1.935900 0.977700
1.957200 0.922100
1.978500 1.110700
1.999800 1.465400
2.021000 1.759600
2.042300 1.819000
2.063600 1.676900
2.084900 1.503700
2.106200 1.388200
2.127500 1.289100
2.148800 1.195400
2.170100 1.163100
2.191400 1.182700
2.212700 1.190100
2.233900 1.198700
2.255200 1.263100
2.276500 1.358600
2.297800 1.403700
2.319100 1.347600
2.340400 1.223000
2.361700 1.145900
2.383000 1.208000
2.404300 1.369700
2.425600 1.538700
2.446900 1.683400
2.468100 1.763400
2.489400 1.678600
2.510700 1.412900
2.532000 1.114800
2.553300 0.961300
2.574600 1.013300
2.595900 1.210400
2.617200 1.442400
2.638500 1.606700
2.659800 1.637000
2.681000 1.513800
2.702300 1.289100
2.723600 1.098700
2.744900 1.064400
2.766200 1.164700
2.787500 1.263000
2.808800 1.249900
2.830100 1.131600
2.851400 1.004100
2.872700 0.974100
2.893900 1.091900
2.915200 1.309600
2.936500 1.490700
2.957800 1.516700
2.979100 1.413700
3.000400 1.349000
3.021700 1.456400
3.043000 1.635500
3.064300 1.628800
3.085600 1.373400
3.106900 1.099200
3.128100 1.030500
3.149400 1.188500
3.170700 1.452100
3.192000 1.645900
3.213300 1.645100
3.234600 1.482100
3.255900 1.300800
3.277200 1.220000
3.298500 1.260200
3.319800 1.352000
3.341000 1.398200
3.362300 1.343000
3.383600 1.220100
3.404900 1.139800
3.426200 1.180700
3.447500 1.281700
3.468800 1.287000
3.490100 1.117800
3.511400 0.880100
3.532700 0.773200
3.553900 0.905100
3.575200 1.223000
3.596500 1.588300
3.617800 1.851600
3.639100 1.896900
3.660400 1.716600
3.681700 1.449500
3.703000 1.275400
3.724300 1.248600
3.745600 1.290300
3.766900 1.332600
3.788100 1.366100
3.809400 1.367200
3.830700 1.295500
3.852000 1.148000
3.873300 0.949000
3.894600 0.728700
3.915900 0.530400
3.937200 0.399600
3.958500 0.368700
3.979800 0.436700
4.001000 0.561100
4.022300 0.706800
4.043600 0.872400
4.064900 1.039700
4.086200 1.161500
4.107500 1.219600
4.128800 1.236000
4.150100 1.230500
4.171400 1.239500
4.192700 1.341700
4.213900 1.561200
4.235200 1.788700
4.256500 1.871000
4.277800 1.747100
4.299100 1.501400
4.320400 1.313700
4.341700 1.332800
4.363000 1.556100
4.384300 1.833900
4.405600 2.001000
4.426800 1.989300
4.448100 1.842700
4.469400 1.662100
4.490700 1.502000
4.512000 1.340900
4.533300 1.177500
4.554600 1.077600
4.575900 1.093400
4.597200 1.226100
4.618500 1.456900
4.639800 1.722100
4.661000 1.892200
4.682300 1.870900
4.703600 1.698700
4.724900 1.490700
4.746200 1.306400
4.767500 1.155800
4.788800 1.066300
4.810100 1.055000
4.831400 1.087900
4.852700 1.116000
4.873900 1.114200
4.895200 1.087500
4.916500 1.088000
4.937800 1.197700
4.959100 1.432100
4.980400 1.685300
5.001700 1.793500
5.023000 1.655100
5.044300 1.339600
5.065600 1.062300
5.086800 0.986600
5.108100 1.086500
5.129400 1.222300
5.150700 1.288400
5.172000 1.277200
5.193300 1.231500
5.214600 1.178200
5.235900 1.140700
5.257200 1.162800
5.278500 1.260200
5.299800 1.390500
5.321000 1.503200
5.342300 1.584600
5.363600 1.639000
5.384900 1.657100
5.406200 1.635500
5.427500 1.624900
5.448800 1.687400
5.470100 1.778700
5.491400 1.776600
5.512700 1.656500
5.533900 1.539000
5.555200 1.546200
5.576500 1.684500
5.597800 1.869100
5.619100 1.989300
5.640400 1.958100
5.661700 1.788700
5.683000 1.598900
5.704300 1.477600
5.725600 1.427700
5.746800 1.459700
5.768100 1.592900
5.789400 1.749700
5.810700 1.792300
5.832000 1.668500
5.853300 1.438100
5.874600 1.217900
5.895900 1.136700
5.917200 1.231700
5.938500 1.392300
5.959800 1.480400
5.981000 1.450200
6.002300 1.354700
6.023600 1.337900
6.044900 1.565300
6.066200 2.013000
6.087500 2.371800
6.108800 2.332800
6.130100 1.942800
6.151400 1.518200
6.172700 1.285900
6.193900 1.247800
6.215200 1.303500
6.236500 1.373900
6.257800 1.423400
6.279100 1.442700
6.300400 1.440700
6.321700 1.423100
6.343000 1.371500
6.364300 1.289800
6.385600 1.280200
6.406800 1.472900
6.428100 1.813300
6.449400 2.051800
6.470700 2.022900
6.492000 1.809700
6.513300 1.604600
6.534600 1.508800
6.555900 1.480400
6.577200 1.406600
6.598500 1.227600
6.619700 1.010900
6.641000 0.897100
6.662300 0.969100
6.683600 1.175000
6.704900 1.391000
6.726200 1.558900
6.747500 1.695700
6.768800 1.792700
6.790100 1.828300
6.811400 1.858800
6.832700 1.957300
6.853900 2.084300
6.875200 2.101000
6.896500 1.903100
6.917800 1.538400
6.939100 1.198500
6.960400 1.060300
6.981700 1.134700
7.003000 1.287300
7.024300 1.395000
7.045600 1.438000
7.066800 1.440000
7.088100 1.413100
7.109400 1.412800
7.130700 1.525400
7.152000 1.740300
7.173300 1.939800
7.194600 2.025600
7.215900 1.983100
7.237200 1.866600
7.258500 1.783600
7.279700 1.811200
7.301000 1.886500
7.322300 1.879400
7.343600 1.764100
7.364900 1.627200
7.386200 1.586300
7.407500 1.744100
7.428800 2.089600
7.450100 2.438300
7.471400 2.572500
7.492700 2.420400
7.513900 2.081200
7.535200 1.722300
7.556500 1.457800
7.577800 1.313000
7.599100 1.256800
7.620400 1.233700
7.641700 1.218200
7.663000 1.228900
7.684300 1.277700
7.705600 1.365700
7.726800 1.505700
7.748100 1.687500
7.769400 1.850000
7.790700 1.924400
7.812000 1.882900
7.833300 1.758900
7.854600 1.662300
7.875900 1.719100
7.897200 1.940900
7.918500 2.195600
7.939700 2.300400
7.961000 2.123700
7.982300 1.698600
8.003600 1.274200
8.024900 1.134900
8.046200 1.313100
8.067500 1.562900
8.088800 1.655800
8.110100 1.604900
8.131400 1.528600
8.152700 1.449000
8.173900 1.360700
8.195200 1.349400
8.216500 1.494800
8.237800 1.717200
8.259100 1.834900
8.280400 1.777500
8.301700 1.643600
8.323000 1.552900
8.344300 1.552300
8.365600 1.630400
8.386800 1.733400
8.408100 1.791300
8.429400 1.771000
8.450700 1.703100
8.472000 1.645600
8.493300 1.637800
8.514600 1.695200
8.535900 1.798700
8.557200 1.883200
8.578500 1.880300
8.599700 1.771900
8.621000 1.615400
8.642300 1.504900
8.663600 1.469100
8.684900 1.456400
8.706200 1.449100
8.727500 1.510000
8.748800 1.689400
8.770100 1.938300
8.791400 2.127800
8.812600 2.155900
8.833900 2.071400
8.855200 2.045000
8.876500 2.162900
8.897800 2.344900
8.919100 2.489100
8.940400 2.550900
8.961700 2.523100
8.983000 2.451800
9.004300 2.346600
9.025600 2.116700
9.046800 1.782900
9.068100 1.565700
9.089400 1.591800
9.110700 1.723400
9.132000 1.757100
9.153300 1.660400
9.174600 1.583700
9.195900 1.666500
9.217200 1.886600
9.238500 2.145400
9.259700 2.383300
9.281000 2.520500
9.302300 2.448400
9.323600 2.203400
9.344900 1.983200
9.366200 1.920300
9.387500 1.991000
9.408800 2.104600
9.430100 2.130900
9.451400 1.936500
9.472600 1.533000
9.493900 1.109600
9.515200 0.873100
9.536500 0.920900
9.557800 1.217100
9.579100 1.581200
9.600400 1.773900
9.621700 1.707000
9.643000 1.505900
9.664300 1.338900
9.685600 1.279800
9.706800 1.331900
9.728100 1.487000
9.749400 1.706700
9.770700 1.902100
9.792000 2.006200
9.813300 2.045400
9.834600 2.084000
9.855900 2.147100
9.877200 2.242300
9.898500 2.355800
9.919700 2.409200
9.941000 2.334700
9.962300 2.172000
9.983600 2.028200
10.004900 1.969200
10.026200 1.971900
10.047500 1.997400
10.068800 2.062700
10.090100 2.160700
10.111400 2.206100
10.132600 2.138600
10.153900 1.990400
10.175200 1.845300
10.196500 1.804600
10.217800 1.962100
10.239100 2.304400
10.260400 2.635200
10.281700 2.749500
10.303000 2.675900
10.324300 2.588600
10.345500 2.536500
10.366800 2.432100
10.388100 2.242200
10.409400 2.009000
10.430700 1.747600
10.452000 1.483300
10.473300 1.313900
10.494600 1.321500
10.515900 1.481400
10.537200 1.698700
10.558500 1.895500
10.579700 2.033700
10.601000 2.080000
10.622300 2.049000
10.643600 2.061400
10.664900 2.217200
10.686200 2.453300
10.707500 2.630300
10.728800 2.682000
10.750100 2.633400
10.771400 2.513700
10.792600 2.317400
10.813900 2.084100
10.835200 1.914700
10.856500 1.865100
10.877800 1.921700
10.899100 2.029400
10.920400 2.081600
10.941700 2.009400
10.963000 1.921700
10.984300 2.014200
11.005500 2.299200
11.026800 2.584000
11.048100 2.743100
11.069400 2.785400
11.090700 2.673200
11.112000 2.379600
11.133300 2.081600
11.154600 1.993700
11.175900 2.039000
11.197200 1.932900
11.218500 1.582900
11.239700 1.212700
11.261000 1.097100
11.282300 1.302100
11.303600 1.673400
11.324900 1.993700
11.346200 2.132600
11.367500 2.103300
11.388800 2.005600
11.410100 1.896800
11.431400 1.767800
11.452600 1.640600
11.473900 1.583900
11.495200 1.645900
11.516500 1.846500
11.537800 2.201100
11.559100 2.646200
11.580400 2.935400
11.601700 2.797200
11.623000 2.280200
11.644300 1.761800
11.665500 1.543300
11.686800 1.579300
11.708100 1.624500
11.729400 1.534400
11.750700 1.401500
11.772000 1.445800
11.793300 1.785700
11.814600 2.298100
11.835900 2.717900
11.857200 2.895900
11.878500 2.912000
11.899700 2.908800
11.921000 2.894600
11.942300 2.791300
11.963600 2.614000
11.984900 2.461200
12.006200 2.361000
12.027500 2.260500
12.048800 2.119600
12.070100 1.936200
12.091400 1.743000
12.112600 1.597600
12.133900 1.549200
12.155200 1.626400
12.176500 1.826700
12.197800 2.080700
12.219100 2.265700
12.240400 2.308900
12.261700 2.246500
12.283000 2.125400
12.304300 1.946400
12.325500 1.768100
12.346800 1.713600
12.368100 1.812900
12.389400 1.966000
12.410700 2.062500
12.432000 2.049900
12.453300 1.943700
12.474600 1.824900
12.495900 1.754600
12.517200 1.698900
12.538400 1.613900
12.559700 1.539500
12.581000 1.517600
12.602300 1.498900
12.623600 1.421000
12.644900 1.320200
12.666200 1.291600
12.687500 1.369400
12.708800 1.498500
12.730100 1.629500
12.751400 1.776300
12.772600 1.923500
12.793900 1.972700
12.815200 1.870500
12.836500 1.689100
12.857800 1.499700
12.879100 1.293100
12.900400 1.102300
12.921700 1.044300
12.943000 1.136800
12.964300 1.202700
12.985500 1.079900
13.006800 0.856800
13.028100 0.809300
13.049400 1.124600
13.070700 1.698300
13.092000 2.199100
13.113300 2.379100
13.134600 2.304800
13.155900 2.226000
13.177200 2.274100
13.198400 2.364700
13.219700 2.340700
13.241000 2.163300
13.262300 1.963900
13.283600 1.908400
13.304900 2.085600
13.326200 2.483500
13.347500 2.897300
13.368800 2.984300
13.390100 2.624400
13.411400 2.083700
13.432600 1.703600
13.453900 1.567200
13.475200 1.502400
13.496500 1.347000
13.517800 1.176000
13.539100 1.194100
13.560400 1.421700
13.581700 1.639600
13.603000 1.683100
13.624300 1.618300
13.645500 1.559800
13.666800 1.509400
13.688100 1.451800
13.709400 1.428700
13.730700 1.475600
13.752000 1.601500
13.773300 1.801200
