set title 'mp-1183587 - Density of States'
set xlabel 'Energy (eV)'
set ylabel 'DOS (states/eV)'
set grid
set xrange [-10:10]
set yrange [0:53.370]
set xzeroaxis lt -1
set terminal png size 800,600
set output 'mp-1183587_dos_gnuplot.png'
plot '-' using 1:2 with lines title 'DOS'
-10.071500 0.000000
-10.052000 0.000000
-10.032500 0.000000
-10.013000 0.000000
-9.993500 0.000000
-9.974000 0.000000
-9.954500 0.000000
-9.935000 0.000000
-9.915500 0.000000
-9.896000 0.000000
-9.876500 0.000000
-9.857000 0.000000
-9.837500 0.000000
-9.818000 0.000000
-9.798500 0.000000
-9.779100 0.000000
-9.759600 0.000000
-9.740100 0.000000
-9.720600 0.000000
-9.701100 0.000000
-9.681600 0.000000
-9.662100 0.000000
-9.642600 0.000000
-9.623100 0.000000
-9.603600 0.000000
-9.584100 0.000000
-9.564600 0.000000
-9.545100 0.000000
-9.525600 0.000000
-9.506100 0.000000
-9.486600 0.000000
-9.467200 0.000000
-9.447700 0.000000
-9.428200 0.000000
-9.408700 0.000000
-9.389200 0.000000
-9.369700 0.000000
-9.350200 0.000000
-9.330700 0.000000
-9.311200 0.000000
-9.291700 0.000000
-9.272200 0.000000
-9.252700 0.000000
-9.233200 0.000000
-9.213700 0.000000
-9.194200 0.000000
-9.174700 0.000000
-9.155300 0.000000
-9.135800 0.000000
-9.116300 0.000000
-9.096800 0.000000
-9.077300 0.000000
-9.057800 0.000000
-9.038300 0.000000
-9.018800 0.000000
-8.999300 0.000000
-8.979800 0.000000
-8.960300 0.000000
-8.940800 0.000000
-8.921300 0.000000
-8.901800 0.000000
-8.882300 0.000000
-8.862800 0.000000
-8.843400 0.000000
-8.823900 0.000000
-8.804400 0.000000
-8.784900 0.000000
-8.765400 0.000000
-8.745900 0.000000
-8.726400 0.000000
-8.706900 0.000000
-8.687400 0.000000
-8.667900 0.000000
-8.648400 0.000000
-8.628900 0.000000
-8.609400 0.000000
-8.589900 0.000000
-8.570400 0.000000
-8.550900 0.000000
-8.531500 0.000000
-8.512000 0.000000
-8.492500 0.000000
-8.473000 0.000000
-8.453500 0.000000
-8.434000 0.000000
-8.414500 0.000000
-8.395000 0.000000
-8.375500 0.000000
-8.356000 0.000000
-8.336500 0.000000
-8.317000 0.000000
-8.297500 0.000600
-8.278000 0.091000
-8.258500 0.278100
-8.239000 0.374200
-8.219500 0.445500
-8.200100 0.526000
-8.180600 0.624700
-8.161100 0.725500
-8.141600 0.789600
-8.122100 0.882000
-8.102600 0.979200
-8.083100 1.083800
-8.063600 1.189100
-8.044100 1.314000
-8.024600 1.459200
-8.005100 1.637500
-7.985600 1.835600
-7.966100 2.039100
-7.946600 2.305600
-7.927100 2.653900
-7.907600 3.285000
-7.888200 3.536700
-7.868700 4.016100
-7.849200 4.652700
-7.829700 5.431400
-7.810200 7.146200
-7.790700 14.921100
-7.771200 17.937700
-7.751700 13.271400
-7.732200 5.483100
-7.712700 0.000000
-7.693200 0.000000
-7.673700 0.000000
-7.654200 0.000000
-7.634700 0.000000
-7.615200 0.000000
-7.595700 0.000000
-7.576300 0.000000
-7.556800 0.000000
-7.537300 0.000000
-7.517800 0.000000
-7.498300 0.000000
-7.478800 0.000000
-7.459300 0.000000
-7.439800 0.000000
-7.420300 0.000000
-7.400800 0.000000
-7.381300 0.000000
-7.361800 0.000000
-7.342300 0.000000
-7.322800 0.000000
-7.303300 0.000000
-7.283800 0.000000
-7.264400 0.000000
-7.244900 0.000000
-7.225400 0.000000
-7.205900 0.000000
-7.186400 0.000000
-7.166900 0.000000
-7.147400 0.000000
-7.127900 0.000000
-7.108400 0.000000
-7.088900 0.000000
-7.069400 0.000000
-7.049900 0.000000
-7.030400 0.000000
-7.010900 0.000000
-6.991400 0.000000
-6.971900 0.000000
-6.952500 0.000000
-6.933000 0.000000
-6.913500 0.000000
-6.894000 0.000000
-6.874500 0.000000
-6.855000 0.000000
-6.835500 0.000000
-6.816000 0.000000
-6.796500 0.000000
-6.777000 0.000000
-6.757500 0.000000
-6.738000 0.000000
-6.718500 0.000000
-6.699000 0.000000
-6.679500 0.000000
-6.660000 0.000000
-6.640600 0.000000
-6.621100 0.000000
-6.601600 0.000000
-6.582100 0.000000
-6.562600 0.000000
-6.543100 0.000000
-6.523600 0.000000
-6.504100 0.000000
-6.484600 0.000000
-6.465100 0.000000
-6.445600 0.000000
-6.426100 0.000000
-6.406600 0.000000
-6.387100 0.000000
-6.367600 0.000000
-6.348100 0.000000
-6.328700 0.000000
-6.309200 0.000000
-6.289700 0.000000
-6.270200 0.000000
-6.250700 0.000000
-6.231200 0.000000
-6.211700 5.557500
-6.192200 6.470200
-6.172700 8.514800
-6.153200 11.210100
-6.133700 12.310400
-6.114200 15.743800
-6.094700 19.622600
-6.075200 23.736700
-6.055700 27.354200
-6.036200 48.518600
-6.016800 30.077000
-5.997300 30.707300
-5.977800 33.979500
-5.958300 29.087400
-5.938800 33.174700
-5.919300 36.637800
-5.899800 26.491900
-5.880300 28.857000
-5.860800 30.657400
-5.841300 17.760700
-5.821800 31.903100
-5.802300 25.532600
-5.782800 21.512600
-5.763300 21.412500
-5.743800 22.638000
-5.724300 24.059600
-5.704900 19.214900
-5.685400 25.317900
-5.665900 31.618800
-5.646400 16.984100
-5.626900 22.607500
-5.607400 23.513300
-5.587900 23.096900
-5.568400 24.846400
-5.548900 23.489300
-5.529400 30.082100
-5.509900 43.415800
-5.490400 35.819200
-5.470900 36.421400
-5.451400 46.539500
-5.431900 37.981900
-5.412400 27.713100
-5.392900 30.127600
-5.373500 39.374800
-5.354000 28.299300
-5.334500 31.970100
-5.315000 33.194300
-5.295500 26.745700
-5.276000 26.724900
-5.256500 26.019600
-5.237000 23.458900
-5.217500 20.165500
-5.198000 17.854800
-5.178500 20.552900
-5.159000 20.008100
-5.139500 24.515000
-5.120000 45.005100
-5.100500 19.266000
-5.081000 5.716200
-5.061600 3.661200
-5.042100 3.259600
-5.022600 1.486300
-5.003100 0.000000
-4.983600 0.000000
-4.964100 0.000000
-4.944600 0.000000
-4.925100 0.000000
-4.905600 0.000000
-4.886100 0.000000
-4.866600 0.000000
-4.847100 0.000000
-4.827600 0.000000
-4.808100 0.000000
-4.788600 0.000000
-4.769100 0.000000
-4.749700 0.000000
-4.730200 0.000000
-4.710700 0.000000
-4.691200 0.000000
-4.671700 0.000000
-4.652200 0.000000
-4.632700 0.000000
-4.613200 0.000000
-4.593700 0.000000
-4.574200 0.000000
-4.554700 0.000000
-4.535200 0.000000
-4.515700 0.000000
-4.496200 0.000000
-4.476700 0.000000
-4.457200 0.000000
-4.437800 0.000000
-4.418300 0.000000
-4.398800 0.000000
-4.379300 0.000000
-4.359800 0.000000
-4.340300 0.000000
-4.320800 0.000000
-4.301300 0.000000
-4.281800 0.000000
-4.262300 0.000000
-4.242800 0.000000
-4.223300 0.000000
-4.203800 0.000000
-4.184300 0.000000
-4.164800 0.000000
-4.145300 0.000000
-4.125900 0.000000
-4.106400 0.000000
-4.086900 0.000000
-4.067400 0.000000
-4.047900 0.000000
-4.028400 0.000000
-4.008900 0.000000
-3.989400 0.000000
-3.969900 0.000000
-3.950400 0.000000
-3.930900 0.000000
-3.911400 0.000000
-3.891900 0.000000
-3.872400 0.000000
-3.852900 0.000000
-3.833400 0.000000
-3.814000 0.000000
-3.794500 0.000000
-3.775000 0.000000
-3.755500 0.000000
-3.736000 0.000000
-3.716500 0.000000
-3.697000 0.000000
-3.677500 0.000000
-3.658000 0.000000
-3.638500 0.000000
-3.619000 0.000000
-3.599500 0.000000
-3.580000 0.000000
-3.560500 0.000000
-3.541000 0.000000
-3.521500 0.000000
-3.502100 0.000000
-3.482600 0.000000
-3.463100 0.000000
-3.443600 0.000000
-3.424100 0.000000
-3.404600 0.000000
-3.385100 0.054700
-3.365600 0.056800
-3.346100 0.076000
-3.326600 0.092500
-3.307100 0.106500
-3.287600 0.117900
-3.268100 0.126700
-3.248600 0.139200
-3.229100 0.149100
-3.209600 0.156800
-3.190200 0.169200
-3.170700 0.182000
-3.151200 0.195200
-3.131700 0.208700
-3.112200 0.209000
-3.092700 0.216000
-3.073200 0.225700
-3.053700 0.235900
-3.034200 0.246700
-3.014700 0.257900
-2.995200 0.269700
-2.975700 0.281700
-2.956200 0.597200
-2.936700 0.678400
-2.917200 0.759000
-2.897700 0.839500
-2.878300 0.932600
-2.858800 1.038900
-2.839300 1.143400
-2.819800 1.243500
-2.800300 1.365500
-2.780800 1.582200
-2.761300 1.734700
-2.741800 1.849500
-2.722300 1.915800
-2.702800 1.988700
-2.683300 2.036100
-2.663800 2.051800
-2.644300 2.420100
-2.624800 2.187400
-2.605300 2.120700
-2.585800 2.073500
-2.566400 2.054900
-2.546900 2.017700
-2.527400 1.981900
-2.507900 1.971700
-2.488400 1.974300
-2.468900 1.980500
-2.449400 1.981300
-2.429900 1.973400
-2.410400 1.949700
-2.390900 1.930800
-2.371400 1.912500
-2.351900 2.101900
-2.332400 1.806700
-2.312900 1.782800
-2.293400 1.758700
-2.273900 1.736400
-2.254400 1.719800
-2.235000 1.706100
-2.215500 1.693400
-2.196000 1.680800
-2.176500 1.673100
-2.157000 1.660900
-2.137500 1.651500
-2.118000 1.637900
-2.098500 1.631600
-2.079000 1.679700
-2.059500 1.663700
-2.040000 1.607400
-2.020500 1.587400
-2.001000 1.353400
-1.981500 1.266400
-1.962000 1.201800
-1.942500 1.155700
-1.923100 1.124300
-1.903600 1.047500
-1.884100 1.024900
-1.864600 1.017500
-1.845100 1.020500
-1.825600 1.032500
-1.806100 1.046500
-1.786600 1.005100
-1.767100 0.994000
-1.747600 0.963000
-1.728100 0.933200
-1.708600 0.959500
-1.689100 0.924100
-1.669600 0.891600
-1.650100 0.859500
-1.630600 0.799100
-1.611200 0.738500
-1.591700 0.723700
-1.572200 0.716400
-1.552700 0.610100
-1.533200 0.557200
-1.513700 0.535100
-1.494200 0.529100
-1.474700 0.527400
-1.455200 0.530100
-1.435700 0.530400
-1.416200 0.522200
-1.396700 0.538800
-1.377200 0.560200
-1.357700 0.586500
-1.338200 0.617600
-1.318700 0.700800
-1.299300 0.748200
-1.279800 0.796700
-1.260300 0.844600
-1.240800 0.891300
-1.221300 0.936600
-1.201800 0.980500
-1.182300 1.022900
-1.162800 1.062700
-1.143300 1.052600
-1.123800 1.051500
-1.104300 1.062300
-1.084800 1.072300
-1.065300 1.084100
-1.045800 1.104900
-1.026300 1.123400
-1.006800 1.135100
-0.987400 1.132700
-0.967900 1.160600
-0.948400 1.177800
-0.928900 1.181000
-0.909400 1.182300
-0.889900 1.198100
-0.870400 1.221100
-0.850900 1.234000
-0.831400 1.241400
-0.811900 1.247200
-0.792400 1.252100
-0.772900 1.255500
-0.753400 1.261900
-0.733900 1.267000
-0.714400 1.269600
-0.694900 1.271600
-0.675500 1.274700
-0.656000 1.296000
-0.636500 1.322100
-0.617000 1.350600
-0.597500 1.383000
-0.578000 1.423800
-0.558500 1.333300
-0.539000 1.347700
-0.519500 1.369200
-0.500000 1.395700
-0.480500 1.413600
-0.461000 1.420600
-0.441500 1.433400
-0.422000 1.449600
-0.402500 1.524100
-0.383000 1.526300
-0.363600 1.554200
-0.344100 1.591400
-0.324600 1.641000
-0.305100 1.679200
-0.285600 1.654000
-0.266100 1.635900
-0.246600 1.606200
-0.227100 1.524100
-0.207600 1.474500
-0.188100 1.441300
-0.168600 1.409500
-0.149100 1.379000
-0.129600 1.352900
-0.110100 1.382700
-0.090600 1.328900
-0.071100 1.303800
-0.051700 1.303800
-0.032200 1.302700
-0.012700 1.308700
0.006800 1.335000
0.026300 1.335500
0.045800 1.343000
0.065300 1.353100
0.084800 1.357600
0.104300 1.356300
0.123800 1.343600
0.143300 1.325200
0.162800 1.309800
0.182300 1.297200
0.201800 1.287600
0.221300 1.280900
0.240800 1.372000
0.260200 1.329800
0.279700 1.343800
0.299200 1.349100
0.318700 1.334300
0.338200 1.305400
0.357700 1.314900
0.377200 1.325500
0.396700 1.338400
0.416200 1.354900
0.435700 1.373500
0.455200 1.400200
0.474700 1.448400
0.494200 1.513600
0.513700 1.585100
0.533200 1.626100
0.552700 1.668200
0.572100 1.714800
0.591600 1.779400
0.611100 1.857800
0.630600 1.887700
0.650100 1.946400
0.669600 1.999200
0.689100 2.076900
0.708600 2.153000
0.728100 2.217200
0.747600 2.216800
0.767100 2.153700
0.786600 2.139100
0.806100 2.105300
0.825600 2.183000
0.845100 2.200800
0.864600 2.174300
0.884100 2.112100
0.903500 2.023100
0.923000 1.924600
0.942500 1.813200
0.962000 1.719100
0.981500 1.548800
1.001000 1.404400
1.020500 1.365800
1.040000 1.333700
1.059500 1.307400
1.079000 1.284800
1.098500 1.265500
1.118000 1.248700
1.137500 1.234900
1.157000 1.231200
1.176500 1.226800
1.196000 1.214400
1.215400 1.198000
1.234900 1.206300
1.254400 1.226700
1.273900 1.250000
1.293400 1.270800
1.312900 1.290000
1.332400 1.311100
1.351900 1.329700
1.371400 1.345300
1.390900 1.371100
1.410400 1.375600
1.429900 1.370700
1.449400 1.361600
1.468900 1.353300
1.488400 1.347300
1.507900 1.342800
1.527300 1.344200
1.546800 1.347300
1.566300 1.349600
1.585800 1.354500
1.605300 1.360300
1.624800 1.373300
1.644300 1.394200
1.663800 1.422500
1.683300 1.456200
1.702800 1.449000
1.722300 1.401500
1.741800 1.407900
1.761300 1.470700
1.780800 1.546600
1.800300 1.618900
1.819800 1.679700
1.839200 1.733000
1.858700 1.773800
1.878200 1.842300
1.897700 1.883800
1.917200 1.918600
1.936700 1.949300
1.956200 1.973300
1.975700 2.007300
1.995200 2.047300
2.014700 2.104500
2.034200 2.172600
2.053700 2.250300
2.073200 2.295900
2.092700 2.334800
2.112200 2.344200
2.131700 2.319700
2.151100 2.275900
2.170600 2.225200
2.190100 2.191100
2.209600 2.177900
2.229100 2.147500
2.248600 2.113600
2.268100 1.992600
2.287600 1.896800
2.307100 1.831100
2.326600 1.717100
2.346100 1.515000
2.365600 1.407200
2.385100 1.353000
2.404600 1.321200
2.424100 1.287900
2.443600 1.256800
2.463000 1.252300
2.482500 1.252800
2.502000 1.256000
2.521500 1.247400
2.541000 1.279900
2.560500 1.148200
2.580000 1.130900
2.599500 1.113800
2.619000 1.096200
2.638500 1.081100
2.658000 1.070200
2.677500 1.062900
2.697000 1.056800
2.716500 1.051900
2.736000 1.051200
2.755500 1.059300
2.774900 1.076300
2.794400 1.129800
2.813900 1.141200
2.833400 1.164000
2.852900 1.200200
2.872400 1.304400
2.891900 1.355500
2.911400 1.409600
2.930900 1.433700
2.950400 1.445100
2.969900 1.418400
2.989400 1.432200
3.008900 1.446900
3.028400 1.429800
3.047900 1.390800
3.067400 1.322800
3.086800 1.299300
3.106300 1.295800
3.125800 1.278300
3.145300 1.273600
3.164800 1.275000
3.184300 1.275800
3.203800 1.280200
3.223300 1.288100
3.242800 1.320100
3.262300 1.332100
3.281800 1.344500
3.301300 1.357300
3.320800 1.370600
3.340300 1.385000
3.359800 1.389600
3.379300 1.414300
3.398700 1.447300
3.418200 1.458200
3.437700 1.445100
3.457200 1.467400
3.476700 1.487000
3.496200 1.510400
3.515700 1.537300
3.535200 1.567100
3.554700 1.600000
3.574200 1.636100
3.593700 1.675300
3.613200 1.717000
3.632700 1.798200
3.652200 1.916800
3.671700 2.044300
3.691200 2.212000
3.710700 2.266500
3.730100 2.271200
3.749600 2.266300
3.769100 2.271000
3.788600 2.285000
3.808100 2.444900
3.827600 2.540600
3.847100 2.470100
3.866600 2.294400
3.886100 2.067800
3.905600 1.833400
3.925100 1.753600
3.944600 1.754600
3.964100 1.777600
3.983600 1.796800
4.003100 1.792300
4.022600 1.803900
4.042000 1.822600
4.061500 1.846600
4.081000 1.853900
4.100500 1.916000
4.120000 1.957100
4.139500 1.966800
4.159000 1.839200
4.178500 1.810400
4.198000 1.781900
4.217500 1.756200
4.237000 1.734700
4.256500 1.713800
4.276000 1.700400
4.295500 1.706200
4.315000 1.729800
4.334500 1.756900
4.353900 1.780800
4.373400 1.810400
4.392900 1.829700
4.412400 1.847700
4.431900 1.927100
4.451400 1.976500
4.470900 1.998800
4.490400 2.018200
4.509900 1.937400
4.529400 1.945600
4.548900 1.954700
4.568400 1.959500
4.587900 1.963300
4.607400 1.966000
4.626900 1.967700
4.646400 1.968900
4.665800 1.974700
4.685300 1.959100
4.704800 1.950900
4.724300 1.955200
4.743800 1.973700
4.763300 2.010800
4.782800 2.042800
4.802300 2.061300
4.821800 2.090300
4.841300 2.161600
4.860800 2.284700
4.880300 2.445300
4.899800 2.437900
4.919300 2.341200
4.938800 2.013800
4.958300 1.890700
4.977700 1.748300
4.997200 1.639100
5.016700 1.531200
5.036200 1.475200
5.055700 1.403800
5.075200 1.358900
5.094700 1.320500
5.114200 1.290200
5.133700 1.265900
5.153200 1.248700
5.172700 1.254900
5.192200 1.296400
5.211700 1.346000
5.231200 1.434100
5.250700 1.477800
5.270200 1.558600
5.289600 1.671400
5.309100 1.978800
5.328600 2.321800
5.348100 2.535500
5.367600 2.640700
5.387100 2.691500
5.406600 2.720600
5.426100 2.821900
5.445600 3.096400
5.465100 3.229600
5.484600 3.081300
5.504100 3.026200
5.523600 2.925300
5.543100 2.744300
5.562600 2.396900
5.582100 2.160100
5.601500 1.996900
5.621000 1.872400
5.640500 1.765200
5.660000 1.678100
5.679500 1.603100
5.699000 1.562300
5.718500 1.534100
5.738000 1.513800
5.757500 1.499500
5.777000 1.480300
5.796500 1.453300
5.816000 1.419500
5.835500 1.389900
5.855000 1.358500
5.874500 1.332600
5.894000 1.311500
5.913400 1.298300
5.932900 1.296000
5.952400 1.285000
5.971900 1.253600
5.991400 1.230700
6.010900 1.210600
6.030400 1.190000
6.049900 1.166800
6.069400 1.152300
6.088900 1.142600
6.108400 1.100400
6.127900 1.058600
6.147400 0.998400
6.166900 1.145200
6.186400 1.016600
6.205900 1.027100
6.225300 1.036800
6.244800 1.043700
6.264300 1.052100
6.283800 1.061800
6.303300 1.072900
6.322800 1.087600
6.342300 1.109000
6.361800 1.220400
6.381300 1.347200
6.400800 1.455500
6.420300 1.562600
6.439800 1.669900
6.459300 1.739500
6.478800 1.922700
6.498300 2.082100
6.517800 1.907100
6.537200 1.918700
6.556700 1.935300
6.576200 1.949700
6.595700 1.965300
6.615200 1.992000
6.634700 2.020400
6.654200 2.042900
6.673700 2.122500
6.693200 2.134700
6.712700 2.143900
6.732200 2.191300
6.751700 2.291900
6.771200 2.423600
6.790700 2.437900
6.810200 2.422000
6.829700 2.368400
6.849200 2.361100
6.868600 2.346100
6.888100 2.334600
6.907600 2.323800
6.927100 2.316800
6.946600 2.322000
6.966100 2.287300
6.985600 2.247200
7.005100 2.184600
7.024600 2.114000
7.044100 2.083500
7.063600 2.067400
7.083100 2.044400
7.102600 2.015500
7.122100 1.981100
7.141600 1.946300
7.161100 1.916200
7.180500 1.892500
7.200000 1.863500
7.219500 1.829000
7.239000 1.792900
7.258500 1.762400
7.278000 1.733400
7.297500 1.706200
7.317000 1.681600
7.336500 1.653300
7.356000 1.663200
7.375500 1.646100
7.395000 1.630800
7.414500 1.556300
7.434000 1.560300
7.453500 1.636800
7.473000 1.677900
7.492400 1.727700
7.511900 1.772500
7.531400 1.830900
7.550900 1.871400
7.570400 1.880600
7.589900 1.882900
7.609400 1.933700
7.628900 2.012200
7.648400 2.166200
7.667900 2.348200
7.687400 2.437100
7.706900 2.434600
7.726400 2.405500
7.745900 2.426000
7.765400 2.406300
7.784900 2.383600
7.804300 2.360300
7.823800 2.348900
7.843300 2.355500
7.862800 2.372300
7.882300 2.411100
7.901800 2.607400
7.921300 2.300700
7.940800 2.281600
7.960300 2.236800
7.979800 2.182700
7.999300 2.129800
8.018800 2.081500
8.038300 2.030400
8.057800 1.950900
8.077300 1.869500
8.096800 1.809100
8.116200 1.770700
8.135700 1.765400
8.155200 1.670500
8.174700 1.689200
8.194200 1.734000
8.213700 1.786600
8.233200 1.848000
8.252700 1.918000
8.272200 1.997400
8.291700 2.087300
8.311200 2.210500
8.330700 2.351900
8.350200 2.531200
8.369700 2.700200
8.389200 2.857600
8.408700 3.004900
8.428100 3.152800
8.447600 3.311700
8.467100 3.428600
8.486600 3.413100
8.506100 3.431400
8.525600 3.428900
8.545100 3.426500
8.564600 3.426300
8.584100 3.414400
8.603600 3.394400
8.623100 3.454800
8.642600 3.366100
8.662100 3.271400
8.681600 3.144600
8.701100 2.991300
8.720600 2.839400
8.740000 2.683100
8.759500 2.527900
8.779000 2.356800
8.798500 2.274700
8.818000 2.066400
8.837500 1.926100
8.857000 1.801500
8.876500 1.751100
8.896000 1.654600
8.915500 1.585200
8.935000 1.561900
8.954500 1.557000
8.974000 1.551000
8.993500 1.518400
9.013000 1.649100
9.032500 1.682800
9.051900 1.594100
9.071400 1.477200
9.090900 1.396000
9.110400 1.326700
9.129900 1.331700
9.149400 1.346100
9.168900 1.364300
9.188400 1.374700
9.207900 1.376100
9.227400 1.417500
9.246900 1.506200
9.266400 1.630900
9.285900 1.672900
9.305400 1.709600
9.324900 1.730400
9.344400 1.667900
9.363800 1.530800
9.383300 1.476000
9.402800 1.469900
9.422300 1.471700
9.441800 1.474300
9.461300 1.473500
9.480800 1.471200
9.500300 1.470400
9.519800 1.470400
9.539300 1.471100
9.558800 1.478000
9.578300 1.505800
9.597800 1.570300
9.617300 1.653400
9.636800 1.659000
9.656300 1.567000
9.675700 1.539700
9.695200 1.570500
9.714700 1.603800
9.734200 1.632400
9.753700 1.655500
9.773200 1.680000
9.792700 1.736300
9.812200 1.776200
9.831700 1.790600
9.851200 1.788600
9.870700 1.773100
9.890200 1.770900
9.909700 1.821000
9.929200 1.832200
9.948700 1.847100
9.968200 1.860900
9.987700 1.874500
10.007100 1.887400
10.026600 1.900200
10.046100 1.907000
10.065600 1.926300
10.085100 1.951900
10.104600 1.983600
10.124100 2.019300
10.143600 2.058200
10.163100 2.075600
10.182600 2.089400
10.202100 2.108200
10.221600 2.115400
10.241100 2.196900
10.260600 2.238000
10.280100 2.302200
10.299600 2.359800
10.319000 2.402600
10.338500 2.438700
10.358000 2.452700
10.377500 2.409000
10.397000 2.359500
10.416500 2.301600
10.436000 2.292300
10.455500 2.313200
10.475000 2.319400
10.494500 2.337700
10.514000 2.346200
10.533500 2.347700
10.553000 2.349500
10.572500 2.351800
10.592000 2.354300
