set title 'mp-1094073 - Density of States'
set xlabel 'Energy (eV)'
set ylabel 'DOS (states/eV)'
set grid
set xrange [-10:10]
set yrange [0:4.655]
set xzeroaxis lt -1
set terminal png size 800,600
set output 'mp-1094073_dos_gnuplot.png'
plot '-' using 1:2 with lines title 'DOS'
-15.796100 0.000000
-15.773600 0.000000
-15.751000 0.000000
-15.728400 0.000000
-15.705800 0.000000
-15.683200 0.000000
-15.660600 0.000000
-15.638000 0.000000
-15.615500 0.000000
-15.592900 0.000000
-15.570300 0.000000
-15.547700 0.000000
-15.525100 0.000000
-15.502500 0.000000
-15.479900 0.000000
-15.457400 0.000000
-15.434800 0.000000
-15.412200 0.000000
-15.389600 0.000000
-15.367000 0.000000
-15.344400 0.000000
-15.321900 0.000000
-15.299300 0.000000
-15.276700 0.000000
-15.254100 0.000000
-15.231500 0.000000
-15.208900 0.000000
-15.186300 0.000000
-15.163800 0.000000
-15.141200 0.000000
-15.118600 0.000000
-15.096000 0.000000
-15.073400 0.000000
-15.050800 0.000000
-15.028200 0.000000
-15.005700 0.000000
-14.983100 0.000000
-14.960500 0.000000
-14.937900 0.000000
-14.915300 0.000000
-14.892700 0.000000
-14.870200 0.000000
-14.847600 0.000000
-14.825000 0.000000
-14.802400 0.000000
-14.779800 0.000000
-14.757200 0.000000
-14.734600 0.000000
-14.712100 0.000000
-14.689500 0.000000
-14.666900 0.000000
-14.644300 0.000000
-14.621700 0.000000
-14.599100 0.000000
-14.576500 0.000000
-14.554000 0.000000
-14.531400 0.000000
-14.508800 0.000000
-14.486200 0.000000
-14.463600 0.000000
-14.441000 0.000000
-14.418500 0.000000
-14.395900 0.000000
-14.373300 0.000000
-14.350700 0.000000
-14.328100 0.000000
-14.305500 0.000000
-14.282900 0.000000
-14.260400 0.000000
-14.237800 0.000000
-14.215200 0.000000
-14.192600 0.000000
-14.170000 0.000000
-14.147400 0.000000
-14.124800 0.000000
-14.102300 0.000000
-14.079700 0.000000
-14.057100 0.000000
-14.034500 0.000000
-14.011900 0.000000
-13.989300 0.000000
-13.966800 0.000000
-13.944200 0.000000
-13.921600 0.000000
-13.899000 0.000000
-13.876400 0.000000
-13.853800 0.000000
-13.831200 0.000000
-13.808700 0.000000
-13.786100 0.000000
-13.763500 0.000000
-13.740900 0.002600
-13.718300 0.297700
-13.695700 0.618500
-13.673100 0.932900
-13.650600 1.077300
-13.628000 1.246300
-13.605400 1.465800
-13.582800 1.736300
-13.560200 2.002200
-13.537600 2.137200
-13.515100 2.215600
-13.492500 2.307800
-13.469900 2.789900
-13.447300 3.197000
-13.424700 3.966200
-13.402100 4.441500
-13.379500 4.618100
-13.357000 4.325100
-13.334400 4.342500
-13.311800 4.503700
-13.289200 4.097600
-13.266600 3.612400
-13.244000 3.148500
-13.221400 3.037200
-13.198900 2.891000
-13.176300 2.703700
-13.153700 2.579300
-13.131100 2.460200
-13.108500 2.348100
-13.085900 2.228200
-13.063300 2.163900
-13.040800 2.132200
-13.018200 2.105400
-12.995600 2.079200
-12.973000 2.052900
-12.950400 2.004000
-12.927800 1.963200
-12.905300 1.890700
-12.882700 1.828600
-12.860100 1.786300
-12.837500 1.744500
-12.814900 1.707300
-12.792300 1.658500
-12.769700 1.644800
-12.747200 1.632900
-12.724600 1.620800
-12.702000 1.607500
-12.679400 1.592200
-12.656800 1.574500
-12.634200 1.557500
-12.611600 1.542600
-12.589100 1.528000
-12.566500 1.512900
-12.543900 1.482900
-12.521300 1.458500
-12.498700 1.412600
-12.476100 1.386000
-12.453600 1.363100
-12.431000 1.340600
-12.408400 1.320300
-12.385800 1.303900
-12.363200 1.303900
-12.340600 1.303900
-12.318000 1.303900
-12.295500 1.303200
-12.272900 1.296300
-12.250300 1.289300
-12.227700 1.281900
-12.205100 1.274200
-12.182500 1.265600
-12.159900 1.255700
-12.137400 1.244300
-12.114800 1.234500
-12.092200 1.225200
-12.069600 1.216200
-12.047000 1.203500
-12.024400 1.194200
-12.001900 1.187400
-11.979300 1.189200
-11.956700 1.198900
-11.934100 1.224300
-11.911500 1.263200
-11.888900 1.331500
-11.866300 1.356100
-11.843800 1.355800
-11.821200 1.355600
-11.798600 1.355400
-11.776000 1.355200
-11.753400 1.355000
-11.730800 1.354800
-11.708200 1.354600
-11.685700 1.354500
-11.663100 1.305700
-11.640500 1.192300
-11.617900 1.076100
-11.595300 0.969700
-11.572700 0.860200
-11.550200 0.743200
-11.527600 0.614500
-11.505000 0.481400
-11.482400 0.371300
-11.459800 0.266200
-11.437200 0.129700
-11.414600 0.052900
-11.392100 0.155500
-11.369500 0.379000
-11.346900 0.556100
-11.324300 0.701800
-11.301700 0.849200
-11.279100 0.997200
-11.256500 1.099600
-11.234000 1.099500
-11.211400 1.099500
-11.188800 1.099400
-11.166200 1.099400
-11.143600 1.099300
-11.121000 1.099200
-11.098500 1.099200
-11.075900 1.099100
-11.053300 1.099100
-11.030700 1.099000
-11.008100 1.099000
-10.985500 1.098900
-10.962900 1.098900
-10.940400 1.096300
-10.917800 1.061800
-10.895200 1.031000
-10.872600 1.004800
-10.850000 0.981200
-10.827400 0.958600
-10.804800 0.938500
-10.782300 0.918600
-10.759700 0.904200
-10.737100 0.892800
-10.714500 0.882500
-10.691900 0.868700
-10.669300 0.859600
-10.646800 0.845700
-10.624200 0.837300
-10.601600 0.829800
-10.579000 0.822900
-10.556400 0.816400
-10.533800 0.812900
-10.511200 0.812900
-10.488700 0.812900
-10.466100 0.812900
-10.443500 0.812900
-10.420900 0.812900
-10.398300 0.812900
-10.375700 0.812900
-10.353100 0.812900
-10.330600 0.812900
-10.308000 0.812900
-10.285400 0.812900
-10.262800 0.812900
-10.240200 0.812900
-10.217600 0.812900
-10.195100 0.812900
-10.172500 0.812900
-10.149900 0.812900
-10.127300 0.812900
-10.104700 0.812400
-10.082100 0.809700
-10.059500 0.806800
-10.037000 0.803800
-10.014400 0.800600
-9.991800 0.796900
-9.969200 0.792400
-9.946600 0.788000
-9.924000 0.784100
-9.901400 0.780400
-9.878900 0.774600
-9.856300 0.768800
-9.833700 0.758900
-9.811100 0.753100
-9.788500 0.748100
-9.765900 0.743500
-9.743400 0.739200
-9.720800 0.736000
-9.698200 0.736000
-9.675600 0.736000
-9.653000 0.736100
-9.630400 0.736100
-9.607800 0.736100
-9.585300 0.736100
-9.562700 0.736100
-9.540100 0.736100
-9.517500 0.736100
-9.494900 0.736100
-9.472300 0.736100
-9.449700 0.736100
-9.427200 0.736100
-9.404600 0.736100
-9.382000 0.736100
-9.359400 0.736100
-9.336800 0.736100
-9.314200 0.736100
-9.291700 0.736100
-9.269100 0.736100
-9.246500 0.736100
-9.223900 0.736100
-9.201300 0.736100
-9.178700 0.735600
-9.156100 0.733600
-9.133600 0.731400
-9.111000 0.729200
-9.088400 0.726700
-9.065800 0.723900
-9.043200 0.720400
-9.020600 0.717500
-8.998000 0.714800
-8.975500 0.711400
-8.952900 0.707400
-8.930300 0.701900
-8.907700 0.698500
-8.885100 0.695500
-8.862500 0.692700
-8.839900 0.690200
-8.817400 0.688500
-8.794800 0.688500
-8.772200 0.688500
-8.749600 0.688500
-8.727000 0.688500
-8.704400 0.688500
-8.681900 0.688500
-8.659300 0.688500
-8.636700 0.688500
-8.614100 0.688500
-8.591500 0.688500
-8.568900 0.688500
-8.546300 0.688500
-8.523800 0.688500
-8.501200 0.688500
-8.478600 0.688500
-8.456000 0.688500
-8.433400 0.688500
-8.410800 0.688500
-8.388200 0.688500
-8.365700 0.688500
-8.343100 0.688500
-8.320500 0.688500
-8.297900 0.688500
-8.275300 0.688500
-8.252700 0.688500
-8.230200 0.688500
-8.207600 0.688500
-8.185000 0.688500
-8.162400 0.687800
-8.139800 0.687200
-8.117200 0.686600
-8.094600 0.686200
-8.072100 0.685900
-8.049500 0.686000
-8.026900 0.687100
-8.004300 0.687800
-7.981700 0.689200
-7.959100 0.689800
-7.936500 0.690300
-7.914000 0.690600
-7.891400 0.690800
-7.868800 0.690900
-7.846200 0.690900
-7.823600 0.690900
-7.801000 0.690900
-7.778500 0.690900
-7.755900 0.690900
-7.733300 0.690900
-7.710700 0.690900
-7.688100 0.690900
-7.665500 0.690900
-7.642900 0.690900
-7.620400 0.690900
-7.597800 0.690900
-7.575200 0.690900
-7.552600 0.690900
-7.530000 0.690900
-7.507400 0.690900
-7.484800 0.690900
-7.462300 0.690900
-7.439700 0.690900
-7.417100 0.690900
-7.394500 0.690900
-7.371900 0.690900
-7.349300 0.690900
-7.326800 0.690900
-7.304200 0.690900
-7.281600 0.690900
-7.259000 0.690900
-7.236400 0.690900
-7.213800 0.690900
-7.191200 0.690900
-7.168700 0.690900
-7.146100 0.705900
-7.123500 0.741700
-7.100900 0.801000
-7.078300 0.893300
-7.055700 0.950400
-7.033100 0.980800
-7.010600 1.009500
-6.988000 1.041800
-6.965400 1.069700
-6.942800 1.092900
-6.920200 1.114200
-6.897600 1.133600
-6.875100 1.137600
-6.852500 1.137600
-6.829900 1.137600
-6.807300 1.137500
-6.784700 1.137500
-6.762100 1.137500
-6.739500 1.137400
-6.717000 1.137400
-6.694400 1.137300
-6.671800 1.137300
-6.649200 1.137300
-6.626600 1.137200
-6.604000 1.137200
-6.581400 1.137200
-6.558900 1.119600
-6.536300 0.945900
-6.513700 0.769400
-6.491100 0.640400
-6.468500 0.519200
-6.445900 0.380700
-6.423400 0.288900
-6.400800 0.219600
-6.378200 0.172100
-6.355600 0.106100
-6.333000 0.045300
-6.310400 0.000000
-6.287800 0.000000
-6.265300 0.000000
-6.242700 0.000000
-6.220100 0.000000
-6.197500 0.000000
-6.174900 0.000000
-6.152300 0.000000
-6.129700 0.000000
-6.107200 0.000000
-6.084600 0.000000
-6.062000 0.000000
-6.039400 0.000000
-6.016800 0.000000
-5.994200 0.000000
-5.971700 0.000000
-5.949100 0.000000
-5.926500 0.000000
-5.903900 0.000000
-5.881300 0.000000
-5.858700 0.000000
-5.836100 0.000000
-5.813600 0.000000
-5.791000 0.000000
-5.768400 0.000000
-5.745800 0.000000
-5.723200 0.000000
-5.700600 0.000000
-5.678000 0.000000
-5.655500 0.000000
-5.632900 0.000000
-5.610300 0.000000
-5.587700 0.000000
-5.565100 0.000000
-5.542500 0.000000
-5.520000 0.000000
-5.497400 0.000000
-5.474800 0.000000
-5.452200 0.000000
-5.429600 0.000000
-5.407000 0.000000
-5.384400 0.000000
-5.361900 0.000000
-5.339300 0.000000
-5.316700 0.000000
-5.294100 0.000000
-5.271500 0.000000
-5.248900 0.000000
-5.226300 0.000000
-5.203800 0.000900
-5.181200 0.050800
-5.158600 0.110400
-5.136000 0.178900
-5.113400 0.269700
-5.090800 0.352400
-5.068300 0.437400
-5.045700 0.577300
-5.023100 0.767500
-5.000500 0.989800
-4.977900 1.133900
-4.955300 1.256800
-4.932700 1.259100
-4.910200 1.259000
-4.887600 1.259000
-4.865000 1.259000
-4.842400 1.258900
-4.819800 1.258900
-4.797200 1.258800
-4.774600 1.258800
-4.752100 1.258800
-4.729500 1.258700
-4.706900 1.258700
-4.684300 1.258700
-4.661700 1.258600
-4.639100 1.258600
-4.616600 1.258500
-4.594000 1.241000
-4.571400 1.170600
-4.548800 1.093100
-4.526200 1.029300
-4.503600 0.987900
-4.481000 0.954600
-4.458500 0.932000
-4.435900 0.905700
-4.413300 0.882200
-4.390700 0.860900
-4.368100 0.853800
-4.345500 0.853600
-4.322900 0.853500
-4.300400 0.853400
-4.277800 0.853300
-4.255200 0.853200
-4.232600 0.853000
-4.210000 0.852900
-4.187400 0.852800
-4.164800 0.852700
-4.142300 0.852500
-4.119700 0.852400
-4.097100 0.852300
-4.074500 0.852200
-4.051900 0.852100
-4.029300 0.851900
-4.006800 0.851800
-3.984200 0.851700
-3.961600 0.854500
-3.939000 0.860800
-3.916400 0.868200
-3.893800 0.876700
-3.871200 0.886600
-3.848700 0.897800
-3.826100 0.907200
-3.803500 0.915200
-3.780900 0.922600
-3.758300 0.929200
-3.735700 0.935500
-3.713100 0.941800
-3.690600 0.948000
-3.668000 0.954500
-3.645400 0.960800
-3.622800 0.967300
-3.600200 0.977600
-3.577600 0.984200
-3.555100 0.988100
-3.532500 0.990000
-3.509900 0.991200
-3.487300 0.991600
-3.464700 0.991300
-3.442100 0.990800
-3.419500 0.991300
-3.397000 0.992800
-3.374400 0.994600
-3.351800 0.996800
-3.329200 0.999500
-3.306600 1.002400
-3.284000 1.005900
-3.261400 1.010400
-3.238900 1.014900
-3.216300 1.019200
-3.193700 1.023400
-3.171100 1.027200
-3.148500 1.030900
-3.125900 1.034600
-3.103400 1.038300
-3.080800 1.041900
-3.058200 1.045500
-3.035600 1.049100
-3.013000 1.053000
-2.990400 1.057100
-2.967800 1.061700
-2.945300 1.101300
-2.922700 1.193700
-2.900100 1.302000
-2.877500 1.367000
-2.854900 1.392100
-2.832300 1.417700
-2.809700 1.461600
-2.787200 1.506200
-2.764600 1.543000
-2.742000 1.578700
-2.719400 1.616000
-2.696800 1.651100
-2.674200 1.677900
-2.651700 1.703300
-2.629100 1.731900
-2.606500 1.762300
-2.583900 1.798100
-2.561300 1.832300
-2.538700 1.862800
-2.516100 1.892300
-2.493600 1.924000
-2.471000 1.960900
-2.448400 2.000000
-2.425800 2.039700
-2.403200 2.079800
-2.380600 2.118200
-2.358000 2.183000
-2.335500 2.246500
-2.312900 2.329500
-2.290300 2.494200
-2.267700 2.576000
-2.245100 2.633100
-2.222500 2.677600
-2.200000 2.702600
-2.177400 2.713900
-2.154800 2.706800
-2.132200 2.650000
-2.109600 2.645800
-2.087000 2.619000
-2.064400 2.577100
-2.041900 2.522900
-2.019300 2.508400
-1.996700 2.520000
-1.974100 2.532600
-1.951500 2.545900
-1.928900 2.568400
-1.906300 2.601100
-1.883800 2.633200
-1.861200 2.655800
-1.838600 2.665000
-1.816000 2.683100
-1.793400 2.707000
-1.770800 2.740600
-1.748300 2.731700
-1.725700 2.711900
-1.703100 2.709500
-1.680500 2.709200
-1.657900 2.701500
-1.635300 2.693900
-1.612700 2.688700
-1.590200 2.681000
-1.567600 2.666600
-1.545000 2.635900
-1.522400 2.608500
-1.499800 2.587100
-1.477200 2.597300
-1.454600 2.613100
-1.432100 2.627500
-1.409500 2.631200
-1.386900 2.633200
-1.364300 2.635700
-1.341700 2.638700
-1.319100 2.646200
-1.296600 2.658500
-1.274000 2.676500
-1.251400 2.704600
-1.228800 2.745800
-1.206200 2.804500
-1.183600 2.879300
-1.161000 2.965400
-1.138500 3.036800
-1.115900 3.094600
-1.093300 3.141100
-1.070700 3.189300
-1.048100 3.276300
-1.025500 3.361800
-1.002900 3.438300
-0.980400 3.420200
-0.957800 3.440300
-0.935200 3.373700
-0.912600 3.248900
-0.890000 3.225800
-0.867400 3.287200
-0.844900 3.336200
-0.822300 3.355600
-0.799700 3.307900
-0.777100 3.202200
-0.754500 3.197500
-0.731900 3.236400
-0.709300 3.330400
-0.686800 3.422900
-0.664200 3.468900
-0.641600 3.494600
-0.619000 3.540500
-0.596400 3.669300
-0.573800 3.664600
-0.551200 3.693600
-0.528700 3.710700
-0.506100 3.732300
-0.483500 3.737000
-0.460900 3.721400
-0.438300 3.711000
-0.415700 3.733100
-0.393200 3.798300
-0.370600 3.866800
-0.348000 3.883800
-0.325400 3.873300
-0.302800 4.104500
-0.280200 4.173500
-0.257600 4.231400
-0.235100 4.138600
-0.212500 4.110100
-0.189900 4.124100
-0.167300 4.028700
-0.144700 3.861700
-0.122100 3.770100
-0.099500 3.702700
-0.077000 3.597000
-0.054400 3.446200
-0.031800 3.298400
-0.009200 3.146900
0.013400 3.005400
0.036000 2.880800
0.058500 2.776200
0.081100 2.691400
0.103700 2.619700
0.126300 2.566100
0.148900 2.543900
0.171500 2.563400
0.194100 2.633600
0.216600 2.727800
0.239200 2.862300
0.261800 2.974300
0.284400 3.004400
0.307000 3.076000
0.329600 3.157500
0.352200 3.245600
0.374700 3.348600
0.397300 3.495400
0.419900 3.594000
0.442500 3.693300
0.465100 3.675700
0.487700 3.610200
0.510300 3.502600
0.532800 3.320800
0.555400 3.125500
0.578000 2.934600
0.600600 2.773200
0.623200 2.615200
0.645800 2.459600
0.668300 2.328000
0.690900 2.229600
0.713500 2.144300
0.736100 2.062200
0.758700 2.025200
0.781300 2.132700
0.803900 2.296900
0.826400 2.325200
0.849000 2.337500
0.871600 2.378900
0.894200 2.470300
0.916800 2.557500
0.939400 2.610400
0.962000 2.627400
0.984500 2.596600
1.007100 2.676900
1.029700 2.793500
1.052300 2.742000
1.074900 2.670700
1.097500 2.654300
1.120000 2.699600
1.142600 2.782200
1.165200 2.867000
1.187800 2.941800
1.210400 3.005500
1.233000 3.018300
1.255600 3.029200
1.278100 3.022000
1.300700 2.974300
1.323300 2.941900
1.345900 2.915200
1.368500 2.870600
1.391100 2.831500
1.413700 2.797300
1.436200 2.763200
1.458800 2.727600
1.481400 2.689700
1.504000 2.647600
1.526600 2.612700
1.549200 2.616400
1.571700 2.608500
1.594300 2.623200
1.616900 2.635000
1.639500 2.657600
1.662100 2.662000
1.684700 2.652200
1.707300 2.634800
1.729800 2.643200
1.752400 2.685300
1.775000 2.755800
1.797600 2.826300
1.820200 2.892700
1.842800 2.963400
1.865400 3.160900
1.887900 3.209500
1.910500 3.213800
1.933100 3.224300
1.955700 3.184900
1.978300 3.100400
2.000900 3.041400
2.023400 3.146300
2.046000 3.266000
2.068600 3.407600
2.091200 3.502200
2.113800 3.542200
2.136400 3.841200
2.159000 4.198600
2.181500 3.441300
2.204100 3.017000
2.226700 2.750100
2.249300 2.563500
2.271900 2.404800
2.294500 2.216900
2.317100 2.121100
2.339600 2.192200
2.362200 2.061200
2.384800 1.994800
2.407400 1.945400
2.430000 1.907500
2.452600 1.886200
2.475100 1.866900
2.497700 1.850100
2.520300 1.837200
2.542900 1.842400
2.565500 1.860100
2.588100 1.880200
2.610700 1.924500
2.633200 1.990700
2.655800 2.059500
2.678400 2.111400
2.701000 2.161200
2.723600 2.211000
2.746200 2.262800
2.768800 2.316400
2.791300 2.358300
2.813900 2.368700
2.836500 2.386500
2.859100 2.414600
2.881700 2.462300
2.904300 2.526900
2.926800 2.679100
2.949400 2.837100
2.972000 2.957100
2.994600 3.023300
3.017200 3.086600
3.039800 3.034800
3.062400 2.457700
3.084900 2.165800
3.107500 1.960600
3.130100 1.874000
3.152700 1.789200
3.175300 1.664700
3.197900 1.583900
3.220500 1.507700
3.243000 1.409200
3.265600 1.333300
3.288200 1.269200
3.310800 1.180200
3.333400 0.990900
3.356000 0.773600
3.378500 0.512400
3.401100 0.458700
3.423700 0.458700
3.446300 0.458700
3.468900 0.458700
3.491500 0.458700
3.514100 0.458700
3.536600 0.458700
3.559200 0.458700
3.581800 0.457200
3.604400 0.454800
3.627000 0.451600
3.649600 0.446400
3.672200 0.443600
3.694700 0.442500
3.717300 0.442300
3.739900 0.442600
3.762500 0.443300
3.785100 0.443800
3.807700 0.443800
3.830200 0.443800
3.852800 0.443800
3.875400 0.443800
3.898000 0.443800
3.920600 0.443800
3.943200 0.443800
3.965800 0.443800
3.988300 0.443800
4.010900 0.443800
4.033500 0.443800
4.056100 0.443800
4.078700 0.443800
4.101300 0.443800
4.123900 0.443800
4.146400 0.443800
4.169000 0.443800
4.191600 0.443800
4.214200 0.443800
4.236800 0.443800
4.259400 0.443800
4.281900 0.443800
4.304500 0.443800
4.327100 0.443800
4.349700 0.443800
4.372300 0.443800
4.394900 0.443800
4.417500 0.443800
4.440000 0.443800
4.462600 0.443800
4.485200 0.443800
4.507800 0.443800
4.530400 0.443800
4.553000 0.443800
4.575600 0.443800
4.598100 0.443800
4.620700 0.443800
4.643300 0.443800
4.665900 0.443800
4.688500 0.443800
4.711100 0.443800
4.733700 0.443800
4.756200 0.443800
4.778800 0.443800
4.801400 0.443800
4.824000 0.443800
4.846600 0.443800
4.869200 0.443800
4.891700 0.443800
4.914300 0.443800
4.936900 0.443800
4.959500 0.443800
4.982100 0.443800
5.004700 0.443800
5.027300 0.443800
5.049800 0.443800
5.072400 0.443800
5.095000 0.443800
5.117600 0.414100
5.140200 0.308300
5.162800 0.206400
5.185400 0.063900
5.207900 0.067400
5.230500 0.306300
5.253100 0.442900
5.275700 0.496500
5.298300 0.496500
5.320900 0.496500
5.343400 0.496500
5.366000 0.496500
5.388600 0.496400
5.411200 0.496400
5.433800 0.496400
5.456400 0.496400
5.479000 0.496400
5.501500 0.496400
5.524100 0.496300
5.546700 0.496300
5.569300 0.496300
5.591900 0.496300
5.614500 0.496300
5.637100 0.496200
5.659600 0.496200
5.682200 0.496200
5.704800 0.496200
5.727400 0.496200
5.750000 0.496200
5.772600 0.496100
5.795100 0.496100
5.817700 0.496100
5.840300 0.496100
5.862900 0.496100
5.885500 0.496100
5.908100 0.496000
5.930700 0.496000
5.953200 0.496000
5.975800 0.496000
5.998400 0.496000
6.021000 0.496000
6.043600 0.495900
6.066200 0.495900
6.088800 0.495900
6.111300 0.495900
6.133900 0.495900
6.156500 0.495800
6.179100 0.495900
6.201700 0.505200
6.224300 0.524900
6.246800 0.549900
6.269400 0.575500
6.292000 0.596100
6.314600 0.615300
6.337200 0.677300
6.359800 0.832000
6.382400 1.049100
6.404900 1.307100
6.427500 1.524800
6.450100 1.729000
6.472700 1.897000
6.495300 1.989500
6.517900 2.088900
6.540500 2.226800
6.563000 2.386000
6.585600 2.628800
6.608200 2.908100
6.630800 2.983800
6.653400 3.110800
6.676000 3.476900
6.698500 3.804600
6.721100 3.828200
6.743700 3.744600
6.766300 3.708700
6.788900 3.700700
6.811500 3.728500
6.834100 3.768000
6.856600 3.763900
6.879200 3.720600
6.901800 3.644000
6.924400 3.577100
6.947000 3.681600
6.969600 3.823400
6.992200 3.920400
7.014700 4.051300
7.037300 4.014600
7.059900 3.809000
7.082500 3.551200
7.105100 3.245400
7.127700 2.904700
7.150200 2.686400
7.172800 2.558500
7.195400 2.401400
7.218000 2.235700
7.240600 2.088800
7.263200 1.957400
7.285800 1.853900
7.308300 1.767700
7.330900 1.693400
7.353500 1.627900
7.376100 1.567800
7.398700 1.511200
7.421300 1.462600
7.443900 1.418700
7.466400 1.381700
7.489000 1.365700
7.511600 1.393700
7.534200 1.424100
7.556800 1.445900
7.579400 1.493400
7.601900 1.503000
7.624500 1.499600
7.647100 1.776400
7.669700 1.966200
7.692300 2.171200
7.714900 1.050300
