set title 'mp-1184687 - Density of States'
set xlabel 'Energy (eV)'
set ylabel 'DOS (states/eV)'
set grid
set xrange [-10:10]
set yrange [0:28.672]
set xzeroaxis lt -1
set terminal png size 800,600
set output 'mp-1184687_dos_gnuplot.png'
plot '-' using 1:2 with lines title 'DOS'
-8.474900 0.000000
-8.450400 0.000000
-8.425900 0.000000
-8.401400 0.000000
-8.376900 0.000000
-8.352300 0.000000
-8.327800 0.000000
-8.303300 0.000000
-8.278800 0.000000
-8.254300 0.000000
-8.229700 0.000000
-8.205200 0.000000
-8.180700 0.000000
-8.156200 0.000000
-8.131700 0.000000
-8.107100 0.000000
-8.082600 0.000000
-8.058100 0.000000
-8.033600 0.000000
-8.009000 0.000000
-7.984500 0.000000
-7.960000 0.000000
-7.935500 0.000000
-7.911000 0.000000
-7.886400 0.000000
-7.861900 0.000000
-7.837400 0.000000
-7.812900 0.000000
-7.788400 0.000000
-7.763800 0.000000
-7.739300 0.000000
-7.714800 0.000000
-7.690300 0.000000
-7.665700 0.000000
-7.641200 0.000000
-7.616700 0.000000
-7.592200 0.000000
-7.567700 0.000000
-7.543100 0.000000
-7.518600 0.000000
-7.494100 0.000000
-7.469600 0.000000
-7.445100 0.000000
-7.420500 0.000000
-7.396000 0.000000
-7.371500 0.000000
-7.347000 0.000000
-7.322400 0.000000
-7.297900 0.000000
-7.273400 0.000000
-7.248900 0.000000
-7.224400 0.000000
-7.199800 0.000000
-7.175300 0.000000
-7.150800 0.000000
-7.126300 0.000000
-7.101800 0.000000
-7.077200 0.000000
-7.052700 0.000000
-7.028200 0.000000
-7.003700 0.000000
-6.979200 0.000000
-6.954600 0.000000
-6.930100 0.000000
-6.905600 0.000000
-6.881100 0.000000
-6.856500 0.000000
-6.832000 0.000000
-6.807500 0.000000
-6.783000 0.000000
-6.758500 0.000000
-6.733900 0.000000
-6.709400 0.000000
-6.684900 0.000000
-6.660400 0.000000
-6.635900 0.000000
-6.611300 0.000000
-6.586800 0.000000
-6.562300 0.000000
-6.537800 0.000000
-6.513200 0.000000
-6.488700 0.000000
-6.464200 0.000000
-6.439700 0.000000
-6.415200 0.000000
-6.390600 0.000000
-6.366100 0.000000
-6.341600 0.000000
-6.317100 0.000000
-6.292600 0.000000
-6.268000 0.000000
-6.243500 0.000200
-6.219000 0.034200
-6.194500 0.131100
-6.169900 0.877800
-6.145400 2.910000
-6.120900 8.938200
-6.096400 17.736700
-6.071900 25.880900
-6.047300 23.408800
-6.022800 13.151900
-5.998300 9.193400
-5.973800 10.938100
-5.949300 13.789600
-5.924700 15.211200
-5.900200 16.930200
-5.875700 19.936200
-5.851200 23.458600
-5.826700 25.688900
-5.802100 21.615200
-5.777600 20.024900
-5.753100 19.076600
-5.728600 19.315100
-5.704000 13.216700
-5.679500 8.921000
-5.655000 10.132300
-5.630500 16.401500
-5.606000 15.787600
-5.581400 14.180500
-5.556900 13.441400
-5.532400 19.973400
-5.507900 22.480600
-5.483400 21.027500
-5.458800 23.601300
-5.434300 18.821700
-5.409800 19.430700
-5.385300 20.012200
-5.360700 16.723100
-5.336200 19.330800
-5.311700 21.952000
-5.287200 25.206600
-5.262700 25.845800
-5.238100 26.065000
-5.213600 21.703800
-5.189100 20.639500
-5.164600 16.568700
-5.140100 13.355700
-5.115500 10.369400
-5.091000 7.522600
-5.066500 7.636300
-5.042000 8.743800
-5.017400 9.649700
-4.992900 11.178400
-4.968400 10.664600
-4.943900 6.646900
-4.919400 2.716800
-4.894800 0.547000
-4.870300 0.518200
-4.845800 0.500100
-4.821300 0.493200
-4.796800 0.487700
-4.772200 0.481800
-4.747700 0.475900
-4.723200 0.469900
-4.698700 0.461900
-4.674200 0.452500
-4.649600 0.444800
-4.625100 0.439000
-4.600600 0.435200
-4.576100 0.433000
-4.551500 0.432000
-4.527000 0.431600
-4.502500 0.430500
-4.478000 0.438100
-4.453500 0.444800
-4.428900 0.447800
-4.404400 0.450700
-4.379900 0.453700
-4.355400 0.458800
-4.330900 0.464700
-4.306300 0.470400
-4.281800 0.475400
-4.257300 0.479600
-4.232800 0.483400
-4.208200 0.487500
-4.183700 0.491500
-4.159200 0.495100
-4.134700 0.496900
-4.110200 0.496200
-4.085600 0.496600
-4.061100 0.499200
-4.036600 0.503300
-4.012100 0.506700
-3.987600 0.509900
-3.963000 0.512800
-3.938500 0.515700
-3.914000 0.518800
-3.889500 0.522200
-3.864900 0.525800
-3.840400 0.529700
-3.815900 0.533900
-3.791400 0.538300
-3.766900 0.543000
-3.742300 0.547400
-3.717800 0.551800
-3.693300 0.556200
-3.668800 0.560500
-3.644300 0.565100
-3.619700 0.569600
-3.595200 0.574300
-3.570700 0.578500
-3.546200 0.582500
-3.521700 0.586200
-3.497100 0.589900
-3.472600 0.593800
-3.448100 0.597900
-3.423600 0.602000
-3.399000 0.605900
-3.374500 0.609500
-3.350000 0.613500
-3.325500 0.617600
-3.301000 0.621900
-3.276400 0.626100
-3.251900 0.630400
-3.227400 0.634700
-3.202900 0.639000
-3.178400 0.643300
-3.153800 0.647600
-3.129300 0.651600
-3.104800 0.655700
-3.080300 0.660200
-3.055700 0.664600
-3.031200 0.668900
-3.006700 0.673300
-2.982200 0.677700
-2.957700 0.682000
-2.933100 0.686500
-2.908600 0.691300
-2.884100 0.696400
-2.859600 0.701900
-2.835100 0.707900
-2.810500 0.713900
-2.786000 0.719900
-2.761500 0.726000
-2.737000 0.732200
-2.712500 0.738600
-2.687900 0.745300
-2.663400 0.752200
-2.638900 0.759400
-2.614400 0.766900
-2.589800 0.774600
-2.565300 0.782500
-2.540800 0.790700
-2.516300 0.799200
-2.491800 0.808000
-2.467200 0.817200
-2.442700 0.826700
-2.418200 0.836700
-2.393700 0.846900
-2.369200 0.857500
-2.344600 0.876900
-2.320100 0.890500
-2.295600 0.904200
-2.271100 0.918100
-2.246500 0.932200
-2.222000 0.946600
-2.197500 0.962000
-2.173000 0.979600
-2.148500 1.005900
-2.123900 1.036100
-2.099400 1.062900
-2.074900 1.086100
-2.050400 1.108100
-2.025900 1.133100
-2.001300 1.156100
-1.976800 1.176200
-1.952300 1.194800
-1.927800 1.206100
-1.903200 1.208600
-1.878700 1.198400
-1.854200 1.193700
-1.829700 1.193400
-1.805200 1.191600
-1.780600 1.192800
-1.756100 1.175800
-1.731600 1.156900
-1.707100 1.138200
-1.682600 1.112200
-1.658000 1.142900
-1.633500 1.105300
-1.609000 1.073200
-1.584500 1.055600
-1.560000 1.039700
-1.535400 1.024900
-1.510900 1.015200
-1.486400 1.010900
-1.461900 1.043500
-1.437300 1.018300
-1.412800 0.992600
-1.388300 0.962300
-1.363800 0.935300
-1.339300 0.879000
-1.314700 0.834300
-1.290200 0.806200
-1.265700 0.780300
-1.241200 0.764000
-1.216700 0.749400
-1.192100 0.738500
-1.167600 0.730200
-1.143100 0.723400
-1.118600 0.716700
-1.094000 0.712600
-1.069500 0.717200
-1.045000 0.728500
-1.020500 0.742900
-0.996000 0.760200
-0.971400 0.770300
-0.946900 0.780700
-0.922400 0.791400
-0.897900 0.811100
-0.873400 0.843800
-0.848800 0.860100
-0.824300 0.870700
-0.799800 0.874700
-0.775300 0.883200
-0.750700 0.854000
-0.726200 0.829900
-0.701700 0.825100
-0.677200 0.821000
-0.652700 0.818600
-0.628100 0.816000
-0.603600 0.816200
-0.579100 0.815900
-0.554600 0.813800
-0.530100 0.813500
-0.505500 0.807400
-0.481000 0.800600
-0.456500 0.793700
-0.432000 0.793900
-0.407500 0.803600
-0.382900 0.803300
-0.358400 0.786500
-0.333900 0.775200
-0.309400 0.766100
-0.284800 0.748100
-0.260300 0.715300
-0.235800 0.679000
-0.211300 0.638600
-0.186800 0.595700
-0.162200 0.567300
-0.137700 0.537200
-0.113200 0.491700
-0.088700 0.463200
-0.064200 0.414100
-0.039600 0.371800
-0.015100 0.327500
0.009400 0.295000
0.033900 0.277300
0.058500 0.267900
0.083000 0.260400
0.107500 0.254100
0.132000 0.249000
0.156500 0.244900
0.181100 0.241900
0.205600 0.240100
0.230100 0.236200
0.254600 0.230300
0.279100 0.225600
0.303700 0.222000
0.328200 0.219600
0.352700 0.219000
0.377200 0.243600
0.401800 0.249300
0.426300 0.258400
0.450800 0.265900
0.475300 0.271600
0.499800 0.271400
0.524400 0.270600
0.548900 0.271900
0.573400 0.276000
0.597900 0.280200
0.622400 0.278900
0.647000 0.277100
0.671500 0.275600
0.696000 0.281500
0.720500 0.287800
0.745000 0.291300
0.769600 0.292300
0.794100 0.297400
0.818600 0.305000
0.843100 0.314900
0.867700 0.311700
0.892200 0.303200
0.916700 0.304700
0.941200 0.312700
0.965700 0.325400
0.990300 0.335800
1.014800 0.346900
1.039300 0.361600
1.063800 0.379100
1.088300 0.398600
1.112900 0.419300
1.137400 0.438400
1.161900 0.461300
1.186400 0.493400
1.211000 0.518700
1.235500 0.552400
1.260000 0.587700
1.284500 0.621100
1.309000 0.646500
1.333600 0.674000
1.358100 0.709600
1.382600 0.735900
1.407100 0.749400
1.431600 0.758500
1.456200 0.754000
1.480700 0.724200
1.505200 0.725300
1.529700 0.730600
1.554300 0.740600
1.578800 0.752500
1.603300 0.765000
1.627800 0.771200
1.652300 0.776500
1.676900 0.784400
1.701400 0.794900
1.725900 0.806000
1.750400 0.816700
1.774900 0.827400
1.799500 0.841100
1.824000 0.857900
1.848500 0.884400
1.873000 0.911700
1.897500 0.935500
1.922100 0.959000
1.946600 0.985600
1.971100 1.015300
1.995600 1.012500
2.020200 1.021300
2.044700 1.045000
2.069200 1.063500
2.093700 1.077600
2.118200 1.099600
2.142800 1.123200
2.167300 1.144900
2.191800 1.160900
2.216300 1.164300
2.240800 1.166000
2.265400 1.169700
2.289900 1.173100
2.314400 1.171400
2.338900 1.165300
2.363500 1.163300
2.388000 1.160200
2.412500 1.193900
2.437000 1.157400
2.461500 1.136300
2.486100 1.121800
2.510600 1.110600
2.535100 1.101500
2.559600 1.093900
2.584100 1.094600
2.608700 1.094500
2.633200 1.084900
2.657700 1.074800
2.682200 1.067600
2.706800 1.063600
2.731300 1.066900
2.755800 1.075000
2.780300 1.087300
2.804800 1.103000
2.829400 1.128100
2.853900 1.151800
2.878400 1.153900
2.902900 1.156200
2.927400 1.157600
2.952000 1.157400
2.976500 1.158400
3.001000 1.153400
3.025500 1.150900
3.050000 1.139100
3.074600 1.131700
3.099100 1.126400
3.123600 1.120200
3.148100 1.112500
3.172700 1.104300
3.197200 1.107900
3.221700 1.114800
3.246200 1.110200
3.270700 1.103500
3.295300 1.103100
3.319800 1.090100
3.344300 1.069500
3.368800 1.046400
3.393300 1.025800
3.417900 1.014300
3.442400 1.004300
3.466900 1.000900
3.491400 1.018100
3.516000 1.028700
3.540500 1.029300
3.565000 1.026600
3.589500 1.019800
3.614000 1.006900
3.638600 0.970700
3.663100 0.962700
3.687600 0.979600
3.712100 0.978200
3.736600 0.972500
3.761200 0.969700
3.785700 0.970500
3.810200 0.978500
3.834700 0.989200
3.859300 0.999000
3.883800 1.010600
3.908300 1.028100
3.932800 1.048900
3.957300 1.042800
3.981900 1.041900
4.006400 1.041300
4.030900 1.037000
4.055400 1.030900
4.079900 1.026400
4.104500 1.004600
4.129000 0.989200
4.153500 0.979800
4.178000 0.972800
4.202500 0.965900
4.227100 0.962500
4.251600 0.963600
4.276100 0.966300
4.300600 0.969800
4.325200 0.974700
4.349700 0.985100
4.374200 0.995000
4.398700 1.001700
4.423200 1.009100
4.447800 1.004600
4.472300 1.010400
4.496800 1.018000
4.521300 1.026000
4.545800 1.033800
4.570400 1.040900
4.594900 1.047800
4.619400 1.056500
4.643900 1.070500
4.668500 1.076400
4.693000 1.080800
4.717500 1.087000
4.742000 1.093400
4.766500 1.100100
4.791100 1.108800
4.815600 1.116900
4.840100 1.123400
4.864600 1.128800
4.889100 1.133500
4.913700 1.139000
4.938200 1.142200
4.962700 1.147200
4.987200 1.159800
5.011800 1.170600
5.036300 1.177900
5.060800 1.187500
5.085300 1.193100
5.109800 1.198400
5.134400 1.203900
5.158900 1.216200
5.183400 1.221500
5.207900 1.215600
5.232400 1.210000
5.257000 1.208600
5.281500 1.205100
5.306000 1.201200
5.330500 1.199600
5.355000 1.200200
5.379600 1.202500
5.404100 1.205600
5.428600 1.210100
5.453100 1.216300
5.477700 1.223100
5.502200 1.230500
5.526700 1.237900
5.551200 1.246100
5.575700 1.256000
5.600300 1.267700
5.624800 1.281200
5.649300 1.296600
5.673800 1.319700
5.698300 1.335100
5.722900 1.335400
5.747400 1.330900
5.771900 1.324600
5.796400 1.304500
5.821000 1.294800
5.845500 1.291900
5.870000 1.296600
5.894500 1.303600
5.919000 1.306300
5.943600 1.300900
5.968100 1.295100
5.992600 1.287000
6.017100 1.258600
6.041600 1.225800
6.066200 1.214800
6.090700 1.208400
6.115200 1.204000
6.139700 1.202200
6.164300 1.202600
6.188800 1.203700
6.213300 1.204600
6.237800 1.204700
6.262300 1.202700
6.286900 1.200000
6.311400 1.198800
6.335900 1.198200
6.360400 1.195800
6.384900 1.188500
6.409500 1.181000
6.434000 1.174700
6.458500 1.175400
6.483000 1.179400
6.507500 1.183400
6.532100 1.186500
6.556600 1.193000
6.581100 1.196300
6.605600 1.191200
6.630200 1.188900
6.654700 1.188500
6.679200 1.181800
6.703700 1.176700
6.728200 1.173300
6.752800 1.172800
6.777300 1.178500
6.801800 1.188400
6.826300 1.202200
6.850800 1.223700
6.875400 1.254200
6.899900 1.272400
6.924400 1.278000
6.948900 1.275500
6.973500 1.262000
6.998000 1.248700
7.022500 1.241000
7.047000 1.222700
7.071500 1.211800
7.096100 1.198700
7.120600 1.191500
7.145100 1.187600
7.169600 1.183600
7.194100 1.176700
7.218700 1.166700
7.243200 1.159400
7.267700 1.154800
7.292200 1.151700
7.316800 1.149500
7.341300 1.148100
7.365800 1.147600
7.390300 1.146700
7.414800 1.149300
7.439400 1.155000
7.463900 1.165300
7.488400 1.173100
7.512900 1.184500
7.537400 1.193700
7.562000 1.204400
7.586500 1.223100
7.611000 1.251300
7.635500 1.273000
7.660000 1.292500
7.684600 1.309900
7.709100 1.316000
7.733600 1.315900
7.758100 1.313800
7.782700 1.311800
7.807200 1.310300
7.831700 1.305700
7.856200 1.296000
7.880700 1.279800
7.905300 1.265900
7.929800 1.256300
7.954300 1.250300
7.978800 1.249500
8.003300 1.249200
8.027900 1.257700
8.052400 1.272000
8.076900 1.283600
8.101400 1.298000
8.126000 1.322100
8.150500 1.339400
8.175000 1.343200
8.199500 1.339000
8.224000 1.335800
8.248600 1.331000
8.273100 1.324200
8.297600 1.316800
8.322100 1.315000
8.346600 1.317800
8.371200 1.317200
8.395700 1.324400
8.420200 1.324900
8.444700 1.336100
8.469200 1.343400
8.493800 1.355000
8.518300 1.373600
8.542800 1.369900
8.567300 1.403100
8.591900 1.418700
8.616400 1.430000
8.640900 1.448100
8.665400 1.455600
8.689900 1.459700
8.714500 1.466800
8.739000 1.475200
8.763500 1.482200
8.788000 1.487200
8.812500 1.487900
8.837100 1.489000
8.861600 1.489400
8.886100 1.488100
8.910600 1.488200
8.935200 1.486600
8.959700 1.485900
8.984200 1.487400
9.008700 1.490400
9.033200 1.493000
9.057800 1.495900
9.082300 1.499500
9.106800 1.502100
9.131300 1.509000
9.155800 1.512800
9.180400 1.514200
9.204900 1.516500
9.229400 1.523000
9.253900 1.534700
9.278500 1.547500
9.303000 1.557100
9.327500 1.568100
9.352000 1.580600
9.376500 1.567000
9.401100 1.556600
9.425600 1.545100
9.450100 1.525000
9.474600 1.503400
9.499100 1.482300
9.523700 1.460000
9.548200 1.435200
9.572700 1.409600
9.597200 1.391100
9.621700 1.371700
9.646300 1.353100
9.670800 1.338600
9.695300 1.327600
9.719800 1.316600
9.744400 1.308500
9.768900 1.301700
9.793400 1.286800
9.817900 1.272500
9.842400 1.254000
9.867000 1.232600
9.891500 1.211900
9.916000 1.206800
9.940500 1.215700
9.965000 1.210900
9.989600 1.207100
10.014100 1.208200
10.038600 1.211600
10.063100 1.215700
10.087700 1.218500
10.112200 1.223600
10.136700 1.226600
10.161200 1.233000
10.185700 1.243500
10.210300 1.255400
10.234800 1.270400
10.259300 1.280800
10.283800 1.278500
10.308300 1.273300
10.332900 1.276900
10.357400 1.282100
10.381900 1.291700
10.406400 1.314700
10.431000 1.324100
10.455500 1.329600
10.480000 1.331600
10.504500 1.329100
10.529000 1.324400
10.553600 1.321200
10.578100 1.320000
10.602600 1.322600
10.627100 1.329700
10.651600 1.343300
10.676200 1.361400
10.700700 1.368600
10.725200 1.371400
10.749700 1.377300
10.774200 1.384900
10.798800 1.397900
10.823300 1.412500
10.847800 1.428000
10.872300 1.446900
10.896900 1.465400
10.921400 1.479100
10.945900 1.489900
10.970400 1.498100
10.994900 1.502800
11.019500 1.501300
11.044000 1.508300
11.068500 1.511500
11.093000 1.495800
11.117500 1.483600
11.142100 1.466900
11.166600 1.455300
11.191100 1.452200
11.215600 1.448300
11.240200 1.444600
11.264700 1.445900
11.289200 1.451800
11.313700 1.455800
11.338200 1.468100
11.362800 1.483300
11.387300 1.489700
11.411800 1.495600
11.436300 1.482300
11.460800 1.476500
11.485400 1.478500
11.509900 1.487900
11.534400 1.492400
11.558900 1.485200
11.583500 1.483600
11.608000 1.481200
11.632500 1.478900
11.657000 1.482500
11.681500 1.496900
11.706100 1.504600
11.730600 1.512700
11.755100 1.518900
11.779600 1.524700
11.804100 1.537000
11.828700 1.555600
11.853200 1.587300
11.877700 1.598900
11.902200 1.608600
11.926700 1.617900
11.951300 1.627800
11.975800 1.647600
12.000300 1.672100
12.024800 1.696700
12.049400 1.728800
12.073900 1.760700
12.098400 1.809500
12.122900 1.846300
12.147400 1.873700
12.172000 1.980600
12.196500 2.009800
12.221000 1.974500
12.245500 1.955500
12.270000 1.924200
12.294600 1.894900
12.319100 1.856900
12.343600 1.824900
12.368100 1.800800
12.392700 1.782500
12.417200 1.757700
12.441700 1.727200
12.466200 1.697100
12.490700 1.679300
12.515300 1.667300
12.539800 1.658300
12.564300 1.653400
12.588800 1.651900
12.613300 1.653500
12.637900 1.659800
12.662400 1.666900
12.686900 1.723900
12.711400 1.742200
12.736000 1.765000
12.760500 1.782700
12.785000 1.776300
12.809500 1.773600
12.834000 1.766000
12.858600 1.740300
12.883100 1.714800
12.907600 1.690600
12.932100 1.665300
12.956600 1.639000
12.981200 1.607700
13.005700 1.585300
13.030200 1.565200
13.054700 1.544500
13.079200 1.527100
13.103800 1.513000
13.128300 1.502700
13.152800 1.490700
13.177300 1.472100
13.201900 1.452700
13.226400 1.431200
13.250900 1.398700
13.275400 1.352600
13.299900 1.314900
13.324500 1.282200
13.349000 1.248400
13.373500 1.218400
13.398000 1.190900
13.422500 1.165600
13.447100 1.132200
13.471600 1.083000
13.496100 1.040500
13.520600 1.006400
13.545200 0.987000
13.569700 0.978300
13.594200 0.965800
13.618700 0.964700
13.643200 0.977800
13.667800 1.004900
13.692300 1.030400
13.716800 1.045800
13.741300 1.061900
13.765800 1.079900
13.790400 1.099300
13.814900 1.105400
13.839400 1.110000
13.863900 1.123100
13.888500 1.139200
13.913000 1.154600
13.937500 1.171800
13.962000 1.191200
13.986500 1.212400
14.011100 1.226700
14.035600 1.239200
14.060100 1.263100
14.084600 1.276600
14.109100 1.264400
14.133700 1.254600
14.158200 1.255200
14.182700 1.257300
14.207200 1.254800
14.231700 1.254500
14.256300 1.255200
14.280800 1.259300
14.305300 1.271500
14.329800 1.290300
14.354400 1.302000
14.378900 1.321400
14.403400 1.362500
14.427900 1.387700
14.452400 1.416700
14.477000 1.432100
14.501500 1.440500
14.526000 1.474000
14.550500 1.528300
14.575000 1.595700
14.599600 1.655900
14.624100 1.719900
14.648600 1.784100
14.673100 1.842800
14.697700 1.919400
14.722200 1.979200
14.746700 1.985700
14.771200 1.967700
14.795700 1.947000
14.820300 1.937100
14.844800 1.943800
14.869300 1.954400
14.893800 1.981000
14.918300 2.018500
14.942900 2.052100
14.967400 2.032300
14.991900 2.027600
15.016400 2.029900
15.041000 2.047400
15.065500 2.078800
15.090000 2.092300
15.114500 2.093900
15.139000 2.096600
15.163600 2.134400
15.188100 2.143200
15.212600 2.134800
15.237100 2.127000
15.261600 2.132100
15.286200 2.130500
15.310700 2.125600
15.335200 2.116700
15.359700 2.102200
15.384200 2.087200
15.408800 2.084900
15.433300 2.085200
15.457800 2.122600
15.482300 2.124000
15.506900 2.128200
15.531400 2.142700
15.555900 2.126300
15.580400 2.130800
15.604900 2.144700
15.629500 2.148700
15.654000 2.123000
15.678500 2.135800
15.703000 2.086500
15.727500 2.080900
15.752100 2.118900
15.776600 2.139900
15.801100 2.171600
15.825600 2.195000
15.850200 2.246700
15.874700 2.299600
15.899200 2.287500
15.923700 2.258800
15.948200 2.257600
15.972800 2.191500
15.997300 2.201400
16.021800 2.223500
16.046300 2.177300
16.070800 2.113300
16.095400 2.047900
16.119900 1.997100
16.144400 1.965600
16.168900 1.952000
16.193500 1.926400
16.218000 1.883700
16.242500 1.834600
16.267000 1.794000
16.291500 1.777600
16.316100 1.770700
16.340600 1.766700
16.365100 1.764900
16.389600 1.764000
16.414100 1.761000
16.438700 1.777000
16.463200 1.802900
16.487700 1.840000
16.512200 1.884500
16.536700 1.916100
16.561300 1.949000
16.585800 1.993600
16.610300 2.039100
16.634800 2.070800
16.659400 2.079400
16.683900 2.087700
16.708400 2.091500
16.732900 2.084000
16.757400 2.074500
16.782000 2.076000
16.806500 2.084000
16.831000 2.086600
16.855500 2.129400
16.880000 2.140600
16.904600 2.122200
16.929100 2.110500
16.953600 2.088000
16.978100 2.097100
17.002700 2.118400
17.027200 2.120100
17.051700 2.132400
17.076200 2.113100
17.100700 2.079000
17.125300 2.097000
17.149800 2.109500
17.174300 2.102300
17.198800 2.098000
17.223300 2.115700
17.247900 2.137300
17.272400 2.149900
17.296900 2.172700
17.321400 2.199400
17.346000 2.224300
17.370500 2.252600
17.395000 2.274500
17.419500 2.293800
