set title 'mp-23157 - Density of States'
set xlabel 'Energy (eV)'
set ylabel 'DOS (states/eV)'
set grid
set xrange [-10:10]
set yrange [0:2.310]
set xzeroaxis lt -1
set terminal png size 800,600
set output 'mp-23157_dos_gnuplot.png'
plot '-' using 1:2 with lines title 'DOS'
-10.695900 0.000000
-10.660200 0.000000
-10.624400 0.000000
-10.588600 0.000000
-10.552900 0.000000
-10.517100 0.000000
-10.481300 0.000000
-10.445600 0.000000
-10.409800 0.000000
-10.374100 0.000000
-10.338300 0.000000
-10.302500 0.000000
-10.266800 0.000000
-10.231000 0.000000
-10.195200 0.000000
-10.159500 0.000000
-10.123700 0.000000
-10.088000 0.000000
-10.052200 0.000000
-10.016400 0.000000
-9.980700 0.000000
-9.944900 0.000000
-9.909100 0.000000
-9.873400 0.000000
-9.837600 0.000000
-9.801900 0.000000
-9.766100 0.000000
-9.730300 0.000000
-9.694600 0.000000
-9.658800 0.000000
-9.623000 0.000000
-9.587300 0.000000
-9.551500 0.000000
-9.515700 0.000000
-9.480000 0.000000
-9.444200 0.000000
-9.408500 0.000000
-9.372700 0.000000
-9.336900 0.000000
-9.301200 0.000000
-9.265400 0.000000
-9.229600 0.000000
-9.193900 0.000000
-9.158100 0.000000
-9.122400 0.000000
-9.086600 0.000000
-9.050800 0.000000
-9.015100 0.000000
-8.979300 0.000000
-8.943500 0.000000
-8.907800 0.000000
-8.872000 0.000000
-8.836300 0.000000
-8.800500 0.000000
-8.764700 0.000000
-8.729000 0.000000
-8.693200 0.000000
-8.657400 0.000000
-8.621700 0.000000
-8.585900 0.000000
-8.550200 0.000000
-8.514400 0.000000
-8.478600 0.000000
-8.442900 0.000000
-8.407100 0.000000
-8.371300 0.000000
-8.335600 0.000000
-8.299800 0.000000
-8.264000 0.000000
-8.228300 0.000000
-8.192500 0.000000
-8.156800 0.000000
-8.121000 0.000000
-8.085200 0.000000
-8.049500 0.000000
-8.013700 0.000000
-7.977900 0.000000
-7.942200 0.000000
-7.906400 0.000000
-7.870700 0.000000
-7.834900 0.000000
-7.799100 0.000000
-7.763400 0.000000
-7.727600 0.000000
-7.691800 0.000000
-7.656100 0.000000
-7.620300 0.000000
-7.584600 0.000000
-7.548800 0.000000
-7.513000 0.000000
-7.477300 0.000000
-7.441500 0.000300
-7.405700 0.043900
-7.370000 0.137600
-7.334200 0.161900
-7.298500 0.187700
-7.262700 0.219600
-7.226900 0.250400
-7.191200 0.278000
-7.155400 0.294600
-7.119600 0.313100
-7.083900 0.331500
-7.048100 0.348700
-7.012300 0.367300
-6.976600 0.387200
-6.940800 0.407800
-6.905100 0.427100
-6.869300 0.442600
-6.833500 0.457400
-6.797800 0.472500
-6.762000 0.487000
-6.726200 0.501900
-6.690500 0.517500
-6.654700 0.533800
-6.619000 0.550600
-6.583200 0.568500
-6.547400 0.586300
-6.511700 0.604500
-6.475900 0.621300
-6.440100 0.636200
-6.404400 0.652200
-6.368600 0.669100
-6.332900 0.686800
-6.297100 0.705400
-6.261300 0.726000
-6.225600 0.750400
-6.189800 0.778200
-6.154000 0.809200
-6.118300 0.843600
-6.082500 0.881200
-6.046700 0.924500
-6.011000 0.989800
-5.975200 0.968700
-5.939500 0.937300
-5.903700 0.926100
-5.867900 0.936200
-5.832200 0.931400
-5.796400 0.919800
-5.760600 0.925700
-5.724900 0.950700
-5.689100 0.994000
-5.653400 1.094000
-5.617600 1.106100
-5.581800 1.060500
-5.546100 1.102900
-5.510300 1.164400
-5.474500 1.310700
-5.438800 1.406900
-5.403000 1.454100
-5.367300 1.513300
-5.331500 1.533500
-5.295700 1.522000
-5.260000 1.530800
-5.224200 1.562800
-5.188400 1.602300
-5.152700 1.665200
-5.116900 1.688700
-5.081200 1.740200
-5.045400 1.732300
-5.009600 1.739700
-4.973900 1.756000
-4.938100 1.794500
-4.902300 1.877900
-4.866600 1.979800
-4.830800 1.720600
-4.795000 1.527200
-4.759300 1.400500
-4.723500 1.312100
-4.687800 1.280500
-4.652000 1.236400
-4.616200 1.212300
-4.580500 1.087600
-4.544700 0.982100
-4.508900 0.939400
-4.473200 0.930600
-4.437400 0.873200
-4.401700 0.855500
-4.365900 0.840300
-4.330100 0.829700
-4.294400 0.829200
-4.258600 0.833200
-4.222800 0.846000
-4.187100 0.878100
-4.151300 0.882500
-4.115600 0.913400
-4.079800 0.938900
-4.044000 0.954900
-4.008300 0.967300
-3.972500 0.978700
-3.936700 1.032600
-3.901000 0.990700
-3.865200 0.995200
-3.829500 1.009100
-3.793700 1.027200
-3.757900 1.043000
-3.722200 1.055900
-3.686400 1.076200
-3.650600 1.025400
-3.614900 1.009100
-3.579100 0.993200
-3.543300 0.965500
-3.507600 0.950500
-3.471800 0.894600
-3.436100 0.843100
-3.400300 0.774900
-3.364500 0.740700
-3.328800 0.683700
-3.293000 0.597000
-3.257200 0.539800
-3.221500 0.493900
-3.185700 0.455600
-3.150000 0.423000
-3.114200 0.391300
-3.078400 0.355800
-3.042700 0.318500
-3.006900 0.276000
-2.971100 0.244000
-2.935400 0.216600
-2.899600 0.181300
-2.863900 0.136100
-2.828100 0.079200
-2.792300 0.008400
-2.756600 0.000000
-2.720800 0.000000
-2.685000 0.000000
-2.649300 0.000000
-2.613500 0.000000
-2.577800 0.000000
-2.542000 0.000000
-2.506200 0.000000
-2.470500 0.000000
-2.434700 0.000000
-2.398900 0.000000
-2.363200 0.000000
-2.327400 0.000000
-2.291600 0.000000
-2.255900 0.000000
-2.220100 0.000000
-2.184400 0.000000
-2.148600 0.000000
-2.112800 0.000000
-2.077100 0.000000
-2.041300 0.000000
-2.005500 0.000000
-1.969800 0.000000
-1.934000 0.000000
-1.898300 0.000000
-1.862500 0.000000
-1.826700 0.000000
-1.791000 0.000000
-1.755200 0.000000
-1.719400 0.000000
-1.683700 0.000000
-1.647900 0.000000
-1.612200 0.000000
-1.576400 0.000000
-1.540600 0.000000
-1.504900 0.000000
-1.469100 0.000000
-1.433300 0.000000
-1.397600 0.000000
-1.361800 0.000000
-1.326000 0.000000
-1.290300 0.000000
-1.254500 0.000000
-1.218800 0.000000
-1.183000 0.000000
-1.147200 0.000000
-1.111500 0.000000
-1.075700 0.000000
-1.039900 0.000000
-1.004200 0.000000
-0.968400 0.000000
-0.932700 0.000000
-0.896900 0.000000
-0.861100 0.000000
-0.825400 0.000000
-0.789600 0.000000
-0.753800 0.000000
-0.718100 0.000000
-0.682300 0.000000
-0.646600 0.000000
-0.610800 0.000000
-0.575000 0.000000
-0.539300 0.000000
-0.503500 0.000000
-0.467700 0.000000
-0.432000 0.000000
-0.396200 0.000000
-0.360500 0.000000
-0.324700 0.000000
-0.288900 0.000000
-0.253200 0.000000
-0.217400 0.000000
-0.181600 0.000000
-0.145900 0.000000
-0.110100 0.000000
-0.074300 0.000000
-0.038600 0.000000
-0.002800 0.000000
0.032900 0.000000
0.068700 0.000000
0.104500 0.000000
0.140200 0.000000
0.176000 0.000000
0.211800 0.000000
0.247500 0.000000
0.283300 0.000000
0.319000 0.000000
0.354800 0.000000
0.390600 0.000000
0.426300 0.000000
0.462100 0.000000
0.497900 0.000000
0.533600 0.000000
0.569400 0.000000
0.605100 0.000000
0.640900 0.000000
0.676700 0.000000
0.712400 0.000000
0.748200 0.006600
0.784000 0.036000
0.819700 0.079900
0.855500 0.117800
0.891200 0.149900
0.927000 0.175100
0.962800 0.198400
0.998500 0.214400
1.034300 0.225600
1.070100 0.245800
1.105800 0.265300
1.141600 0.292100
1.177400 0.313900
1.213100 0.331300
1.248900 0.341200
1.284600 0.415900
1.320400 0.534500
1.356200 0.671500
1.391900 0.884900
1.427700 1.123100
1.463500 1.082800
1.499200 1.141600
1.535000 1.188900
1.570700 1.237200
1.606500 1.258500
1.642300 1.275000
1.678000 1.253800
1.713800 1.249200
1.749600 1.228300
1.785300 1.219900
1.821100 1.218100
1.856800 1.225300
1.892600 1.229800
1.928400 1.232400
1.964100 1.240100
1.999900 1.255200
2.035700 1.292400
2.071400 1.264200
2.107200 1.208600
2.143000 1.177500
2.178700 1.167000
2.214500 1.156400
2.250200 1.168200
2.286000 1.183900
2.321800 1.196900
2.357500 1.212600
2.393300 1.236000
2.429100 1.251400
2.464800 1.272000
2.500600 1.294400
2.536300 1.329300
2.572100 1.366500
2.607900 1.413000
2.643600 1.504900
2.679400 1.543000
2.715200 1.543800
2.750900 1.559000
2.786700 1.583000
2.822400 1.619800
2.858200 1.659000
2.894000 1.749700
2.929700 1.859400
2.965500 1.830700
3.001300 1.803400
3.037000 1.791300
3.072800 1.780200
3.108500 1.757900
3.144300 1.720100
3.180100 1.703500
3.215800 1.628500
3.251600 1.577600
3.287400 1.561300
3.323100 1.554500
3.358900 1.552900
3.394700 1.518600
3.430400 1.499200
3.466200 1.439700
3.501900 1.407900
3.537700 1.400700
3.573500 1.380900
3.609200 1.372300
3.645000 1.396500
3.680800 1.439000
3.716500 1.513100
3.752300 1.656100
3.788000 1.593800
3.823800 1.648500
3.859600 1.710600
3.895300 1.678400
3.931100 1.664500
3.966900 1.680300
4.002600 1.701400
4.038400 1.653700
4.074100 1.657000
4.109900 1.649700
4.145700 1.662800
4.181400 1.584000
4.217200 1.606300
4.253000 1.585100
4.288700 1.558900
4.324500 1.559800
4.360200 1.565900
4.396000 1.548000
4.431800 1.528700
4.467500 1.519500
4.503300 1.490800
4.539100 1.389000
4.574800 1.277500
4.610600 1.191100
4.646400 1.119000
4.682100 1.062200
4.717900 1.023700
4.753600 0.994500
4.789400 0.972800
4.825200 0.949000
4.860900 0.922200
4.896700 0.905200
4.932500 0.896700
4.968200 0.903400
5.004000 0.955900
5.039700 0.993800
5.075500 1.035100
5.111300 1.089800
5.147000 1.166000
5.182800 1.213400
5.218600 1.187100
5.254300 1.208400
5.290100 1.246900
5.325800 1.280100
5.361600 1.298000
5.397400 1.302000
5.433100 1.323400
5.468900 1.317100
5.504700 1.319100
5.540400 1.278300
5.576200 1.238500
5.611900 1.206300
5.647700 1.193000
5.683500 1.192900
5.719200 1.196200
5.755000 1.200500
5.790800 1.207500
5.826500 1.191400
5.862300 1.172000
5.898100 1.170200
5.933800 1.160500
5.969600 1.144500
6.005300 1.130700
6.041100 1.120600
6.076900 1.116000
6.112600 1.114300
6.148400 1.095000
6.184200 1.068900
6.219900 1.046400
6.255700 1.028200
6.291400 1.019700
6.327200 1.002600
6.363000 0.960900
6.398700 0.912400
6.434500 0.879100
6.470300 0.859100
6.506000 0.844700
6.541800 0.817100
6.577500 0.827900
6.613300 0.843000
6.649100 0.857800
6.684800 0.869400
6.720600 0.875300
6.756400 0.886400
6.792100 0.900400
6.827900 0.923100
6.863700 0.950400
6.899400 0.995300
6.935200 1.025100
6.970900 1.057600
7.006700 1.085500
7.042500 1.115700
7.078200 1.145800
7.114000 1.178000
7.149800 1.211600
7.185500 1.243300
7.221300 1.280100
7.257000 1.326100
7.292800 1.387000
7.328600 1.442400
7.364300 1.542400
7.400100 1.585200
7.435900 1.594500
7.471600 1.590400
7.507400 1.597000
7.543100 1.621900
7.578900 1.658700
7.614700 1.700200
7.650400 1.742300
7.686200 1.790600
7.722000 1.912400
7.757700 1.999800
7.793500 2.100300
7.829200 1.994200
7.865000 2.015400
7.900800 2.018900
7.936500 1.954400
7.972300 1.950900
8.008100 1.920300
8.043800 1.908300
8.079600 1.893100
8.115400 1.887900
8.151100 1.888000
8.186900 1.878700
8.222600 1.862000
8.258400 1.842400
8.294200 1.784400
8.329900 1.739300
8.365700 1.690300
8.401500 1.650700
8.437200 1.617700
8.473000 1.597800
8.508700 1.570400
8.544500 1.558400
8.580300 1.559500
8.616000 1.577200
8.651800 1.605600
8.687600 1.573900
8.723300 1.549300
8.759100 1.535300
8.794800 1.535300
8.830600 1.535100
8.866400 1.554900
8.902100 1.538800
8.937900 1.459700
8.973700 1.445200
9.009400 1.420700
9.045200 1.374500
9.080900 1.276000
9.116700 1.231300
9.152500 1.225600
9.188200 1.238700
9.224000 1.249500
9.259800 1.248800
9.295500 1.257800
9.331300 1.240400
9.367100 1.215900
9.402800 1.197200
9.438600 1.186300
9.474300 1.161100
9.510100 1.124400
9.545900 1.112100
9.581600 1.114300
9.617400 1.103900
9.653200 1.097400
9.688900 1.080900
9.724700 1.080500
9.760400 1.072300
9.796200 1.071400
9.832000 1.067600
9.867700 1.107800
9.903500 1.106000
9.939300 1.021300
9.975000 0.980100
10.010800 0.944400
10.046500 0.918900
10.082300 0.890600
10.118100 0.865200
10.153800 0.845800
10.189600 0.822700
10.225400 0.795700
10.261100 0.765100
10.296900 0.810200
10.332600 0.824000
10.368400 0.855000
10.404200 0.827800
10.439900 0.817200
10.475700 0.762600
10.511500 0.742000
10.547200 0.729100
10.583000 0.729600
10.618800 0.735400
10.654500 0.730800
10.690300 0.712300
10.726000 0.686000
10.761800 0.673700
10.797600 0.668400
10.833300 0.683000
10.869100 0.702700
10.904900 0.734200
10.940600 0.764500
10.976400 0.809200
11.012100 0.855900
11.047900 0.846000
11.083700 0.863900
11.119400 0.906300
11.155200 0.969200
11.191000 0.989900
11.226700 1.024100
11.262500 1.065200
11.298200 1.120100
11.334000 1.202600
11.369800 1.248000
11.405500 1.281900
11.441300 1.302800
11.477100 1.264000
11.512800 1.237000
11.548600 1.227500
11.584400 1.227700
11.620100 1.208900
11.655900 1.194000
11.691600 1.182900
11.727400 1.180500
11.763200 1.179800
11.798900 1.178100
11.834700 1.175600
11.870500 1.180700
11.906200 1.193600
11.942000 1.214200
11.977700 1.235800
12.013500 1.204000
12.049300 1.211700
12.085000 1.213700
12.120800 1.217300
12.156600 1.221400
12.192300 1.232300
12.228100 1.238100
12.263800 1.240300
12.299600 1.252300
12.335400 1.271300
12.371100 1.292000
12.406900 1.314200
12.442700 1.339100
12.478400 1.369000
12.514200 1.374300
12.549900 1.371300
12.585700 1.373900
12.621500 1.391700
12.657200 1.421500
12.693000 1.434900
12.728800 1.437900
12.764500 1.435300
12.800300 1.434900
12.836100 1.443800
12.871800 1.478700
12.907600 1.483500
12.943300 1.483200
12.979100 1.480700
13.014900 1.484700
13.050600 1.499500
13.086400 1.519900
13.122200 1.562000
13.157900 1.637300
13.193700 1.654300
13.229400 1.663000
13.265200 1.697600
13.301000 1.724900
13.336700 1.749700
13.372500 1.799600
13.408300 1.884300
13.444000 1.903400
13.479800 1.934700
13.515500 1.991800
13.551300 2.082000
13.587100 2.020000
13.622800 1.943300
13.658600 1.899600
13.694400 1.863600
13.730100 1.801400
13.765900 1.783000
13.801600 1.783600
13.837400 1.777100
13.873200 1.749900
13.908900 1.750200
13.944700 1.769000
13.980500 1.862600
14.016200 2.072400
14.052000 1.941400
14.087800 1.892300
14.123500 1.890000
14.159300 1.914600
14.195000 1.971300
14.230800 2.087500
14.266600 2.117600
14.302300 2.162900
14.338100 2.174000
14.373900 2.227100
14.409600 2.131000
14.445400 2.108800
14.481100 2.114800
14.516900 2.151700
14.552700 2.188800
14.588400 2.244500
14.624200 2.245100
14.660000 2.184800
14.695700 2.140900
14.731500 2.120500
14.767200 2.122800
14.803000 2.120700
14.838800 2.057500
14.874500 2.019400
14.910300 1.996900
14.946100 1.981100
14.981800 1.971900
15.017600 1.987300
15.053400 2.013600
15.089100 1.999200
15.124900 1.983200
15.160600 1.961800
15.196400 1.937100
15.232200 1.915900
15.267900 1.919600
15.303700 1.964800
15.339500 2.020000
15.375200 2.040300
15.411000 2.029900
15.446700 2.050600
15.482500 2.074900
15.518300 2.127000
15.554000 2.234700
15.589800 2.263500
15.625600 2.224700
15.661300 2.151400
15.697100 2.126600
15.732800 2.130000
15.768600 2.156000
15.804400 2.195100
15.840100 2.233200
15.875900 2.183200
15.911700 2.138200
15.947400 2.096100
15.983200 2.082100
16.018900 2.084500
16.054700 2.103600
16.090500 2.129800
16.126200 2.137600
16.162000 2.153800
16.197800 2.181600
16.233500 2.252700
16.269300 2.363000
16.305100 2.444100
16.340800 2.434300
16.376600 2.340300
16.412300 2.288300
16.448100 2.299800
16.483900 2.300300
16.519600 2.293800
16.555400 2.272200
16.591200 2.243300
16.626900 2.211400
16.662700 2.220900
16.698400 2.158100
16.734200 2.160300
16.770000 2.189500
16.805700 2.224700
16.841500 2.211900
16.877300 2.199000
16.913000 2.223900
16.948800 2.273400
16.984500 2.286900
17.020300 2.276900
17.056100 2.258500
17.091800 2.224400
17.127600 2.197300
17.163400 2.190300
17.199100 2.170800
17.234900 2.147800
17.270600 2.143500
17.306400 2.121300
17.342200 2.141100
17.377900 2.137700
17.413700 2.155700
17.449500 2.145900
17.485200 2.191800
17.521000 2.232100
17.556800 2.310700
17.592500 2.340700
17.628300 2.289800
17.664000 2.286200
17.699800 2.267100
17.735600 2.253700
17.771300 2.217900
17.807100 2.197900
17.842900 2.224400
17.878600 2.284800
17.914400 2.367600
17.950100 2.423400
17.985900 2.449800
18.021700 2.464500
18.057400 2.473700
18.093200 2.475700
18.129000 2.512700
18.164700 2.512400
18.200500 2.519600
18.236200 2.534700
18.272000 2.485800
18.307800 2.482000
18.343500 2.499000
18.379300 2.494400
18.415100 2.481400
18.450800 2.475600
18.486600 2.490300
18.522300 2.485400
18.558100 2.528500
18.593900 2.513300
18.629600 2.512500
18.665400 2.487500
18.701200 2.536400
18.736900 2.570400
18.772700 2.609100
18.808500 2.640400
18.844200 2.668100
18.880000 2.688300
18.915700 2.724600
18.951500 2.751800
18.987300 2.755700
19.023000 2.722000
19.058800 2.688300
19.094600 2.602900
19.130300 2.558700
19.166100 2.523400
19.201800 2.519700
19.237600 2.540400
19.273400 2.568900
19.309100 2.597300
19.344900 2.622500
19.380700 2.641900
19.416400 2.668100
19.452200 2.698000
19.487900 2.720200
19.523700 2.705100
19.559500 2.687600
19.595200 2.721000
19.631000 2.708800
19.666800 2.591600
19.702500 2.593900
19.738300 2.585700
19.774100 2.584900
19.809800 2.609800
19.845600 2.619300
19.881300 2.646600
19.917100 2.666600
19.952900 2.699600
19.988600 2.687300
20.024400 2.654200
20.060200 2.630600
20.095900 2.586100
20.131700 2.573900
20.167400 2.578400
20.203200 2.592000
20.239000 2.575300
20.274700 2.580700
20.310500 2.618400
20.346300 2.659200
20.382000 2.661300
20.417800 2.667200
20.453500 2.667600
20.489300 2.682700
20.525100 2.700800
20.560800 2.688800
20.596600 2.686200
20.632400 2.634700
20.668100 2.657300
20.703900 2.712100
20.739600 2.762800
20.775400 2.765100
20.811200 2.789400
20.846900 2.809300
20.882700 2.823000
20.918500 2.788500
20.954200 2.793700
20.990000 2.778200
21.025800 2.754600
21.061500 2.727800
21.097300 2.786900
21.133000 2.840900
21.168800 2.867300
21.204600 2.902000
21.240300 2.907300
21.276100 2.925900
21.311900 2.934600
21.347600 2.898200
21.383400 2.868700
21.419100 2.864300
21.454900 2.903600
21.490700 2.927000
21.526400 2.957100
21.562200 2.953100
21.598000 2.881300
21.633700 2.843100
21.669500 2.819100
21.705200 2.801900
21.741000 2.812400
21.776800 2.786200
21.812500 2.745600
21.848300 2.727100
21.884100 2.742800
21.919800 2.730600
21.955600 2.723400
21.991300 2.733400
22.027100 2.805400
22.062900 2.848300
22.098600 2.844100
22.134400 2.809400
22.170200 2.814100
22.205900 2.826400
22.241700 2.891800
22.277500 2.985800
22.313200 3.077500
22.349000 3.087400
22.384700 3.120900
22.420500 3.098500
22.456300 3.042800
22.492000 2.987400
22.527800 2.929700
22.563600 2.870600
22.599300 2.842800
22.635100 2.874300
22.670800 2.917700
22.706600 2.944400
22.742400 2.962200
22.778100 2.993100
22.813900 3.013300
22.849700 3.046200
22.885400 3.056400
22.921200 3.040000
22.956900 2.996200
22.992700 2.949800
23.028500 2.973700
23.064200 3.042300
23.100000 3.062400
23.135800 3.086700
23.171500 3.092400
23.207300 3.077600
23.243000 3.090000
23.278800 3.088500
23.314600 3.059000
23.350300 3.033400
23.386100 2.992800
23.421900 3.041900
23.457600 3.109200
23.493400 3.193900
23.529200 3.255400
23.564900 3.276400
23.600700 3.274000
23.636400 3.283500
23.672200 3.269900
23.708000 3.240200
23.743700 3.173600
23.779500 3.102400
23.815300 3.065900
23.851000 3.025200
23.886800 3.021400
23.922500 3.060400
23.958300 3.053400
23.994100 3.105300
24.029800 3.181800
24.065600 3.137500
24.101400 3.122100
24.137100 3.112400
24.172900 3.110300
24.208600 3.120100
24.244400 3.252200
24.280200 3.222000
24.315900 3.150300
24.351700 3.120800
24.387500 3.084600
24.423200 3.030600
24.459000 3.041400
24.494800 3.081600
24.530500 3.123800
24.566300 3.154300
24.602000 3.185800
24.637800 3.153300
24.673600 3.098100
24.709300 3.136400
24.745100 3.131200
24.780900 3.137700
24.816600 3.163100
24.852400 3.182400
24.888100 3.159700
24.923900 3.150600
24.959700 3.152800
24.995400 3.188800
25.031200 3.237900
25.067000 3.249500
25.102700 3.320200
25.138500 3.363900
25.174200 3.392100
25.210000 3.369700
25.245800 3.259500
25.281500 3.215900
25.317300 3.221900
25.353100 3.236800
25.388800 3.214200
25.424600 3.203700
25.460300 3.160900
25.496100 3.206300
25.531900 3.154100
25.567600 3.168300
25.603400 3.192600
25.639200 3.205500
25.674900 3.251300
25.710700 3.302900
25.746500 3.410800
25.782200 3.446400
25.818000 3.383600
25.853700 3.413700
25.889500 3.452900
25.925300 3.433200
25.961000 3.322100
25.996800 3.281100
26.032600 3.245800
26.068300 3.230600
26.104100 3.266700
26.139800 3.413400
26.175600 3.433000
26.211400 3.473000
26.247100 3.495600
26.282900 3.531800
26.318700 3.501900
26.354400 3.467200
26.390200 3.373700
26.425900 3.352900
26.461700 3.289400
26.497500 3.260500
26.533200 3.299000
26.569000 3.395400
26.604800 3.523100
26.640500 3.724300
26.676300 3.854100
26.712000 3.952700
26.747800 3.942000
26.783600 3.932300
26.819300 3.841200
26.855100 3.700900
