set title 'mp-1392 - Density of States'
set xlabel 'Energy (eV)'
set ylabel 'DOS (states/eV)'
set grid
set xrange [-10:10]
set yrange [0:368.934]
set xzeroaxis lt -1
set terminal png size 800,600
set output 'mp-1392_dos_gnuplot.png'
plot '-' using 1:2 with lines title 'DOS'
-11.311500 0.000000
-11.297300 0.000000
-11.283200 0.000000
-11.269000 0.000000
-11.254900 0.000000
-11.240700 0.000000
-11.226600 0.000000
-11.212400 0.000000
-11.198300 0.000000
-11.184100 0.000000
-11.170000 0.000000
-11.155800 0.000000
-11.141700 0.000000
-11.127500 0.000000
-11.113300 0.000000
-11.099200 0.000000
-11.085000 0.000000
-11.070900 0.000000
-11.056700 0.000000
-11.042600 0.000000
-11.028400 0.000000
-11.014300 0.000000
-11.000100 0.000000
-10.986000 0.000000
-10.971800 0.000000
-10.957700 0.000000
-10.943500 0.000000
-10.929400 0.000000
-10.915200 0.000000
-10.901100 0.000000
-10.886900 0.000000
-10.872700 0.000000
-10.858600 0.000000
-10.844400 0.000000
-10.830300 0.000000
-10.816100 0.000000
-10.802000 0.000000
-10.787800 0.000000
-10.773700 0.000000
-10.759500 0.000000
-10.745400 0.000000
-10.731200 0.000000
-10.717100 0.000000
-10.702900 0.000000
-10.688800 0.000000
-10.674600 0.000000
-10.660500 0.000000
-10.646300 0.000000
-10.632100 0.000000
-10.618000 0.000000
-10.603800 0.000000
-10.589700 0.000000
-10.575500 0.000000
-10.561400 0.000000
-10.547200 0.000000
-10.533100 0.000000
-10.518900 0.000000
-10.504800 0.000000
-10.490600 0.000000
-10.476500 0.000000
-10.462300 0.000000
-10.448200 0.000000
-10.434000 0.000000
-10.419900 0.000000
-10.405700 0.000000
-10.391500 0.000000
-10.377400 0.000000
-10.363200 0.000000
-10.349100 0.000000
-10.334900 0.000000
-10.320800 0.000000
-10.306600 0.000000
-10.292500 0.000000
-10.278300 0.000000
-10.264200 0.000000
-10.250000 0.000000
-10.235900 0.000000
-10.221700 0.000000
-10.207600 0.000000
-10.193400 0.000000
-10.179200 0.000000
-10.165100 0.000000
-10.150900 0.000000
-10.136800 0.000000
-10.122600 0.000000
-10.108500 0.000000
-10.094300 0.000000
-10.080200 0.000000
-10.066000 0.000000
-10.051900 0.000000
-10.037700 0.000000
-10.023600 0.000400
-10.009400 0.063700
-9.995300 0.234100
-9.981100 0.511600
-9.967000 0.896200
-9.952800 1.388800
-9.938600 2.154000
-9.924500 2.965200
-9.910300 3.690200
-9.896200 4.329000
-9.882000 4.810700
-9.867900 5.248200
-9.853700 5.690500
-9.839600 6.375200
-9.825400 7.368300
-9.811300 8.348000
-9.797100 9.938700
-9.783000 11.145200
-9.768800 11.887700
-9.754700 11.967900
-9.740500 10.815200
-9.726400 9.995000
-9.712200 11.554800
-9.698000 11.776500
-9.683900 11.969300
-9.669700 12.073900
-9.655600 12.090100
-9.641400 12.024600
-9.627300 13.227300
-9.613100 12.479200
-9.599000 11.206000
-9.584800 11.326200
-9.570700 11.409700
-9.556500 11.193100
-9.542400 9.773700
-9.528200 5.504400
-9.514100 3.515500
-9.499900 1.699700
-9.485800 0.376200
-9.471600 0.000000
-9.457400 0.000000
-9.443300 0.000000
-9.429100 0.000000
-9.415000 0.000000
-9.400800 0.000000
-9.386700 0.000000
-9.372500 0.000000
-9.358400 3.167400
-9.344200 4.708300
-9.330100 6.424300
-9.315900 6.923900
-9.301800 6.846400
-9.287600 6.291300
-9.273500 5.864800
-9.259300 6.072200
-9.245200 6.336300
-9.231000 6.657200
-9.216800 11.480100
-9.202700 11.991100
-9.188500 14.160300
-9.174400 12.692300
-9.160200 11.768700
-9.146100 14.003300
-9.131900 6.209800
-9.117800 6.211200
-9.103600 6.212600
-9.089500 6.214000
-9.075300 6.215400
-9.061200 6.216800
-9.047000 6.218300
-9.032900 6.219700
-9.018700 6.221200
-9.004600 6.222700
-8.990400 6.224200
-8.976200 6.225700
-8.962100 6.227300
-8.947900 6.228800
-8.933800 6.230400
-8.919600 6.232000
-8.905500 6.233600
-8.891300 6.235200
-8.877200 6.236800
-8.863000 6.238500
-8.848900 6.240100
-8.834700 6.007600
-8.820600 5.341500
-8.806400 3.707600
-8.792300 1.994400
-8.778100 0.205600
-8.764000 0.000000
-8.749800 0.000000
-8.735600 0.000000
-8.721500 0.000000
-8.707300 0.000000
-8.693200 0.000000
-8.679000 0.228900
-8.664900 1.576900
-8.650700 2.735500
-8.636600 3.430900
-8.622400 3.910400
-8.608300 4.163500
-8.594100 4.443600
-8.580000 4.770800
-8.565800 5.130100
-8.551700 5.520500
-8.537500 5.836200
-8.523400 5.976700
-8.509200 5.996400
-8.495000 5.996000
-8.480900 5.995600
-8.466700 5.995200
-8.452600 5.994900
-8.438400 5.994500
-8.424300 5.994200
-8.410100 5.993900
-8.396000 5.993600
-8.381800 5.993400
-8.367700 5.993100
-8.353500 5.992900
-8.339400 5.992700
-8.325200 5.992500
-8.311100 5.992300
-8.296900 5.992100
-8.282700 5.991900
-8.268600 5.991800
-8.254400 5.991700
-8.240300 15.333900
-8.226100 23.778300
-8.212000 24.104300
-8.197800 11.791700
-8.183700 7.510800
-8.169500 5.742000
-8.155400 5.711500
-8.141200 5.949500
-8.127100 6.431700
-8.112900 6.614500
-8.098800 5.809800
-8.084600 3.759900
-8.070500 0.795500
-8.056300 0.000000
-8.042100 0.000000
-8.028000 0.000000
-8.013800 0.000000
-7.999700 0.000000
-7.985500 0.000000
-7.971400 0.000000
-7.957200 0.000000
-7.943100 0.000000
-7.928900 0.000000
-7.914800 0.000000
-7.900600 0.000000
-7.886500 0.000000
-7.872300 0.000000
-7.858200 0.000000
-7.844000 0.000000
-7.829900 0.000000
-7.815700 0.000000
-7.801500 0.000000
-7.787400 0.000000
-7.773200 0.000000
-7.759100 0.000000
-7.744900 0.000000
-7.730800 0.000000
-7.716600 0.000000
-7.702500 0.000000
-7.688300 0.000000
-7.674200 0.000000
-7.660000 0.000000
-7.645900 0.000000
-7.631700 26.492200
-7.617600 19.613800
-7.603400 14.123900
-7.589300 7.791200
-7.575100 7.998100
-7.560900 8.368600
-7.546800 10.457800
-7.532600 11.348400
-7.518500 10.941600
-7.504300 9.094900
-7.490200 6.165200
-7.476000 5.308000
-7.461900 5.306500
-7.447700 5.305100
-7.433600 5.303600
-7.419400 5.302200
-7.405300 5.300800
-7.391100 5.299400
-7.377000 5.298000
-7.362800 5.296600
-7.348700 5.295300
-7.334500 5.294000
-7.320300 5.292700
-7.306200 5.291400
-7.292000 5.290200
-7.277900 5.288900
-7.263700 5.287700
-7.249600 5.266300
-7.235400 5.196900
-7.221300 5.079200
-7.207100 4.914300
-7.193000 4.714300
-7.178800 4.482700
-7.164700 4.186200
-7.150500 3.693800
-7.136400 3.346900
-7.122200 3.112400
-7.108100 2.869600
-7.093900 2.618500
-7.079700 2.376100
-7.065600 2.161900
-7.051400 1.949700
-7.037300 1.739600
-7.023100 1.531300
-7.009000 1.291800
-6.994800 0.926800
-6.980700 0.488600
-6.966500 0.244600
-6.952400 0.230800
-6.938200 0.600100
-6.924100 1.037600
-6.909900 1.485400
-6.895800 1.933200
-6.881600 2.381500
-6.867500 2.838700
-6.853300 3.295800
-6.839100 3.755900
-6.825000 4.220600
-6.810800 4.685200
-6.796700 5.149700
-6.782500 5.384600
-6.768400 5.560200
-6.754200 5.735800
-6.740100 5.911400
-6.725900 5.949000
-6.711800 5.951300
-6.697600 5.953700
-6.683500 5.956100
-6.669300 5.958400
-6.655200 5.960800
-6.641000 5.963100
-6.626900 5.965500
-6.612700 5.967800
-6.598500 5.970200
-6.584400 5.972500
-6.570200 5.974900
-6.556100 5.977200
-6.541900 5.979500
-6.527800 5.981900
-6.513600 5.984200
-6.499500 7.331100
-6.485300 20.552300
-6.471200 20.860800
-6.457000 13.712900
-6.442900 5.369500
-6.428700 5.067700
-6.414600 4.909200
-6.400400 4.750600
-6.386300 4.592000
-6.372100 4.433200
-6.357900 4.274300
-6.343800 4.364400
-6.329600 4.488800
-6.315500 4.800800
-6.301300 4.645400
-6.287200 4.413300
-6.273000 4.104700
-6.258900 3.245300
-6.244700 2.390400
-6.230600 1.540100
-6.216400 0.000000
-6.202300 0.000000
-6.188100 0.000000
-6.174000 0.000000
-6.159800 0.000000
-6.145600 0.000000
-6.131500 0.000000
-6.117300 0.000000
-6.103200 0.000000
-6.089000 0.000000
-6.074900 0.000000
-6.060700 0.000000
-6.046600 0.000000
-6.032400 0.000000
-6.018300 0.000000
-6.004100 2.407800
-5.990000 3.824800
-5.975800 5.207200
-5.961700 6.554800
-5.947500 8.082400
-5.933400 8.391900
-5.919200 5.947300
-5.905000 6.220900
-5.890900 6.493900
-5.876700 6.766200
-5.862600 6.859400
-5.848400 6.901300
-5.834300 6.744900
-5.820100 6.774300
-5.806000 6.943300
-5.791800 7.111500
-5.777700 7.279000
-5.763500 7.445700
-5.749400 7.861300
-5.735200 8.340600
-5.721100 8.815100
-5.706900 9.284700
-5.692800 9.749400
-5.678600 9.999400
-5.664400 10.163600
-5.650300 9.675400
-5.636100 8.845000
-5.622000 7.989300
-5.607800 7.054000
-5.593700 5.928200
-5.579500 4.752200
-5.565400 4.218400
-5.551200 3.906500
-5.537100 3.652100
-5.522900 3.422100
-5.508800 3.216800
-5.494600 3.037600
-5.480500 2.908100
-5.466300 2.780600
-5.452200 2.655300
-5.438000 2.532100
-5.423800 2.411000
-5.409700 2.292000
-5.395500 2.174300
-5.381400 2.056700
-5.367200 1.939300
-5.353100 1.822000
-5.338900 1.704800
-5.324800 1.587800
-5.310600 1.470800
-5.296500 1.354000
-5.282300 1.237300
-5.268200 1.120700
-5.254000 1.000600
-5.239900 0.874300
-5.225700 0.745500
-5.211600 0.617400
-5.197400 0.499600
-5.183200 0.392500
-5.169100 0.296400
-5.154900 0.211000
-5.140800 0.136600
-5.126600 0.073000
-5.112500 0.020200
-5.098300 0.000000
-5.084200 0.000000
-5.070000 0.037900
-5.055900 0.560700
-5.041700 1.082800
-5.027600 1.604300
-5.013400 2.125000
-4.999300 2.601600
-4.985100 3.052400
-4.971000 4.210200
-4.956800 5.435300
-4.942600 7.273400
-4.928500 8.672200
-4.914300 8.668000
-4.900200 8.664100
-4.886000 8.660500
-4.871900 8.657200
-4.857700 8.654200
-4.843600 8.651500
-4.829400 8.649100
-4.815300 9.164900
-4.801100 9.717200
-4.787000 10.253500
-4.772800 10.773600
-4.758700 11.277700
-4.744500 13.026200
-4.730400 13.543700
-4.716200 12.233300
-4.702000 9.857300
-4.687900 9.478000
-4.673700 9.195300
-4.659600 9.014500
-4.645400 11.855700
-4.631300 14.051100
-4.617100 26.422500
-4.603000 10.769600
-4.588800 4.012500
-4.574700 5.189300
-4.560500 6.039500
-4.546400 7.019700
-4.532200 8.076600
-4.518100 8.206100
-4.503900 8.356600
-4.489800 8.513100
-4.475600 7.971800
-4.461400 6.813300
-4.447300 6.005900
-4.433100 5.989200
-4.419000 5.972400
-4.404800 5.955500
-4.390700 5.938500
-4.376500 5.921400
-4.362400 5.904200
-4.348200 5.887000
-4.334100 5.890000
-4.319900 7.345700
-4.305800 9.440100
-4.291600 10.972000
-4.277500 12.346400
-4.263300 13.251600
-4.249100 27.285900
-4.235000 20.898200
-4.220800 13.615300
-4.206700 12.075700
-4.192500 10.540300
-4.178400 8.018500
-4.164200 3.568100
-4.150100 0.876400
-4.135900 0.000000
-4.121800 0.000000
-4.107600 0.000000
-4.093500 0.000000
-4.079300 0.000000
-4.065200 0.000000
-4.051000 0.000000
-4.036900 0.000000
-4.022700 0.000000
-4.008500 0.000000
-3.994400 0.000000
-3.980200 0.000000
-3.966100 0.000000
-3.951900 0.000000
-3.937800 0.000000
-3.923600 0.000000
-3.909500 0.000000
-3.895300 0.000000
-3.881200 0.000000
-3.867000 0.000000
-3.852900 0.000000
-3.838700 0.000000
-3.824600 0.000000
-3.810400 0.000000
-3.796300 0.000000
-3.782100 0.000000
-3.767900 0.000000
-3.753800 0.000000
-3.739600 0.000000
-3.725500 0.000000
-3.711300 0.000000
-3.697200 0.000000
-3.683000 0.000000
-3.668900 0.000000
-3.654700 0.000000
-3.640600 0.000000
-3.626400 0.000000
-3.612300 0.000000
-3.598100 0.000000
-3.584000 0.000000
-3.569800 0.000000
-3.555700 0.000000
-3.541500 0.000000
-3.527300 0.000000
-3.513200 0.000000
-3.499000 0.000000
-3.484900 0.000000
-3.470700 0.000000
-3.456600 0.000000
-3.442400 0.000000
-3.428300 0.000000
-3.414100 0.000000
-3.400000 0.000000
-3.385800 0.000000
-3.371700 0.000000
-3.357500 0.000000
-3.343400 0.441800
-3.329200 12.543000
-3.315100 31.771000
-3.300900 43.336900
-3.286700 50.975000
-3.272600 125.429000
-3.258400 29.039700
-3.244300 98.432000
-3.230100 144.420400
-3.216000 205.282800
-3.201800 261.597300
-3.187700 162.612400
-3.173500 184.566800
-3.159400 188.163900
-3.145200 303.582900
-3.131100 151.929500
-3.116900 213.344000
-3.102800 89.164300
-3.088600 77.677100
-3.074500 154.524400
-3.060300 114.378700
-3.046100 183.349500
-3.032000 126.064400
-3.017800 141.757800
-3.003700 159.046300
-2.989500 184.217500
-2.975400 335.394900
-2.961200 219.822300
-2.947100 266.182700
-2.932900 320.310000
-2.918800 183.606900
-2.904600 169.058600
-2.890500 85.918900
-2.876300 107.059400
-2.862200 80.237600
-2.848000 30.521900
-2.833900 0.000000
-2.819700 0.000000
-2.805500 1.582300
-2.791400 11.217600
-2.777200 13.906000
-2.763100 14.562800
-2.748900 15.483600
-2.734800 16.181900
-2.720600 23.439100
-2.706500 28.354800
-2.692300 27.896900
-2.678200 34.532700
-2.664000 34.922500
-2.649900 32.225600
-2.635700 29.370400
-2.621600 25.686200
-2.607400 16.144600
-2.593300 10.269200
-2.579100 7.362800
-2.564900 7.211500
-2.550800 7.027700
-2.536600 6.811400
-2.522500 6.562700
-2.508300 5.294100
-2.494200 4.220300
-2.480000 4.471100
-2.465900 4.704600
-2.451700 4.923900
-2.437600 5.173100
-2.423400 5.466900
-2.409300 5.941200
-2.395100 6.662500
-2.381000 7.388800
-2.366800 8.142500
-2.352600 9.031800
-2.338500 9.971500
-2.324300 10.897100
-2.310200 11.887100
-2.296000 12.941500
-2.281900 11.672300
-2.267700 11.598400
-2.253600 11.559500
-2.239400 11.010500
-2.225300 9.810400
-2.211100 8.492200
-2.197000 7.119500
-2.182800 5.922300
-2.168700 5.043500
-2.154500 4.402400
-2.140400 3.999000
-2.126200 3.790000
-2.112000 3.726700
-2.097900 3.908400
-2.083700 4.038800
-2.069600 4.552100
-2.055400 6.217700
-2.041300 8.342300
-2.027100 9.395900
-2.013000 10.623700
-1.998800 11.817200
-1.984700 12.268500
-1.970500 12.370900
-1.956400 12.224300
-1.942200 11.901500
-1.928100 11.453600
-1.913900 10.885500
-1.899800 10.554500
-1.885600 10.467000
-1.871400 10.617800
-1.857300 10.543000
-1.843100 10.498500
-1.829000 10.430800
-1.814800 10.354600
-1.800700 10.307900
-1.786500 11.202700
-1.772400 11.565100
-1.758200 11.643200
-1.744100 11.509800
-1.729900 11.155500
-1.715800 10.185600
-1.701600 8.735100
-1.687500 8.171100
-1.673300 8.689100
-1.659200 6.945600
-1.645000 6.646000
-1.630800 6.344100
-1.616700 6.039800
-1.602500 5.733000
-1.588400 5.424000
-1.574200 5.112500
-1.560100 4.257700
-1.545900 3.289200
-1.531800 4.271300
-1.517600 4.713200
-1.503500 5.098600
-1.489300 5.436700
-1.475200 5.774000
-1.461000 6.108600
-1.446900 6.440300
-1.432700 6.880900
-1.418600 7.382100
-1.404400 7.904800
-1.390200 8.449200
-1.376100 8.832300
-1.361900 9.342600
-1.347800 9.810600
-1.333600 10.248800
-1.319500 10.657300
-1.305300 11.143900
-1.291200 12.978600
-1.277000 12.541700
-1.262900 13.242600
-1.248700 14.663000
-1.234600 14.481500
-1.220400 12.245600
-1.206300 10.212200
-1.192100 8.381100
-1.178000 7.046600
-1.163800 6.904200
-1.149600 7.439800
-1.135500 8.362300
-1.121300 9.282600
-1.107200 10.244600
-1.093000 12.928000
-1.078900 14.160400
-1.064700 13.184900
-1.050600 13.233100
-1.036400 13.570100
-1.022300 14.165400
-1.008100 20.163900
-0.994000 22.602900
-0.979800 32.969100
-0.965700 17.179500
-0.951500 9.456800
-0.937400 4.169500
-0.923200 1.947200
-0.909000 0.744000
-0.894900 2.637800
-0.880700 7.810800
-0.866600 11.433600
-0.852400 13.181500
-0.838300 13.120300
-0.824100 14.440500
-0.810000 15.369400
-0.795800 9.159800
-0.781700 7.377400
-0.767500 7.683200
-0.753400 8.534100
-0.739200 10.456600
-0.725100 13.746600
-0.710900 23.224800
-0.696800 24.761000
-0.682600 24.371900
-0.668400 22.349000
-0.654300 20.233000
-0.640100 14.937400
-0.626000 11.710900
-0.611800 9.318200
-0.597700 7.664500
-0.583500 6.749900
-0.569400 5.886200
-0.555200 6.821600
-0.541100 7.304600
-0.526900 7.168500
-0.512800 7.582700
-0.498600 9.449900
-0.484500 11.679700
-0.470300 12.211400
-0.456100 11.004900
-0.442000 11.305400
-0.427800 12.070100
-0.413700 12.973500
-0.399500 14.015700
-0.385400 15.108000
-0.371200 15.121000
-0.357100 13.817800
-0.342900 11.714300
-0.328800 10.202200
-0.314600 9.190400
-0.300500 8.390500
-0.286300 7.551500
-0.272200 6.844200
-0.258000 6.197900
-0.243900 5.723400
-0.229700 5.688200
-0.215500 5.914900
-0.201400 6.588000
-0.187200 6.915100
-0.173100 6.896300
-0.158900 6.618300
-0.144800 6.280600
-0.130600 6.323400
-0.116500 6.664800
-0.102300 8.154100
-0.088200 9.972400
-0.074000 12.079800
-0.059900 13.281900
-0.045700 13.889000
-0.031600 14.121100
-0.017400 14.155700
-0.003300 14.063400
0.010900 12.795400
0.025100 10.515600
0.039200 9.043300
0.053400 8.541400
0.067500 8.377900
0.081700 8.721800
0.095800 9.444000
0.110000 10.609500
0.124100 12.840500
0.138300 14.650700
0.152400 15.471000
0.166600 15.241300
0.180700 13.128200
0.194900 13.573000
0.209000 15.028400
0.223200 15.310300
0.237300 23.244100
0.251500 22.591300
0.265700 19.625300
0.279800 18.465600
0.294000 19.143900
0.308100 17.852300
0.322300 14.937800
0.336400 13.178100
0.350600 7.044400
0.364700 10.679200
0.378900 11.875200
0.393000 14.392900
0.407200 15.335400
0.421300 15.717900
0.435500 15.598800
0.449600 13.734900
0.463800 11.525400
0.477900 10.673400
0.492100 9.699100
0.506300 9.712900
0.520400 10.533900
0.534600 11.006800
0.548700 11.319400
0.562900 11.575800
0.577000 11.683600
0.591200 11.699000
0.605300 12.085800
0.619500 11.470100
0.633600 10.045400
0.647800 9.307200
0.661900 9.624200
0.676100 9.893800
0.690200 10.096100
0.704400 10.453300
0.718500 11.020800
0.732700 11.798400
0.746900 12.786200
0.761000 14.003300
0.775200 16.038900
0.789300 13.311300
0.803500 12.910100
0.817600 12.361900
0.831800 11.946700
0.845900 11.832000
0.860100 11.675600
0.874200 11.513900
0.888400 11.380800
0.902500 11.323300
0.916700 11.267900
0.930800 11.200700
0.945000 11.225300
0.959100 11.357900
0.973300 11.508500
0.987500 11.540600
1.001600 11.442500
1.015800 11.328800
1.029900 11.582100
1.044100 12.369800
1.058200 13.650000
1.072400 14.309400
1.086500 14.964000
1.100700 15.716400
1.114800 14.146600
1.129000 14.046400
1.143100 14.300100
1.157300 14.328400
1.171400 13.868900
1.185600 13.669400
1.199700 13.599800
1.213900 13.405900
1.228100 12.809200
1.242200 11.695800
1.256400 10.974500
1.270500 10.287900
1.284700 9.330700
1.298800 8.253000
1.313000 7.229800
1.327100 6.425500
1.341300 6.143600
1.355400 5.926400
1.369600 5.810000
1.383700 5.701300
1.397900 5.627200
1.412000 5.600900
1.426200 5.622400
1.440400 5.691600
1.454500 5.808700
1.468700 5.973500
1.482800 6.234800
1.497000 7.406500
1.511100 8.178900
1.525300 6.011900
1.539400 5.620600
1.553600 5.115000
1.567700 4.626400
1.581900 4.714700
1.596000 5.380000
1.610200 5.717500
1.624300 6.909500
1.638500 8.959800
1.652600 11.260000
1.666800 13.893800
1.681000 17.461100
1.695100 16.610400
1.709300 15.519800
1.723400 24.959400
1.737600 24.191400
1.751700 14.013400
1.765900 12.473500
1.780000 11.249200
1.794200 10.527500
1.808300 10.252800
1.822500 10.312500
1.836600 10.675700
1.850800 11.339800
1.864900 12.216500
1.879100 13.257900
1.893200 15.036000
1.907400 16.050100
1.921600 13.909400
1.935700 11.808000
1.949900 10.178200
1.964000 10.085200
1.978200 10.545900
1.992300 11.143600
2.006500 11.864200
2.020600 12.707700
2.034800 12.770900
2.048900 12.213600
2.063100 11.876600
2.077200 12.734200
2.091400 14.832300
2.105500 14.488100
2.119700 13.667600
2.133800 10.918700
2.148000 8.916000
2.162200 10.070100
2.176300 11.531200
2.190500 12.257700
2.204600 14.171200
2.218800 15.580100
2.232900 16.814400
2.247100 17.839900
2.261200 18.625700
2.275400 19.158200
2.289500 19.092900
2.303700 19.254300
2.317800 19.115600
2.332000 18.489500
2.346100 17.195400
2.360300 15.111000
2.374400 14.997500
2.388600 15.451300
2.402800 16.624200
2.416900 17.682300
2.431100 19.013000
2.445200 20.848700
2.459400 22.864500
2.473500 25.147000
2.487700 25.264500
2.501800 23.966400
2.516000 21.292400
2.530100 17.803300
2.544300 16.054600
2.558400 13.927300
2.572600 12.020000
2.586700 10.352700
2.600900 9.070000
2.615000 8.995800
2.629200 10.954500
2.643400 19.186600
2.657500 20.949000
2.671700 15.646400
2.685800 12.262200
2.700000 11.203200
2.714100 12.735700
2.728300 15.773800
2.742400 18.223500
2.756600 19.178600
2.770700 18.688500
2.784900 17.622700
2.799000 16.030500
2.813200 13.934400
2.827300 11.706300
2.841500 10.411700
2.855600 10.532300
2.869800 9.971300
2.884000 7.822900
2.898100 7.190300
2.912300 7.550600
2.926400 8.520000
2.940600 9.073600
2.954700 9.284300
2.968900 9.528200
2.983000 9.911500
2.997200 10.800100
3.011300 9.438600
3.025500 8.384700
3.039600 8.288200
3.053800 7.368200
3.067900 6.443400
3.082100 5.686200
3.096200 5.096500
3.110400 4.813900
3.124600 4.822400
3.138700 4.848000
3.152900 4.903100
3.167000 5.011600
3.181200 5.109800
