set title 'mp-1223699 - Density of States'
set xlabel 'Energy (eV)'
set ylabel 'DOS (states/eV)'
set grid
set xrange [-10:10]
set yrange [0:48.920]
set xzeroaxis lt -1
set terminal png size 800,600
set output 'mp-1223699_dos_gnuplot.png'
plot '-' using 1:2 with lines title 'DOS'
-10.293800 0.000000
-10.272800 0.000000
-10.251900 0.000000
-10.231000 0.000000
-10.210100 0.000000
-10.189200 0.000000
-10.168300 0.000000
-10.147400 0.000000
-10.126500 0.000000
-10.105600 0.000000
-10.084700 0.000000
-10.063700 0.000000
-10.042800 0.000000
-10.021900 0.000000
-10.001000 0.000000
-9.980100 0.000000
-9.959200 0.000000
-9.938300 0.000000
-9.917400 0.000000
-9.896500 0.000000
-9.875600 0.000000
-9.854700 0.000000
-9.833700 0.000000
-9.812800 0.000000
-9.791900 0.000000
-9.771000 0.000000
-9.750100 0.000000
-9.729200 0.000000
-9.708300 0.000000
-9.687400 0.000000
-9.666500 0.000000
-9.645600 0.000000
-9.624600 0.000000
-9.603700 0.000000
-9.582800 0.000000
-9.561900 0.000000
-9.541000 0.000000
-9.520100 0.000000
-9.499200 0.000000
-9.478300 0.000000
-9.457400 0.000000
-9.436500 0.000000
-9.415500 0.000000
-9.394600 0.000000
-9.373700 0.000000
-9.352800 0.000000
-9.331900 0.000000
-9.311000 0.000000
-9.290100 0.000000
-9.269200 0.000000
-9.248300 0.000000
-9.227400 0.000000
-9.206400 0.000000
-9.185500 0.000000
-9.164600 0.000000
-9.143700 0.000000
-9.122800 0.000000
-9.101900 0.000000
-9.081000 0.000000
-9.060100 0.000000
-9.039200 0.000000
-9.018300 0.000000
-8.997400 0.000000
-8.976400 0.000000
-8.955500 0.000000
-8.934600 0.000000
-8.913700 0.000000
-8.892800 0.000000
-8.871900 0.000000
-8.851000 0.000000
-8.830100 0.000000
-8.809200 0.000000
-8.788300 0.000000
-8.767300 0.000000
-8.746400 0.000000
-8.725500 0.000000
-8.704600 0.000000
-8.683700 0.000000
-8.662800 0.000000
-8.641900 0.000000
-8.621000 0.000000
-8.600100 0.000000
-8.579200 0.000000
-8.558200 0.000000
-8.537300 0.000000
-8.516400 0.000500
-8.495500 0.004100
-8.474600 0.024200
-8.453700 0.106800
-8.432800 0.358300
-8.411900 0.943500
-8.391000 2.033300
-8.370100 3.752200
-8.349200 6.154000
-8.328200 9.191600
-8.307300 12.786700
-8.286400 17.157300
-8.265500 22.981900
-8.244600 30.511400
-8.223700 38.168700
-8.202800 43.185800
-8.181900 44.472600
-8.161000 43.510000
-8.140100 41.613700
-8.119100 38.065500
-8.098200 31.953800
-8.077300 24.424200
-8.056400 17.881300
-8.035500 13.535700
-8.014600 10.715200
-7.993700 8.324700
-7.972800 6.063000
-7.951900 4.180200
-7.931000 2.787500
-7.910000 1.751700
-7.889100 0.966600
-7.868200 0.436600
-7.847300 0.153700
-7.826400 0.040900
-7.805500 0.008100
-7.784600 0.001200
-7.763700 0.000100
-7.742800 0.000000
-7.721900 0.000000
-7.700900 0.000000
-7.680000 0.000000
-7.659100 0.000000
-7.638200 0.000000
-7.617300 0.000000
-7.596400 0.000000
-7.575500 0.000000
-7.554600 0.000000
-7.533700 0.000000
-7.512800 0.000000
-7.491900 0.000000
-7.470900 0.000000
-7.450000 0.000000
-7.429100 0.000000
-7.408200 0.000000
-7.387300 0.000000
-7.366400 0.000000
-7.345500 0.000000
-7.324600 0.000000
-7.303700 0.000000
-7.282800 0.000000
-7.261800 0.000000
-7.240900 0.000000
-7.220000 0.000000
-7.199100 0.000000
-7.178200 0.000000
-7.157300 0.000000
-7.136400 0.000000
-7.115500 0.000000
-7.094600 0.000000
-7.073700 0.000000
-7.052700 0.000000
-7.031800 0.000000
-7.010900 0.000000
-6.990000 0.000000
-6.969100 0.000000
-6.948200 0.000000
-6.927300 0.000000
-6.906400 0.000000
-6.885500 0.000000
-6.864600 0.000000
-6.843700 0.000000
-6.822700 0.000000
-6.801800 0.000000
-6.780900 0.000000
-6.760000 0.000000
-6.739100 0.000000
-6.718200 0.000000
-6.697300 0.000000
-6.676400 0.000000
-6.655500 0.000000
-6.634600 0.000000
-6.613600 0.000000
-6.592700 0.000000
-6.571800 0.000000
-6.550900 0.000000
-6.530000 0.000000
-6.509100 0.000000
-6.488200 0.000000
-6.467300 0.000000
-6.446400 0.000000
-6.425500 0.000000
-6.404500 0.000000
-6.383600 0.000000
-6.362700 0.000000
-6.341800 0.000000
-6.320900 0.000000
-6.300000 0.000000
-6.279100 0.000000
-6.258200 0.000000
-6.237300 0.000000
-6.216400 0.000000
-6.195400 0.000000
-6.174500 0.000000
-6.153600 0.000000
-6.132700 0.000000
-6.111800 0.000000
-6.090900 0.000000
-6.070000 0.000000
-6.049100 0.000000
-6.028200 0.000000
-6.007300 0.000000
-5.986400 0.000000
-5.965400 0.000000
-5.944500 0.000000
-5.923600 0.000000
-5.902700 0.000000
-5.881800 0.000000
-5.860900 0.000000
-5.840000 0.000000
-5.819100 0.000000
-5.798200 0.000000
-5.777300 0.000000
-5.756300 0.000000
-5.735400 0.000000
-5.714500 0.000000
-5.693600 0.000000
-5.672700 0.000000
-5.651800 0.000000
-5.630900 0.000000
-5.610000 0.000000
-5.589100 0.000000
-5.568200 0.000000
-5.547200 0.000000
-5.526300 0.000000
-5.505400 0.000000
-5.484500 0.000000
-5.463600 0.000000
-5.442700 0.000000
-5.421800 0.000000
-5.400900 0.000000
-5.380000 0.000000
-5.359100 0.000000
-5.338200 0.000000
-5.317200 0.000000
-5.296300 0.000000
-5.275400 0.000000
-5.254500 0.000000
-5.233600 0.000000
-5.212700 0.000000
-5.191800 0.000000
-5.170900 0.000000
-5.150000 0.000000
-5.129100 0.000000
-5.108100 0.000000
-5.087200 0.000000
-5.066300 0.000000
-5.045400 0.000000
-5.024500 0.000000
-5.003600 0.000000
-4.982700 0.000000
-4.961800 0.000000
-4.940900 0.000000
-4.920000 0.000000
-4.899000 0.000000
-4.878100 0.000000
-4.857200 0.000000
-4.836300 0.000000
-4.815400 0.000000
-4.794500 0.000000
-4.773600 0.000000
-4.752700 0.000000
-4.731800 0.000000
-4.710900 0.000000
-4.689900 0.000000
-4.669000 0.000000
-4.648100 0.000000
-4.627200 0.000000
-4.606300 0.000000
-4.585400 0.000000
-4.564500 0.000000
-4.543600 0.000000
-4.522700 0.000000
-4.501800 0.000000
-4.480900 0.000000
-4.459900 0.000000
-4.439000 0.000000
-4.418100 0.000000
-4.397200 0.000000
-4.376300 0.000000
-4.355400 0.000000
-4.334500 0.000000
-4.313600 0.000000
-4.292700 0.000000
-4.271800 0.000000
-4.250800 0.000000
-4.229900 0.000000
-4.209000 0.000000
-4.188100 0.000000
-4.167200 0.000000
-4.146300 0.000000
-4.125400 0.000000
-4.104500 0.000000
-4.083600 0.000000
-4.062700 0.000000
-4.041700 0.000000
-4.020800 0.000000
-3.999900 0.000000
-3.979000 0.000000
-3.958100 0.000000
-3.937200 0.000000
-3.916300 0.000000
-3.895400 0.000000
-3.874500 0.000000
-3.853600 0.000000
-3.832700 0.000000
-3.811700 0.000000
-3.790800 0.000000
-3.769900 0.000000
-3.749000 0.000000
-3.728100 0.000000
-3.707200 0.000000
-3.686300 0.000000
-3.665400 0.000000
-3.644500 0.000000
-3.623600 0.000000
-3.602600 0.000000
-3.581700 0.000000
-3.560800 0.000000
-3.539900 0.000000
-3.519000 0.000000
-3.498100 0.000000
-3.477200 0.000000
-3.456300 0.000000
-3.435400 0.000000
-3.414500 0.000000
-3.393500 0.000000
-3.372600 0.000000
-3.351700 0.000000
-3.330800 0.000000
-3.309900 0.000000
-3.289000 0.000000
-3.268100 0.000000
-3.247200 0.000000
-3.226300 0.000000
-3.205400 0.000000
-3.184400 0.000000
-3.163500 0.000000
-3.142600 0.000000
-3.121700 0.000000
-3.100800 0.000000
-3.079900 0.000000
-3.059000 0.000000
-3.038100 0.000000
-3.017200 0.000000
-2.996300 0.000000
-2.975400 0.000000
-2.954400 0.000000
-2.933500 0.000000
-2.912600 0.000000
-2.891700 0.000000
-2.870800 0.000000
-2.849900 0.000000
-2.829000 0.000000
-2.808100 0.000000
-2.787200 0.000000
-2.766300 0.000000
-2.745300 0.000000
-2.724400 0.000000
-2.703500 0.000000
-2.682600 0.000000
-2.661700 0.000000
-2.640800 0.000000
-2.619900 0.000000
-2.599000 0.000000
-2.578100 0.000000
-2.557200 0.000000
-2.536200 0.000000
-2.515300 0.000000
-2.494400 0.000000
-2.473500 0.000000
-2.452600 0.000000
-2.431700 0.000000
-2.410800 0.000400
-2.389900 0.002200
-2.369000 0.009600
-2.348100 0.029600
-2.327200 0.065000
-2.306200 0.102100
-2.285300 0.116700
-2.264400 0.105400
-2.243500 0.099900
-2.222600 0.135200
-2.201700 0.211000
-2.180800 0.285600
-2.159900 0.307800
-2.139000 0.267600
-2.118100 0.219700
-2.097100 0.234100
-2.076200 0.317400
-2.055300 0.398900
-2.034400 0.401700
-2.013500 0.320300
-1.992600 0.227800
-1.971700 0.215800
-1.950800 0.324500
-1.929900 0.504000
-1.909000 0.630600
-1.888000 0.607900
-1.867100 0.481500
-1.846200 0.410200
-1.825300 0.495300
-1.804400 0.667600
-1.783500 0.754900
-1.762600 0.667100
-1.741700 0.499000
-1.720800 0.418100
-1.699900 0.472000
-1.678900 0.547000
-1.658000 0.514100
-1.637100 0.378900
-1.616200 0.270600
-1.595300 0.308800
-1.574400 0.493600
-1.553500 0.693300
-1.532600 0.756700
-1.511700 0.672800
-1.490800 0.585600
-1.469900 0.618900
-1.448900 0.725500
-1.428000 0.752800
-1.407100 0.640400
-1.386200 0.497000
-1.365300 0.461900
-1.344400 0.533000
-1.323500 0.575800
-1.302600 0.505900
-1.281700 0.411700
-1.260800 0.448600
-1.239800 0.634600
-1.218900 0.799900
-1.198000 0.780900
-1.177100 0.626800
-1.156200 0.514000
-1.135300 0.506300
-1.114400 0.523900
-1.093500 0.502900
-1.072600 0.469800
-1.051700 0.481900
-1.030700 0.565400
-1.009800 0.680300
-0.988900 0.740000
-0.968000 0.722300
-0.947100 0.715900
-0.926200 0.782500
-0.905300 0.847600
-0.884400 0.821000
-0.863500 0.750500
-0.842600 0.744500
-0.821700 0.794500
-0.800700 0.795000
-0.779800 0.718000
-0.758900 0.643300
-0.738000 0.609600
-0.717100 0.557700
-0.696200 0.454000
-0.675300 0.377400
-0.654400 0.433800
-0.633500 0.616400
-0.612600 0.797500
-0.591600 0.882200
-0.570700 0.924400
-0.549800 1.002500
-0.528900 1.052100
-0.508000 0.973600
-0.487100 0.824000
-0.466200 0.740000
-0.445300 0.758400
-0.424400 0.832400
-0.403500 0.937600
-0.382500 1.049200
-0.361600 1.083700
-0.340700 1.003500
-0.319800 0.935600
-0.298900 1.027900
-0.278000 1.225100
-0.257100 1.340100
-0.236200 1.302400
-0.215300 1.200300
-0.194400 1.131900
-0.173500 1.123200
-0.152500 1.145100
-0.131600 1.163100
-0.110700 1.191400
-0.089800 1.261300
-0.068900 1.339500
-0.048000 1.359800
-0.027100 1.322100
-0.006200 1.296200
0.014700 1.333400
0.035600 1.394700
0.056600 1.371200
0.077500 1.212000
0.098400 1.017200
0.119300 0.944600
0.140200 1.020800
0.161100 1.100700
0.182000 1.035300
0.202900 0.839800
0.223800 0.673600
0.244700 0.682500
0.265700 0.852600
0.286600 1.008200
0.307500 0.982900
0.328400 0.779400
0.349300 0.529100
0.370200 0.350200
0.391100 0.288500
0.412000 0.341600
0.432900 0.459200
0.453800 0.537500
0.474800 0.498400
0.495700 0.371900
0.516600 0.251300
0.537500 0.189500
0.558400 0.177800
0.579300 0.197100
0.600200 0.232900
0.621100 0.252800
0.642000 0.230600
0.662900 0.189300
0.683800 0.170200
0.704800 0.177300
0.725700 0.184300
0.746600 0.171000
0.767500 0.139100
0.788400 0.114600
0.809300 0.130600
0.830200 0.185500
0.851100 0.227300
0.872000 0.207100
0.892900 0.137500
0.913900 0.075200
0.934800 0.063100
0.955700 0.107900
0.976600 0.180400
0.997500 0.224500
1.018400 0.202600
1.039300 0.142300
1.060200 0.120100
1.081100 0.210700
1.102000 0.438900
1.123000 0.729100
1.143900 0.935600
1.164800 0.997200
1.185700 1.023000
1.206600 1.174600
1.227500 1.498800
1.248400 1.870200
1.269300 2.093200
1.290200 2.107800
1.311100 2.033900
1.332000 1.993200
1.353000 2.036100
1.373900 2.221600
1.394800 2.574100
1.415700 2.991400
1.436600 3.346500
1.457500 3.648700
1.478400 3.990400
1.499300 4.352300
1.520200 4.601500
1.541100 4.721400
1.562100 4.871600
1.583000 5.146700
1.603900 5.446000
1.624800 5.637600
1.645700 5.692700
1.666600 5.641900
1.687500 5.570300
1.708400 5.659600
1.729300 6.043200
1.750200 6.602300
1.771200 7.087400
1.792100 7.457200
1.813000 7.921400
1.833900 8.608800
1.854800 9.376700
1.875700 9.979400
1.896600 10.264400
1.917500 10.247600
1.938400 10.075700
1.959300 9.887800
1.980300 9.775000
2.001200 9.797600
2.022100 9.907800
2.043000 9.962900
2.063900 9.926100
2.084800 10.003600
2.105700 10.450800
2.126600 11.228400
2.147500 12.017600
2.168400 12.601700
2.189300 13.020600
2.210300 13.293200
2.231200 13.214200
2.252100 12.579500
2.273000 11.576300
2.293900 10.787900
2.314800 10.630200
2.335700 10.902000
2.356600 11.105500
2.377500 10.991800
2.398400 10.626200
2.419400 10.221900
2.440300 9.987600
2.461200 9.949400
2.482100 9.995200
2.503000 10.073400
2.523900 10.162800
2.544800 10.161900
2.565700 9.943300
2.586600 9.451700
2.607500 8.722900
2.628500 7.817200
2.649400 6.822100
2.670300 5.997200
2.691200 5.709600
2.712100 6.028700
2.733000 6.558100
2.753900 6.850200
2.774800 6.849600
2.795700 6.787700
2.816600 6.821800
2.837500 6.959400
2.858500 7.194500
2.879400 7.525900
2.900300 7.861200
2.921200 8.077900
2.942100 8.205200
2.963000 8.327600
2.983900 8.336700
3.004800 8.031300
3.025700 7.397900
3.046600 6.596800
3.067600 5.785400
3.088500 5.117600
3.109400 4.746300
3.130300 4.639600
3.151200 4.596600
3.172100 4.582300
3.193000 4.782800
3.213900 5.286700
3.234800 5.966300
3.255700 6.656300
3.276700 7.290400
3.297600 7.882800
3.318500 8.430800
3.339400 8.791500
3.360300 8.724600
3.381200 8.237000
3.402100 7.773400
3.423000 7.797600
3.443900 8.267400
3.464800 8.689000
3.485800 8.620900
3.506700 8.071900
3.527600 7.456700
3.548500 7.191600
3.569400 7.373300
3.590300 7.776000
3.611200 8.045200
3.632100 8.007100
3.653000 7.862500
3.673900 7.960500
3.694800 8.362200
3.715800 8.714000
3.736700 8.608700
3.757600 8.042500
3.778500 7.394100
3.799400 6.961900
3.820300 6.702600
3.841200 6.455600
3.862100 6.207800
3.883000 6.017600
3.903900 5.837600
3.924900 5.573000
3.945800 5.250300
3.966700 5.028200
3.987600 5.055600
4.008500 5.315700
4.029400 5.572400
4.050300 5.530000
4.071200 5.146900
4.092100 4.766400
4.113000 4.833300
4.134000 5.414700
4.154900 6.077800
4.175800 6.451200
4.196700 6.795200
4.217600 7.669200
4.238500 9.170300
4.259400 10.804800
4.280300 11.983500
4.301200 12.456200
4.322100 12.319800
4.343000 11.786300
4.364000 11.057800
4.384900 10.362000
4.405800 9.945400
4.426700 9.914700
4.447600 10.066800
4.468500 10.049800
4.489400 9.806900
4.510300 9.605700
4.531200 9.596400
4.552100 9.713700
4.573100 9.922900
4.594000 10.193100
4.614900 10.358000
4.635800 10.223600
4.656700 9.731500
4.677600 9.002400
4.698500 8.263600
4.719400 7.650600
4.740300 7.056100
4.761200 6.270100
4.782200 5.290200
4.803100 4.384500
4.824000 3.849900
4.844900 3.785600
4.865800 4.079000
4.886700 4.555000
4.907600 5.073600
4.928500 5.521700
4.949400 5.848500
4.970300 6.087800
4.991300 6.250800
5.012200 6.268000
5.033100 6.121100
5.054000 5.958800
5.074900 5.992900
5.095800 6.266100
5.116700 6.548200
5.137600 6.507600
5.158500 6.010700
5.179400 5.226600
5.200300 4.405600
5.221300 3.662100
5.242200 3.034000
5.263100 2.562300
5.284000 2.225600
5.304900 1.927500
5.325800 1.616500
5.346700 1.356700
5.367600 1.257400
5.388500 1.352500
5.409400 1.531600
5.430400 1.608600
5.451300 1.513000
5.472200 1.388700
5.493100 1.428700
5.514000 1.632800
5.534900 1.801800
5.555800 1.790000
5.576700 1.676200
5.597600 1.618800
5.618500 1.644300
5.639500 1.653000
5.660400 1.559400
5.681300 1.382600
5.702200 1.227800
5.723100 1.181900
5.744000 1.231500
5.764900 1.295100
5.785800 1.310300
5.806700 1.275400
5.827600 1.228200
5.848500 1.180100
5.869500 1.101200
5.890400 1.014000
5.911300 1.015700
5.932200 1.132700
5.953100 1.248000
5.974000 1.234300
5.994900 1.102800
6.015800 0.995200
6.036700 1.046800
6.057600 1.283700
6.078600 1.626800
6.099500 1.911200
6.120400 1.946000
6.141300 1.682900
6.162200 1.300700
6.183100 1.040500
6.204000 0.983300
6.224900 1.046400
6.245800 1.140400
6.266700 1.237900
6.287700 1.322600
6.308600 1.348000
6.329500 1.248500
6.350400 1.022500
6.371300 0.784300
6.392200 0.675900
6.413100 0.752200
6.434000 0.958200
6.454900 1.159300
6.475800 1.212800
6.496800 1.074300
6.517700 0.833600
6.538600 0.626600
6.559500 0.539200
6.580400 0.589700
6.601300 0.728000
6.622200 0.850800
6.643100 0.903400
6.664000 0.957400
6.684900 1.126800
6.705800 1.433300
6.726800 1.768000
6.747700 1.942700
6.768600 1.832500
6.789500 1.535200
6.810400 1.302700
6.831300 1.275100
6.852200 1.375200
6.873100 1.465400
6.894000 1.492400
6.914900 1.455000
6.935900 1.355900
6.956800 1.235400
6.977700 1.151300
6.998600 1.097100
7.019500 1.029000
7.040400 0.960900
7.061300 0.939200
7.082200 0.969900
7.103100 1.044000
7.124000 1.153800
7.145000 1.244000
7.165900 1.232200
7.186800 1.109400
7.207700 0.979500
7.228600 0.966400
7.249500 1.080800
7.270400 1.224600
7.291300 1.325800
7.312200 1.398100
7.333100 1.488700
7.354000 1.619000
7.375000 1.747600
7.395900 1.799700
7.416800 1.729800
7.437700 1.515700
7.458600 1.163200
7.479500 0.782700
7.500400 0.563500
7.521300 0.607500
7.542200 0.830100
7.563100 1.034800
7.584100 1.077000
7.605000 0.981500
7.625900 0.902900
7.646800 0.954500
7.667700 1.101900
7.688600 1.233700
7.709500 1.264900
7.730400 1.164100
7.751300 0.977100
7.772200 0.816600
7.793200 0.777000
7.814100 0.882200
7.835000 1.085800
7.855900 1.278700
7.876800 1.366100
7.897700 1.356000
7.918600 1.320800
7.939500 1.309100
7.960400 1.333900
7.981300 1.387300
8.002300 1.419600
8.023200 1.365900
8.044100 1.243400
8.065000 1.161100
8.085900 1.205100
8.106800 1.384100
8.127700 1.654200
8.148600 1.887700
8.169500 1.887600
8.190400 1.591600
8.211300 1.186400
8.232300 0.903700
8.253200 0.801200
8.274100 0.804300
8.295000 0.861600
8.315900 0.999700
8.336800 1.239000
8.357700 1.477300
8.378600 1.534100
8.399500 1.349100
8.420400 1.060500
8.441400 0.857400
8.462300 0.838800
8.483200 1.009800
8.504100 1.298400
8.525000 1.561900
8.545900 1.671600
8.566800 1.616000
8.587700 1.489200
8.608600 1.376700
8.629500 1.268200
8.650500 1.102600
8.671400 0.874800
8.692300 0.641200
8.713200 0.452900
8.734100 0.347600
8.755000 0.380100
8.775900 0.583600
8.796800 0.871000
8.817700 1.043500
8.838600 0.987500
8.859500 0.807000
8.880500 0.680600
8.901400 0.663700
8.922300 0.707600
8.943200 0.776200
8.964100 0.861200
8.985000 0.939600
9.005900 1.014400
9.026800 1.155800
9.047700 1.407900
9.068600 1.702800
9.089600 1.920700
9.110500 1.969100
9.131400 1.814800
9.152300 1.510300
9.173200 1.152700
9.194100 0.806500
9.215000 0.522700
9.235900 0.386400
9.256800 0.457200
9.277700 0.678700
9.298700 0.905100
9.319600 1.033400
9.340500 1.078000
9.361400 1.116500
9.382300 1.206400
9.403200 1.348100
9.424100 1.477400
9.445000 1.515600
9.465900 1.447500
9.486800 1.301100
9.507800 1.099100
9.528700 0.896600
9.549600 0.770500
9.570500 0.733700
9.591400 0.749500
9.612300 0.821100
9.633200 0.969000
9.654100 1.126200
9.675000 1.179500
9.695900 1.118900
9.716800 1.018000
9.737800 0.900200
9.758700 0.758000
9.779600 0.637900
9.800500 0.591600
9.821400 0.604500
9.842300 0.651700
9.863200 0.751300
9.884100 0.895500
9.905000 1.008800
9.925900 1.040200
9.946900 1.042000
9.967800 1.100700
9.988700 1.205300
10.009600 1.239500
10.030500 1.135800
10.051400 0.970300
10.072300 0.865400
10.093200 0.885900
10.114100 1.027000
10.135000 1.209200
10.156000 1.321700
10.176900 1.331600
10.197800 1.269000
10.218700 1.119900
10.239600 0.871600
10.260500 0.616000
10.281400 0.471200
10.302300 0.444700
10.323200 0.459700
10.344100 0.468600
10.365000 0.472700
10.386000 0.464800
10.406900 0.442600
10.427800 0.471300
10.448700 0.622200
10.469600 0.832200
10.490500 0.940700
10.511400 0.899400
10.532300 0.828900
10.553200 0.847200
10.574100 0.954400
10.595100 1.088100
10.616000 1.191700
10.636900 1.214700
10.657800 1.135600
10.678700 1.023900
10.699600 0.987500
10.720500 1.038300
10.741400 1.120300
10.762300 1.215700
10.783200 1.302700
10.804200 1.304000
10.825100 1.180700
10.846000 1.006200
10.866900 0.902900
10.887800 0.936700
10.908700 1.067200
10.929600 1.194900
10.950500 1.246600
10.971400 1.205700
10.992300 1.108000
11.013300 1.015600
11.034200 0.941800
11.055100 0.838600
11.076000 0.691900
11.096900 0.557100
11.117800 0.470700
11.138700 0.407600
11.159600 0.342400
11.180500 0.315600
11.201400 0.412300
11.222300 0.655000
11.243300 0.931300
11.264200 1.084800
11.285100 1.082600
11.306000 1.029600
11.326900 1.020800
11.347800 1.061900
11.368700 1.126100
11.389600 1.190400
11.410500 1.201100
11.431400 1.097500
11.452400 0.908500
11.473300 0.743400
11.494200 0.653700
11.515100 0.587900
11.536000 0.503000
11.556900 0.436800
11.577800 0.439900
11.598700 0.498000
11.619600 0.566400
11.640500 0.653100
11.661500 0.809400
11.682400 1.027400
11.703300 1.193600
11.724200 1.193900
11.745100 1.054100
11.766000 0.923400
11.786900 0.913700
11.807800 1.011500
11.828700 1.150100
