set title 'mp-1184658 - Density of States'
set xlabel 'Energy (eV)'
set ylabel 'DOS (states/eV)'
set grid
set xrange [-10:10]
set yrange [0:26.558]
set xzeroaxis lt -1
set terminal png size 800,600
set output 'mp-1184658_dos_gnuplot.png'
plot '-' using 1:2 with lines title 'DOS'
-5.110300 0.000000
-5.093800 0.000000
-5.077300 0.000000
-5.060800 0.000000
-5.044300 0.000000
-5.027800 0.000000
-5.011400 0.000000
-4.994900 0.000000
-4.978400 0.000000
-4.961900 0.000000
-4.945400 0.000000
-4.928900 0.000000
-4.912400 0.000000
-4.895900 0.000000
-4.879400 0.000000
-4.863000 0.000000
-4.846500 0.000000
-4.830000 0.000000
-4.813500 0.000000
-4.797000 0.000000
-4.780500 0.000000
-4.764000 0.000000
-4.747500 0.000000
-4.731000 0.000000
-4.714600 0.000000
-4.698100 0.000000
-4.681600 0.000000
-4.665100 0.000000
-4.648600 0.000000
-4.632100 0.000000
-4.615600 0.000000
-4.599100 0.000000
-4.582600 0.000000
-4.566100 0.000000
-4.549700 0.000000
-4.533200 0.000000
-4.516700 0.000000
-4.500200 0.000000
-4.483700 0.000000
-4.467200 0.000000
-4.450700 0.000000
-4.434200 0.000000
-4.417700 0.000000
-4.401300 0.000000
-4.384800 0.000000
-4.368300 0.000000
-4.351800 0.000000
-4.335300 0.000000
-4.318800 0.000000
-4.302300 0.000000
-4.285800 0.000000
-4.269300 0.000000
-4.252900 0.000000
-4.236400 0.000000
-4.219900 0.000000
-4.203400 0.000000
-4.186900 0.000000
-4.170400 0.000000
-4.153900 0.000000
-4.137400 0.000000
-4.120900 0.000000
-4.104500 0.000000
-4.088000 0.000000
-4.071500 0.000000
-4.055000 0.000000
-4.038500 0.000000
-4.022000 0.000000
-4.005500 0.000000
-3.989000 0.000000
-3.972500 0.000000
-3.956100 0.000000
-3.939600 0.000000
-3.923100 0.000000
-3.906600 0.000000
-3.890100 0.000000
-3.873600 0.000000
-3.857100 0.000000
-3.840600 0.000000
-3.824100 0.000000
-3.807600 0.000000
-3.791200 0.000000
-3.774700 0.000000
-3.758200 0.000000
-3.741700 0.000000
-3.725200 0.000100
-3.708700 0.000300
-3.692200 0.001100
-3.675700 0.003300
-3.659200 0.007800
-3.642800 0.015300
-3.626300 0.025200
-3.609800 0.036500
-3.593300 0.048600
-3.576800 0.062400
-3.560300 0.080000
-3.543800 0.104600
-3.527300 0.139200
-3.510800 0.180800
-3.494400 0.216600
-3.477900 0.228100
-3.461400 0.205900
-3.444900 0.160500
-3.428400 0.117500
-3.411900 0.103900
-3.395400 0.135600
-3.378900 0.211600
-3.362400 0.315500
-3.346000 0.423800
-3.329500 0.519900
-3.313000 0.603800
-3.296500 0.688000
-3.280000 0.785100
-3.263500 0.897800
-3.247000 1.017300
-3.230500 1.132300
-3.214000 1.244600
-3.197600 1.376900
-3.181100 1.566600
-3.164600 1.860700
-3.148100 2.319900
-3.131600 3.018400
-3.115100 4.017200
-3.098600 5.325700
-3.082100 6.906100
-3.065600 8.740100
-3.049100 10.873800
-3.032700 13.338900
-3.016200 16.007200
-2.999700 18.577400
-2.983200 20.751000
-2.966700 22.391200
-2.950200 23.492000
-2.933700 24.066800
-2.917200 24.143700
-2.900700 23.841900
-2.884300 23.369900
-2.867800 22.911700
-2.851300 22.548500
-2.834800 22.309500
-2.818300 22.240100
-2.801800 22.333000
-2.785300 22.401100
-2.768800 22.112300
-2.752300 21.224500
-2.735900 19.783500
-2.719400 18.070900
-2.702900 16.380800
-2.686400 14.882300
-2.669900 13.656900
-2.653400 12.741900
-2.636900 12.063700
-2.620400 11.395200
-2.603900 10.482400
-2.587500 9.239100
-2.571000 7.805000
-2.554500 6.420700
-2.538000 5.268600
-2.521500 4.412100
-2.505000 3.821300
-2.488500 3.415100
-2.472000 3.102900
-2.455500 2.819100
-2.439100 2.523900
-2.422600 2.184300
-2.406100 1.790200
-2.389600 1.391000
-2.373100 1.082100
-2.356600 0.933900
-2.340100 0.932700
-2.323600 0.991300
-2.307100 1.021400
-2.290600 1.001700
-2.274200 0.977600
-2.257700 0.995700
-2.241200 1.048500
-2.224700 1.089300
-2.208200 1.089300
-2.191700 1.062800
-2.175200 1.037800
-2.158700 1.020400
-2.142200 0.999200
-2.125800 0.969300
-2.109300 0.936600
-2.092800 0.903900
-2.076300 0.876400
-2.059800 0.880800
-2.043300 0.954200
-2.026800 1.097300
-2.010300 1.248900
-1.993800 1.323500
-1.977400 1.279100
-1.960900 1.149400
-1.944400 1.026600
-1.927900 1.032100
-1.911400 1.284200
-1.894900 1.839100
-1.878400 2.613400
-1.861900 3.380800
-1.845400 3.893600
-1.829000 4.040400
-1.812500 3.885900
-1.796000 3.573100
-1.779500 3.218400
-1.763000 2.893700
-1.746500 2.655200
-1.730000 2.537100
-1.713500 2.514300
-1.697000 2.501600
-1.680600 2.415300
-1.664100 2.246800
-1.647600 2.078600
-1.631100 2.017800
-1.614600 2.094100
-1.598100 2.211600
-1.581600 2.221100
-1.565100 2.060100
-1.548600 1.814600
-1.532100 1.627600
-1.515700 1.562400
-1.499200 1.565300
-1.482700 1.538300
-1.466200 1.422000
-1.449700 1.215100
-1.433200 0.950500
-1.416700 0.671400
-1.400200 0.420500
-1.383700 0.229100
-1.367300 0.106800
-1.350800 0.042000
-1.334300 0.013800
-1.317800 0.003800
-1.301300 0.000900
-1.284800 0.000200
-1.268300 0.000000
-1.251800 0.000000
-1.235300 0.000000
-1.218900 0.000000
-1.202400 0.000000
-1.185900 0.000000
-1.169400 0.000000
-1.152900 0.000000
-1.136400 0.000000
-1.119900 0.000000
-1.103400 0.000000
-1.086900 0.000000
-1.070500 0.000000
-1.054000 0.000000
-1.037500 0.000000
-1.021000 0.000000
-1.004500 0.000000
-0.988000 0.000000
-0.971500 0.000000
-0.955000 0.000000
-0.938500 0.000000
-0.922100 0.000000
-0.905600 0.000100
-0.889100 0.000600
-0.872600 0.001900
-0.856100 0.004900
-0.839600 0.010600
-0.823100 0.019600
-0.806600 0.032700
-0.790100 0.053500
-0.773600 0.090600
-0.757200 0.151700
-0.740700 0.232200
-0.724200 0.307600
-0.707700 0.345400
-0.691200 0.330500
-0.674700 0.282300
-0.658200 0.243000
-0.641700 0.247800
-0.625200 0.302200
-0.608800 0.387100
-0.592300 0.485100
-0.575800 0.595400
-0.559300 0.715100
-0.542800 0.812500
-0.526300 0.838400
-0.509800 0.776200
-0.493300 0.676000
-0.476800 0.629500
-0.460400 0.706600
-0.443900 0.909000
-0.427400 1.179900
-0.410900 1.454300
-0.394400 1.703100
-0.377900 1.930400
-0.361400 2.135000
-0.344900 2.288600
-0.328400 2.360900
-0.312000 2.362600
-0.295500 2.347100
-0.279000 2.362800
-0.262500 2.407400
-0.246000 2.433700
-0.229500 2.404100
-0.213000 2.344000
-0.196500 2.343600
-0.180000 2.494700
-0.163600 2.814900
-0.147100 3.227100
-0.130600 3.611200
-0.114100 3.880600
-0.097600 4.021600
-0.081100 4.072800
-0.064600 4.072700
-0.048100 4.030500
-0.031600 3.932300
-0.015100 3.759100
0.001300 3.505700
0.017800 3.207100
0.034300 2.950300
0.050800 2.844200
0.067300 2.971400
0.083800 3.361200
0.100300 3.983000
0.116800 4.748400
0.133300 5.541200
0.149700 6.281500
0.166200 6.971400
0.182700 7.661300
0.199200 8.357700
0.215700 8.976500
0.232200 9.403000
0.248700 9.588800
0.265200 9.579500
0.281700 9.466600
0.298100 9.342700
0.314600 9.314600
0.331100 9.519500
0.347600 10.063200
0.364100 10.894900
0.380600 11.771400
0.397100 12.424400
0.413600 12.788500
0.430100 13.019900
0.446500 13.277300
0.463000 13.540300
0.479500 13.664300
0.496000 13.576200
0.512500 13.381900
0.529000 13.270500
0.545500 13.313100
0.562000 13.381400
0.578500 13.261100
0.594900 12.804000
0.611400 11.984400
0.627900 10.909200
0.644400 9.832700
0.660900 9.089400
0.677400 8.901100
0.693900 9.201700
0.710400 9.667300
0.726900 9.955000
0.743400 9.927500
0.759800 9.659500
0.776300 9.279400
0.792800 8.857600
0.809300 8.426600
0.825800 8.042000
0.842300 7.793800
0.858800 7.754900
0.875300 7.914200
0.891800 8.156200
0.908200 8.324600
0.924700 8.316400
0.941200 8.123800
0.957700 7.823700
0.974200 7.565600
0.990700 7.534700
1.007200 7.832400
1.023700 8.350800
1.040200 8.801900
1.056600 8.931400
1.073100 8.730900
1.089600 8.430400
1.106100 8.277800
1.122600 8.341000
1.139100 8.512500
1.155600 8.647300
1.172100 8.666600
1.188600 8.574800
1.205000 8.441500
1.221500 8.372600
1.238000 8.467700
1.254500 8.777000
1.271000 9.270800
1.287500 9.827400
1.304000 10.264600
1.320500 10.428200
1.337000 10.283400
1.353400 9.924700
1.369900 9.490000
1.386400 9.057800
1.402900 8.630900
1.419400 8.209200
1.435900 7.839000
1.452400 7.570000
1.468900 7.396400
1.485400 7.284500
1.501900 7.233900
1.518300 7.266800
1.534800 7.366800
1.551300 7.471800
1.567800 7.533500
1.584300 7.567000
1.600800 7.630000
1.617300 7.745300
1.633800 7.839300
1.650300 7.778600
1.666700 7.489700
1.683200 7.037400
1.699700 6.580400
1.716200 6.252900
1.732700 6.074900
1.749200 5.955800
1.765700 5.791400
1.782200 5.580800
1.798700 5.455300
1.815100 5.577600
1.831600 5.984700
1.848100 6.513900
1.864600 6.898600
1.881100 6.960900
1.897600 6.731200
1.914100 6.392000
1.930600 6.117500
1.947100 5.965900
1.963500 5.900200
1.980000 5.881700
1.996500 5.927000
2.013000 6.077500
2.029500 6.342900
2.046000 6.707200
2.062500 7.183500
2.079000 7.811300
2.095500 8.582600
2.111900 9.412600
2.128400 10.207200
2.144900 10.923400
2.161400 11.542700
2.177900 12.028800
2.194400 12.352300
2.210900 12.544400
2.227400 12.689800
2.243900 12.854800
2.260400 13.036200
2.276800 13.175500
2.293300 13.191300
2.309800 12.997400
2.326300 12.545700
2.342800 11.898200
2.359300 11.233500
2.375800 10.736900
2.392300 10.469100
2.408800 10.347200
2.425200 10.245600
2.441700 10.102800
2.458200 9.945600
2.474700 9.837200
2.491200 9.807100
2.507700 9.823800
2.524200 9.832800
2.540700 9.808100
2.557200 9.750400
2.573600 9.644600
2.590100 9.457400
2.606600 9.194000
2.623100 8.932700
2.639600 8.763600
2.656100 8.689500
2.672600 8.617800
2.689100 8.471300
2.705600 8.283100
2.722000 8.161400
2.738500 8.173400
2.755000 8.271700
2.771500 8.314100
2.788000 8.141100
2.804500 7.664200
2.821000 6.914100
2.837500 6.016100
2.854000 5.123100
2.870400 4.376600
2.886900 3.914800
2.903400 3.863300
2.919900 4.270100
2.936400 5.041000
2.952900 5.949800
2.969400 6.723500
2.985900 7.146700
3.002400 7.145000
3.018900 6.822700
3.035300 6.421600
3.051800 6.205700
3.068300 6.332600
3.084800 6.785100
3.101300 7.403400
3.117800 8.004700
3.134300 8.494300
3.150800 8.865700
3.167300 9.114500
3.183700 9.191100
3.200200 9.035300
3.216700 8.618700
3.233200 7.951600
3.249700 7.091000
3.266200 6.158600
3.282700 5.307300
3.299200 4.621400
3.315700 4.049800
3.332100 3.467300
3.348600 2.812600
3.365100 2.160000
3.381600 1.659300
3.398100 1.415200
3.414600 1.418200
3.431100 1.568100
3.447600 1.751400
3.464100 1.896900
3.480500 1.970100
3.497000 1.940100
3.513500 1.779400
3.530000 1.497100
3.546500 1.157300
3.563000 0.860600
3.579500 0.698400
3.596000 0.706300
3.612500 0.841400
3.628900 1.008900
3.645400 1.125700
3.661900 1.171600
3.678400 1.187600
3.694900 1.226500
3.711400 1.301100
3.727900 1.369500
3.744400 1.371100
3.760900 1.282500
3.777400 1.141200
3.793800 1.019800
3.810300 0.977000
3.826800 1.026800
3.843300 1.134900
3.859800 1.237800
3.876300 1.277900
3.892800 1.240900
3.909300 1.167400
3.925800 1.128900
3.942200 1.176100
3.958700 1.292100
3.975200 1.389700
3.991700 1.372600
4.008200 1.218500
4.024700 0.998700
4.041200 0.813200
4.057700 0.717800
4.074200 0.710100
4.090600 0.761600
4.107100 0.846400
4.123600 0.946800
4.140100 1.048600
4.156600 1.138800
4.173100 1.211400
4.189600 1.271300
4.206100 1.329600
4.222600 1.389100
4.239000 1.429600
4.255500 1.417100
4.272000 1.337200
4.288500 1.222100
4.305000 1.133800
4.321500 1.116100
4.338000 1.162000
4.354500 1.219800
4.371000 1.230600
4.387400 1.176300
4.403900 1.102200
4.420400 1.079500
4.436900 1.133100
4.453400 1.209000
4.469900 1.224200
4.486400 1.144100
4.502900 1.010100
4.519400 0.895000
4.535900 0.843600
4.552300 0.850300
4.568800 0.876000
4.585300 0.878500
4.601800 0.836700
4.618300 0.763800
4.634800 0.698100
4.651300 0.672400
4.667800 0.688600
4.684300 0.726900
4.700700 0.774600
4.717200 0.838500
4.733700 0.930100
4.750200 1.049100
4.766700 1.186300
4.783200 1.335000
4.799700 1.483300
4.816200 1.589900
4.832700 1.591800
4.849100 1.452300
4.865600 1.199200
4.882100 0.909300
4.898600 0.664600
4.915100 0.517900
4.931600 0.478700
4.948100 0.517100
4.964600 0.584900
4.981100 0.642400
4.997500 0.676500
5.014000 0.704100
5.030500 0.762200
5.047000 0.887100
5.063500 1.083200
5.080000 1.301000
5.096500 1.452200
5.113000 1.464900
5.129500 1.339600
5.145900 1.151300
5.162400 0.997300
5.178900 0.941800
5.195400 0.994700
5.211900 1.113700
5.228400 1.220400
5.244900 1.242700
5.261400 1.166300
5.277900 1.048700
5.294400 0.972400
5.310800 0.981100
5.327300 1.048300
5.343800 1.099900
5.360300 1.071100
5.376800 0.954400
5.393300 0.801200
5.409800 0.678100
5.426300 0.626900
5.442800 0.654400
5.459200 0.741300
5.475700 0.855100
5.492200 0.971900
5.508700 1.098600
5.525200 1.263000
5.541700 1.466600
5.558200 1.649800
5.574700 1.721700
5.591200 1.634800
5.607600 1.429900
5.624100 1.204000
5.640600 1.033600
5.657100 0.931400
5.673600 0.868100
5.690100 0.823600
5.706600 0.808200
5.723100 0.840900
5.739600 0.916000
5.756000 0.996100
5.772500 1.037700
5.789000 1.024300
5.805500 0.975800
5.822000 0.929400
5.838500 0.916600
5.855000 0.950300
5.871500 1.016800
5.888000 1.076000
5.904400 1.085600
5.920900 1.033900
5.937400 0.947000
5.953900 0.864200
5.970400 0.817800
5.986900 0.830200
6.003400 0.908300
6.019900 1.027600
6.036400 1.135500
6.052900 1.190400
6.069300 1.200100
6.085800 1.215600
6.102300 1.277700
6.118800 1.369000
6.135300 1.422100
6.151800 1.378400
6.168300 1.235200
6.184800 1.045700
6.201300 0.886800
6.217700 0.825100
6.234200 0.890900
6.250700 1.063000
6.267200 1.279000
6.283700 1.470600
6.300200 1.596300
6.316700 1.645000
6.333200 1.621500
6.349700 1.533600
6.366100 1.395300
6.382600 1.238300
6.399100 1.106400
6.415600 1.028100
6.432100 0.991000
6.448600 0.954800
6.465100 0.896700
6.481600 0.836100
6.498100 0.811600
6.514500 0.843400
6.531000 0.923100
6.547500 1.031600
6.564000 1.150100
6.580500 1.250800
6.597000 1.291200
6.613500 1.236100
6.630000 1.091000
6.646500 0.910900
6.662900 0.769900
6.679400 0.719700
6.695900 0.768000
6.712400 0.882600
6.728900 1.007500
6.745400 1.088500
6.761900 1.104200
6.778400 1.079900
6.794900 1.058900
6.811400 1.058300
6.827800 1.059700
6.844300 1.038200
6.860800 0.987800
6.877300 0.920800
6.893800 0.857100
6.910300 0.815000
6.926800 0.801600
6.943300 0.807800
6.959800 0.812400
6.976200 0.795300
6.992700 0.753600
7.009200 0.708800
7.025700 0.695000
7.042200 0.736200
7.058700 0.834900
7.075200 0.980200
7.091700 1.154300
7.108200 1.327900
7.124600 1.463400
7.141100 1.536700
7.157600 1.551700
7.174100 1.525300
7.190600 1.469000
7.207100 1.390200
7.223600 1.294100
7.240100 1.175700
7.256600 1.027800
7.273000 0.873100
7.289500 0.769200
7.306000 0.755900
7.322500 0.804800
7.339000 0.847900
7.355500 0.857400
7.372000 0.880500
7.388500 0.986500
7.405000 1.191000
7.421400 1.435400
7.437900 1.620400
7.454400 1.659100
7.470900 1.522300
7.487400 1.259500
7.503900 0.968400
7.520400 0.732600
7.536900 0.584200
7.553400 0.519200
7.569900 0.527000
7.586300 0.597500
7.602800 0.717800
7.619300 0.879200
7.635800 1.074100
7.652300 1.272900
7.668800 1.412700
7.685300 1.435400
7.701800 1.343000
7.718300 1.204700
7.734700 1.103200
7.751200 1.074700
7.767700 1.093900
7.784200 1.107200
7.800700 1.077900
7.817200 1.008000
7.833700 0.925700
7.850200 0.854600
7.866700 0.791600
7.883100 0.711600
7.899600 0.595100
7.916100 0.453800
7.932600 0.325000
7.949100 0.243800
7.965600 0.221700
7.982100 0.248400
7.998600 0.304600
8.015100 0.369800
8.031500 0.434500
8.048000 0.513800
8.064500 0.639900
8.081000 0.822700
8.097500 1.021400
8.114000 1.168200
8.130500 1.220000
8.147000 1.180500
8.163500 1.081500
8.179900 0.962400
8.196400 0.864100
8.212900 0.822700
8.229400 0.853800
8.245900 0.940700
8.262400 1.038700
8.278900 1.095200
8.295400 1.080700
8.311900 1.012100
8.328300 0.944000
8.344800 0.924700
8.361300 0.957300
8.377800 1.000600
8.394300 1.004700
8.410800 0.947400
8.427300 0.849900
8.443800 0.764400
8.460300 0.736700
8.476800 0.770900
8.493200 0.827300
8.509700 0.858300
8.526200 0.849000
8.542700 0.826700
8.559200 0.831000
8.575700 0.871400
8.592200 0.916700
8.608700 0.926700
8.625200 0.898000
8.641600 0.874200
8.658100 0.911700
8.674600 1.033100
8.691100 1.210300
8.707600 1.377700
8.724100 1.453800
8.740600 1.376600
8.757100 1.149400
8.773600 0.858000
8.790000 0.624900
8.806500 0.536200
8.823000 0.598400
8.839500 0.749800
8.856000 0.906600
8.872500 1.012100
8.889000 1.053700
8.905500 1.040500
8.922000 0.974600
8.938400 0.853800
8.954900 0.697200
8.971400 0.550500
8.987900 0.461900
9.004400 0.458700
9.020900 0.552300
9.037400 0.750600
9.053900 1.044600
9.070400 1.379400
9.086800 1.657300
9.103300 1.788100
9.119800 1.749000
9.136300 1.600000
9.152800 1.441900
9.169300 1.357800
9.185800 1.383400
9.202300 1.509900
9.218800 1.697400
9.235300 1.893300
9.251700 2.052500
9.268200 2.150000
9.284700 2.177000
9.301200 2.129900
9.317700 2.000800
9.334200 1.782300
9.350700 1.490600
9.367200 1.185600
9.383700 0.952700
9.400100 0.853100
9.416600 0.886800
9.433100 0.996800
9.449600 1.100300
9.466100 1.123800
9.482600 1.034100
9.499100 0.856300
9.515600 0.661600
9.532100 0.521800
9.548500 0.463500
9.565000 0.460800
9.581500 0.468500
9.598000 0.461700
9.614500 0.449300
9.631000 0.457300
9.647500 0.497300
9.664000 0.550400
9.680500 0.582000
9.696900 0.581800
9.713400 0.588600
9.729900 0.667000
9.746400 0.846200
9.762900 1.078200
9.779400 1.261800
9.795900 1.316400
9.812400 1.234100
9.828900 1.069600
9.845300 0.893100
9.861800 0.753000
9.878300 0.667100
9.894800 0.632300
9.911300 0.633000
9.927800 0.645100
9.944300 0.644200
9.960800 0.622700
9.977300 0.601500
9.993800 0.621600
10.010200 0.710700
10.026700 0.853200
10.043200 0.995500
10.059700 1.084200
10.076200 1.100000
10.092700 1.058400
10.109200 0.986800
10.125700 0.909500
10.142200 0.852500
10.158600 0.844000
10.175100 0.892400
10.191600 0.970100
10.208100 1.036100
10.224600 1.074800
10.241100 1.099500
10.257600 1.116500
10.274100 1.102300
10.290600 1.025400
10.307000 0.884800
10.323500 0.717900
10.340000 0.576800
10.356500 0.501400
10.373000 0.505700
10.389500 0.574000
10.406000 0.669300
10.422500 0.754000
10.439000 0.811800
10.455400 0.850900
10.471900 0.886700
10.488400 0.920900
10.504900 0.937400
10.521400 0.918300
10.537900 0.866900
10.554400 0.813300
10.570900 0.796200
10.587400 0.835500
10.603800 0.923700
10.620300 1.037600
10.636800 1.151200
10.653300 1.242700
10.669800 1.306800
10.686300 1.369700
10.702800 1.476100
10.719300 1.647000
10.735800 1.847500
10.752300 2.001300
10.768700 2.040800
10.785200 1.947400
10.801700 1.756700
10.818200 1.530500
10.834700 1.320900
10.851200 1.151700
10.867700 1.021600
10.884200 0.923100
10.900700 0.856000
10.917100 0.826800
10.933600 0.840700
10.950100 0.895700
10.966600 0.985600
10.983100 1.106500
10.999600 1.257400
11.016100 1.421100
11.032600 1.549100
11.049100 1.584100
11.065500 1.506200
11.082000 1.347100
11.098500 1.161300
11.115000 0.995800
11.131500 0.883300
11.148000 0.841900
11.164500 0.865100
11.181000 0.917500
11.197500 0.955600
11.213900 0.962000
11.230400 0.959900
11.246900 0.988000
11.263400 1.057500
11.279900 1.140400
11.296400 1.202300
11.312900 1.238600
11.329400 1.269400
11.345900 1.305100
11.362300 1.331500
11.378800 1.325900
11.395300 1.279300
11.411800 1.207200
11.428300 1.147000
11.444800 1.138100
11.461300 1.188000
11.477800 1.254500
11.494300 1.272300
11.510800 1.211800
11.527200 1.113800
11.543700 1.060400
11.560200 1.103800
11.576700 1.217200
11.593200 1.315300
11.609700 1.319300
11.626200 1.211700
11.642700 1.045400
11.659200 0.908600
11.675600 0.873500
11.692100 0.949600
11.708600 1.071900
11.725100 1.140100
11.741600 1.093500
11.758100 0.959800
11.774600 0.836200
11.791100 0.823300
11.807600 0.964300
11.824000 1.225800
11.840500 1.522100
11.857000 1.765700
11.873500 1.908400
11.890000 1.949400
11.906500 1.912200
11.923000 1.816100
11.939500 1.670200
11.956000 1.489100
11.972400 1.306600
11.988900 1.163700
12.005400 1.085300
12.021900 1.076500
12.038400 1.137100
12.054900 1.256400
12.071400 1.386600
12.087900 1.450400
12.104400 1.402900
12.120800 1.284200
12.137300 1.191500
12.153800 1.194600
12.170300 1.284700
12.186800 1.400700
12.203300 1.492100
12.219800 1.553600
12.236300 1.603800
12.252800 1.642900
12.269300 1.639800
12.285700 1.561300
12.302200 1.406800
12.318700 1.213500
12.335200 1.031800
12.351700 0.898600
12.368200 0.830700
12.384700 0.830900
12.401200 0.890400
12.417700 0.986500
12.434100 1.092000
12.450600 1.184500
