set title 'mp-14285 - Density of States'
set xlabel 'Energy (eV)'
set ylabel 'DOS (states/eV)'
set grid
set xrange [-10:10]
set yrange [0:32.285]
set xzeroaxis lt -1
set terminal png size 800,600
set output 'mp-14285_dos_gnuplot.png'
plot '-' using 1:2 with lines title 'DOS'
-7.816400 0.000000
-7.803000 0.000000
-7.789600 0.000000
-7.776100 0.000000
-7.762700 0.000000
-7.749300 0.000000
-7.735800 0.000000
-7.722400 0.000000
-7.709000 0.000000
-7.695500 0.000000
-7.682100 0.000000
-7.668700 0.000000
-7.655200 0.000000
-7.641800 0.000000
-7.628400 0.000000
-7.614900 0.000000
-7.601500 0.000000
-7.588100 0.000000
-7.574600 0.000000
-7.561200 0.000000
-7.547800 0.000000
-7.534300 0.000000
-7.520900 0.000000
-7.507500 0.000000
-7.494000 0.000000
-7.480600 0.000000
-7.467200 0.000000
-7.453700 0.000000
-7.440300 0.000000
-7.426900 0.000000
-7.413500 0.000000
-7.400000 0.000000
-7.386600 0.000000
-7.373200 0.000000
-7.359700 0.000000
-7.346300 0.000000
-7.332900 0.000000
-7.319400 0.000000
-7.306000 0.000000
-7.292600 0.000000
-7.279100 0.000000
-7.265700 0.000000
-7.252300 0.000000
-7.238800 0.000000
-7.225400 0.000000
-7.212000 0.000000
-7.198500 0.000000
-7.185100 0.000000
-7.171700 0.000000
-7.158200 0.000000
-7.144800 0.000000
-7.131400 0.000000
-7.117900 0.000000
-7.104500 0.000000
-7.091100 0.000000
-7.077600 0.000000
-7.064200 0.000000
-7.050800 0.000000
-7.037300 0.000000
-7.023900 0.000000
-7.010500 0.000000
-6.997100 0.000000
-6.983600 0.000000
-6.970200 0.000000
-6.956800 0.000000
-6.943300 0.000000
-6.929900 0.000000
-6.916500 0.000000
-6.903000 0.000000
-6.889600 0.000000
-6.876200 0.000000
-6.862700 0.000000
-6.849300 0.000000
-6.835900 0.000000
-6.822400 0.000000
-6.809000 0.000000
-6.795600 0.000000
-6.782100 0.000000
-6.768700 0.000000
-6.755300 0.000000
-6.741800 0.000000
-6.728400 0.000000
-6.715000 0.000000
-6.701500 0.000000
-6.688100 0.000000
-6.674700 0.000000
-6.661200 0.000000
-6.647800 0.000000
-6.634400 0.000000
-6.621000 0.000000
-6.607500 0.000000
-6.594100 0.000200
-6.580700 0.027500
-6.567200 0.101100
-6.553800 0.218000
-6.540400 0.283600
-6.526900 0.306000
-6.513500 0.310500
-6.500100 0.345400
-6.486600 0.383600
-6.473200 0.423000
-6.459800 0.462100
-6.446300 0.498500
-6.432900 0.522000
-6.419500 0.533100
-6.406000 0.541700
-6.392600 0.559500
-6.379200 0.579800
-6.365700 0.600900
-6.352300 0.622700
-6.338900 0.644500
-6.325400 0.666400
-6.312000 0.687100
-6.298600 0.707300
-6.285100 0.728700
-6.271700 0.750900
-6.258300 0.768200
-6.244800 0.780000
-6.231400 0.790100
-6.218000 0.803600
-6.204600 0.817700
-6.191100 0.832200
-6.177700 0.846900
-6.164300 0.861800
-6.150800 0.876500
-6.137400 0.891400
-6.124000 0.907300
-6.110500 0.923600
-6.097100 0.939600
-6.083700 0.955500
-6.070200 0.971500
-6.056800 0.988100
-6.043400 1.005000
-6.029900 1.021000
-6.016500 1.034200
-6.003100 1.044600
-5.989600 1.054800
-5.976200 1.066500
-5.962800 1.078200
-5.949300 1.090100
-5.935900 1.102400
-5.922500 1.114900
-5.909000 1.127800
-5.895600 1.140800
-5.882200 1.154300
-5.868700 1.168100
-5.855300 1.181700
-5.841900 1.194800
-5.828500 1.207900
-5.815000 1.221400
-5.801600 1.235000
-5.788200 1.248600
-5.774700 1.262300
-5.761300 1.276100
-5.747900 1.290000
-5.734400 1.304000
-5.721000 1.382400
-5.707600 1.456600
-5.694100 1.497800
-5.680700 1.435500
-5.667300 1.445700
-5.653800 1.456100
-5.640400 1.466400
-5.627000 1.476300
-5.613500 1.484100
-5.600100 1.488700
-5.586700 1.494300
-5.573200 1.503700
-5.559800 1.527900
-5.546400 1.544500
-5.532900 1.554700
-5.519500 1.558600
-5.506100 1.563500
-5.492600 1.570500
-5.479200 1.578600
-5.465800 1.583200
-5.452300 1.589500
-5.438900 1.593700
-5.425500 1.593500
-5.412100 1.596100
-5.398600 1.597500
-5.385200 1.571900
-5.371800 1.566000
-5.358300 1.631000
-5.344900 1.706700
-5.331500 1.661400
-5.318000 1.660200
-5.304600 1.664000
-5.291200 1.670200
-5.277700 1.685900
-5.264300 1.714100
-5.250900 1.733900
-5.237400 1.735300
-5.224000 1.735500
-5.210600 1.747200
-5.197100 1.767300
-5.183700 1.786900
-5.170300 1.792200
-5.156800 1.794500
-5.143400 1.806900
-5.130000 1.820400
-5.116500 1.818000
-5.103100 1.816400
-5.089700 1.819300
-5.076200 1.831800
-5.062800 1.848200
-5.049400 1.867800
-5.036000 1.889000
-5.022500 1.912300
-5.009100 1.936100
-4.995700 1.962200
-4.982200 1.991900
-4.968800 2.030700
-4.955400 2.081300
-4.941900 2.139700
-4.928500 2.191600
-4.915100 2.225300
-4.901600 2.256300
-4.888200 2.280600
-4.874800 2.310300
-4.861300 2.349800
-4.847900 2.389400
-4.834500 2.447600
-4.821000 2.485400
-4.807600 2.518700
-4.794200 2.522400
-4.780700 2.535100
-4.767300 2.545600
-4.753900 2.585300
-4.740400 2.607200
-4.727000 2.646200
-4.713600 2.701600
-4.700100 2.759400
-4.686700 2.819100
-4.673300 3.080800
-4.659800 3.271100
-4.646400 3.401600
-4.633000 2.940500
-4.619600 2.963400
-4.606100 2.989200
-4.592700 3.031500
-4.579300 3.089100
-4.565800 3.175300
-4.552400 3.205500
-4.539000 3.207700
-4.525500 3.124300
-4.512100 3.091300
-4.498700 2.970500
-4.485200 2.867200
-4.471800 2.692600
-4.458400 2.610000
-4.444900 2.535000
-4.431500 2.423100
-4.418100 2.306600
-4.404600 2.196200
-4.391200 2.100600
-4.377800 2.039000
-4.364300 2.884600
-4.350900 1.972600
-4.337500 1.982300
-4.324000 2.006800
-4.310600 2.048300
-4.297200 2.102800
-4.283700 2.147800
-4.270300 2.174400
-4.256900 2.147800
-4.243500 2.157600
-4.230000 2.242500
-4.216600 2.279000
-4.203200 2.311600
-4.189700 2.354000
-4.176300 2.512000
-4.162900 2.676800
-4.149400 2.638100
-4.136000 2.609600
-4.122600 2.644400
-4.109100 2.696800
-4.095700 2.766100
-4.082300 2.788800
-4.068800 2.826900
-4.055400 2.869000
-4.042000 2.985600
-4.028500 3.114100
-4.015100 2.993500
-4.001700 2.957600
-3.988200 2.949400
-3.974800 2.927300
-3.961400 2.881200
-3.947900 2.853100
-3.934500 2.853100
-3.921100 2.882900
-3.907600 2.884900
-3.894200 2.880700
-3.880800 2.878400
-3.867300 2.871700
-3.853900 2.872400
-3.840500 2.885200
-3.827100 2.908200
-3.813600 2.934000
-3.800200 2.961300
-3.786800 2.995700
-3.773300 3.036600
-3.759900 3.075100
-3.746500 3.071400
-3.733000 3.092000
-3.719600 3.136500
-3.706200 3.183300
-3.692700 3.164700
-3.679300 3.162300
-3.665900 3.157900
-3.652400 3.126300
-3.639000 3.099000
-3.625600 3.073600
-3.612100 3.056500
-3.598700 3.036300
-3.585300 2.976100
-3.571800 2.918800
-3.558400 2.874500
-3.545000 2.842000
-3.531500 2.849200
-3.518100 2.902100
-3.504700 2.979300
-3.491200 3.007900
-3.477800 3.042500
-3.464400 3.075900
-3.451000 3.116100
-3.437500 3.165500
-3.424100 3.215800
-3.410700 3.203600
-3.397200 3.328400
-3.383800 3.498200
-3.370400 3.579700
-3.356900 3.657800
-3.343500 3.738400
-3.330100 3.815300
-3.316600 3.883200
-3.303200 3.950300
-3.289800 4.064900
-3.276300 4.189400
-3.262900 4.355300
-3.249500 4.461800
-3.236000 4.524000
-3.222600 4.731200
-3.209200 4.891100
-3.195700 5.175300
-3.182300 5.238800
-3.168900 5.137500
-3.155400 5.148000
-3.142000 5.113500
-3.128600 5.081200
-3.115100 4.848600
-3.101700 4.355900
-3.088300 4.221200
-3.074800 4.029700
-3.061400 3.246800
-3.048000 2.757400
-3.034600 2.373600
-3.021100 2.063500
-3.007700 2.065100
-2.994300 1.897700
-2.980800 1.785500
-2.967400 1.717900
-2.954000 1.734300
-2.940500 1.593900
-2.927100 1.480500
-2.913700 1.411700
-2.900200 1.364000
-2.886800 1.336300
-2.873400 1.276800
-2.859900 1.141800
-2.846500 1.049000
-2.833100 0.948400
-2.819600 0.826200
-2.806200 0.839300
-2.792800 0.854300
-2.779300 0.871400
-2.765900 0.885600
-2.752500 0.877900
-2.739000 0.895700
-2.725600 0.912100
-2.712200 0.928200
-2.698700 0.945600
-2.685300 0.962500
-2.671900 0.979900
-2.658500 0.996100
-2.645000 1.017200
-2.631600 1.043100
-2.618200 1.070400
-2.604700 1.103300
-2.591300 1.125600
-2.577900 1.145400
-2.564400 1.163300
-2.551000 1.183000
-2.537600 1.202500
-2.524100 1.223600
-2.510700 1.244200
-2.497300 1.263400
-2.483800 1.281300
-2.470400 1.300200
-2.457000 1.319200
-2.443500 1.337600
-2.430100 1.356200
-2.416700 1.375200
-2.403200 1.395100
-2.389800 1.415600
-2.376400 1.437700
-2.362900 1.460800
-2.349500 1.484900
-2.336100 1.510600
-2.322600 1.538500
-2.309200 1.568900
-2.295800 1.602600
-2.282300 1.637400
-2.268900 1.670200
-2.255500 1.704100
-2.242100 1.739200
-2.228600 1.775600
-2.215200 1.813700
-2.201800 1.853600
-2.188300 1.894300
-2.174900 1.936200
-2.161500 1.980700
-2.148000 2.024700
-2.134600 2.069200
-2.121200 2.116200
-2.107700 2.163900
-2.094300 2.217500
-2.080900 2.274400
-2.067400 2.327200
-2.054000 2.360100
-2.040600 2.396200
-2.027100 2.442300
-2.013700 2.484400
-2.000300 2.528200
-1.986800 2.583100
-1.973400 2.696100
-1.960000 2.821000
-1.946500 2.927700
-1.933100 2.998100
-1.919700 3.046700
-1.906200 3.041400
-1.892800 3.063800
-1.879400 3.069700
-1.866000 3.074500
-1.852500 3.122400
-1.839100 3.264100
-1.825700 3.349000
-1.812200 3.317300
-1.798800 3.334600
-1.785400 3.358900
-1.771900 3.389500
-1.758500 3.415100
-1.745100 3.546500
-1.731600 3.545400
-1.718200 3.506000
-1.704800 3.477200
-1.691300 3.474600
-1.677900 3.493300
-1.664500 3.492000
-1.651000 3.476800
-1.637600 3.470100
-1.624200 3.478500
-1.610700 3.489600
-1.597300 3.498400
-1.583900 3.513500
-1.570400 3.545300
-1.557000 3.580500
-1.543600 3.592100
-1.530100 3.584300
-1.516700 3.563000
-1.503300 3.525500
-1.489800 3.507100
-1.476400 3.517800
-1.463000 3.300300
-1.449600 3.261600
-1.436100 3.253200
-1.422700 3.144600
-1.409300 3.023500
-1.395800 2.890700
-1.382400 2.746400
-1.369000 2.591900
-1.355500 2.531900
-1.342100 2.398200
-1.328700 2.240600
-1.315200 2.093400
-1.301800 1.936300
-1.288400 1.859900
-1.274900 1.798300
-1.261500 1.778700
-1.248100 1.707900
-1.234600 1.671700
-1.221200 1.664400
-1.207800 1.685200
-1.194300 1.735800
-1.180900 1.783200
-1.167500 1.843800
-1.154000 2.204500
-1.140600 2.566900
-1.127200 2.737300
-1.113700 2.906700
-1.100300 3.118500
-1.086900 3.185700
-1.073500 3.197700
-1.060000 3.251700
-1.046600 3.238200
-1.033200 3.208400
-1.019700 3.303400
-1.006300 3.617800
-0.992900 3.889200
-0.979400 3.944500
-0.966000 3.995400
-0.952600 4.104000
-0.939100 4.166600
-0.925700 4.248600
-0.912300 4.340000
-0.898800 4.414800
-0.885400 4.454000
-0.872000 4.819700
-0.858500 5.176200
-0.845100 5.990300
-0.831700 6.909000
-0.818200 8.174000
-0.804800 8.958700
-0.791400 9.862300
-0.777900 9.954400
-0.764500 8.582900
-0.751100 7.990800
-0.737600 8.636900
-0.724200 8.188100
-0.710800 8.089900
-0.697300 7.961500
-0.683900 8.196400
-0.670500 7.917700
-0.657100 6.720800
-0.643600 6.095800
-0.630200 5.689500
-0.616800 5.212200
-0.603300 4.883600
-0.589900 4.629000
-0.576500 4.429200
-0.563000 4.241700
-0.549600 4.066100
-0.536200 3.891000
-0.522700 3.679900
-0.509300 3.487000
-0.495900 3.411000
-0.482400 3.333300
-0.469000 3.228400
-0.455600 3.090500
-0.442100 2.973800
-0.428700 2.936000
-0.415300 2.590200
-0.401800 2.443600
-0.388400 2.316100
-0.375000 2.204400
-0.361500 2.100400
-0.348100 2.010900
-0.334700 1.904600
-0.321200 1.783300
-0.307800 1.713100
-0.294400 1.633300
-0.281000 1.533400
-0.267500 1.434400
-0.254100 1.339900
-0.240700 1.250200
-0.227200 1.141300
-0.213800 1.029200
-0.200400 0.920900
-0.186900 0.853800
-0.173500 0.816800
-0.160100 0.731900
-0.146600 0.659600
-0.133200 0.592700
-0.119800 0.542100
-0.106300 0.478600
-0.092900 0.224500
-0.079500 0.074900
-0.066000 0.005400
-0.052600 0.000000
-0.039200 0.000000
-0.025700 0.000000
-0.012300 0.000000
0.001100 0.000000
0.014600 0.000000
0.028000 0.000000
0.041400 0.000000
0.054900 0.000000
0.068300 0.000000
0.081700 0.000000
0.095200 0.000000
0.108600 0.000000
0.122000 0.000000
0.135400 0.000000
0.148900 0.000000
0.162300 0.000000
0.175700 0.000000
0.189200 0.000000
0.202600 0.000000
0.216000 0.000000
0.229500 0.000000
0.242900 0.000000
0.256300 0.000000
0.269800 0.000000
0.283200 0.000000
0.296600 0.000000
0.310100 0.000000
0.323500 0.000000
0.336900 0.000000
0.350400 0.000000
0.363800 0.000000
0.377200 0.000000
0.390700 0.000000
0.404100 0.000000
0.417500 0.000000
0.431000 0.000000
0.444400 0.000000
0.457800 0.000000
0.471300 0.000000
0.484700 0.000000
0.498100 0.000000
0.511500 0.000000
0.525000 0.000000
0.538400 0.000000
0.551800 0.000000
0.565300 0.000000
0.578700 0.000000
0.592100 0.000000
0.605600 0.000000
0.619000 0.000000
0.632400 0.000000
0.645900 0.000000
0.659300 0.000000
0.672700 0.000000
0.686200 0.000000
0.699600 0.000000
0.713000 0.000000
0.726500 0.000000
0.739900 0.000000
0.753300 0.000000
0.766800 0.000000
0.780200 0.000000
0.793600 0.000000
0.807100 0.000000
0.820500 0.000000
0.833900 0.000000
0.847400 0.000000
0.860800 0.000000
0.874200 0.000000
0.887700 0.000000
0.901100 0.000000
0.914500 0.000000
0.927900 0.000000
0.941400 0.000000
0.954800 0.000000
0.968200 0.000000
0.981700 0.000000
0.995100 0.000000
1.008500 0.000000
1.022000 0.000000
1.035400 0.000000
1.048800 0.000000
1.062300 0.000000
1.075700 0.000000
1.089100 0.000000
1.102600 0.000000
1.116000 0.000000
1.129400 0.000000
1.142900 0.000000
1.156300 0.000000
1.169700 0.000000
1.183200 0.000000
1.196600 0.069600
1.210000 0.117800
1.223500 0.162500
1.236900 0.213600
1.250300 0.269800
1.263800 0.345500
1.277200 0.415100
1.290600 0.458100
1.304000 0.500400
1.317500 0.646600
1.330900 0.793000
1.344300 0.914100
1.357800 1.114500
1.371200 1.292000
1.384600 1.441800
1.398100 1.514200
1.411500 1.614100
1.424900 1.729600
1.438400 1.882100
1.451800 1.998400
1.465200 2.078200
1.478700 2.198000
1.492100 2.304800
1.505500 2.469100
1.519000 2.637200
1.532400 2.818600
1.545800 2.947500
1.559300 3.506700
1.572700 3.548200
1.586100 3.400400
1.599600 3.487100
1.613000 3.516600
1.626400 3.614900
1.639900 3.711700
1.653300 3.819800
1.666700 3.979500
1.680200 4.140100
1.693600 4.250400
1.707000 4.387600
1.720400 4.674800
1.733900 4.999500
1.747300 5.264400
1.760700 5.379700
1.774200 5.478600
1.787600 5.445000
1.801000 5.533000
1.814500 5.584500
1.827900 5.566700
1.841300 5.493100
1.854800 5.368100
1.868200 5.315800
1.881600 5.188800
1.895100 5.110400
1.908500 5.085500
1.921900 5.113900
1.935400 5.208700
1.948800 5.264400
1.962200 5.297000
1.975700 5.321900
1.989100 5.322800
2.002500 5.345400
2.016000 5.437000
2.029400 5.569600
2.042800 5.711700
2.056300 5.812400
2.069700 5.901400
2.083100 5.854900
2.096500 5.709400
2.110000 5.600200
2.123400 5.582800
2.136800 5.627800
2.150300 5.696400
2.163700 5.795300
2.177100 5.918500
2.190600 6.015000
2.204000 6.199400
2.217400 6.192700
2.230900 6.132900
2.244300 6.274200
2.257700 6.210100
2.271200 6.271600
2.284600 6.322700
2.298000 6.410100
2.311500 6.440300
2.324900 6.193500
2.338300 5.905500
2.351800 5.625800
2.365200 5.667900
2.378600 5.601100
2.392100 5.518900
2.405500 5.454500
2.418900 5.536700
2.432400 5.627600
2.445800 5.595400
2.459200 5.458900
2.472700 5.219500
2.486100 5.179100
2.499500 5.161300
2.512900 5.130500
2.526400 5.135700
2.539800 5.117100
2.553200 5.207100
2.566700 4.891300
2.580100 4.749700
2.593500 4.718700
2.607000 4.688100
2.620400 4.629700
2.633800 4.666600
2.647300 4.811400
2.660700 5.002100
2.674100 5.131900
2.687600 5.370100
2.701000 5.516200
2.714400 5.662800
2.727900 5.660700
2.741300 5.607300
2.754700 5.624100
2.768200 5.684200
2.781600 5.664800
2.795000 5.687500
2.808500 5.597200
2.821900 5.570200
2.835300 5.595000
2.848800 5.660100
2.862200 5.825700
2.875600 5.887300
2.889000 5.935200
2.902500 5.836600
2.915900 5.739000
2.929300 5.727200
2.942800 5.872100
2.956200 5.994300
2.969600 5.976700
2.983100 6.144700
2.996500 6.463000
3.009900 6.335900
3.023400 6.139700
3.036800 6.309200
3.050200 6.453100
3.063700 6.559700
3.077100 6.330900
3.090500 5.968800
3.104000 5.656500
3.117400 5.485100
3.130800 5.450900
3.144300 5.402500
3.157700 5.293100
3.171100 5.317800
3.184600 5.284600
3.198000 5.091200
3.211400 4.960800
3.224900 4.847900
3.238300 4.755900
3.251700 4.765900
3.265200 4.857800
3.278600 5.102300
3.292000 5.287000
3.305400 5.385500
3.318900 5.506400
3.332300 5.649400
3.345700 5.742500
3.359200 5.787300
3.372600 5.899100
3.386000 5.980600
3.399500 6.004400
3.412900 6.071800
3.426300 6.204400
3.439800 5.870600
3.453200 5.962400
3.466600 6.171700
3.480100 6.514400
3.493500 6.311400
3.506900 6.312000
3.520400 5.988700
3.533800 5.822200
3.547200 5.731700
3.560700 5.783900
3.574100 5.610100
3.587500 5.602200
3.601000 5.708000
3.614400 5.790800
3.627800 5.577100
3.641300 5.682200
3.654700 5.684800
3.668100 5.736100
3.681500 5.708500
3.695000 5.785300
3.708400 5.985300
3.721800 6.062300
3.735300 6.166100
3.748700 6.279000
3.762100 6.498800
3.775600 5.968200
3.789000 5.691700
3.802400 5.500700
3.815900 5.351900
3.829300 5.267500
3.842700 5.278100
3.856200 5.283700
3.869600 5.493700
3.883000 5.827100
3.896500 5.897200
3.909900 6.137600
3.923300 6.286800
3.936800 6.477900
3.950200 6.887600
3.963600 7.046000
3.977100 7.324000
3.990500 7.777100
4.003900 7.913700
4.017400 7.854700
4.030800 7.919000
4.044200 7.168000
4.057700 6.693700
4.071100 6.349100
4.084500 6.139700
4.097900 6.002000
4.111400 5.843500
4.124800 5.712600
4.138200 5.618400
4.151700 5.652200
4.165100 5.780000
4.178500 5.422900
4.192000 5.416000
4.205400 5.558900
4.218800 5.769200
4.232300 5.925700
4.245700 6.114500
4.259100 6.319100
4.272600 6.546000
4.286000 6.681300
4.299400 7.173300
4.312900 7.278700
4.326300 7.029900
4.339700 7.100100
4.353200 7.124800
4.366600 7.228700
4.380000 7.657600
4.393500 7.914400
4.406900 8.301700
4.420300 8.768400
4.433800 8.869100
4.447200 8.149900
4.460600 8.110400
4.474000 8.196700
4.487500 8.630000
4.500900 9.164400
4.514300 9.389500
4.527800 9.803100
4.541200 10.449600
4.554600 10.851500
4.568100 10.772300
4.581500 10.966900
4.594900 10.993700
4.608400 11.220600
4.621800 11.268600
4.635200 11.145800
4.648700 11.068200
4.662100 10.743000
4.675500 10.386100
4.689000 10.006700
4.702400 10.025500
4.715800 9.496700
4.729300 9.551300
4.742700 9.135100
4.756100 9.015500
4.769600 9.011600
4.783000 9.208200
4.796400 10.113100
4.809900 9.928000
4.823300 9.105000
4.836700 9.231500
4.850200 9.244800
4.863600 10.082600
4.877000 11.664400
4.890400 12.315400
4.903900 12.237600
4.917300 13.016700
4.930700 13.087300
4.944200 12.318000
4.957600 13.266800
4.971000 14.543900
4.984500 14.353900
4.997900 14.405400
5.011300 14.219400
5.024800 14.173700
5.038200 13.978000
5.051600 13.544200
5.065100 13.075000
5.078500 12.863300
5.091900 12.186000
5.105400 11.897700
5.118800 12.172200
5.132200 11.911100
5.145700 11.218200
5.159100 11.476100
5.172500 12.044600
5.186000 11.557600
5.199400 12.289100
5.212800 11.022500
5.226300 10.956700
5.239700 11.458200
5.253100 12.069900
5.266500 12.782700
5.280000 13.170500
5.293400 13.118000
5.306800 12.981600
5.320300 11.865000
5.333700 11.540000
5.347100 10.826900
5.360600 10.482400
5.374000 10.071800
5.387400 9.853700
5.400900 10.206500
5.414300 10.695600
5.427700 10.978300
5.441200 10.538900
5.454600 10.790200
5.468000 10.744600
5.481500 10.439500
5.494900 11.018300
5.508300 10.948000
5.521800 11.292100
5.535200 11.887800
5.548600 12.343700
5.562100 12.650300
5.575500 12.692400
5.588900 12.803600
5.602400 12.688800
5.615800 12.923800
5.629200 13.421200
5.642700 14.418500
5.656100 14.714200
5.669500 13.471100
5.682900 13.174600
5.696400 13.194700
5.709800 13.432200
5.723200 14.743900
5.736700 14.982900
5.750100 15.527300
5.763500 14.822800
5.777000 12.768400
5.790400 12.768700
5.803800 11.441000
5.817300 10.974000
5.830700 11.358300
5.844100 10.346200
5.857600 11.320400
5.871000 11.608400
5.884400 11.922100
5.897900 12.154000
5.911300 13.251800
5.924700 14.835400
5.938200 14.880700
5.951600 14.778700
5.965000 13.671000
5.978500 12.584500
5.991900 13.380200
6.005300 12.875200
6.018800 13.414900
6.032200 12.812300
6.045600 11.531100
6.059000 11.632400
6.072500 14.385000
6.085900 16.648400
6.099300 17.012400
6.112800 18.506500
6.126200 14.936900
6.139600 15.927400
6.153100 14.672400
6.166500 14.588200
6.179900 14.265300
6.193400 15.167700
6.206800 16.021400
6.220200 16.927100
6.233700 20.154300
6.247100 20.770300
6.260500 21.342200
6.274000 22.754500
6.287400 21.285400
6.300800 21.073600
6.314300 20.949900
6.327700 21.738000
6.341100 21.889000
6.354600 22.028100
