set title 'mp-1008728 - Density of States'
set xlabel 'Energy (eV)'
set ylabel 'DOS (states/eV)'
set grid
set xrange [-10:10]
set yrange [0:2.603]
set xzeroaxis lt -1
set terminal png size 800,600
set output 'mp-1008728_dos_gnuplot.png'
plot '-' using 1:2 with lines title 'DOS'
-66.248000 0.000000
-66.135400 0.000000
-66.022800 0.000000
-65.910200 0.000000
-65.797600 0.000000
-65.685000 0.000000
-65.572300 0.000000
-65.459700 0.000000
-65.347100 0.000000
-65.234500 0.000000
-65.121900 0.000000
-65.009300 0.000000
-64.896600 0.000000
-64.784000 0.000000
-64.671400 0.000000
-64.558800 0.000000
-64.446200 0.000000
-64.333500 0.000000
-64.220900 0.000000
-64.108300 0.000000
-63.995700 0.000000
-63.883100 0.000000
-63.770500 0.000000
-63.657800 0.000000
-63.545200 0.000000
-63.432600 0.000000
-63.320000 0.000000
-63.207400 0.000000
-63.094700 0.000000
-62.982100 0.000000
-62.869500 0.000000
-62.756900 0.000000
-62.644300 0.000000
-62.531700 0.000000
-62.419000 0.000000
-62.306400 0.000000
-62.193800 0.000000
-62.081200 0.000000
-61.968600 0.000000
-61.855900 0.000000
-61.743300 0.000000
-61.630700 0.000000
-61.518100 0.000000
-61.405500 0.000000
-61.292900 0.000000
-61.180200 0.000000
-61.067600 0.000000
-60.955000 0.000000
-60.842400 0.000000
-60.729800 0.000000
-60.617100 0.000000
-60.504500 0.000000
-60.391900 0.000000
-60.279300 0.000000
-60.166700 0.000000
-60.054100 0.000000
-59.941400 0.000000
-59.828800 0.000000
-59.716200 0.000000
-59.603600 0.000000
-59.491000 0.000000
-59.378300 0.000000
-59.265700 0.000000
-59.153100 0.000000
-59.040500 0.000000
-58.927900 0.000000
-58.815300 0.000000
-58.702600 0.000000
-58.590000 0.000000
-58.477400 0.000000
-58.364800 0.000000
-58.252200 0.000000
-58.139600 0.000000
-58.026900 0.000000
-57.914300 0.000000
-57.801700 0.000000
-57.689100 0.000000
-57.576500 0.000000
-57.463800 0.000000
-57.351200 0.000000
-57.238600 0.000000
-57.126000 0.000000
-57.013400 0.000000
-56.900800 0.000000
-56.788100 0.000000
-56.675500 0.000000
-56.562900 0.000000
-56.450300 0.000000
-56.337700 0.000000
-56.225000 0.000000
-56.112400 0.000000
-55.999800 5.043000
-55.887200 13.421400
-55.774600 0.000000
-55.662000 0.000000
-55.549300 0.000000
-55.436700 0.000000
-55.324100 0.000000
-55.211500 0.000000
-55.098900 0.000000
-54.986200 0.000000
-54.873600 0.000000
-54.761000 0.000000
-54.648400 0.000000
-54.535800 0.000000
-54.423200 0.000000
-54.310500 0.000000
-54.197900 0.000000
-54.085300 0.000000
-53.972700 0.000000
-53.860100 0.000000
-53.747400 0.000000
-53.634800 0.000000
-53.522200 0.000000
-53.409600 0.000000
-53.297000 0.000000
-53.184400 0.000000
-53.071700 0.000000
-52.959100 0.000000
-52.846500 0.000000
-52.733900 0.000000
-52.621300 0.000000
-52.508700 0.000000
-52.396000 0.000000
-52.283400 0.000000
-52.170800 0.000000
-52.058200 0.000000
-51.945600 0.000000
-51.832900 0.000000
-51.720300 0.000000
-51.607700 0.000000
-51.495100 0.000000
-51.382500 0.000000
-51.269900 0.000000
-51.157200 0.000000
-51.044600 0.000000
-50.932000 0.000000
-50.819400 0.000000
-50.706800 0.000000
-50.594100 0.000000
-50.481500 0.000000
-50.368900 0.000000
-50.256300 0.000000
-50.143700 0.000000
-50.031100 0.000000
-49.918400 0.000000
-49.805800 0.000000
-49.693200 0.000000
-49.580600 0.000000
-49.468000 0.000000
-49.355300 0.000000
-49.242700 0.000000
-49.130100 0.000000
-49.017500 0.000000
-48.904900 0.000000
-48.792300 0.000000
-48.679600 0.000000
-48.567000 0.000000
-48.454400 0.000000
-48.341800 0.000000
-48.229200 0.000000
-48.116500 0.000000
-48.003900 0.000000
-47.891300 0.000000
-47.778700 0.000000
-47.666100 0.000000
-47.553500 0.000000
-47.440800 0.000000
-47.328200 0.000000
-47.215600 0.000000
-47.103000 0.000000
-46.990400 0.000000
-46.877700 0.000000
-46.765100 0.000000
-46.652500 0.000000
-46.539900 0.000000
-46.427300 0.000000
-46.314700 0.000000
-46.202000 0.000000
-46.089400 0.000000
-45.976800 0.000000
-45.864200 0.000000
-45.751600 0.000000
-45.639000 0.000000
-45.526300 0.000000
-45.413700 0.000000
-45.301100 0.000000
-45.188500 0.000000
-45.075900 0.000000
-44.963200 0.000000
-44.850600 0.000000
-44.738000 0.000000
-44.625400 0.000000
-44.512800 0.000000
-44.400200 0.000000
-44.287500 0.000000
-44.174900 0.000000
-44.062300 0.000000
-43.949700 0.000000
-43.837100 0.000000
-43.724400 0.000000
-43.611800 0.000000
-43.499200 0.000000
-43.386600 0.000000
-43.274000 0.000000
-43.161400 0.000000
-43.048700 0.000000
-42.936100 0.000000
-42.823500 0.000000
-42.710900 0.000000
-42.598300 0.000000
-42.485600 0.000000
-42.373000 0.000000
-42.260400 0.000000
-42.147800 0.000000
-42.035200 0.000000
-41.922600 0.000000
-41.809900 0.000000
-41.697300 0.000000
-41.584700 0.000000
-41.472100 0.000000
-41.359500 0.000000
-41.246800 0.000000
-41.134200 0.000000
-41.021600 0.000000
-40.909000 0.000000
-40.796400 0.000000
-40.683800 0.000000
-40.571100 0.000000
-40.458500 0.000000
-40.345900 0.000000
-40.233300 0.000000
-40.120700 0.000000
-40.008100 0.000000
-39.895400 0.000000
-39.782800 0.000000
-39.670200 0.000000
-39.557600 0.000000
-39.445000 0.000000
-39.332300 0.000000
-39.219700 0.000000
-39.107100 0.000000
-38.994500 0.000000
-38.881900 0.000000
-38.769300 0.000000
-38.656600 0.000000
-38.544000 0.000000
-38.431400 0.000000
-38.318800 0.000000
-38.206200 0.000000
-38.093500 0.000000
-37.980900 0.000000
-37.868300 0.000000
-37.755700 0.000000
-37.643100 0.000000
-37.530500 0.000000
-37.417800 0.000000
-37.305200 0.000000
-37.192600 0.000000
-37.080000 0.000000
-36.967400 0.000000
-36.854700 0.000000
-36.742100 0.000000
-36.629500 0.000000
-36.516900 0.000000
-36.404300 0.000000
-36.291700 0.000000
-36.179000 0.000000
-36.066400 0.000000
-35.953800 0.000000
-35.841200 0.000000
-35.728600 0.000000
-35.615900 0.000000
-35.503300 0.000000
-35.390700 0.000000
-35.278100 0.000000
-35.165500 0.000000
-35.052900 0.000000
-34.940200 0.000000
-34.827600 0.000000
-34.715000 0.000000
-34.602400 0.000000
-34.489800 0.000000
-34.377100 0.000000
-34.264500 0.000000
-34.151900 0.000000
-34.039300 0.000000
-33.926700 0.000000
-33.814100 0.000000
-33.701400 0.000000
-33.588800 0.000000
-33.476200 0.000000
-33.363600 0.000000
-33.251000 0.000000
-33.138400 0.000000
-33.025700 0.000000
-32.913100 0.000000
-32.800500 0.000000
-32.687900 0.000000
-32.575300 0.000000
-32.462600 0.000000
-32.350000 0.000000
-32.237400 0.000000
-32.124800 0.000000
-32.012200 0.000000
-31.899600 0.000000
-31.786900 0.000000
-31.674300 0.000000
-31.561700 0.000000
-31.449100 0.000000
-31.336500 0.000000
-31.223800 0.000000
-31.111200 0.000000
-30.998600 0.000000
-30.886000 0.000000
-30.773400 0.000000
-30.660800 0.000000
-30.548100 0.000000
-30.435500 0.000000
-30.322900 0.000000
-30.210300 0.000000
-30.097700 0.000000
-29.985000 0.000000
-29.872400 0.000000
-29.759800 0.000000
-29.647200 0.000000
-29.534600 0.000000
-29.422000 0.000000
-29.309300 0.000000
-29.196700 0.000000
-29.084100 0.000000
-28.971500 0.000000
-28.858900 0.000000
-28.746200 0.000000
-28.633600 0.000000
-28.521000 0.000000
-28.408400 0.000000
-28.295800 0.000000
-28.183200 0.000000
-28.070500 0.000000
-27.957900 0.000000
-27.845300 0.000000
-27.732700 0.000000
-27.620100 0.000000
-27.507500 0.000000
-27.394800 0.000000
-27.282200 0.000000
-27.169600 0.000000
-27.057000 0.000000
-26.944400 0.000000
-26.831700 0.000000
-26.719100 0.000000
-26.606500 0.000000
-26.493900 0.000000
-26.381300 0.000000
-26.268700 0.000000
-26.156000 0.000000
-26.043400 0.000000
-25.930800 0.000000
-25.818200 0.000000
-25.705600 0.000000
-25.592900 0.000000
-25.480300 0.000000
-25.367700 0.000000
-25.255100 0.000000
-25.142500 0.000000
-25.029900 0.000000
-24.917200 0.000000
-24.804600 0.000000
-24.692000 0.000000
-24.579400 0.000000
-24.466800 0.000000
-24.354100 0.000000
-24.241500 0.000000
-24.128900 0.000000
-24.016300 0.000000
-23.903700 0.000000
-23.791100 0.000000
-23.678400 0.000000
-23.565800 0.000000
-23.453200 0.000000
-23.340600 0.000000
-23.228000 0.000000
-23.115300 0.000000
-23.002700 0.000000
-22.890100 0.000000
-22.777500 0.000000
-22.664900 0.000000
-22.552300 0.000000
-22.439600 0.000000
-22.327000 0.000000
-22.214400 0.000000
-22.101800 0.000000
-21.989200 0.000000
-21.876500 0.000000
-21.763900 0.000000
-21.651300 0.000000
-21.538700 0.000000
-21.426100 0.000000
-21.313500 0.000000
-21.200800 0.000000
-21.088200 0.000000
-20.975600 0.000000
-20.863000 0.000000
-20.750400 0.000000
-20.637800 0.000000
-20.525100 0.000000
-20.412500 0.000000
-20.299900 0.000000
-20.187300 0.000000
-20.074700 0.000000
-19.962000 0.000000
-19.849400 0.000000
-19.736800 0.000000
-19.624200 0.000000
-19.511600 0.000000
-19.399000 0.000000
-19.286300 0.000000
-19.173700 0.000000
-19.061100 0.000000
-18.948500 0.000000
-18.835900 0.000000
-18.723200 0.000000
-18.610600 0.000000
-18.498000 0.000000
-18.385400 0.000000
-18.272800 0.000000
-18.160200 0.000000
-18.047500 0.000000
-17.934900 0.000000
-17.822300 0.000000
-17.709700 0.000000
-17.597100 0.000000
-17.484400 0.000000
-17.371800 0.000000
-17.259200 0.000000
-17.146600 0.000000
-17.034000 0.000000
-16.921400 0.000000
-16.808700 0.000000
-16.696100 0.000000
-16.583500 0.000000
-16.470900 0.000000
-16.358300 0.000000
-16.245600 0.000000
-16.133000 0.000000
-16.020400 0.000000
-15.907800 0.000000
-15.795200 0.000000
-15.682600 0.000000
-15.569900 0.000000
-15.457300 0.000000
-15.344700 0.000000
-15.232100 0.000000
-15.119500 0.000000
-15.006900 0.000000
-14.894200 0.000000
-14.781600 0.000000
-14.669000 0.000000
-14.556400 0.000000
-14.443800 0.000000
-14.331100 0.000000
-14.218500 0.000000
-14.105900 0.000000
-13.993300 0.000000
-13.880700 0.000000
-13.768100 0.000000
-13.655400 0.000000
-13.542800 0.000000
-13.430200 0.000000
-13.317600 0.000000
-13.205000 0.000000
-13.092300 0.000000
-12.979700 0.000000
-12.867100 0.000000
-12.754500 0.000000
-12.641900 0.000000
-12.529300 0.000000
-12.416600 0.000000
-12.304000 0.000000
-12.191400 0.000000
-12.078800 0.000000
-11.966200 0.000000
-11.853500 0.000000
-11.740900 0.000000
-11.628300 0.000000
-11.515700 0.000000
-11.403100 0.000000
-11.290500 0.000000
-11.177800 0.000000
-11.065200 0.000000
-10.952600 0.000000
-10.840000 0.000000
-10.727400 0.000000
-10.614700 0.000000
-10.502100 0.000000
-10.389500 0.000000
-10.276900 0.000000
-10.164300 0.000000
-10.051700 0.000000
-9.939000 0.000000
-9.826400 0.000000
-9.713800 0.000000
-9.601200 0.000000
-9.488600 0.000000
-9.375900 0.000000
-9.263300 0.000000
-9.150700 0.000000
-9.038100 0.000000
-8.925500 0.000000
-8.812900 0.000000
-8.700200 0.000000
-8.587600 0.000000
-8.475000 0.000000
-8.362400 0.000000
-8.249800 0.000000
-8.137200 0.000000
-8.024500 0.000000
-7.911900 0.000000
-7.799300 0.000000
-7.686700 0.000000
-7.574100 0.000000
-7.461400 0.000000
-7.348800 0.000000
-7.236200 0.000000
-7.123600 0.000000
-7.011000 0.000000
-6.898400 0.000000
-6.785700 0.000000
-6.673100 0.000000
-6.560500 0.000000
-6.447900 0.000000
-6.335300 0.000000
-6.222600 0.000000
-6.110000 0.000000
-5.997400 0.000000
-5.884800 0.000000
-5.772200 0.000000
-5.659600 0.000000
-5.546900 0.000000
-5.434300 0.000000
-5.321700 0.000000
-5.209100 0.000000
-5.096500 0.000000
-4.983800 0.000000
-4.871200 0.000000
-4.758600 0.000000
-4.646000 0.000000
-4.533400 0.000000
-4.420800 0.000000
-4.308100 0.000000
-4.195500 0.000000
-4.082900 0.000000
-3.970300 0.000000
-3.857700 0.000000
-3.745000 0.000000
-3.632400 0.000000
-3.519800 0.000000
-3.407200 0.000000
-3.294600 0.000000
-3.182000 0.000000
-3.069300 0.000000
-2.956700 0.000000
-2.844100 0.000000
-2.731500 0.000000
-2.618900 0.000000
-2.506300 0.000000
-2.393600 0.000000
-2.281000 0.000000
-2.168400 0.000000
-2.055800 0.000000
-1.943200 0.000000
-1.830500 0.000000
-1.717900 0.000000
-1.605300 0.000000
-1.492700 0.000000
-1.380100 0.000000
-1.267500 0.000000
-1.154800 0.000000
-1.042200 0.009200
-0.929600 0.014300
-0.817000 0.019100
-0.704400 0.022600
-0.591700 0.024700
-0.479100 0.028700
-0.366500 0.030600
-0.253900 0.032900
-0.141300 0.035600
-0.028700 0.038500
0.084000 0.040500
0.196600 0.042400
0.309200 0.045100
0.421800 0.047700
0.534400 0.050000
0.647100 0.052300
0.759700 0.054800
0.872300 0.057300
0.984900 0.060200
1.097500 0.063100
1.210100 0.065800
1.322800 0.068900
1.435400 0.072300
1.548000 0.075700
1.660600 0.079700
1.773200 0.083900
1.885900 0.088400
1.998500 0.093400
2.111100 0.099500
2.223700 0.105900
2.336300 0.113500
2.448900 0.122400
2.561600 0.133300
2.674200 0.148000
2.786800 0.165400
2.899400 0.190300
3.012000 0.225300
3.124700 0.323500
3.237300 0.425000
3.349900 0.436700
3.462500 0.442000
3.575100 0.508400
3.687700 0.612700
3.800400 0.721600
3.913000 0.947600
4.025600 0.926700
4.138200 0.679100
4.250800 0.527100
4.363400 0.367500
4.476100 0.319100
4.588700 1.622900
4.701300 1.924800
4.813900 1.371500
4.926500 1.346400
5.039200 1.321800
5.151800 1.274200
5.264400 1.567700
5.377000 1.942600
5.489600 1.465600
5.602200 0.588600
5.714900 0.495400
5.827500 0.435200
5.940100 0.449700
6.052700 0.477500
6.165300 0.561600
6.278000 0.708900
6.390600 1.220100
6.503200 1.445900
6.615800 1.884300
6.728400 2.366100
6.841000 2.217000
6.953700 2.340700
7.066300 2.084000
7.178900 1.329200
7.291500 1.123500
7.404100 1.057400
7.516800 1.041400
7.629400 0.542400
7.742000 0.201200
7.854600 0.177300
7.967200 0.172300
8.079800 0.173000
8.192500 0.169600
8.305100 0.166200
8.417700 0.163300
8.530300 0.162000
8.642900 0.160600
8.755600 0.159000
8.868200 0.155800
8.980800 0.151800
9.093400 0.149700
9.206000 0.147900
9.318600 0.146400
9.431300 0.144800
9.543900 0.143200
9.656500 0.141300
9.769100 0.137500
9.881700 0.134700
9.994400 0.132400
10.107000 0.130400
10.219600 0.128400
10.332200 0.126300
10.444800 0.124300
10.557400 0.122200
10.670100 0.120200
10.782700 0.116800
10.895300 0.113900
11.007900 0.110700
11.120500 0.108400
11.233100 0.106400
11.345800 0.104100
11.458400 0.101500
11.571000 0.099100
11.683600 0.097000
11.796200 0.094000
11.908900 0.090600
12.021500 0.087800
12.134100 0.085000
12.246700 0.082700
12.359300 0.079700
12.471900 0.077000
12.584600 0.074000
12.697200 0.070400
12.809800 0.068400
12.922400 0.065700
13.035000 0.063100
13.147700 0.060400
13.260300 0.058500
13.372900 0.054400
13.485500 0.046200
13.598100 0.042700
13.710700 0.037100
13.823400 0.034400
13.936000 0.032000
14.048600 0.029900
14.161200 0.027900
14.273800 0.028500
14.386500 0.079300
14.499100 0.128700
14.611700 0.172900
14.724300 0.180700
14.836900 0.200200
14.949500 0.240600
15.062200 0.208600
15.174800 0.199700
15.287400 0.197300
15.400000 0.197900
15.512600 0.187600
15.625300 0.179300
15.737900 0.176200
15.850500 0.166900
15.963100 0.162800
16.075700 0.157200
16.188300 0.152600
16.301000 0.150300
16.413600 0.145600
16.526200 0.142000
16.638800 0.142800
16.751400 0.155800
16.864000 0.165300
16.976700 0.171100
17.089300 0.173400
17.201900 0.177000
17.314500 0.175300
17.427100 0.177000
17.539800 0.183300
17.652400 0.181900
17.765000 0.184800
17.877600 0.188700
17.990200 0.183700
18.102800 0.182100
18.215500 0.181300
18.328100 0.180500
18.440700 0.181600
18.553300 0.182500
18.665900 0.180900
18.778600 0.180200
18.891200 0.178000
19.003800 0.176800
19.116400 0.175900
19.229000 0.174200
19.341600 0.174600
19.454300 0.173600
19.566900 0.172500
19.679500 0.171800
19.792100 0.170700
19.904700 0.170300
20.017400 0.170300
20.130000 0.170500
20.242600 0.171100
20.355200 0.171100
20.467800 0.170400
20.580400 0.169500
20.693100 0.168100
20.805700 0.166400
20.918300 0.165700
21.030900 0.165200
21.143500 0.164300
21.256200 0.163900
21.368800 0.164700
21.481400 0.162500
21.594000 0.161200
21.706600 0.160200
21.819200 0.159800
21.931900 0.159200
22.044500 0.158600
22.157100 0.158100
22.269700 0.157800
22.382300 0.157500
22.495000 0.156800
22.607600 0.156800
22.720200 0.156000
22.832800 0.155200
22.945400 0.154900
23.058000 0.154000
23.170700 0.153100
23.283300 0.152100
23.395900 0.152500
23.508500 0.154400
23.621100 0.159900
23.733700 0.166000
23.846400 0.169700
23.959000 0.171400
24.071600 0.173000
24.184200 0.174600
24.296800 0.178200
24.409500 0.179900
24.522100 0.183400
24.634700 0.186900
24.747300 0.187800
24.859900 0.193800
24.972500 0.198800
25.085200 0.197700
25.197800 0.200900
25.310400 0.204300
25.423000 0.207800
25.535600 0.209900
25.648300 0.226700
25.760900 0.214900
25.873500 0.218100
25.986100 0.221800
26.098700 0.224200
26.211300 0.227600
26.324000 0.231300
26.436600 0.234500
26.549200 0.239000
26.661800 0.243900
26.774400 0.244700
26.887100 0.245600
26.999700 0.244500
27.112300 0.246200
27.224900 0.250100
27.337500 0.254700
27.450100 0.260300
27.562800 0.272400
27.675400 0.288000
27.788000 0.267100
27.900600 0.263600
28.013200 0.263900
28.125900 0.254700
28.238500 0.248900
28.351100 0.245100
28.463700 0.240400
28.576300 0.235300
28.688900 0.229200
28.801600 0.224400
28.914200 0.219400
29.026800 0.216200
29.139400 0.213900
29.252000 0.209900
29.364600 0.205600
29.477300 0.201100
29.589900 0.195400
29.702500 0.191400
29.815100 0.187400
29.927700 0.187200
30.040400 0.183600
30.153000 0.174800
30.265600 0.167000
30.378200 0.158200
30.490800 0.148600
30.603400 0.139300
30.716100 0.134400
30.828700 0.130600
30.941300 0.129100
31.053900 0.126800
31.166500 0.125100
31.279200 0.123300
31.391800 0.120700
31.504400 0.119500
31.617000 0.119400
31.729600 0.132300
31.842200 0.141500
31.954900 0.146100
32.067500 0.151200
32.180100 0.157500
32.292700 0.162600
32.405300 0.171700
32.518000 0.181900
32.630600 0.195400
32.743200 0.211600
32.855800 0.233500
32.968400 0.271600
33.081000 0.327300
33.193700 0.329700
33.306300 0.304400
33.418900 0.289200
33.531500 0.276100
33.644100 0.266500
33.756800 0.253800
33.869400 0.238200
33.982000 0.221500
34.094600 0.208400
34.207200 0.195800
34.319800 0.181100
34.432500 0.166200
34.545100 0.163500
34.657700 0.167000
34.770300 0.152600
34.882900 0.143400
34.995600 0.138200
35.108200 0.130800
35.220800 0.147700
35.333400 0.158600
35.446000 0.179500
35.558600 0.200600
35.671300 0.219600
35.783900 0.248800
35.896500 0.305600
36.009100 0.331600
36.121700 0.328900
36.234300 0.320500
36.347000 0.310700
36.459600 0.308700
36.572200 0.312400
36.684800 0.291000
36.797400 0.261700
36.910100 0.242000
37.022700 0.227900
37.135300 0.216800
37.247900 0.207100
37.360500 0.201100
37.473100 0.202500
37.585800 0.208900
37.698400 0.216500
37.811000 0.220400
37.923600 0.224100
38.036200 0.225500
38.148900 0.227200
38.261500 0.224600
38.374100 0.242200
38.486700 0.234800
38.599300 0.238800
38.711900 0.240300
38.824600 0.241100
38.937200 0.247900
39.049800 0.255900
39.162400 0.266400
39.275000 0.281000
39.387700 0.283600
39.500300 0.270500
39.612900 0.268700
39.725500 0.267500
39.838100 0.260900
39.950700 0.254600
40.063400 0.250100
40.176000 0.250600
40.288600 0.249000
40.401200 0.246300
40.513800 0.243800
40.626500 0.242100
40.739100 0.241600
40.851700 0.241300
40.964300 0.250400
41.076900 0.240700
41.189500 0.241400
41.302200 0.240100
41.414800 0.235300
41.527400 0.234700
41.640000 0.232900
41.752600 0.234300
41.865200 0.231700
41.977900 0.232700
42.090500 0.228900
42.203100 0.251300
42.315700 0.243300
42.428300 0.245800
42.541000 0.247900
42.653600 0.250200
42.766200 0.252000
42.878800 0.254100
42.991400 0.259500
43.104000 0.266600
43.216700 0.276300
43.329300 0.290800
43.441900 0.312200
43.554500 0.329200
43.667100 0.338600
43.779800 0.351600
43.892400 0.368700
44.005000 0.390600
44.117600 0.413200
44.230200 0.449500
44.342800 0.500400
44.455500 0.593800
44.568100 0.768500
44.680700 1.273900
44.793300 2.105000
44.905900 1.236400
45.018600 0.591000
45.131200 1.175400
45.243800 0.621900
45.356400 0.504400
45.469000 0.447500
45.581600 0.410500
45.694300 0.387500
45.806900 0.369100
45.919500 0.355000
46.032100 0.338100
46.144700 0.327300
46.257400 0.320400
46.370000 0.319300
46.482600 0.320900
46.595200 0.325600
46.707800 0.329500
46.820400 0.335400
46.933100 0.334700
47.045700 0.335200
47.158300 0.334200
47.270900 0.326900
47.383500 0.320000
47.496200 0.308900
47.608800 0.295800
47.721400 0.289000
47.834000 0.270600
47.946600 0.264900
48.059200 0.266500
