set title 'mp-632286 - Density of States'
set xlabel 'Energy (eV)'
set ylabel 'DOS (states/eV)'
set grid
set xrange [-10:10]
set yrange [0:1.772]
set xzeroaxis lt -1
set terminal png size 800,600
set output 'mp-632286_dos_gnuplot.png'
plot '-' using 1:2 with lines title 'DOS'
-7.694000 0.000000
-7.667600 0.000000
-7.641200 0.000000
-7.614800 0.000000
-7.588300 0.000000
-7.561900 0.000000
-7.535500 0.000000
-7.509100 0.000000
-7.482700 0.000000
-7.456300 0.000000
-7.429900 0.000000
-7.403500 0.000000
-7.377100 0.000000
-7.350700 0.000000
-7.324200 0.000000
-7.297800 0.000000
-7.271400 0.000000
-7.245000 0.000000
-7.218600 0.000000
-7.192200 0.000000
-7.165800 0.000000
-7.139400 0.000000
-7.113000 0.000000
-7.086600 0.000000
-7.060200 0.000000
-7.033700 0.000000
-7.007300 0.000000
-6.980900 0.000000
-6.954500 0.000000
-6.928100 0.000000
-6.901700 0.000000
-6.875300 0.000000
-6.848900 0.000000
-6.822500 0.000000
-6.796100 0.000000
-6.769600 0.000000
-6.743200 0.000000
-6.716800 0.000000
-6.690400 0.000000
-6.664000 0.000000
-6.637600 0.000000
-6.611200 0.000000
-6.584800 0.000000
-6.558400 0.000000
-6.532000 0.000000
-6.505500 0.000000
-6.479100 0.000000
-6.452700 0.000000
-6.426300 0.000000
-6.399900 0.000000
-6.373500 0.000000
-6.347100 0.000000
-6.320700 0.000000
-6.294300 0.000000
-6.267900 0.000000
-6.241500 0.000000
-6.215000 0.000000
-6.188600 0.000000
-6.162200 0.000000
-6.135800 0.000000
-6.109400 0.000000
-6.083000 0.000000
-6.056600 0.000000
-6.030200 0.000000
-6.003800 0.000000
-5.977400 0.000000
-5.950900 0.000000
-5.924500 0.000000
-5.898100 0.000000
-5.871700 0.000000
-5.845300 0.000000
-5.818900 0.000000
-5.792500 0.000000
-5.766100 0.000000
-5.739700 0.000000
-5.713300 0.000000
-5.686900 0.000000
-5.660400 0.000000
-5.634000 0.000000
-5.607600 0.000000
-5.581200 0.000000
-5.554800 0.000000
-5.528400 0.000000
-5.502000 0.000000
-5.475600 0.000000
-5.449200 0.000000
-5.422800 0.000000
-5.396300 0.000000
-5.369900 0.000000
-5.343500 0.000000
-5.317100 0.000000
-5.290700 0.000100
-5.264300 0.016900
-5.237900 0.062000
-5.211500 0.116100
-5.185100 0.143300
-5.158700 0.148400
-5.132200 0.158700
-5.105800 0.177800
-5.079400 0.200200
-5.053000 0.223500
-5.026600 0.242500
-5.000200 0.251500
-4.973800 0.254900
-4.947400 0.262200
-4.921000 0.273500
-4.894600 0.285300
-4.868200 0.297000
-4.841700 0.308500
-4.815300 0.319900
-4.788900 0.331900
-4.762500 0.345000
-4.736100 0.357400
-4.709700 0.366100
-4.683300 0.372000
-4.656900 0.378500
-4.630500 0.386500
-4.604100 0.394900
-4.577600 0.403100
-4.551200 0.411100
-4.524800 0.419000
-4.498400 0.427300
-4.472000 0.436500
-4.445600 0.446200
-4.419200 0.456200
-4.392800 0.466300
-4.366400 0.476500
-4.340000 0.486200
-4.313500 0.494900
-4.287100 0.502600
-4.260700 0.509800
-4.234300 0.517100
-4.207900 0.525100
-4.181500 0.533500
-4.155100 0.541900
-4.128700 0.550300
-4.102300 0.558800
-4.075900 0.567600
-4.049500 0.576600
-4.023000 0.585900
-3.996600 0.595400
-3.970200 0.604900
-3.943800 0.618900
-3.917400 0.661200
-3.891000 0.697900
-3.864600 0.693300
-3.838200 0.683400
-3.811800 0.689100
-3.785400 0.705200
-3.758900 0.751800
-3.732500 0.777900
-3.706100 0.762000
-3.679700 0.744900
-3.653300 0.745200
-3.626900 0.747500
-3.600500 0.747800
-3.574100 0.745000
-3.547700 0.742300
-3.521300 0.737900
-3.494900 0.734600
-3.468400 0.733600
-3.442000 0.732800
-3.415600 0.732300
-3.389200 0.731400
-3.362800 0.731000
-3.336400 0.731700
-3.310000 0.732800
-3.283600 0.733600
-3.257200 0.734400
-3.230800 0.733600
-3.204300 0.733700
-3.177900 0.735900
-3.151500 0.760500
-3.125100 0.819400
-3.098700 0.860700
-3.072300 0.877300
-3.045900 0.905300
-3.019500 0.958200
-2.993100 0.965200
-2.966700 0.967200
-2.940200 1.002500
-2.913800 1.005600
-2.887400 0.981900
-2.861000 0.992700
-2.834600 1.002800
-2.808200 1.014200
-2.781800 1.080000
-2.755400 1.216700
-2.729000 1.280900
-2.702600 1.192900
-2.676200 1.151900
-2.649700 1.145600
-2.623300 1.148400
-2.596900 1.146900
-2.570500 1.143800
-2.544100 1.135200
-2.517700 1.111700
-2.491300 1.098400
-2.464900 1.095100
-2.438500 1.095600
-2.412100 1.094000
-2.385600 1.085600
-2.359200 1.074800
-2.332800 1.068100
-2.306400 1.063900
-2.280000 1.059500
-2.253600 1.054000
-2.227200 1.041800
-2.200800 1.030400
-2.174400 1.020800
-2.148000 1.013800
-2.121500 1.006900
-2.095100 0.999900
-2.068700 0.993900
-2.042300 0.988300
-2.015900 0.981800
-1.989500 0.976000
-1.963100 0.971100
-1.936700 0.965900
-1.910300 0.961500
-1.883900 0.957900
-1.857500 0.953300
-1.831000 0.946700
-1.804600 0.935000
-1.778200 0.957300
-1.751800 0.944700
-1.725400 0.906700
-1.699000 0.893200
-1.672600 0.884500
-1.646200 0.875300
-1.619800 0.865700
-1.593400 0.856200
-1.566900 0.877500
-1.540500 0.829500
-1.514100 0.818600
-1.487700 0.808300
-1.461300 0.798300
-1.434900 0.788400
-1.408500 0.778100
-1.382100 0.764300
-1.355700 0.756100
-1.329300 0.748000
-1.302900 0.740700
-1.276400 0.735400
-1.250000 0.732800
-1.223600 0.729100
-1.197200 0.725400
-1.170800 0.720500
-1.144400 0.718400
-1.118000 0.716800
-1.091600 0.715700
-1.065200 0.713000
-1.038800 0.711300
-1.012300 0.709300
-0.985900 0.709700
-0.959500 0.709900
-0.933100 0.763300
-0.906700 0.721700
-0.880300 0.718200
-0.853900 0.717500
-0.827500 0.719100
-0.801100 0.735000
-0.774700 0.758100
-0.748200 0.717500
-0.721800 0.710400
-0.695400 0.681900
-0.669000 0.677300
-0.642600 0.671700
-0.616200 0.667000
-0.589800 0.661700
-0.563400 0.656900
-0.537000 0.654100
-0.510600 0.714600
-0.484200 0.687300
-0.457700 0.665600
-0.431300 0.582100
-0.404900 0.570300
-0.378500 0.555700
-0.352100 0.539600
-0.325700 0.524000
-0.299300 0.508100
-0.272900 0.491800
-0.246500 0.475200
-0.220100 0.461800
-0.193600 0.447600
-0.167200 0.432600
-0.140800 0.410000
-0.114400 0.393000
-0.088000 0.381600
-0.061600 0.371000
-0.035200 0.360900
-0.008800 0.351200
0.017600 0.341900
0.044000 0.333000
0.070400 0.324500
0.096900 0.316100
0.123300 0.307900
0.149700 0.299900
0.176100 0.292200
0.202500 0.284900
0.228900 0.277900
0.255300 0.272100
0.281700 0.266600
0.308100 0.261200
0.334500 0.255800
0.361000 0.250500
0.387400 0.245200
0.413800 0.239600
0.440200 0.230400
0.466600 0.225600
0.493000 0.222000
0.519400 0.218900
0.545800 0.213600
0.572200 0.208100
0.598600 0.202800
0.625100 0.197600
0.651500 0.192600
0.677900 0.187800
0.704300 0.183100
0.730700 0.178700
0.757100 0.174400
0.783500 0.170400
0.809900 0.166800
0.836300 0.163500
0.862700 0.160700
0.889100 0.159000
0.915600 0.158100
0.942000 0.157200
0.968400 0.156100
0.994800 0.154800
1.021200 0.153200
1.047600 0.151400
1.074000 0.151200
1.100400 0.158600
1.126800 0.164800
1.153200 0.161200
1.179700 0.155400
1.206100 0.149600
1.232500 0.145400
1.258900 0.151100
1.285300 0.225700
1.311700 0.149900
1.338100 0.093800
1.364500 0.070300
1.390900 0.051800
1.417300 0.036700
1.443800 0.023200
1.470200 0.012400
1.496600 0.004900
1.523000 0.045800
1.549400 0.062900
1.575800 0.058800
1.602200 0.071600
1.628600 0.085300
1.655000 0.099900
1.681400 0.115500
1.707800 0.175800
1.734300 0.197000
1.760700 0.227600
1.787100 0.224800
1.813500 0.212100
1.839900 0.215500
1.866300 0.226100
1.892700 0.237300
1.919100 0.248500
1.945500 0.255800
1.971900 0.264900
1.998400 0.275300
2.024800 0.322000
2.051200 0.474800
2.077600 0.522800
2.104000 0.573100
2.130400 0.620000
2.156800 0.619400
2.183200 0.612300
2.209600 0.616400
2.236000 0.629100
2.262400 0.646700
2.288900 0.666800
2.315300 0.688300
2.341700 0.710700
2.368100 0.729900
2.394500 0.753300
2.420900 0.789300
2.447300 0.798700
2.473700 0.770900
2.500100 0.756500
2.526500 0.752500
2.553000 0.752600
2.579400 0.756700
2.605800 0.764300
2.632200 0.782700
2.658600 0.803900
2.685000 0.820200
2.711400 0.831000
2.737800 0.841200
2.764200 0.851700
2.790600 0.864500
2.817100 0.881300
2.843500 0.925600
2.869900 0.950900
2.896300 0.937400
2.922700 0.951800
2.949100 1.033200
2.975500 1.025100
3.001900 1.011800
3.028300 1.026400
3.054700 1.042700
3.081100 1.058100
3.107600 1.072700
3.134000 1.093100
3.160400 1.125800
3.186800 1.155900
3.213200 1.187900
3.239600 1.231000
3.266000 1.269500
3.292400 1.298900
3.318800 1.323900
3.345200 1.447200
3.371700 1.544100
3.398100 1.289100
3.424500 1.256600
3.450900 1.210800
3.477300 1.185600
3.503700 1.303000
3.530100 1.289200
3.556500 1.409600
3.582900 1.506200
3.609300 1.568300
3.635800 1.611300
3.662200 1.559600
3.688600 1.541400
3.715000 1.515100
3.741400 1.518200
3.767800 1.545000
3.794200 1.507800
3.820600 1.479400
3.847000 1.460500
3.873400 1.447400
3.899800 1.442400
3.926300 1.444200
3.952700 1.457900
3.979100 1.473200
4.005500 1.483400
4.031900 1.492700
4.058300 1.498300
4.084700 1.508200
4.111100 1.510500
4.137500 1.509700
4.163900 1.504200
4.190400 1.497400
4.216800 1.487500
4.243200 1.479000
4.269600 1.468100
4.296000 1.457500
4.322400 1.434100
4.348800 1.401400
4.375200 1.384200
4.401600 1.365900
4.428000 1.356800
4.454400 1.360200
4.480900 1.373500
4.507300 1.414500
4.533700 1.456200
4.560100 1.461600
4.586500 1.475400
4.612900 1.489400
4.639300 1.501900
4.665700 1.519200
4.692100 1.526900
4.718500 1.516600
4.745000 1.501900
4.771400 1.489000
4.797800 1.482200
4.824200 1.477200
4.850600 1.475300
4.877000 1.471100
4.903400 1.464600
4.929800 1.459800
4.956200 1.468600
4.982600 1.464000
5.009100 1.466800
5.035500 1.472900
5.061900 1.477100
5.088300 1.478000
5.114700 1.482100
5.141100 1.481100
5.167500 1.470300
5.193900 1.455400
5.220300 1.444300
5.246700 1.436300
5.273100 1.426800
5.299600 1.413100
5.326000 1.405000
5.352400 1.403600
5.378800 1.409600
5.405200 1.430900
5.431600 1.459600
5.458000 1.472700
5.484400 1.482000
5.510800 1.486400
5.537200 1.484500
5.563700 1.451900
5.590100 1.438600
5.616500 1.433800
5.642900 1.445400
5.669300 1.452000
5.695700 1.438400
5.722100 1.396000
5.748500 1.358200
5.774900 1.325800
5.801300 1.277800
5.827800 1.239200
5.854200 1.206900
5.880600 1.181400
5.907000 1.140100
5.933400 1.097200
5.959800 1.062000
5.986200 1.034500
6.012600 1.006900
6.039000 0.973200
6.065400 0.934500
6.091800 0.895800
6.118300 0.860700
6.144700 0.838300
6.171100 0.829700
6.197500 0.826900
6.223900 0.823600
6.250300 0.817400
6.276700 0.808400
6.303100 0.797800
6.329500 0.788000
6.355900 0.783900
6.382400 0.793400
6.408800 0.807800
6.435200 0.821700
6.461600 0.848700
6.488000 0.862700
6.514400 0.873900
6.540800 0.888100
6.567200 0.909400
6.593600 0.917000
6.620000 0.938400
6.646400 0.964900
6.672900 0.989500
6.699300 1.012500
6.725700 1.034900
6.752100 1.056000
6.778500 1.071400
6.804900 1.107200
6.831300 1.184400
6.857700 1.227300
6.884100 1.246500
6.910500 1.268700
6.937000 1.287700
6.963400 1.308700
6.989800 1.326600
7.016200 1.327400
7.042600 1.310300
7.069000 1.291100
7.095400 1.278800
7.121800 1.262000
7.148200 1.250400
7.174600 1.243200
7.201100 1.236500
7.227500 1.220300
7.253900 1.182700
7.280300 1.154900
7.306700 1.133800
7.333100 1.111700
7.359500 1.093500
7.385900 1.081700
7.412300 1.075200
7.438700 1.077500
7.465100 1.040900
7.491600 1.015400
7.518000 0.989100
7.544400 0.957900
7.570800 0.924900
7.597200 0.894300
7.623600 0.875200
7.650000 0.874900
7.676400 0.847100
7.702800 0.818800
7.729200 0.805400
7.755700 0.799300
7.782100 0.799400
7.808500 0.802100
7.834900 0.807000
7.861300 0.813600
7.887700 0.818100
7.914100 0.819500
7.940500 0.821900
7.966900 0.823300
7.993300 0.824000
8.019700 0.826400
8.046200 0.834000
8.072600 0.845900
8.099000 0.867600
8.125400 0.892500
8.151800 0.919100
8.178200 0.940700
8.204600 0.958900
8.231000 0.980500
8.257400 0.995700
8.283800 0.992300
8.310300 0.992600
8.336700 1.000500
8.363100 1.010000
8.389500 1.019500
8.415900 1.031100
8.442300 1.037900
8.468700 1.044600
8.495100 1.053200
8.521500 1.062800
8.547900 1.072700
8.574400 1.084400
8.600800 1.096300
8.627200 1.106800
8.653600 1.116400
8.680000 1.125400
8.706400 1.133700
8.732800 1.141600
8.759200 1.149800
8.785600 1.158300
8.812000 1.177300
8.838400 1.207600
8.864900 1.213300
8.891300 1.165000
8.917700 1.148800
8.944100 1.135900
8.970500 1.138300
8.996900 1.147900
9.023300 1.162600
9.049700 1.171600
9.076100 1.198200
9.102500 1.191200
9.129000 1.198400
9.155400 1.205900
9.181800 1.282300
9.208200 1.271100
9.234600 1.297800
9.261000 1.331000
9.287400 1.312200
9.313800 1.315500
9.340200 1.312500
9.366600 1.306200
9.393100 1.302800
9.419500 1.305000
9.445900 1.313400
9.472300 1.320800
9.498700 1.330700
9.525100 1.344400
9.551500 1.361300
9.577900 1.389400
9.604300 1.425100
9.630700 1.424200
9.657100 1.400700
9.683600 1.375400
9.710000 1.369900
9.736400 1.378400
9.762800 1.389300
9.789200 1.403300
9.815600 1.419600
9.842000 1.438200
9.868400 1.456700
9.894800 1.476600
9.921200 1.501600
9.947700 1.530800
9.974100 1.567700
10.000500 1.621400
10.026900 1.642400
10.053300 1.672100
10.079700 1.713600
10.106100 1.745000
10.132500 1.779500
10.158900 1.792300
10.185300 1.792300
10.211700 1.802100
10.238200 1.805800
10.264600 1.817800
10.291000 1.833800
10.317400 1.809000
10.343800 1.798000
10.370200 1.788800
10.396600 1.768900
10.423000 1.781400
10.449400 1.800000
10.475800 1.841600
10.502300 1.848400
10.528700 1.839400
10.555100 1.823300
10.581500 1.802500
10.607900 1.790500
10.634300 1.795900
10.660700 1.799400
10.687100 1.773400
10.713500 1.658300
10.739900 1.620600
10.766400 1.583200
10.792800 1.547100
10.819200 1.518700
10.845600 1.500100
10.872000 1.478800
10.898400 1.459100
10.924800 1.451900
10.951200 1.404700
10.977600 1.391200
11.004000 1.390700
11.030400 1.372700
11.056900 1.358100
11.083300 1.348500
11.109700 1.327700
11.136100 1.297000
11.162500 1.268300
11.188900 1.246500
11.215300 1.235800
11.241700 1.223700
11.268100 1.199900
11.294500 1.171000
11.321000 1.123100
11.347400 1.094900
11.373800 1.078200
11.400200 1.031900
11.426600 1.032000
11.453000 1.036700
11.479400 1.059000
11.505800 1.091400
11.532200 1.110400
11.558600 1.151000
11.585100 1.162300
11.611500 1.206200
11.637900 1.237500
11.664300 1.267200
11.690700 1.282700
11.717100 1.265200
11.743500 1.261000
11.769900 1.283800
11.796300 1.318400
11.822700 1.370600
11.849100 1.415800
11.875600 1.518300
11.902000 1.562800
11.928400 1.569100
11.954800 1.596000
11.981200 1.606200
12.007600 1.602800
12.034000 1.548100
12.060400 1.514400
12.086800 1.533800
12.113200 1.459400
12.139700 1.385400
12.166100 1.345700
12.192500 1.308100
12.218900 1.278400
12.245300 1.256500
12.271700 1.235000
12.298100 1.216100
12.324500 1.199400
12.350900 1.199100
12.377300 1.243100
12.403700 1.219500
12.430200 1.233900
12.456600 1.250200
12.483000 1.264800
12.509400 1.256500
12.535800 1.332400
12.562200 1.395000
12.588600 1.416200
12.615000 1.437400
12.641400 1.460700
12.667800 1.499800
12.694300 1.488200
12.720700 1.443900
12.747100 1.391200
12.773500 1.339800
12.799900 1.320700
12.826300 1.312800
12.852700 1.312500
12.879100 1.318300
12.905500 1.314300
12.931900 1.307100
12.958400 1.295000
12.984800 1.294500
13.011200 1.295900
13.037600 1.304500
13.064000 1.317700
13.090400 1.332100
13.116800 1.346700
13.143200 1.361600
13.169600 1.373100
13.196000 1.368800
13.222400 1.356300
13.248900 1.332200
13.275300 1.317000
13.301700 1.304500
13.328100 1.297800
13.354500 1.286200
13.380900 1.238600
13.407300 1.202900
13.433700 1.181600
13.460100 1.164400
13.486500 1.137800
13.513000 1.108000
13.539400 1.107900
13.565800 1.140000
13.592200 1.123200
13.618600 1.101900
13.645000 1.094800
13.671400 1.093700
13.697800 1.093300
13.724200 1.105300
13.750600 1.083500
13.777100 1.030400
13.803500 1.018400
13.829900 1.010100
13.856300 1.010600
13.882700 1.019400
13.909100 1.028700
13.935500 1.028100
13.961900 1.016400
13.988300 1.005600
14.014700 0.999500
14.041100 0.993500
14.067600 0.990200
14.094000 0.990200
14.120400 0.992000
14.146800 1.015500
14.173200 0.987800
14.199600 0.996900
14.226000 1.007800
14.252400 1.024900
14.278800 1.043600
14.305200 1.062700
14.331700 1.073200
14.358100 1.073800
14.384500 1.082200
14.410900 1.301400
14.437300 1.092500
14.463700 1.121800
14.490100 1.156900
14.516500 1.189300
14.542900 1.230700
14.569300 1.271800
14.595700 1.301500
14.622200 1.322800
14.648600 1.347500
14.675000 1.386400
14.701400 1.430600
14.727800 1.467500
14.754200 1.501700
14.780600 1.528700
14.807000 1.543100
14.833400 1.543100
14.859800 1.552700
14.886300 1.519000
14.912700 1.525300
14.939100 1.527300
14.965500 1.518000
14.991900 1.507800
15.018300 1.497400
15.044700 1.500100
15.071100 1.494400
15.097500 1.480300
15.123900 1.474900
15.150400 1.490500
15.176800 1.510800
15.203200 1.527200
15.229600 1.530300
15.256000 1.537400
15.282400 1.552400
15.308800 1.568400
15.335200 1.591700
15.361600 1.609400
15.388000 1.618800
15.414400 1.623700
15.440900 1.630000
15.467300 1.636800
15.493700 1.639900
15.520100 1.642200
15.546500 1.647900
15.572900 1.655000
15.599300 1.664700
15.625700 1.700900
15.652100 1.737000
15.678500 1.741800
15.705000 1.779900
15.731400 1.797100
15.757800 1.808800
15.784200 1.822800
15.810600 1.837100
15.837000 1.845700
15.863400 1.838500
15.889800 1.820800
15.916200 1.813200
15.942600 1.801800
15.969100 1.811300
15.995500 1.799800
16.021900 1.812800
16.048300 1.856500
16.074700 1.841300
16.101100 1.804800
16.127500 1.758800
16.153900 1.775900
16.180300 1.791200
16.206700 1.838700
16.233100 1.893700
16.259600 2.149100
16.286000 2.143900
16.312400 2.096100
16.338800 2.051100
16.365200 1.971600
16.391600 1.944300
16.418000 1.917600
16.444400 1.897900
16.470800 1.922500
16.497200 1.961700
16.523700 1.990000
16.550100 2.062600
16.576500 2.060500
16.602900 2.138800
16.629300 2.209600
16.655700 2.279600
16.682100 2.356400
16.708500 2.423000
16.734900 2.417300
16.761300 2.351200
16.787700 2.361600
16.814200 2.426900
16.840600 2.433300
16.867000 2.383000
16.893400 2.316400
16.919800 2.245900
16.946200 2.215100
16.972600 2.193800
16.999000 2.155700
17.025400 2.131700
17.051800 2.103900
17.078300 2.095500
17.104700 2.076800
17.131100 2.067600
17.157500 2.025600
17.183900 1.924500
17.210300 1.867500
17.236700 1.822800
17.263100 1.791000
17.289500 1.768200
17.315900 1.771300
17.342400 1.736100
17.368800 1.722100
17.395200 1.705300
17.421600 1.699100
17.448000 1.683900
17.474400 1.669200
17.500800 1.656500
17.527200 1.645300
17.553600 1.636900
17.580000 1.632300
17.606400 1.628000
17.632900 1.613200
17.659300 1.602100
17.685700 1.676400
17.712100 1.635200
17.738500 1.655600
17.764900 1.683500
17.791300 1.710000
17.817700 1.741200
17.844100 1.808400
17.870500 1.853900
17.897000 1.885500
17.923400 1.917900
17.949800 1.980500
17.976200 2.019100
18.002600 2.060000
18.029000 2.124200
18.055400 2.142300
18.081800 2.146500
18.108200 2.134500
18.134600 2.147700
18.161000 2.157900
18.187500 2.137900
18.213900 2.138400
18.240300 2.113800
18.266700 2.075100
18.293100 2.049400
18.319500 2.033300
18.345900 2.027400
18.372300 2.034000
18.398700 2.048300
18.425100 2.076700
18.451600 2.148700
18.478000 2.197000
18.504400 2.251100
18.530800 2.314700
18.557200 2.353900
18.583600 2.306100
18.610000 2.323100
18.636400 2.340600
18.662800 2.336700
18.689200 2.341800
18.715700 2.344900
18.742100 2.300900
18.768500 2.264500
18.794900 2.238600
18.821300 2.195500
18.847700 2.180800
18.874100 2.128400
18.900500 2.072100
18.926900 2.034300
18.953300 2.012700
18.979700 1.996000
19.006200 1.983000
19.032600 1.978100
19.059000 2.003200
19.085400 2.012100
19.111800 2.008300
19.138200 2.007400
19.164600 2.011000
19.191000 2.005500
19.217400 2.011900
19.243800 2.013600
19.270300 2.018600
19.296700 2.042500
19.323100 2.069400
19.349500 2.090800
19.375900 2.129700
19.402300 2.098100
19.428700 2.083200
19.455100 2.093300
19.481500 2.084700
19.507900 2.084200
19.534400 2.088300
19.560800 2.097400
19.587200 2.102000
19.613600 2.110900
19.640000 2.126200
19.666400 2.163500
19.692800 2.200900
19.719200 2.227000
19.745600 2.260900
19.772000 2.302200
19.798400 2.362300
19.824900 2.448300
19.851300 2.484100
19.877700 2.522600
19.904100 2.590800
19.930500 2.560600
19.956900 2.550600
19.983300 2.510900
20.009700 2.509500
20.036100 2.507500
20.062500 2.491800
20.089000 2.464100
20.115400 2.442200
20.141800 2.417400
20.168200 2.417800
20.194600 2.393500
