set title 'mp-1079828 - Density of States'
set xlabel 'Energy (eV)'
set ylabel 'DOS (states/eV)'
set grid
set xrange [-10:10]
set yrange [0:10.303]
set xzeroaxis lt -1
set terminal png size 800,600
set output 'mp-1079828_dos_gnuplot.png'
plot '-' using 1:2 with lines title 'DOS'
-13.531100 0.000000
-13.506600 0.000000
-13.482000 0.000000
-13.457400 0.000000
-13.432900 0.000000
-13.408300 0.000000
-13.383700 0.000000
-13.359200 0.000000
-13.334600 0.000000
-13.310100 0.000000
-13.285500 0.000000
-13.260900 0.000000
-13.236400 0.000000
-13.211800 0.000000
-13.187300 0.000000
-13.162700 0.000000
-13.138100 0.000000
-13.113600 0.000000
-13.089000 0.000000
-13.064400 0.000000
-13.039900 0.000000
-13.015300 0.000000
-12.990800 0.000000
-12.966200 0.000000
-12.941600 0.000000
-12.917100 0.000000
-12.892500 0.000000
-12.867900 0.000000
-12.843400 0.000000
-12.818800 0.000000
-12.794300 0.000000
-12.769700 0.000000
-12.745100 0.000000
-12.720600 0.000000
-12.696000 0.000000
-12.671500 0.000000
-12.646900 0.000000
-12.622300 0.000000
-12.597800 0.000000
-12.573200 0.000000
-12.548600 0.000000
-12.524100 0.000000
-12.499500 0.000000
-12.475000 0.000000
-12.450400 0.000000
-12.425800 0.000000
-12.401300 0.000000
-12.376700 0.000000
-12.352200 0.000000
-12.327600 0.000000
-12.303000 0.000000
-12.278500 0.000000
-12.253900 0.000000
-12.229300 0.000000
-12.204800 0.000000
-12.180200 0.000000
-12.155700 0.000000
-12.131100 0.000000
-12.106500 0.000000
-12.082000 0.000000
-12.057400 0.000000
-12.032800 0.000000
-12.008300 0.000000
-11.983700 0.000000
-11.959200 0.000000
-11.934600 0.000000
-11.910000 0.000000
-11.885500 0.000000
-11.860900 0.000000
-11.836400 0.000000
-11.811800 0.000000
-11.787200 0.000000
-11.762700 0.000000
-11.738100 0.000000
-11.713500 0.000000
-11.689000 0.000000
-11.664400 0.000000
-11.639900 0.000000
-11.615300 0.000000
-11.590700 0.000000
-11.566200 0.000000
-11.541600 0.000000
-11.517000 0.000000
-11.492500 0.000000
-11.467900 0.000000
-11.443400 0.000000
-11.418800 0.000000
-11.394200 0.000000
-11.369700 0.000000
-11.345100 0.000000
-11.320600 0.000000
-11.296000 0.000600
-11.271400 0.081000
-11.246900 0.237200
-11.222300 0.338400
-11.197700 0.385200
-11.173200 0.435600
-11.148600 0.493700
-11.124100 0.560100
-11.099500 0.623000
-11.074900 0.678800
-11.050400 0.725600
-11.025800 0.770200
-11.001300 0.821900
-10.976700 0.881300
-10.952100 0.950900
-10.927600 1.024900
-10.903000 1.107400
-10.878400 1.250000
-10.853900 1.385400
-10.829300 1.384000
-10.804800 1.358400
-10.780200 1.382700
-10.755600 1.398500
-10.731100 1.397600
-10.706500 1.391500
-10.681900 1.386600
-10.657400 1.392200
-10.632800 1.405800
-10.608300 1.418000
-10.583700 1.426900
-10.559100 1.431700
-10.534600 1.439900
-10.510000 1.453600
-10.485500 1.467100
-10.460900 1.478500
-10.436300 1.489000
-10.411800 1.491300
-10.387200 1.467300
-10.362600 1.458900
-10.338100 1.453300
-10.313500 1.443300
-10.289000 1.435300
-10.264400 1.429500
-10.239800 1.425400
-10.215300 1.420300
-10.190700 1.416900
-10.166100 1.413700
-10.141600 1.425900
-10.117000 1.462200
-10.092500 1.478000
-10.067900 1.494200
-10.043300 1.511200
-10.018800 1.525400
-9.994200 1.538000
-9.969700 1.554700
-9.945100 1.572700
-9.920500 1.586100
-9.896000 1.598000
-9.871400 1.608900
-9.846800 1.626500
-9.822300 1.855200
-9.797700 1.873200
-9.773200 1.854600
-9.748600 1.870000
-9.724000 1.882900
-9.699500 1.942300
-9.674900 2.064800
-9.650300 1.783900
-9.625800 1.737600
-9.601200 1.685900
-9.576700 1.614600
-9.552100 1.600200
-9.527500 1.597900
-9.503000 1.618100
-9.478400 1.643800
-9.453900 1.641200
-9.429300 1.638600
-9.404700 1.634100
-9.380200 1.671300
-9.355600 2.202300
-9.331000 2.809000
-9.306500 3.913200
-9.281900 3.747800
-9.257400 1.779400
-9.232800 1.676600
-9.208200 1.622900
-9.183700 1.569200
-9.159100 1.515600
-9.134600 1.462100
-9.110000 1.408900
-9.085400 1.355900
-9.060900 1.308200
-9.036300 1.296000
-9.011700 1.334900
-8.987200 1.314500
-8.962600 1.213000
-8.938100 1.109300
-8.913500 1.056200
-8.888900 1.057300
-8.864400 1.037200
-8.839800 1.012100
-8.815200 0.989800
-8.790700 0.983400
-8.766100 0.978300
-8.741600 0.976400
-8.717000 0.982300
-8.692400 0.976400
-8.667900 0.965300
-8.643300 0.958200
-8.618800 0.976400
-8.594200 1.002500
-8.569600 0.995400
-8.545100 0.955200
-8.520500 0.908500
-8.495900 0.861700
-8.471400 0.798100
-8.446800 0.713200
-8.422300 0.658900
-8.397700 0.605300
-8.373100 0.549000
-8.348600 0.486700
-8.324000 0.410900
-8.299400 0.348700
-8.274900 0.302200
-8.250300 0.258200
-8.225800 0.216300
-8.201200 0.176400
-8.176600 0.138400
-8.152100 0.100700
-8.127500 0.063000
-8.103000 0.031100
-8.078400 0.007700
-8.053800 0.002300
-8.029300 0.022800
-8.004700 0.054700
-7.980100 0.094800
-7.955600 0.135000
-7.931000 0.175100
-7.906500 0.215300
-7.881900 0.255400
-7.857300 0.295500
-7.832800 0.337000
-7.808200 0.385200
-7.783600 0.442000
-7.759100 0.512800
-7.734500 1.001600
-7.710000 1.015700
-7.685400 1.222200
-7.660800 1.527400
-7.636300 1.797900
-7.611700 2.017200
-7.587200 2.190300
-7.562600 2.354400
-7.538000 2.505100
-7.513500 2.501200
-7.488900 2.426700
-7.464300 2.433100
-7.439800 2.446200
-7.415200 2.446300
-7.390700 2.442700
-7.366100 2.509000
-7.341500 2.583400
-7.317000 2.398100
-7.292400 2.199200
-7.267900 2.061600
-7.243300 1.995000
-7.218700 1.931400
-7.194200 1.912200
-7.169600 1.872300
-7.145000 1.844000
-7.120500 1.797200
-7.095900 1.717500
-7.071400 1.420100
-7.046800 1.237800
-7.022200 1.229800
-6.997700 1.226000
-6.973100 1.224600
-6.948500 1.223700
-6.924000 1.224000
-6.899400 1.223000
-6.874900 1.222100
-6.850300 1.221700
-6.825700 1.221600
-6.801200 1.221700
-6.776600 1.270100
-6.752100 1.297500
-6.727500 1.325800
-6.702900 1.407300
-6.678400 1.429500
-6.653800 1.451900
-6.629200 1.377000
-6.604700 1.163600
-6.580100 1.154000
-6.555600 1.144500
-6.531000 1.135000
-6.506400 1.125500
-6.481900 1.115200
-6.457300 1.104300
-6.432700 1.092500
-6.408200 1.080200
-6.383600 1.067500
-6.359100 1.054500
-6.334500 1.041100
-6.309900 1.027100
-6.285400 1.013600
-6.260800 1.002700
-6.236300 0.993200
-6.211700 0.985400
-6.187100 0.977700
-6.162600 0.970200
-6.138000 0.963000
-6.113400 0.955900
-6.088900 0.954900
-6.064300 0.973100
-6.039800 1.010400
-6.015200 1.050400
-5.990600 1.078400
-5.966100 1.091600
-5.941500 1.096800
-5.916900 1.103400
-5.892400 1.112700
-5.867800 1.123000
-5.843300 1.136800
-5.818700 1.152800
-5.794100 1.167100
-5.769600 1.181800
-5.745000 1.199800
-5.720500 1.222400
-5.695900 1.248300
-5.671300 1.279600
-5.646800 1.314500
-5.622200 1.352700
-5.597600 1.393800
-5.573100 1.439600
-5.548500 1.495600
-5.524000 1.551000
-5.499400 1.616000
-5.474800 1.665300
-5.450300 1.702200
-5.425700 1.740000
-5.401200 1.793400
-5.376600 1.715700
-5.352000 1.536100
-5.327500 1.457400
-5.302900 1.397300
-5.278300 1.288800
-5.253800 1.175600
-5.229200 1.110900
-5.204700 1.023700
-5.180100 0.939200
-5.155500 0.886400
-5.131000 0.952100
-5.106400 1.073000
-5.081800 1.204700
-5.057300 1.311400
-5.032700 1.341200
-5.008200 1.325600
-4.983600 1.312400
-4.959000 1.319000
-4.934500 1.388300
-4.909900 1.514800
-4.885400 1.628100
-4.860800 1.674500
-4.836200 1.752100
-4.811700 1.677400
-4.787100 1.687000
-4.762500 1.695400
-4.738000 1.722000
-4.713400 1.760700
-4.688900 1.813700
-4.664300 1.894100
-4.639700 1.928400
-4.615200 1.940100
-4.590600 1.969700
-4.566000 1.969500
-4.541500 1.956300
-4.516900 1.913800
-4.492400 1.851100
-4.467800 1.804200
-4.443200 1.755700
-4.418700 1.731900
-4.394100 1.711800
-4.369600 1.689600
-4.345000 1.690300
-4.320400 1.706500
-4.295900 1.712100
-4.271300 1.737200
-4.246700 1.674400
-4.222200 1.604000
-4.197600 1.458700
-4.173100 1.340700
-4.148500 1.270500
-4.123900 1.214000
-4.099400 1.161100
-4.074800 1.132900
-4.050200 1.106500
-4.025700 1.080900
-4.001100 1.081000
-3.976600 1.080600
-3.952000 1.079000
-3.927400 1.081800
-3.902900 1.090600
-3.878300 1.102500
-3.853800 1.126500
-3.829200 1.160600
-3.804600 1.193700
-3.780100 1.157900
-3.755500 1.138200
-3.730900 1.121700
-3.706400 1.114400
-3.681800 1.110200
-3.657300 1.108300
-3.632700 1.107400
-3.608100 1.115700
-3.583600 1.123500
-3.559000 1.133500
-3.534500 1.143300
-3.509900 1.153100
-3.485300 1.162500
-3.460800 1.171900
-3.436200 1.181300
-3.411600 1.186200
-3.387100 1.193200
-3.362500 1.203100
-3.338000 1.214700
-3.313400 1.227900
-3.288800 1.243200
-3.264300 1.260800
-3.239700 1.281600
-3.215100 1.302400
-3.190600 1.323300
-3.166000 1.345900
-3.141500 1.369000
-3.116900 1.393700
-3.092300 1.419100
-3.067800 1.447600
-3.043200 1.488300
-3.018700 1.561500
-2.994100 1.612000
-2.969500 1.619500
-2.945000 1.635100
-2.920400 1.641000
-2.895800 1.668200
-2.871300 1.674400
-2.846700 1.661600
-2.822200 1.671600
-2.797600 1.684200
-2.773000 1.698800
-2.748500 1.723600
-2.723900 1.724600
-2.699300 1.734500
-2.674800 1.750200
-2.650200 1.755300
-2.625700 1.750800
-2.601100 1.743800
-2.576500 1.737400
-2.552000 1.723500
-2.527400 1.690700
-2.502900 1.624700
-2.478300 1.552600
-2.453700 1.500200
-2.429200 1.465100
-2.404600 1.406600
-2.380000 1.337900
-2.355500 1.239400
-2.330900 1.140200
-2.306400 0.982200
-2.281800 0.823800
-2.257200 0.667900
-2.232700 0.548400
-2.208100 0.432700
-2.183500 0.323100
-2.159000 0.243700
-2.134400 0.177800
-2.109900 0.111700
-2.085300 0.045300
-2.060700 0.012500
-2.036200 0.045000
-2.011600 0.211900
-1.987100 0.487200
-1.962500 0.767000
-1.937900 1.103300
-1.913400 1.771300
-1.888800 2.164300
-1.864200 2.386300
-1.839700 2.589400
-1.815100 2.703900
-1.790600 2.843800
-1.766000 2.893700
-1.741400 2.844100
-1.716900 2.701400
-1.692300 2.631400
-1.667800 2.581500
-1.643200 2.573200
-1.618600 2.677200
-1.594100 2.686300
-1.569500 2.512100
-1.544900 2.405300
-1.520400 2.346200
-1.495800 2.306400
-1.471300 2.308500
-1.446700 2.375000
-1.422100 2.505200
-1.397600 2.608600
-1.373000 2.626300
-1.348400 2.625300
-1.323900 2.691100
-1.299300 2.787300
-1.274800 2.941400
-1.250200 2.967300
-1.225600 2.960600
-1.201100 2.942900
-1.176500 2.892700
-1.152000 2.866900
-1.127400 2.861500
-1.102800 2.976900
-1.078300 2.869900
-1.053700 2.745600
-1.029100 2.693800
-1.004600 2.613500
-0.980000 2.588000
-0.955500 2.603900
-0.930900 2.573000
-0.906300 2.478200
-0.881800 2.424100
-0.857200 2.391200
-0.832600 2.391400
-0.808100 2.375700
-0.783500 2.346400
-0.759000 2.587400
-0.734400 2.651600
-0.709800 2.825600
-0.685300 2.833300
-0.660700 2.801700
-0.636200 2.828800
-0.611600 3.178500
-0.587000 2.791900
-0.562500 2.774600
-0.537900 2.729300
-0.513300 2.570000
-0.488800 2.395800
-0.464200 2.355200
-0.439700 2.466400
-0.415100 2.323300
-0.390500 2.339200
-0.366000 2.317700
-0.341400 2.340000
-0.316800 2.408500
-0.292300 2.438600
-0.267700 2.529800
-0.243200 2.675400
-0.218600 3.136000
-0.194000 3.909200
-0.169500 4.275500
-0.144900 4.020400
-0.120400 3.846300
-0.095800 3.622700
-0.071200 3.535600
-0.046700 3.437000
-0.022100 3.347900
0.002500 3.292500
0.027000 3.269600
0.051600 3.256400
0.076100 3.224800
0.100700 3.236400
0.125300 3.294900
0.149800 3.469400
0.174400 3.739900
0.198900 4.023700
0.223500 3.951400
0.248100 4.032400
0.272600 3.374500
0.297200 3.094100
0.321800 2.961000
0.346300 3.184000
0.370900 3.464500
0.395400 3.479500
0.420000 3.401000
0.444600 3.277200
0.469100 3.175000
0.493700 3.126600
0.518300 3.136900
0.542800 3.173400
0.567400 3.345700
0.591900 3.364000
0.616500 3.303000
0.641100 3.058800
0.665600 3.019600
0.690200 2.683300
0.714700 2.115300
0.739300 1.822500
0.763900 1.613600
0.788400 1.542400
0.813000 1.559900
0.837600 1.614700
0.862100 1.716700
0.886700 1.922100
0.911200 2.210100
0.935800 2.534100
0.960400 2.612000
0.984900 2.635000
1.009500 2.759000
1.034100 2.936700
1.058600 3.165800
1.083200 3.138100
1.107700 3.060900
1.132300 3.088200
1.156900 3.198400
1.181400 3.368600
1.206000 3.799300
1.230500 4.278700
1.255100 4.564600
1.279700 4.775300
1.304200 4.749500
1.328800 4.678000
1.353400 4.675800
1.377900 4.577400
1.402500 4.609300
1.427000 4.371800
1.451600 4.260700
1.476200 4.285500
1.500700 4.337000
1.525300 4.334900
1.549800 4.329000
1.574400 4.196000
1.599000 4.022200
1.623500 4.170200
1.648100 4.184100
1.672700 4.308100
1.697200 4.404400
1.721800 4.493000
1.746300 4.719300
1.770900 4.952400
1.795500 4.885900
1.820000 4.637800
1.844600 4.503300
1.869200 4.408100
1.893700 4.327500
1.918300 4.055500
1.942800 3.919000
1.967400 3.941300
1.992000 3.866200
2.016500 3.785500
2.041100 3.735400
2.065600 3.859200
2.090200 3.880700
2.114800 3.871300
2.139300 3.964700
2.163900 3.980200
2.188500 3.990400
2.213000 3.963000
2.237600 4.002900
2.262100 4.117000
2.286700 4.050600
2.311300 3.933000
2.335800 3.844600
2.360400 3.879800
2.385000 3.761700
2.409500 3.605600
2.434100 3.504600
2.458600 3.478300
2.483200 3.472100
2.507800 3.434100
2.532300 3.420200
2.556900 3.534800
2.581400 3.455500
2.606000 3.255400
2.630600 3.208100
2.655100 3.226800
2.679700 3.316900
2.704300 3.416800
2.728800 3.341200
2.753400 3.418700
2.777900 3.488600
2.802500 3.407400
2.827100 3.392200
2.851600 3.364300
2.876200 3.357500
2.900800 3.486500
2.925300 3.631000
2.949900 3.734600
2.974400 3.857900
2.999000 3.872500
3.023600 4.121300
3.048100 4.488200
3.072700 4.441500
3.097200 4.305200
3.121800 4.310100
3.146400 4.269500
3.170900 3.991000
3.195500 4.004600
3.220100 3.766500
3.244600 3.586800
3.269200 3.621700
3.293700 3.459000
3.318300 3.241400
3.342900 3.168000
3.367400 3.123100
3.392000 3.275600
3.416500 3.406400
3.441100 3.627500
3.465700 3.998800
3.490200 4.469000
3.514800 5.105100
3.539400 5.842600
3.563900 5.603900
3.588500 5.288500
3.613000 5.316700
3.637600 5.315000
3.662200 5.100100
3.686700 5.085000
3.711300 4.934000
3.735900 4.519900
3.760400 4.186400
3.785000 3.772400
3.809500 3.559900
3.834100 3.369600
3.858700 3.172100
3.883200 2.982500
3.907800 2.838900
3.932300 2.877500
3.956900 2.792400
3.981500 2.702600
4.006000 2.426100
4.030600 2.241000
4.055200 2.138200
4.079700 2.115400
4.104300 2.036400
4.128800 2.371900
4.153400 2.864400
4.178000 3.210100
4.202500 3.446700
4.227100 3.797700
4.251700 4.587700
4.276200 5.297200
4.300800 5.738700
4.325300 6.266100
4.349900 5.714300
4.374500 4.729000
4.399000 3.971600
4.423600 3.654900
4.448100 3.413200
4.472700 3.528500
4.497300 3.660500
4.521800 4.266000
4.546400 4.913900
4.571000 5.900600
4.595500 6.914000
4.620100 6.369000
4.644600 6.844700
4.669200 7.682300
4.693800 8.693700
4.718300 8.137600
4.742900 7.057600
4.767500 6.238700
4.792000 5.726400
4.816600 5.403200
4.841100 5.254100
4.865700 5.514400
4.890300 5.279800
4.914800 5.116500
4.939400 5.013600
4.963900 4.808300
4.988500 4.894000
5.013100 5.070700
5.037600 5.258700
5.062200 5.193600
5.086800 4.880700
5.111300 4.605400
5.135900 4.365900
5.160400 4.247100
5.185000 4.169700
5.209600 4.251300
5.234100 4.321400
5.258700 4.572700
5.283200 4.930100
5.307800 5.317700
5.332400 5.837600
5.356900 5.965000
5.381500 6.330900
5.406100 6.690200
5.430600 6.892300
5.455200 6.951600
5.479700 6.810000
5.504300 6.569500
5.528900 6.026100
5.553400 5.898100
5.578000 5.893600
5.602600 6.077800
5.627100 5.537600
5.651700 5.449600
5.676200 5.543800
5.700800 5.646700
5.725400 5.925400
5.749900 5.922400
5.774500 5.864200
5.799000 5.772000
5.823600 5.748100
5.848200 5.616300
5.872700 5.751400
5.897300 5.468600
5.921900 5.141900
5.946400 5.173200
5.971000 5.038100
5.995500 5.258200
6.020100 5.892400
6.044700 7.005200
6.069200 8.274800
6.093800 8.429700
6.118400 8.258400
6.142900 8.940800
6.167500 9.019900
6.192000 9.209100
6.216600 8.483700
6.241200 7.275200
6.265700 6.690200
6.290300 7.253600
6.314800 8.498600
6.339400 9.366500
6.364000 8.224200
6.388500 8.123200
6.413100 6.664800
6.437700 6.616100
6.462200 5.399900
6.486800 5.207100
6.511300 5.015500
6.535900 5.041600
6.560500 5.384500
6.585000 5.629100
6.609600 5.397100
6.634200 5.448200
6.658700 5.670100
6.683300 5.958200
6.707800 5.367700
6.732400 4.551800
6.757000 3.992300
6.781500 3.796200
6.806100 4.309400
6.830600 5.237300
6.855200 6.833700
6.879800 7.719200
6.904300 8.013200
6.928900 6.618900
6.953500 6.284200
6.978000 5.927600
7.002600 5.519500
7.027100 5.286200
7.051700 5.474600
7.076300 5.618500
7.100800 5.982100
7.125400 5.844900
7.149900 6.682700
7.174500 6.418800
7.199100 6.021500
7.223600 5.488400
7.248200 4.959500
7.272800 4.424400
7.297300 4.016900
7.321900 3.835300
7.346400 3.716400
7.371000 3.546000
7.395600 3.461600
7.420100 3.370500
7.444700 3.347900
7.469300 3.374900
7.493800 3.481400
7.518400 3.648000
7.542900 3.867100
7.567500 4.159200
7.592100 4.135700
7.616600 4.159900
7.641200 4.298800
7.665700 4.386800
7.690300 4.236800
7.714900 4.025600
7.739400 3.991000
7.764000 3.969600
7.788600 3.830100
7.813100 3.857200
7.837700 3.980800
7.862200 4.107500
7.886800 4.124700
7.911400 4.111700
7.935900 3.975500
7.960500 3.800400
7.985100 3.679500
8.009600 3.460000
8.034200 3.218900
8.058700 3.113900
8.083300 3.079900
8.107900 3.068000
8.132400 3.068300
8.157000 3.119700
8.181500 3.262900
8.206100 3.355400
8.230700 3.415000
8.255200 3.188600
8.279800 3.036600
8.304400 2.929900
8.328900 2.711100
8.353500 2.443900
8.378000 2.275000
8.402600 2.203200
8.427200 2.156800
8.451700 2.132700
8.476300 2.182800
8.500900 2.435200
8.525400 2.039200
8.550000 1.863200
8.574500 1.814300
8.599100 1.774300
8.623700 1.711700
8.648200 1.663300
8.672800 1.616400
8.697300 1.577000
8.721900 1.551700
8.746500 1.527500
8.771000 1.496800
8.795600 1.472500
8.820200 1.468200
8.844700 1.445300
8.869300 1.338500
8.893800 1.297500
8.918400 1.258500
8.943000 1.214400
8.967500 1.157100
8.992100 1.109000
9.016600 1.061700
9.041200 1.010800
9.065800 0.994300
9.090300 0.956400
9.114900 0.918200
9.139500 0.881100
9.164000 0.848400
9.188600 0.831600
9.213100 0.828100
9.237700 0.790700
9.262300 0.767000
9.286800 0.746100
9.311400 0.723000
9.336000 0.691300
9.360500 0.658300
9.385100 0.625400
9.409600 0.592900
9.434200 0.563100
9.458800 0.527200
9.483300 0.736000
9.507900 0.652700
9.532400 0.725100
9.557000 0.792700
9.581600 0.925600
9.606100 1.013900
9.630700 1.097700
9.655300 1.077600
9.679800 1.009500
9.704400 0.990000
9.728900 1.003500
9.753500 1.020400
9.778100 1.035000
9.802600 1.065200
9.827200 1.110600
9.851800 1.272200
9.876300 1.252700
9.900900 1.293100
9.925400 1.286200
9.950000 1.283500
9.974600 1.258500
9.999100 1.246300
10.023700 1.241100
10.048200 1.240700
10.072800 1.244800
10.097400 1.263900
10.121900 1.265800
10.146500 1.265900
10.171100 1.274500
10.195600 1.286800
10.220200 1.304600
10.244700 1.327200
10.269300 1.347400
10.293900 1.370400
10.318400 1.414500
10.343000 1.448800
10.367600 1.439800
10.392100 1.395400
10.416700 1.378800
10.441200 1.366700
10.465800 1.357400
10.490400 1.347400
10.514900 1.336000
10.539500 1.325800
10.564000 1.318000
10.588600 1.307100
10.613200 1.296900
10.637700 1.291000
10.662300 1.288300
10.686900 1.291400
10.711400 1.297500
10.736000 1.304000
10.760500 1.311800
10.785100 1.318200
10.809700 1.325900
10.834200 1.334800
10.858800 1.344900
10.883300 1.356200
10.907900 1.369600
10.932500 1.383800
10.957000 1.397300
10.981600 1.414900
11.006200 1.437700
11.030700 1.466400
11.055300 1.497700
11.079800 1.529100
11.104400 1.565800
11.129000 1.596600
11.153500 1.621600
11.178100 1.645500
11.202700 1.666100
11.227200 1.684400
11.251800 1.708500
11.276300 1.736000
11.300900 1.767500
11.325500 1.806100
11.350000 1.848900
11.374600 1.907600
11.399100 1.983700
11.423700 2.073400
11.448300 2.198000
11.472800 2.363400
11.497400 2.523500
11.522000 2.717500
11.546500 2.912000
11.571100 3.024600
11.595600 3.071700
11.620200 3.123100
11.644800 3.190600
11.669300 3.234800
11.693900 3.043600
11.718500 2.966700
11.743000 3.041900
11.767600 2.864500
11.792100 2.788100
11.816700 2.744500
11.841300 2.407800
11.865800 2.162100
11.890400 2.041800
11.914900 1.936800
11.939500 1.834400
11.964100 1.745000
11.988600 1.666900
12.013200 1.602300
12.037800 1.535100
12.062300 1.469400
12.086900 1.414600
12.111400 1.371800
12.136000 1.299400
12.160600 1.228400
12.185100 1.163500
12.209700 1.128500
12.234300 1.139200
12.258800 1.166300
