set title 'mp-1056957 - Density of States'
set xlabel 'Energy (eV)'
set ylabel 'DOS (states/eV)'
set grid
set xrange [-10:10]
set yrange [0:0.918]
set xzeroaxis lt -1
set terminal png size 800,600
set output 'mp-1056957_dos_gnuplot.png'
plot '-' using 1:2 with lines title 'DOS'
-23.080300 0.000000
-22.986100 0.000000
-22.891800 0.000000
-22.797600 0.000000
-22.703400 0.000000
-22.609200 0.000000
-22.515000 0.000000
-22.420800 0.000000
-22.326500 0.000000
-22.232300 0.000000
-22.138100 0.000000
-22.043900 0.000000
-21.949700 0.000000
-21.855500 0.000000
-21.761200 0.000000
-21.667000 0.000000
-21.572800 0.000000
-21.478600 0.000000
-21.384400 0.000000
-21.290200 0.000000
-21.195900 0.000000
-21.101700 0.000000
-21.007500 0.000000
-20.913300 0.000000
-20.819100 0.000000
-20.724900 0.000000
-20.630600 0.000000
-20.536400 0.000000
-20.442200 0.000000
-20.348000 0.000000
-20.253800 0.000000
-20.159600 0.000000
-20.065300 0.000000
-19.971100 0.000000
-19.876900 0.000000
-19.782700 0.000000
-19.688500 0.000000
-19.594300 0.000000
-19.500000 0.000000
-19.405800 0.000000
-19.311600 0.000000
-19.217400 0.000000
-19.123200 0.000000
-19.029000 0.000000
-18.934700 0.000000
-18.840500 0.000000
-18.746300 0.000000
-18.652100 0.000000
-18.557900 0.000000
-18.463700 0.000000
-18.369400 0.000000
-18.275200 0.000000
-18.181000 0.000000
-18.086800 0.000000
-17.992600 0.000000
-17.898400 0.000000
-17.804100 0.000000
-17.709900 0.000000
-17.615700 0.000000
-17.521500 0.000000
-17.427300 0.000000
-17.333100 0.000000
-17.238800 0.000000
-17.144600 0.000000
-17.050400 0.000000
-16.956200 0.000000
-16.862000 0.000000
-16.767800 0.000000
-16.673500 0.000000
-16.579300 0.000000
-16.485100 0.000000
-16.390900 0.000000
-16.296700 0.000000
-16.202500 0.000000
-16.108200 0.000000
-16.014000 0.000000
-15.919800 0.000000
-15.825600 0.000000
-15.731400 0.000000
-15.637200 0.000000
-15.542900 0.000000
-15.448700 0.000000
-15.354500 0.000000
-15.260300 0.000000
-15.166100 0.000000
-15.071900 0.000000
-14.977600 0.000000
-14.883400 0.000000
-14.789200 0.000000
-14.695000 0.000000
-14.600800 0.000000
-14.506600 0.002000
-14.412300 0.085600
-14.318100 0.148900
-14.223900 0.171200
-14.129700 0.218600
-14.035500 0.295600
-13.941300 0.290400
-13.847000 0.283900
-13.752800 0.291100
-13.658600 0.290900
-13.564400 0.286400
-13.470200 0.288800
-13.375900 0.291200
-13.281700 0.290100
-13.187500 0.288900
-13.093300 0.289100
-12.999100 0.290300
-12.904900 0.290500
-12.810600 0.289900
-12.716400 0.291100
-12.622200 0.291000
-12.528000 0.291300
-12.433800 0.291300
-12.339600 0.290100
-12.245300 0.290600
-12.151100 0.292300
-12.056900 0.292700
-11.962700 0.292400
-11.868500 0.292700
-11.774300 0.292300
-11.680000 0.291300
-11.585800 0.291900
-11.491600 0.293200
-11.397400 0.294600
-11.303200 0.294500
-11.209000 0.294500
-11.114700 0.294300
-11.020500 0.293300
-10.926300 0.293200
-10.832100 0.293900
-10.737900 0.294900
-10.643700 0.296200
-10.549400 0.296800
-10.455200 0.296700
-10.361000 0.296700
-10.266800 0.296300
-10.172600 0.295700
-10.078400 0.296000
-9.984100 0.296700
-9.889900 0.297600
-9.795700 0.298700
-9.701500 0.299800
-9.607300 0.299900
-9.513100 0.300000
-9.418800 0.299800
-9.324600 0.299300
-9.230400 0.299600
-9.136200 0.300100
-9.042000 0.300900
-8.947800 0.301700
-8.853500 0.302700
-8.759300 0.303800
-8.665100 0.304300
-8.570900 0.304600
-8.476700 0.304800
-8.382500 0.304700
-8.288200 0.305200
-8.194000 0.305800
-8.099800 0.306600
-8.005600 0.307500
-7.911400 0.308500
-7.817200 0.309600
-7.722900 0.310700
-7.628700 0.311600
-7.534500 0.312500
-7.440300 0.313500
-7.346100 0.314500
-7.251900 0.315600
-7.157600 0.316800
-7.063400 0.318100
-6.969200 0.319300
-6.875000 0.320600
-6.780800 0.321800
-6.686600 0.323100
-6.592300 0.326100
-6.498100 0.329600
-6.403900 0.334400
-6.309700 0.338100
-6.215500 0.341300
-6.121300 0.344200
-6.027000 0.346900
-5.932800 0.349500
-5.838600 0.352000
-5.744400 0.354800
-5.650200 0.378400
-5.556000 0.416400
-5.461700 0.446400
-5.367500 0.469300
-5.273300 0.484800
-5.179100 0.420200
-5.084900 0.377300
-4.990700 0.349900
-4.896400 0.332900
-4.802200 0.315500
-4.708000 0.302700
-4.613800 0.292400
-4.519600 0.281900
-4.425400 0.271400
-4.331100 0.263600
-4.236900 0.256500
-4.142700 0.249200
-4.048500 0.241900
-3.954300 0.234600
-3.860100 0.229300
-3.765800 0.224400
-3.671600 0.219300
-3.577400 0.214000
-3.483200 0.208600
-3.389000 0.203400
-3.294800 0.199400
-3.200500 0.200800
-3.106300 0.226000
-3.012100 0.232200
-2.917900 0.239600
-2.823700 0.244700
-2.729500 0.249800
-2.635200 0.254300
-2.541000 0.256800
-2.446800 0.260600
-2.352600 0.267300
-2.258400 0.279600
-2.164200 0.277200
-2.069900 0.271700
-1.975700 0.270300
-1.881500 0.269400
-1.787300 0.268800
-1.693100 0.286200
-1.598900 0.290400
-1.504600 0.292300
-1.410400 0.306300
-1.316200 0.361400
-1.222000 0.434100
-1.127800 0.498300
-1.033600 0.544000
-0.939300 0.584500
-0.845100 0.592600
-0.750900 0.596400
-0.656700 0.601900
-0.562500 0.611500
-0.468300 0.612700
-0.374000 0.614400
-0.279800 0.617400
-0.185600 0.620800
-0.091400 0.624900
0.002800 0.630200
0.097000 0.635000
0.191300 0.639800
0.285500 0.641400
0.379700 0.642300
0.473900 0.641700
0.568100 0.643400
0.662300 0.647000
0.756600 0.651400
0.850800 0.655200
0.945000 0.659300
1.039200 0.664500
1.133400 0.671100
1.227600 0.678600
1.321900 0.685600
1.416100 0.693700
1.510300 0.703500
1.604500 0.716800
1.698700 0.731000
1.792900 0.742700
1.887200 0.834700
1.981400 0.745300
2.075600 0.745800
2.169800 0.822000
2.264000 0.755600
2.358200 0.743500
2.452500 0.769500
2.546700 0.832900
2.640900 0.765300
2.735100 0.717800
2.829300 0.705400
2.923600 0.694100
3.017800 0.683800
3.112000 0.686800
3.206200 0.702000
3.300400 0.696100
3.394600 0.661400
3.488900 0.662800
3.583100 0.635000
3.677300 0.612700
3.771500 0.597100
3.865700 0.576600
3.959900 0.565800
4.054200 0.556400
4.148400 0.549600
4.242600 0.535500
4.336800 0.535300
4.431000 0.523600
4.525200 0.501700
4.619500 0.492700
4.713700 0.493600
4.807900 0.492700
4.902100 0.495200
4.996300 0.509300
5.090500 0.549200
5.184800 0.616500
5.279000 0.617800
5.373200 0.604100
5.467400 0.613400
5.561600 0.614000
5.655800 0.626400
5.750100 0.604500
5.844300 0.579300
5.938500 0.573100
6.032700 0.564100
6.126900 0.562100
6.221100 0.556600
6.315400 0.568700
6.409600 0.588100
6.503800 0.610000
6.598000 0.636100
6.692200 0.649400
6.786400 0.654900
6.880700 0.673400
6.974900 0.690300
7.069100 0.694200
7.163300 0.693500
7.257500 0.713700
7.351700 0.644200
7.446000 0.603600
7.540200 0.563600
7.634400 0.540100
7.728600 0.520500
7.822800 0.507300
7.917000 0.494200
8.011300 0.481000
8.105500 0.470300
8.199700 0.462200
8.293900 0.451500
8.388100 0.440200
8.482300 0.431800
8.576600 0.426000
8.670800 0.420900
8.765000 0.415200
8.859200 0.408500
8.953400 0.400300
9.047600 0.391500
9.141900 0.384500
9.236100 0.378300
9.330300 0.372300
9.424500 0.367000
9.518700 0.361900
9.612900 0.356700
9.707200 0.352400
9.801400 0.348200
9.895600 0.344100
9.989800 0.340100
10.084000 0.331500
10.178200 0.337000
10.272500 0.346100
10.366700 0.357100
10.460900 0.364500
10.555100 0.367400
10.649300 0.369200
10.743500 0.370000
10.837800 0.369900
10.932000 0.370600
11.026200 0.372100
11.120400 0.374300
11.214600 0.381700
11.308800 0.404100
11.403100 0.407200
11.497300 0.395200
11.591500 0.384800
11.685700 0.378200
11.779900 0.370700
11.874100 0.363800
11.968400 0.357200
12.062600 0.353200
12.156800 0.345500
12.251000 0.334700
12.345200 0.320500
12.439400 0.309300
12.533700 0.298600
12.627900 0.306400
12.722100 0.295500
12.816300 0.287700
12.910500 0.278400
13.004700 0.272300
13.099000 0.265500
13.193200 0.267000
13.287400 0.456300
13.381600 0.459500
13.475800 0.280500
13.570000 0.141800
13.664300 0.292800
13.758500 0.466100
13.852700 0.511100
13.946900 0.497000
14.041100 0.447800
14.135300 0.407300
14.229600 0.423500
14.323800 0.454100
14.418000 0.480400
14.512200 0.544700
14.606400 0.515500
14.700600 0.529200
14.794900 0.545200
14.889100 0.568600
14.983300 0.584200
15.077500 0.577600
15.171700 0.605600
15.265900 0.647700
15.360200 0.675600
15.454400 0.664600
15.548600 0.633400
15.642800 0.608500
15.737000 0.602600
15.831200 0.600100
15.925500 0.595900
16.019700 0.590700
16.113900 0.591500
16.208100 0.587900
16.302300 0.595200
16.396500 0.595600
16.490800 0.595900
16.585000 0.598400
16.679200 0.596400
16.773400 0.586800
16.867600 0.576400
16.961800 0.573300
17.056100 0.569600
17.150300 0.567500
17.244500 0.586400
17.338700 0.614300
17.432900 0.637900
17.527100 0.651800
17.621400 0.671300
17.715600 0.678700
17.809800 0.677800
17.904000 0.672000
17.998200 0.667700
18.092400 0.681100
18.186700 0.684300
18.280900 0.707700
18.375100 0.737100
18.469300 0.766200
18.563500 0.778900
18.657700 0.783600
18.752000 0.801000
18.846200 0.827000
18.940400 0.808800
19.034600 0.777500
19.128800 0.855000
19.223100 0.868200
19.317300 0.841200
19.411500 0.887100
19.505700 0.857200
19.599900 0.859400
19.694100 0.906500
19.788400 1.003400
19.882600 0.944000
19.976800 0.932800
20.071000 0.935200
20.165200 0.986100
20.259400 0.967600
20.353700 0.923400
20.447900 0.898900
20.542100 0.881500
20.636300 0.884900
20.730500 0.931800
20.824700 0.935400
20.919000 0.884700
21.013200 0.935900
21.107400 1.002600
21.201600 1.086200
21.295800 1.468400
21.390000 1.152100
21.484300 1.170900
21.578500 1.171500
21.672700 1.249600
21.766900 1.175200
21.861100 1.176800
21.955300 1.116400
22.049600 1.069900
22.143800 1.045600
22.238000 1.018400
22.332200 0.984000
22.426400 0.953300
22.520600 0.920400
22.614900 0.889100
22.709100 0.855400
22.803300 0.833000
22.897500 0.819600
22.991700 0.809600
23.085900 0.800900
23.180200 0.806100
23.274400 0.816700
23.368600 0.818200
23.462800 0.818400
23.557000 0.823500
23.651200 0.828400
23.745500 0.825600
23.839700 0.806200
23.933900 0.774900
24.028100 0.731500
24.122300 0.680200
24.216500 0.625600
24.310800 0.601200
24.405000 0.572800
24.499200 0.559700
24.593400 0.577900
24.687600 0.601700
24.781800 0.599900
24.876100 0.587000
24.970300 0.572800
25.064500 0.560200
25.158700 0.550200
25.252900 0.529900
25.347100 0.408900
25.441400 0.419100
25.535600 0.442200
25.629800 0.469200
25.724000 0.486400
25.818200 0.524700
25.912400 0.524800
26.006700 0.525600
26.100900 0.522000
26.195100 0.521100
26.289300 0.520800
26.383500 0.514600
26.477700 0.514300
26.572000 0.513800
26.666200 0.511600
26.760400 0.518600
26.854600 0.518700
26.948800 0.520100
27.043000 0.522700
27.137300 0.518800
27.231500 0.513300
27.325700 0.501500
27.419900 0.496900
27.514100 0.496400
27.608300 0.498000
27.702600 0.518000
27.796800 0.529300
27.891000 0.519700
27.985200 0.494000
28.079400 0.475700
28.173600 0.467300
28.267900 0.459100
28.362100 0.451700
28.456300 0.450200
28.550500 0.454000
28.644700 0.438200
28.738900 0.432500
28.833200 0.432200
28.927400 0.441700
29.021600 0.460300
29.115800 0.473100
29.210000 0.479100
29.304200 0.468600
29.398500 0.468900
29.492700 0.493500
29.586900 0.491700
29.681100 0.484600
29.775300 0.499400
29.869500 0.506500
29.963800 0.518500
30.058000 0.539100
30.152200 0.560100
30.246400 0.593300
30.340600 0.608300
30.434800 0.650900
30.529100 0.689700
30.623300 0.739700
30.717500 0.761100
30.811700 0.788400
30.905900 0.818700
31.000100 0.838400
31.094400 0.836700
31.188600 0.824800
31.282800 0.883400
31.377000 0.829800
31.471200 0.828000
31.565400 0.819900
31.659700 0.801300
31.753900 0.791900
31.848100 0.779800
31.942300 0.749500
32.036500 0.745400
32.130700 0.737200
32.225000 0.712600
32.319200 0.715500
32.413400 0.724400
32.507600 0.698000
32.601800 0.663300
32.696000 0.670600
32.790300 0.646400
32.884500 0.635300
32.978700 0.665700
33.072900 0.614900
33.167100 0.585300
33.261300 0.576400
33.355600 0.554400
33.449800 0.528300
33.544000 0.537100
33.638200 0.551300
33.732400 0.585300
33.826600 0.609600
33.920900 0.628500
34.015100 0.651500
34.109300 0.666300
34.203500 0.662900
34.297700 0.645400
34.391900 0.647400
34.486200 0.648700
34.580400 0.652100
34.674600 0.658200
34.768800 0.672000
34.863000 0.684600
34.957200 0.695000
35.051500 0.708200
35.145700 0.718700
35.239900 0.739300
35.334100 0.756200
35.428300 0.749900
35.522600 0.744500
35.616800 0.746900
35.711000 0.756000
35.805200 0.746400
35.899400 0.724100
35.993600 0.689100
36.087900 0.666300
36.182100 0.652000
36.276300 0.655600
36.370500 0.662200
36.464700 0.661200
36.558900 0.656200
36.653200 0.652600
36.747400 0.669500
36.841600 0.655600
36.935800 0.649000
37.030000 0.634300
37.124200 0.637900
37.218500 0.636600
37.312700 0.623700
37.406900 0.598400
37.501100 0.585900
37.595300 0.586200
37.689500 0.588600
37.783800 0.586700
37.878000 0.596200
37.972200 0.608900
38.066400 0.619900
38.160600 0.637200
38.254800 0.677400
38.349100 0.638400
38.443300 0.627200
38.537500 0.637400
38.631700 0.624600
38.725900 0.636900
38.820100 0.644700
38.914400 0.662800
39.008600 0.702800
39.102800 0.693700
39.197000 0.704700
39.291200 0.712400
39.385400 0.725900
39.479700 0.717900
39.573900 0.719100
39.668100 0.722600
39.762300 0.733500
39.856500 0.776300
39.950700 0.764300
40.045000 0.783800
40.139200 0.774000
40.233400 0.776300
40.327600 0.767100
40.421800 0.772300
40.516000 0.788400
40.610300 0.806400
40.704500 0.823800
40.798700 0.826100
40.892900 0.822600
40.987100 0.811800
41.081300 0.808300
41.175600 0.809600
41.269800 0.815000
41.364000 0.826500
41.458200 0.836300
41.552400 0.838300
41.646600 0.847500
41.740900 0.853600
41.835100 0.879700
41.929300 0.872400
42.023500 0.926400
42.117700 0.881400
42.211900 0.880900
42.306200 0.883300
42.400400 0.882100
42.494600 0.894100
42.588800 0.900700
42.683000 0.880100
42.777200 0.802100
42.871500 0.790000
42.965700 0.778800
43.059900 0.791300
43.154100 0.810500
43.248300 0.830400
43.342500 0.821600
43.436800 0.790100
43.531000 0.761300
43.625200 0.754900
43.719400 0.748600
43.813600 0.785000
43.907800 0.741200
44.002100 0.727000
44.096300 0.720000
44.190500 0.721500
44.284700 0.729900
44.378900 0.724800
44.473100 0.728800
44.567400 0.740800
44.661600 0.765400
44.755800 0.786200
44.850000 0.800600
44.944200 0.817600
45.038400 0.829700
45.132700 0.839500
45.226900 0.835300
45.321100 0.831700
45.415300 0.837800
45.509500 0.842500
45.603700 0.858300
45.698000 0.906400
45.792200 0.932000
45.886400 0.915500
45.980600 0.924500
46.074800 0.911400
46.169000 0.920300
46.263300 0.912500
46.357500 0.925000
46.451700 0.930900
46.545900 0.945400
46.640100 0.981300
46.734300 0.967300
46.828600 0.975100
46.922800 0.930900
47.017000 0.919400
47.111200 0.835400
47.205400 0.839600
47.299600 0.836400
47.393900 0.844000
47.488100 0.859900
47.582300 0.844300
47.676500 0.829100
47.770700 0.841700
47.864900 0.873200
47.959200 0.870400
48.053400 0.882500
48.147600 0.890400
48.241800 0.914100
48.336000 0.941600
48.430200 0.955500
48.524500 0.995600
48.618700 1.032100
48.712900 1.069000
48.807100 1.093200
48.901300 1.080400
48.995500 1.104600
49.089800 1.132600
49.184000 1.143600
49.278200 1.248800
49.372400 1.182800
49.466600 1.099700
49.560800 1.051300
49.655100 1.018200
49.749300 1.004900
49.843500 0.983300
49.937700 0.956200
50.031900 0.942300
50.126100 0.920500
50.220400 0.919200
50.314600 0.914300
50.408800 0.920300
50.503000 0.940700
50.597200 0.933400
50.691400 0.896800
50.785700 0.859800
50.879900 0.831100
50.974100 0.808300
51.068300 0.799500
51.162500 0.781800
51.256800 0.765200
51.351000 0.744100
51.445200 0.727500
51.539400 0.701500
51.633600 0.668300
51.727800 0.651500
51.822100 0.643400
51.916300 0.618500
52.010500 0.608100
52.104700 0.596000
52.198900 0.594300
52.293100 0.599700
52.387400 0.606200
52.481600 0.619800
52.575800 0.632700
52.670000 0.679000
52.764200 0.694200
52.858400 0.670000
52.952700 0.664300
53.046900 0.663400
53.141100 0.677500
53.235300 0.692600
53.329500 0.691200
53.423700 0.691100
53.518000 0.701300
53.612200 0.712400
53.706400 0.728300
53.800600 0.751500
53.894800 0.772500
53.989000 0.795900
54.083300 0.819600
54.177500 0.837800
54.271700 0.861500
54.365900 0.893900
54.460100 0.918600
54.554300 0.909600
54.648600 0.907600
54.742800 0.913100
54.837000 0.925700
54.931200 0.935300
55.025400 0.947300
55.119600 0.960900
55.213900 0.985100
55.308100 1.030500
55.402300 1.064100
55.496500 1.103700
55.590700 1.142800
55.684900 1.158200
55.779200 1.174900
55.873400 1.156300
55.967600 1.196200
56.061800 1.123300
56.156000 1.081500
56.250200 1.049700
56.344500 1.054700
56.438700 0.995400
56.532900 0.961100
56.627100 0.945400
56.721300 0.906100
56.815500 0.885000
56.909800 0.885000
57.004000 0.905600
57.098200 0.930900
57.192400 0.957500
57.286600 0.991500
57.380800 1.035700
57.475100 1.086400
57.569300 1.107000
57.663500 1.115600
57.757700 1.139100
57.851900 1.185200
57.946100 1.180800
58.040400 1.166700
58.134600 1.150900
58.228800 1.151600
58.323000 1.174800
58.417200 1.234900
58.511400 1.217700
58.605700 1.186500
58.699900 1.169600
58.794100 1.176200
58.888300 1.190100
58.982500 1.181600
59.076700 1.189500
59.171000 1.187800
59.265200 1.172900
59.359400 1.113700
59.453600 1.042600
59.547800 0.991900
59.642000 0.961600
59.736300 0.941600
59.830500 0.933800
59.924700 0.970600
60.018900 1.024800
60.113100 1.070600
60.207300 1.011900
60.301600 1.034800
60.395800 1.011000
60.490000 0.979800
60.584200 0.971200
60.678400 0.984400
60.772600 0.930200
60.866900 0.902500
60.961100 0.894400
61.055300 0.895400
61.149500 0.878600
61.243700 0.882000
61.337900 0.881400
61.432200 0.870500
61.526400 0.884100
61.620600 0.894600
61.714800 0.922700
61.809000 0.883900
61.903200 0.870000
61.997500 0.868800
62.091700 0.862600
62.185900 0.874900
62.280100 0.854800
62.374300 0.833600
62.468500 0.828900
62.562800 0.809200
62.657000 0.766700
62.751200 0.760700
62.845400 0.768400
62.939600 0.789000
63.033800 0.816900
63.128100 0.843200
63.222300 0.862000
63.316500 0.895100
63.410700 0.922500
63.504900 0.947200
63.599100 0.949900
63.693400 0.949500
63.787600 0.962900
63.881800 0.997800
63.976000 1.041900
64.070200 1.053700
64.164400 1.030100
64.258700 1.006400
64.352900 0.995900
64.447100 1.016900
64.541300 1.025500
64.635500 1.064200
64.729700 1.092100
64.824000 1.106200
64.918200 1.116200
65.012400 1.111800
65.106600 1.124100
65.200800 1.108000
65.295000 1.091600
65.389300 1.096500
65.483500 1.030800
65.577700 1.002000
65.671900 0.995800
65.766100 0.993500
65.860300 1.006700
65.954600 1.032400
66.048800 1.047400
66.143000 1.041500
66.237200 1.033600
66.331400 1.081500
66.425600 1.051500
66.519900 1.020700
66.614100 0.970300
66.708300 0.944400
66.802500 0.964900
66.896700 0.973900
66.990900 0.970800
67.085200 1.001100
67.179400 1.068000
67.273600 1.096700
67.367800 1.149200
67.462000 1.199800
67.556300 1.192900
67.650500 1.183100
67.744700 1.185500
67.838900 1.207300
67.933100 1.229900
68.027300 1.202300
68.121600 1.112400
68.215800 1.058800
68.310000 0.986400
68.404200 0.979100
68.498400 0.980700
68.592600 0.994900
68.686900 1.024100
68.781100 1.049700
68.875300 1.070000
68.969500 1.121000
69.063700 1.109300
69.157900 1.090900
69.252200 1.065700
69.346400 1.040100
69.440600 1.011500
69.534800 0.999200
69.629000 0.986400
69.723200 0.970200
69.817500 0.943800
69.911700 0.932100
70.005900 0.905000
70.100100 0.910100
70.194300 0.923300
70.288500 0.962500
70.382800 0.989100
70.477000 1.018400
70.571200 0.990600
70.665400 1.010200
70.759600 1.080300
70.853800 1.110500
70.948100 1.120400
71.042300 1.144000
71.136500 1.164000
71.230700 1.175000
71.324900 1.174900
71.419100 1.163500
71.513400 1.194200
71.607600 1.092700
71.701800 1.059400
71.796000 1.049500
71.890200 1.042000
71.984400 1.056000
72.078700 1.086500
72.172900 1.030600
72.267100 0.973000
72.361300 0.936100
72.455500 0.923700
72.549700 0.926700
72.644000 0.968100
72.738200 1.022400
72.832400 1.107000
72.926600 1.139400
73.020800 1.169200
73.115000 1.120400
73.209300 1.124800
73.303500 1.160300
73.397700 1.172000
73.491900 1.191400
73.586100 1.205000
73.680300 1.246200
73.774600 1.205300
73.868800 1.236400
73.963000 1.192500
74.057200 1.193100
74.151400 1.192000
74.245600 1.132300
74.339900 1.044200
74.434100 1.052500
