set title 'mp-1183201 - Density of States'
set xlabel 'Energy (eV)'
set ylabel 'DOS (states/eV)'
set grid
set xrange [-10:10]
set yrange [0:21.229]
set xzeroaxis lt -1
set terminal png size 800,600
set output 'mp-1183201_dos_gnuplot.png'
plot '-' using 1:2 with lines title 'DOS'
-13.742400 0.000000
-13.718600 0.000000
-13.694800 0.000000
-13.671000 0.000000
-13.647100 0.000000
-13.623300 0.000000
-13.599500 0.000000
-13.575700 0.000000
-13.551900 0.000000
-13.528100 0.000000
-13.504300 0.000000
-13.480400 0.000000
-13.456600 0.000000
-13.432800 0.000000
-13.409000 0.000000
-13.385200 0.000000
-13.361400 0.000000
-13.337600 0.000000
-13.313700 0.000000
-13.289900 0.000000
-13.266100 0.000000
-13.242300 0.000000
-13.218500 0.000000
-13.194700 0.000000
-13.170900 0.000000
-13.147000 0.000000
-13.123200 0.000000
-13.099400 0.000000
-13.075600 0.000000
-13.051800 0.000000
-13.028000 0.000000
-13.004100 0.000000
-12.980300 0.000000
-12.956500 0.000000
-12.932700 0.000000
-12.908900 0.000000
-12.885100 0.000000
-12.861300 0.000000
-12.837400 0.000000
-12.813600 0.000000
-12.789800 0.000000
-12.766000 0.000000
-12.742200 0.000000
-12.718400 0.000000
-12.694600 0.000000
-12.670700 0.000000
-12.646900 0.000000
-12.623100 0.000000
-12.599300 0.000000
-12.575500 0.000000
-12.551700 0.000000
-12.527800 0.000000
-12.504000 0.000000
-12.480200 0.000000
-12.456400 0.000000
-12.432600 0.000000
-12.408800 0.000000
-12.385000 0.000000
-12.361100 0.000000
-12.337300 0.000000
-12.313500 0.000000
-12.289700 0.000000
-12.265900 0.000000
-12.242100 0.000000
-12.218300 0.000000
-12.194400 0.000000
-12.170600 0.000000
-12.146800 0.000000
-12.123000 0.000000
-12.099200 0.000000
-12.075400 0.000000
-12.051600 0.000000
-12.027700 0.000000
-12.003900 0.000000
-11.980100 0.000000
-11.956300 0.000000
-11.932500 0.000000
-11.908700 0.000000
-11.884800 0.000000
-11.861000 0.000000
-11.837200 0.000000
-11.813400 0.000000
-11.789600 0.000000
-11.765800 0.000000
-11.742000 0.000000
-11.718100 0.000000
-11.694300 0.000000
-11.670500 0.000000
-11.646700 0.000000
-11.622900 0.000000
-11.599100 0.000000
-11.575300 0.021900
-11.551400 1.237900
-11.527600 2.175500
-11.503800 3.137300
-11.480000 4.518500
-11.456200 7.174100
-11.432400 9.706900
-11.408600 13.989800
-11.384700 30.184700
-11.360900 16.705200
-11.337100 0.000000
-11.313300 0.000000
-11.289500 0.000000
-11.265700 0.000000
-11.241800 0.000000
-11.218000 0.000000
-11.194200 0.000000
-11.170400 0.000000
-11.146600 0.000000
-11.122800 0.000000
-11.099000 0.000000
-11.075100 0.000000
-11.051300 0.000000
-11.027500 0.000000
-11.003700 0.000000
-10.979900 0.000000
-10.956100 0.000000
-10.932300 0.000000
-10.908400 0.000000
-10.884600 0.000000
-10.860800 0.000000
-10.837000 0.000000
-10.813200 0.000000
-10.789400 0.000000
-10.765500 0.000000
-10.741700 0.000000
-10.717900 0.000000
-10.694100 0.000000
-10.670300 0.000000
-10.646500 0.000000
-10.622700 0.000000
-10.598800 0.000000
-10.575000 0.000000
-10.551200 0.000000
-10.527400 0.000000
-10.503600 0.000000
-10.479800 0.000000
-10.456000 0.000000
-10.432100 0.000000
-10.408300 0.000000
-10.384500 0.000000
-10.360700 0.000000
-10.336900 0.000000
-10.313100 0.000000
-10.289300 0.000000
-10.265400 0.000000
-10.241600 0.000000
-10.217800 0.000000
-10.194000 0.000000
-10.170200 0.000000
-10.146400 0.000000
-10.122500 0.000000
-10.098700 0.000000
-10.074900 0.000000
-10.051100 0.000000
-10.027300 0.000000
-10.003500 0.000000
-9.979700 0.000000
-9.955800 0.000000
-9.932000 0.000000
-9.908200 0.000000
-9.884400 0.000000
-9.860600 0.000000
-9.836800 0.000000
-9.813000 0.000000
-9.789100 0.000000
-9.765300 0.000000
-9.741500 0.000000
-9.717700 0.000000
-9.693900 0.000000
-9.670100 0.000000
-9.646200 0.000000
-9.622400 0.000000
-9.598600 0.000000
-9.574800 0.000000
-9.551000 0.000000
-9.527200 0.000000
-9.503400 0.000000
-9.479500 0.000000
-9.455700 0.000000
-9.431900 0.000000
-9.408100 0.000000
-9.384300 0.000000
-9.360500 0.000000
-9.336700 0.000000
-9.312800 0.000000
-9.289000 0.000000
-9.265200 0.000000
-9.241400 0.000000
-9.217600 0.000000
-9.193800 0.000000
-9.170000 0.000000
-9.146100 0.000000
-9.122300 0.000000
-9.098500 0.000000
-9.074700 0.000000
-9.050900 0.000000
-9.027100 0.000000
-9.003200 0.000000
-8.979400 0.000000
-8.955600 0.000000
-8.931800 0.000000
-8.908000 0.000000
-8.884200 0.000000
-8.860400 0.000000
-8.836500 0.000000
-8.812700 0.000000
-8.788900 0.000000
-8.765100 0.000000
-8.741300 0.000000
-8.717500 0.000000
-8.693700 0.000000
-8.669800 0.000000
-8.646000 0.000000
-8.622200 0.000000
-8.598400 0.000000
-8.574600 0.000000
-8.550800 0.000000
-8.527000 0.000000
-8.503100 0.000000
-8.479300 0.000000
-8.455500 0.000000
-8.431700 0.000000
-8.407900 0.000000
-8.384100 0.000000
-8.360200 0.000000
-8.336400 0.000000
-8.312600 0.000000
-8.288800 0.000000
-8.265000 0.000000
-8.241200 0.000000
-8.217400 0.000000
-8.193500 0.000000
-8.169700 0.000000
-8.145900 0.000000
-8.122100 0.000000
-8.098300 0.000000
-8.074500 0.000000
-8.050700 0.000000
-8.026800 0.000000
-8.003000 0.000000
-7.979200 0.000000
-7.955400 0.000000
-7.931600 0.000000
-7.907800 0.000000
-7.883900 0.000000
-7.860100 0.000000
-7.836300 0.000000
-7.812500 0.000000
-7.788700 0.000000
-7.764900 0.000000
-7.741100 0.000000
-7.717200 0.000000
-7.693400 0.000000
-7.669600 0.000000
-7.645800 0.000000
-7.622000 0.000000
-7.598200 0.000000
-7.574400 0.000000
-7.550500 0.000000
-7.526700 0.000000
-7.502900 0.000000
-7.479100 0.000000
-7.455300 0.000000
-7.431500 0.000000
-7.407700 0.000000
-7.383800 0.000000
-7.360000 0.000000
-7.336200 0.000000
-7.312400 0.000000
-7.288600 0.000000
-7.264800 0.000000
-7.240900 0.000000
-7.217100 0.000000
-7.193300 0.000000
-7.169500 0.000000
-7.145700 0.000000
-7.121900 0.000000
-7.098100 0.000000
-7.074200 0.000000
-7.050400 0.000000
-7.026600 0.000000
-7.002800 0.000000
-6.979000 0.000000
-6.955200 0.000000
-6.931400 0.000000
-6.907500 0.000000
-6.883700 0.000000
-6.859900 0.000000
-6.836100 0.000000
-6.812300 0.000000
-6.788500 0.000000
-6.764700 0.000000
-6.740800 0.000000
-6.717000 0.000000
-6.693200 0.000000
-6.669400 0.000000
-6.645600 0.000000
-6.621800 0.000000
-6.597900 0.000000
-6.574100 0.000000
-6.550300 0.000000
-6.526500 0.000000
-6.502700 0.000000
-6.478900 0.000000
-6.455100 0.000000
-6.431200 0.000000
-6.407400 0.000000
-6.383600 0.000000
-6.359800 0.000000
-6.336000 0.000000
-6.312200 0.000000
-6.288400 0.000000
-6.264500 0.000000
-6.240700 0.000000
-6.216900 0.000000
-6.193100 0.000000
-6.169300 0.000000
-6.145500 0.000000
-6.121600 0.000000
-6.097800 0.000000
-6.074000 0.000000
-6.050200 0.000000
-6.026400 0.000000
-6.002600 0.000000
-5.978800 0.000000
-5.954900 0.000000
-5.931100 0.000000
-5.907300 0.000000
-5.883500 0.000000
-5.859700 0.000000
-5.835900 0.000000
-5.812100 0.000000
-5.788200 0.000000
-5.764400 0.000000
-5.740600 0.000000
-5.716800 0.000000
-5.693000 0.000000
-5.669200 0.000000
-5.645400 0.000000
-5.621500 0.000000
-5.597700 0.000000
-5.573900 0.000000
-5.550100 0.000000
-5.526300 0.000000
-5.502500 0.000000
-5.478600 0.000000
-5.454800 0.000000
-5.431000 0.000000
-5.407200 0.000000
-5.383400 0.000000
-5.359600 0.000000
-5.335800 0.000000
-5.311900 0.000000
-5.288100 0.000000
-5.264300 0.000000
-5.240500 0.000000
-5.216700 0.000000
-5.192900 0.000000
-5.169100 0.000000
-5.145200 0.000000
-5.121400 0.000000
-5.097600 0.000000
-5.073800 0.000000
-5.050000 0.000000
-5.026200 0.000000
-5.002400 0.000000
-4.978500 0.000000
-4.954700 0.000000
-4.930900 0.000000
-4.907100 0.000000
-4.883300 0.000000
-4.859500 0.000000
-4.835600 0.000000
-4.811800 0.000000
-4.788000 0.000000
-4.764200 0.000000
-4.740400 0.000000
-4.716600 0.000000
-4.692800 0.000000
-4.668900 0.000000
-4.645100 0.000000
-4.621300 0.000000
-4.597500 0.000000
-4.573700 0.000000
-4.549900 0.000000
-4.526100 0.000000
-4.502200 0.000000
-4.478400 0.000000
-4.454600 0.000000
-4.430800 0.000000
-4.407000 0.000000
-4.383200 0.000000
-4.359300 0.000000
-4.335500 0.000000
-4.311700 0.000000
-4.287900 0.000000
-4.264100 0.000000
-4.240300 0.000000
-4.216500 0.000000
-4.192600 0.000000
-4.168800 0.000000
-4.145000 0.000000
-4.121200 0.000000
-4.097400 0.000000
-4.073600 0.000000
-4.049800 0.000000
-4.025900 0.000000
-4.002100 0.000000
-3.978300 0.000000
-3.954500 0.000000
-3.930700 0.000000
-3.906900 0.000000
-3.883100 0.000000
-3.859200 0.000000
-3.835400 0.000000
-3.811600 0.000000
-3.787800 0.000000
-3.764000 0.000000
-3.740200 0.000000
-3.716300 0.000000
-3.692500 0.000000
-3.668700 0.000000
-3.644900 0.000000
-3.621100 0.000000
-3.597300 0.000000
-3.573500 0.000000
-3.549600 0.000000
-3.525800 0.000000
-3.502000 0.000000
-3.478200 0.000000
-3.454400 0.000000
-3.430600 0.000000
-3.406800 0.000000
-3.382900 0.000000
-3.359100 0.000000
-3.335300 0.000000
-3.311500 0.000000
-3.287700 0.000000
-3.263900 0.000000
-3.240000 0.000000
-3.216200 0.000000
-3.192400 0.000000
-3.168600 0.000000
-3.144800 0.000000
-3.121000 0.000000
-3.097200 0.000000
-3.073300 0.000000
-3.049500 0.000000
-3.025700 0.000000
-3.001900 0.000000
-2.978100 0.000000
-2.954300 0.000000
-2.930500 0.000000
-2.906600 0.000000
-2.882800 0.000000
-2.859000 0.000000
-2.835200 0.000000
-2.811400 0.000000
-2.787600 0.000000
-2.763800 0.091600
-2.739900 0.272100
-2.716100 0.433200
-2.692300 0.464700
-2.668500 0.455200
-2.644700 0.515800
-2.620900 0.583800
-2.597000 0.658900
-2.573200 0.735800
-2.549400 0.780300
-2.525600 1.435900
-2.501800 2.871000
-2.478000 5.816400
-2.454200 5.257800
-2.430300 5.997600
-2.406500 6.450600
-2.382700 5.304700
-2.358900 4.330600
-2.335100 3.592700
-2.311300 3.299100
-2.287500 3.018100
-2.263600 2.743000
-2.239800 2.499900
-2.216000 2.295900
-2.192200 2.128800
-2.168400 1.989400
-2.144600 1.860600
-2.120800 1.734700
-2.096900 1.620300
-2.073100 1.495400
-2.049300 1.384300
-2.025500 1.302800
-2.001700 1.221000
-1.977900 1.217100
-1.954000 1.215400
-1.930200 1.301300
-1.906400 1.162600
-1.882600 1.147900
-1.858800 1.109400
-1.835000 1.038200
-1.811200 0.935300
-1.787300 0.865300
-1.763500 0.826600
-1.739700 0.860900
-1.715900 1.031700
-1.692100 1.193600
-1.668300 1.382600
-1.644500 1.490400
-1.620600 1.740400
-1.596800 1.991900
-1.573000 2.275100
-1.549200 2.621200
-1.525400 3.037500
-1.501600 3.412100
-1.477700 3.854200
-1.453900 4.788700
-1.430100 5.485600
-1.406300 5.296100
-1.382500 4.936200
-1.358700 4.589700
-1.334900 4.017900
-1.311000 4.330900
-1.287200 5.707700
-1.263400 5.765200
-1.239600 6.552700
-1.215800 7.506900
-1.192000 8.950100
-1.168200 7.784500
-1.144300 7.318700
-1.120500 6.534900
-1.096700 6.563600
-1.072900 6.154300
-1.049100 5.374500
-1.025300 5.053600
-1.001500 4.667800
-0.977600 4.412700
-0.953800 4.343600
-0.930000 3.831300
-0.906200 3.101700
-0.882400 2.512200
-0.858600 2.647000
-0.834700 2.148400
-0.810900 1.586700
-0.787100 1.216500
-0.763300 0.997700
-0.739500 1.401400
-0.715700 2.705800
-0.691900 3.110600
-0.668000 2.945300
-0.644200 2.964200
-0.620400 3.803600
-0.596600 4.208900
-0.572800 5.130900
-0.549000 5.438800
-0.525200 6.128700
-0.501300 7.152200
-0.477500 9.307200
-0.453700 13.067600
-0.429900 14.030000
-0.406100 9.166100
-0.382300 7.699100
-0.358500 5.648200
-0.334600 5.765000
-0.310800 8.369300
-0.287000 12.294400
-0.263200 10.046200
-0.239400 8.621000
-0.215600 8.875500
-0.191700 9.123300
-0.167900 6.709100
-0.144100 6.293400
-0.120300 6.509200
-0.096500 7.260600
-0.072700 6.940100
-0.048900 6.660600
-0.025000 6.529400
-0.001200 6.380600
0.022600 6.451500
0.046400 6.508500
0.070200 6.105800
0.094000 5.535700
0.117800 4.740800
0.141700 4.350600
0.165500 4.193000
0.189300 4.275500
0.213100 5.031900
0.236900 6.367600
0.260700 8.348500
0.284600 8.580200
0.308400 10.844300
0.332200 9.459900
0.356000 8.330700
0.379800 7.532100
0.403600 8.017800
0.427400 8.388300
0.451300 9.718000
0.475100 11.515200
0.498900 13.697900
0.522700 12.548500
0.546500 15.052800
0.570300 11.700200
0.594100 9.771400
0.618000 8.995300
0.641800 8.622700
0.665600 8.600400
0.689400 8.655700
0.713200 7.856500
0.737000 6.954600
0.760800 7.043700
0.784700 7.081700
0.808500 5.416100
0.832300 4.674700
0.856100 4.498100
0.879900 4.461500
0.903700 5.047000
0.927600 6.358600
0.951400 7.048400
0.975200 8.176800
0.999000 6.909600
1.022800 6.740000
1.046600 6.527600
1.070400 7.135600
1.094300 7.771100
1.118100 7.392100
1.141900 7.495700
1.165700 9.404800
1.189500 8.614000
1.213300 9.355200
1.237100 7.110300
1.261000 6.714800
1.284800 5.524600
1.308600 4.740100
1.332400 6.628500
1.356200 9.967700
1.380000 12.223900
1.403800 16.075600
1.427700 19.298900
1.451500 15.515900
1.475300 14.723300
1.499100 13.004000
1.522900 12.228000
1.546700 13.474100
1.570600 14.614100
1.594400 11.787600
1.618200 9.615400
1.642000 7.976000
1.665800 7.623700
1.689600 7.798000
1.713400 10.238100
1.737300 14.099700
1.761100 10.279500
1.784900 7.760400
1.808700 7.193900
1.832500 5.994700
1.856300 6.567400
1.880100 7.656600
1.904000 8.716200
1.927800 9.962000
1.951600 9.839400
1.975400 9.421500
1.999200 8.457700
2.023000 7.464800
2.046900 6.742500
2.070700 6.868000
2.094500 6.601900
2.118300 6.064300
2.142100 6.346100
2.165900 6.488900
2.189700 6.158400
2.213600 6.067400
2.237400 4.984800
2.261200 4.073400
2.285000 4.394100
2.308800 5.573200
2.332600 7.547200
2.356400 7.963700
2.380300 9.474800
2.404100 11.469000
2.427900 12.365200
2.451700 9.036800
2.475500 10.134900
2.499300 12.354100
2.523100 11.773000
2.547000 11.136100
2.570800 11.023100
2.594600 9.317500
2.618400 7.589800
2.642200 6.681100
2.666000 8.116700
2.689900 9.435000
2.713700 9.322800
2.737500 10.623800
2.761300 9.936600
2.785100 8.693000
2.808900 6.961100
2.832700 6.603200
2.856600 6.116100
2.880400 5.531500
2.904200 4.927900
2.928000 4.414200
2.951800 4.570500
2.975600 4.364000
2.999400 3.273400
3.023300 2.558500
3.047100 1.953700
3.070900 1.451600
3.094700 1.618000
3.118500 1.794700
3.142300 4.354800
3.166200 3.162700
3.190000 2.937300
3.213800 2.535000
3.237600 2.094900
3.261400 1.778700
3.285200 1.691600
3.309000 1.599300
3.332900 1.526500
3.356700 1.440300
3.380500 1.408300
3.404300 1.389000
3.428100 1.363700
3.451900 1.337300
3.475700 1.323600
3.499600 1.319400
3.523400 1.326600
3.547200 1.375700
3.571000 1.435400
3.594800 1.597300
3.618600 1.798800
3.642400 1.674600
3.666300 1.573100
3.690100 1.366800
3.713900 1.259300
3.737700 1.216300
3.761500 1.183900
3.785300 1.148800
3.809200 1.105500
3.833000 1.054100
3.856800 1.009500
3.880600 0.978200
3.904400 0.949000
3.928200 0.913400
3.952000 0.879200
3.975900 0.852300
3.999700 0.829700
4.023500 0.809600
4.047300 0.791100
4.071100 0.774700
4.094900 0.771700
4.118700 0.762500
4.142600 0.769900
4.166400 0.796700
4.190200 0.702100
4.214000 0.623500
4.237800 0.593700
4.261600 0.551800
4.285400 0.515600
4.309300 0.497000
4.333100 0.516800
4.356900 0.541500
4.380700 0.550100
4.404500 0.554600
4.428300 0.557300
4.452200 0.561500
4.476000 0.567900
4.499800 0.563100
4.523600 0.570000
4.547400 0.576500
4.571200 0.582700
4.595000 0.618000
4.618900 0.649600
4.642700 0.672600
4.666500 0.699600
4.690300 0.716400
4.714100 0.732900
4.737900 0.766700
4.761700 0.813000
4.785600 0.858900
4.809400 0.914500
4.833200 0.985800
4.857000 1.074300
4.880800 1.222100
4.904600 2.323500
4.928500 3.000400
4.952300 3.623700
4.976100 3.646400
4.999900 3.537900
5.023700 3.342600
5.047500 3.226900
5.071300 2.835200
5.095200 2.486400
5.119000 2.420700
5.142800 2.325000
5.166600 2.199900
5.190400 2.057300
5.214200 1.900000
5.238000 1.718000
5.261900 1.618900
5.285700 1.578200
5.309500 1.456000
5.333300 1.260700
5.357100 1.011100
5.380900 0.943800
5.404700 0.886100
5.428600 0.838200
5.452400 0.826900
5.476200 0.810800
5.500000 0.793700
5.523800 0.783700
5.547600 0.779200
5.571500 0.780000
5.595300 0.785300
5.619100 0.787700
5.642900 0.785100
5.666700 0.783800
5.690500 0.769100
5.714300 0.757000
5.738200 0.738300
5.762000 0.733400
5.785800 0.735200
5.809600 0.721800
5.833400 0.709800
5.857200 0.700600
5.881000 0.701800
5.904900 0.694700
5.928700 0.689500
5.952500 0.690200
5.976300 0.691800
6.000100 0.694000
6.023900 0.696700
6.047700 0.700100
6.071600 0.701700
6.095400 0.703600
6.119200 0.703100
6.143000 0.702900
6.166800 0.705200
6.190600 1.235300
6.214500 1.708800
6.238300 2.870800
6.262100 3.068400
6.285900 2.901400
6.309700 2.784400
6.333500 2.321700
6.357300 2.176500
6.381200 1.937300
6.405000 1.836500
6.428800 1.761600
6.452600 1.700900
6.476400 1.635200
6.500200 1.572400
6.524000 1.518200
6.547900 1.473600
6.571700 1.422600
6.595500 1.384900
6.619300 1.348100
6.643100 1.314000
6.666900 1.396900
6.690800 1.399500
6.714600 1.345700
6.738400 1.211300
6.762200 1.181200
6.786000 1.163300
6.809800 1.142200
6.833600 1.118900
6.857500 1.098500
6.881300 1.081600
6.905100 1.068900
6.928900 1.057700
6.952700 1.046200
6.976500 1.036800
7.000300 1.028600
7.024200 1.021400
7.048000 1.013400
7.071800 1.008500
7.095600 1.007900
7.119400 1.009400
7.143200 1.010400
7.167000 1.010400
7.190900 1.011800
7.214700 1.010500
7.238500 0.990100
7.262300 0.971500
7.286100 0.941400
7.309900 0.931600
7.333800 0.931100
7.357600 0.942600
7.381400 0.962400
7.405200 0.896300
7.429000 0.865400
7.452800 0.865900
7.476600 0.853600
7.500500 0.851500
7.524300 0.849500
7.548100 0.881200
7.571900 0.864500
7.595700 0.853600
7.619500 0.847100
7.643300 0.844200
7.667200 0.843200
7.691000 0.796000
7.714800 0.787900
7.738600 0.780900
7.762400 0.774300
7.786200 0.768100
7.810000 0.768800
7.833900 0.786300
7.857700 0.798200
7.881500 0.804400
7.905300 0.796200
7.929100 0.797100
7.952900 0.776300
7.976800 0.777400
8.000600 0.767000
8.024400 0.768800
8.048200 0.784600
8.072000 0.810400
8.095800 0.847300
8.119600 0.894300
8.143500 0.950800
8.167300 1.059600
8.191100 1.129800
8.214900 1.194300
8.238700 1.249100
8.262500 1.293900
8.286300 1.328900
8.310200 1.352200
8.334000 1.360600
8.357800 1.365000
8.381600 1.359800
8.405400 1.320200
8.429200 1.281400
8.453100 1.279600
8.476900 1.291300
8.500700 1.303800
8.524500 1.312400
8.548300 1.329800
8.572100 1.367900
8.595900 1.378500
8.619800 1.351600
8.643600 1.312500
8.667400 1.287800
8.691200 1.262800
8.715000 1.233300
8.738800 1.202100
8.762600 1.169500
8.786500 1.145800
8.810300 1.135500
8.834100 1.128800
8.857900 1.125000
8.881700 1.122500
8.905500 1.122700
8.929300 1.134500
8.953200 1.166800
8.977000 1.191700
9.000800 1.218600
9.024600 1.265800
9.048400 1.334900
9.072200 1.326600
9.096100 1.378700
9.119900 1.406200
9.143700 1.434900
9.167500 1.444500
9.191300 1.440200
9.215100 1.411300
9.238900 1.362200
9.262800 1.349000
9.286600 1.326600
9.310400 1.296100
9.334200 1.262600
9.358000 1.229400
9.381800 1.167300
9.405600 1.133800
9.429500 1.081200
9.453300 1.010500
9.477100 0.961900
9.500900 0.955800
9.524700 1.002500
9.548500 1.223800
9.572400 1.348900
9.596200 1.265200
9.620000 1.238600
9.643800 1.244700
9.667600 1.312300
9.691400 1.328200
9.715200 1.369600
9.739100 1.474100
9.762900 1.537400
9.786700 1.593400
9.810500 1.673200
9.834300 1.743500
9.858100 1.838000
9.881900 1.915100
9.905800 1.983400
9.929600 2.137600
9.953400 2.137000
9.977200 2.129400
10.001000 2.139300
10.024800 2.184100
10.048600 2.196600
10.072500 2.195700
10.096300 1.956400
10.120100 1.937500
10.143900 1.893900
10.167700 1.822400
10.191500 1.729900
10.215400 1.630600
10.239200 1.539900
10.263000 1.396700
10.286800 1.253600
10.310600 1.128700
10.334400 1.035900
10.358200 0.970300
10.382100 0.910700
10.405900 0.889400
10.429700 0.883300
10.453500 0.893400
10.477300 0.913800
10.501100 0.964900
10.524900 1.215000
10.548800 1.384800
10.572600 1.459600
10.596400 1.561800
10.620200 1.645400
10.644000 1.745800
10.667800 1.819800
10.691600 1.905100
10.715500 2.109700
10.739300 2.232500
10.763100 2.369500
10.786900 2.416500
10.810700 2.418300
10.834500 2.383800
10.858400 2.342300
10.882200 2.292100
10.906000 2.089700
10.929800 1.915900
10.953600 1.784400
10.977400 1.679100
11.001200 1.579500
11.025100 1.483700
11.048900 1.367500
11.072700 1.311000
11.096500 1.275000
11.120300 1.251900
11.144100 1.247300
11.167900 1.257100
11.191800 1.303500
11.215600 1.309000
