set title 'mp-1080191 - Density of States'
set xlabel 'Energy (eV)'
set ylabel 'DOS (states/eV)'
set grid
set xrange [-10:10]
set yrange [0:12.990]
set xzeroaxis lt -1
set terminal png size 800,600
set output 'mp-1080191_dos_gnuplot.png'
plot '-' using 1:2 with lines title 'DOS'
-13.113100 0.000000
-13.091800 0.000000
-13.070600 0.000000
-13.049400 0.000000
-13.028200 0.000000
-13.006900 0.000000
-12.985700 0.000000
-12.964500 0.000000
-12.943300 0.000000
-12.922100 0.000000
-12.900800 0.000000
-12.879600 0.000000
-12.858400 0.000000
-12.837200 0.000000
-12.815900 0.000000
-12.794700 0.000000
-12.773500 0.000000
-12.752300 0.000000
-12.731100 0.000000
-12.709800 0.000000
-12.688600 0.000000
-12.667400 0.000000
-12.646200 0.000000
-12.624900 0.000000
-12.603700 0.000000
-12.582500 0.000000
-12.561300 0.000000
-12.540100 0.000000
-12.518800 0.000000
-12.497600 0.000000
-12.476400 0.000000
-12.455200 0.000000
-12.433900 0.000000
-12.412700 0.000000
-12.391500 0.000000
-12.370300 0.000000
-12.349100 0.000000
-12.327800 0.000000
-12.306600 0.000000
-12.285400 0.000000
-12.264200 0.000000
-12.242900 0.000000
-12.221700 0.000000
-12.200500 0.000000
-12.179300 0.000000
-12.158100 0.000000
-12.136800 0.000000
-12.115600 0.000000
-12.094400 0.000000
-12.073200 0.000000
-12.052000 0.000000
-12.030700 0.000000
-12.009500 0.000000
-11.988300 0.000000
-11.967100 0.000000
-11.945800 0.000000
-11.924600 0.000000
-11.903400 0.000000
-11.882200 0.000000
-11.861000 0.000000
-11.839700 0.000000
-11.818500 0.000000
-11.797300 0.000000
-11.776100 0.000000
-11.754800 0.000000
-11.733600 0.000000
-11.712400 0.000000
-11.691200 0.000000
-11.670000 0.000000
-11.648700 0.000000
-11.627500 0.000000
-11.606300 0.000000
-11.585100 0.000000
-11.563800 0.000000
-11.542600 0.000000
-11.521400 0.000000
-11.500200 0.000000
-11.479000 0.000000
-11.457700 0.000000
-11.436500 0.000000
-11.415300 0.000000
-11.394100 0.000000
-11.372800 0.000000
-11.351600 0.000000
-11.330400 0.000000
-11.309200 0.000000
-11.288000 0.000000
-11.266700 0.000000
-11.245500 0.000000
-11.224300 0.000000
-11.203100 0.000000
-11.181800 0.126700
-11.160600 0.212400
-11.139400 0.314200
-11.118200 0.401000
-11.097000 0.464100
-11.075700 0.528100
-11.054500 0.611900
-11.033300 0.645800
-11.012100 0.676800
-10.990900 0.701800
-10.969600 0.694200
-10.948400 0.704300
-10.927200 0.712200
-10.906000 0.720900
-10.884700 0.736400
-10.863500 0.750200
-10.842300 0.752200
-10.821100 0.868600
-10.799900 0.938700
-10.778600 1.025400
-10.757400 1.124100
-10.736200 1.205000
-10.715000 1.293800
-10.693700 1.385400
-10.672500 1.482800
-10.651300 1.541200
-10.630100 1.582400
-10.608900 1.634000
-10.587600 1.652200
-10.566400 1.681400
-10.545200 1.721600
-10.524000 1.774100
-10.502700 1.836200
-10.481500 1.901200
-10.460300 1.970300
-10.439100 2.506400
-10.417900 2.895100
-10.396600 3.256200
-10.375400 3.711300
-10.354200 4.273300
-10.333000 4.944200
-10.311700 5.354200
-10.290500 5.501500
-10.269300 5.337100
-10.248100 5.274000
-10.226900 4.584400
-10.205600 4.095000
-10.184400 3.795800
-10.163200 3.565800
-10.142000 3.358400
-10.120700 3.260900
-10.099500 3.474700
-10.078300 3.651100
-10.057100 3.784700
-10.035900 3.936700
-10.014600 4.183900
-9.993400 4.493400
-9.972200 4.500000
-9.951000 4.523600
-9.929700 4.582800
-9.908500 4.327700
-9.887300 3.919900
-9.866100 3.922000
-9.844900 3.808200
-9.823600 3.206300
-9.802400 2.864800
-9.781200 2.544300
-9.760000 2.374400
-9.738800 2.171200
-9.717500 2.017700
-9.696300 1.917600
-9.675100 1.820300
-9.653900 1.726600
-9.632600 1.681200
-9.611400 1.617400
-9.590200 1.540100
-9.569000 1.493800
-9.547800 1.421000
-9.526500 1.264000
-9.505300 0.983200
-9.484100 0.763600
-9.462900 0.563300
-9.441600 0.328500
-9.420400 0.000000
-9.399200 0.000000
-9.378000 0.000000
-9.356800 0.000000
-9.335500 0.000000
-9.314300 0.000000
-9.293100 0.000000
-9.271900 0.000000
-9.250600 0.000000
-9.229400 0.000000
-9.208200 0.000000
-9.187000 0.000000
-9.165800 0.000000
-9.144500 0.000000
-9.123300 0.000000
-9.102100 0.000000
-9.080900 0.000000
-9.059600 0.000000
-9.038400 0.000000
-9.017200 0.000000
-8.996000 0.000000
-8.974800 0.000000
-8.953500 0.000000
-8.932300 0.000000
-8.911100 0.000000
-8.889900 0.000000
-8.868600 0.000000
-8.847400 0.000000
-8.826200 0.000000
-8.805000 0.000000
-8.783800 0.000000
-8.762500 0.000000
-8.741300 0.000000
-8.720100 0.000000
-8.698900 0.000000
-8.677700 0.000000
-8.656400 0.000000
-8.635200 0.000000
-8.614000 0.000000
-8.592800 0.000000
-8.571500 0.000000
-8.550300 0.000000
-8.529100 0.000000
-8.507900 0.000000
-8.486700 0.000000
-8.465400 0.000000
-8.444200 0.000000
-8.423000 0.000000
-8.401800 0.000000
-8.380500 0.000000
-8.359300 0.000000
-8.338100 0.000000
-8.316900 0.000000
-8.295700 0.000000
-8.274400 0.000000
-8.253200 0.000000
-8.232000 0.000000
-8.210800 0.000000
-8.189500 0.000000
-8.168300 0.000000
-8.147100 0.000000
-8.125900 0.000000
-8.104700 0.000000
-8.083400 0.000000
-8.062200 0.000000
-8.041000 0.000000
-8.019800 0.000000
-7.998500 0.000000
-7.977300 0.000000
-7.956100 0.000000
-7.934900 0.000000
-7.913700 0.000000
-7.892400 0.000000
-7.871200 0.000000
-7.850000 0.000000
-7.828800 0.000000
-7.807500 0.000000
-7.786300 0.000000
-7.765100 0.000000
-7.743900 0.000000
-7.722700 0.000000
-7.701400 0.000000
-7.680200 0.000000
-7.659000 0.000000
-7.637800 0.000000
-7.616600 0.000000
-7.595300 0.000000
-7.574100 0.000000
-7.552900 0.000000
-7.531700 0.000000
-7.510400 0.000000
-7.489200 0.000000
-7.468000 0.000000
-7.446800 0.000000
-7.425600 0.000000
-7.404300 0.000000
-7.383100 0.000000
-7.361900 0.000000
-7.340700 0.000000
-7.319400 0.000000
-7.298200 0.000000
-7.277000 0.000000
-7.255800 0.000000
-7.234600 0.000000
-7.213300 0.000000
-7.192100 0.000000
-7.170900 0.000000
-7.149700 0.000000
-7.128400 0.000000
-7.107200 0.000000
-7.086000 0.000000
-7.064800 0.000000
-7.043600 0.000000
-7.022300 0.000000
-7.001100 0.000000
-6.979900 0.000000
-6.958700 0.000000
-6.937400 0.000000
-6.916200 0.000000
-6.895000 0.000000
-6.873800 0.000000
-6.852600 0.000000
-6.831300 0.000000
-6.810100 0.000000
-6.788900 0.000000
-6.767700 0.000000
-6.746400 0.000000
-6.725200 0.000000
-6.704000 0.000000
-6.682800 0.000000
-6.661600 0.000000
-6.640300 0.000000
-6.619100 0.000000
-6.597900 0.000000
-6.576700 0.000000
-6.555400 0.000000
-6.534200 0.000000
-6.513000 0.000000
-6.491800 0.000000
-6.470600 0.000000
-6.449300 0.000000
-6.428100 0.000000
-6.406900 0.000000
-6.385700 0.000000
-6.364500 0.000000
-6.343200 0.000000
-6.322000 0.000000
-6.300800 0.000000
-6.279600 0.000000
-6.258300 0.000000
-6.237100 0.000000
-6.215900 0.000000
-6.194700 0.000000
-6.173500 0.000000
-6.152200 0.000000
-6.131000 0.000000
-6.109800 0.000000
-6.088600 0.000000
-6.067300 0.000000
-6.046100 0.000000
-6.024900 0.000000
-6.003700 0.000000
-5.982500 0.000000
-5.961200 0.000000
-5.940000 0.000000
-5.918800 0.000000
-5.897600 0.000000
-5.876300 0.000000
-5.855100 0.000000
-5.833900 0.000000
-5.812700 0.000000
-5.791500 0.000000
-5.770200 0.000000
-5.749000 0.000000
-5.727800 0.000000
-5.706600 0.000000
-5.685300 0.000000
-5.664100 0.000000
-5.642900 0.000000
-5.621700 0.000000
-5.600500 0.000000
-5.579200 0.000000
-5.558000 0.000000
-5.536800 0.000000
-5.515600 0.000000
-5.494300 0.000000
-5.473100 0.000000
-5.451900 0.000000
-5.430700 0.000000
-5.409500 0.000000
-5.388200 0.000000
-5.367000 0.000000
-5.345800 0.000000
-5.324600 0.000000
-5.303400 0.000000
-5.282100 0.000000
-5.260900 0.000000
-5.239700 0.000000
-5.218500 0.000000
-5.197200 0.000000
-5.176000 0.000000
-5.154800 0.000000
-5.133600 0.000000
-5.112400 0.000000
-5.091100 0.000000
-5.069900 0.000000
-5.048700 0.000000
-5.027500 0.000000
-5.006200 0.000000
-4.985000 0.000000
-4.963800 0.000000
-4.942600 0.000000
-4.921400 0.000000
-4.900100 0.000000
-4.878900 0.000000
-4.857700 0.000000
-4.836500 0.000000
-4.815200 0.000000
-4.794000 0.000000
-4.772800 0.000000
-4.751600 0.000000
-4.730400 0.000000
-4.709100 0.000000
-4.687900 0.000000
-4.666700 0.000000
-4.645500 0.000000
-4.624200 0.000000
-4.603000 0.000000
-4.581800 0.000000
-4.560600 0.000000
-4.539400 0.000000
-4.518100 0.000000
-4.496900 0.000000
-4.475700 0.000000
-4.454500 0.000000
-4.433200 0.000000
-4.412000 0.000000
-4.390800 0.000000
-4.369600 0.000000
-4.348400 0.000000
-4.327100 0.000000
-4.305900 0.000000
-4.284700 0.000000
-4.263500 0.000000
-4.242200 0.000000
-4.221000 0.000000
-4.199800 0.000000
-4.178600 0.000000
-4.157400 0.000000
-4.136100 0.000000
-4.114900 0.000000
-4.093700 0.000000
-4.072500 0.000000
-4.051300 0.000000
-4.030000 0.000000
-4.008800 0.000000
-3.987600 0.000000
-3.966400 0.000000
-3.945100 0.000000
-3.923900 0.000000
-3.902700 0.000000
-3.881500 0.000000
-3.860300 0.000000
-3.839000 0.000000
-3.817800 0.000000
-3.796600 0.000000
-3.775400 0.000000
-3.754100 0.000000
-3.732900 0.000000
-3.711700 0.000000
-3.690500 0.000000
-3.669300 0.000000
-3.648000 0.000000
-3.626800 0.000000
-3.605600 0.000000
-3.584400 0.000000
-3.563100 0.000000
-3.541900 0.000000
-3.520700 0.000000
-3.499500 0.000000
-3.478300 0.000000
-3.457000 0.000000
-3.435800 0.000000
-3.414600 0.000000
-3.393400 0.000000
-3.372100 0.000000
-3.350900 0.000000
-3.329700 0.000000
-3.308500 0.000000
-3.287300 0.000000
-3.266000 0.000000
-3.244800 0.000000
-3.223600 0.000000
-3.202400 0.000000
-3.181100 0.000000
-3.159900 0.000000
-3.138700 0.000000
-3.117500 0.000000
-3.096300 0.000000
-3.075000 0.243400
-3.053800 0.321600
-3.032600 0.349400
-3.011400 0.418500
-2.990200 0.492700
-2.968900 0.572000
-2.947700 0.598600
-2.926500 0.635000
-2.905300 0.672200
-2.884000 0.685000
-2.862800 0.695200
-2.841600 0.702100
-2.820400 0.696700
-2.799200 0.872700
-2.777900 0.927700
-2.756700 1.001500
-2.735500 1.085400
-2.714300 1.214000
-2.693000 1.319500
-2.671800 1.413200
-2.650600 1.462400
-2.629400 1.512600
-2.608200 1.555600
-2.586900 1.594800
-2.565700 1.637700
-2.544500 1.675300
-2.523300 1.714100
-2.502000 1.742900
-2.480800 1.799400
-2.459600 1.853200
-2.438400 1.906000
-2.417200 1.958500
-2.395900 2.085200
-2.374700 2.199000
-2.353500 2.324600
-2.332300 2.451300
-2.311000 2.703200
-2.289800 2.892100
-2.268600 3.121500
-2.247400 3.617100
-2.226200 4.022600
-2.204900 4.238400
-2.183700 4.458500
-2.162500 4.376200
-2.141300 4.424500
-2.120000 4.596300
-2.098800 4.978700
-2.077600 5.259000
-2.056400 6.280100
-2.035200 5.872500
-2.013900 6.338900
-1.992700 6.021300
-1.971500 6.011100
-1.950300 6.152700
-1.929100 5.940500
-1.907800 7.390700
-1.886600 7.338500
-1.865400 6.927900
-1.844200 6.719700
-1.822900 6.752800
-1.801700 6.474200
-1.780500 6.105500
-1.759300 5.869600
-1.738100 5.743700
-1.716800 5.847900
-1.695600 5.788900
-1.674400 5.769200
-1.653200 5.818800
-1.631900 5.685800
-1.610700 5.707100
-1.589500 6.405900
-1.568300 6.196400
-1.547100 5.664200
-1.525800 5.624500
-1.504600 6.182300
-1.483400 5.001800
-1.462200 4.391400
-1.440900 4.391200
-1.419700 4.218400
-1.398500 3.658500
-1.377300 3.592500
-1.356100 3.581300
-1.334800 3.463100
-1.313600 3.575300
-1.292400 3.706300
-1.271200 3.828300
-1.249900 3.652300
-1.228700 3.606500
-1.207500 3.438900
-1.186300 3.353900
-1.165100 3.278300
-1.143800 3.186000
-1.122600 3.118800
-1.101400 3.073800
-1.080200 3.018600
-1.058900 3.059100
-1.037700 3.105800
-1.016500 3.292200
-0.995300 3.222300
-0.974100 3.264600
-0.952800 3.299700
-0.931600 3.420500
-0.910400 3.523300
-0.889200 3.676700
-0.867900 3.834700
-0.846700 5.234300
-0.825500 6.070100
-0.804300 6.309600
-0.783100 6.034700
-0.761800 5.832500
-0.740600 5.601700
-0.719400 4.573100
-0.698200 4.276100
-0.677000 3.970200
-0.655700 3.461100
-0.634500 3.129900
-0.613300 2.905200
-0.592100 2.857900
-0.570800 2.931200
-0.549600 3.169100
-0.528400 3.466700
-0.507200 3.056800
-0.486000 2.954200
-0.464700 3.015100
-0.443500 3.147100
-0.422300 3.345000
-0.401100 3.980400
-0.379800 3.305700
-0.358600 3.305400
-0.337400 3.350800
-0.316200 3.246000
-0.295000 3.125600
-0.273700 3.009500
-0.252500 3.007100
-0.231300 3.030900
-0.210100 2.818000
-0.188800 3.164300
-0.167600 3.595400
-0.146400 4.150300
-0.125200 4.505000
-0.104000 5.793600
-0.082700 4.199500
-0.061500 3.651300
-0.040300 3.784700
-0.019100 4.645300
0.002200 5.064400
0.023400 5.862900
0.044600 7.160800
0.065800 8.147300
0.087000 9.985800
0.108300 10.189300
0.129500 11.167400
0.150700 9.062400
0.171900 8.185000
0.193200 6.802600
0.214400 5.850200
0.235600 5.268200
0.256800 5.205200
0.278000 4.822700
0.299300 4.737700
0.320500 8.330000
0.341700 7.009600
0.362900 7.083200
0.384100 6.568100
0.405400 5.510600
0.426600 5.606100
0.447800 6.582000
0.469000 7.228100
0.490300 7.046600
0.511500 8.518100
0.532700 10.744300
0.553900 10.352200
0.575100 7.850600
0.596400 5.194400
0.617600 5.273500
0.638800 5.012600
0.660000 4.711800
0.681300 4.648500
0.702500 4.658600
0.723700 4.727200
0.744900 5.080800
0.766100 5.581800
0.787400 6.088900
0.808600 6.580200
0.829800 7.791500
0.851000 9.055100
0.872300 10.047700
0.893500 9.683300
0.914700 8.919900
0.935900 6.358600
0.957100 5.145300
0.978400 5.364900
0.999600 4.851000
1.020800 4.675500
1.042000 4.566000
1.063300 4.572400
1.084500 5.138800
1.105700 6.142400
1.126900 6.784300
1.148100 6.906600
1.169400 7.766700
1.190600 6.711700
1.211800 6.291700
1.233000 5.460000
1.254300 5.833600
1.275500 4.919900
1.296700 4.291600
1.317900 4.316500
1.339100 5.284300
1.360400 6.655200
1.381600 7.122100
1.402800 7.639500
1.424000 9.479000
1.445200 9.892700
1.466500 9.613200
1.487700 7.980700
1.508900 7.216800
1.530100 9.018600
1.551400 8.188900
1.572600 7.056900
1.593800 7.610600
1.615000 7.704200
1.636200 6.315500
1.657500 6.464100
1.678700 6.200800
1.699900 6.904600
1.721100 10.067100
1.742400 10.190400
1.763600 10.656400
1.784800 10.596900
1.806000 9.335600
1.827200 8.354000
1.848500 7.064900
1.869700 7.045300
1.890900 6.294300
1.912100 6.243700
1.933400 6.634600
1.954600 6.992700
1.975800 6.526400
1.997000 7.671700
2.018200 7.401400
2.039500 7.999700
2.060700 8.492100
2.081900 9.064300
2.103100 10.062900
2.124400 11.808800
2.145600 10.525200
2.166800 8.731500
2.188000 6.789000
2.209200 5.796500
2.230500 6.868400
2.251700 8.566600
2.272900 9.244600
2.294100 8.072500
2.315400 7.749900
2.336600 6.595100
2.357800 6.137600
2.379000 6.392400
2.400200 6.951300
2.421500 8.197000
2.442700 10.184300
2.463900 8.828900
2.485100 7.983400
2.506400 8.745900
2.527600 7.605800
2.548800 7.034200
2.570000 4.963000
2.591200 3.761300
2.612500 3.857000
2.633700 2.602600
2.654900 2.386200
2.676100 2.166600
2.697300 2.154500
2.718600 2.368400
2.739800 2.401700
2.761000 2.449700
2.782200 2.474100
2.803500 2.412300
2.824700 2.178700
2.845900 2.048800
2.867100 1.628400
2.888300 1.660300
2.909600 1.978600
2.930800 2.166800
2.952000 2.387400
2.973200 3.455800
2.994500 3.683800
3.015700 3.237300
3.036900 3.072500
3.058100 3.115700
3.079300 3.062900
3.100600 3.048600
3.121800 3.176300
3.143000 3.271500
3.164200 3.523700
3.185500 4.014200
3.206700 3.910700
3.227900 3.939800
3.249100 3.968000
3.270300 4.010900
3.291600 4.042300
3.312800 4.096000
3.334000 3.839900
3.355200 3.733400
3.376500 3.681300
3.397700 3.517800
3.418900 3.277800
3.440100 3.128000
3.461300 2.732000
3.482600 2.750000
3.503800 2.765100
3.525000 3.116400
3.546200 3.438000
3.567500 3.448800
3.588700 3.554200
3.609900 3.932300
3.631100 5.436200
3.652300 4.471700
3.673600 4.505300
3.694800 4.572400
3.716000 4.615100
3.737200 4.623700
3.758400 4.811600
3.779700 4.760800
3.800900 4.596600
3.822100 4.599800
3.843300 4.549000
3.864600 4.886800
3.885800 5.512900
3.907000 4.380400
3.928200 4.061600
3.949400 3.824900
3.970700 3.493700
3.991900 3.745200
4.013100 3.725900
4.034300 3.606000
4.055600 3.563600
4.076800 3.566500
4.098000 3.484500
4.119200 3.162500
4.140400 2.876100
4.161700 2.735100
4.182900 2.714000
4.204100 2.578500
4.225300 2.313700
4.246600 2.128300
4.267800 2.025200
4.289000 1.921200
4.310200 1.718200
4.331400 1.717100
4.352700 1.690300
4.373900 1.685100
4.395100 1.752600
4.416300 1.700800
4.437600 1.685200
4.458800 1.694400
4.480000 1.747900
4.501200 1.838000
4.522400 1.690200
4.543700 1.626100
4.564900 1.622600
4.586100 1.775200
4.607300 1.870400
4.628600 1.829800
4.649800 1.851100
4.671000 1.852900
4.692200 1.952600
4.713400 1.873700
4.734700 1.767600
4.755900 1.812500
4.777100 1.820700
4.798300 1.801600
4.819600 1.902100
4.840800 1.644800
4.862000 1.674900
4.883200 1.711200
4.904400 1.756400
4.925700 1.810400
4.946900 1.859100
4.968100 1.931500
4.989300 2.009800
5.010500 2.180800
5.031800 2.248500
5.053000 2.410700
5.074200 2.525000
5.095400 2.529000
5.116700 2.469200
5.137900 2.792900
5.159100 2.569600
5.180300 2.633900
5.201500 2.551300
5.222800 2.596300
5.244000 2.628800
5.265200 2.661000
5.286400 2.652000
5.307700 2.659100
5.328900 2.620400
5.350100 2.637700
5.371300 2.549700
5.392500 2.545100
5.413800 2.515000
5.435000 2.517000
5.456200 2.540200
5.477400 2.547500
5.498700 2.556100
5.519900 2.619800
5.541100 2.665500
5.562300 2.766900
5.583500 2.817000
5.604800 2.873200
5.626000 3.047000
5.647200 3.147600
5.668400 2.998700
5.689700 2.874200
5.710900 2.807600
5.732100 2.690100
5.753300 2.660900
5.774500 2.624000
5.795800 2.791900
5.817000 2.794600
5.838200 2.773000
5.859400 2.618200
5.880700 2.634400
5.901900 2.569700
5.923100 2.171800
5.944300 2.238800
5.965500 2.305000
5.986800 2.411300
6.008000 2.548300
6.029200 2.501500
6.050400 2.348700
6.071600 2.157000
6.092900 2.092600
6.114100 2.033500
6.135300 1.994500
6.156500 1.933000
6.177800 1.899200
6.199000 1.930500
6.220200 1.854900
6.241400 1.782400
6.262600 1.706900
6.283900 1.636900
6.305100 1.579600
6.326300 1.517900
6.347500 1.459000
6.368800 1.403000
6.390000 1.266400
6.411200 1.239500
6.432400 1.214900
6.453600 1.193800
6.474900 1.176000
6.496100 1.162700
6.517300 1.147600
6.538500 1.134000
6.559800 1.121700
6.581000 1.109400
6.602200 1.097600
6.623400 1.086000
6.644600 1.074500
6.665900 1.063300
6.687100 1.050300
6.708300 1.040000
6.729500 1.029600
6.750800 1.019500
6.772000 1.009900
6.793200 1.000800
6.814400 0.993700
6.835600 0.986300
6.856900 0.979100
6.878100 0.972300
6.899300 0.965000
6.920500 0.958600
6.941800 0.953200
6.963000 0.948000
6.984200 0.942600
7.005400 0.937200
7.026600 0.975200
7.047900 0.976400
7.069100 0.977900
7.090300 1.013800
7.111500 1.026000
7.132700 1.039000
7.154000 1.045400
7.175200 1.048500
7.196400 1.050300
7.217600 1.052900
7.238900 0.979500
7.260100 0.959400
7.281300 0.937300
7.302500 0.914400
7.323700 0.901500
7.345000 0.891500
7.366200 0.885100
7.387400 0.878900
7.408600 0.907700
7.429900 0.907200
7.451100 0.906500
7.472300 0.905600
7.493500 0.909500
7.514700 0.917500
7.536000 0.934800
7.557200 0.934800
7.578400 0.973700
7.599600 1.256500
7.620900 0.950700
7.642100 0.962200
7.663300 1.007100
7.684500 1.126600
7.705700 0.923300
7.727000 0.912100
7.748200 0.904800
7.769400 0.903200
7.790600 0.887700
7.811900 0.884600
7.833100 0.872700
7.854300 0.864000
7.875500 0.857400
7.896700 0.870000
7.918000 0.888600
7.939200 0.898800
7.960400 1.151100
7.981600 0.772700
8.002900 0.717500
8.024100 0.828800
8.045300 0.799100
8.066500 0.801600
8.087700 0.803300
8.109000 0.803900
8.130200 0.803700
8.151400 0.802600
8.172600 0.800600
8.193900 0.797600
8.215100 0.795000
8.236300 0.794700
8.257500 0.836700
8.278700 1.333400
8.300000 0.660900
8.321200 0.666100
8.342400 0.672700
8.363600 0.681200
8.384800 0.691400
8.406100 0.725800
8.427300 0.739100
8.448500 0.752700
8.469700 0.766600
8.491000 0.780700
8.512200 0.795100
8.533400 0.850300
8.554600 0.864400
8.575800 0.878000
8.597100 0.885000
8.618300 0.896700
8.639500 0.945500
8.660700 0.982300
8.682000 1.022100
8.703200 1.065800
8.724400 1.112400
8.745600 1.045900
8.766800 1.058900
8.788100 1.071900
8.809300 1.084100
8.830500 1.096700
8.851700 1.105500
8.873000 1.121700
8.894200 1.131600
8.915400 1.137600
8.936600 1.138700
8.957800 1.143000
8.979100 1.147200
9.000300 1.152300
9.021500 1.158700
9.042700 1.163700
9.064000 1.168500
9.085200 1.173100
9.106400 1.188000
9.127600 1.192000
9.148800 1.234500
9.170100 1.256700
9.191300 1.268200
