set title 'mp-1078755 - Density of States'
set xlabel 'Energy (eV)'
set ylabel 'DOS (states/eV)'
set grid
set xrange [-10:10]
set yrange [0:27.259]
set xzeroaxis lt -1
set terminal png size 800,600
set output 'mp-1078755_dos_gnuplot.png'
plot '-' using 1:2 with lines title 'DOS'
-5.580100 0.000000
-5.561100 0.000000
-5.542000 0.000000
-5.523000 0.000000
-5.504000 0.000000
-5.484900 0.000000
-5.465900 0.000000
-5.446800 0.000000
-5.427800 0.000000
-5.408800 0.000000
-5.389700 0.000000
-5.370700 0.000000
-5.351700 0.000000
-5.332600 0.000000
-5.313600 0.000000
-5.294500 0.000000
-5.275500 0.000000
-5.256500 0.000000
-5.237400 0.000000
-5.218400 0.000000
-5.199400 0.000000
-5.180300 0.000000
-5.161300 0.000000
-5.142200 0.000000
-5.123200 0.000000
-5.104200 0.000000
-5.085100 0.000000
-5.066100 0.000000
-5.047100 0.000000
-5.028000 0.000000
-5.009000 0.000000
-4.990000 0.000000
-4.970900 0.000000
-4.951900 0.000000
-4.932800 0.000000
-4.913800 0.000000
-4.894800 0.000000
-4.875700 0.000000
-4.856700 0.000000
-4.837700 0.000000
-4.818600 0.000000
-4.799600 0.000000
-4.780500 0.000000
-4.761500 0.000000
-4.742500 0.000000
-4.723400 0.000000
-4.704400 0.000000
-4.685400 0.000000
-4.666300 0.000000
-4.647300 0.000000
-4.628200 0.000000
-4.609200 0.000000
-4.590200 0.000000
-4.571100 0.000000
-4.552100 0.000000
-4.533100 0.000000
-4.514000 0.000000
-4.495000 0.000000
-4.475900 0.000000
-4.456900 0.000000
-4.437900 0.000000
-4.418800 0.000000
-4.399800 0.000000
-4.380800 0.000000
-4.361700 0.000000
-4.342700 0.000000
-4.323600 0.000000
-4.304600 0.000000
-4.285600 0.000000
-4.266500 0.000000
-4.247500 0.000000
-4.228500 0.000000
-4.209400 0.000000
-4.190400 0.000000
-4.171400 0.000000
-4.152300 0.000000
-4.133300 0.000000
-4.114200 0.000000
-4.095200 0.000000
-4.076200 0.000000
-4.057100 0.000000
-4.038100 0.000000
-4.019100 0.000000
-4.000000 0.000000
-3.981000 0.000000
-3.961900 0.000000
-3.942900 0.000000
-3.923900 0.000000
-3.904800 0.000000
-3.885800 0.000000
-3.866800 0.000000
-3.847700 0.000100
-3.828700 0.016500
-3.809600 0.052200
-3.790600 0.096400
-3.771600 0.149200
-3.752500 0.209800
-3.733500 0.275100
-3.714500 0.338700
-3.695400 0.380300
-3.676400 0.409500
-3.657300 0.433000
-3.638300 0.453600
-3.619300 0.471200
-3.600200 0.489800
-3.581200 0.514900
-3.562200 0.545700
-3.543100 0.589300
-3.524100 0.633200
-3.505000 0.675900
-3.486000 0.707400
-3.467000 0.725800
-3.447900 0.732400
-3.428900 0.732300
-3.409900 0.735900
-3.390800 0.740800
-3.371800 0.742700
-3.352800 0.740000
-3.333700 0.746200
-3.314700 0.750300
-3.295600 0.752400
-3.276600 0.756500
-3.257600 0.762200
-3.238500 0.768500
-3.219500 0.773900
-3.200500 0.784500
-3.181400 0.819600
-3.162400 0.854700
-3.143300 0.889500
-3.124300 0.921900
-3.105300 0.964200
-3.086200 1.002100
-3.067200 1.036800
-3.048200 1.067100
-3.029100 1.085200
-3.010100 1.104100
-2.991000 1.131400
-2.972000 1.163500
-2.953000 1.197900
-2.933900 1.234000
-2.914900 1.271700
-2.895900 1.314600
-2.876800 1.365400
-2.857800 1.412500
-2.838700 1.461400
-2.819700 1.512200
-2.800700 1.560700
-2.781600 1.608300
-2.762600 1.674800
-2.743600 1.766100
-2.724500 1.852600
-2.705500 1.928400
-2.686400 1.996200
-2.667400 2.037900
-2.648400 2.052000
-2.629300 2.061300
-2.610300 2.069700
-2.591300 2.091600
-2.572200 2.126900
-2.553200 2.170500
-2.534200 2.216000
-2.515100 2.259400
-2.496100 2.303300
-2.477000 2.350200
-2.458000 2.397600
-2.439000 2.444500
-2.419900 2.494900
-2.400900 2.545800
-2.381900 2.612200
-2.362800 2.683400
-2.343800 2.784800
-2.324700 3.038500
-2.305700 3.603000
-2.286700 4.069900
-2.267600 4.246700
-2.248600 4.053600
-2.229600 3.941800
-2.210500 3.828800
-2.191500 3.774100
-2.172400 3.882400
-2.153400 4.078600
-2.134400 4.262200
-2.115300 4.412300
-2.096300 4.599700
-2.077300 4.929000
-2.058200 5.506200
-2.039200 6.279700
-2.020100 6.196200
-2.001100 5.837200
-1.982100 6.342800
-1.963000 5.748200
-1.944000 5.418200
-1.925000 6.220100
-1.905900 2.490200
-1.886900 2.150500
-1.867900 1.910500
-1.848800 1.639400
-1.829800 1.522100
-1.810700 1.251800
-1.791700 0.000000
-1.772700 0.000000
-1.753600 0.000000
-1.734600 0.000000
-1.715600 0.000000
-1.696500 0.000000
-1.677500 0.000000
-1.658400 0.000000
-1.639400 0.000000
-1.620400 0.000000
-1.601300 0.000000
-1.582300 0.000000
-1.563300 0.000000
-1.544200 0.000000
-1.525200 0.000000
-1.506100 0.000000
-1.487100 0.000000
-1.468100 0.000000
-1.449000 0.000000
-1.430000 0.000000
-1.411000 0.000000
-1.391900 0.000000
-1.372900 0.000000
-1.353800 0.000000
-1.334800 0.000000
-1.315800 0.000000
-1.296700 0.000000
-1.277700 0.000000
-1.258700 0.000000
-1.239600 0.000000
-1.220600 0.000000
-1.201500 0.000000
-1.182500 0.000000
-1.163500 0.000000
-1.144400 0.000000
-1.125400 0.000000
-1.106400 0.000000
-1.087300 0.000000
-1.068300 0.000000
-1.049300 0.000000
-1.030200 0.000000
-1.011200 0.000000
-0.992100 0.000000
-0.973100 0.000000
-0.954100 0.000000
-0.935000 0.000000
-0.916000 0.000000
-0.897000 0.000000
-0.877900 0.000000
-0.858900 0.000000
-0.839800 0.000000
-0.820800 0.000000
-0.801800 0.000000
-0.782700 0.000000
-0.763700 0.000000
-0.744700 0.000000
-0.725600 0.000000
-0.706600 0.000000
-0.687500 0.000000
-0.668500 0.000000
-0.649500 0.000000
-0.630400 0.000000
-0.611400 0.000000
-0.592400 0.000000
-0.573300 0.000000
-0.554300 0.000000
-0.535200 0.000000
-0.516200 0.000000
-0.497200 0.000000
-0.478100 0.000000
-0.459100 0.000000
-0.440100 0.000000
-0.421000 0.000000
-0.402000 0.000000
-0.382900 0.000000
-0.363900 0.000000
-0.344900 0.000000
-0.325800 0.000000
-0.306800 0.000000
-0.287800 0.000000
-0.268700 0.000000
-0.249700 0.000000
-0.230700 0.000000
-0.211600 0.000000
-0.192600 0.000000
-0.173500 0.000000
-0.154500 0.000000
-0.135500 0.000000
-0.116400 0.000000
-0.097400 0.000000
-0.078400 0.000000
-0.059300 0.000000
-0.040300 0.000000
-0.021200 0.000000
-0.002200 0.000000
0.016800 0.000000
0.035900 0.000000
0.054900 0.000000
0.073900 0.000000
0.093000 0.000000
0.112000 0.000000
0.131100 0.000000
0.150100 0.000000
0.169100 0.000000
0.188200 0.000000
0.207200 0.000000
0.226200 0.000000
0.245300 0.000000
0.264300 0.000000
0.283400 0.000000
0.302400 0.000000
0.321400 0.000000
0.340500 0.000000
0.359500 0.000000
0.378500 0.000000
0.397600 0.000000
0.416600 0.000000
0.435700 0.001200
0.454700 0.010300
0.473700 0.028200
0.492800 0.055000
0.511800 0.085900
0.530800 0.117200
0.549900 0.148900
0.568900 0.194600
0.587900 0.212900
0.607000 0.230100
0.626000 0.246000
0.645100 0.260600
0.664100 0.274100
0.683100 0.284900
0.702200 0.292500
0.721200 0.305600
0.740200 0.356500
0.759300 0.462300
0.778300 0.627900
0.797400 0.877800
0.816400 1.189500
0.835400 1.375700
0.854500 1.531300
0.873500 1.678700
0.892500 1.685800
0.911600 1.556800
0.930600 1.465200
0.949700 1.465000
0.968700 1.527100
0.987700 1.594800
1.006800 1.672100
1.025800 1.749500
1.044800 1.829000
1.063900 1.910700
1.082900 1.996100
1.102000 2.104400
1.121000 2.269600
1.140000 2.412300
1.159100 2.557300
1.178100 2.745100
1.197100 3.002500
1.216200 3.317400
1.235200 3.497100
1.254300 3.614500
1.273300 3.544100
1.292300 3.450800
1.311400 3.455200
1.330400 4.267700
1.349400 4.711500
1.368500 4.883000
1.387500 4.462100
1.406500 4.117000
1.425600 4.443400
1.444600 4.471600
1.463700 4.655500
1.482700 4.097700
1.501700 3.623300
1.520800 3.354100
1.539800 3.060100
1.558800 2.806800
1.577900 2.809000
1.596900 2.873400
1.616000 2.948600
1.635000 3.034300
1.654000 3.131000
1.673100 3.235500
1.692100 3.342000
1.711100 3.575100
1.730200 3.822700
1.749200 4.066200
1.768300 3.896000
1.787300 3.930200
1.806300 3.972500
1.825400 4.179100
1.844400 4.361800
1.863400 4.368300
1.882500 4.332500
1.901500 4.399700
1.920600 4.628800
1.939600 4.723300
1.958600 4.185300
1.977700 3.534800
1.996700 3.152200
2.015700 2.810200
2.034800 2.556900
2.053800 2.660700
2.072900 2.326900
2.091900 1.693600
2.110900 1.386600
2.130000 1.394200
2.149000 1.537500
2.168000 1.722200
2.187100 1.997800
2.206100 2.241800
2.225100 2.459200
2.244200 2.698200
2.263200 3.013300
2.282300 3.476700
2.301300 3.954100
2.320300 5.444500
2.339400 6.414700
2.358400 5.660300
2.377400 5.706900
2.396500 5.352300
2.415500 4.801600
2.434600 4.229300
2.453600 4.161200
2.472600 3.603700
2.491700 2.936600
2.510700 1.871800
2.529700 1.692700
2.548800 2.094000
2.567800 2.543600
2.586900 3.128800
2.605900 3.007400
2.624900 2.999900
2.644000 3.368000
2.663000 3.908500
2.682000 6.944900
2.701100 8.527400
2.720100 8.971300
2.739200 8.087700
2.758200 8.774700
2.777200 6.611100
2.796300 6.505100
2.815300 6.780500
2.834300 7.140200
2.853400 7.124300
2.872400 7.694000
2.891400 7.355300
2.910500 5.818500
2.929500 5.207000
2.948600 4.642700
2.967600 4.062100
2.986600 3.897300
3.005700 3.974900
3.024700 5.145800
3.043700 5.384400
3.062800 5.667500
3.081800 5.449800
3.100900 5.396900
3.119900 5.939300
3.138900 8.028200
3.158000 9.211900
3.177000 11.982100
3.196000 11.400400
3.215100 10.660800
3.234100 9.486100
3.253200 11.638600
3.272200 10.026900
3.291200 9.220100
3.310300 9.543200
3.329300 10.130900
3.348300 10.976200
3.367400 12.773000
3.386400 12.199100
3.405500 11.273200
3.424500 10.493300
3.443500 9.464100
3.462600 10.948000
3.481600 10.913800
3.500600 12.217500
3.519700 12.594200
3.538700 10.922200
3.557800 9.369800
3.576800 7.725900
3.595800 8.874500
3.614900 12.374800
3.633900 9.361300
3.652900 9.032100
3.672000 9.136500
3.691000 8.431700
3.710000 8.711600
3.729100 8.371000
3.748100 8.756900
3.767200 9.212200
3.786200 9.173900
3.805200 9.153800
3.824300 9.679000
3.843300 10.356800
3.862300 12.059300
3.881400 14.708200
3.900400 16.493500
3.919500 18.374200
3.938500 16.829800
3.957500 17.299000
3.976600 18.085600
3.995600 16.081700
4.014600 19.509600
4.033700 14.657100
4.052700 10.935800
4.071800 9.803200
4.090800 10.308500
4.109800 12.096700
4.128900 12.220500
4.147900 11.326800
4.166900 9.037100
4.186000 9.440200
4.205000 10.119500
4.224100 9.605900
4.243100 9.119800
4.262100 8.238500
4.281200 8.190800
4.300200 8.193100
4.319200 8.422600
4.338300 8.696100
4.357300 8.897800
4.376400 10.280200
4.395400 11.243200
4.414400 11.417100
4.433500 10.207600
4.452500 9.354300
4.471500 8.611500
4.490600 7.966500
4.509600 7.548700
4.528600 7.302700
4.547700 7.139200
4.566700 7.131700
4.585800 6.910400
4.604800 7.212300
4.623800 8.102200
4.642900 9.540500
4.661900 8.805800
4.680900 8.590600
4.700000 8.860400
4.719000 9.470100
4.738100 9.413000
4.757100 9.060100
4.776100 9.090600
4.795200 8.996800
4.814200 8.137400
4.833200 7.396100
4.852300 7.395400
4.871300 14.246300
4.890400 14.941200
4.909400 15.530800
4.928400 15.669600
4.947500 12.727500
4.966500 11.913500
4.985500 11.266400
5.004600 12.392400
5.023600 12.934200
5.042700 14.107500
5.061700 16.480000
5.080700 17.794700
5.099800 17.837000
5.118800 16.685900
5.137800 12.463500
5.156900 14.802600
5.175900 16.433700
5.195000 17.119800
5.214000 18.282900
5.233000 12.927100
5.252100 11.422000
5.271100 11.748600
5.290100 9.961600
5.309200 10.417700
5.328200 10.641100
5.347200 9.855200
5.366300 8.921300
5.385300 9.016100
5.404400 9.306700
5.423400 10.130800
5.442400 11.222800
5.461500 10.184700
5.480500 9.715700
5.499500 8.783200
5.518600 7.844200
5.537600 6.843200
5.556700 6.773100
5.575700 7.159000
5.594700 7.782600
5.613800 8.026600
5.632800 8.813800
5.651800 10.457600
5.670900 10.152300
5.689900 8.764400
5.709000 8.349300
5.728000 7.762800
5.747000 7.340300
5.766100 7.006300
5.785100 6.509600
5.804100 6.067000
5.823200 5.715100
5.842200 6.074200
5.861300 6.340700
5.880300 6.290600
5.899300 7.074400
5.918400 8.382600
5.937400 9.120900
5.956400 9.649400
5.975500 10.696900
5.994500 12.851700
6.013600 10.987900
6.032600 8.854800
6.051600 8.494600
6.070700 9.432800
6.089700 9.161300
6.108700 7.501600
6.127800 8.186000
6.146800 14.906600
6.165800 11.805700
6.184900 8.911900
6.203900 7.835800
6.223000 7.136800
6.242000 8.134500
6.261000 9.606500
6.280100 11.122700
6.299100 15.083600
6.318100 14.362100
6.337200 18.750500
6.356200 13.717200
6.375300 13.833800
6.394300 15.594800
6.413300 18.403500
6.432400 24.781100
6.451400 16.267600
6.470400 12.316200
6.489500 12.607500
6.508500 13.061600
6.527600 13.873300
6.546600 15.038300
6.565600 17.241300
6.584700 17.087100
6.603700 15.764600
6.622700 17.123600
6.641800 15.474200
6.660800 15.013400
6.679900 14.171300
6.698900 15.653100
6.717900 16.130200
6.737000 17.471600
6.756000 15.793400
6.775000 15.617400
6.794100 18.217800
6.813100 15.862800
6.832200 13.674600
6.851200 12.967600
6.870200 14.994300
6.889300 13.849300
6.908300 11.298000
6.927300 10.480500
6.946400 10.364300
6.965400 11.151500
6.984400 11.039800
7.003500 11.412500
7.022500 12.199300
7.041600 13.229400
7.060600 12.942400
7.079600 12.926700
7.098700 17.386600
7.117700 18.755800
7.136700 20.265800
7.155800 16.726100
7.174800 15.852200
7.193900 22.558000
7.212900 17.656000
7.231900 15.323100
7.251000 13.484800
7.270000 11.280300
7.289000 9.792700
7.308100 10.634000
7.327100 12.478200
7.346200 11.384100
7.365200 10.629900
7.384200 10.598300
7.403300 11.345500
7.422300 8.411300
7.441300 8.162300
7.460400 8.101100
7.479400 8.621900
7.498500 10.808500
7.517500 11.120700
7.536500 10.820400
7.555600 10.791400
7.574600 10.288300
7.593600 9.617600
7.612700 7.785100
7.631700 9.433900
7.650700 10.446700
7.669800 9.324700
7.688800 8.042200
7.707900 7.530600
7.726900 6.946400
7.745900 6.538500
7.765000 6.403300
7.784000 6.519600
7.803000 7.214400
7.822100 5.599800
7.841100 5.288400
7.860200 4.991700
7.879200 4.835300
7.898200 4.802600
7.917300 5.342900
7.936300 5.962100
7.955300 5.975100
7.974400 6.140900
7.993400 6.233700
8.012500 5.653800
8.031500 5.349300
8.050500 4.964100
8.069600 4.640900
8.088600 4.411200
8.107600 4.550400
8.126700 4.824700
8.145700 6.158200
8.164800 15.648900
8.183800 19.312800
8.202800 14.387500
8.221900 14.261400
8.240900 12.672700
8.259900 11.066900
8.279000 9.710500
8.298000 6.940400
8.317100 5.302700
8.336100 2.860700
8.355100 2.091500
8.374200 1.732600
8.393200 1.610100
8.412200 1.491500
8.431300 1.376900
8.450300 1.266600
8.469300 1.352300
8.488400 1.313200
8.507400 1.307400
8.526500 1.352000
8.545500 1.372900
8.564500 1.389600
8.583600 1.393600
8.602600 1.377300
8.621600 1.339600
8.640700 1.277200
8.659700 1.276200
8.678800 1.277000
8.697800 1.316100
8.716800 1.342300
8.735900 1.378600
8.754900 1.434100
8.773900 1.424400
8.793000 1.436900
8.812000 1.459500
8.831100 1.488800
8.850100 1.526600
8.869100 1.810600
8.888200 1.975200
8.907200 2.027500
8.926200 2.077800
8.945300 2.165500
8.964300 2.262300
8.983400 2.318800
9.002400 2.362800
9.021400 2.412700
9.040500 2.566900
9.059500 2.446600
9.078500 2.491900
9.097600 2.584500
9.116600 2.697200
9.135700 3.511700
9.154700 3.819800
9.173700 3.989800
9.192800 4.309800
9.211800 4.795700
9.230800 4.965900
9.249900 5.397000
9.268900 6.142400
9.287900 7.280000
9.307000 9.411700
9.326000 8.506900
9.345100 8.281200
9.364100 8.272500
9.383100 8.618800
9.402200 8.712000
9.421200 8.820400
9.440200 9.022500
9.459300 9.381800
9.478300 9.647000
9.497400 9.710200
9.516400 8.476000
9.535400 7.513800
9.554500 7.743700
9.573500 8.062500
9.592500 6.846500
9.611600 5.498400
9.630600 4.249400
9.649700 3.941100
9.668700 3.630000
9.687700 3.019100
9.706800 2.652100
9.725800 2.491200
9.744800 2.374800
9.763900 2.270800
9.782900 2.179000
9.802000 2.104800
9.821000 2.049500
9.840000 2.015100
9.859100 2.025600
9.878100 2.067900
9.897100 2.133800
9.916200 2.221200
9.935200 2.320500
9.954300 2.436000
9.973300 2.564700
9.992300 2.706300
10.011400 3.051800
10.030400 3.210300
10.049400 2.745700
10.068500 2.665100
10.087500 2.785300
10.106500 2.964100
10.125600 3.136900
10.144600 3.281400
10.163700 3.402100
10.182700 3.515700
10.201700 3.677200
10.220800 3.875500
10.239800 3.851900
10.258800 3.766500
10.277900 3.349200
10.296900 3.205600
10.316000 3.088700
10.335000 2.990200
10.354000 2.904300
10.373100 2.870800
10.392100 3.013300
10.411100 3.730800
10.430200 2.972800
10.449200 3.017100
10.468300 3.446100
10.487300 3.346600
10.506300 3.249000
10.525400 3.172500
10.544400 3.116600
10.563400 3.094100
10.582500 3.093400
10.601500 3.093700
10.620600 3.071900
10.639600 3.045600
10.658600 3.011700
10.677700 2.974300
10.696700 2.933300
10.715700 2.899300
10.734800 2.859600
10.753800 2.778200
10.772900 2.846700
10.791900 2.865600
10.810900 2.814000
10.830000 2.750900
10.849000 2.680900
10.868000 2.605800
10.887100 2.514100
10.906100 2.606100
10.925100 2.519900
10.944200 2.600000
10.963200 2.626900
10.982300 2.597100
11.001300 2.548500
11.020300 2.534200
11.039400 2.524200
11.058400 2.547000
11.077400 2.539800
11.096500 2.529100
11.115500 2.514900
11.134600 2.493900
11.153600 2.464500
11.172600 2.431800
11.191700 2.397900
11.210700 2.357800
11.229700 2.313700
11.248800 2.266900
11.267800 2.217800
11.286900 2.165800
11.305900 2.106100
11.324900 2.065900
11.344000 2.050500
11.363000 2.021000
11.382000 2.025600
11.401100 1.999000
11.420100 2.008800
11.439200 1.978200
11.458200 1.944900
11.477200 1.865700
11.496300 1.846200
11.515300 1.834900
11.534300 1.832100
11.553400 1.850800
11.572400 1.981300
11.591400 2.090100
11.610500 2.135300
11.629500 2.234700
11.648600 2.280500
11.667600 2.319000
11.686600 2.345000
11.705700 2.357000
11.724700 2.355400
11.743700 2.341600
11.762800 2.310500
11.781800 2.258600
11.800900 2.210800
11.819900 2.238600
11.838900 2.338500
11.858000 2.441700
11.877000 2.483700
11.896000 2.418700
11.915100 2.233800
11.934100 2.281200
11.953200 2.465500
11.972200 2.673600
11.991200 3.041000
12.010300 2.974200
12.029300 2.842600
12.048300 2.790400
12.067400 2.769600
12.086400 2.812100
12.105500 2.856000
12.124500 3.219700
12.143500 2.801200
12.162600 2.789900
12.181600 2.813300
12.200600 2.923500
12.219700 3.178700
12.238700 3.259900
12.257800 3.132400
12.276800 3.043500
12.295800 2.977600
12.314900 2.884300
12.333900 2.886800
12.352900 3.011500
12.372000 3.072800
12.391000 3.151900
12.410000 3.247500
12.429100 3.356800
12.448100 3.424700
12.467200 3.456900
12.486200 3.535500
12.505200 3.406600
12.524300 3.344100
12.543300 3.285000
12.562300 3.247800
12.581400 3.216400
12.600400 3.204500
12.619500 3.195400
12.638500 3.167600
12.657500 3.118900
12.676600 3.050800
12.695600 2.886600
12.714600 2.752300
12.733700 2.705700
12.752700 2.657400
12.771800 2.606700
12.790800 2.557200
12.809800 2.513800
12.828900 2.472000
12.847900 2.442200
12.866900 2.534500
12.886000 2.706400
12.905000 2.664000
12.924100 2.680500
12.943100 2.745400
12.962100 2.822400
12.981200 2.912800
13.000200 3.020300
13.019200 3.213200
13.038300 3.400500
13.057300 3.516600
13.076400 3.613800
13.095400 3.702900
13.114400 3.712200
13.133500 3.696600
13.152500 3.739500
13.171500 3.803600
13.190600 3.937500
13.209600 4.061000
13.228600 4.094600
13.247700 3.809900
13.266700 3.382000
13.285800 3.081300
13.304800 2.665400
13.323800 2.613100
13.342900 2.561200
13.361900 2.514400
13.380900 2.496200
13.400000 2.511100
13.419000 2.516100
13.438100 2.532200
13.457100 2.573300
13.476100 2.649000
13.495200 2.783700
13.514200 3.063400
13.533200 3.244800
13.552300 3.295700
13.571300 3.218500
13.590400 3.240100
13.609400 3.160400
13.628400 3.221400
13.647500 3.325600
13.666500 3.398900
13.685500 3.521800
13.704600 3.656200
13.723600 3.786500
13.742700 3.890900
13.761700 3.872100
13.780700 3.860800
13.799800 3.767500
13.818800 3.745600
13.837800 3.755000
13.856900 3.454900
13.875900 3.159900
13.895000 2.927000
13.914000 2.816000
13.933000 2.795800
13.952100 2.873600
13.971100 2.924600
13.990100 2.956200
14.009200 2.995700
14.028200 3.026000
14.047200 3.058900
14.066300 3.152600
14.085300 3.314000
14.104400 3.430400
14.123400 3.471800
14.142400 3.527700
14.161500 3.572200
14.180500 3.561200
14.199500 3.553000
14.218600 3.495500
14.237600 3.471800
14.256700 3.824400
14.275700 3.517100
14.294700 3.383900
14.313800 3.308300
14.332800 3.252900
14.351800 3.247300
14.370900 3.321800
14.389900 3.476300
14.409000 3.499700
14.428000 3.575200
14.447000 3.671800
14.466100 3.821300
14.485100 3.890100
14.504100 3.945400
14.523200 4.118700
14.542200 3.957000
