set title 'mp-570690 - Density of States'
set xlabel 'Energy (eV)'
set ylabel 'DOS (states/eV)'
set grid
set xrange [-10:10]
set yrange [0:48.926]
set xzeroaxis lt -1
set terminal png size 800,600
set output 'mp-570690_dos_gnuplot.png'
plot '-' using 1:2 with lines title 'DOS'
-9.276100 0.000000
-9.256100 0.000000
-9.236100 0.000000
-9.216100 0.000000
-9.196100 0.000000
-9.176100 0.000000
-9.156100 0.000000
-9.136100 0.000000
-9.116000 0.000000
-9.096000 0.000000
-9.076000 0.000000
-9.056000 0.000000
-9.036000 0.000000
-9.016000 0.000000
-8.996000 0.000000
-8.976000 0.000000
-8.956000 0.000000
-8.936000 0.000000
-8.916000 0.000000
-8.896000 0.000000
-8.876000 0.000000
-8.856000 0.000000
-8.836000 0.000000
-8.816000 0.000000
-8.796000 0.000000
-8.776000 0.000000
-8.756000 0.000000
-8.736000 0.000000
-8.716000 0.000000
-8.696000 0.000000
-8.676000 0.000000
-8.656000 0.000000
-8.636000 0.000000
-8.616000 0.000000
-8.596000 0.000000
-8.576000 0.000000
-8.556000 0.000000
-8.536000 0.000000
-8.515900 0.000000
-8.495900 0.000000
-8.475900 0.000000
-8.455900 0.000000
-8.435900 0.000000
-8.415900 0.000000
-8.395900 0.000000
-8.375900 0.000000
-8.355900 0.000000
-8.335900 0.000000
-8.315900 0.000000
-8.295900 0.000000
-8.275900 0.000000
-8.255900 0.000000
-8.235900 0.000000
-8.215900 0.000000
-8.195900 0.000000
-8.175900 0.000000
-8.155900 0.000000
-8.135900 0.000000
-8.115900 0.000000
-8.095900 0.000000
-8.075900 0.000000
-8.055900 0.000000
-8.035900 0.000000
-8.015900 0.000000
-7.995900 0.000000
-7.975900 0.000000
-7.955900 0.000000
-7.935900 0.000000
-7.915800 0.000000
-7.895800 0.000000
-7.875800 0.000000
-7.855800 0.000000
-7.835800 0.000000
-7.815800 0.000000
-7.795800 0.000000
-7.775800 0.000000
-7.755800 0.000000
-7.735800 0.000000
-7.715800 0.000000
-7.695800 0.000000
-7.675800 0.000000
-7.655800 0.000000
-7.635800 0.000000
-7.615800 0.000000
-7.595800 0.000000
-7.575800 0.000000
-7.555800 0.000000
-7.535800 0.000000
-7.515800 0.000000
-7.495800 0.000000
-7.475800 0.000000
-7.455800 0.000300
-7.435800 0.019400
-7.415800 0.040300
-7.395800 0.061300
-7.375800 0.082300
-7.355800 0.103200
-7.335800 0.124200
-7.315700 0.145100
-7.295700 0.166100
-7.275700 0.187100
-7.255700 0.208000
-7.235700 0.229300
-7.215700 0.258600
-7.195700 0.296000
-7.175700 0.338100
-7.155700 0.380100
-7.135700 0.422200
-7.115700 0.464300
-7.095700 0.506400
-7.075700 0.548400
-7.055700 0.590500
-7.035700 0.632600
-7.015700 0.674600
-6.995700 0.716700
-6.975700 0.760600
-6.955700 0.808700
-6.935700 0.860100
-6.915700 0.913400
-6.895700 0.968600
-6.875700 1.025600
-6.855700 1.085600
-6.835700 1.148900
-6.815700 1.212200
-6.795700 1.275500
-6.775700 1.094500
-6.755700 1.044600
-6.735700 1.089200
-6.715600 1.133700
-6.695600 1.181000
-6.675600 1.231500
-6.655600 1.283200
-6.635600 1.336100
-6.615600 1.390200
-6.595600 1.445400
-6.575600 1.501900
-6.555600 1.449600
-6.535600 1.382200
-6.515600 1.313100
-6.495600 1.355200
-6.475600 1.398300
-6.455600 1.442500
-6.435600 1.487800
-6.415600 1.534100
-6.395600 1.581400
-6.375600 1.628800
-6.355600 1.676800
-6.335600 1.725800
-6.315600 1.762900
-6.295600 1.726700
-6.275600 1.732600
-6.255600 1.741300
-6.235600 1.751800
-6.215600 1.762700
-6.195600 1.767700
-6.175600 1.765400
-6.155600 1.785800
-6.135600 1.825800
-6.115500 1.866600
-6.095500 1.908300
-6.075500 1.950800
-6.055500 1.968500
-6.035500 1.979600
-6.015500 1.994000
-5.995500 2.012000
-5.975500 2.035000
-5.955500 2.058500
-5.935500 2.082300
-5.915500 2.105400
-5.895500 2.127700
-5.875500 2.149200
-5.855500 2.169900
-5.835500 2.187200
-5.815500 2.189100
-5.795500 2.173800
-5.775500 2.192200
-5.755500 2.228900
-5.735500 2.266500
-5.715500 2.304800
-5.695500 2.343800
-5.675500 2.383600
-5.655500 2.397000
-5.635500 2.409900
-5.615500 2.429000
-5.595500 2.452900
-5.575500 2.477000
-5.555500 2.501100
-5.535500 2.525300
-5.515400 2.549500
-5.495400 2.573700
-5.475400 2.598600
-5.455400 2.624100
-5.435400 2.649700
-5.415400 2.675400
-5.395400 2.700500
-5.375400 2.724300
-5.355400 2.746800
-5.335400 2.768100
-5.315400 2.788100
-5.295400 2.806700
-5.275400 2.830400
-5.255400 2.868800
-5.235400 2.908900
-5.215400 2.950000
-5.195400 2.987100
-5.175400 3.011600
-5.155400 3.037000
-5.135400 3.063200
-5.115400 3.090400
-5.095400 3.118500
-5.075400 3.147600
-5.055400 3.177500
-5.035400 3.208000
-5.015400 3.239500
-4.995400 3.271900
-4.975400 3.305100
-4.955400 3.338800
-4.935400 3.373200
-4.915300 3.426900
-4.895300 3.817100
-4.875300 3.838000
-4.855300 3.859100
-4.835300 3.880400
-4.815300 3.899700
-4.795300 3.910000
-4.775300 3.914000
-4.755300 3.909000
-4.735300 3.924600
-4.715300 3.956800
-4.695300 4.259100
-4.675300 4.410800
-4.655300 4.426300
-4.635300 4.442100
-4.615300 4.458400
-4.595300 4.475100
-4.575300 4.477300
-4.555300 4.474900
-4.535300 4.477500
-4.515300 4.487100
-4.495300 4.499100
-4.475300 4.547300
-4.455300 4.667000
-4.435300 4.765800
-4.415300 4.882700
-4.395300 4.950700
-4.375300 4.968800
-4.355300 4.962900
-4.335300 4.957600
-4.315200 4.953100
-4.295200 4.949900
-4.275200 4.948400
-4.255200 4.949700
-4.235200 4.967300
-4.215200 5.004900
-4.195200 5.062400
-4.175200 5.125600
-4.155200 5.160400
-4.135200 5.198400
-4.115200 5.237400
-4.095200 5.286700
-4.075200 5.345100
-4.055200 5.358100
-4.035200 5.347200
-4.015200 5.332100
-3.995200 5.304000
-3.975200 5.275900
-3.955200 5.247800
-3.935200 5.223100
-3.915200 5.207200
-3.895200 5.235600
-3.875200 5.270900
-3.855200 5.303600
-3.835200 5.333100
-3.815200 5.359200
-3.795200 5.381900
-3.775200 5.404300
-3.755200 5.452200
-3.735200 5.485900
-3.715100 5.506600
-3.695100 5.514500
-3.675100 5.506500
-3.655100 5.207700
-3.635100 5.168000
-3.615100 5.155900
-3.595100 5.145200
-3.575100 5.135800
-3.555100 5.129200
-3.535100 5.131500
-3.515100 4.876100
-3.495100 4.912200
-3.475100 4.959000
-3.455100 5.016500
-3.435100 5.084600
-3.415100 5.150400
-3.395100 5.188400
-3.375100 5.720700
-3.355100 4.993800
-3.335100 5.012800
-3.315100 5.026300
-3.295100 5.055500
-3.275100 5.086300
-3.255100 5.094600
-3.235100 5.004000
-3.215100 4.882900
-3.195100 4.841600
-3.175100 7.105200
-3.155100 6.670200
-3.135100 4.445300
-3.115000 4.454400
-3.095000 4.468500
-3.075000 4.541400
-3.055000 4.660900
-3.035000 6.163400
-3.015000 6.646800
-2.995000 4.997300
-2.975000 4.625700
-2.955000 4.676800
-2.935000 4.720200
-2.915000 4.837500
-2.895000 4.970500
-2.875000 5.063900
-2.855000 5.134400
-2.835000 6.332700
-2.815000 6.732200
-2.795000 5.575000
-2.775000 4.561800
-2.755000 4.589100
-2.735000 4.727400
-2.715000 4.985700
-2.695000 6.464900
-2.675000 7.706600
-2.655000 6.214300
-2.635000 5.992500
-2.615000 6.397800
-2.595000 6.836000
-2.575000 7.156700
-2.555000 7.511200
-2.534900 0.867200
-2.514900 0.876200
-2.494900 0.885200
-2.474900 0.894200
-2.454900 0.903200
-2.434900 0.912200
-2.414900 0.933600
-2.394900 1.138200
-2.374900 1.595900
-2.354900 2.353700
-2.334900 3.636800
-2.314900 5.059400
-2.294900 6.505600
-2.274900 7.975300
-2.254900 15.311400
-2.234900 44.478200
-2.214900 0.000000
-2.194900 0.000000
-2.174900 0.000000
-2.154900 0.000000
-2.134900 0.000000
-2.114900 0.000000
-2.094900 0.000000
-2.074900 0.000000
-2.054900 0.000000
-2.034900 0.000000
-2.014900 0.000000
-1.994900 0.000000
-1.974900 0.000000
-1.954900 0.000000
-1.934800 0.000000
-1.914800 0.000000
-1.894800 0.000000
-1.874800 0.000000
-1.854800 0.000000
-1.834800 0.000000
-1.814800 0.000000
-1.794800 0.000000
-1.774800 0.000000
-1.754800 0.000000
-1.734800 0.000000
-1.714800 0.000000
-1.694800 0.000000
-1.674800 0.000000
-1.654800 0.000000
-1.634800 0.000000
-1.614800 0.000000
-1.594800 0.000000
-1.574800 0.000000
-1.554800 0.000000
-1.534800 0.000000
-1.514800 0.000000
-1.494800 0.000000
-1.474800 0.000000
-1.454800 0.000000
-1.434800 0.000000
-1.414800 0.000000
-1.394800 0.000000
-1.374800 0.000000
-1.354800 0.000000
-1.334700 0.000000
-1.314700 0.000000
-1.294700 0.000000
-1.274700 0.000000
-1.254700 0.000000
-1.234700 0.000000
-1.214700 0.000000
-1.194700 0.000000
-1.174700 0.000000
-1.154700 0.000000
-1.134700 0.000000
-1.114700 0.000000
-1.094700 0.000000
-1.074700 0.000000
-1.054700 0.000000
-1.034700 0.000000
-1.014700 0.000000
-0.994700 0.000000
-0.974700 0.000000
-0.954700 0.000000
-0.934700 0.000000
-0.914700 0.000000
-0.894700 0.000000
-0.874700 0.000000
-0.854700 0.000000
-0.834700 0.000000
-0.814700 0.000000
-0.794700 0.000000
-0.774700 0.000000
-0.754700 0.000000
-0.734600 0.000000
-0.714600 0.000000
-0.694600 0.000000
-0.674600 0.000000
-0.654600 0.000000
-0.634600 0.000000
-0.614600 0.000000
-0.594600 0.000000
-0.574600 0.000000
-0.554600 0.000000
-0.534600 0.000000
-0.514600 0.000000
-0.494600 0.003800
-0.474600 0.011700
-0.454600 0.021600
-0.434600 0.033500
-0.414600 0.047500
-0.394600 0.063500
-0.374600 0.081400
-0.354600 0.100900
-0.334600 0.122000
-0.314600 0.144800
-0.294600 0.169200
-0.274600 0.195300
-0.254600 0.222900
-0.234600 0.251000
-0.214600 0.279100
-0.194600 0.307200
-0.174600 0.335300
-0.154600 0.363400
-0.134500 0.391500
-0.114500 0.419700
-0.094500 4.184700
-0.074500 2.216900
-0.054500 3.253500
-0.034500 4.295100
-0.014500 5.341900
0.005500 4.629400
0.025500 2.203900
0.045500 2.385700
0.065500 2.561700
0.085500 2.706800
0.105500 4.014000
0.125500 5.617300
0.145500 5.042900
0.165500 5.392200
0.185500 6.660200
0.205500 7.943900
0.225500 6.780500
0.245500 4.269600
0.265500 4.219700
0.285500 5.299600
0.305500 6.953500
0.325500 9.132500
0.345500 11.053800
0.365500 5.440400
0.385500 5.237100
0.405500 5.162800
0.425500 5.149100
0.445500 7.511700
0.465600 7.467400
0.485600 6.683200
0.505600 7.276700
0.525600 7.853000
0.545600 7.237700
0.565600 7.117100
0.585600 6.884400
0.605600 6.552700
0.625600 6.809400
0.645600 6.884300
0.665600 7.162000
0.685600 7.354700
0.705600 7.044100
0.725600 7.314100
0.745600 8.033600
0.765600 8.251000
0.785600 7.902200
0.805600 5.399600
0.825600 5.216400
0.845600 5.055100
0.865600 5.317800
0.885600 6.500400
0.905600 6.485600
0.925600 6.015700
0.945600 5.343300
0.965600 5.467100
0.985600 5.570800
1.005600 5.653100
1.025600 5.713900
1.045600 5.754000
1.065700 5.791300
1.085700 5.751500
1.105700 5.592100
1.125700 5.285600
1.145700 5.798500
1.165700 7.489400
1.185700 4.407600
1.205700 4.365500
1.225700 4.368300
1.245700 4.408300
1.265700 4.485100
1.285700 7.565700
1.305700 4.898600
1.325700 4.925400
1.345700 4.962000
1.365700 5.359400
1.385700 8.055600
1.405700 5.745000
1.425700 5.338700
1.445700 5.271700
1.465700 5.170000
1.485700 13.881400
1.505700 5.254200
1.525700 5.183500
1.545700 5.112600
1.565700 5.043600
1.585700 4.976600
1.605700 4.911500
1.625700 4.847700
1.645700 4.803600
1.665800 4.794600
1.685800 4.800000
1.705800 4.815100
1.725800 4.829700
1.745800 4.843900
1.765800 4.857700
1.785800 4.871100
1.805800 4.884100
1.825800 4.896600
1.845800 4.910900
1.865800 4.923000
1.885800 4.910300
1.905800 4.878900
1.925800 4.827200
1.945800 4.743300
1.965800 4.627600
1.985800 4.480000
2.005800 4.299200
2.025800 4.084800
2.045800 3.987600
2.065800 3.927600
2.085800 3.882100
2.105800 3.851200
2.125800 3.834900
2.145800 3.831600
2.165800 3.831500
2.185800 3.832800
2.205800 3.835400
2.225800 3.839400
2.245800 3.845600
2.265900 3.854700
2.285900 3.866800
2.305900 3.820300
2.325900 3.746300
2.345900 3.687100
2.365900 3.637200
2.385900 3.587600
2.405900 3.515600
2.425900 3.417400
2.445900 3.283300
2.465900 3.152500
2.485900 3.023400
2.505900 2.889400
2.525900 2.812100
2.545900 2.755600
2.565900 2.997400
2.585900 3.860800
2.605900 5.298500
2.625900 6.521800
2.645900 10.438300
2.665900 6.919600
2.685900 6.103300
2.705900 5.745700
2.725900 5.448100
2.745900 5.205200
2.765900 4.978600
2.785900 4.760900
2.805900 7.331500
2.825900 7.129200
2.845900 5.371700
2.866000 5.386900
2.886000 5.384900
2.906000 5.367400
2.926000 6.050000
2.946000 6.057700
2.966000 6.062900
2.986000 6.050700
3.006000 6.016100
3.026000 5.944600
3.046000 5.835100
3.066000 5.715800
3.086000 5.633600
3.106000 5.546800
3.126000 5.456900
3.146000 5.363900
3.166000 5.325900
3.186000 5.335000
3.206000 5.301100
3.226000 36.353600
3.246000 5.789600
3.266000 5.665200
3.286000 5.508100
3.306000 6.524100
3.326000 7.146200
3.346000 6.338200
3.366000 5.479300
3.386000 5.313000
3.406000 5.244100
3.426000 5.185700
3.446000 5.165600
3.466100 5.184400
3.486100 5.201900
3.506100 5.211100
3.526100 5.219500
3.546100 5.227000
3.566100 5.233800
3.586100 5.239800
3.606100 5.244900
3.626100 5.249200
3.646100 5.252700
3.666100 5.255400
3.686100 5.306800
3.706100 5.280500
3.726100 5.215500
3.746100 8.706300
3.766100 7.045200
3.786100 6.124200
3.806100 6.793600
3.826100 6.856400
3.846100 6.863200
3.866100 6.825500
3.886100 6.782500
3.906100 6.679800
3.926100 6.500000
3.946100 6.481800
3.966100 6.458800
3.986100 6.439500
4.006100 6.409300
4.026100 6.593100
4.046100 7.709500
4.066200 7.856100
4.086200 7.800500
4.106200 7.552100
4.126200 7.115800
4.146200 7.088900
4.166200 7.049800
4.186200 7.045500
4.206200 7.051700
4.226200 7.474000
4.246200 7.815000
4.266200 8.071700
4.286200 8.248600
4.306200 8.347900
4.326200 8.281300
4.346200 7.950300
4.366200 8.173100
4.386200 8.525500
4.406200 8.802300
4.426200 8.990100
4.446200 9.088300
4.466200 9.027700
4.486200 8.789800
4.506200 8.633200
4.526200 8.579600
4.546200 8.552900
4.566200 8.525600
4.586200 8.477400
4.606200 8.440900
4.626200 8.415000
4.646200 8.387200
4.666300 8.382700
4.686300 8.387300
4.706300 8.391900
4.726300 8.396500
4.746300 8.403500
4.766300 8.411000
4.786300 8.086000
4.806300 9.464100
4.826300 9.030400
4.846300 9.030900
4.866300 9.031900
4.886300 9.034800
4.906300 9.041600
4.926300 9.075400
4.946300 9.507700
4.966300 10.154700
4.986300 10.048500
5.006300 9.807600
5.026300 9.649300
5.046300 9.358900
5.066300 9.493200
5.086300 9.898700
5.106300 10.524200
5.126300 11.182300
5.146300 11.099000
5.166300 10.332100
5.186300 10.316700
5.206300 10.207900
5.226300 10.104900
5.246300 10.009100
5.266400 9.905800
5.286400 9.785400
5.306400 9.752200
5.326400 9.718900
5.346400 9.685300
5.366400 10.209600
5.386400 11.701800
5.406400 11.655200
5.426400 10.816800
5.446400 10.451000
5.466400 10.386300
5.486400 10.333100
5.506400 10.278000
5.526400 10.225900
5.546400 10.175600
5.566400 10.088600
5.586400 10.038800
5.606400 10.015700
5.626400 9.958500
5.646400 9.844000
5.666400 9.763800
5.686400 9.572800
5.706400 9.456900
5.726400 9.357400
5.746400 9.286800
5.766400 9.177200
5.786400 9.032800
5.806400 8.899400
5.826400 8.808700
5.846500 10.288900
5.866500 11.803300
5.886500 9.765600
5.906500 9.651900
5.926500 9.557500
5.946500 9.516500
5.966500 9.440500
5.986500 9.303600
6.006500 9.108600
6.026500 13.008000
6.046500 10.755000
6.066500 9.806800
6.086500 9.804000
6.106500 9.732100
6.126500 9.615800
6.146500 9.623800
6.166500 9.605400
6.186500 9.599500
6.206500 10.378800
6.226500 10.396600
6.246500 10.358300
6.266500 10.324200
6.286500 11.029300
6.306500 11.042200
6.326500 11.047900
6.346500 11.006700
6.366500 10.902200
6.386500 10.669800
6.406500 10.585300
6.426500 10.570700
6.446600 10.559100
6.466600 10.549900
6.486600 10.540700
6.506600 10.532800
6.526600 10.529400
6.546600 10.524500
6.566600 10.303000
6.586600 9.789500
6.606600 9.280400
6.626600 9.119400
6.646600 9.017500
6.666600 8.874000
6.686600 8.728300
6.706600 8.584700
6.726600 8.424400
6.746600 8.209700
6.766600 7.947200
6.786600 7.571000
6.806600 7.391000
6.826600 7.217300
6.846600 7.120700
6.866600 7.013500
6.886600 6.913900
6.906600 6.824700
6.926600 6.746100
6.946600 6.677900
6.966600 6.642300
6.986600 6.577600
7.006600 6.534000
7.026600 6.474000
7.046700 6.399500
7.066700 6.321600
7.086700 6.238700
7.106700 5.995100
7.126700 5.482700
7.146700 5.395500
7.166700 5.324200
7.186700 5.234600
7.206700 5.098100
7.226700 4.969300
7.246700 4.869100
7.266700 4.795800
7.286700 4.776200
7.306700 4.703100
7.326700 4.550500
7.346700 4.399000
7.366700 4.249000
7.386700 4.114600
7.406700 4.017100
7.426700 3.940400
7.446700 3.959000
7.466700 3.818000
7.486700 3.651300
7.506700 3.484900
7.526700 3.322500
7.546700 3.184300
7.566700 3.064200
7.586700 2.903500
7.606700 2.746600
7.626700 2.590400
7.646800 2.434400
7.666800 2.278400
7.686800 2.125900
7.706800 1.980400
7.726800 1.839600
7.746800 1.706500
7.766800 1.578300
7.786800 1.755600
7.806800 1.871100
7.826800 1.706500
7.846800 1.549200
7.866800 1.422200
7.886800 1.318100
7.906800 1.216900
7.926800 1.118700
7.946800 1.023500
7.966800 0.931300
7.986800 0.842600
8.006800 0.758100
8.026800 0.677600
8.046800 0.597800
8.066800 0.518000
8.086800 0.438200
8.106800 0.358500
8.126800 0.278700
8.146800 0.198900
8.166800 0.119100
8.186800 0.039400
8.206800 0.000000
8.226800 0.000000
8.246900 0.000000
8.266900 0.000000
8.286900 0.000000
8.306900 0.000000
8.326900 0.000000
8.346900 0.000000
8.366900 0.000000
8.386900 0.000000
8.406900 0.000000
8.426900 0.000000
8.446900 0.000000
8.466900 0.000000
8.486900 0.000000
8.506900 0.000000
8.526900 0.000000
8.546900 0.000000
8.566900 0.000000
8.586900 0.000000
8.606900 0.000000
8.626900 0.000000
8.646900 0.000000
8.666900 0.000000
8.686900 0.000000
8.706900 0.000000
8.726900 0.000000
8.746900 0.000000
8.766900 0.000000
8.786900 0.000000
8.806900 0.000000
8.826900 0.000000
8.847000 0.000000
8.867000 0.000000
8.887000 0.000000
8.907000 0.000000
8.927000 0.000000
8.947000 0.000000
8.967000 0.000000
8.987000 0.000000
9.007000 0.000000
9.027000 0.000000
9.047000 0.000000
9.067000 0.000000
9.087000 0.000000
9.107000 0.000000
9.127000 0.000000
9.147000 0.000000
9.167000 0.000000
9.187000 0.000000
9.207000 0.000000
9.227000 0.000000
9.247000 0.000000
9.267000 0.000000
9.287000 0.000000
9.307000 0.000000
9.327000 0.000000
9.347000 0.000000
9.367000 0.000000
9.387000 0.000000
9.407000 0.000000
9.427000 0.000000
9.447100 0.000000
9.467100 0.000000
9.487100 0.000000
9.507100 0.000000
9.527100 0.000000
9.547100 0.000000
9.567100 0.000000
9.587100 0.000000
9.607100 0.000000
9.627100 0.000000
9.647100 0.000000
9.667100 0.000000
9.687100 0.000000
9.707100 0.000000
9.727100 0.000000
9.747100 0.000000
9.767100 0.000000
9.787100 0.000000
9.807100 0.000000
9.827100 0.000000
9.847100 0.000000
9.867100 0.000000
9.887100 0.000000
9.907100 0.000000
9.927100 0.000000
9.947100 0.000000
9.967100 0.000000
9.987100 0.000000
10.007100 0.000000
10.027100 0.000000
10.047200 0.000000
10.067200 0.000000
10.087200 0.000000
10.107200 0.000000
10.127200 0.000000
10.147200 0.000000
10.167200 0.296200
10.187200 0.519700
10.207200 0.524100
10.227200 0.528500
10.247200 0.532800
10.267200 0.537200
10.287200 0.541500
10.307200 0.545900
10.327200 0.550300
10.347200 0.554600
10.367200 0.559000
10.387200 0.563400
10.407200 0.567700
10.427200 0.572100
10.447200 0.576400
10.467200 0.580800
10.487200 0.585200
10.507200 0.589500
10.527200 0.593900
10.547200 1.076700
10.567200 1.096500
10.587200 1.108000
10.607200 1.119500
10.627200 1.131000
10.647300 1.142500
10.667300 1.154000
10.687300 1.165500
10.707300 1.177000
10.727300 1.188400
10.747300 1.199900
10.767300 1.211400
10.787300 1.222900
10.807300 1.234400
10.827300 1.245900
10.847300 1.257400
10.867300 1.287900
10.887300 1.795900
10.907300 1.865100
10.927300 1.883100
10.947300 2.407900
10.967300 2.433100
10.987300 2.458300
11.007300 2.483500
11.027300 2.508700
11.047300 2.533900
11.067300 2.559100
11.087300 4.099000
11.107300 5.395700
11.127300 3.070600
11.147300 3.078200
11.167300 3.085700
11.187300 3.093300
11.207300 3.100900
11.227300 3.108500
11.247400 3.116000
11.267400 3.123600
11.287400 3.131200
11.307400 3.138800
11.327400 3.146300
11.347400 3.153900
11.367400 3.161500
11.387400 3.169100
11.407400 3.176700
11.427400 3.184200
11.447400 3.191800
11.467400 3.199400
11.487400 3.544400
11.507400 3.750400
11.527400 8.101000
11.547400 4.371400
11.567400 4.359700
11.587400 4.348000
11.607400 4.336400
11.627400 4.324700
11.647400 4.313100
11.667400 4.301500
11.687400 4.289800
11.707400 4.278200
11.727400 9.561200
11.747400 4.796600
11.767400 4.758300
11.787400 4.720100
11.807400 4.681800
11.827400 4.643600
11.847500 4.605400
11.867500 5.611900
11.887500 6.370400
11.907500 6.156400
11.927500 5.247200
