set title 'mp-9281 - Density of States'
set xlabel 'Energy (eV)'
set ylabel 'DOS (states/eV)'
set grid
set xrange [-10:10]
set yrange [0:163.876]
set xzeroaxis lt -1
set terminal png size 800,600
set output 'mp-9281_dos_gnuplot.png'
plot '-' using 1:2 with lines title 'DOS'
-9.944500 0.000000
-9.924500 0.000000
-9.904400 0.000000
-9.884400 0.000000
-9.864400 0.000000
-9.844300 0.000000
-9.824300 0.000000
-9.804200 0.000000
-9.784200 0.000000
-9.764200 0.000000
-9.744100 0.000000
-9.724100 0.000000
-9.704000 0.000000
-9.684000 0.000000
-9.664000 0.000000
-9.643900 0.000000
-9.623900 0.000000
-9.603800 0.000000
-9.583800 0.000000
-9.563800 0.000000
-9.543700 0.000000
-9.523700 0.000000
-9.503600 0.000000
-9.483600 0.000000
-9.463600 0.000000
-9.443500 0.000000
-9.423500 0.000000
-9.403400 0.000000
-9.383400 0.000000
-9.363400 0.000000
-9.343300 0.000000
-9.323300 0.000000
-9.303200 0.000000
-9.283200 0.000000
-9.263200 0.000000
-9.243100 0.000000
-9.223100 0.000000
-9.203000 0.000000
-9.183000 0.000000
-9.163000 0.000000
-9.142900 0.000000
-9.122900 0.000000
-9.102800 0.000000
-9.082800 0.000000
-9.062800 0.000000
-9.042700 0.000000
-9.022700 0.000000
-9.002600 0.000000
-8.982600 0.000000
-8.962600 0.000000
-8.942500 0.000000
-8.922500 0.000000
-8.902400 0.000000
-8.882400 0.000000
-8.862400 0.000000
-8.842300 0.000000
-8.822300 0.000000
-8.802200 0.000000
-8.782200 0.000000
-8.762200 0.000000
-8.742100 0.000000
-8.722100 0.000000
-8.702000 0.000000
-8.682000 0.000000
-8.662000 0.000000
-8.641900 0.000000
-8.621900 0.000000
-8.601800 0.000000
-8.581800 0.000000
-8.561800 0.000000
-8.541700 0.000000
-8.521700 0.000000
-8.501600 0.000000
-8.481600 0.000000
-8.461600 0.000000
-8.441500 0.000000
-8.421500 0.000000
-8.401400 0.000000
-8.381400 0.000000
-8.361400 0.000000
-8.341300 0.000000
-8.321300 0.000000
-8.301200 0.000000
-8.281200 0.000000
-8.261200 0.000000
-8.241100 0.000000
-8.221100 0.000000
-8.201000 0.000000
-8.181000 0.000000
-8.161000 0.000000
-8.140900 0.000000
-8.120900 0.000600
-8.100800 0.088400
-8.080800 0.324900
-8.060800 0.491000
-8.040700 0.545200
-8.020700 0.603400
-8.000600 0.700300
-7.980600 0.799300
-7.960600 0.880100
-7.940500 0.995700
-7.920500 1.204500
-7.900400 1.161900
-7.880400 1.202700
-7.860400 1.240200
-7.840300 1.274300
-7.820300 1.299900
-7.800200 1.289100
-7.780200 1.288100
-7.760200 1.310700
-7.740100 1.331600
-7.720100 1.561000
-7.700000 1.850400
-7.680000 1.734900
-7.660000 1.805800
-7.639900 1.893400
-7.619900 1.978500
-7.599800 2.034400
-7.579800 2.102800
-7.559800 2.189600
-7.539700 2.279100
-7.519700 2.371200
-7.499600 2.465900
-7.479600 2.555100
-7.459600 2.657600
-7.439500 2.760800
-7.419500 2.866600
-7.399400 2.986100
-7.379400 3.125400
-7.359400 3.271300
-7.339300 3.429500
-7.319300 3.604500
-7.299200 3.821600
-7.279200 4.053500
-7.259200 4.320300
-7.239100 4.631100
-7.219100 4.966300
-7.199000 5.382000
-7.179000 6.214400
-7.159000 7.249000
-7.138900 5.986900
-7.118900 5.601000
-7.098800 5.177800
-7.078800 4.956600
-7.058800 5.196200
-7.038700 5.334900
-7.018700 5.294300
-6.998600 4.843100
-6.978600 4.623500
-6.958600 4.779500
-6.938500 5.322200
-6.918500 6.077600
-6.898400 8.039700
-6.878400 10.619300
-6.858400 20.119700
-6.838300 3.432500
-6.818300 2.779700
-6.798200 3.594200
-6.778200 5.364700
-6.758200 13.547900
-6.738100 18.032100
-6.718100 12.821100
-6.698000 9.389500
-6.678000 7.942300
-6.658000 8.226700
-6.637900 0.000000
-6.617900 0.000000
-6.597800 0.000000
-6.577800 0.000000
-6.557800 0.000000
-6.537700 0.000000
-6.517700 0.000000
-6.497600 0.000000
-6.477600 0.000000
-6.457600 0.000000
-6.437500 0.000000
-6.417500 0.000000
-6.397400 0.000000
-6.377400 0.000000
-6.357400 0.000000
-6.337300 0.000000
-6.317300 0.000000
-6.297200 0.000000
-6.277200 0.000000
-6.257200 0.000000
-6.237100 0.000000
-6.217100 0.000000
-6.197000 0.000000
-6.177000 0.000000
-6.157000 0.000000
-6.136900 0.000000
-6.116900 0.000000
-6.096800 0.000000
-6.076800 0.000000
-6.056800 0.000000
-6.036700 0.000000
-6.016700 0.000000
-5.996600 0.000000
-5.976600 0.000000
-5.956600 0.000000
-5.936500 0.000000
-5.916500 0.000000
-5.896400 0.000000
-5.876400 0.000000
-5.856400 0.000000
-5.836300 0.000000
-5.816300 0.000000
-5.796200 0.000000
-5.776200 0.000000
-5.756200 0.000000
-5.736100 0.000000
-5.716100 0.000000
-5.696000 0.000000
-5.676000 0.000000
-5.656000 0.000000
-5.635900 0.000000
-5.615900 0.000000
-5.595800 0.000000
-5.575800 0.000000
-5.555800 0.000000
-5.535700 0.000000
-5.515700 0.000000
-5.495600 0.000000
-5.475600 0.000000
-5.455600 0.000000
-5.435500 0.000000
-5.415500 0.000000
-5.395400 0.000000
-5.375400 0.000000
-5.355400 0.000000
-5.335300 0.000000
-5.315300 0.000000
-5.295200 0.000000
-5.275200 0.000000
-5.255200 0.000000
-5.235100 0.000000
-5.215100 0.000000
-5.195000 0.000000
-5.175000 0.000000
-5.155000 0.000000
-5.134900 0.000000
-5.114900 0.000000
-5.094800 0.000000
-5.074800 0.000000
-5.054800 0.000000
-5.034700 0.000000
-5.014700 0.000000
-4.994600 0.000000
-4.974600 0.000000
-4.954600 0.000000
-4.934500 0.000000
-4.914500 0.000000
-4.894400 0.000000
-4.874400 0.000000
-4.854400 0.000000
-4.834300 0.000000
-4.814300 0.000000
-4.794200 0.000000
-4.774200 0.000000
-4.754200 0.000000
-4.734100 0.000000
-4.714100 0.000000
-4.694000 0.000000
-4.674000 0.000000
-4.654000 0.000000
-4.633900 0.000000
-4.613900 0.000000
-4.593800 0.000000
-4.573800 0.000000
-4.553800 0.000000
-4.533700 0.000000
-4.513700 0.000000
-4.493600 0.000000
-4.473600 0.000000
-4.453600 0.000000
-4.433500 0.000000
-4.413500 0.000000
-4.393400 0.000000
-4.373400 0.000000
-4.353400 0.000000
-4.333300 0.000000
-4.313300 0.000000
-4.293200 0.000000
-4.273200 0.000000
-4.253200 0.000000
-4.233100 0.000000
-4.213100 0.000000
-4.193000 0.000000
-4.173000 0.000000
-4.153000 0.000000
-4.132900 0.000000
-4.112900 0.000000
-4.092800 0.000000
-4.072800 0.000000
-4.052800 0.000000
-4.032700 0.000000
-4.012700 0.000000
-3.992600 0.000000
-3.972600 0.000000
-3.952600 0.000000
-3.932500 0.000000
-3.912500 0.000000
-3.892400 0.000000
-3.872400 0.000000
-3.852400 0.000000
-3.832300 0.000000
-3.812300 0.000000
-3.792200 0.000000
-3.772200 0.000000
-3.752200 0.000000
-3.732100 0.000000
-3.712100 0.000000
-3.692000 0.000000
-3.672000 0.000000
-3.652000 0.000000
-3.631900 0.000000
-3.611900 0.000000
-3.591800 0.000000
-3.571800 0.000000
-3.551800 0.000000
-3.531700 0.000000
-3.511700 0.000000
-3.491600 0.000000
-3.471600 0.000000
-3.451600 0.000000
-3.431500 0.000000
-3.411500 0.000000
-3.391400 0.000000
-3.371400 0.000000
-3.351400 0.000000
-3.331300 0.000000
-3.311300 0.000000
-3.291200 0.000000
-3.271200 0.000000
-3.251200 1.779100
-3.231100 16.439300
-3.211100 30.978100
-3.191000 45.121500
-3.171000 21.861200
-3.151000 61.766000
-3.130900 33.076600
-3.110900 76.379700
-3.090800 68.469800
-3.070800 54.183200
-3.050800 91.681200
-3.030700 124.476100
-3.010700 148.978100
-2.990600 49.972200
-2.970600 141.026900
-2.950600 134.712800
-2.930500 59.613000
-2.910500 28.383400
-2.890400 31.295000
-2.870400 33.517300
-2.850400 24.814500
-2.830300 21.047800
-2.810300 24.036700
-2.790200 8.477900
-2.770200 8.153600
-2.750200 13.465300
-2.730100 40.336300
-2.710100 15.920100
-2.690000 0.000000
-2.670000 0.000000
-2.650000 0.000000
-2.629900 0.000000
-2.609900 0.000000
-2.589800 0.000000
-2.569800 0.000000
-2.549800 0.000000
-2.529700 0.000000
-2.509700 0.000000
-2.489600 0.000000
-2.469600 0.000000
-2.449600 0.000000
-2.429500 0.000000
-2.409500 0.000000
-2.389400 0.000000
-2.369400 0.000000
-2.349400 0.000000
-2.329300 0.000000
-2.309300 0.000000
-2.289200 0.000000
-2.269200 0.000000
-2.249200 0.000000
-2.229100 0.000000
-2.209100 0.000000
-2.189000 0.000000
-2.169000 0.000000
-2.149000 0.000000
-2.128900 0.000000
-2.108900 0.000000
-2.088800 0.000000
-2.068800 0.000000
-2.048800 0.000000
-2.028700 0.000000
-2.008700 0.000000
-1.988600 0.000000
-1.968600 0.000000
-1.948600 0.000000
-1.928500 0.000000
-1.908500 0.000000
-1.888400 0.000000
-1.868400 0.000000
-1.848400 0.000000
-1.828300 0.000000
-1.808300 0.000000
-1.788200 0.000000
-1.768200 0.000000
-1.748200 0.000000
-1.728100 0.000000
-1.708100 0.000000
-1.688000 0.000000
-1.668000 0.000000
-1.648000 0.000000
-1.627900 0.000000
-1.607900 0.000000
-1.587800 0.000000
-1.567800 0.000000
-1.547800 0.000000
-1.527700 0.274900
-1.507700 0.904800
-1.487600 1.300800
-1.467600 2.531700
-1.447600 5.087000
-1.427500 4.114400
-1.407500 4.388100
-1.387400 4.644400
-1.367400 4.631600
-1.347400 4.214500
-1.327300 4.166400
-1.307300 4.058300
-1.287200 3.922700
-1.267200 3.647400
-1.247200 3.496800
-1.227100 3.431800
-1.207100 3.663900
-1.187000 3.687100
-1.167000 3.740300
-1.147000 3.860600
-1.126900 3.630700
-1.106900 3.735000
-1.086800 3.874700
-1.066800 4.169200
-1.046800 4.576400
-1.026700 4.799400
-1.006700 5.034100
-0.986600 5.407300
-0.966600 5.214800
-0.946600 5.084400
-0.926500 4.557200
-0.906500 3.901000
-0.886400 3.070500
-0.866400 2.923000
-0.846400 2.724700
-0.826300 2.541700
-0.806300 11.385400
-0.786200 1.863400
-0.766200 1.768000
-0.746200 1.691400
-0.726100 1.624600
-0.706100 1.561000
-0.686000 1.500600
-0.666000 1.443400
-0.646000 1.318800
-0.625900 1.259800
-0.605900 1.206000
-0.585800 1.157000
-0.565800 1.112800
-0.545800 1.081300
-0.525700 1.056000
-0.505700 1.035200
-0.485600 1.018800
-0.465600 0.995700
-0.445600 0.993600
-0.425500 1.055600
-0.405500 1.144900
-0.385400 1.250900
-0.365400 1.373300
-0.345400 1.787200
-0.325300 2.353200
-0.305300 2.717300
-0.285200 2.862200
-0.265200 3.138300
-0.245200 3.651800
-0.225100 4.009800
-0.205100 4.056800
-0.185000 4.116300
-0.165000 4.000300
-0.145000 3.775700
-0.124900 4.464800
-0.104900 5.041900
-0.084800 6.483300
-0.064800 7.212800
-0.044800 6.792200
-0.024700 5.370900
-0.004700 4.261600
0.015400 3.903300
0.035400 3.599300
0.055400 3.342000
0.075500 3.122100
0.095500 3.303100
0.115600 3.263000
0.135600 2.470100
0.155600 1.905800
0.175700 1.605500
0.195700 1.330300
0.215800 1.238800
0.235800 1.238200
0.255800 1.241100
0.275900 1.247500
0.295900 1.257100
0.316000 1.269900
0.336000 1.285400
0.356000 1.302400
0.376100 1.320900
0.396100 1.338900
0.416200 1.348800
0.436200 1.366600
0.456200 1.385300
0.476300 1.405000
0.496300 1.425500
0.516400 1.447100
0.536400 1.760300
0.556400 2.000300
0.576500 2.207800
0.596500 2.411200
0.616600 2.563900
0.636600 2.637300
0.656600 3.087600
0.676700 2.446200
0.696700 2.345900
0.716800 2.253800
0.736800 2.167700
0.756800 2.087400
0.776900 2.013100
0.796900 1.947600
0.817000 1.967900
0.837000 2.272500
0.857000 3.082200
0.877100 3.178100
0.897100 3.149900
0.917200 3.044200
0.937200 2.960600
0.957200 2.855000
0.977300 2.505300
0.997300 2.517500
1.017400 2.850200
1.037400 2.869900
1.057400 2.917400
1.077500 2.936700
1.097500 2.959300
1.117600 2.985000
1.137600 2.900700
1.157600 2.854100
1.177700 2.909400
1.197700 3.063100
1.217800 3.269800
1.237800 3.448300
1.257800 3.398300
1.277900 3.352100
1.297900 3.353500
1.318000 3.343200
1.338000 3.370800
1.358000 3.440400
1.378100 3.549000
1.398100 3.694700
1.418200 3.934400
1.438200 4.222600
1.458200 4.486200
1.478300 4.797200
1.498300 4.793600
1.518400 4.332900
1.538400 4.588100
1.558400 4.763600
1.578500 4.452400
1.598500 4.217800
1.618500 4.064300
1.638600 3.977100
1.658600 3.904900
1.678700 3.843800
1.698700 3.842200
1.718700 3.835700
1.738800 3.817100
1.758800 3.787900
1.778900 3.740500
1.798900 3.639400
1.818900 3.534300
1.839000 3.547300
1.859000 3.587700
1.879100 3.656800
1.899100 3.769500
1.919100 3.919300
1.939200 4.101700
1.959200 4.318200
1.979300 4.590700
1.999300 5.208100
2.019300 6.273900
2.039400 6.630700
2.059400 6.419400
2.079500 5.868100
2.099500 5.302000
2.119500 5.131700
2.139600 5.168600
2.159600 5.261500
2.179700 5.330300
2.199700 5.327800
2.219700 5.237100
2.239800 5.269000
2.259800 5.323700
2.279900 5.299800
2.299900 5.576400
2.319900 5.188400
2.340000 5.029600
2.360000 4.896400
2.380100 4.811100
2.400100 4.759000
2.420100 4.705400
2.440200 4.649200
2.460200 4.577100
2.480300 4.444500
2.500300 4.351200
2.520300 4.673600
2.540400 5.255600
2.560400 5.821200
2.580500 6.249500
2.600500 6.082600
2.620500 5.344100
2.640600 5.187100
2.660600 5.590400
2.680700 5.209700
2.700700 5.022800
2.720700 4.935400
2.740800 4.856700
2.760800 4.801200
2.780900 4.756100
2.800900 4.726100
2.820900 4.879600
2.841000 4.941100
2.861000 5.006100
2.881100 5.050700
2.901100 5.081500
2.921100 5.093000
2.941200 5.125000
2.961200 5.141900
2.981300 5.192900
3.001300 5.215000
3.021300 5.262000
3.041400 5.273300
3.061400 5.521900
3.081500 5.685600
3.101500 5.770300
3.121500 5.851700
3.141600 6.079400
3.161600 10.753000
3.181700 7.019000
3.201700 3.953700
3.221700 3.139300
3.241800 2.865500
3.261800 2.611400
3.281900 2.388100
3.301900 2.054600
3.321900 1.781400
3.342000 1.630600
3.362000 1.519700
3.382100 1.425000
3.402100 1.440000
3.422100 1.335100
3.442200 1.230300
3.462200 1.125500
3.482300 1.041400
3.502300 0.974400
3.522300 0.924200
3.542400 0.901200
3.562400 0.889400
3.582500 0.928400
3.602500 1.371800
3.622500 1.153900
3.642600 0.847400
3.662600 0.768900
3.682700 0.694900
3.702700 0.623500
3.722700 0.554600
3.742800 0.494400
3.762800 0.442700
3.782900 0.393700
3.802900 0.347400
3.822900 0.303700
3.843000 0.266300
3.863000 0.233200
3.883100 0.200800
3.903100 0.169000
3.923100 0.137900
3.943200 0.107500
3.963200 0.077700
3.983300 0.048600
4.003300 0.000000
4.023300 0.000000
4.043400 0.000000
4.063400 0.000000
4.083500 0.000000
4.103500 0.000000
4.123500 0.000000
4.143600 0.000000
4.163600 0.000000
4.183700 0.000000
4.203700 0.000000
4.223700 0.000000
4.243800 0.000000
4.263800 0.000000
4.283900 0.000000
4.303900 0.000000
4.323900 0.000100
4.344000 0.000200
4.364000 0.000400
4.384100 0.000700
4.404100 0.001000
4.424100 0.001400
4.444200 0.001800
4.464200 0.002300
4.484300 0.002900
4.504300 0.003500
4.524300 0.004200
4.544400 0.004900
4.564400 0.005700
4.584500 0.006600
4.604500 0.007500
4.624500 0.008500
4.644600 0.009500
4.664600 0.010600
4.684700 0.011700
4.704700 0.013000
4.724700 0.014200
4.744800 0.016000
4.764800 0.019900
4.784900 0.026000
4.804900 0.034400
4.824900 0.045000
4.845000 0.057900
4.865000 0.073100
4.885100 0.090500
4.905100 0.110200
4.925100 0.130100
4.945200 0.152700
4.965200 0.175200
4.985300 0.197600
5.005300 0.220000
5.025300 0.242900
5.045400 0.266400
5.065400 0.290600
5.085500 0.315300
5.105500 0.340600
5.125500 0.366500
5.145600 0.394400
5.165600 0.424800
5.185700 0.455000
5.205700 0.484600
5.225700 0.513600
5.245800 0.553400
5.265800 0.610800
5.285900 0.949700
5.305900 1.230400
5.325900 1.828500
5.346000 2.185100
5.366000 2.319500
5.386100 2.464900
5.406100 2.604800
5.426100 2.486600
5.446200 2.654000
5.466200 2.817300
5.486300 2.954800
5.506300 3.112700
5.526300 3.244200
5.546400 3.360300
5.566400 3.463500
5.586500 3.555800
5.606500 3.649600
5.626500 3.790400
5.646600 3.826500
5.666600 3.866300
5.686700 3.617400
5.706700 3.640400
5.726700 3.537200
5.746800 3.362100
5.766800 3.336600
5.786900 3.329600
5.806900 3.253900
5.826900 3.225000
5.847000 2.851000
5.867000 2.498900
5.887100 2.242500
5.907100 2.123500
5.927100 2.055500
5.947200 2.068300
5.967200 2.073900
5.987300 2.245200
6.007300 1.854400
6.027300 1.569500
6.047400 1.688100
6.067400 2.097700
6.087500 1.875500
6.107500 1.665900
6.127500 1.727600
6.147600 1.792100
6.167600 1.854000
6.187700 1.883100
6.207700 1.901500
6.227700 2.012700
6.247800 2.132400
6.267800 2.262800
6.287900 2.861100
6.307900 4.223200
6.327900 4.337800
6.348000 4.306300
6.368000 5.296600
6.388100 5.481300
6.408100 5.324200
6.428100 5.808000
6.448200 6.849900
6.468200 6.990000
6.488300 6.675500
6.508300 5.463700
6.528300 5.091400
6.548400 5.645700
6.568400 4.821300
6.588500 4.590800
6.608500 4.359500
6.628500 3.120800
6.648600 2.934800
6.668600 2.901900
6.688700 2.929200
6.708700 3.000500
6.728700 3.120400
6.748800 3.261100
6.768800 3.578500
6.788900 3.762500
6.808900 4.068900
6.828900 3.956900
6.849000 4.041800
6.869000 4.183700
6.889100 4.258000
6.909100 4.340100
6.929100 4.402900
6.949200 4.157500
6.969200 3.992900
6.989300 3.855700
7.009300 4.422900
7.029300 4.219100
7.049400 4.485500
7.069400 4.414400
7.089500 4.333100
7.109500 3.550400
7.129500 2.516600
7.149600 2.376400
7.169600 2.297900
7.189700 2.234300
7.209700 2.290200
7.229700 2.359400
7.249800 2.519000
7.269800 2.750700
7.289900 3.025400
7.309900 3.451600
7.329900 3.696100
7.350000 4.099100
7.370000 4.453100
7.390100 5.043100
7.410100 4.623300
7.430100 4.435400
7.450200 4.267600
7.470200 4.121700
7.490300 3.893500
7.510300 3.516400
7.530300 3.071400
7.550400 2.875800
7.570400 2.749600
7.590500 2.488500
7.610500 2.440800
7.630500 2.365400
7.650600 2.293900
7.670600 2.226200
7.690700 2.847300
7.710700 2.824000
7.730700 2.943500
7.750800 3.355500
7.770800 3.841000
7.790900 4.411400
7.810900 4.259600
7.830900 4.524200
7.851000 4.802000
7.871000 5.336600
7.891100 5.866500
7.911100 6.973400
7.931100 6.653600
7.951200 4.292200
7.971200 3.207900
7.991300 2.459400
8.011300 2.266900
8.031300 1.988100
8.051400 1.780500
8.071400 1.636400
8.091500 1.274000
8.111500 1.198700
8.131500 1.128300
8.151600 1.108800
8.171600 1.140600
8.191700 1.281800
8.211700 1.491200
8.231700 1.696700
8.251800 1.906500
8.271800 2.169300
8.291900 2.399800
8.311900 2.531300
8.331900 2.573400
8.352000 2.630900
8.372000 2.659300
8.392100 2.692700
8.412100 2.755800
8.432100 2.852900
8.452200 2.778100
8.472200 3.025100
8.492300 3.295500
8.512300 3.695200
8.532300 4.316000
8.552400 4.774900
8.572400 5.229500
8.592500 5.612000
8.612500 6.018600
8.632500 6.326700
8.652600 6.548100
8.672600 6.448500
8.692700 5.818900
8.712700 5.528300
8.732700 4.951700
8.752800 4.458300
8.772800 4.032000
8.792900 3.763800
8.812900 3.623900
8.832900 3.984500
8.853000 3.404000
8.873000 3.209600
8.893100 3.063300
8.913100 3.052900
8.933100 3.061300
8.953200 3.089800
8.973200 3.336200
8.993300 3.524500
9.013300 3.538300
9.033300 3.648200
9.053400 3.767900
9.073400 3.822100
9.093500 3.802600
9.113500 3.757700
9.133500 3.695100
9.153600 3.618400
9.173600 3.569800
9.193700 3.420800
9.213700 3.576700
9.233700 4.231200
9.253800 5.055300
9.273800 5.268300
9.293900 5.015800
9.313900 4.549300
9.333900 4.031700
9.354000 3.566600
9.374000 2.679600
9.394100 2.561600
9.414100 2.441700
9.434100 2.365800
9.454200 2.310400
9.474200 2.267100
9.494300 2.253000
9.514300 2.261200
9.534300 4.568800
9.554400 3.225800
9.574400 2.791200
9.594500 2.977600
9.614500 3.216600
9.634500 3.373900
9.654600 3.542800
9.674600 3.890200
9.694700 4.321500
9.714700 4.316400
9.734700 4.592900
9.754800 4.864200
9.774800 4.036400
9.794900 3.967100
9.814900 3.895800
9.834900 3.862400
9.855000 4.193500
9.875000 4.464600
9.895100 4.287500
9.915100 3.847400
9.935100 3.579400
9.955200 3.510300
9.975200 3.240300
9.995300 3.197100
10.015300 3.197700
10.035300 3.296400
10.055400 3.618500
10.075400 4.008100
10.095500 4.357000
10.115500 4.322200
10.135500 4.360600
10.155600 4.217800
10.175600 3.831600
10.195700 3.676200
10.215700 3.597300
10.235700 3.526600
10.255800 3.480900
10.275800 3.484300
10.295900 3.824300
10.315900 4.009500
10.335900 3.781000
10.356000 3.417700
10.376000 3.203700
10.396100 3.199400
10.416100 3.264200
10.436100 3.392000
10.456200 3.646000
10.476200 3.951600
10.496300 4.179100
10.516300 4.527100
10.536300 4.725700
10.556400 4.682800
10.576400 4.861500
10.596500 4.881500
10.616500 3.756800
10.636500 3.590400
10.656600 3.450900
10.676600 3.406300
10.696700 3.615500
10.716700 4.262200
10.736700 5.113700
10.756800 4.627200
10.776800 3.777000
10.796900 3.703800
10.816900 3.814800
10.836900 3.938800
10.857000 4.075600
10.877000 4.226400
10.897100 4.441600
10.917100 4.514300
10.937100 4.707400
10.957200 4.655000
10.977200 4.519600
10.997300 4.420000
11.017300 4.459600
11.037300 4.691900
11.057400 4.842500
11.077400 5.091600
11.097500 5.281700
11.117500 5.377600
11.137500 5.221800
11.157600 5.140700
11.177600 5.286000
11.197700 5.504800
11.217700 5.397500
11.237700 5.225900
11.257800 5.023400
11.277800 4.878800
11.297900 4.809000
11.317900 4.700700
