set title 'mp-1076920 - Density of States'
set xlabel 'Energy (eV)'
set ylabel 'DOS (states/eV)'
set grid
set xrange [-10:10]
set yrange [0:1.447]
set xzeroaxis lt -1
set terminal png size 800,600
set output 'mp-1076920_dos_gnuplot.png'
plot '-' using 1:2 with lines title 'DOS'
-36.934700 0.000000
-36.844700 0.000000
-36.754700 0.000000
-36.664700 0.000000
-36.574800 0.000000
-36.484800 0.000000
-36.394800 0.000000
-36.304800 0.000000
-36.214900 0.000000
-36.124900 0.000000
-36.034900 0.000000
-35.945000 0.000000
-35.855000 0.000000
-35.765000 0.000000
-35.675000 0.000000
-35.585100 0.000000
-35.495100 0.000000
-35.405100 0.000000
-35.315100 0.000000
-35.225200 0.000000
-35.135200 0.000000
-35.045200 0.000000
-34.955300 0.000000
-34.865300 0.000000
-34.775300 0.000000
-34.685300 0.000000
-34.595400 0.000000
-34.505400 0.000000
-34.415400 0.000000
-34.325400 0.000000
-34.235500 0.000000
-34.145500 0.000000
-34.055500 0.000000
-33.965600 0.000000
-33.875600 0.000000
-33.785600 0.000000
-33.695600 0.000000
-33.605700 0.000000
-33.515700 0.000000
-33.425700 0.000000
-33.335700 0.000000
-33.245800 0.000000
-33.155800 0.000000
-33.065800 0.000000
-32.975900 0.000000
-32.885900 0.000000
-32.795900 0.000000
-32.705900 0.000000
-32.616000 0.000000
-32.526000 0.000000
-32.436000 0.000000
-32.346000 0.000000
-32.256100 0.000000
-32.166100 0.000000
-32.076100 0.000000
-31.986200 0.000000
-31.896200 0.000000
-31.806200 0.000000
-31.716200 0.000000
-31.626300 0.000000
-31.536300 0.000000
-31.446300 0.000000
-31.356300 0.000000
-31.266400 0.000000
-31.176400 0.000000
-31.086400 0.000000
-30.996500 0.000000
-30.906500 0.000000
-30.816500 0.000000
-30.726500 0.000000
-30.636600 0.000000
-30.546600 0.000000
-30.456600 0.000000
-30.366600 0.000000
-30.276700 0.000000
-30.186700 0.000000
-30.096700 0.000000
-30.006800 0.000000
-29.916800 0.000000
-29.826800 0.000000
-29.736800 0.000000
-29.646900 0.000000
-29.556900 0.000000
-29.466900 0.000000
-29.376900 0.000000
-29.287000 0.000000
-29.197000 0.000000
-29.107000 0.000000
-29.017100 0.000000
-28.927100 0.000000
-28.837100 0.000000
-28.747100 0.009900
-28.657200 0.212900
-28.567200 0.319000
-28.477200 0.414000
-28.387200 0.517600
-28.297300 0.632500
-28.207300 0.779700
-28.117300 0.999200
-28.027400 1.099700
-27.937400 1.217600
-27.847400 1.394000
-27.757400 1.708800
-27.667500 2.339300
-27.577500 2.328900
-27.487500 1.813200
-27.397600 1.619300
-27.307600 1.513500
-27.217600 1.457300
-27.127600 1.448900
-27.037700 0.586400
-26.947700 0.000000
-26.857700 0.000000
-26.767700 0.000000
-26.677800 0.000000
-26.587800 0.000000
-26.497800 0.000000
-26.407900 0.000000
-26.317900 0.000000
-26.227900 0.000000
-26.137900 0.000000
-26.048000 0.000000
-25.958000 0.000000
-25.868000 0.000000
-25.778000 0.000000
-25.688100 0.000000
-25.598100 0.000000
-25.508100 0.000000
-25.418200 0.000000
-25.328200 0.000000
-25.238200 0.000000
-25.148200 0.000000
-25.058300 0.000000
-24.968300 0.000000
-24.878300 0.000000
-24.788300 0.000000
-24.698400 0.000000
-24.608400 0.000000
-24.518400 0.000000
-24.428500 0.000000
-24.338500 0.000000
-24.248500 0.000000
-24.158500 0.000000
-24.068600 0.000000
-23.978600 0.000000
-23.888600 0.000000
-23.798600 0.000000
-23.708700 0.000000
-23.618700 0.000000
-23.528700 0.000000
-23.438800 0.000000
-23.348800 0.000000
-23.258800 0.000000
-23.168800 0.000000
-23.078900 0.000000
-22.988900 0.000000
-22.898900 0.000000
-22.808900 0.000000
-22.719000 0.000000
-22.629000 0.000000
-22.539000 0.000000
-22.449100 0.000000
-22.359100 0.000000
-22.269100 0.000000
-22.179100 0.000000
-22.089200 0.000000
-21.999200 0.000000
-21.909200 0.000000
-21.819200 0.000000
-21.729300 0.000000
-21.639300 0.000000
-21.549300 0.000000
-21.459400 0.000000
-21.369400 0.000000
-21.279400 0.000000
-21.189400 0.000000
-21.099500 0.000000
-21.009500 0.000000
-20.919500 0.000000
-20.829500 0.000000
-20.739600 0.000000
-20.649600 0.000000
-20.559600 0.000000
-20.469700 0.000000
-20.379700 0.000000
-20.289700 0.000000
-20.199700 0.000000
-20.109800 0.000000
-20.019800 0.000000
-19.929800 0.000000
-19.839800 0.000000
-19.749900 0.000000
-19.659900 0.000000
-19.569900 0.000000
-19.480000 0.000000
-19.390000 0.000000
-19.300000 0.000000
-19.210000 0.000000
-19.120100 0.000000
-19.030100 0.000000
-18.940100 0.000000
-18.850200 0.000000
-18.760200 0.000000
-18.670200 0.000000
-18.580200 0.000000
-18.490300 0.000000
-18.400300 0.000000
-18.310300 0.000000
-18.220300 0.000000
-18.130400 0.000000
-18.040400 0.000000
-17.950400 0.000000
-17.860500 0.000000
-17.770500 0.000000
-17.680500 0.000000
-17.590500 0.000000
-17.500600 0.000000
-17.410600 0.000000
-17.320600 0.000000
-17.230600 0.000000
-17.140700 0.000000
-17.050700 0.000000
-16.960700 0.000000
-16.870800 0.000000
-16.780800 0.000000
-16.690800 0.000000
-16.600800 0.000000
-16.510900 0.000000
-16.420900 0.000000
-16.330900 0.000000
-16.240900 0.000000
-16.151000 0.000000
-16.061000 0.000000
-15.971000 0.000000
-15.881100 0.000000
-15.791100 0.000000
-15.701100 0.000000
-15.611100 0.000000
-15.521200 0.000000
-15.431200 0.000000
-15.341200 0.000000
-15.251200 0.000000
-15.161300 0.000000
-15.071300 0.000000
-14.981300 0.000000
-14.891400 0.000000
-14.801400 0.000000
-14.711400 0.000000
-14.621400 0.000000
-14.531500 0.000000
-14.441500 0.000000
-14.351500 0.000000
-14.261500 0.000000
-14.171600 0.000000
-14.081600 0.000000
-13.991600 0.000000
-13.901700 0.000000
-13.811700 0.000000
-13.721700 0.000000
-13.631700 0.000000
-13.541800 0.000000
-13.451800 0.000000
-13.361800 0.000000
-13.271800 0.000000
-13.181900 0.000000
-13.091900 0.000000
-13.001900 0.000000
-12.912000 0.000000
-12.822000 0.000000
-12.732000 0.000000
-12.642000 0.000000
-12.552100 0.000000
-12.462100 0.000000
-12.372100 0.000000
-12.282100 0.000000
-12.192200 0.000000
-12.102200 0.000000
-12.012200 0.000000
-11.922300 0.000000
-11.832300 0.000000
-11.742300 0.000000
-11.652300 0.000000
-11.562400 0.000000
-11.472400 0.000000
-11.382400 0.000000
-11.292400 0.000000
-11.202500 0.000000
-11.112500 0.000000
-11.022500 0.000000
-10.932600 0.000000
-10.842600 0.000000
-10.752600 0.000000
-10.662600 0.000000
-10.572700 0.000000
-10.482700 0.000000
-10.392700 0.000000
-10.302700 0.000000
-10.212800 0.000000
-10.122800 0.000000
-10.032800 0.000000
-9.942900 0.000000
-9.852900 0.000000
-9.762900 0.000000
-9.672900 0.000000
-9.583000 0.000000
-9.493000 0.000000
-9.403000 0.000000
-9.313100 0.000000
-9.223100 0.000000
-9.133100 0.000000
-9.043100 0.000000
-8.953200 0.000000
-8.863200 0.000000
-8.773200 0.000000
-8.683200 0.000000
-8.593300 0.000000
-8.503300 0.000000
-8.413300 0.000000
-8.323400 0.000000
-8.233400 0.000000
-8.143400 0.000000
-8.053400 0.000000
-7.963500 0.000000
-7.873500 0.000000
-7.783500 0.000000
-7.693500 0.000000
-7.603600 0.000000
-7.513600 0.000000
-7.423600 0.000000
-7.333700 0.000000
-7.243700 0.000000
-7.153700 0.034600
-7.063700 0.171300
-6.973800 0.234000
-6.883800 0.353000
-6.793800 0.433000
-6.703800 0.504800
-6.613900 0.585600
-6.523900 0.676300
-6.433900 0.776600
-6.344000 0.915500
-6.254000 1.101600
-6.164000 1.153600
-6.074000 1.161100
-5.984100 1.142200
-5.894100 1.146200
-5.804100 1.199500
-5.714100 1.171900
-5.624200 1.120800
-5.534200 1.255300
-5.444200 1.315000
-5.354300 1.207500
-5.264300 1.062700
-5.174300 0.923300
-5.084300 0.860100
-4.994400 0.760500
-4.904400 0.750100
-4.814400 0.737100
-4.724400 0.723700
-4.634500 0.713700
-4.544500 0.697600
-4.454500 0.691200
-4.364600 0.680200
-4.274600 0.726600
-4.184600 0.698200
-4.094600 0.688800
-4.004700 0.688600
-3.914700 0.719400
-3.824700 0.705600
-3.734700 0.697200
-3.644800 0.752600
-3.554800 0.721400
-3.464800 0.710000
-3.374900 0.713000
-3.284900 0.723800
-3.194900 0.771300
-3.104900 0.770700
-3.015000 0.763900
-2.925000 0.830200
-2.835000 0.819800
-2.745000 0.806400
-2.655100 0.826400
-2.565100 0.877800
-2.475100 0.896600
-2.385200 0.950000
-2.295200 1.032400
-2.205200 1.185100
-2.115200 1.127500
-2.025300 1.140800
-1.935300 1.132100
-1.845300 1.173600
-1.755300 1.196400
-1.665400 1.248800
-1.575400 1.266200
-1.485400 1.139800
-1.395500 1.025500
-1.305500 0.997900
-1.215500 1.062100
-1.125500 0.981600
-1.035600 0.940300
-0.945600 0.908500
-0.855600 0.892200
-0.765700 0.887800
-0.675700 0.904600
-0.585700 0.858700
-0.495700 0.657200
-0.405800 0.439900
-0.315800 0.320600
-0.225800 0.276500
-0.135800 0.230200
-0.045900 0.185700
0.044100 0.138400
0.134100 0.075200
0.224000 0.000000
0.314000 0.000000
0.404000 0.000000
0.494000 0.000000
0.583900 0.000000
0.673900 0.000000
0.763900 0.000000
0.853900 0.000000
0.943800 0.000000
1.033800 0.000000
1.123800 0.000000
1.213700 0.000000
1.303700 0.000000
1.393700 0.000000
1.483700 0.000000
1.573600 0.000000
1.663600 0.000000
1.753600 0.000000
1.843600 0.000000
1.933500 0.000000
2.023500 0.000000
2.113500 0.000000
2.203400 0.000000
2.293400 0.000000
2.383400 0.000000
2.473400 0.000000
2.563300 0.000000
2.653300 0.000000
2.743300 0.000000
2.833300 0.000000
2.923200 0.000000
3.013200 0.000000
3.103200 0.000000
3.193100 0.000000
3.283100 0.000000
3.373100 0.000000
3.463100 0.000000
3.553000 0.000000
3.643000 0.000000
3.733000 0.000000
3.823000 0.000000
3.912900 0.000000
4.002900 0.000000
4.092900 0.000000
4.182800 0.000000
4.272800 0.000000
4.362800 0.000000
4.452800 0.000000
4.542700 0.000000
4.632700 0.000000
4.722700 0.000000
4.812700 0.000000
4.902600 0.000000
4.992600 0.000000
5.082600 0.000000
5.172500 0.000000
5.262500 0.000000
5.352500 0.000000
5.442500 0.000000
5.532400 0.000000
5.622400 0.000000
5.712400 0.000000
5.802400 0.000000
5.892300 0.000000
5.982300 0.000000
6.072300 0.000000
6.162200 0.000000
6.252200 0.000000
6.342200 0.000000
6.432200 0.000000
6.522100 0.000000
6.612100 0.000000
6.702100 0.000000
6.792100 0.000000
6.882000 0.000000
6.972000 0.000000
7.062000 0.000000
7.151900 0.000000
7.241900 0.000000
7.331900 0.000000
7.421900 0.000000
7.511800 0.000000
7.601800 0.000000
7.691800 0.000000
7.781800 0.000000
7.871700 0.000000
7.961700 0.000000
8.051700 0.000000
8.141600 0.000000
8.231600 0.000000
8.321600 0.000000
8.411600 0.000000
8.501500 0.000000
8.591500 0.000000
8.681500 0.000000
8.771400 0.000000
8.861400 0.000000
8.951400 0.000000
9.041400 0.000000
9.131300 0.000000
9.221300 0.000000
9.311300 0.000000
9.401300 0.000000
9.491200 0.000000
9.581200 0.000000
9.671200 0.000000
9.761100 0.000000
9.851100 0.000000
9.941100 0.000900
10.031100 0.063100
10.121000 0.104200
10.211000 0.133100
10.301000 0.164300
10.391000 0.190300
10.480900 0.216000
10.570900 0.245100
10.660900 0.280400
10.750800 0.329800
10.840800 0.381900
10.930800 0.356900
11.020800 0.354200
11.110700 0.351800
11.200700 0.347400
11.290700 0.347700
11.380700 0.403600
11.470600 0.467300
11.560600 0.537100
11.650600 0.597600
11.740500 0.648400
11.830500 0.703100
11.920500 0.741800
12.010500 0.785300
12.100400 0.831100
12.190400 0.876400
12.280400 0.956100
12.370400 0.968400
12.460300 1.009200
12.550300 1.057500
12.640300 1.176900
12.730200 1.338800
12.820200 1.437300
12.910200 1.600900
13.000200 2.010900
13.090100 2.029300
13.180100 2.126500
13.270100 2.247300
13.360100 2.367000
13.450000 2.418000
13.540000 2.537600
13.630000 2.617900
13.719900 1.675900
13.809900 1.419700
13.899900 1.119400
13.989900 1.023900
14.079800 0.986000
14.169800 0.891700
14.259800 0.877500
14.349800 1.001700
14.439700 1.112300
14.529700 1.352600
14.619700 1.633100
14.709600 2.904400
14.799600 2.852400
14.889600 2.766500
14.979600 2.708400
15.069500 2.206400
15.159500 2.292800
15.249500 2.226900
15.339500 2.692800
15.429400 4.629600
15.519400 4.128500
15.609400 4.047300
15.699300 4.401000
15.789300 6.804300
15.879300 4.612100
15.969300 5.836300
16.059200 3.728200
16.149200 3.892900
16.239200 3.386900
16.329200 3.484300
16.419100 3.509100
16.509100 5.831900
16.599100 6.413900
16.689000 5.440300
16.779000 3.999400
16.869000 5.250400
16.959000 3.145000
17.048900 3.276900
17.138900 4.016900
17.228900 5.956400
17.318800 5.460000
17.408800 3.446000
17.498800 2.297700
17.588800 2.115300
17.678700 2.205400
17.768700 2.292900
17.858700 2.520100
17.948700 2.284700
18.038600 1.916000
18.128600 1.768700
18.218600 1.629400
18.308500 1.571700
18.398500 1.521000
18.488500 1.309000
18.578500 1.178300
18.668400 1.052400
18.758400 0.958800
18.848400 0.868100
18.938400 0.805500
19.028300 0.711000
19.118300 0.631600
19.208300 0.676400
19.298200 0.788400
19.388200 0.956800
19.478200 1.286100
19.568200 1.082200
19.658100 1.090500
19.748100 1.056000
19.838100 1.035700
19.928100 1.007200
20.018000 0.973300
20.108000 0.943600
20.198000 0.916200
20.287900 0.883400
20.377900 0.809200
20.467900 0.793600
20.557900 0.739400
20.647800 0.712600
20.737800 0.745000
20.827800 0.771100
20.917800 0.730300
21.007700 0.751800
21.097700 0.788800
21.187700 0.696600
21.277600 0.626500
21.367600 0.598500
21.457600 0.649100
21.547600 0.687600
21.637500 0.733300
21.727500 0.886400
21.817500 0.752000
21.907500 0.793700
21.997400 0.780300
22.087400 0.817700
22.177400 0.826500
22.267300 0.829800
22.357300 0.828000
22.447300 0.859600
22.537300 0.873200
22.627200 0.874400
22.717200 0.881700
22.807200 0.865700
22.897200 0.854700
22.987100 0.865100
23.077100 0.867700
23.167100 0.888200
23.257000 0.787600
23.347000 0.782700
23.437000 0.792400
23.527000 0.859600
23.616900 0.808300
23.706900 0.799100
23.796900 0.797400
23.886900 0.786800
23.976800 0.771500
24.066800 0.751700
24.156800 0.745200
24.246700 0.705400
24.336700 0.670400
24.426700 0.646800
24.516700 0.636500
24.606600 0.628400
24.696600 0.623400
24.786600 0.624900
24.876600 0.642400
24.966500 0.650300
25.056500 0.648200
25.146500 0.641700
25.236400 0.639900
25.326400 0.652200
25.416400 0.614800
25.506400 0.594200
25.596300 0.579700
25.686300 0.571700
25.776300 0.568900
25.866300 0.576200
25.956200 0.572500
26.046200 0.566200
26.136200 0.579800
26.226100 0.581300
26.316100 0.558700
26.406100 0.548900
26.496100 0.535600
26.586000 0.521500
26.676000 0.509600
26.766000 0.484100
26.855900 0.465000
26.945900 0.450900
27.035900 0.438200
27.125900 0.426900
27.215800 0.417700
27.305800 0.410100
27.395800 0.398300
27.485800 0.393900
27.575700 0.391400
27.665700 0.383500
27.755700 0.375400
27.845600 0.367500
27.935600 0.360000
28.025600 0.352700
28.115600 0.346100
28.205500 0.338900
28.295500 0.333700
28.385500 0.326700
28.475500 0.317000
28.565400 0.309300
28.655400 0.301600
28.745400 0.303100
28.835300 0.305700
28.925300 0.309700
29.015300 0.321800
29.105300 0.329100
29.195200 0.336800
29.285200 0.326700
29.375200 0.312300
29.465200 0.311400
29.555100 0.313200
29.645100 0.316100
29.735100 0.324500
29.825000 0.336700
29.915000 0.329000
30.005000 0.323600
30.095000 0.323400
30.184900 0.336400
30.274900 0.361500
30.364900 0.429000
30.454900 0.457800
30.544800 0.491500
30.634800 0.527800
30.724800 0.643400
30.814700 0.801800
30.904700 0.873400
30.994700 0.849100
31.084700 0.813300
31.174600 0.816800
31.264600 0.821700
31.354600 0.855900
31.444600 0.891200
31.534500 0.916300
31.624500 0.937300
31.714500 1.063500
31.804400 1.103000
31.894400 1.129400
31.984400 1.198400
32.074400 1.238500
32.164300 1.346600
32.254300 1.238300
32.344300 1.036500
32.434300 0.966000
32.524200 0.876000
32.614200 0.784000
32.704200 0.729100
32.794100 0.703200
32.884100 0.684000
32.974100 0.660800
33.064100 0.656000
33.154000 0.672300
33.244000 0.706900
33.334000 0.735800
33.424000 0.744000
33.513900 0.745200
33.603900 0.679300
33.693900 0.660800
33.783800 0.598400
33.873800 0.638600
33.963800 0.718500
34.053800 0.815100
34.143700 0.812300
34.233700 0.827600
34.323700 0.796200
34.413700 0.725900
34.503600 0.691300
34.593600 0.653500
34.683600 0.629000
34.773500 0.618000
34.863500 0.621100
34.953500 0.629400
35.043500 0.633600
35.133400 0.654400
35.223400 0.624800
35.313400 0.610400
35.403300 0.587700
35.493300 0.564900
35.583300 0.549900
35.673300 0.539200
35.763200 0.533900
35.853200 0.537900
35.943200 0.539800
36.033200 0.553600
36.123100 0.562600
36.213100 0.587400
36.303100 0.639400
36.393000 0.702100
36.483000 0.805800
36.573000 0.850200
36.663000 0.812500
36.752900 0.804900
36.842900 0.806700
36.932900 0.818600
37.022900 0.823300
37.112800 0.823700
37.202800 0.821700
37.292800 0.818700
37.382700 0.782400
37.472700 0.766400
37.562700 0.758300
37.652700 0.770200
37.742600 0.796000
37.832600 0.781900
37.922600 0.783200
38.012600 0.794500
38.102500 0.796300
38.192500 0.801000
38.282500 0.816100
38.372400 0.838000
38.462400 0.827600
38.552400 0.824100
38.642400 0.818600
38.732300 0.794300
38.822300 0.793500
38.912300 0.808200
39.002300 0.834900
39.092200 0.847800
39.182200 0.838100
39.272200 0.826200
39.362100 0.870100
39.452100 0.896000
39.542100 0.923500
39.632100 0.927700
39.722000 0.930600
39.812000 0.966100
39.902000 1.005700
39.992000 0.976200
40.081900 0.975100
40.171900 0.939500
40.261900 0.921100
40.351800 0.939600
40.441800 0.942300
40.531800 0.946700
40.621800 0.943600
40.711700 0.953000
40.801700 0.956800
40.891700 0.952700
40.981700 0.956600
41.071600 0.937700
41.161600 0.939300
41.251600 0.936300
41.341500 0.969800
41.431500 1.010400
41.521500 1.027900
41.611500 1.029800
41.701400 1.004800
41.791400 0.987500
41.881400 1.007300
41.971400 1.013200
42.061300 1.010100
42.151300 1.089500
42.241300 1.123200
42.331200 1.037200
42.421200 0.986900
42.511200 0.958700
42.601200 0.930400
42.691100 0.931600
42.781100 1.017400
42.871100 1.104300
42.961100 1.202400
43.051000 1.344000
43.141000 1.312000
43.231000 1.229800
43.320900 1.083200
43.410900 0.979900
43.500900 0.877000
43.590900 0.791100
43.680800 0.750200
43.770800 0.723000
43.860800 0.733800
43.950800 0.751000
44.040700 0.800000
44.130700 0.809800
44.220700 0.824000
44.310600 0.862600
44.400600 1.000900
44.490600 1.112600
44.580600 1.092700
44.670500 1.094000
44.760500 1.017700
44.850500 0.994100
44.940400 1.000600
45.030400 1.026800
45.120400 1.076900
45.210400 1.105000
45.300300 1.103500
45.390300 1.170600
45.480300 1.338600
45.570300 1.383100
45.660200 1.310200
45.750200 1.276100
45.840200 1.193400
45.930100 1.063800
46.020100 0.985200
46.110100 0.964300
46.200100 0.984600
46.290000 1.006700
46.380000 0.977700
46.470000 1.027900
46.560000 1.080700
46.649900 1.112300
46.739900 1.113700
46.829900 1.101900
46.919800 1.166200
47.009800 1.212900
47.099800 1.166100
47.189800 1.131300
47.279700 1.138800
47.369700 1.151200
47.459700 1.149200
47.549700 1.159400
47.639600 1.121400
47.729600 1.055300
47.819600 1.017600
47.909500 0.982200
47.999500 0.960100
48.089500 0.929400
48.179500 0.899300
48.269400 0.870100
48.359400 0.874300
48.449400 0.844800
48.539400 0.762000
48.629300 0.705300
48.719300 0.686400
48.809300 0.691300
48.899200 0.733500
48.989200 0.762200
49.079200 0.777700
49.169200 0.787300
49.259100 0.829500
49.349100 0.831500
49.439100 0.840700
49.529100 0.884600
49.619000 0.953200
49.709000 0.982500
49.799000 1.028900
49.888900 1.007700
49.978900 1.021200
50.068900 0.953100
50.158900 0.925000
50.248800 0.903200
50.338800 0.874200
50.428800 0.893300
50.518800 0.832700
50.608700 0.782200
50.698700 0.777800
50.788700 0.799600
50.878600 0.801700
50.968600 0.827300
51.058600 0.896900
51.148600 0.930000
51.238500 0.928900
51.328500 0.915600
51.418500 0.907500
51.508500 0.899200
51.598400 0.871300
51.688400 0.850600
51.778400 0.851100
51.868300 0.902200
51.958300 0.958300
52.048300 1.019400
52.138300 1.066400
52.228200 1.080400
52.318200 1.107000
52.408200 1.140800
52.498200 1.180200
52.588100 1.203500
52.678100 1.230600
52.768100 1.226800
52.858000 1.154000
52.948000 1.126100
53.038000 1.093000
53.128000 1.077000
53.217900 1.085500
53.307900 1.106300
53.397900 1.101800
53.487800 1.089100
53.577800 1.061600
53.667800 1.093300
53.757800 1.086900
53.847700 1.075400
53.937700 1.060400
54.027700 1.052800
54.117700 1.070700
54.207600 1.034700
54.297600 1.055600
54.387600 1.080600
54.477500 1.114600
54.567500 1.155100
54.657500 1.214100
54.747500 1.236700
54.837400 1.232000
54.927400 1.318000
55.017400 1.293600
55.107400 1.341100
55.197300 1.307200
55.287300 1.322800
55.377300 1.286700
55.467200 1.355900
