set title 'mp-1018179 - Density of States'
set xlabel 'Energy (eV)'
set ylabel 'DOS (states/eV)'
set grid
set xrange [-10:10]
set yrange [0:12.032]
set xzeroaxis lt -1
set terminal png size 800,600
set output 'mp-1018179_dos_gnuplot.png'
plot '-' using 1:2 with lines title 'DOS'
-5.052600 0.000000
-5.039500 0.000000
-5.026500 0.000000
-5.013400 0.000000
-5.000300 0.000000
-4.987300 0.000000
-4.974200 0.000000
-4.961100 0.000000
-4.948000 0.000000
-4.935000 0.000000
-4.921900 0.000000
-4.908800 0.000000
-4.895800 0.000000
-4.882700 0.000000
-4.869600 0.000000
-4.856500 0.000000
-4.843500 0.000000
-4.830400 0.000000
-4.817300 0.000000
-4.804300 0.000000
-4.791200 0.000000
-4.778100 0.000000
-4.765100 0.000000
-4.752000 0.000000
-4.738900 0.000000
-4.725800 0.000000
-4.712800 0.000000
-4.699700 0.000000
-4.686600 0.000000
-4.673600 0.000000
-4.660500 0.000000
-4.647400 0.000000
-4.634300 0.000000
-4.621300 0.000000
-4.608200 0.000000
-4.595100 0.000000
-4.582100 0.000000
-4.569000 0.000000
-4.555900 0.000000
-4.542900 0.000000
-4.529800 0.000000
-4.516700 0.000000
-4.503600 0.000000
-4.490600 0.000000
-4.477500 0.000000
-4.464400 0.000000
-4.451400 0.000000
-4.438300 0.000000
-4.425200 0.000000
-4.412100 0.000000
-4.399100 0.000000
-4.386000 0.000000
-4.372900 0.000000
-4.359900 0.000000
-4.346800 0.000000
-4.333700 0.000000
-4.320700 0.000000
-4.307600 0.000000
-4.294500 0.000000
-4.281400 0.000000
-4.268400 0.000000
-4.255300 0.000000
-4.242200 0.000000
-4.229200 0.000000
-4.216100 0.000000
-4.203000 0.000000
-4.190000 0.000000
-4.176900 0.000000
-4.163800 0.000000
-4.150700 0.000000
-4.137700 0.000000
-4.124600 0.000000
-4.111500 0.000000
-4.098500 0.000000
-4.085400 0.000000
-4.072300 0.000000
-4.059200 0.000000
-4.046200 0.000000
-4.033100 0.000000
-4.020000 0.000000
-4.007000 0.000000
-3.993900 0.000000
-3.980800 0.000000
-3.967800 0.000000
-3.954700 0.000000
-3.941600 0.000000
-3.928500 0.000000
-3.915500 0.000000
-3.902400 0.000000
-3.889300 0.000000
-3.876300 0.000000
-3.863200 0.000000
-3.850100 0.004000
-3.837000 0.014700
-3.824000 0.032100
-3.810900 0.056900
-3.797800 0.068300
-3.784800 0.067000
-3.771700 0.070800
-3.758600 0.076600
-3.745600 0.083300
-3.732500 0.090600
-3.719400 0.098200
-3.706300 0.105100
-3.693300 0.111800
-3.680200 0.117700
-3.667100 0.120600
-3.654100 0.123300
-3.641000 0.126400
-3.627900 0.129900
-3.614800 0.133500
-3.601800 0.137300
-3.588700 0.141300
-3.575600 0.145500
-3.562600 0.149900
-3.549500 0.154400
-3.536400 0.158000
-3.523400 0.161500
-3.510300 0.165300
-3.497200 0.169300
-3.484100 0.173400
-3.471100 0.177300
-3.458000 0.180600
-3.444900 0.183400
-3.431900 0.185900
-3.418800 0.188700
-3.405700 0.191700
-3.392600 0.194600
-3.379600 0.197500
-3.366500 0.200500
-3.353400 0.203500
-3.340400 0.206600
-3.327300 0.209800
-3.314200 0.213100
-3.301200 0.216200
-3.288100 0.219100
-3.275000 0.222000
-3.261900 0.225000
-3.248900 0.228200
-3.235800 0.231400
-3.222700 0.234700
-3.209700 0.238000
-3.196600 0.241400
-3.183500 0.244400
-3.170400 0.246900
-3.157400 0.249400
-3.144300 0.252000
-3.131200 0.254600
-3.118200 0.257300
-3.105100 0.260100
-3.092000 0.262800
-3.079000 0.265600
-3.065900 0.268500
-3.052800 0.271500
-3.039700 0.274400
-3.026700 0.277200
-3.013600 0.279800
-3.000500 0.282500
-2.987500 0.285300
-2.974400 0.288200
-2.961300 0.291000
-2.948200 0.293800
-2.935200 0.296700
-2.922100 0.299600
-2.909000 0.302600
-2.896000 0.305500
-2.882900 0.308500
-2.869800 0.311500
-2.856800 0.314600
-2.843700 0.318000
-2.830600 0.321200
-2.817500 0.323900
-2.804500 0.326700
-2.791400 0.329500
-2.778300 0.332400
-2.765300 0.335300
-2.752200 0.338200
-2.739100 0.341100
-2.726000 0.344000
-2.713000 0.347000
-2.699900 0.350000
-2.686800 0.353000
-2.673800 0.356000
-2.660700 0.359000
-2.647600 0.362100
-2.634600 0.365200
-2.621500 0.368300
-2.608400 0.371400
-2.595300 0.374600
-2.582300 0.378000
-2.569200 0.381400
-2.556100 0.384900
-2.543100 0.388500
-2.530000 0.392200
-2.516900 0.395800
-2.503900 0.399500
-2.490800 0.403200
-2.477700 0.406900
-2.464600 0.410700
-2.451600 0.414500
-2.438500 0.418400
-2.425400 0.422300
-2.412400 0.426100
-2.399300 0.429900
-2.386200 0.433500
-2.373100 0.437300
-2.360100 0.441100
-2.347000 0.445000
-2.333900 0.449100
-2.320900 0.453300
-2.307800 0.457700
-2.294700 0.462400
-2.281700 0.467800
-2.268600 0.473400
-2.255500 0.479300
-2.242400 0.485700
-2.229400 0.492500
-2.216300 0.499800
-2.203200 0.507700
-2.190200 0.516400
-2.177100 0.526000
-2.164000 0.536600
-2.150900 0.548800
-2.137900 0.564000
-2.124800 0.564600
-2.111700 0.561200
-2.098700 0.567200
-2.085600 0.572200
-2.072500 0.575800
-2.059500 0.573200
-2.046400 0.569900
-2.033300 0.568100
-2.020200 0.570800
-2.007200 0.573900
-1.994100 0.577200
-1.981000 0.580000
-1.968000 0.583100
-1.954900 0.587100
-1.941800 0.591300
-1.928700 0.599200
-1.915700 0.605800
-1.902600 0.611100
-1.889500 0.613300
-1.876500 0.615200
-1.863400 0.617300
-1.850300 0.619300
-1.837300 0.621100
-1.824200 0.623700
-1.811100 0.625300
-1.798000 0.625700
-1.785000 0.627200
-1.771900 0.630400
-1.758800 0.633900
-1.745800 0.637400
-1.732700 0.640400
-1.719600 0.644500
-1.706500 0.648600
-1.693500 0.652900
-1.680400 0.658600
-1.667300 0.664200
-1.654300 0.668800
-1.641200 0.672200
-1.628100 0.675700
-1.615100 0.679600
-1.602000 0.683900
-1.588900 0.688300
-1.575800 0.692500
-1.562800 0.696500
-1.549700 0.700700
-1.536600 0.705400
-1.523600 0.710100
-1.510500 0.714900
-1.497400 0.719800
-1.484300 0.725000
-1.471300 0.730400
-1.458200 0.735800
-1.445100 0.741000
-1.432100 0.747200
-1.419000 0.754400
-1.405900 0.761800
-1.392900 0.769600
-1.379800 0.777900
-1.366700 0.787000
-1.353600 0.804000
-1.340600 0.814500
-1.327500 0.825400
-1.314400 0.836700
-1.301400 0.848100
-1.288300 0.859000
-1.275200 0.870400
-1.262100 0.882600
-1.249100 0.893600
-1.236000 0.904400
-1.222900 0.911800
-1.209900 0.923200
-1.196800 0.935100
-1.183700 0.948300
-1.170700 0.961700
-1.157600 0.974900
-1.144500 0.988000
-1.131400 1.001200
-1.118400 1.015100
-1.105300 1.029900
-1.092200 1.045200
-1.079200 1.060100
-1.066100 1.074500
-1.053000 1.088800
-1.039900 1.103400
-1.026900 1.118200
-1.013800 1.133000
-1.000700 1.147800
-0.987700 1.167900
-0.974600 1.188200
-0.961500 1.207900
-0.948500 1.241400
-0.935400 1.329000
-0.922300 1.415800
-0.909200 1.511900
-0.896200 1.624700
-0.883100 1.771900
-0.870000 1.961700
-0.857000 1.794100
-0.843900 1.603200
-0.830800 1.582000
-0.817800 1.596800
-0.804700 1.602800
-0.791600 1.602800
-0.778500 1.611500
-0.765500 1.616500
-0.752400 1.622100
-0.739300 1.606900
-0.726300 1.592500
-0.713200 1.574800
-0.700100 1.565600
-0.687000 1.562700
-0.674000 1.622200
-0.660900 1.648400
-0.647800 1.633500
-0.634800 1.650000
-0.621700 1.699500
-0.608600 1.827700
-0.595600 1.925800
-0.582500 2.088200
-0.569400 2.215400
-0.556300 2.365600
-0.543300 2.220700
-0.530200 1.952200
-0.517100 1.699800
-0.504100 1.632600
-0.491000 1.476800
-0.477900 1.288800
-0.464800 1.252000
-0.451800 1.240600
-0.438700 1.262900
-0.425600 1.149700
-0.412600 1.134800
-0.399500 1.153200
-0.386400 1.194600
-0.373400 1.236800
-0.360300 1.280200
-0.347200 1.325900
-0.334100 1.374300
-0.321100 1.424900
-0.308000 1.488300
-0.294900 1.560400
-0.281900 1.633500
-0.268800 1.704100
-0.255700 1.782200
-0.242600 1.976700
-0.229600 2.167400
-0.216500 2.298100
-0.203400 2.329500
-0.190400 2.414900
-0.177300 2.665200
-0.164200 2.883100
-0.151200 3.166600
-0.138100 3.481900
-0.125000 3.386800
-0.111900 3.174500
-0.098900 3.123400
-0.085800 3.005200
-0.072700 2.943000
-0.059700 2.881200
-0.046600 2.750300
-0.033500 2.705500
-0.020400 2.658900
-0.007400 2.598000
0.005700 2.568500
0.018800 2.502300
0.031800 2.458600
0.044900 2.417600
0.058000 2.383900
0.071000 2.355500
0.084100 2.323500
0.097200 2.221300
0.110300 2.122300
0.123300 2.026600
0.136400 1.922300
0.149500 1.867600
0.162500 1.972100
0.175600 1.931400
0.188700 1.872900
0.201800 1.750700
0.214800 1.808800
0.227900 1.907600
0.241000 1.948400
0.254000 2.076000
0.267100 2.245800
0.280200 2.433400
0.293200 2.691200
0.306300 3.122500
0.319400 3.386500
0.332500 3.573800
0.345500 3.872400
0.358600 4.205700
0.371700 4.593500
0.384700 4.269100
0.397800 4.213200
0.410900 4.228200
0.424000 4.320400
0.437000 4.379200
0.450100 4.425700
0.463200 4.497200
0.476200 4.594800
0.489300 4.662700
0.502400 4.880200
0.515400 5.319900
0.528500 6.180000
0.541600 6.623100
0.554700 6.994800
0.567700 6.977600
0.580800 6.943100
0.593900 7.220700
0.606900 7.393400
0.620000 7.409000
0.633100 6.930800
0.646200 6.675100
0.659200 6.592800
0.672300 6.419200
0.685400 5.966400
0.698400 5.657300
0.711500 5.527300
0.724600 5.550100
0.737600 5.592500
0.750700 5.581200
0.763800 5.442200
0.776900 5.461300
0.789900 5.737600
0.803000 6.372400
0.816100 6.705400
0.829100 7.198400
0.842200 6.985100
0.855300 6.501600
0.868300 5.760300
0.881400 5.049900
0.894500 4.643400
0.907600 4.351600
0.920600 4.354900
0.933700 4.386800
0.946800 4.457700
0.959800 4.783200
0.972900 5.806000
0.986000 6.861700
0.999100 8.362400
1.012100 9.105000
1.025200 8.990700
1.038300 8.568000
1.051300 7.895900
1.064400 7.863900
1.077500 9.129600
1.090500 9.842800
1.103600 10.938500
1.116700 9.575600
1.129800 7.861200
1.142800 6.548000
1.155900 5.998100
1.169000 5.406500
1.182000 5.174000
1.195100 5.187200
1.208200 5.472400
1.221300 5.554200
1.234300 5.890400
1.247400 5.605400
1.260500 5.444200
1.273500 5.573400
1.286600 5.818300
1.299700 6.337200
1.312700 6.228200
1.325800 6.017600
1.338900 5.790200
1.352000 5.679900
1.365000 5.658600
1.378100 5.593300
1.391200 5.428200
1.404200 5.232300
1.417300 5.019600
1.430400 4.870900
1.443500 4.762900
1.456500 4.741000
1.469600 4.740500
1.482700 4.830200
1.495700 5.112200
1.508800 5.443300
1.521900 6.034500
1.534900 6.896800
1.548000 7.125000
1.561100 6.680300
1.574200 6.134600
1.587200 5.462700
1.600300 5.095800
1.613400 5.263700
1.626400 6.071300
1.639500 5.959800
1.652600 5.689500
1.665700 5.277200
1.678700 4.800600
1.691800 4.689800
1.704900 4.634500
1.717900 4.726400
1.731000 4.871900
1.744100 5.294300
1.757100 5.550200
1.770200 5.738400
1.783300 5.959800
1.796400 6.860700
1.809400 6.910500
1.822500 6.281200
1.835600 6.141800
1.848600 6.191200
1.861700 6.138900
1.874800 5.385000
1.887900 4.512700
1.900900 4.035100
1.914000 3.748900
1.927100 3.509500
1.940100 3.353800
1.953200 3.188100
1.966300 3.119300
1.979300 3.037200
1.992400 2.964600
2.005500 2.928800
2.018600 2.922600
2.031600 2.941400
2.044700 3.102800
2.057800 3.407700
2.070800 3.815700
2.083900 3.587600
2.097000 3.703800
2.110100 3.712600
2.123100 3.767700
2.136200 3.867400
2.149300 4.004600
2.162300 4.196500
2.175400 4.453900
2.188500 4.765800
2.201500 5.039300
2.214600 5.804900
2.227700 5.401700
2.240800 5.197000
2.253800 5.129400
2.266900 5.032200
2.280000 5.055300
2.293000 5.210000
2.306100 5.375700
2.319200 5.387300
2.332300 5.265300
2.345300 5.244900
2.358400 5.218300
2.371500 5.260200
2.384500 5.391200
2.397600 5.405700
2.410700 5.252500
2.423700 4.931300
2.436800 4.922300
2.449900 4.897000
2.463000 4.894500
2.476000 4.888800
2.489100 4.921800
2.502200 5.000600
2.515200 4.777900
2.528300 4.429200
2.541400 4.240500
2.554400 4.132400
2.567500 4.043200
2.580600 3.946200
2.593700 3.865700
2.606700 3.868300
2.619800 3.806300
2.632900 3.801800
2.645900 3.741400
2.659000 3.613800
2.672100 3.565300
2.685200 3.587700
2.698200 3.741900
2.711300 3.897900
2.724400 4.211500
2.737400 4.804400
2.750500 5.142900
2.763600 5.675900
2.776600 6.045800
2.789700 6.409100
2.802800 5.911800
2.815900 5.197200
2.828900 4.805900
2.842000 4.651600
2.855100 4.501700
2.868100 4.376200
2.881200 4.257900
2.894300 4.178800
2.907400 4.138800
2.920400 4.124300
2.933500 4.110900
2.946600 4.098300
2.959600 4.119400
2.972700 4.151800
2.985800 4.219200
2.998800 4.338700
3.011900 4.328400
3.025000 4.345600
3.038100 4.406700
3.051100 4.460700
3.064200 4.466700
3.077300 4.521700
3.090300 4.569600
3.103400 4.628000
3.116500 4.717900
3.129600 4.750200
3.142600 4.947600
3.155700 4.644000
3.168800 5.111500
3.181800 5.916500
3.194900 6.329700
3.208000 6.438200
3.221000 6.570900
3.234100 6.881400
3.247200 7.161400
3.260300 8.869200
3.273300 6.818100
3.286400 6.608600
3.299500 6.409600
3.312500 6.356500
3.325600 6.302800
3.338700 6.527100
3.351800 6.634800
3.364800 7.498300
3.377900 8.314000
3.391000 7.970100
3.404000 7.936700
3.417100 8.062100
3.430200 8.178600
3.443200 8.541000
3.456300 8.202400
3.469400 7.120500
3.482500 5.854900
3.495500 4.786500
3.508600 4.058400
3.521700 3.410800
3.534700 2.643200
3.547800 2.406100
3.560900 2.384600
3.574000 2.456400
3.587000 2.900500
3.600100 2.546400
3.613200 2.249800
3.626200 2.124000
3.639300 2.036400
3.652400 2.019400
3.665400 1.889300
3.678500 1.841800
3.691600 1.835700
3.704700 1.821700
3.717700 1.820400
3.730800 1.838700
3.743900 1.877400
3.756900 1.919300
3.770000 2.016600
3.783100 2.147100
3.796200 2.355800
3.809200 2.370300
3.822300 2.334100
3.835400 2.287800
3.848400 2.248400
3.861500 2.246000
3.874600 2.220800
3.887600 2.178500
3.900700 2.150100
3.913800 1.918700
3.926900 1.831900
3.939900 1.762800
3.953000 1.713100
3.966100 1.674000
3.979100 1.639400
3.992200 1.604400
4.005300 1.569900
4.018400 1.533400
4.031400 1.501600
4.044500 1.471400
4.057600 1.441900
4.070600 1.414200
4.083700 1.391700
4.096800 1.370100
4.109800 1.349600
4.122900 1.331600
4.136000 1.316400
4.149100 1.302100
4.162100 1.288200
4.175200 1.274600
4.188300 1.261700
4.201300 1.248600
4.214400 1.234900
4.227500 1.222000
4.240500 1.209700
4.253600 1.196300
4.266700 1.184000
4.279800 1.173000
4.292800 1.162600
4.305900 1.153000
4.319000 1.144700
4.332000 1.137200
4.345100 1.129800
4.358200 1.123100
4.371300 1.116800
4.384300 1.110600
4.397400 1.104200
4.410500 1.097900
4.423500 1.091200
4.436600 1.084700
4.449700 1.078200
4.462700 1.071600
4.475800 1.065100
4.488900 1.058600
4.502000 1.053700
4.515000 1.049900
4.528100 1.046400
4.541200 1.042800
4.554200 1.039300
4.567300 1.035800
4.580400 1.032600
4.593500 1.030100
4.606500 1.028100
4.619600 1.027500
4.632700 1.025500
4.645700 1.022800
4.658800 1.018200
4.671900 1.012800
4.684900 1.008300
4.698000 1.004300
4.711100 1.000900
4.724200 0.997700
4.737200 0.994500
4.750300 0.995300
4.763400 0.996300
4.776400 0.992100
4.789500 0.988400
4.802600 0.985000
4.815700 0.982000
4.828700 0.979600
4.841800 0.977600
4.854900 0.975000
4.867900 0.972000
4.881000 0.968800
4.894100 0.965900
4.907100 0.963700
4.920200 0.962400
4.933300 0.961700
4.946400 0.961400
4.959400 0.961700
4.972500 0.962900
4.985600 0.963300
4.998600 0.964700
5.011700 0.966700
5.024800 0.968700
5.037900 0.971600
5.050900 0.975800
5.064000 0.981100
5.077100 0.987900
5.090100 0.996500
5.103200 1.005000
5.116300 1.012300
5.129300 1.018200
5.142400 1.022900
5.155500 1.029100
5.168600 1.033400
5.181600 1.029800
5.194700 1.021400
5.207800 1.020200
5.220800 1.017600
5.233900 1.015100
5.247000 1.013400
5.260100 1.012700
5.273100 1.012500
5.286200 1.012700
5.299300 1.013300
5.312300 1.014100
5.325400 1.015000
5.338500 1.015800
5.351500 1.016700
5.364600 1.019500
5.377700 1.025500
5.390800 1.036400
5.403800 1.064700
5.416900 1.063900
5.430000 1.048100
5.443000 1.045800
5.456100 1.044200
5.469200 1.041900
5.482300 1.039300
5.495300 1.043500
5.508400 1.072000
5.521500 1.106900
5.534500 1.071200
5.547600 1.070100
5.560700 1.064700
5.573700 1.060300
5.586800 1.056200
5.599900 1.052200
5.613000 1.048500
5.626000 1.045200
5.639100 1.042100
5.652200 1.038500
5.665200 1.034400
5.678300 1.030700
5.691400 1.026400
5.704500 1.019500
5.717500 1.016300
5.730600 1.012900
5.743700 1.004900
5.756700 0.999300
5.769800 0.994000
5.782900 0.988900
5.795900 0.983700
5.809000 0.978400
5.822100 0.972800
5.835200 0.967300
5.848200 0.962200
5.861300 0.957600
5.874400 0.953700
5.887400 0.949800
5.900500 0.945500
5.913600 0.940800
5.926600 0.936300
5.939700 0.931900
5.952800 0.927200
5.965900 0.922400
5.978900 0.917800
5.992000 0.912200
6.005100 0.910500
6.018100 0.908600
6.031200 0.907000
6.044300 0.905600
6.057400 0.904300
6.070400 0.902800
6.083500 0.901100
6.096600 0.899200
6.109600 0.897300
6.122700 0.895200
6.135800 0.892800
6.148800 0.891500
6.161900 0.889400
6.175000 0.886800
6.188100 0.884400
6.201100 0.884000
6.214200 0.885700
6.227300 0.889100
6.240300 0.886100
6.253400 0.880600
6.266500 0.876500
6.279600 0.873600
6.292600 0.871300
6.305700 0.869600
6.318800 0.868600
6.331800 0.867900
6.344900 0.868600
6.358000 0.870600
6.371000 0.873100
6.384100 0.874500
6.397200 0.870000
6.410300 0.863800
6.423300 0.857600
6.436400 0.851300
6.449500 0.845200
6.462500 0.837000
6.475600 0.833600
6.488700 0.832000
6.501800 0.831300
6.514800 0.831000
6.527900 0.829800
6.541000 0.828300
6.554000 0.827400
6.567100 0.827000
6.580200 0.827300
6.593200 0.828200
6.606300 0.804700
6.619400 0.793500
6.632500 0.787600
6.645500 0.782400
6.658600 0.777600
6.671700 0.772900
6.684700 0.768800
6.697800 0.763700
6.710900 0.757600
6.724000 0.752100
6.737000 0.747000
6.750100 0.741500
6.763200 0.737100
6.776200 0.740400
6.789300 0.742300
6.802400 0.738600
6.815400 0.730200
6.828500 0.718700
6.841600 0.710300
6.854700 0.705600
6.867700 0.700800
6.880800 0.696100
6.893900 0.691200
6.906900 0.686200
6.920000 0.680900
6.933100 0.675500
6.946200 0.670000
6.959200 0.664300
6.972300 0.658200
6.985400 0.652000
6.998400 0.645800
7.011500 0.639700
7.024600 0.634100
7.037600 0.629300
7.050700 0.625000
7.063800 0.621100
7.076900 0.617400
7.089900 0.614000
7.103000 0.611700
7.116100 0.610300
7.129100 0.610100
7.142200 0.612100
7.155300 0.617600
7.168400 0.619400
7.181400 0.618400
7.194500 0.616700
7.207600 0.611300
7.220600 0.599600
7.233700 0.583100
7.246800 0.564400
7.259800 0.546700
7.272900 0.533100
7.286000 0.520200
7.299100 0.512300
7.312100 0.506100
7.325200 0.499200
7.338300 0.492300
7.351300 0.485900
7.364400 0.479900
7.377500 0.474500
7.390600 0.469600
7.403600 0.465200
7.416700 0.460100
7.429800 0.454200
7.442800 0.448400
7.455900 0.459200
7.469000 0.471200
7.482000 0.480900
7.495100 0.491100
7.508200 0.502800
7.521300 0.515300
7.534300 0.528900
7.547400 0.545700
7.560500 0.565000
7.573500 0.585400
7.586600 0.606800
7.599700 0.629800
7.612700 0.666500
7.625800 0.708500
7.638900 0.748800
7.652000 0.818100
7.665000 0.962900
7.678100 0.910000
7.691200 0.890700
7.704200 0.842800
7.717300 0.800800
7.730400 0.796000
7.743500 0.794800
7.756500 0.794000
7.769600 0.793200
7.782700 0.793600
7.795700 0.804300
7.808800 0.807900
7.821900 0.809700
7.834900 0.811000
7.848000 0.811900
7.861100 0.813100
7.874200 0.810900
7.887200 0.807100
7.900300 0.801600
7.913400 0.797000
7.926400 0.793600
7.939500 0.791300
7.952600 0.790300
7.965700 0.793100
7.978700 0.801000
7.991800 0.812700
8.004900 0.816300
8.017900 0.812200
8.031000 0.805900
8.044100 0.802800
8.057100 0.801500
8.070200 0.801000
8.083300 0.801200
8.096400 0.801700
8.109400 0.802400
8.122500 0.803100
8.135600 0.803300
8.148600 0.802200
8.161700 0.798300
8.174800 0.794400
8.187900 0.790600
8.200900 0.785900
8.214000 0.779600
8.227100 0.775400
8.240100 0.773100
8.253200 0.778200
8.266300 0.823200
8.279300 0.886200
8.292400 0.957800
8.305500 1.035700
8.318600 1.126700
8.331600 1.220600
8.344700 1.291500
8.357800 1.342900
8.370800 1.378700
8.383900 1.400300
8.397000 1.410800
8.410100 1.411000
8.423100 1.402200
8.436200 1.392700
8.449300 1.399900
8.462300 1.398500
8.475400 1.392800
8.488500 1.384900
8.501500 1.366000
8.514600 1.342200
8.527700 1.318700
8.540800 1.306700
8.553800 1.283000
8.566900 1.260800
8.580000 1.241300
8.593000 1.227600
8.606100 1.215100
8.619200 1.202300
8.632300 1.187900
8.645300 1.183100
8.658400 1.189400
8.671500 1.191200
8.684500 1.186500
8.697600 1.182800
8.710700 1.171200
8.723700 1.159000
8.736800 1.151700
8.749900 1.149700
8.763000 1.153100
8.776000 1.160300
8.789100 1.163200
8.802200 1.168300
8.815200 1.174400
8.828300 1.184000
8.841400 1.202600
8.854500 1.253100
8.867500 1.269600
8.880600 1.257300
8.893700 1.286300
8.906700 1.304100
8.919800 1.323400
8.932900 1.326200
8.945900 1.327000
8.959000 1.339700
8.972100 1.366400
