set title 'mp-1183651 - Density of States'
set xlabel 'Energy (eV)'
set ylabel 'DOS (states/eV)'
set grid
set xrange [-10:10]
set yrange [0:51.580]
set xzeroaxis lt -1
set terminal png size 800,600
set output 'mp-1183651_dos_gnuplot.png'
plot '-' using 1:2 with lines title 'DOS'
-10.012200 0.000000
-9.994200 0.000000
-9.976300 0.000000
-9.958300 0.000000
-9.940300 0.000000
-9.922400 0.000000
-9.904400 0.000000
-9.886400 0.000000
-9.868500 0.000000
-9.850500 0.000000
-9.832500 0.000000
-9.814600 0.000000
-9.796600 0.000000
-9.778700 0.000000
-9.760700 0.000000
-9.742700 0.000000
-9.724800 0.000000
-9.706800 0.000000
-9.688800 0.000000
-9.670900 0.000000
-9.652900 0.000000
-9.634900 0.000000
-9.617000 0.000000
-9.599000 0.000000
-9.581000 0.000000
-9.563100 0.000000
-9.545100 0.000000
-9.527100 0.000000
-9.509200 0.000000
-9.491200 0.000000
-9.473200 0.000000
-9.455300 0.000000
-9.437300 0.000000
-9.419400 0.000000
-9.401400 0.000000
-9.383400 0.000000
-9.365500 0.000000
-9.347500 0.000000
-9.329500 0.000000
-9.311600 0.000000
-9.293600 0.000000
-9.275600 0.000000
-9.257700 0.000000
-9.239700 0.000000
-9.221700 0.000000
-9.203800 0.000000
-9.185800 0.000000
-9.167800 0.000000
-9.149900 0.000000
-9.131900 0.000000
-9.114000 0.000000
-9.096000 0.000000
-9.078000 0.000000
-9.060100 0.000000
-9.042100 0.000000
-9.024100 0.000000
-9.006200 0.000000
-8.988200 0.000000
-8.970200 0.000000
-8.952300 0.000000
-8.934300 0.000000
-8.916300 0.000000
-8.898400 0.000000
-8.880400 0.000000
-8.862400 0.000000
-8.844500 0.000000
-8.826500 0.000000
-8.808600 0.000000
-8.790600 0.000000
-8.772600 0.000000
-8.754700 0.000000
-8.736700 0.000000
-8.718700 0.000000
-8.700800 0.000000
-8.682800 0.000000
-8.664800 0.000000
-8.646900 0.000000
-8.628900 0.000000
-8.610900 0.000000
-8.593000 0.000000
-8.575000 0.000000
-8.557000 0.000000
-8.539100 0.000000
-8.521100 0.000000
-8.503200 0.000000
-8.485200 0.000300
-8.467200 0.001400
-8.449300 0.005400
-8.431300 0.017100
-8.413300 0.045800
-8.395400 0.104100
-8.377400 0.203500
-8.359400 0.345400
-8.341500 0.514300
-8.323500 0.682300
-8.305500 0.827000
-8.287600 0.955300
-8.269600 1.109500
-8.251600 1.334900
-8.233700 1.625700
-8.215700 1.911400
-8.197700 2.111400
-8.179800 2.205100
-8.161800 2.252600
-8.143900 2.350300
-8.125900 2.553600
-8.107900 2.830500
-8.090000 3.095000
-8.072000 3.295700
-8.054000 3.465100
-8.036100 3.687000
-8.018100 4.052200
-8.000100 4.662100
-7.982200 5.628800
-7.964200 7.008300
-7.946200 8.656500
-7.928300 10.070500
-7.910300 10.466200
-7.892300 9.301600
-7.874400 6.851500
-7.856400 4.098000
-7.838500 1.964400
-7.820500 0.748400
-7.802500 0.225400
-7.784600 0.053400
-7.766600 0.009900
-7.748600 0.001500
-7.730700 0.000200
-7.712700 0.000000
-7.694700 0.000000
-7.676800 0.000000
-7.658800 0.000000
-7.640800 0.000000
-7.622900 0.000000
-7.604900 0.000000
-7.586900 0.000000
-7.569000 0.000000
-7.551000 0.000000
-7.533100 0.000000
-7.515100 0.000000
-7.497100 0.000000
-7.479200 0.000000
-7.461200 0.000000
-7.443200 0.000000
-7.425300 0.000000
-7.407300 0.000000
-7.389300 0.000000
-7.371400 0.000000
-7.353400 0.000000
-7.335400 0.000000
-7.317500 0.000000
-7.299500 0.000000
-7.281500 0.000000
-7.263600 0.000000
-7.245600 0.000000
-7.227600 0.000000
-7.209700 0.000000
-7.191700 0.000000
-7.173800 0.000000
-7.155800 0.000000
-7.137800 0.000000
-7.119900 0.000000
-7.101900 0.000000
-7.083900 0.000000
-7.066000 0.000000
-7.048000 0.000000
-7.030000 0.000000
-7.012100 0.000000
-6.994100 0.000000
-6.976100 0.000000
-6.958200 0.000000
-6.940200 0.000000
-6.922200 0.000000
-6.904300 0.000000
-6.886300 0.000000
-6.868400 0.000000
-6.850400 0.000000
-6.832400 0.000000
-6.814500 0.000000
-6.796500 0.000000
-6.778500 0.000000
-6.760600 0.000000
-6.742600 0.000000
-6.724600 0.000000
-6.706700 0.000000
-6.688700 0.000000
-6.670700 0.000000
-6.652800 0.000000
-6.634800 0.000000
-6.616800 0.000000
-6.598900 0.000000
-6.580900 0.000000
-6.563000 0.000000
-6.545000 0.000000
-6.527000 0.000000
-6.509100 0.000000
-6.491100 0.000000
-6.473100 0.000000
-6.455200 0.000000
-6.437200 0.000000
-6.419200 0.000000
-6.401300 0.000000
-6.383300 0.000000
-6.365300 0.000000
-6.347400 0.000000
-6.329400 0.000000
-6.311400 0.000000
-6.293500 0.000000
-6.275500 0.000000
-6.257600 0.000000
-6.239600 0.000000
-6.221600 0.000000
-6.203700 0.000000
-6.185700 0.000000
-6.167700 0.000000
-6.149800 0.000000
-6.131800 0.000000
-6.113800 0.000000
-6.095900 0.000000
-6.077900 0.000000
-6.059900 0.000000
-6.042000 0.000000
-6.024000 0.000000
-6.006000 0.000000
-5.988100 0.000000
-5.970100 0.000000
-5.952100 0.000000
-5.934200 0.000000
-5.916200 0.000000
-5.898300 0.000000
-5.880300 0.000000
-5.862300 0.000000
-5.844400 0.000000
-5.826400 0.000000
-5.808400 0.000000
-5.790500 0.000000
-5.772500 0.000000
-5.754500 0.000000
-5.736600 0.000000
-5.718600 0.000000
-5.700600 0.000000
-5.682700 0.000200
-5.664700 0.001300
-5.646700 0.006700
-5.628800 0.028400
-5.610800 0.098400
-5.592900 0.280100
-5.574900 0.663900
-5.556900 1.335800
-5.539000 2.347400
-5.521000 3.728300
-5.503000 5.538800
-5.485100 7.925000
-5.467100 11.167800
-5.449100 15.653300
-5.431200 21.594200
-5.413200 28.584400
-5.395200 35.496000
-5.377300 41.042400
-5.359300 44.555200
-5.341300 46.240100
-5.323400 46.800400
-5.305400 46.891000
-5.287500 46.732500
-5.269500 46.060300
-5.251500 44.549100
-5.233600 42.360000
-5.215600 40.077700
-5.197600 38.080300
-5.179700 36.254700
-5.161700 34.422600
-5.143700 32.756400
-5.125800 31.647800
-5.107800 31.374700
-5.089800 31.909500
-5.071900 32.824500
-5.053900 33.466600
-5.035900 33.498600
-5.018000 33.230700
-5.000000 33.267700
-4.982000 33.932400
-4.964100 35.121200
-4.946100 36.548300
-4.928200 37.962100
-4.910200 39.183200
-4.892200 40.099600
-4.874300 40.804800
-4.856300 41.734500
-4.838300 43.293500
-4.820400 45.045700
-4.802400 45.548600
-4.784400 43.448700
-4.766500 38.745400
-4.748500 32.762600
-4.730500 26.988800
-4.712600 22.126900
-4.694600 18.056800
-4.676600 14.376900
-4.658700 10.928100
-4.640700 7.937100
-4.622800 5.763100
-4.604800 4.516200
-4.586800 3.897500
-4.568900 3.433200
-4.550900 2.880800
-4.532900 2.355000
-4.515000 2.052300
-4.497000 1.952900
-4.479000 1.848600
-4.461100 1.578200
-4.443100 1.159500
-4.425100 0.722400
-4.407200 0.380100
-4.389200 0.168100
-4.371200 0.062000
-4.353300 0.018800
-4.335300 0.004600
-4.317400 0.000900
-4.299400 0.000100
-4.281400 0.000000
-4.263500 0.000000
-4.245500 0.000000
-4.227500 0.000000
-4.209600 0.000000
-4.191600 0.000000
-4.173600 0.000000
-4.155700 0.000000
-4.137700 0.000000
-4.119700 0.000000
-4.101800 0.000000
-4.083800 0.000000
-4.065800 0.000000
-4.047900 0.000000
-4.029900 0.000000
-4.012000 0.000000
-3.994000 0.000000
-3.976000 0.000000
-3.958100 0.000000
-3.940100 0.000000
-3.922100 0.000000
-3.904200 0.000000
-3.886200 0.000000
-3.868200 0.000000
-3.850300 0.000000
-3.832300 0.000000
-3.814300 0.000000
-3.796400 0.000000
-3.778400 0.000000
-3.760400 0.000000
-3.742500 0.000000
-3.724500 0.000000
-3.706500 0.000000
-3.688600 0.000000
-3.670600 0.000000
-3.652700 0.000000
-3.634700 0.000000
-3.616700 0.000000
-3.598800 0.000000
-3.580800 0.000000
-3.562800 0.000000
-3.544900 0.000000
-3.526900 0.000000
-3.508900 0.000000
-3.491000 0.000000
-3.473000 0.000000
-3.455000 0.000000
-3.437100 0.000000
-3.419100 0.000000
-3.401100 0.000000
-3.383200 0.000000
-3.365200 0.000000
-3.347300 0.000000
-3.329300 0.000000
-3.311300 0.000000
-3.293400 0.000000
-3.275400 0.000000
-3.257400 0.000000
-3.239500 0.000000
-3.221500 0.000000
-3.203500 0.000000
-3.185600 0.000000
-3.167600 0.000000
-3.149600 0.000000
-3.131700 0.000000
-3.113700 0.000200
-3.095700 0.000800
-3.077800 0.002900
-3.059800 0.008600
-3.041900 0.020100
-3.023900 0.038400
-3.005900 0.061400
-2.988000 0.085000
-2.970000 0.103400
-2.952000 0.110000
-2.934100 0.101300
-2.916100 0.086300
-2.898100 0.088300
-2.880200 0.131500
-2.862200 0.217800
-2.844200 0.311500
-2.826300 0.356800
-2.808300 0.324900
-2.790300 0.240700
-2.772400 0.156100
-2.754400 0.104900
-2.736400 0.091800
-2.718500 0.111400
-2.700500 0.158000
-2.682600 0.221300
-2.664600 0.289000
-2.646600 0.352900
-2.628700 0.401500
-2.610700 0.413800
-2.592700 0.385100
-2.574800 0.353800
-2.556800 0.375600
-2.538800 0.466900
-2.520900 0.586000
-2.502900 0.671900
-2.484900 0.687000
-2.467000 0.633100
-2.449000 0.551300
-2.431000 0.511200
-2.413100 0.579300
-2.395100 0.773800
-2.377200 1.046700
-2.359200 1.323600
-2.341200 1.572400
-2.323300 1.817200
-2.305300 2.070300
-2.287300 2.286300
-2.269400 2.422800
-2.251400 2.516700
-2.233400 2.635200
-2.215500 2.759400
-2.197500 2.777800
-2.179500 2.610700
-2.161600 2.302600
-2.143600 1.980500
-2.125600 1.749900
-2.107700 1.644300
-2.089700 1.656000
-2.071800 1.783100
-2.053800 2.027700
-2.035800 2.351300
-2.017900 2.644900
-1.999900 2.762200
-1.981900 2.615800
-1.964000 2.263500
-1.946000 1.876300
-1.928000 1.597400
-1.910100 1.436200
-1.892100 1.309200
-1.874100 1.173600
-1.856200 1.095500
-1.838200 1.179500
-1.820200 1.456200
-1.802300 1.852400
-1.784300 2.238700
-1.766400 2.489200
-1.748400 2.532700
-1.730400 2.388000
-1.712500 2.151300
-1.694500 1.936500
-1.676500 1.811400
-1.658600 1.764700
-1.640600 1.718200
-1.622600 1.585200
-1.604700 1.349000
-1.586700 1.089100
-1.568700 0.912600
-1.550800 0.859900
-1.532800 0.888200
-1.514800 0.933900
-1.496900 0.965400
-1.478900 0.974400
-1.460900 0.949200
-1.443000 0.888600
-1.425000 0.838700
-1.407100 0.888500
-1.389100 1.103500
-1.371100 1.447200
-1.353200 1.762800
-1.335200 1.857300
-1.317200 1.645800
-1.299300 1.227100
-1.281300 0.805300
-1.263300 0.541300
-1.245400 0.483200
-1.227400 0.590700
-1.209400 0.772100
-1.191500 0.913100
-1.173500 0.933900
-1.155500 0.846400
-1.137600 0.735400
-1.119600 0.676200
-1.101700 0.681200
-1.083700 0.721200
-1.065700 0.768100
-1.047800 0.799400
-1.029800 0.788800
-1.011800 0.719300
-0.993900 0.603000
-0.975900 0.485100
-0.957900 0.437700
-0.940000 0.538400
-0.922000 0.816800
-0.904000 1.206700
-0.886100 1.572200
-0.868100 1.805500
-0.850100 1.895200
-0.832200 1.896500
-0.814200 1.860900
-0.796300 1.814100
-0.778300 1.774200
-0.760300 1.746800
-0.742400 1.710800
-0.724400 1.648200
-0.706400 1.579600
-0.688500 1.532100
-0.670500 1.487400
-0.652500 1.410700
-0.634600 1.312100
-0.616600 1.241100
-0.598600 1.234900
-0.580700 1.291700
-0.562700 1.374300
-0.544700 1.426800
-0.526800 1.406300
-0.508800 1.319700
-0.490800 1.237000
-0.472900 1.250800
-0.454900 1.401900
-0.437000 1.638900
-0.419000 1.840800
-0.401000 1.876200
-0.383100 1.691200
-0.365100 1.375100
-0.347100 1.105700
-0.329200 0.999100
-0.311200 1.031400
-0.293200 1.099000
-0.275300 1.130000
-0.257300 1.151800
-0.239300 1.258800
-0.221400 1.494400
-0.203400 1.764000
-0.185400 1.909000
-0.167500 1.870800
-0.149500 1.740500
-0.131600 1.642400
-0.113600 1.618600
-0.095600 1.646500
-0.077700 1.724500
-0.059700 1.885500
-0.041700 2.117400
-0.023800 2.314300
-0.005800 2.358900
0.012200 2.248200
0.030100 2.099800
0.048100 2.047800
0.066100 2.156200
0.084000 2.390300
0.102000 2.632300
0.120000 2.744400
0.137900 2.665800
0.155900 2.454800
0.173800 2.225500
0.191800 2.050000
0.209800 1.934400
0.227700 1.872300
0.245700 1.884400
0.263700 1.991200
0.281600 2.176900
0.299600 2.405000
0.317600 2.648800
0.335500 2.882500
0.353500 3.054900
0.371500 3.102600
0.389400 2.996200
0.407400 2.767700
0.425400 2.493700
0.443300 2.249800
0.461300 2.073100
0.479200 1.952300
0.497200 1.836000
0.515200 1.664500
0.533100 1.427000
0.551100 1.188200
0.569100 1.023300
0.587000 0.932400
0.605000 0.851200
0.623000 0.747300
0.640900 0.670700
0.658900 0.694100
0.676900 0.819400
0.694800 0.964000
0.712800 1.037800
0.730800 1.010500
0.748700 0.908900
0.766700 0.790400
0.784700 0.738800
0.802600 0.849800
0.820600 1.163400
0.838500 1.596300
0.856500 1.979800
0.874500 2.206000
0.892400 2.310900
0.910400 2.379000
0.928400 2.402400
0.946300 2.281700
0.964300 1.947700
0.982300 1.448900
1.000200 0.931300
1.018200 0.548400
1.036200 0.378500
1.054100 0.406900
1.072100 0.572100
1.090100 0.821600
1.108000 1.125800
1.126000 1.444500
1.143900 1.704400
1.161900 1.837400
1.179900 1.836500
1.197800 1.754100
1.215800 1.647700
1.233800 1.542400
1.251700 1.442200
1.269700 1.366000
1.287700 1.361000
1.305600 1.468600
1.323600 1.670900
1.341600 1.878600
1.359500 1.987500
1.377500 1.953300
1.395500 1.808000
1.413400 1.610000
1.431400 1.404200
1.449300 1.233100
1.467300 1.145000
1.485300 1.162000
1.503200 1.257200
1.521200 1.368500
1.539200 1.437600
1.557100 1.458400
1.575100 1.488400
1.593100 1.588100
1.611000 1.756400
1.629000 1.952500
1.647000 2.170000
1.664900 2.446200
1.682900 2.780800
1.700900 3.074600
1.718800 3.187400
1.736800 3.061500
1.754800 2.773900
1.772700 2.463900
1.790700 2.233000
1.808600 2.121300
1.826600 2.135600
1.844600 2.249500
1.862500 2.381100
1.880500 2.415500
1.898500 2.279100
1.916400 1.998900
1.934400 1.691500
1.952400 1.471300
1.970300 1.354700
1.988300 1.272300
2.006300 1.189900
2.024200 1.192500
2.042200 1.410500
2.060200 1.857700
2.078100 2.367700
2.096100 2.714600
2.114000 2.796200
2.132000 2.690900
2.150000 2.562900
2.167900 2.537800
2.185900 2.623700
2.203900 2.699600
2.221800 2.610100
2.239800 2.297400
2.257800 1.833000
2.275700 1.353300
2.293700 0.991800
2.311700 0.825700
2.329600 0.833900
2.347600 0.909500
2.365600 0.940600
2.383500 0.890100
2.401500 0.800600
2.419400 0.740900
2.437400 0.768100
2.455400 0.914500
2.473300 1.151900
2.491300 1.367600
2.509300 1.445400
2.527200 1.394400
2.545200 1.348900
2.563200 1.419200
2.581100 1.573600
2.599100 1.671600
2.617100 1.594100
2.635000 1.348100
2.653000 1.065100
2.671000 0.894200
2.688900 0.882500
2.706900 0.947500
2.724800 0.965400
2.742800 0.889600
2.760800 0.788900
2.778700 0.781200
2.796700 0.948500
2.814700 1.299900
2.832600 1.762400
2.850600 2.181400
2.868600 2.384300
2.886500 2.303100
2.904500 2.025600
2.922500 1.711300
2.940400 1.487600
2.958400 1.428400
2.976400 1.554900
2.994300 1.800000
3.012300 2.005800
3.030300 2.029900
3.048200 1.868200
3.066200 1.642500
3.084100 1.483700
3.102100 1.456700
3.120100 1.568200
3.138000 1.781700
3.156000 2.009200
3.174000 2.132500
3.191900 2.082500
3.209900 1.917500
3.227900 1.800700
3.245800 1.858800
3.263800 2.050600
3.281800 2.201600
3.299700 2.173600
3.317700 1.978500
3.335700 1.733500
3.353600 1.542300
3.371600 1.421900
3.389500 1.320100
3.407500 1.188600
3.425500 1.038800
3.443400 0.936700
3.461400 0.958200
3.479400 1.141100
3.497300 1.443800
3.515300 1.738000
3.533300 1.877500
3.551200 1.808600
3.569200 1.608100
3.587200 1.404900
3.605100 1.288700
3.623100 1.301200
3.641100 1.468600
3.659000 1.796700
3.677000 2.240700
3.694900 2.701700
3.712900 3.068100
3.730900 3.273600
3.748800 3.319500
3.766800 3.241200
3.784800 3.074600
3.802700 2.871700
3.820700 2.701800
3.838700 2.591100
3.856600 2.480300
3.874600 2.282000
3.892600 1.990900
3.910500 1.729800
3.928500 1.661300
3.946500 1.841100
3.964400 2.170900
3.982400 2.496300
4.000400 2.710000
4.018300 2.759300
4.036300 2.618900
4.054200 2.317100
4.072200 1.967200
4.090200 1.721900
4.108100 1.682400
4.126100 1.858300
4.144100 2.198300
4.162000 2.629500
4.180000 3.075500
4.198000 3.469400
4.215900 3.760700
4.233900 3.913800
4.251900 3.919800
4.269800 3.807800
4.287800 3.610700
4.305800 3.337900
4.323700 3.013700
4.341700 2.709800
4.359600 2.493900
4.377600 2.366900
4.395600 2.275500
4.413500 2.156000
4.431500 1.961900
4.449500 1.698700
4.467400 1.451500
4.485400 1.339500
4.503400 1.410500
4.521300 1.583900
4.539300 1.714300
4.557300 1.721800
4.575200 1.646600
4.593200 1.566200
4.611200 1.489500
4.629100 1.362900
4.647100 1.160100
4.665000 0.923700
4.683000 0.714400
4.701000 0.561300
4.718900 0.481500
4.736900 0.508900
4.754900 0.668300
4.772800 0.923800
4.790800 1.171400
4.808800 1.295900
4.826700 1.258700
4.844700 1.138600
4.862700 1.066400
4.880600 1.105000
4.898600 1.202600
4.916600 1.274500
4.934500 1.300800
4.952500 1.311800
4.970400 1.295500
4.988400 1.187300
5.006400 0.973900
5.024300 0.750800
5.042300 0.629700
5.060300 0.615300
5.078200 0.613000
5.096200 0.548300
5.114200 0.449300
5.132100 0.409200
5.150100 0.494400
5.168100 0.694700
5.186000 0.939500
5.204000 1.148400
5.222000 1.287400
5.239900 1.389800
5.257900 1.511100
5.275900 1.660500
5.293800 1.783300
5.311800 1.801500
5.329700 1.666700
5.347700 1.391700
5.365700 1.046200
5.383600 0.717500
5.401600 0.469000
5.419600 0.327000
5.437500 0.297300
5.455500 0.388400
5.473500 0.617500
5.491400 0.987800
5.509400 1.457400
5.527400 1.939600
5.545300 2.344400
5.563300 2.611900
5.581300 2.698500
5.599200 2.563400
5.617200 2.216100
5.635100 1.770500
5.653100 1.406400
5.671100 1.256800
5.689000 1.319000
5.707000 1.456200
5.725000 1.502800
5.742900 1.404300
5.760900 1.264100
5.778900 1.253400
5.796800 1.474000
5.814800 1.873000
5.832800 2.264400
5.850700 2.468800
5.868700 2.466900
5.886700 2.388100
5.904600 2.343000
5.922600 2.326200
5.940500 2.290500
5.958500 2.241900
5.976500 2.231400
5.994400 2.304300
6.012400 2.469400
6.030400 2.660000
6.048300 2.734200
6.066300 2.590700
6.084300 2.296200
6.102200 2.038800
6.120200 1.941300
6.138200 1.955300
6.156100 1.954900
6.174100 1.902900
6.192100 1.876600
6.210000 1.936800
6.228000 2.029800
6.246000 2.045800
6.263900 1.935600
6.281900 1.752900
6.299800 1.603100
6.317800 1.560300
6.335800 1.615400
6.353700 1.701900
6.371700 1.783500
6.389700 1.894000
6.407600 2.067000
6.425600 2.255800
6.443600 2.366600
6.461500 2.359100
6.479500 2.285500
6.497500 2.244900
6.515400 2.310300
6.533400 2.470600
6.551400 2.621500
6.569300 2.621400
6.587300 2.388500
6.605200 1.971100
6.623200 1.529300
6.641200 1.230300
6.659100 1.144400
6.677100 1.231500
6.695100 1.409100
6.713000 1.602900
6.731000 1.736500
6.749000 1.734900
6.766900 1.602400
6.784900 1.477500
6.802900 1.545900
6.820800 1.883700
6.838800 2.398500
6.856800 2.900900
6.874700 3.220200
6.892700 3.286600
6.910600 3.140200
6.928600 2.873700
6.946600 2.576400
6.964500 2.324000
6.982500 2.170200
7.000500 2.123600
7.018400 2.157900
7.036400 2.259300
7.054400 2.432000
7.072300 2.641700
7.090300 2.796300
7.108300 2.830300
7.126200 2.795900
7.144200 2.832200
7.162200 3.039600
7.180100 3.397100
7.198100 3.785400
7.216000 4.062500
7.234000 4.125400
7.252000 3.944800
7.269900 3.566800
7.287900 3.083700
7.305900 2.610500
7.323800 2.269000
7.341800 2.131300
7.359800 2.157600
7.377700 2.235400
7.395700 2.291000
7.413700 2.347700
7.431600 2.479300
7.449600 2.711600
7.467600 2.962000
7.485500 3.098200
7.503500 3.078400
7.521500 3.004300
7.539400 3.003000
7.557400 3.066100
7.575300 3.034800
7.593300 2.764500
7.611300 2.304000
7.629200 1.901600
7.647200 1.813200
7.665200 2.091100
7.683100 2.557700
7.701100 2.973100
7.719100 3.210900
7.737000 3.283600
7.755000 3.246000
7.773000 3.125100
7.790900 2.940200
7.808900 2.727300
7.826900 2.518800
7.844800 2.342900
7.862800 2.250600
7.880700 2.269200
7.898700 2.318400
7.916700 2.253000
7.934600 2.023000
7.952600 1.740000
7.970600 1.573900
7.988500 1.618100
8.006500 1.837200
8.024500 2.102600
8.042400 2.291100
8.060400 2.387400
8.078400 2.475100
8.096300 2.610200
8.114300 2.736100
8.132300 2.744200
8.150200 2.581200
8.168200 2.287700
8.186100 1.974900
8.204100 1.757400
8.222100 1.668200
8.240000 1.647600
8.258000 1.630200
8.276000 1.611600
8.293900 1.620900
8.311900 1.669100
8.329900 1.749200
8.347800 1.860900
8.365800 2.012800
8.383800 2.197800
8.401700 2.378800
8.419700 2.502900
8.437700 2.536500
8.455600 2.494200
8.473600 2.436600
8.491600 2.441800
8.509500 2.556900
8.527500 2.747100
8.545400 2.891400
8.563400 2.856300
8.581400 2.601200
8.599300 2.223800
8.617300 1.884300
8.635300 1.682500
8.653200 1.630400
8.671200 1.716300
8.689200 1.911600
8.707100 2.110700
8.725100 2.167600
8.743100 2.041500
8.761000 1.850400
8.779000 1.746500
8.797000 1.774500
8.814900 1.865500
8.832900 1.942100
8.850800 2.006200
8.868800 2.115400
8.886800 2.280100
8.904700 2.418700
8.922700 2.439400
8.940700 2.347000
8.958600 2.236600
8.976600 2.184800
8.994600 2.163600
9.012500 2.075800
9.030500 1.879400
