set title 'mp-1184268 - Density of States'
set xlabel 'Energy (eV)'
set ylabel 'DOS (states/eV)'
set grid
set xrange [-10:10]
set yrange [0:51.681]
set xzeroaxis lt -1
set terminal png size 800,600
set output 'mp-1184268_dos_gnuplot.png'
plot '-' using 1:2 with lines title 'DOS'
-13.832000 0.000000
-13.810600 0.000000
-13.789100 0.000000
-13.767600 0.000000
-13.746200 0.000000
-13.724700 0.000000
-13.703200 0.000000
-13.681800 0.000000
-13.660300 0.000000
-13.638800 0.000000
-13.617400 0.000000
-13.595900 0.000000
-13.574400 0.000000
-13.553000 0.000000
-13.531500 0.000000
-13.510000 0.000000
-13.488600 0.000000
-13.467100 0.000000
-13.445600 0.000000
-13.424200 0.000000
-13.402700 0.000000
-13.381200 0.000000
-13.359800 0.000000
-13.338300 0.000000
-13.316800 0.000000
-13.295400 0.000000
-13.273900 0.000000
-13.252400 0.000000
-13.231000 0.000000
-13.209500 0.000000
-13.188000 0.000000
-13.166600 0.000000
-13.145100 0.000000
-13.123600 0.000000
-13.102200 0.000000
-13.080700 0.000000
-13.059200 0.000000
-13.037800 0.000000
-13.016300 0.000000
-12.994800 0.000000
-12.973400 0.000000
-12.951900 0.000000
-12.930400 0.000000
-12.909000 0.000000
-12.887500 0.000000
-12.866100 0.000000
-12.844600 0.000000
-12.823100 0.000000
-12.801700 0.000000
-12.780200 0.000000
-12.758700 0.000000
-12.737300 0.000000
-12.715800 0.000000
-12.694300 0.000000
-12.672900 0.000000
-12.651400 0.000000
-12.629900 0.000000
-12.608500 0.000000
-12.587000 0.000000
-12.565500 0.000000
-12.544100 0.000000
-12.522600 0.000000
-12.501100 0.000000
-12.479700 0.000000
-12.458200 0.000000
-12.436700 0.000000
-12.415300 0.000000
-12.393800 0.000000
-12.372300 0.000000
-12.350900 0.000000
-12.329400 0.000000
-12.307900 0.000000
-12.286500 0.000000
-12.265000 0.000000
-12.243500 0.000000
-12.222100 0.000000
-12.200600 0.000000
-12.179100 0.000000
-12.157700 0.000000
-12.136200 0.000000
-12.114700 0.000000
-12.093300 0.000000
-12.071800 0.000000
-12.050300 0.000000
-12.028900 0.000000
-12.007400 0.000000
-11.985900 0.000000
-11.964500 0.000000
-11.943000 0.000000
-11.921500 0.000000
-11.900100 0.000000
-11.878600 0.729500
-11.857100 12.897900
-11.835700 49.824300
-11.814200 112.659300
-11.792700 112.125200
-11.771300 139.727200
-11.749800 181.779500
-11.728300 182.247800
-11.706900 109.388500
-11.685400 135.586600
-11.663900 134.345100
-11.642500 119.165000
-11.621000 44.649800
-11.599500 15.124800
-11.578100 10.328400
-11.556600 5.613500
-11.535100 0.000000
-11.513700 0.000000
-11.492200 0.000000
-11.470700 0.000000
-11.449300 0.000000
-11.427800 0.000000
-11.406400 0.000000
-11.384900 0.000000
-11.363400 0.000000
-11.342000 0.000000
-11.320500 0.000000
-11.299000 0.000000
-11.277600 0.000000
-11.256100 0.000000
-11.234600 0.000000
-11.213200 0.000000
-11.191700 0.000000
-11.170200 0.000000
-11.148800 0.000000
-11.127300 0.000000
-11.105800 0.000000
-11.084400 0.000000
-11.062900 0.000000
-11.041400 0.000000
-11.020000 0.000000
-10.998500 0.000000
-10.977000 0.000000
-10.955600 0.000000
-10.934100 0.000000
-10.912600 0.000000
-10.891200 0.000000
-10.869700 0.000000
-10.848200 0.000000
-10.826800 0.000000
-10.805300 0.000000
-10.783800 0.000000
-10.762400 0.000000
-10.740900 0.000000
-10.719400 0.000000
-10.698000 0.000000
-10.676500 0.000000
-10.655000 0.000000
-10.633600 0.000000
-10.612100 0.000000
-10.590600 0.000000
-10.569200 0.000000
-10.547700 0.000000
-10.526200 0.000000
-10.504800 0.000000
-10.483300 0.000000
-10.461800 0.000000
-10.440400 0.000000
-10.418900 0.000000
-10.397400 0.000000
-10.376000 0.000000
-10.354500 0.000000
-10.333000 0.000000
-10.311600 0.000000
-10.290100 0.000000
-10.268600 0.000000
-10.247200 0.000000
-10.225700 0.000000
-10.204200 0.000000
-10.182800 0.000000
-10.161300 0.000000
-10.139800 0.000000
-10.118400 0.000000
-10.096900 0.000000
-10.075400 0.000000
-10.054000 0.000000
-10.032500 0.000000
-10.011000 0.000000
-9.989600 0.000000
-9.968100 0.000000
-9.946700 0.000000
-9.925200 0.000000
-9.903700 0.000000
-9.882300 0.000000
-9.860800 0.000000
-9.839300 0.000000
-9.817900 0.000000
-9.796400 0.000000
-9.774900 0.000000
-9.753500 0.000000
-9.732000 0.000000
-9.710500 0.000000
-9.689100 0.000000
-9.667600 0.000000
-9.646100 0.000000
-9.624700 0.000000
-9.603200 0.000000
-9.581700 0.000000
-9.560300 0.000000
-9.538800 0.000000
-9.517300 0.000000
-9.495900 0.000000
-9.474400 0.000000
-9.452900 0.000000
-9.431500 0.000000
-9.410000 0.000000
-9.388500 0.000000
-9.367100 0.000000
-9.345600 0.000000
-9.324100 0.000000
-9.302700 0.000000
-9.281200 0.000000
-9.259700 0.000000
-9.238300 0.000000
-9.216800 0.000000
-9.195300 0.000000
-9.173900 0.000000
-9.152400 0.000000
-9.130900 0.000000
-9.109500 0.000000
-9.088000 0.000000
-9.066500 0.000000
-9.045100 0.000000
-9.023600 0.000000
-9.002100 0.000000
-8.980700 0.000000
-8.959200 0.000000
-8.937700 0.000000
-8.916300 0.000000
-8.894800 0.000000
-8.873300 0.000000
-8.851900 0.000000
-8.830400 0.000000
-8.808900 0.000000
-8.787500 0.000000
-8.766000 0.000000
-8.744500 0.000000
-8.723100 0.000000
-8.701600 0.000000
-8.680100 0.000000
-8.658700 0.000000
-8.637200 0.000000
-8.615700 0.000000
-8.594300 0.000000
-8.572800 0.000000
-8.551300 0.000000
-8.529900 0.000000
-8.508400 0.000000
-8.487000 0.000000
-8.465500 0.000000
-8.444000 0.000000
-8.422600 0.000000
-8.401100 0.000000
-8.379600 0.000000
-8.358200 0.000000
-8.336700 0.000000
-8.315200 0.000000
-8.293800 0.000000
-8.272300 0.000000
-8.250800 0.000000
-8.229400 0.000000
-8.207900 0.000000
-8.186400 0.000000
-8.165000 0.000000
-8.143500 0.000000
-8.122000 0.000000
-8.100600 0.000000
-8.079100 0.000000
-8.057600 0.000000
-8.036200 0.000000
-8.014700 0.000000
-7.993200 0.000000
-7.971800 0.000000
-7.950300 0.000000
-7.928800 0.000000
-7.907400 0.000000
-7.885900 0.000000
-7.864400 0.000000
-7.843000 0.000000
-7.821500 0.000000
-7.800000 0.000000
-7.778600 0.000000
-7.757100 0.000000
-7.735600 0.000000
-7.714200 0.000000
-7.692700 0.000000
-7.671200 0.000000
-7.649800 0.000000
-7.628300 0.000000
-7.606800 0.000000
-7.585400 0.000000
-7.563900 0.000000
-7.542400 0.000000
-7.521000 0.000000
-7.499500 0.000000
-7.478000 0.000000
-7.456600 0.000000
-7.435100 0.000000
-7.413600 0.000000
-7.392200 0.000000
-7.370700 0.000000
-7.349200 0.000000
-7.327800 0.000000
-7.306300 0.000000
-7.284800 0.000000
-7.263400 0.000000
-7.241900 0.000000
-7.220400 0.000000
-7.199000 0.000000
-7.177500 0.000000
-7.156000 0.007600
-7.134600 0.034900
-7.113100 0.081800
-7.091600 0.124200
-7.070200 0.155200
-7.048700 0.165700
-7.027300 0.178100
-7.005800 0.192500
-6.984300 0.209100
-6.962900 0.218300
-6.941400 0.232900
-6.919900 0.249500
-6.898500 0.266600
-6.877000 0.283900
-6.855500 0.297100
-6.834100 0.305200
-6.812600 0.309700
-6.791100 0.319400
-6.769700 0.329700
-6.748200 0.338700
-6.726700 0.346500
-6.705300 0.354600
-6.683800 0.362600
-6.662300 0.370600
-6.640900 0.379900
-6.619400 0.389500
-6.597900 0.399400
-6.576500 0.409600
-6.555000 0.420600
-6.533500 0.432100
-6.512100 0.444000
-6.490600 0.452300
-6.469100 0.459600
-6.447700 0.465600
-6.426200 0.471100
-6.404700 0.476500
-6.383300 0.482800
-6.361800 0.489900
-6.340300 0.497300
-6.318900 0.504700
-6.297400 0.512000
-6.275900 0.519300
-6.254500 0.526500
-6.233000 0.535000
-6.211500 0.543300
-6.190100 0.551800
-6.168600 0.560800
-6.147100 0.570100
-6.125700 0.579600
-6.104200 0.589200
-6.082700 0.597700
-6.061300 0.607000
-6.039800 0.616400
-6.018300 0.625600
-5.996900 0.633600
-5.975400 0.640500
-5.953900 0.647200
-5.932500 0.654900
-5.911000 0.662800
-5.889500 0.671200
-5.868100 0.680100
-5.846600 0.689400
-5.825100 0.699100
-5.803700 0.709300
-5.782200 0.719700
-5.760700 0.730400
-5.739300 0.741300
-5.717800 0.753100
-5.696300 0.767900
-5.674900 0.782600
-5.653400 0.797700
-5.631900 0.812700
-5.610500 0.827600
-5.589000 0.844400
-5.567600 0.865700
-5.546100 0.884900
-5.524600 0.902100
-5.503200 0.917300
-5.481700 0.930500
-5.460200 0.941900
-5.438800 0.948500
-5.417300 0.956600
-5.395800 0.968800
-5.374400 0.984500
-5.352900 1.003800
-5.331400 1.027700
-5.310000 1.056200
-5.288500 1.087700
-5.267000 1.122000
-5.245600 1.192000
-5.224100 1.252800
-5.202600 1.301500
-5.181200 1.391200
-5.159700 1.454900
-5.138200 1.517900
-5.116800 1.595500
-5.095300 1.676900
-5.073800 1.751400
-5.052400 1.810200
-5.030900 1.830700
-5.009400 1.910400
-4.988000 2.015100
-4.966500 2.124400
-4.945000 2.506000
-4.923600 3.279500
-4.902100 4.232600
-4.880600 3.911000
-4.859200 2.940500
-4.837700 2.319100
-4.816200 2.125900
-4.794800 1.599600
-4.773300 1.065600
-4.751800 0.667200
-4.730400 0.520600
-4.708900 0.607900
-4.687400 1.380300
-4.666000 2.533500
-4.644500 3.766400
-4.623000 5.148600
-4.601600 5.550200
-4.580100 5.963500
-4.558600 6.150500
-4.537200 5.770000
-4.515700 6.323800
-4.494200 6.196300
-4.472800 5.810000
-4.451300 5.520700
-4.429800 5.009600
-4.408400 3.665800
-4.386900 3.284100
-4.365400 3.086000
-4.344000 3.892300
-4.322500 6.063100
-4.301000 8.672600
-4.279600 10.035000
-4.258100 15.210300
-4.236600 18.048000
-4.215200 30.299800
-4.193700 8.285400
-4.172200 8.550100
-4.150800 20.298400
-4.129300 16.898400
-4.107900 16.781800
-4.086400 17.486400
-4.064900 23.004900
-4.043500 30.377000
-4.022000 46.982800
-4.000500 27.988600
-3.979100 16.504800
-3.957600 8.465700
-3.936100 6.818100
-3.914700 5.845800
-3.893200 5.101300
-3.871700 4.563600
-3.850300 4.032500
-3.828800 2.676800
-3.807300 2.323800
-3.785900 2.252600
-3.764400 2.234400
-3.742900 2.098600
-3.721500 1.949200
-3.700000 1.813300
-3.678500 1.642100
-3.657100 1.507100
-3.635600 1.427400
-3.614100 1.358200
-3.592700 1.295300
-3.571200 1.240100
-3.549700 1.209800
-3.528300 1.189500
-3.506800 1.082200
-3.485300 0.995400
-3.463900 0.959700
-3.442400 0.932100
-3.420900 0.910500
-3.399500 0.890700
-3.378000 0.871600
-3.356500 0.889400
-3.335100 1.011700
-3.313600 1.130300
-3.292100 1.277600
-3.270700 1.339000
-3.249200 1.366400
-3.227700 1.414800
-3.206300 1.456100
-3.184800 1.486900
-3.163300 1.492300
-3.141900 1.471500
-3.120400 1.454300
-3.098900 1.429100
-3.077500 1.393900
-3.056000 1.398900
-3.034500 1.404300
-3.013100 1.422100
-2.991600 1.442800
-2.970100 1.476100
-2.948700 1.489600
-2.927200 1.466200
-2.905700 1.442900
-2.884300 1.420000
-2.862800 1.396000
-2.841300 1.367300
-2.819900 1.337700
-2.798400 1.300800
-2.776900 1.259200
-2.755500 1.245500
-2.734000 1.233700
-2.712500 1.224100
-2.691100 1.216100
-2.669600 1.207800
-2.648200 1.199500
-2.626700 1.183700
-2.605200 1.182000
-2.583800 1.179200
-2.562300 1.176900
-2.540800 1.177700
-2.519400 1.166800
-2.497900 1.183300
-2.476400 1.201800
-2.455000 1.220700
-2.433500 1.246800
-2.412000 1.262700
-2.390600 1.252700
-2.369100 1.235700
-2.347600 1.217800
-2.326200 1.202600
-2.304700 1.190800
-2.283200 1.180800
-2.261800 1.176600
-2.240300 1.177300
-2.218800 1.191200
-2.197400 1.190700
-2.175900 1.190400
-2.154400 1.190100
-2.133000 1.190300
-2.111500 1.191200
-2.090000 1.191100
-2.068600 1.190300
-2.047100 1.189800
-2.025600 1.188000
-2.004200 1.186700
-1.982700 1.184800
-1.961200 1.182700
-1.939800 1.182300
-1.918300 1.182700
-1.896800 1.194200
-1.875400 1.219300
-1.853900 1.224400
-1.832400 1.225200
-1.811000 1.216100
-1.789500 1.207300
-1.768000 1.198700
-1.746600 1.193200
-1.725100 1.193200
-1.703600 1.196700
-1.682200 1.202500
-1.660700 1.211300
-1.639200 1.221700
-1.617800 1.239500
-1.596300 1.265400
-1.574800 1.326400
-1.553400 1.368100
-1.531900 1.400300
-1.510400 1.415100
-1.489000 1.426000
-1.467500 1.435600
-1.446000 1.444100
-1.424600 1.455200
-1.403100 1.420100
-1.381600 1.421000
-1.360200 1.426100
-1.338700 1.431200
-1.317200 1.445800
-1.295800 1.461400
-1.274300 1.477400
-1.252800 1.495200
-1.231400 1.518300
-1.209900 1.539600
-1.188500 1.557100
-1.167000 1.575100
-1.145500 1.592000
-1.124100 1.605600
-1.102600 1.616700
-1.081100 1.636200
-1.059700 1.630500
-1.038200 1.629300
-1.016700 1.633200
-0.995300 1.646400
-0.973800 1.657400
-0.952300 1.658500
-0.930900 1.680700
-0.909400 1.743900
-0.887900 1.722500
-0.866500 1.717600
-0.845000 1.723400
-0.823500 1.734400
-0.802100 1.693800
-0.780600 1.687700
-0.759100 1.682500
-0.737700 1.683500
-0.716200 1.681400
-0.694700 1.678100
-0.673300 1.679800
-0.651800 1.694500
-0.630300 1.635800
-0.608900 1.558700
-0.587400 1.486200
-0.565900 1.429800
-0.544500 1.387700
-0.523000 1.397200
-0.501500 1.340600
-0.480100 1.291700
-0.458600 1.250500
-0.437100 1.213800
-0.415700 1.179600
-0.394200 1.149800
-0.372700 1.125200
-0.351300 1.087200
-0.329800 1.050700
-0.308300 1.034800
-0.286900 1.030300
-0.265400 1.023000
-0.243900 1.016500
-0.222500 1.010800
-0.201000 1.007200
-0.179500 1.004600
-0.158100 1.002900
-0.136600 1.005100
-0.115100 1.026200
-0.093700 1.042900
-0.072200 1.156500
-0.050700 1.073800
-0.029300 1.095400
-0.007800 1.119300
0.013700 1.145400
0.035100 1.231500
0.056600 1.336300
0.078100 1.395200
0.099500 1.451300
0.121000 1.479400
0.142500 1.525200
0.163900 1.560900
0.185400 1.549400
0.206900 1.550700
0.228300 1.547100
0.249800 1.575100
0.271200 1.570100
0.292700 1.571800
0.314200 1.572300
0.335600 1.453000
0.357100 1.439100
0.378600 1.432100
0.400000 1.431200
0.421500 1.434000
0.443000 1.438400
0.464400 1.441000
0.485900 1.441300
0.507400 1.449200
0.528800 1.463600
0.550300 1.483600
0.571800 1.495000
0.593200 1.489800
0.614700 1.482500
0.636200 1.499100
0.657600 1.511900
0.679100 1.522400
0.700600 1.566800
0.722000 1.572000
0.743500 1.574900
0.765000 1.581500
0.786400 1.595600
0.807900 1.624500
0.829400 1.593000
0.850800 1.555000
0.872300 1.516600
0.893800 1.493900
0.915200 1.480600
0.936700 1.504200
0.958200 1.484200
0.979600 1.484500
1.001100 1.498800
1.022600 1.433400
1.044000 1.390400
1.065500 1.350100
1.087000 1.311600
1.108400 1.271400
1.129900 1.235500
1.151400 1.226500
1.172800 1.213400
1.194300 1.188000
1.215800 1.168900
1.237200 1.147900
1.258700 1.146200
1.280200 1.147300
1.301600 1.151200
1.323100 1.157200
1.344600 1.148400
1.366000 1.146000
1.387500 1.150300
1.409000 1.159000
1.430400 1.171000
1.451900 1.186100
1.473400 1.204500
1.494800 1.227200
1.516300 1.250700
1.537800 1.320900
1.559200 1.274600
1.580700 1.254400
1.602200 1.263800
1.623600 1.267800
1.645100 1.265700
1.666600 1.255700
1.688000 1.244600
1.709500 1.233200
1.730900 1.220000
1.752400 1.215500
1.773900 1.210900
1.795300 1.207000
1.816800 1.205500
1.838300 1.204200
1.859700 1.201200
1.881200 1.198800
1.902700 1.197900
1.924100 1.201200
1.945600 1.201600
1.967100 1.219500
1.988500 1.239000
2.010000 1.229300
2.031500 1.217700
2.052900 1.234300
2.074400 1.246700
2.095900 1.256200
2.117300 1.267700
2.138800 1.278400
2.160300 1.296800
2.181700 1.312000
2.203200 1.332000
2.224700 1.347800
2.246100 1.387700
2.267600 1.432700
2.289100 1.484900
2.310500 1.544300
2.332000 1.610800
2.353500 1.606600
2.374900 1.638400
2.396400 1.665200
2.417900 1.666000
2.439300 1.668500
2.460800 1.680500
2.482300 1.705700
2.503700 1.732900
2.525200 1.769100
2.546700 1.798700
2.568100 1.833300
2.589600 1.855300
2.611100 1.874000
2.632500 1.886600
2.654000 1.895700
2.675500 1.901600
2.696900 1.904400
2.718400 1.905100
2.739900 1.903800
2.761300 1.901200
2.782800 1.897000
2.804300 1.891800
2.825700 1.888900
2.847200 1.886900
2.868700 1.889300
2.890100 1.890600
2.911600 1.895500
2.933100 1.896000
2.954500 1.892300
2.976000 1.924000
2.997500 1.915500
3.018900 1.912000
3.040400 1.901700
3.061900 1.898000
3.083300 1.893900
3.104800 1.886600
3.126300 1.875700
3.147700 1.856800
3.169200 1.894800
3.190600 1.840900
3.212100 1.965400
3.233600 1.824000
3.255000 1.802200
3.276500 1.776500
3.298000 1.750500
3.319400 1.724300
3.340900 1.707100
3.362400 1.668300
3.383800 1.642200
3.405300 1.635900
3.426800 1.675300
3.448200 1.742100
3.469700 1.671300
3.491200 1.667500
3.512600 1.656500
3.534100 1.644700
3.555600 1.659500
3.577000 1.680700
3.598500 1.667800
3.620000 1.682400
3.641400 1.623000
3.662900 1.621100
3.684400 1.620600
3.705800 1.619500
3.727300 1.617600
3.748800 1.614900
3.770200 1.615700
3.791700 1.628300
3.813200 1.648800
3.834600 1.678900
3.856100 1.695200
3.877600 1.703900
3.899000 1.715500
3.920500 1.735200
3.942000 1.739100
3.963400 1.711900
3.984900 1.713500
4.006400 1.730500
4.027800 1.750600
4.049300 1.671600
4.070800 1.661300
4.092200 1.652100
4.113700 1.643100
4.135200 1.633400
4.156600 1.620500
4.178100 1.595700
4.199600 1.599800
4.221000 1.604300
4.242500 1.608200
4.264000 1.610900
4.285400 1.613300
4.306900 1.612400
4.328400 1.606600
4.349800 1.599300
4.371300 1.604700
4.392800 1.605000
4.414200 1.609000
4.435700 1.621700
4.457200 1.634900
4.478600 1.657500
4.500100 1.687500
4.521600 1.704900
4.543000 1.712800
4.564500 1.720100
4.586000 1.728300
4.607400 1.739000
4.628900 1.750700
4.650300 1.765500
4.671800 1.783700
4.693300 1.800000
4.714700 1.813500
4.736200 1.827900
4.757700 1.836700
4.779100 1.841600
4.800600 1.850800
4.822100 1.863100
4.843500 1.879500
4.865000 1.901500
4.886500 1.925700
4.907900 1.937200
4.929400 1.943300
4.950900 2.275500
4.972300 2.073400
4.993800 2.088400
5.015300 2.098800
5.036700 2.091500
5.058200 2.074000
5.079700 2.058000
5.101100 2.036600
5.122600 2.014400
5.144100 1.991000
5.165500 1.963800
5.187000 1.931700
5.208500 1.893400
5.229900 1.847500
5.251400 1.804100
5.272900 1.776300
5.294300 1.742100
5.315800 1.700200
5.337300 1.650100
5.358700 1.597300
5.380200 1.538900
5.401700 1.485000
5.423100 1.443500
5.444600 1.406800
5.466100 1.374700
5.487500 1.346300
5.509000 1.329600
5.530500 1.328100
5.551900 1.344300
5.573400 1.341100
5.594900 1.341300
5.616300 1.356300
5.637800 1.377300
5.659300 1.402400
5.680700 1.433300
5.702200 1.472500
5.723700 1.505600
5.745100 1.536800
5.766600 1.581000
5.788100 1.635200
5.809500 1.679400
5.831000 1.721000
5.852500 1.760700
5.873900 1.792500
5.895400 1.820100
5.916900 1.834600
5.938300 1.866300
5.959800 1.894000
5.981300 1.935000
6.002700 1.974300
6.024200 2.012800
6.045700 2.067900
6.067100 2.110700
6.088600 2.129300
6.110000 2.170000
6.131500 2.125500
6.153000 2.055700
6.174400 2.026500
6.195900 2.016800
6.217400 2.011600
6.238800 1.997000
6.260300 1.976200
6.281800 1.945000
6.303200 1.932100
6.324700 1.928000
6.346200 1.941100
6.367600 1.991700
6.389100 2.032200
6.410600 2.064900
6.432000 2.090400
6.453500 2.109800
6.475000 2.127000
6.496400 2.141100
6.517900 2.162400
6.539400 2.183500
6.560800 2.202200
6.582300 2.218200
6.603800 2.243600
6.625200 2.295100
6.646700 2.243600
6.668200 2.207300
6.689600 2.164700
6.711100 2.129800
6.732600 2.103300
6.754000 2.077800
6.775500 2.068600
6.797000 2.045300
6.818400 2.013700
6.839900 1.975900
6.861400 1.952600
6.882800 1.931900
6.904300 1.920400
6.925800 1.929600
6.947200 1.941200
6.968700 1.956100
6.990200 1.979600
7.011600 2.023700
7.033100 2.059400
7.054600 2.091900
7.076000 2.121300
7.097500 2.144400
7.119000 2.161700
7.140400 2.166300
7.161900 2.173600
7.183400 2.231700
7.204800 2.316600
7.226300 2.333000
7.247800 2.356900
7.269200 2.388200
7.290700 2.439400
7.312200 2.514900
7.333600 2.534200
7.355100 2.554400
7.376600 2.583700
7.398000 2.619700
7.419500 2.657800
7.441000 2.699500
7.462400 2.949700
7.483900 2.874800
7.505400 2.711300
7.526800 2.659100
7.548300 2.641500
7.569700 2.625300
7.591200 2.595400
7.612700 2.530200
7.634100 2.413800
7.655600 2.196000
7.677100 2.022200
7.698500 1.905500
7.720000 1.849800
7.741500 1.840800
7.762900 1.854800
7.784400 1.888800
7.805900 2.002500
7.827300 2.047400
7.848800 2.055600
7.870300 2.073400
7.891700 2.098600
7.913200 2.130600
7.934700 2.165700
7.956100 2.197600
7.977600 2.236000
7.999100 2.257300
8.020500 2.267300
8.042000 2.284300
8.063500 2.307300
8.084900 2.392700
8.106400 2.441000
8.127900 2.471800
8.149300 2.469900
8.170800 2.423200
8.192300 2.367000
8.213700 2.355700
8.235200 2.372200
8.256700 2.424400
8.278100 2.448700
8.299600 2.466600
8.321100 2.469500
8.342500 2.462300
8.364000 2.445800
8.385500 2.424600
8.406900 2.467100
8.428400 2.483600
8.449900 2.456500
8.471300 2.430800
8.492800 2.403800
8.514300 2.343900
8.535700 2.193300
8.557200 2.166800
8.578700 2.214400
8.600100 2.200600
8.621600 2.143700
