set title 'mp-1183542 - Density of States'
set xlabel 'Energy (eV)'
set ylabel 'DOS (states/eV)'
set grid
set xrange [-10:10]
set yrange [0:12.471]
set xzeroaxis lt -1
set terminal png size 800,600
set output 'mp-1183542_dos_gnuplot.png'
plot '-' using 1:2 with lines title 'DOS'
-11.598200 0.000000
-11.549300 0.000000
-11.500400 0.000000
-11.451500 0.000000
-11.402500 0.000000
-11.353600 0.000000
-11.304700 0.000000
-11.255800 0.000000
-11.206800 0.000000
-11.157900 0.000000
-11.109000 0.000000
-11.060100 0.000000
-11.011100 0.000000
-10.962200 0.000000
-10.913300 0.000000
-10.864400 0.000000
-10.815400 0.000000
-10.766500 0.000000
-10.717600 0.000000
-10.668700 0.000000
-10.619700 0.000000
-10.570800 0.000000
-10.521900 0.000000
-10.473000 0.000000
-10.424000 0.000000
-10.375100 0.000000
-10.326200 0.000000
-10.277300 0.000000
-10.228300 0.000000
-10.179400 0.000000
-10.130500 0.000000
-10.081600 0.000000
-10.032600 0.000000
-9.983700 0.000000
-9.934800 0.000000
-9.885900 0.000000
-9.836900 0.000000
-9.788000 0.000000
-9.739100 0.000000
-9.690200 0.000000
-9.641200 0.000000
-9.592300 0.000000
-9.543400 0.000000
-9.494500 0.000000
-9.445500 0.000000
-9.396600 0.000000
-9.347700 0.000000
-9.298800 0.000000
-9.249800 0.000000
-9.200900 0.000000
-9.152000 0.000000
-9.103100 0.000000
-9.054100 0.000000
-9.005200 0.000000
-8.956300 0.000000
-8.907400 0.000000
-8.858400 0.000000
-8.809500 0.000000
-8.760600 0.000000
-8.711700 0.000000
-8.662700 0.000000
-8.613800 0.000000
-8.564900 0.000000
-8.516000 0.000000
-8.467000 0.000000
-8.418100 0.000000
-8.369200 0.000000
-8.320300 0.000000
-8.271300 0.000000
-8.222400 0.000000
-8.173500 0.000000
-8.124600 0.000000
-8.075600 0.000000
-8.026700 0.000000
-7.977800 0.000000
-7.928900 0.000000
-7.879900 0.000000
-7.831000 0.000000
-7.782100 0.000000
-7.733200 0.000000
-7.684200 0.000000
-7.635300 0.000000
-7.586400 0.000000
-7.537500 0.000000
-7.488500 0.000000
-7.439600 0.000000
-7.390700 0.000000
-7.341800 0.000000
-7.292800 0.000000
-7.243900 0.000000
-7.195000 0.000000
-7.146100 0.152700
-7.097100 0.894200
-7.048200 1.488900
-6.999300 2.733400
-6.950400 4.736100
-6.901400 7.352000
-6.852500 8.131800
-6.803600 8.901400
-6.754700 8.712100
-6.705700 8.670900
-6.656800 9.324700
-6.607900 11.004800
-6.559000 5.796500
-6.510000 3.068000
-6.461100 4.067400
-6.412200 6.944200
-6.363300 11.337100
-6.314300 8.554200
-6.265400 6.003300
-6.216500 8.468000
-6.167600 10.993600
-6.118600 10.803800
-6.069700 9.231900
-6.020800 8.148800
-5.971900 8.029800
-5.922900 9.947000
-5.874000 6.934400
-5.825100 8.065100
-5.776200 5.657300
-5.727200 1.050700
-5.678300 0.056800
-5.629400 0.064900
-5.580500 0.066100
-5.531500 0.069700
-5.482600 0.074800
-5.433700 0.080200
-5.384800 0.085700
-5.335800 0.090400
-5.286900 0.092600
-5.238000 0.095300
-5.189100 0.097900
-5.140100 0.100600
-5.091200 0.103900
-5.042300 0.107600
-4.993400 0.111500
-4.944400 0.115300
-4.895500 0.118400
-4.846600 0.120700
-4.797700 0.122600
-4.748700 0.124700
-4.699800 0.127000
-4.650900 0.129400
-4.602000 0.131900
-4.553000 0.134600
-4.504100 0.137400
-4.455200 0.140200
-4.406300 0.143200
-4.357300 0.145400
-4.308400 0.147900
-4.259500 0.150300
-4.210600 0.152000
-4.161600 0.153800
-4.112700 0.155800
-4.063800 0.157900
-4.014900 0.159900
-3.965900 0.162100
-3.917000 0.164300
-3.868100 0.166500
-3.819200 0.168900
-3.770200 0.171200
-3.721300 0.173400
-3.672400 0.175200
-3.623500 0.177400
-3.574500 0.179500
-3.525600 0.181600
-3.476700 0.183300
-3.427800 0.185000
-3.378800 0.186700
-3.329900 0.188500
-3.281000 0.190300
-3.232100 0.192300
-3.183100 0.194200
-3.134200 0.196100
-3.085300 0.198100
-3.036400 0.200100
-2.987400 0.202100
-2.938500 0.203800
-2.889600 0.205600
-2.840700 0.207400
-2.791700 0.209300
-2.742800 0.211100
-2.693900 0.213100
-2.645000 0.214900
-2.596000 0.216500
-2.547100 0.218100
-2.498200 0.219700
-2.449300 0.221400
-2.400300 0.223100
-2.351400 0.224800
-2.302500 0.226600
-2.253600 0.228300
-2.204600 0.230100
-2.155700 0.231900
-2.106800 0.233700
-2.057900 0.235200
-2.008900 0.236900
-1.960000 0.238600
-1.911100 0.240300
-1.862200 0.242000
-1.813200 0.243700
-1.764300 0.245500
-1.715400 0.247200
-1.666500 0.249000
-1.617500 0.250500
-1.568600 0.252100
-1.519700 0.253600
-1.470800 0.255200
-1.421800 0.256800
-1.372900 0.258500
-1.324000 0.260100
-1.275100 0.261800
-1.226100 0.263400
-1.177200 0.265100
-1.128300 0.266700
-1.079400 0.268300
-1.030400 0.270000
-0.981500 0.271600
-0.932600 0.273200
-0.883700 0.274900
-0.834700 0.276600
-0.785800 0.278300
-0.736900 0.280000
-0.688000 0.281700
-0.639000 0.283500
-0.590100 0.285300
-0.541200 0.287100
-0.492300 0.288900
-0.443300 0.290900
-0.394400 0.293000
-0.345500 0.295300
-0.296600 0.297700
-0.247600 0.300800
-0.198700 0.304500
-0.149800 0.307800
-0.100900 0.310800
-0.051900 0.314100
-0.003000 0.319500
0.045900 0.327000
0.094800 0.332700
0.143800 0.336900
0.192700 0.333900
0.241600 0.326600
0.290500 0.321700
0.339500 0.318600
0.388400 0.317700
0.437300 0.319500
0.486200 0.322900
0.535200 0.327000
0.584100 0.332200
0.633000 0.317700
0.681900 0.328000
0.730900 0.319000
0.779800 0.323900
0.828700 0.324400
0.877600 0.320300
0.926600 0.321000
0.975500 0.323600
1.024400 0.328100
1.073300 0.320300
1.122300 0.326500
1.171200 0.333100
1.220100 0.347500
1.269000 0.364600
1.318000 0.371300
1.366900 0.377300
1.415800 0.376100
1.464700 0.381400
1.513700 0.358500
1.562600 0.358800
1.611500 0.365800
1.660400 0.372000
1.709400 0.377400
1.758300 0.384000
1.807200 0.387800
1.856100 0.380500
1.905100 0.376500
1.954000 0.372700
2.002900 0.367700
2.051800 0.364000
2.100800 0.364600
2.149700 0.379500
2.198600 0.373300
2.247500 0.363300
2.296500 0.361600
2.345400 0.359900
2.394300 0.357600
2.443200 0.355000
2.492200 0.353000
2.541100 0.363200
2.590000 0.359900
2.638900 0.356700
2.687900 0.352600
2.736800 0.346700
2.785700 0.347500
2.834600 0.346300
2.883600 0.343300
2.932500 0.340100
2.981400 0.339700
3.030300 0.341100
3.079300 0.324700
3.128200 0.315900
3.177100 0.314700
3.226000 0.338500
3.275000 0.307100
3.323900 0.316500
3.372800 0.332200
3.421700 0.345200
3.470700 0.345500
3.519600 0.338500
3.568500 0.333200
3.617400 0.331500
3.666400 0.332400
3.715300 0.339900
3.764200 0.361800
3.813100 0.383000
3.862100 0.388600
3.911000 0.403800
3.959900 0.424000
4.008800 0.443100
4.057800 0.459600
4.106700 0.473000
4.155600 0.476000
4.204500 0.481500
4.253500 0.487900
4.302400 0.483400
4.351300 0.482100
4.400200 0.468200
4.449200 0.461000
4.498100 0.431200
4.547000 0.412800
4.595900 0.398200
4.644900 0.386600
4.693800 0.375900
4.742700 0.365600
4.791600 0.355800
4.840600 0.348000
4.889500 0.345300
4.938400 0.345600
4.987300 0.346400
5.036300 0.347700
5.085200 0.351200
5.134100 0.396800
5.183000 0.423400
5.232000 0.447600
5.280900 0.464400
5.329800 0.473100
5.378700 0.474800
5.427700 0.471400
5.476600 0.467000
5.525500 0.463800
5.574400 0.463100
5.623400 0.465300
5.672300 0.466100
5.721200 0.466500
5.770100 0.466800
5.819100 0.466800
5.868000 0.465400
5.916900 0.462200
5.965800 0.461100
6.014800 0.460100
6.063700 0.460200
6.112600 0.459600
6.161500 0.456700
6.210500 0.454300
6.259400 0.453600
6.308300 0.453800
6.357200 0.454000
6.406200 0.454100
6.455100 0.460500
6.504000 0.473200
6.552900 0.475600
6.601900 0.475300
6.650800 0.477700
6.699700 0.482600
6.748600 0.486600
6.797600 0.487600
6.846500 0.489500
6.895400 0.491900
6.944300 0.493900
6.993300 0.494900
7.042200 0.496600
7.091100 0.497600
7.140000 0.499000
7.189000 0.501500
7.237900 0.505000
7.286800 0.505400
7.335700 0.505800
7.384700 0.506100
7.433600 0.506100
7.482500 0.505900
7.531400 0.506500
7.580400 0.507900
7.629300 0.510200
7.678200 0.512200
7.727100 0.516500
7.776100 0.524200
7.825000 0.537300
7.873900 0.557200
7.922800 0.557400
7.971800 0.565700
8.020700 0.571700
8.069600 0.573100
8.118500 0.576900
8.167500 0.578300
8.216400 0.575300
8.265300 0.574800
8.314200 0.570900
8.363200 0.558400
8.412100 0.558400
8.461000 0.560300
8.509900 0.564500
8.558900 0.570900
8.607800 0.576600
8.656700 0.580100
8.705600 0.581700
8.754600 0.579000
8.803500 0.577000
8.852400 0.574700
8.901300 0.573100
8.950300 0.572500
8.999200 0.572600
9.048100 0.572800
9.097000 0.573600
9.146000 0.574600
9.194900 0.575100
9.243800 0.575700
9.292700 0.575800
9.341700 0.575200
9.390600 0.575400
9.439500 0.576200
9.488400 0.577300
9.537400 0.578500
9.586300 0.579600
9.635200 0.581400
9.684100 0.583600
9.733100 0.585700
9.782000 0.587600
9.830900 0.589100
9.879800 0.590300
9.928800 0.591200
9.977700 0.592100
10.026600 0.593200
10.075500 0.594800
10.124400 0.591000
10.173400 0.588900
10.222300 0.586400
10.271200 0.583600
10.320100 0.581000
10.369100 0.578900
10.418000 0.576500
10.466900 0.573400
10.515800 0.569500
10.564800 0.565400
10.613700 0.561700
10.662600 0.558500
10.711500 0.555500
10.760500 0.552500
10.809400 0.549400
10.858300 0.545800
10.907200 0.541800
10.956200 0.537500
11.005100 0.533100
11.054000 0.528800
11.102900 0.524800
11.151900 0.521200
11.200800 0.518000
11.249700 0.515500
11.298600 0.513200
11.347600 0.510800
11.396500 0.507500
11.445400 0.503900
11.494300 0.500200
11.543300 0.496200
11.592200 0.491900
11.641100 0.487700
11.690000 0.483700
11.739000 0.479800
11.787900 0.476200
11.836800 0.473100
11.885700 0.470400
11.934700 0.467900
11.983600 0.465100
12.032500 0.462100
12.081400 0.459000
12.130400 0.455800
12.179300 0.452100
12.228200 0.448600
12.277100 0.445200
12.326100 0.453900
12.375000 0.466700
12.423900 0.477800
12.472800 0.489000
12.521800 0.500300
12.570700 0.510900
12.619600 0.521100
12.668500 0.531200
12.717500 0.540800
12.766400 0.549900
12.815300 0.558000
12.864200 0.565800
12.913200 0.573600
12.962100 0.580500
13.011000 0.581900
13.059900 0.584000
13.108900 0.586300
13.157800 0.587200
13.206700 0.587600
13.255600 0.587500
13.304600 0.587100
13.353500 0.586100
13.402400 0.586700
13.451300 0.586900
13.500300 0.586900
13.549200 0.588200
13.598100 0.590400
13.647000 0.592300
13.696000 0.594200
13.744900 0.596200
13.793800 0.598300
13.842700 0.600300
13.891700 0.602700
13.940600 0.606000
13.989500 0.609500
14.038400 0.613400
14.087400 0.617900
14.136300 0.630800
14.185200 0.647600
14.234100 0.669800
14.283100 0.714300
14.332000 0.750000
14.380900 0.771500
14.429800 0.775600
14.478800 0.781300
14.527700 0.786700
14.576600 0.787400
14.625500 0.789600
14.674500 0.790400
14.723400 0.789700
14.772300 0.794000
14.821200 0.795400
14.870200 0.798100
14.919100 0.799700
14.968000 0.796700
15.016900 0.792900
15.065900 0.791500
15.114800 0.794100
15.163700 0.805000
15.212600 0.828100
15.261600 0.846000
15.310500 0.853900
15.359400 0.864300
15.408300 0.867800
15.457300 0.871800
15.506200 0.867500
15.555100 0.859700
15.604000 0.850100
15.653000 0.843900
15.701900 0.837900
15.750800 0.835500
15.799700 0.836900
15.848700 0.826400
15.897600 0.823900
15.946500 0.815400
15.995400 0.805200
16.044400 0.796200
16.093300 0.788000
16.142200 0.779700
16.191100 0.774900
16.240100 0.774400
16.289000 0.771200
16.337900 0.774200
16.386800 0.773300
16.435800 0.765600
16.484700 0.754500
16.533600 0.745000
16.582500 0.739900
16.631500 0.707100
16.680400 0.630100
16.729300 0.610600
16.778200 0.583500
16.827200 0.562300
16.876100 0.541400
16.925000 0.517900
16.973900 0.495900
17.022900 0.470800
17.071800 0.458700
17.120700 0.448900
17.169600 0.440300
17.218600 0.433200
17.267500 0.427600
17.316400 0.424100
17.365300 0.422500
17.414300 0.422900
17.463200 0.415500
17.512100 0.414600
17.561000 0.414500
17.610000 0.418900
17.658900 0.433500
17.707800 0.451000
17.756700 0.463900
17.805700 0.457300
17.854600 0.447300
17.903500 0.436000
17.952400 0.429400
18.001400 0.430300
18.050300 0.438000
18.099200 0.455600
18.148100 0.483200
18.197100 0.533400
18.246000 0.548400
18.294900 0.547100
18.343800 0.551600
18.392800 0.553100
18.441700 0.559700
18.490600 0.573400
18.539500 0.577500
18.588500 0.583600
18.637400 0.600600
18.686300 0.631100
18.735200 0.710900
18.784200 0.712300
18.833100 0.723800
18.882000 0.718400
18.930900 0.713200
18.979900 0.729600
19.028800 0.750800
19.077700 0.773000
19.126600 0.793400
19.175600 0.798600
19.224500 0.790000
19.273400 0.787400
19.322300 0.792000
19.371300 0.807800
19.420200 0.800800
19.469100 0.768900
19.518000 0.741400
19.567000 0.726300
19.615900 0.736300
19.664800 0.749600
19.713700 0.740100
19.762700 0.727000
19.811600 0.717600
19.860500 0.710000
19.909400 0.700300
19.958400 0.687200
20.007300 0.672900
20.056200 0.666400
20.105100 0.678400
20.154100 0.685900
20.203000 0.676700
20.251900 0.678700
20.300800 0.681100
20.349800 0.717300
20.398700 0.708100
20.447600 0.696600
20.496500 0.721900
20.545500 0.720500
20.594400 0.726100
20.643300 0.735900
20.692200 0.732800
20.741200 0.729000
20.790100 0.729400
20.839000 0.730200
20.887900 0.739900
20.936900 0.756400
20.985800 0.782600
21.034700 0.814300
21.083600 0.817900
21.132600 0.815900
21.181500 0.813900
21.230400 0.812400
21.279300 0.809800
21.328300 0.804000
21.377200 0.785400
21.426100 0.768800
21.475000 0.760300
21.524000 0.768900
21.572900 0.776800
21.621800 0.782500
21.670700 0.789700
21.719700 0.801100
21.768600 0.818900
21.817500 0.845200
21.866400 0.865900
21.915400 0.855200
21.964300 0.857400
22.013200 0.851100
22.062100 0.841900
22.111100 0.837400
22.160000 0.833200
22.208900 0.835700
22.257800 0.855900
22.306800 0.872700
22.355700 0.892800
22.404600 0.921400
22.453500 0.947300
22.502500 0.955300
22.551400 0.922900
22.600300 0.909800
22.649200 0.914200
22.698200 0.921300
22.747100 0.923400
22.796000 0.906600
22.844900 0.885800
22.893900 0.862700
22.942800 0.846500
22.991700 0.831200
23.040600 0.828000
23.089600 0.826700
23.138500 0.824300
23.187400 0.823700
23.236300 0.834000
23.285300 0.851200
23.334200 0.861000
23.383100 0.875600
23.432000 0.874100
23.481000 0.877800
23.529900 0.876300
23.578800 0.877900
23.627700 0.881000
23.676700 0.878100
23.725600 0.880800
23.774500 0.874800
23.823400 0.873400
23.872400 0.882000
23.921300 0.892600
23.970200 0.884500
24.019100 0.891300
24.068100 0.900600
24.117000 0.885200
24.165900 0.879900
24.214800 0.875700
24.263800 0.876200
24.312700 0.880900
24.361600 0.885800
24.410500 0.912500
24.459500 0.935500
24.508400 0.936400
24.557300 0.941700
24.606200 0.950300
24.655200 0.962000
24.704100 0.977400
24.753000 0.993400
24.801900 1.015700
24.850900 1.004000
24.899800 0.983600
24.948700 0.964600
24.997600 0.952600
25.046600 0.946700
25.095500 0.937600
25.144400 0.932400
25.193300 0.933700
25.242300 0.936400
25.291200 0.935000
25.340100 0.929400
25.389000 0.923100
25.438000 0.915100
25.486900 0.907900
25.535800 0.904300
25.584700 0.910500
25.633700 0.908400
25.682600 0.916400
25.731500 0.923600
25.780400 0.927400
25.829400 0.929600
25.878300 0.931400
25.927200 0.930700
25.976100 0.927900
26.025100 0.925600
26.074000 0.925400
26.122900 0.925300
26.171800 0.925200
26.220800 0.929500
26.269700 0.943300
26.318600 0.963600
26.367500 0.963500
26.416500 0.954700
26.465400 0.918800
26.514300 0.919500
26.563200 0.919500
26.612200 0.921200
26.661100 0.921700
26.710000 0.920800
26.758900 0.928500
26.807900 0.948300
26.856800 0.940700
26.905700 0.919500
26.954600 0.911000
27.003600 0.909500
27.052500 0.911300
27.101400 0.914300
27.150300 0.918100
27.199300 0.922800
27.248200 0.934400
27.297100 0.939900
27.346000 0.942000
27.395000 0.940300
27.443900 0.943500
27.492800 0.955700
27.541700 0.959700
27.590700 0.959500
27.639600 0.963300
27.688500 0.969800
27.737400 0.990800
27.786400 0.974800
27.835300 0.960500
27.884200 0.940300
27.933100 0.918600
27.982100 0.902900
28.031000 0.893000
28.079900 0.891000
28.128800 0.891300
28.177800 0.893200
28.226700 0.905400
28.275600 0.917700
28.324500 0.943000
28.373500 0.958200
28.422400 0.965900
28.471300 0.968900
28.520200 0.973300
28.569200 0.999700
28.618100 1.039800
28.667000 1.048300
28.715900 1.039500
28.764900 1.033800
28.813800 1.020700
28.862700 1.009300
28.911600 1.002200
28.960600 0.996500
29.009500 1.009800
29.058400 1.020300
29.107300 0.998900
29.156300 0.996800
29.205200 0.993500
29.254100 0.986400
29.303000 0.983300
29.352000 0.977800
29.400900 0.968100
29.449800 0.959000
29.498700 0.949900
29.547700 0.940700
29.596600 0.935700
29.645500 0.935400
29.694400 0.935100
29.743400 0.935100
29.792300 0.932600
29.841200 0.928500
29.890100 0.926100
29.939100 0.920200
29.988000 0.915000
30.036900 0.909800
30.085800 0.903300
30.134800 0.894900
30.183700 0.890600
30.232600 0.888700
30.281500 0.889500
30.330500 0.886200
30.379400 0.884500
30.428300 0.890500
30.477200 0.901000
30.526200 0.912100
30.575100 0.922700
30.624000 0.923900
30.672900 0.930800
30.721900 0.937300
30.770800 0.941900
30.819700 0.940800
30.868600 0.928500
30.917600 0.908300
30.966500 0.897600
31.015400 0.895600
31.064300 0.902400
31.113300 0.917400
31.162200 0.929200
31.211100 0.944500
31.260000 0.965500
31.309000 0.982500
31.357900 1.004700
31.406800 1.014100
31.455700 1.015900
31.504700 1.019100
31.553600 1.042100
31.602500 1.052300
31.651400 1.046200
31.700400 1.031200
31.749300 1.010900
31.798200 0.986000
31.847100 0.971100
31.896100 0.967800
31.945000 0.968900
31.993900 0.970000
32.042800 0.952300
32.091800 0.943900
32.140700 0.947200
32.189600 0.951900
32.238500 0.950600
32.287500 0.937500
32.336400 0.932300
32.385300 0.926300
32.434200 0.923700
32.483200 0.924000
32.532100 0.930900
32.581000 0.941200
32.629900 0.946700
32.678900 0.952400
32.727800 0.964900
32.776700 0.981100
32.825600 0.997000
32.874600 1.014300
32.923500 1.042900
32.972400 1.072500
33.021300 1.086300
33.070300 1.133100
33.119200 1.136100
33.168100 1.139800
33.217000 1.116100
33.266000 1.079200
33.314900 0.973900
33.363800 0.902500
33.412700 0.863800
33.461700 0.832500
33.510600 0.828000
33.559500 0.840400
33.608400 0.859300
33.657400 0.889500
33.706300 0.919600
33.755200 0.951100
33.804100 0.939500
33.853100 0.946700
33.902000 0.957000
33.950900 0.930900
33.999800 0.908800
34.048800 0.907400
34.097700 0.904400
34.146600 0.887900
34.195500 0.874800
34.244500 0.857900
34.293400 0.864300
34.342300 0.841100
34.391200 0.853500
34.440200 0.822700
34.489100 0.807500
34.538000 0.809800
34.586900 0.816600
34.635900 0.817600
34.684800 0.857700
34.733700 0.879800
34.782600 0.911900
34.831600 0.967300
34.880500 1.026900
34.929400 1.139300
34.978300 1.185600
35.027300 1.175200
35.076200 1.147200
35.125100 1.118100
35.174000 1.107500
35.223000 1.088000
35.271900 1.065800
35.320800 1.042800
35.369700 1.023900
35.418700 1.014600
35.467600 1.023200
35.516500 1.025600
35.565400 1.018800
35.614400 1.048400
35.663300 1.046400
35.712200 1.025400
35.761100 0.993700
35.810100 0.967700
35.859000 0.940300
35.907900 0.912200
35.956800 0.894600
36.005800 0.889000
36.054700 0.895400
36.103600 0.913200
36.152500 0.934500
36.201500 0.955400
36.250400 0.976500
36.299300 1.013800
36.348200 1.096200
36.397200 1.113500
36.446100 1.156900
36.495000 1.110300
36.543900 1.108200
36.592900 1.109400
36.641800 1.103900
36.690700 1.093800
36.739600 1.085300
36.788600 1.070000
36.837500 1.057400
36.886400 1.042000
36.935300 1.033400
36.984300 1.037800
37.033200 1.045700
37.082100 1.052300
37.131000 1.049900
37.180000 1.043400
37.228900 1.036000
37.277800 1.027300
37.326700 1.020300
37.375700 1.020000
37.424600 1.030500
37.473500 1.051800
37.522400 1.063000
37.571400 1.065200
37.620300 1.074200
37.669200 1.096000
37.718100 1.122300
37.767100 1.149500
37.816000 1.167400
37.864900 1.166500
37.913800 1.167600
37.962700 1.171200
38.011700 1.163700
38.060600 1.155000
38.109500 1.175800
38.158400 1.172000
38.207400 1.181000
38.256300 1.169300
38.305200 1.155700
38.354100 1.147500
38.403100 1.156100
38.452000 1.161800
38.500900 1.163800
38.549800 1.189000
38.598800 1.223900
38.647700 1.221700
38.696600 1.208800
38.745500 1.177100
38.794500 1.141700
38.843400 1.122000
38.892300 1.106500
38.941200 1.088400
38.990200 1.062500
39.039100 1.043000
39.088000 1.036700
39.136900 1.038200
39.185900 1.064400
39.234800 1.029700
39.283700 1.035600
39.332600 1.049100
39.381600 1.051500
39.430500 1.054200
39.479400 1.070400
39.528300 1.101100
