set title 'mp-1062055 - Density of States'
set xlabel 'Energy (eV)'
set ylabel 'DOS (states/eV)'
set grid
set xrange [-10:10]
set yrange [0:5.183]
set xzeroaxis lt -1
set terminal png size 800,600
set output 'mp-1062055_dos_gnuplot.png'
plot '-' using 1:2 with lines title 'DOS'
-18.118900 0.000000
-18.085900 0.000000
-18.052800 0.000000
-18.019700 0.000000
-17.986700 0.000000
-17.953600 0.000000
-17.920500 0.000000
-17.887500 0.000000
-17.854400 0.000000
-17.821300 0.000000
-17.788300 0.000000
-17.755200 0.000000
-17.722200 0.000000
-17.689100 0.000000
-17.656000 0.000000
-17.623000 0.000000
-17.589900 0.000000
-17.556800 0.000000
-17.523800 0.000000
-17.490700 0.000000
-17.457600 0.000000
-17.424600 0.000000
-17.391500 0.000000
-17.358400 0.000000
-17.325400 0.000000
-17.292300 0.000000
-17.259300 0.000000
-17.226200 0.000000
-17.193100 0.000000
-17.160100 0.000000
-17.127000 0.000000
-17.093900 0.000000
-17.060900 0.000000
-17.027800 0.000000
-16.994700 0.000000
-16.961700 0.000000
-16.928600 0.000000
-16.895500 0.000000
-16.862500 0.000000
-16.829400 0.000000
-16.796300 0.000000
-16.763300 0.000000
-16.730200 0.000000
-16.697200 0.000000
-16.664100 0.000000
-16.631000 0.000000
-16.598000 0.000000
-16.564900 0.000000
-16.531800 0.000000
-16.498800 0.000000
-16.465700 0.000000
-16.432600 0.000000
-16.399600 0.000000
-16.366500 0.000000
-16.333400 0.000000
-16.300400 0.000000
-16.267300 0.000000
-16.234300 0.000000
-16.201200 0.000000
-16.168100 0.000000
-16.135100 0.000000
-16.102000 0.000000
-16.068900 0.000000
-16.035900 0.000000
-16.002800 0.000000
-15.969700 0.000000
-15.936700 0.000000
-15.903600 0.000000
-15.870500 0.000000
-15.837500 0.000000
-15.804400 0.000000
-15.771400 0.000000
-15.738300 0.000000
-15.705200 0.000000
-15.672200 0.000000
-15.639100 0.000000
-15.606000 0.000000
-15.573000 0.000000
-15.539900 0.000000
-15.506800 0.000000
-15.473800 0.000000
-15.440700 0.000000
-15.407600 0.000000
-15.374600 0.000000
-15.341500 0.000000
-15.308500 0.000000
-15.275400 0.000000
-15.242300 0.000000
-15.209300 0.000000
-15.176200 0.000000
-15.143100 0.000000
-15.110100 0.106200
-15.077000 0.231500
-15.043900 0.328600
-15.010900 0.393900
-14.977800 0.454300
-14.944700 0.536800
-14.911700 0.595100
-14.878600 0.646000
-14.845600 0.709000
-14.812500 0.778400
-14.779400 0.850300
-14.746400 0.941000
-14.713300 1.039800
-14.680200 1.139400
-14.647200 1.241200
-14.614100 1.527900
-14.581000 1.494100
-14.548000 1.449700
-14.514900 1.424500
-14.481800 1.408300
-14.448800 1.316500
-14.415700 1.276900
-14.382700 1.238200
-14.349600 1.195000
-14.316500 1.137900
-14.283500 1.076500
-14.250400 1.013200
-14.217300 0.967400
-14.184300 0.899600
-14.151200 0.927000
-14.118100 0.640300
-14.085100 0.463100
-14.052000 0.322300
-14.018900 2.668100
-13.985900 8.785900
-13.952800 4.208100
-13.919800 3.378100
-13.886700 3.405300
-13.853600 3.282700
-13.820600 2.693800
-13.787500 2.606700
-13.754400 2.584700
-13.721400 2.707200
-13.688300 2.683300
-13.655200 2.514700
-13.622200 2.488400
-13.589100 2.508000
-13.556000 2.693000
-13.523000 2.716300
-13.489900 2.562200
-13.456900 3.035300
-13.423800 2.603700
-13.390700 1.857100
-13.357700 0.000000
-13.324600 0.000000
-13.291500 0.000000
-13.258500 0.000000
-13.225400 0.000000
-13.192300 0.000000
-13.159300 0.000000
-13.126200 0.000000
-13.093100 0.000000
-13.060100 0.000000
-13.027000 0.000000
-12.994000 0.000000
-12.960900 0.000000
-12.927800 0.000000
-12.894800 0.000000
-12.861700 0.000000
-12.828600 0.000000
-12.795600 0.000000
-12.762500 0.000000
-12.729400 0.000000
-12.696400 0.000000
-12.663300 0.000000
-12.630200 0.000000
-12.597200 0.000000
-12.564100 0.000000
-12.531100 0.000000
-12.498000 0.000000
-12.464900 0.000000
-12.431900 0.000000
-12.398800 0.000000
-12.365700 0.000000
-12.332700 0.000000
-12.299600 0.000000
-12.266500 0.000000
-12.233500 0.000000
-12.200400 0.000000
-12.167300 0.000000
-12.134300 0.000000
-12.101200 0.000000
-12.068200 0.000000
-12.035100 0.000000
-12.002000 0.000000
-11.969000 0.000000
-11.935900 0.000000
-11.902800 0.000000
-11.869800 0.000000
-11.836700 0.000000
-11.803600 0.000000
-11.770600 0.000000
-11.737500 0.000000
-11.704400 0.000000
-11.671400 0.000000
-11.638300 0.000000
-11.605300 0.000000
-11.572200 0.000000
-11.539100 0.000000
-11.506100 0.000000
-11.473000 0.000000
-11.439900 0.000000
-11.406900 0.000000
-11.373800 0.000000
-11.340700 0.000000
-11.307700 0.000000
-11.274600 0.000000
-11.241500 0.000000
-11.208500 0.000000
-11.175400 0.000000
-11.142300 0.000000
-11.109300 0.000000
-11.076200 0.000000
-11.043200 0.000000
-11.010100 0.000000
-10.977000 0.000000
-10.944000 0.000000
-10.910900 0.000000
-10.877800 0.000000
-10.844800 0.000000
-10.811700 0.000000
-10.778600 0.000000
-10.745600 0.000000
-10.712500 0.000000
-10.679400 0.000000
-10.646400 0.000000
-10.613300 0.000000
-10.580300 0.000000
-10.547200 0.000000
-10.514100 0.000000
-10.481100 0.000000
-10.448000 0.000000
-10.414900 0.000000
-10.381900 0.000000
-10.348800 0.000000
-10.315700 0.000000
-10.282700 0.000000
-10.249600 0.000000
-10.216500 0.000000
-10.183500 0.000000
-10.150400 0.000000
-10.117400 0.000000
-10.084300 0.000000
-10.051200 0.000000
-10.018200 0.000000
-9.985100 0.000000
-9.952000 0.000000
-9.919000 0.000000
-9.885900 0.000000
-9.852800 0.000000
-9.819800 0.000000
-9.786700 0.000000
-9.753600 0.000000
-9.720600 0.000000
-9.687500 0.000000
-9.654500 0.000000
-9.621400 0.000000
-9.588300 0.000000
-9.555300 0.000000
-9.522200 0.000000
-9.489100 0.000000
-9.456100 0.000000
-9.423000 0.000000
-9.389900 0.000000
-9.356900 0.000000
-9.323800 0.000000
-9.290700 0.000000
-9.257700 0.000000
-9.224600 0.000000
-9.191600 0.000000
-9.158500 0.000000
-9.125400 0.000000
-9.092400 0.000000
-9.059300 0.000000
-9.026200 0.000000
-8.993200 0.000000
-8.960100 0.000000
-8.927000 0.000000
-8.894000 0.000000
-8.860900 0.000000
-8.827800 0.000000
-8.794800 0.000000
-8.761700 0.000000
-8.728700 0.000000
-8.695600 0.000000
-8.662500 0.000000
-8.629500 0.000000
-8.596400 0.000000
-8.563300 0.000000
-8.530300 0.000000
-8.497200 0.000000
-8.464100 0.000000
-8.431100 0.000000
-8.398000 0.000000
-8.364900 0.000000
-8.331900 0.000000
-8.298800 0.000000
-8.265800 0.000000
-8.232700 0.000000
-8.199600 0.000000
-8.166600 0.000000
-8.133500 0.000000
-8.100400 0.000000
-8.067400 0.000000
-8.034300 0.000000
-8.001200 0.000000
-7.968200 0.000000
-7.935100 0.000000
-7.902000 0.000000
-7.869000 0.000000
-7.835900 0.000000
-7.802900 0.000000
-7.769800 0.000000
-7.736700 0.000000
-7.703700 0.000000
-7.670600 0.000000
-7.637500 0.000000
-7.604500 0.000000
-7.571400 0.000000
-7.538300 0.000000
-7.505300 0.000000
-7.472200 0.000000
-7.439100 0.000000
-7.406100 0.000000
-7.373000 0.000000
-7.340000 0.000000
-7.306900 0.000000
-7.273800 0.000000
-7.240800 0.000000
-7.207700 0.000000
-7.174600 0.000000
-7.141600 0.000000
-7.108500 0.000000
-7.075400 0.000000
-7.042400 0.000000
-7.009300 0.000000
-6.976200 0.000000
-6.943200 0.000000
-6.910100 0.000000
-6.877100 0.000000
-6.844000 0.000000
-6.810900 0.000000
-6.777900 0.000000
-6.744800 0.000000
-6.711700 0.000000
-6.678700 0.000000
-6.645600 0.000000
-6.612500 0.000000
-6.579500 0.000000
-6.546400 0.000000
-6.513300 0.000000
-6.480300 0.000000
-6.447200 0.000000
-6.414200 0.000000
-6.381100 0.000000
-6.348000 0.000000
-6.315000 0.000000
-6.281900 0.000000
-6.248800 0.000000
-6.215800 0.000000
-6.182700 0.000000
-6.149600 0.000000
-6.116600 0.000000
-6.083500 0.000000
-6.050400 0.000000
-6.017400 0.000000
-5.984300 0.000000
-5.951300 0.000000
-5.918200 0.000000
-5.885100 0.000000
-5.852100 0.000000
-5.819000 0.000000
-5.785900 0.000000
-5.752900 0.000000
-5.719800 0.000000
-5.686700 0.000000
-5.653700 0.000000
-5.620600 0.000000
-5.587500 0.000000
-5.554500 0.000000
-5.521400 0.000000
-5.488300 0.000000
-5.455300 0.000000
-5.422200 0.000000
-5.389200 0.000000
-5.356100 0.000000
-5.323000 0.000000
-5.290000 0.000000
-5.256900 0.000000
-5.223800 0.000000
-5.190800 0.000000
-5.157700 0.000000
-5.124600 0.000000
-5.091600 0.000000
-5.058500 0.000000
-5.025400 0.039100
-4.992400 0.054200
-4.959300 0.071000
-4.926300 0.089800
-4.893200 0.110300
-4.860100 0.121500
-4.827100 0.132900
-4.794000 0.143300
-4.760900 0.152600
-4.727900 0.160900
-4.694800 0.170500
-4.661700 0.183600
-4.628700 0.198800
-4.595600 0.216200
-4.562500 0.235500
-4.529500 0.251600
-4.496400 0.264300
-4.463400 0.274700
-4.430300 0.282500
-4.397200 0.303000
-4.364200 0.324600
-4.331100 0.344100
-4.298000 0.362400
-4.265000 0.381100
-4.231900 0.400100
-4.198800 0.419900
-4.165800 0.447000
-4.132700 0.480500
-4.099600 0.519200
-4.066600 0.562700
-4.033500 0.608900
-4.000500 0.651400
-3.967400 0.686800
-3.934300 0.762100
-3.901300 0.821600
-3.868200 0.889700
-3.835100 0.934600
-3.802100 1.002900
-3.769000 1.086700
-3.735900 1.179900
-3.702900 1.761700
-3.669800 3.164700
-3.636700 2.071600
-3.603700 1.247500
-3.570600 1.047800
-3.537600 1.460500
-3.504500 1.537900
-3.471400 2.286100
-3.438400 1.813500
-3.405300 1.892000
-3.372200 1.958400
-3.339200 1.766800
-3.306100 1.809500
-3.273000 1.797900
-3.240000 1.811600
-3.206900 1.835700
-3.173800 1.871500
-3.140800 1.817700
-3.107700 1.911200
-3.074700 2.186100
-3.041600 2.372600
-3.008500 2.555200
-2.975500 2.701700
-2.942400 2.639900
-2.909300 2.641200
-2.876300 2.462300
-2.843200 2.412400
-2.810100 1.628800
-2.777100 1.369400
-2.744000 1.264500
-2.710900 1.360400
-2.677900 1.507200
-2.644800 1.654300
-2.611800 3.840800
-2.578700 4.282000
-2.545600 3.107800
-2.512600 1.784200
-2.479500 1.248400
-2.446400 1.026100
-2.413400 0.825100
-2.380300 0.796900
-2.347200 0.825500
-2.314200 0.870200
-2.281100 0.983400
-2.248000 1.156300
-2.215000 1.597000
-2.181900 1.600600
-2.148900 1.645700
-2.115800 1.561400
-2.082700 1.495300
-2.049700 1.678000
-2.016600 1.603900
-1.983500 0.579200
-1.950500 0.807800
-1.917400 1.022800
-1.884300 1.189300
-1.851300 1.458000
-1.818200 2.063200
-1.785100 2.487800
-1.752100 2.671300
-1.719000 2.213900
-1.686000 1.899000
-1.652900 1.774600
-1.619800 1.704400
-1.586800 1.492800
-1.553700 1.268800
-1.520600 1.112900
-1.487600 1.048500
-1.454500 1.019300
-1.421400 1.214400
-1.388400 1.309300
-1.355300 3.429300
-1.322200 2.106400
-1.289200 2.231700
-1.256100 2.109500
-1.223100 2.194700
-1.190000 2.196000
-1.156900 2.067100
-1.123900 2.033000
-1.090800 1.985300
-1.057700 1.917300
-1.024700 1.741500
-0.991600 1.603700
-0.958500 1.415200
-0.925500 1.529200
-0.892400 1.673500
-0.859300 1.682300
-0.826300 1.451100
-0.793200 1.200200
-0.760200 1.102800
-0.727100 1.149300
-0.694000 1.802100
-0.661000 2.497000
-0.627900 2.710100
-0.594800 2.362000
-0.561800 2.084100
-0.528700 1.779600
-0.495600 1.538200
-0.462600 1.430500
-0.429500 1.323700
-0.396400 1.316700
-0.363400 1.599400
-0.330300 2.097500
-0.297300 2.285300
-0.264200 2.445600
-0.231100 2.593700
-0.198100 2.360000
-0.165000 2.376900
-0.131900 2.463400
-0.098900 2.449200
-0.065800 3.333300
-0.032700 3.506600
0.000300 3.568000
0.033400 3.737300
0.066500 3.700100
0.099500 3.878700
0.132600 4.008600
0.165700 4.235700
0.198700 4.465700
0.231800 4.712200
0.264800 2.868000
0.297900 3.134800
0.331000 2.065800
0.364000 1.307100
0.397100 1.149100
0.430200 0.990600
0.463200 0.831600
0.496300 1.258900
0.529400 0.000000
0.562400 0.000000
0.595500 0.000000
0.628600 0.000000
0.661600 0.000000
0.694700 0.000000
0.727700 0.000000
0.760800 0.000000
0.793900 0.000000
0.826900 0.000000
0.860000 0.000000
0.893100 0.000000
0.926100 0.000000
0.959200 0.000000
0.992300 0.000000
1.025300 0.000000
1.058400 0.000000
1.091500 0.000000
1.124500 0.000000
1.157600 0.000000
1.190600 0.000000
1.223700 0.000000
1.256800 0.000000
1.289800 0.000000
1.322900 0.000000
1.356000 0.000000
1.389000 0.000000
1.422100 0.000000
1.455200 0.000000
1.488200 0.000000
1.521300 0.000000
1.554400 0.000000
1.587400 0.000000
1.620500 0.000000
1.653500 0.000000
1.686600 0.000000
1.719700 0.000000
1.752700 0.000000
1.785800 0.000000
1.818900 0.000000
1.851900 0.000000
1.885000 0.000000
1.918100 0.000000
1.951100 0.000000
1.984200 0.000000
2.017300 0.000000
2.050300 0.000000
2.083400 0.000000
2.116400 0.000000
2.149500 0.000000
2.182600 0.000000
2.215600 0.000000
2.248700 0.000000
2.281800 0.000000
2.314800 0.000000
2.347900 0.000000
2.381000 0.000000
2.414000 0.000000
2.447100 0.000000
2.480200 0.000000
2.513200 0.000000
2.546300 0.000000
2.579300 0.000000
2.612400 0.000000
2.645500 0.000000
2.678500 0.000000
2.711600 0.000000
2.744700 0.000000
2.777700 0.000000
2.810800 0.000000
2.843900 0.000000
2.876900 0.000000
2.910000 0.000000
2.943100 0.000000
2.976100 0.000000
3.009200 0.000000
3.042200 0.000000
3.075300 0.000000
3.108400 0.000000
3.141400 0.000000
3.174500 0.000000
3.207600 0.000000
3.240600 0.000000
3.273700 0.000000
3.306800 0.000000
3.339800 0.000000
3.372900 0.000000
3.406000 0.000000
3.439000 0.000000
3.472100 0.000000
3.505100 0.000000
3.538200 0.000000
3.571300 0.000000
3.604300 0.000000
3.637400 0.000000
3.670500 0.000000
3.703500 0.000000
3.736600 0.000000
3.769700 0.000000
3.802700 0.000000
3.835800 0.000000
3.868900 0.000000
3.901900 0.000000
3.935000 0.000000
3.968000 0.000000
4.001100 0.000000
4.034200 0.000000
4.067200 0.000000
4.100300 0.000000
4.133400 0.000000
4.166400 0.000000
4.199500 0.000000
4.232600 0.000000
4.265600 0.000000
4.298700 0.000000
4.331800 0.000000
4.364800 0.000000
4.397900 0.000000
4.430900 0.000000
4.464000 0.000000
4.497100 0.000000
4.530100 0.000000
4.563200 0.000000
4.596300 0.000000
4.629300 0.000000
4.662400 0.000000
4.695500 0.000000
4.728500 0.000000
4.761600 0.000000
4.794700 0.000000
4.827700 0.000000
4.860800 0.000000
4.893800 0.000000
4.926900 0.000000
4.960000 0.000000
4.993000 0.000000
5.026100 0.000000
5.059200 0.000000
5.092200 0.000000
5.125300 0.000000
5.158400 0.000000
5.191400 0.000000
5.224500 0.000000
5.257600 0.000000
5.290600 0.000000
5.323700 0.000000
5.356700 0.000000
5.389800 0.027400
5.422900 0.033300
5.455900 0.039700
5.489000 0.046500
5.522100 0.053800
5.555100 0.061500
5.588200 0.069600
5.621300 0.078200
5.654300 0.073900
5.687400 0.077700
5.720500 0.081400
5.753500 0.084900
5.786600 0.088200
5.819700 0.091300
5.852700 0.094300
5.885800 0.126600
5.918800 0.137200
5.951900 0.149100
5.985000 0.161700
6.018000 0.175000
6.051100 0.189100
6.084200 0.203900
6.117200 0.206700
6.150300 0.212900
6.183400 0.220600
6.216400 0.227800
6.249500 0.234700
6.282600 0.241100
6.315600 0.247200
6.348700 0.252900
6.381700 0.260100
6.414800 0.268500
6.447900 0.277000
6.480900 0.286100
6.514000 0.295500
6.547100 0.305300
6.580100 0.315600
6.613200 0.320800
6.646300 0.328900
6.679300 0.336700
6.712400 0.344400
6.745500 0.352100
6.778500 0.359600
6.811600 0.368700
6.844600 0.378000
6.877700 0.388000
6.910800 0.399200
6.943800 0.411500
6.976900 0.424700
7.010000 0.438800
7.043000 0.455400
7.076100 0.476300
7.109200 0.499000
7.142200 0.520500
7.175300 0.540800
7.208400 0.559900
7.241400 0.579300
7.274500 0.609400
7.307500 0.644200
7.340600 0.669400
7.373700 0.658100
7.406700 0.649100
7.439800 0.642300
7.472900 0.673900
7.505900 0.726900
7.539000 0.786400
7.572100 0.647300
7.605100 0.640700
7.638200 0.634000
7.671300 0.627000
7.704300 0.619900
7.737400 0.612700
7.770400 0.730000
7.803500 0.656000
7.836600 0.589400
7.869600 0.530300
7.902700 0.478600
7.935800 0.448800
7.968800 0.434300
8.001900 0.427200
8.035000 0.419100
8.068000 0.409900
8.101100 0.399700
8.134200 0.716000
8.167200 0.638800
8.200300 0.107400
8.233300 0.111000
8.266400 0.116000
8.299500 0.122400
8.332500 0.130200
8.365600 0.138800
8.398700 0.148200
8.431700 0.460600
8.464800 0.643500
8.497900 0.801700
8.530900 0.773100
8.564000 0.912600
8.597100 1.080300
8.630100 1.066300
8.663200 1.247600
8.696200 1.734700
8.729300 1.786100
8.762400 1.527600
8.795400 1.402000
8.828500 1.305500
8.861600 1.212200
8.894600 1.240600
8.927700 1.230100
8.960800 1.190700
8.993800 1.260900
9.026900 1.419700
9.060000 1.438400
9.093000 1.416400
9.126100 1.369500
9.159100 1.361500
9.192200 1.411000
9.225300 1.464600
9.258300 1.621600
9.291400 1.662600
9.324500 1.755400
9.357500 1.805900
9.390600 1.968100
9.423700 2.179700
9.456700 2.410200
9.489800 2.416500
9.522900 2.641100
9.555900 3.015600
9.589000 3.240900
9.622000 3.449500
9.655100 3.168400
9.688200 2.955400
9.721200 2.526300
9.754300 2.291700
9.787400 2.229000
9.820400 2.180400
9.853500 2.136700
9.886600 2.097900
9.919600 2.066500
9.952700 1.992700
9.985800 2.022700
10.018800 2.075600
10.051900 2.117500
10.084900 2.169200
10.118000 2.240600
10.151100 2.091800
10.184100 2.052700
10.217200 2.058800
10.250300 2.090200
10.283300 2.105700
10.316400 2.309000
10.349500 2.410300
10.382500 1.909900
10.415600 1.843600
10.448700 2.204000
10.481700 1.655800
10.514800 1.622800
10.547800 1.597300
10.580900 1.596500
10.614000 1.597900
10.647000 1.943200
10.680100 1.866600
10.713200 1.792900
10.746200 1.624900
10.779300 1.707400
10.812400 1.681700
10.845400 1.690000
10.878500 1.711800
10.911600 1.799900
10.944600 2.083800
10.977700 2.068200
11.010700 2.073400
11.043800 2.167600
11.076900 1.404500
11.109900 1.270400
11.143000 1.372100
11.176100 1.381000
11.209100 1.383000
11.242200 1.376800
11.275300 1.552600
11.308300 1.523800
11.341400 1.313900
11.374500 1.337500
11.407500 1.177400
11.440600 1.182500
11.473700 1.203400
11.506700 1.221700
11.539800 1.256100
11.572800 1.286100
11.605900 1.222200
11.639000 0.998700
11.672000 0.843700
11.705100 0.783500
11.738200 0.809200
11.771200 1.007000
11.804300 1.138700
11.837400 1.093800
11.870400 1.054500
11.903500 1.433900
11.936600 1.283100
11.969600 1.448100
12.002700 1.520900
12.035700 1.984300
12.068800 1.899000
12.101900 1.637500
12.134900 1.512600
12.168000 1.504000
12.201100 1.474900
12.234100 1.466200
12.267200 1.496700
12.300300 1.640300
12.333300 1.820100
12.366400 2.011800
12.399500 2.361900
12.432500 1.778200
12.465600 1.245400
12.498600 1.346500
12.531700 1.371800
12.564800 1.501400
12.597800 1.495900
12.630900 1.488800
12.664000 1.467300
12.697000 1.431400
12.730100 1.328000
12.763200 1.260900
12.796200 1.128000
12.829300 1.069900
12.862400 1.028800
12.895400 1.267200
12.928500 1.449600
12.961500 1.478200
12.994600 1.744700
13.027700 1.962200
13.060700 2.076700
13.093800 2.214900
13.126900 2.355600
13.159900 2.549700
13.193000 1.996300
13.226100 1.969200
13.259100 1.907200
13.292200 1.876200
13.325300 1.957800
13.358300 2.119200
13.391400 2.067400
13.424400 1.822400
13.457500 1.522100
13.490600 1.339000
13.523600 1.277100
13.556700 1.196500
13.589800 1.193700
13.622800 1.157400
13.655900 1.171000
13.689000 1.046600
13.722000 1.055700
13.755100 1.066900
13.788200 1.215700
13.821200 1.295900
13.854300 1.410400
13.887300 1.467100
13.920400 1.478000
13.953500 1.584000
13.986500 2.001000
14.019600 1.981800
14.052700 1.456100
14.085700 1.315500
14.118800 1.325400
14.151900 1.252800
14.184900 1.164200
14.218000 1.132700
14.251100 1.109200
14.284100 1.057900
14.317200 1.144500
14.350200 0.985300
14.383300 1.038000
14.416400 1.209200
14.449400 1.512100
14.482500 1.738700
14.515600 1.834600
14.548600 1.924500
14.581700 1.821000
14.614800 1.675600
14.647800 1.833400
14.680900 1.936800
14.714000 1.918200
14.747000 1.952900
14.780100 2.231900
14.813100 1.957300
14.846200 1.949400
14.879300 1.790300
14.912300 1.749500
14.945400 1.764500
14.978500 1.678000
15.011500 1.610500
15.044600 1.564100
15.077700 1.384100
15.110700 1.247900
15.143800 1.220100
15.176900 1.419300
15.209900 1.305800
15.243000 1.408400
15.276000 1.557900
15.309100 1.689400
15.342200 2.183100
15.375200 1.560900
15.408300 1.526200
15.441400 1.493800
15.474400 1.539000
15.507500 1.603200
15.540600 1.776300
15.573600 1.520000
15.606700 1.477500
15.639800 1.515600
15.672800 1.568000
15.705900 1.984500
15.738900 1.978000
15.772000 2.067000
15.805100 2.184100
15.838100 2.312200
15.871200 2.686800
15.904300 2.175500
15.937300 1.818600
15.970400 1.604800
16.003500 1.738600
16.036500 2.062000
16.069600 2.450700
16.102700 2.508000
16.135700 2.509100
16.168800 2.259200
16.201800 2.125300
16.234900 2.081000
