set title 'mp-1184566 - Density of States'
set xlabel 'Energy (eV)'
set ylabel 'DOS (states/eV)'
set grid
set xrange [-10:10]
set yrange [0:28.347]
set xzeroaxis lt -1
set terminal png size 800,600
set output 'mp-1184566_dos_gnuplot.png'
plot '-' using 1:2 with lines title 'DOS'
-12.041800 0.000000
-12.017400 0.000000
-11.993000 0.000000
-11.968700 0.000000
-11.944300 0.000000
-11.919900 0.000000
-11.895500 0.000000
-11.871100 0.000000
-11.846800 0.000000
-11.822400 0.000000
-11.798000 0.000000
-11.773600 0.000000
-11.749200 0.000000
-11.724900 0.000000
-11.700500 0.000000
-11.676100 0.000000
-11.651700 0.000000
-11.627400 0.000000
-11.603000 0.000000
-11.578600 0.000000
-11.554200 0.000000
-11.529800 0.000000
-11.505500 0.000000
-11.481100 0.000000
-11.456700 0.000000
-11.432300 0.000000
-11.407900 0.000000
-11.383600 0.000000
-11.359200 0.000000
-11.334800 0.000000
-11.310400 0.000000
-11.286100 0.000000
-11.261700 0.000000
-11.237300 0.000000
-11.212900 0.000000
-11.188500 0.000000
-11.164200 0.000000
-11.139800 0.000000
-11.115400 0.000000
-11.091000 0.000000
-11.066600 0.000000
-11.042300 0.000000
-11.017900 0.000000
-10.993500 0.000000
-10.969100 0.000000
-10.944800 0.000000
-10.920400 0.000000
-10.896000 0.000000
-10.871600 0.000000
-10.847200 0.000000
-10.822900 0.000000
-10.798500 0.000000
-10.774100 0.000000
-10.749700 0.000000
-10.725300 0.000000
-10.701000 0.000000
-10.676600 0.000000
-10.652200 0.000000
-10.627800 0.000000
-10.603500 0.000000
-10.579100 0.000000
-10.554700 0.000000
-10.530300 0.000000
-10.505900 0.000000
-10.481600 0.000000
-10.457200 0.000000
-10.432800 0.000000
-10.408400 0.000000
-10.384000 0.000000
-10.359700 0.000000
-10.335300 0.000000
-10.310900 0.000000
-10.286500 0.000000
-10.262100 0.000000
-10.237800 0.000000
-10.213400 0.000000
-10.189000 0.000000
-10.164600 0.000000
-10.140300 0.000000
-10.115900 0.000000
-10.091500 0.000000
-10.067100 0.000000
-10.042700 0.000000
-10.018400 0.000000
-9.994000 0.000000
-9.969600 0.000000
-9.945200 0.000000
-9.920800 0.000000
-9.896500 0.000000
-9.872100 0.000000
-9.847700 0.000000
-9.823300 0.000400
-9.799000 0.063000
-9.774600 0.201900
-9.750200 0.254100
-9.725800 0.285800
-9.701400 0.344400
-9.677100 0.401900
-9.652700 0.444900
-9.628300 0.478000
-9.603900 0.515900
-9.579500 0.559200
-9.555200 0.603100
-9.530800 0.646200
-9.506400 0.688100
-9.482000 0.734100
-9.457700 0.780400
-9.433300 0.824500
-9.408900 0.871200
-9.384500 0.919300
-9.360100 0.972700
-9.335800 1.029800
-9.311400 1.090500
-9.287000 1.151900
-9.262600 1.215300
-9.238200 1.281800
-9.213900 1.358200
-9.189500 1.437800
-9.165100 1.520600
-9.140700 1.618500
-9.116400 1.724300
-9.092000 1.833700
-9.067600 1.953200
-9.043200 2.097500
-9.018800 2.254200
-8.994500 2.419600
-8.970100 2.615700
-8.945700 2.862500
-8.921300 3.152800
-8.896900 3.527400
-8.872600 4.027300
-8.848200 4.703400
-8.823800 5.186300
-8.799400 5.677300
-8.775100 5.882700
-8.750700 6.160600
-8.726300 6.289500
-8.701900 6.490400
-8.677500 6.913100
-8.653200 7.212400
-8.628800 7.291400
-8.604400 8.271700
-8.580000 9.095500
-8.555600 15.690600
-8.531300 22.827600
-8.506900 0.000000
-8.482500 0.000000
-8.458100 0.000000
-8.433800 0.000000
-8.409400 0.000000
-8.385000 0.000000
-8.360600 0.000000
-8.336200 0.000000
-8.311900 0.000000
-8.287500 0.000000
-8.263100 0.000000
-8.238700 0.000000
-8.214300 0.000000
-8.190000 0.000000
-8.165600 0.000000
-8.141200 0.000000
-8.116800 0.000000
-8.092400 0.000000
-8.068100 0.000000
-8.043700 0.000000
-8.019300 0.000000
-7.994900 0.000000
-7.970600 0.000000
-7.946200 0.000000
-7.921800 0.000000
-7.897400 0.000000
-7.873000 0.000000
-7.848700 0.000000
-7.824300 0.000000
-7.799900 0.000000
-7.775500 0.000000
-7.751100 0.000000
-7.726800 0.000000
-7.702400 0.000000
-7.678000 0.000000
-7.653600 0.000000
-7.629300 0.000000
-7.604900 0.000000
-7.580500 0.000000
-7.556100 0.000000
-7.531700 0.000000
-7.507400 0.000000
-7.483000 0.000000
-7.458600 0.000000
-7.434200 0.000000
-7.409800 0.000000
-7.385500 0.000000
-7.361100 0.000000
-7.336700 0.000000
-7.312300 0.000000
-7.288000 0.000000
-7.263600 0.000000
-7.239200 0.000000
-7.214800 0.000000
-7.190400 0.000000
-7.166100 0.000000
-7.141700 0.000000
-7.117300 0.000000
-7.092900 0.000000
-7.068500 0.000000
-7.044200 0.000000
-7.019800 0.000000
-6.995400 0.000000
-6.971000 0.000000
-6.946700 0.000000
-6.922300 0.000000
-6.897900 0.000000
-6.873500 0.000000
-6.849100 0.000000
-6.824800 0.000000
-6.800400 0.000000
-6.776000 0.000000
-6.751600 0.000000
-6.727200 0.000000
-6.702900 0.000000
-6.678500 0.000000
-6.654100 0.000000
-6.629700 0.000000
-6.605400 0.000000
-6.581000 0.000000
-6.556600 0.000000
-6.532200 0.000000
-6.507800 0.000000
-6.483500 0.000000
-6.459100 0.000000
-6.434700 0.000000
-6.410300 0.000000
-6.385900 0.000000
-6.361600 0.000000
-6.337200 0.000000
-6.312800 0.000000
-6.288400 0.000000
-6.264100 0.000000
-6.239700 0.000000
-6.215300 0.000000
-6.190900 0.000000
-6.166500 0.000000
-6.142200 0.000000
-6.117800 0.000000
-6.093400 0.000000
-6.069000 0.000000
-6.044600 0.000000
-6.020300 0.000000
-5.995900 0.000000
-5.971500 0.000000
-5.947100 0.000000
-5.922700 0.000000
-5.898400 0.000000
-5.874000 0.000000
-5.849600 0.000000
-5.825200 0.000000
-5.800900 0.000000
-5.776500 0.000000
-5.752100 0.000000
-5.727700 0.000000
-5.703300 0.000000
-5.679000 0.000000
-5.654600 0.000000
-5.630200 0.000000
-5.605800 0.000000
-5.581400 0.000000
-5.557100 0.000000
-5.532700 0.000000
-5.508300 1.677300
-5.483900 4.495900
-5.459600 7.357100
-5.435200 15.289700
-5.410800 19.183900
-5.386400 25.769700
-5.362000 19.767200
-5.337700 15.322800
-5.313300 14.377200
-5.288900 19.024700
-5.264500 14.115400
-5.240100 16.511700
-5.215800 16.508400
-5.191400 11.259200
-5.167000 10.289200
-5.142600 11.506000
-5.118300 12.746500
-5.093900 13.435500
-5.069500 12.487000
-5.045100 11.692200
-5.020700 10.888000
-4.996400 10.204400
-4.972000 9.757800
-4.947600 9.259200
-4.923200 9.530500
-4.898800 10.721500
-4.874500 12.816100
-4.850100 14.717200
-4.825700 13.861000
-4.801300 9.969700
-4.777000 9.197300
-4.752600 11.279000
-4.728200 12.666700
-4.703800 16.537000
-4.679400 12.631300
-4.655100 11.178200
-4.630700 9.299200
-4.606300 10.509000
-4.581900 12.613100
-4.557500 11.809200
-4.533200 7.501700
-4.508800 11.419800
-4.484400 10.021400
-4.460000 11.145600
-4.435700 14.290800
-4.411300 15.616200
-4.386900 18.483800
-4.362500 18.185900
-4.338100 18.118800
-4.313800 17.602700
-4.289400 14.146000
-4.265000 10.792700
-4.240600 10.954100
-4.216200 9.634800
-4.191900 6.635000
-4.167500 4.018100
-4.143100 3.756000
-4.118700 3.260000
-4.094400 2.532900
-4.070000 2.363200
-4.045600 2.290300
-4.021200 2.231400
-3.996800 2.187400
-3.972500 2.169300
-3.948100 2.159600
-3.923700 2.126600
-3.899300 2.069300
-3.874900 2.041400
-3.850600 2.018700
-3.826200 1.998300
-3.801800 1.997900
-3.777400 2.072100
-3.753000 2.099400
-3.728700 2.112200
-3.704300 2.121800
-3.679900 2.128400
-3.655500 2.127200
-3.631200 2.128300
-3.606800 2.179700
-3.582400 2.277100
-3.558000 2.262100
-3.533600 2.212000
-3.509300 2.139700
-3.484900 2.075700
-3.460500 2.037400
-3.436100 1.986500
-3.411700 1.969600
-3.387400 2.007100
-3.363000 2.016700
-3.338600 1.992900
-3.314200 2.008700
-3.289900 2.016600
-3.265500 2.039900
-3.241100 2.070100
-3.216700 2.157200
-3.192300 2.374300
-3.168000 2.465500
-3.143600 2.551400
-3.119200 2.306000
-3.094800 2.214600
-3.070400 2.224500
-3.046100 2.162300
-3.021700 2.083200
-2.997300 2.063000
-2.972900 2.071700
-2.948600 2.111400
-2.924200 2.243400
-2.899800 2.047200
-2.875400 2.025400
-2.851000 1.257600
-2.826700 1.168900
-2.802300 0.932300
-2.777900 0.839800
-2.753500 0.743200
-2.729100 0.642300
-2.704800 0.542000
-2.680400 0.450000
-2.656000 0.371200
-2.631600 0.314400
-2.607300 0.205000
-2.582900 0.065000
-2.558500 0.068800
-2.534100 0.074300
-2.509700 0.080000
-2.485400 0.085800
-2.461000 0.091900
-2.436600 0.098700
-2.412200 0.105900
-2.387800 0.113500
-2.363500 0.140100
-2.339100 0.271400
-2.314700 0.762500
-2.290300 0.997900
-2.266000 1.180000
-2.241600 1.485100
-2.217200 2.094200
-2.192800 2.647500
-2.168400 2.679400
-2.144100 2.791400
-2.119700 2.915600
-2.095300 3.543900
-2.070900 2.862700
-2.046500 2.676200
-2.022200 2.494400
-1.997800 2.339400
-1.973400 2.197400
-1.949000 2.065800
-1.924700 1.940100
-1.900300 1.847700
-1.875900 1.760800
-1.851500 1.691800
-1.827100 1.632400
-1.802800 1.580900
-1.778400 1.502800
-1.754000 1.429200
-1.729600 1.378200
-1.705200 1.310200
-1.680900 1.283900
-1.656500 1.260300
-1.632100 1.239400
-1.607700 1.220700
-1.583300 1.211800
-1.559000 1.193200
-1.534600 1.176600
-1.510200 1.162800
-1.485800 1.151100
-1.461500 1.124200
-1.437100 1.124700
-1.412700 1.127300
-1.388300 1.131900
-1.363900 1.138600
-1.339600 1.146300
-1.315200 1.151800
-1.290800 1.157000
-1.266400 1.160600
-1.242000 1.164100
-1.217700 1.184000
-1.193300 1.198100
-1.168900 1.215900
-1.144500 1.240700
-1.120200 1.279800
-1.095800 1.303000
-1.071400 1.351300
-1.047000 1.386700
-1.022600 1.402400
-0.998300 1.392200
-0.973900 1.346400
-0.949500 1.276000
-0.925100 1.227500
-0.900700 1.178900
-0.876400 1.123500
-0.852000 1.096200
-0.827600 1.071300
-0.803200 1.078600
-0.778900 1.076100
-0.754500 1.076800
-0.730100 1.080100
-0.705700 1.085600
-0.681300 1.068600
-0.657000 1.067600
-0.632600 1.068200
-0.608200 1.070000
-0.583800 1.072700
-0.559400 1.075600
-0.535100 1.078800
-0.510700 1.081900
-0.486300 1.085200
-0.461900 1.089100
-0.437600 1.095000
-0.413200 1.100800
-0.388800 1.110200
-0.364400 1.120300
-0.340000 1.130700
-0.315700 1.140600
-0.291300 1.148800
-0.266900 1.156300
-0.242500 1.162900
-0.218100 1.167600
-0.193800 1.173400
-0.169400 1.180700
-0.145000 1.194800
-0.120600 1.222900
-0.096300 1.264500
-0.071900 1.327800
-0.047500 1.424600
-0.023100 1.459200
0.001300 1.487900
0.025600 1.512300
0.050000 1.528600
0.074400 1.538900
0.098800 1.550400
0.123200 1.565700
0.147500 1.580600
0.171900 1.601800
0.196300 1.520500
0.220700 1.463100
0.245000 1.445200
0.269400 1.423200
0.293800 1.393000
0.318200 1.350000
0.342600 1.328400
0.366900 1.323600
0.391300 1.319600
0.415700 1.339800
0.440100 1.369800
0.464500 1.401600
0.488800 1.434700
0.513200 1.471100
0.537600 1.513900
0.562000 1.560800
0.586400 1.592500
0.610700 1.611500
0.635100 1.648300
0.659500 1.688300
0.683900 1.736000
0.708200 1.860500
0.732600 1.964700
0.757000 2.008800
0.781400 2.033600
0.805800 2.062300
0.830100 2.121600
0.854500 2.092500
0.878900 2.075500
0.903300 2.082400
0.927700 2.092000
0.952000 2.141400
0.976400 2.194500
1.000800 2.250400
1.025200 2.308600
1.049500 2.359200
1.073900 2.421100
1.098300 2.461200
1.122700 2.468300
1.147100 2.470900
1.171400 2.482700
1.195800 2.504900
1.220200 2.533400
1.244600 2.559200
1.269000 2.630400
1.293300 2.701100
1.317700 2.671900
1.342100 2.428800
1.366500 2.245200
1.390800 2.200300
1.415200 2.173100
1.439600 2.151700
1.464000 2.139300
1.488400 2.119300
1.512700 2.143000
1.537100 2.141900
1.561500 2.146900
1.585900 2.154300
1.610300 2.198500
1.634600 2.259400
1.659000 2.324200
1.683400 2.404100
1.707800 2.443800
1.732100 2.491600
1.756500 2.354700
1.780900 2.403300
1.805300 2.409500
1.829700 2.416300
1.854000 2.437900
1.878400 2.529200
1.902800 2.662600
1.927200 2.744700
1.951600 2.730600
1.975900 2.661100
2.000300 2.672300
2.024700 2.683000
2.049100 2.685300
2.073400 2.646400
2.097800 2.688500
2.122200 2.816300
2.146600 3.020000
2.171000 3.341500
2.195300 3.580000
2.219700 3.761000
2.244100 3.860000
2.268500 3.847900
2.292900 3.941500
2.317200 4.467500
2.341600 4.459200
2.366000 4.256000
2.390400 4.154500
2.414700 3.996100
2.439100 3.905600
2.463500 3.835000
2.487900 3.853300
2.512300 3.782500
2.536600 3.684500
2.561000 3.596500
2.585400 3.479600
2.609800 3.408300
2.634200 3.370500
2.658500 3.322200
2.682900 3.249800
2.707300 3.185800
2.731700 3.117100
2.756100 3.006500
2.780400 2.909300
2.804800 2.856800
2.829200 2.841500
2.853600 2.863500
2.877900 2.848600
2.902300 2.754000
2.926700 2.651800
2.951100 2.541000
2.975500 2.416700
2.999800 2.293900
3.024200 2.205900
3.048600 2.144200
3.073000 2.086200
3.097400 2.022100
3.121700 1.954100
3.146100 1.887200
3.170500 1.819300
3.194900 1.750600
3.219200 1.690500
3.243600 1.645800
3.268000 1.598700
3.292400 1.532700
3.316800 1.481600
3.341100 1.439200
3.365500 1.399500
3.389900 1.359900
3.414300 1.317600
3.438700 1.278600
3.463000 1.244600
3.487400 1.231800
3.511800 1.216500
3.536200 1.181500
3.560500 1.131600
3.584900 1.080600
3.609300 1.043400
3.633700 1.005400
3.658100 0.969700
3.682400 0.931400
3.706800 0.891800
3.731200 0.854800
3.755600 0.823300
3.780000 0.798100
3.804300 0.771000
3.828700 0.740800
3.853100 0.711900
3.877500 0.673400
3.901800 0.630900
3.926200 0.588200
3.950600 0.546400
3.975000 0.513300
3.999400 0.505000
4.023700 0.448600
4.048100 0.365700
4.072500 0.301400
4.096900 0.246300
4.121300 0.200700
4.145600 0.184900
4.170000 0.149200
4.194400 0.063000
4.218800 0.008100
4.243100 0.000000
4.267500 0.000200
4.291900 0.000500
4.316300 0.001100
4.340700 0.001800
4.365000 0.002700
4.389400 0.003800
4.413800 0.005100
4.438200 0.006600
4.462600 0.008200
4.486900 0.010000
4.511300 0.012100
4.535700 0.014300
4.560100 0.016600
4.584400 0.019300
4.608800 0.023000
4.633200 0.028200
4.657600 0.033400
4.682000 0.037600
4.706300 0.041600
4.730700 0.045600
4.755100 0.049400
4.779500 0.053100
4.803900 0.056700
4.828200 0.060200
4.852600 0.063600
4.877000 0.067900
4.901400 0.072400
4.925800 0.077100
4.950100 0.081800
4.974500 0.086700
4.998900 0.091700
5.023300 0.096800
5.047600 0.102000
5.072000 0.107400
5.096400 0.112900
5.120800 0.118500
5.145200 0.124200
5.169500 0.130200
5.193900 0.136200
5.218300 0.142800
5.242700 0.149800
5.267100 0.157500
5.291400 0.165600
5.315800 0.173000
5.340200 0.180200
5.364600 0.187500
5.388900 0.195000
5.413300 0.202500
5.437700 0.210200
5.462100 0.218000
5.486500 0.225900
5.510800 0.234000
5.535200 0.242100
5.559600 0.250200
5.584000 0.259500
5.608400 0.270300
5.632700 0.281900
5.657100 0.293300
5.681500 0.305100
5.705900 0.317200
5.730200 0.329200
5.754600 0.340400
5.779000 0.352000
5.803400 0.364100
5.827800 0.377800
5.852100 0.393000
5.876500 0.414600
5.900900 0.449900
5.925300 0.485900
5.949700 0.522000
5.974000 0.558000
5.998400 0.593000
6.022800 0.624800
6.047200 0.656100
6.071500 0.686200
6.095900 0.715700
6.120300 0.698700
6.144700 0.695900
6.169100 0.713400
6.193400 0.730800
6.217800 0.748900
6.242200 0.767600
6.266600 0.788400
6.291000 0.813800
6.315300 0.840300
6.339700 0.865100
6.364100 0.890900
6.388500 0.916900
6.412800 0.944100
6.437200 0.972700
6.461600 1.002300
6.486000 1.032500
6.510400 1.074400
6.534700 1.152300
6.559100 1.224800
6.583500 1.292800
6.607900 1.354000
6.632300 1.446300
6.656600 1.639900
6.681000 1.791000
6.705400 1.860300
6.729800 1.919200
6.754100 1.955400
6.778500 1.976600
6.802900 1.964500
6.827300 1.935000
6.851700 1.953400
6.876000 1.942800
6.900400 1.918500
6.924800 1.893500
6.949200 1.861800
6.973600 1.834300
6.997900 1.807300
7.022300 1.809100
7.046700 1.812200
7.071100 1.815600
7.095500 1.818300
7.119800 1.822100
7.144200 1.824100
7.168600 1.818600
7.193000 1.809500
7.217300 1.805800
7.241700 1.802300
7.266100 1.797200
7.290500 1.794900
7.314900 1.801200
7.339200 1.820700
7.363600 1.854500
7.388000 1.891400
7.412400 1.924500
7.436800 1.953900
7.461100 2.004800
7.485500 2.071200
7.509900 2.106500
7.534300 2.157900
7.558600 2.249700
7.583000 2.373400
7.607400 2.761200
7.631800 2.714200
7.656200 2.628600
7.680500 2.543300
7.704900 2.415000
7.729300 2.231700
7.753700 2.071600
7.778100 1.841600
7.802400 1.807400
7.826800 1.811700
7.851200 1.774300
7.875600 1.734700
7.899900 1.698700
7.924300 1.670700
7.948700 1.645400
7.973100 1.622800
7.997500 1.607400
8.021800 1.612600
8.046200 1.847900
8.070600 1.446200
8.095000 1.428200
8.119400 1.416100
8.143700 1.368700
8.168100 1.308500
8.192500 1.294600
8.216900 1.410900
8.241200 1.303500
8.265600 1.228000
8.290000 1.392500
8.314400 1.482700
8.338800 1.676500
8.363100 0.000000
8.387500 0.000000
8.411900 0.000000
8.436300 0.000000
8.460700 0.000000
8.485000 0.000000
8.509400 0.000000
8.533800 0.000000
8.558200 0.000000
8.582500 0.035000
8.606900 0.057200
8.631300 0.083300
8.655700 0.113200
8.680100 0.155000
8.704400 0.305000
8.728800 0.560400
8.753200 0.849800
8.777600 1.043500
8.802000 1.166200
8.826300 1.360200
8.850700 1.617000
8.875100 1.877400
8.899500 2.093900
8.923800 2.250000
8.948200 2.386500
8.972600 2.436400
8.997000 2.463800
9.021400 2.478100
9.045700 2.466700
9.070100 2.559000
9.094500 2.678900
9.118900 2.811200
9.143300 2.966800
9.167600 3.310200
9.192000 3.906900
9.216400 3.939000
9.240800 3.899800
9.265200 3.644900
9.289500 3.327200
9.313900 3.089600
9.338300 3.155000
9.362700 3.406000
9.387000 3.796100
9.411400 4.327400
9.435800 4.504600
9.460200 4.854800
9.484600 5.199900
9.508900 4.919000
9.533300 4.687700
9.557700 4.068500
9.582100 3.897500
9.606500 3.741900
9.630800 3.577600
9.655200 3.433300
9.679600 3.293600
9.704000 3.063600
9.728300 2.738000
9.752700 2.412800
9.777100 2.324800
9.801500 2.087000
9.825900 1.872900
9.850200 1.758900
9.874600 1.631100
9.899000 1.520400
9.923400 1.425300
9.947800 1.341800
9.972100 1.266300
9.996500 1.234100
10.020900 1.190700
10.045300 1.163800
10.069600 1.136900
10.094000 1.115100
10.118400 1.093900
10.142800 1.070000
10.167200 1.097400
10.191500 1.089200
10.215900 1.086200
10.240300 1.030200
10.264700 0.859000
10.289100 0.771400
10.313400 0.782200
10.337800 0.786400
10.362200 0.780300
10.386600 0.776700
10.410900 0.771400
10.435300 0.769200
10.459700 0.769600
10.484100 0.771000
10.508500 0.773900
10.532800 0.773000
10.557200 0.754600
10.581600 0.748800
10.606000 0.753900
10.630400 0.782900
10.654700 0.813500
10.679100 0.841500
10.703500 0.872000
10.727900 0.901700
10.752200 0.933500
10.776600 0.970100
10.801000 1.006100
10.825400 1.048600
10.849800 1.101300
10.874100 1.170100
10.898500 1.251600
10.922900 1.348600
10.947300 1.447300
10.971700 1.522700
10.996000 1.591400
11.020400 1.761400
11.044800 1.883400
11.069200 2.017300
11.093500 2.185400
11.117900 2.383500
11.142300 2.687700
11.166700 3.084200
11.191100 3.634300
11.215400 3.992500
11.239800 4.188800
11.264200 4.140100
11.288600 3.913400
11.313000 4.145900
11.337300 4.541100
11.361700 4.963500
11.386100 4.822900
11.410500 4.632900
11.434900 4.313500
11.459200 3.856100
11.483600 3.527300
11.508000 3.401300
11.532400 3.277300
11.556700 3.033600
11.581100 2.654900
11.605500 2.509600
11.629900 2.407600
11.654300 2.363000
11.678600 2.336600
11.703000 2.293100
11.727400 2.227400
11.751800 2.182700
11.776200 2.154300
11.800500 2.125800
11.824900 2.061700
11.849300 2.019000
11.873700 1.976000
11.898000 1.884100
11.922400 1.789400
11.946800 1.691800
11.971200 1.570000
11.995600 1.506300
12.019900 1.455400
12.044300 1.390700
12.068700 1.371900
12.093100 1.507700
12.117500 1.750700
12.141800 2.149200
12.166200 2.375200
12.190600 2.562200
12.215000 3.061100
12.239300 3.272300
12.263700 3.392200
12.288100 3.420900
12.312500 3.336500
12.336900 3.211200
12.361200 3.024100
12.385600 2.872500
12.410000 2.746900
12.434400 2.613100
12.458800 2.478800
12.483100 2.273200
12.507500 2.069000
12.531900 1.999700
12.556300 2.031700
12.580600 2.065900
12.605000 2.095700
12.629400 2.117900
12.653800 2.130300
12.678200 2.132900
12.702500 2.233800
12.726900 2.224400
12.751300 2.231800
12.775700 2.230000
12.800100 2.200200
12.824400 2.175500
12.848800 2.180100
12.873200 2.235300
12.897600 2.286300
12.921900 2.332600
12.946300 2.436000
12.970700 2.451800
12.995100 2.286100
13.019500 2.188600
13.043800 2.049200
13.068200 1.882900
13.092600 1.773500
13.117000 1.727300
13.141400 1.687400
13.165700 1.652900
13.190100 1.614800
13.214500 1.605500
13.238900 1.560000
13.263200 1.517200
13.287600 1.464500
13.312000 1.441900
13.336400 1.420600
13.360800 1.400800
13.385100 1.382800
13.409500 1.364100
13.433900 1.336600
13.458300 1.311300
13.482700 1.292400
13.507000 1.271000
13.531400 1.256500
13.555800 1.256400
13.580200 1.252800
