set title 'mp-1219477 - Density of States'
set xlabel 'Energy (eV)'
set ylabel 'DOS (states/eV)'
set grid
set xrange [-10:10]
set yrange [0:7.936]
set xzeroaxis lt -1
set terminal png size 800,600
set output 'mp-1219477_dos_gnuplot.png'
plot '-' using 1:2 with lines title 'DOS'
-7.658100 0.000000
-7.643100 0.000000
-7.628100 0.000000
-7.613100 0.000000
-7.598200 0.000000
-7.583200 0.000000
-7.568200 0.000000
-7.553200 0.000000
-7.538200 0.000000
-7.523200 0.000000
-7.508300 0.000000
-7.493300 0.000000
-7.478300 0.000000
-7.463300 0.000000
-7.448300 0.000000
-7.433400 0.000000
-7.418400 0.000000
-7.403400 0.000000
-7.388400 0.000000
-7.373400 0.000000
-7.358400 0.000000
-7.343500 0.000000
-7.328500 0.000000
-7.313500 0.000000
-7.298500 0.000000
-7.283500 0.000000
-7.268600 0.000000
-7.253600 0.000000
-7.238600 0.000000
-7.223600 0.000000
-7.208600 0.000000
-7.193600 0.000000
-7.178700 0.000000
-7.163700 0.000000
-7.148700 0.000000
-7.133700 0.000000
-7.118700 0.000000
-7.103700 0.000000
-7.088800 0.000000
-7.073800 0.000000
-7.058800 0.000000
-7.043800 0.000000
-7.028800 0.000000
-7.013900 0.000000
-6.998900 0.000000
-6.983900 0.000000
-6.968900 0.000000
-6.953900 0.000000
-6.938900 0.000000
-6.924000 0.000000
-6.909000 0.000000
-6.894000 0.000000
-6.879000 0.000000
-6.864000 0.000000
-6.849100 0.000000
-6.834100 0.000000
-6.819100 0.000000
-6.804100 0.000000
-6.789100 0.000000
-6.774100 0.000000
-6.759200 0.000000
-6.744200 0.000000
-6.729200 0.000000
-6.714200 0.000000
-6.699200 0.000000
-6.684200 0.000000
-6.669300 0.000000
-6.654300 0.000000
-6.639300 0.000000
-6.624300 0.000000
-6.609300 0.000000
-6.594400 0.000000
-6.579400 0.000000
-6.564400 0.000000
-6.549400 0.000000
-6.534400 0.000000
-6.519400 0.000000
-6.504500 0.000000
-6.489500 0.000000
-6.474500 0.000000
-6.459500 0.000000
-6.444500 0.000000
-6.429600 0.000100
-6.414600 0.000300
-6.399600 0.001400
-6.384600 0.004800
-6.369600 0.013900
-6.354600 0.033900
-6.339700 0.069900
-6.324700 0.122600
-6.309700 0.184300
-6.294700 0.242000
-6.279700 0.287600
-6.264700 0.328700
-6.249800 0.387400
-6.234800 0.484100
-6.219800 0.617100
-6.204800 0.756200
-6.189800 0.856400
-6.174900 0.881800
-6.159900 0.825000
-6.144900 0.713600
-6.129900 0.602800
-6.114900 0.552500
-6.099900 0.595600
-6.085000 0.717200
-6.070000 0.865200
-6.055000 0.992000
-6.040000 1.093200
-6.025000 1.206200
-6.010100 1.363200
-5.995100 1.541900
-5.980100 1.661500
-5.965100 1.636600
-5.950100 1.445500
-5.935100 1.158800
-5.920200 0.902500
-5.905200 0.782700
-5.890200 0.824000
-5.875200 0.962700
-5.860200 1.097500
-5.845200 1.162500
-5.830300 1.174400
-5.815300 1.216300
-5.800300 1.370900
-5.785300 1.649000
-5.770300 1.968200
-5.755400 2.200500
-5.740400 2.258300
-5.725400 2.155200
-5.710400 1.990500
-5.695400 1.871200
-5.680400 1.842900
-5.665500 1.884700
-5.650500 1.954000
-5.635500 2.021200
-5.620500 2.063100
-5.605500 2.046300
-5.590600 1.934100
-5.575600 1.717500
-5.560600 1.439800
-5.545600 1.194600
-5.530600 1.093500
-5.515600 1.215700
-5.500700 1.569600
-5.485700 2.086800
-5.470700 2.649400
-5.455700 3.132700
-5.440700 3.443800
-5.425700 3.546400
-5.410800 3.467900
-5.395800 3.289900
-5.380800 3.120400
-5.365800 3.050600
-5.350800 3.116400
-5.335900 3.284800
-5.320900 3.472400
-5.305900 3.586200
-5.290900 3.568500
-5.275900 3.426400
-5.260900 3.231700
-5.246000 3.086500
-5.231000 3.067700
-5.216000 3.186100
-5.201000 3.395100
-5.186000 3.642700
-5.171100 3.913800
-5.156100 4.225200
-5.141100 4.585900
-5.126100 4.960200
-5.111100 5.262900
-5.096100 5.395800
-5.081200 5.308300
-5.066200 5.038100
-5.051200 4.700200
-5.036200 4.434800
-5.021200 4.348900
-5.006200 4.472700
-4.991300 4.744700
-4.976300 5.034200
-4.961300 5.199300
-4.946300 5.153500
-4.931300 4.893500
-4.916400 4.474300
-4.901400 3.972000
-4.886400 3.474600
-4.871400 3.080000
-4.856400 2.855800
-4.841400 2.787500
-4.826500 2.783100
-4.811500 2.739500
-4.796500 2.604400
-4.781500 2.388000
-4.766500 2.138600
-4.751600 1.909900
-4.736600 1.731800
-4.721600 1.598000
-4.706600 1.483200
-4.691600 1.373400
-4.676600 1.273100
-4.661700 1.185800
-4.646700 1.099400
-4.631700 0.995200
-4.616700 0.866700
-4.601700 0.726700
-4.586700 0.594300
-4.571800 0.478500
-4.556800 0.375300
-4.541800 0.278000
-4.526800 0.189500
-4.511800 0.123500
-4.496900 0.099600
-4.481900 0.139700
-4.466900 0.266100
-4.451900 0.488600
-4.436900 0.786000
-4.421900 1.103800
-4.407000 1.386500
-4.392000 1.622300
-4.377000 1.843300
-4.362000 2.069500
-4.347000 2.257000
-4.332000 2.323900
-4.317100 2.233700
-4.302100 2.041900
-4.287100 1.854000
-4.272100 1.738700
-4.257100 1.688100
-4.242200 1.650900
-4.227200 1.594900
-4.212200 1.530100
-4.197200 1.481200
-4.182200 1.447200
-4.167200 1.396500
-4.152300 1.296900
-4.137300 1.147300
-4.122300 0.983600
-4.107300 0.863800
-4.092300 0.846500
-4.077400 0.962900
-4.062400 1.186400
-4.047400 1.426700
-4.032400 1.576700
-4.017400 1.583400
-4.002400 1.482300
-3.987500 1.362000
-3.972500 1.299300
-3.957500 1.323300
-3.942500 1.425500
-3.927500 1.578100
-3.912500 1.733100
-3.897600 1.817400
-3.882600 1.762200
-3.867600 1.554100
-3.852600 1.259100
-3.837600 0.990900
-3.822700 0.848100
-3.807700 0.862800
-3.792700 0.986700
-3.777700 1.122700
-3.762700 1.184500
-3.747700 1.146700
-3.732800 1.047800
-3.717800 0.954100
-3.702800 0.914700
-3.687800 0.935000
-3.672800 0.981500
-3.657900 1.015100
-3.642900 1.031100
-3.627900 1.064700
-3.612900 1.153500
-3.597900 1.293300
-3.582900 1.438000
-3.568000 1.539400
-3.553000 1.584600
-3.538000 1.598600
-3.523000 1.620200
-3.508000 1.674400
-3.493000 1.758500
-3.478100 1.848500
-3.463100 1.925400
-3.448100 2.000800
-3.433100 2.105600
-3.418100 2.240700
-3.403200 2.348600
-3.388200 2.349300
-3.373200 2.206400
-3.358200 1.950300
-3.343200 1.646200
-3.328200 1.362700
-3.313300 1.174000
-3.298300 1.165500
-3.283300 1.402000
-3.268300 1.866200
-3.253300 2.421800
-3.238400 2.854900
-3.223400 2.989900
-3.208400 2.806900
-3.193400 2.464000
-3.178400 2.196500
-3.163400 2.171400
-3.148500 2.407400
-3.133500 2.797500
-3.118500 3.181600
-3.103500 3.410600
-3.088500 3.394900
-3.073500 3.146600
-3.058600 2.796200
-3.043600 2.552300
-3.028600 2.609700
-3.013600 3.049800
-2.998600 3.792200
-2.983700 4.631400
-2.968700 5.344600
-2.953700 5.804500
-2.938700 6.019600
-2.923700 6.081900
-2.908700 6.072800
-2.893800 6.010700
-2.878800 5.879500
-2.863800 5.691200
-2.848800 5.501100
-2.833800 5.352700
-2.818900 5.222500
-2.803900 5.036000
-2.788900 4.744900
-2.773900 4.381400
-2.758900 4.039900
-2.743900 3.816000
-2.729000 3.759400
-2.714000 3.858400
-2.699000 4.049700
-2.684000 4.241600
-2.669000 4.348600
-2.654000 4.319800
-2.639100 4.145600
-2.624100 3.847000
-2.609100 3.472300
-2.594100 3.102200
-2.579100 2.837800
-2.564200 2.751900
-2.549200 2.831500
-2.534200 2.970300
-2.519200 3.040700
-2.504200 2.994800
-2.489200 2.900400
-2.474300 2.874100
-2.459300 2.975900
-2.444300 3.165100
-2.429300 3.357300
-2.414300 3.512300
-2.399400 3.651700
-2.384400 3.785600
-2.369400 3.839300
-2.354400 3.680200
-2.339400 3.233200
-2.324400 2.570600
-2.309500 1.884500
-2.294500 1.364600
-2.279500 1.093600
-2.264500 1.040800
-2.249500 1.130300
-2.234500 1.298900
-2.219600 1.497100
-2.204600 1.667600
-2.189600 1.757000
-2.174600 1.756900
-2.159600 1.712800
-2.144700 1.676300
-2.129700 1.653500
-2.114700 1.611000
-2.099700 1.531100
-2.084700 1.449000
-2.069700 1.427900
-2.054800 1.503300
-2.039800 1.654700
-2.024800 1.829600
-2.009800 1.981200
-1.994800 2.073400
-1.979900 2.069100
-1.964900 1.941900
-1.949900 1.711100
-1.934900 1.447200
-1.919900 1.225400
-1.904900 1.073800
-1.890000 0.976500
-1.875000 0.917700
-1.860000 0.906200
-1.845000 0.955200
-1.830000 1.058400
-1.815000 1.201100
-1.800100 1.387300
-1.785100 1.633600
-1.770100 1.923700
-1.755100 2.175800
-1.740100 2.275000
-1.725200 2.152500
-1.710200 1.838700
-1.695200 1.440700
-1.680200 1.076200
-1.665200 0.824600
-1.650200 0.719200
-1.635300 0.756400
-1.620300 0.903300
-1.605300 1.108900
-1.590300 1.322000
-1.575300 1.502700
-1.560400 1.615700
-1.545400 1.619400
-1.530400 1.478900
-1.515400 1.202100
-1.500400 0.857200
-1.485400 0.543100
-1.470500 0.341600
-1.455500 0.291000
-1.440500 0.392600
-1.425500 0.622000
-1.410500 0.931100
-1.395500 1.251900
-1.380600 1.516900
-1.365600 1.690300
-1.350600 1.785200
-1.335600 1.849900
-1.320600 1.934800
-1.305700 2.064700
-1.290700 2.231300
-1.275700 2.404800
-1.260700 2.551700
-1.245700 2.648100
-1.230700 2.682600
-1.215800 2.649600
-1.200800 2.549100
-1.185800 2.399300
-1.170800 2.250700
-1.155800 2.175800
-1.140900 2.222800
-1.125900 2.363000
-1.110900 2.485400
-1.095900 2.462500
-1.080900 2.241900
-1.065900 1.885900
-1.051000 1.528500
-1.036000 1.287600
-1.021000 1.204400
-1.006000 1.249400
-0.991000 1.374800
-0.976000 1.556900
-0.961100 1.789400
-0.946100 2.045900
-0.931100 2.255100
-0.916100 2.323900
-0.901100 2.199700
-0.886200 1.927400
-0.871200 1.644700
-0.856200 1.499000
-0.841200 1.545000
-0.826200 1.712800
-0.811200 1.876000
-0.796300 1.949500
-0.781300 1.922100
-0.766300 1.816900
-0.751300 1.648800
-0.736300 1.432200
-0.721400 1.206600
-0.706400 1.025600
-0.691400 0.913600
-0.676400 0.843000
-0.661400 0.763800
-0.646400 0.654000
-0.631500 0.537500
-0.616500 0.453800
-0.601500 0.416000
-0.586500 0.398700
-0.571500 0.364100
-0.556500 0.295300
-0.541600 0.205300
-0.526600 0.120700
-0.511600 0.059600
-0.496600 0.024700
-0.481600 0.008600
-0.466700 0.002500
-0.451700 0.000600
-0.436700 0.000100
-0.421700 0.000000
-0.406700 0.000000
-0.391700 0.000000
-0.376800 0.000000
-0.361800 0.000000
-0.346800 0.000000
-0.331800 0.000000
-0.316800 0.000000
-0.301800 0.000000
-0.286900 0.000000
-0.271900 0.000000
-0.256900 0.000000
-0.241900 0.000000
-0.226900 0.000000
-0.212000 0.000000
-0.197000 0.000000
-0.182000 0.000000
-0.167000 0.000000
-0.152000 0.000000
-0.137000 0.000000
-0.122100 0.000000
-0.107100 0.000000
-0.092100 0.000000
-0.077100 0.000000
-0.062100 0.000000
-0.047200 0.000000
-0.032200 0.000000
-0.017200 0.000000
-0.002200 0.000000
0.012800 0.000000
0.027800 0.000000
0.042700 0.000000
0.057700 0.000000
0.072700 0.000000
0.087700 0.000000
0.102700 0.000000
0.117700 0.000000
0.132600 0.000000
0.147600 0.000000
0.162600 0.000000
0.177600 0.000000
0.192600 0.000000
0.207500 0.000000
0.222500 0.000000
0.237500 0.000000
0.252500 0.000000
0.267500 0.000000
0.282500 0.000000
0.297400 0.000000
0.312400 0.000000
0.327400 0.000000
0.342400 0.000000
0.357400 0.000000
0.372300 0.000000
0.387300 0.000000
0.402300 0.000000
0.417300 0.000000
0.432300 0.000000
0.447300 0.000000
0.462200 0.000000
0.477200 0.000000
0.492200 0.000000
0.507200 0.000000
0.522200 0.000000
0.537200 0.000000
0.552100 0.000000
0.567100 0.000000
0.582100 0.000000
0.597100 0.000000
0.612100 0.000000
0.627000 0.000000
0.642000 0.000000
0.657000 0.000000
0.672000 0.000000
0.687000 0.000000
0.702000 0.000000
0.716900 0.000000
0.731900 0.000000
0.746900 0.000000
0.761900 0.000000
0.776900 0.000000
0.791800 0.000000
0.806800 0.000000
0.821800 0.000000
0.836800 0.000000
0.851800 0.000000
0.866800 0.000000
0.881700 0.000000
0.896700 0.000000
0.911700 0.000000
0.926700 0.000000
0.941700 0.000000
0.956700 0.000000
0.971600 0.000000
0.986600 0.000000
1.001600 0.000000
1.016600 0.000000
1.031600 0.000000
1.046500 0.000000
1.061500 0.000000
1.076500 0.000000
1.091500 0.000000
1.106500 0.000000
1.121500 0.000000
1.136400 0.000000
1.151400 0.000000
1.166400 0.000000
1.181400 0.000100
1.196400 0.000300
1.211300 0.001300
1.226300 0.004500
1.241300 0.013100
1.256300 0.032100
1.271300 0.066900
1.286300 0.120200
1.301200 0.189500
1.316200 0.268500
1.331200 0.351300
1.346200 0.435600
1.361200 0.525200
1.376200 0.633100
1.391100 0.781700
1.406100 0.991300
1.421100 1.263000
1.436100 1.572000
1.451100 1.873600
1.466000 2.112200
1.481000 2.237800
1.496000 2.250200
1.511000 2.245600
1.526000 2.400600
1.541000 2.864900
1.555900 3.626400
1.570900 4.466800
1.585900 5.067800
1.600900 5.202700
1.615900 4.867400
1.630800 4.257900
1.645800 3.634200
1.660800 3.190200
1.675800 3.000200
1.690800 3.029800
1.705800 3.179800
1.720700 3.353600
1.735700 3.519900
1.750700 3.721500
1.765700 4.010600
1.780700 4.371700
1.795700 4.702200
1.810600 4.865100
1.825600 4.773800
1.840600 4.460500
1.855600 4.074500
1.870600 3.789600
1.885500 3.673800
1.900500 3.640600
1.915500 3.538900
1.930500 3.296800
1.945500 2.987600
1.960500 2.776500
1.975400 2.815100
1.990400 3.160700
2.005400 3.741700
2.020400 4.369700
2.035400 4.808100
2.050300 4.892200
2.065300 4.635500
2.080300 4.227000
2.095300 3.895900
2.110300 3.741800
2.125300 3.682300
2.140200 3.568100
2.155200 3.343900
2.170200 3.098800
2.185200 2.995900
2.200200 3.184900
2.215200 3.757000
2.230100 4.700300
2.245100 5.835200
2.260100 6.806400
2.275100 7.214800
2.290100 6.846200
2.305000 5.823800
2.320000 4.545500
2.335000 3.450200
2.350000 2.797700
2.365000 2.606300
2.380000 2.736600
2.394900 3.011100
2.409900 3.283600
2.424900 3.463000
2.439900 3.534900
2.454900 3.581500
2.469800 3.751400
2.484800 4.160000
2.499800 4.785400
2.514800 5.454500
2.529800 5.941400
2.544800 6.099900
2.559700 5.928000
2.574700 5.537900
2.589700 5.077900
2.604700 4.658500
2.619700 4.306900
2.634700 3.974600
2.649600 3.601900
2.664600 3.192100
2.679600 2.826300
2.694600 2.608000
2.709600 2.595100
2.724500 2.780000
2.739500 3.110800
2.754500 3.516200
2.769500 3.923900
2.784500 4.282600
2.799500 4.571100
2.814400 4.772700
2.829400 4.838300
2.844400 4.701200
2.859400 4.351700
2.874400 3.898800
2.889300 3.536300
2.904300 3.422300
2.919300 3.570800
2.934300 3.855900
2.949300 4.130600
2.964300 4.352500
2.979200 4.596100
2.994200 4.945200
3.009200 5.375200
3.024200 5.739200
3.039200 5.862400
3.054200 5.655100
3.069100 5.161300
3.084100 4.528700
3.099100 3.940300
3.114100 3.550100
3.129100 3.435700
3.144000 3.569700
3.159000 3.820900
3.174000 3.998600
3.189000 3.940700
3.204000 3.599600
3.219000 3.071000
3.233900 2.542300
3.248900 2.199000
3.263900 2.144800
3.278900 2.373200
3.293900 2.789200
3.308800 3.253500
3.323800 3.633500
3.338800 3.859200
3.353800 3.959000
3.368800 4.031200
3.383800 4.158500
3.398700 4.341300
3.413700 4.511100
3.428700 4.591900
3.443700 4.539800
3.458700 4.344400
3.473700 4.025700
3.488600 3.640100
3.503600 3.268700
3.518600 2.984800
3.533600 2.834500
3.548600 2.847500
3.563500 3.046600
3.578500 3.421400
3.593500 3.887200
3.608500 4.289100
3.623500 4.477700
3.638500 4.405200
3.653400 4.151900
3.668400 3.864200
3.683400 3.667800
3.698400 3.628100
3.713400 3.753300
3.728300 4.006400
3.743300 4.315300
3.758300 4.583600
3.773300 4.703200
3.788300 4.580100
3.803300 4.191500
3.818200 3.636900
3.833200 3.118100
3.848200 2.842000
3.863200 2.919800
3.878200 3.333100
3.893200 3.970200
3.908100 4.685500
3.923100 5.346000
3.938100 5.855600
3.953100 6.167200
3.968100 6.285000
3.983000 6.252800
3.998000 6.125200
4.013000 5.933200
4.028000 5.661200
4.043000 5.265300
4.058000 4.739700
4.072900 4.178500
4.087900 3.756000
4.102900 3.627400
4.117900 3.837000
4.132900 4.314100
4.147900 4.928100
4.162800 5.528400
4.177800 5.950300
4.192800 6.039700
4.207800 5.726600
4.222800 5.094900
4.237700 4.375000
4.252700 3.843800
4.267700 3.689200
4.282700 3.928000
4.297700 4.428900
4.312700 5.013800
4.327600 5.548000
4.342600 5.957300
4.357600 6.199900
4.372600 6.255100
4.387600 6.144200
4.402500 5.941600
4.417500 5.749300
4.432500 5.651500
4.447500 5.686700
4.462500 5.838600
4.477500 6.039500
4.492400 6.191100
4.507400 6.211600
4.522400 6.081400
4.537400 5.841200
4.552400 5.545500
4.567400 5.225900
4.582300 4.900200
4.597300 4.598800
4.612300 4.356100
4.627300 4.166700
4.642300 3.965800
4.657200 3.680800
4.672200 3.310100
4.687200 2.949300
4.702200 2.738400
4.717200 2.790400
4.732200 3.153100
4.747100 3.802400
4.762100 4.645600
4.777100 5.538500
4.792100 6.320800
4.807100 6.851800
4.822000 7.031000
4.837000 6.823900
4.852000 6.295400
4.867000 5.613900
4.882000 4.995300
4.897000 4.611800
4.911900 4.523000
4.926900 4.661100
4.941900 4.876600
4.956900 5.022500
4.971900 5.025600
4.986900 4.892500
5.001800 4.659400
5.016800 4.360000
5.031800 4.044300
5.046800 3.792900
5.061800 3.666900
5.076700 3.643900
5.091700 3.629600
5.106700 3.552700
5.121700 3.441000
5.136700 3.408900
5.151700 3.581500
5.166600 4.022000
5.181600 4.687600
5.196600 5.413300
5.211600 5.952700
5.226600 6.094300
5.241500 5.795600
5.256500 5.223200
5.271500 4.649300
5.286500 4.288400
5.301500 4.205100
5.316500 4.332700
5.331400 4.539400
5.346400 4.674200
5.361400 4.600400
5.376400 4.253400
5.391400 3.700000
5.406400 3.128700
5.421300 2.746100
5.436300 2.651000
5.451300 2.785900
5.466300 2.999600
5.481300 3.158800
5.496200 3.219000
5.511200 3.205700
5.526200 3.149100
5.541200 3.045000
5.556200 2.879800
5.571200 2.681400
5.586100 2.536100
5.601100 2.543500
5.616100 2.739500
5.631100 3.052000
5.646100 3.338400
5.661000 3.485200
5.676000 3.487800
5.691000 3.437600
5.706000 3.432600
5.721000 3.496900
5.736000 3.576600
5.750900 3.600600
5.765900 3.551500
5.780900 3.494400
5.795900 3.545700
5.810900 3.786700
5.825900 4.173900
5.840800 4.526300
5.855800 4.632100
5.870800 4.398300
5.885800 3.913100
5.900800 3.368100
5.915700 2.926200
5.930700 2.659000
5.945700 2.581100
5.960700 2.704200
5.975700 3.035000
5.990700 3.532700
6.005600 4.092100
6.020600 4.576300
6.035600 4.868900
6.050600 4.916900
6.065600 4.747200
6.080500 4.440800
6.095500 4.077700
6.110500 3.702100
6.125500 3.337200
6.140500 3.010300
6.155500 2.740900
6.170400 2.513900
6.185400 2.285800
6.200400 2.026100
6.215400 1.742200
6.230400 1.463100
6.245400 1.213200
6.260300 1.012000
6.275300 0.891100
6.290300 0.894000
6.305300 1.049200
6.320300 1.343200
6.335200 1.714400
6.350200 2.069600
6.365200 2.313400
6.380200 2.385200
6.395200 2.291300
6.410200 2.110600
6.425100 1.954600
6.440100 1.898200
6.455100 1.933200
6.470100 1.984800
6.485100 1.975900
6.500000 1.886700
6.515000 1.772700
6.530000 1.740000
6.545000 1.895200
6.560000 2.286800
6.575000 2.859500
6.589900 3.455200
6.604900 3.880100
6.619900 4.010900
6.634900 3.868600
6.649900 3.596700
6.664900 3.349600
6.679800 3.182600
6.694800 3.043700
6.709800 2.871400
6.724800 2.680800
6.739800 2.541600
6.754700 2.488900
6.769700 2.485400
6.784700 2.477400
6.799700 2.468800
6.814700 2.527700
6.829700 2.721300
6.844600 3.049000
6.859600 3.434100
6.874600 3.771600
6.889600 3.979500
6.904600 4.016200
6.919500 3.873500
6.934500 3.569700
6.949500 3.143900
6.964500 2.646600
6.979500 2.135200
6.994500 1.676700
7.009400 1.337500
7.024400 1.154300
7.039400 1.112300
7.054400 1.159000
7.069400 1.241300
7.084400 1.324900
7.099300 1.389400
7.114300 1.424700
7.129300 1.443700
7.144300 1.487500
7.159300 1.601500
7.174200 1.793700
7.189200 2.012900
7.204200 2.178700
7.219200 2.246500
7.234200 2.250000
7.249200 2.264600
7.264100 2.321400
7.279100 2.368600
7.294100 2.335200
7.309100 2.233400
7.324100 2.177500
7.339000 2.286500
7.354000 2.566900
7.369000 2.902500
7.384000 3.166700
7.399000 3.343700
7.414000 3.539800
7.428900 3.876000
7.443900 4.362300
7.458900 4.852300
7.473900 5.110600
7.488900 4.961600
7.503900 4.424700
7.518800 3.727400
7.533800 3.164200
7.548800 2.911500
7.563800 2.950300
7.578800 3.134500
7.593700 3.318700
7.608700 3.435600
7.623700 3.493800
7.638700 3.537300
7.653700 3.612700
7.668700 3.746700
7.683600 3.926800
7.698600 4.100900
7.713600 4.215400
7.728600 4.258300
7.743600 4.264500
7.758500 4.284700
7.773500 4.363500
7.788500 4.534500
7.803500 4.793300
7.818500 5.047000
7.833500 5.111000
7.848400 4.817000
7.863400 4.165300
7.878400 3.370600
7.893400 2.740100
7.908400 2.489100
7.923400 2.643100
7.938300 3.077200
7.953300 3.631000
7.968300 4.207700
7.983300 4.793400
7.998300 5.391500
8.013200 5.938700
8.028200 6.296800
8.043200 6.336500
8.058200 6.037200
8.073200 5.515200
8.088200 4.963500
8.103100 4.553700
8.118100 4.363800
8.133100 4.374600
8.148100 4.518900
8.163100 4.728500
8.178100 4.942000
8.193000 5.099400
8.208000 5.167100
8.223000 5.174200
8.238000 5.198800
8.253000 5.287800
8.267900 5.396200
8.282900 5.428500
8.297900 5.344000
8.312900 5.212700
