set title 'mp-12826 - Density of States'
set xlabel 'Energy (eV)'
set ylabel 'DOS (states/eV)'
set grid
set xrange [-10:10]
set yrange [0:48.114]
set xzeroaxis lt -1
set terminal png size 800,600
set output 'mp-12826_dos_gnuplot.png'
plot '-' using 1:2 with lines title 'DOS'
-7.829400 0.000000
-7.816700 0.000000
-7.804100 0.000000
-7.791500 0.000000
-7.778900 0.000000
-7.766200 0.000000
-7.753600 0.000000
-7.741000 0.000000
-7.728400 0.000000
-7.715800 0.000000
-7.703100 0.000000
-7.690500 0.000000
-7.677900 0.000000
-7.665300 0.000000
-7.652600 0.000000
-7.640000 0.000000
-7.627400 0.000000
-7.614800 0.000000
-7.602100 0.000000
-7.589500 0.000000
-7.576900 0.000000
-7.564300 0.000000
-7.551600 0.000000
-7.539000 0.000000
-7.526400 0.000000
-7.513800 0.000000
-7.501100 0.000000
-7.488500 0.000000
-7.475900 0.000000
-7.463300 0.000000
-7.450600 0.000000
-7.438000 0.000000
-7.425400 0.000000
-7.412800 0.000000
-7.400100 0.000000
-7.387500 0.000000
-7.374900 0.000000
-7.362300 0.000000
-7.349600 0.000000
-7.337000 0.000000
-7.324400 0.000000
-7.311800 0.000000
-7.299100 0.000000
-7.286500 0.000000
-7.273900 0.000000
-7.261300 0.000000
-7.248600 0.000000
-7.236000 0.000000
-7.223400 0.000000
-7.210800 0.000000
-7.198100 0.000000
-7.185500 0.000000
-7.172900 0.000000
-7.160300 0.000000
-7.147600 0.000000
-7.135000 0.000000
-7.122400 0.000000
-7.109800 0.000000
-7.097200 0.000000
-7.084500 0.000000
-7.071900 0.000000
-7.059300 0.000000
-7.046700 0.000000
-7.034000 0.000000
-7.021400 0.000000
-7.008800 0.000000
-6.996200 0.000000
-6.983500 0.000000
-6.970900 0.000000
-6.958300 0.000000
-6.945700 0.000000
-6.933000 0.000000
-6.920400 0.000000
-6.907800 0.000000
-6.895200 0.000000
-6.882500 0.000000
-6.869900 0.000000
-6.857300 0.000000
-6.844700 0.000000
-6.832000 0.000000
-6.819400 0.000000
-6.806800 0.000000
-6.794200 0.000000
-6.781500 0.000000
-6.768900 0.000000
-6.756300 0.000000
-6.743700 0.000000
-6.731000 0.000000
-6.718400 0.000000
-6.705800 0.000000
-6.693200 0.000000
-6.680500 0.008000
-6.667900 0.114200
-6.655300 0.220300
-6.642700 0.326500
-6.630000 0.432700
-6.617400 0.538800
-6.604800 0.645000
-6.592200 0.751100
-6.579500 0.857300
-6.566900 0.963400
-6.554300 1.069600
-6.541700 1.175800
-6.529000 1.281900
-6.516400 1.388100
-6.503800 0.746900
-6.491200 0.756900
-6.478600 0.767000
-6.465900 0.777000
-6.453300 0.787000
-6.440700 0.797000
-6.428100 0.807000
-6.415400 0.817100
-6.402800 0.827100
-6.390200 0.837100
-6.377600 0.847100
-6.364900 0.857100
-6.352300 0.867100
-6.339700 0.877200
-6.327100 0.887200
-6.314400 0.897200
-6.301800 0.907200
-6.289200 0.917200
-6.276600 0.927300
-6.263900 0.937300
-6.251300 0.947300
-6.238700 1.054700
-6.226100 1.190600
-6.213400 1.326600
-6.200800 1.462600
-6.188200 1.598500
-6.175600 1.728100
-6.162900 1.847600
-6.150300 1.967100
-6.137700 2.086600
-6.125100 2.206100
-6.112400 2.325600
-6.099800 2.445100
-6.087200 1.788500
-6.074600 1.795300
-6.061900 1.802000
-6.049300 1.808700
-6.036700 1.815400
-6.024100 1.822200
-6.011400 1.839700
-5.998800 1.858500
-5.986200 1.877300
-5.973600 1.896200
-5.960900 1.915000
-5.948300 1.933800
-5.935700 1.952600
-5.923100 1.971400
-5.910400 1.990200
-5.897800 2.009100
-5.885200 2.027900
-5.872600 2.046700
-5.860000 2.065500
-5.847300 2.084300
-5.834700 2.103100
-5.822100 2.121900
-5.809500 2.140800
-5.796800 2.159600
-5.784200 2.165200
-5.771600 2.169800
-5.759000 2.174400
-5.746300 2.179000
-5.733700 2.183600
-5.721100 2.188200
-5.708500 2.192800
-5.695800 2.197400
-5.683200 2.202100
-5.670600 2.206700
-5.658000 2.214200
-5.645300 2.231700
-5.632700 2.249200
-5.620100 2.269300
-5.607500 2.314000
-5.594800 2.373300
-5.582200 2.445200
-5.569600 2.558000
-5.557000 2.665700
-5.544300 2.784000
-5.531700 2.902300
-5.519100 3.020500
-5.506500 3.138700
-5.493800 3.256900
-5.481200 3.375000
-5.468600 3.493100
-5.456000 3.611200
-5.443300 3.729300
-5.430700 3.664600
-5.418100 3.655600
-5.405500 3.666800
-5.392800 3.671700
-5.380200 3.676900
-5.367600 3.656600
-5.355000 3.736200
-5.342300 3.832900
-5.329700 4.643800
-5.317100 4.689400
-5.304500 4.741100
-5.291800 4.988800
-5.279200 5.124200
-5.266600 5.265800
-5.254000 5.394300
-5.241300 5.454100
-5.228700 5.529000
-5.216100 5.622100
-5.203500 5.729900
-5.190900 5.839500
-5.178200 5.945000
-5.165600 6.046000
-5.153000 7.593600
-5.140400 7.388500
-5.127700 7.174000
-5.115100 6.950100
-5.102500 6.718500
-5.089900 6.341300
-5.077200 6.146700
-5.064600 5.969000
-5.052000 5.807500
-5.039400 5.662200
-5.026700 5.543100
-5.014100 5.434200
-5.001500 4.485200
-4.988900 4.500300
-4.976200 4.956700
-4.963600 5.433600
-4.951000 5.931500
-4.938400 6.453600
-4.925700 6.995100
-4.913100 4.354900
-4.900500 4.551900
-4.887900 4.742500
-4.875200 4.961400
-4.862600 5.165900
-4.850000 8.370300
-4.837400 14.246200
-4.824700 20.112300
-4.812100 11.461600
-4.799500 9.796800
-4.786900 8.129600
-4.774200 6.738000
-4.761600 7.568200
-4.749000 6.720400
-4.736400 6.015000
-4.723700 5.316600
-4.711100 4.618100
-4.698500 3.919700
-4.685900 1.790200
-4.673200 1.805300
-4.660600 1.820400
-4.648000 1.835500
-4.635400 1.850500
-4.622700 1.865600
-4.610100 1.880700
-4.597500 1.903100
-4.584900 1.944500
-4.572300 1.997300
-4.559600 2.061500
-4.547000 2.136100
-4.534400 2.219800
-4.521800 2.320900
-4.509100 2.442400
-4.496500 2.562300
-4.483900 2.678600
-4.471300 2.789500
-4.458600 2.896800
-4.446000 3.004100
-4.433400 3.065500
-4.420800 3.020900
-4.408100 3.011300
-4.395500 2.993400
-4.382900 2.948100
-4.370300 2.857200
-4.357600 2.726100
-4.345000 2.739500
-4.332400 2.758700
-4.319800 2.780900
-4.307100 2.803100
-4.294500 2.825300
-4.281900 2.832700
-4.269300 2.784900
-4.256600 2.807100
-4.244000 2.829300
-4.231400 2.851600
-4.218800 2.873800
-4.206100 2.896000
-4.193500 2.918300
-4.180900 2.940500
-4.168300 2.962800
-4.155600 2.985000
-4.143000 3.007200
-4.130400 3.029500
-4.117800 3.051700
-4.105100 3.073600
-4.092500 3.091900
-4.079900 3.106900
-4.067300 3.117900
-4.054600 3.123700
-4.042000 3.129300
-4.029400 3.135000
-4.016800 3.140600
-4.004100 3.146200
-3.991500 3.151900
-3.978900 3.532000
-3.966300 3.606500
-3.953700 3.589000
-3.941000 3.577600
-3.928400 3.572900
-3.915800 3.572200
-3.903200 3.538100
-3.890500 3.562400
-3.877900 3.586600
-3.865300 3.610900
-3.852700 3.635100
-3.840000 3.659400
-3.827400 3.683600
-3.814800 3.707900
-3.802200 3.732100
-3.789500 3.756300
-3.776900 3.780600
-3.764300 3.804800
-3.751700 3.829000
-3.739000 3.853200
-3.726400 3.877500
-3.713800 3.901700
-3.701200 4.284700
-3.688500 4.786000
-3.675900 4.696000
-3.663300 4.606000
-3.650700 4.516000
-3.638000 4.426000
-3.625400 4.336000
-3.612800 4.246000
-3.600200 4.155900
-3.587500 4.065900
-3.574900 3.975900
-3.562300 3.885900
-3.549700 3.920600
-3.537000 4.338100
-3.524400 4.695800
-3.511800 5.053200
-3.499200 5.410300
-3.486500 5.767000
-3.473900 7.462600
-3.461300 43.740300
-3.448700 6.660200
-3.436000 5.560900
-3.423400 4.513200
-3.410800 3.557300
-3.398200 2.948800
-3.385500 2.622300
-3.372900 2.590100
-3.360300 2.573800
-3.347700 2.557500
-3.335100 2.541300
-3.322400 2.525100
-3.309800 2.508900
-3.297200 2.492800
-3.284600 2.476600
-3.271900 2.460600
-3.259300 2.444500
-3.246700 2.643800
-3.234100 3.453800
-3.221400 3.507400
-3.208800 4.687600
-3.196200 5.869700
-3.183600 7.476200
-3.170900 7.124400
-3.158300 4.915100
-3.145700 3.039000
-3.133100 2.722700
-3.120400 2.677200
-3.107800 2.631700
-3.095200 2.586200
-3.082600 2.540700
-3.069900 2.495200
-3.057300 2.449700
-3.044700 2.404200
-3.032100 2.358700
-3.019400 2.313200
-3.006800 4.051500
-2.994200 3.940400
-2.981600 3.829300
-2.968900 3.718200
-2.956300 3.607200
-2.943700 3.496200
-2.931100 3.385200
-2.918400 3.274300
-2.905800 3.163400
-2.893200 2.844400
-2.880600 2.845900
-2.867900 2.939000
-2.855300 3.037600
-2.842700 3.136100
-2.830100 3.234700
-2.817400 3.333300
-2.804800 3.431900
-2.792200 3.530500
-2.779600 3.629200
-2.766900 3.727800
-2.754300 3.826500
-2.741700 3.925100
-2.729100 4.023800
-2.716500 4.122500
-2.703800 4.221100
-2.691200 4.319800
-2.678600 4.418500
-2.666000 4.517200
-2.653300 4.609300
-2.640700 4.068500
-2.628100 3.725600
-2.615500 3.842500
-2.602800 3.959500
-2.590200 4.076500
-2.577600 4.193400
-2.565000 4.310400
-2.552300 4.429000
-2.539700 4.808900
-2.527100 5.272200
-2.514500 7.283500
-2.501800 7.185600
-2.489200 6.493400
-2.476600 6.569800
-2.464000 6.518500
-2.451300 7.516400
-2.438700 2.816800
-2.426100 2.909500
-2.413500 3.002100
-2.400800 3.094800
-2.388200 3.187400
-2.375600 3.280100
-2.363000 3.372700
-2.350300 3.465400
-2.337700 3.406900
-2.325100 4.365100
-2.312500 3.997200
-2.299800 3.739400
-2.287200 3.676400
-2.274600 3.613400
-2.262000 3.550400
-2.249300 4.067000
-2.236700 4.005200
-2.224100 3.943500
-2.211500 3.881800
-2.198800 3.820100
-2.186200 3.758400
-2.173600 3.696700
-2.161000 3.635000
-2.148300 3.597800
-2.135700 3.641100
-2.123100 3.684500
-2.110500 3.727900
-2.097900 3.771200
-2.085200 3.814600
-2.072600 3.857900
-2.060000 3.901300
-2.047400 3.944600
-2.034700 3.988300
-2.022100 4.042600
-2.009500 4.108700
-1.996900 4.192300
-1.984200 4.281000
-1.971600 4.369700
-1.959000 4.458400
-1.946400 4.547200
-1.933700 4.698900
-1.921100 4.799900
-1.908500 4.900900
-1.895900 5.002000
-1.883200 5.103000
-1.870600 5.204200
-1.858000 5.000200
-1.845400 4.576800
-1.832700 4.470700
-1.820100 4.479500
-1.807500 4.489700
-1.794900 4.496700
-1.782200 4.503000
-1.769600 4.509000
-1.757000 4.514500
-1.744400 4.519600
-1.731700 5.574800
-1.719100 5.327100
-1.706500 4.977400
-1.693900 4.537000
-1.681200 4.469700
-1.668600 4.417200
-1.656000 4.376700
-1.643400 4.329000
-1.630700 4.267200
-1.618100 4.187600
-1.605500 4.095400
-1.592900 4.089400
-1.580200 4.090200
-1.567600 4.111000
-1.555000 4.131500
-1.542400 4.151700
-1.529700 4.171700
-1.517100 4.194300
-1.504500 4.200400
-1.491900 4.211500
-1.479300 4.480700
-1.466600 4.098800
-1.454000 3.861700
-1.441400 3.766900
-1.428800 3.772900
-1.416100 3.782800
-1.403500 3.346500
-1.390900 3.132500
-1.378300 3.059900
-1.365600 2.987200
-1.353000 2.914400
-1.340400 2.862300
-1.327800 2.879900
-1.315100 2.785500
-1.302500 2.691600
-1.289900 2.595000
-1.277300 2.544700
-1.264600 2.494900
-1.252000 2.445600
-1.239400 2.396900
-1.226800 2.348700
-1.214100 2.301100
-1.201500 2.254300
-1.188900 2.209600
-1.176300 2.167100
-1.163600 2.126800
-1.151000 2.088800
-1.138400 2.053000
-1.125800 2.019400
-1.113100 1.994900
-1.100500 1.974900
-1.087900 1.950900
-1.075300 1.911900
-1.062600 1.862900
-1.050000 1.815800
-1.037400 1.770900
-1.024800 1.731600
-1.012100 1.697400
-0.999500 1.665000
-0.986900 1.634600
-0.974300 1.606000
-0.961600 1.579300
-0.949000 1.554400
-0.936400 1.531300
-0.923800 1.509900
-0.911100 1.490400
-0.898500 1.472600
-0.885900 1.456600
-0.873300 1.442400
-0.860600 1.430000
-0.848000 1.419400
-0.835400 1.416700
-0.822800 1.415100
-0.810200 1.411300
-0.797500 1.401800
-0.784900 1.391900
-0.772300 1.381900
-0.759700 1.372000
-0.747000 1.362100
-0.734400 1.352100
-0.721800 1.342200
-0.709200 1.332200
-0.696500 1.322300
-0.683900 1.312300
-0.671300 1.302400
-0.658700 1.292400
-0.646000 1.282500
-0.633400 1.272500
-0.620800 1.262500
-0.608200 1.252600
-0.595500 1.242600
-0.582900 1.232600
-0.570300 1.222600
-0.557700 1.212700
-0.545000 1.202700
-0.532400 1.193800
-0.519800 1.185000
-0.507200 1.176200
-0.494500 1.167400
-0.481900 1.158600
-0.469300 1.149800
-0.456700 1.140900
-0.444000 1.132100
-0.431400 1.269900
-0.418800 1.370500
-0.406200 1.372900
-0.393500 1.369900
-0.380900 1.360300
-0.368300 1.342000
-0.355700 1.348300
-0.343000 1.271400
-0.330400 1.195100
-0.317800 1.119800
-0.305200 1.045500
-0.292500 0.972200
-0.279900 0.899900
-0.267300 0.844000
-0.254700 0.794300
-0.242000 0.748300
-0.229400 0.706100
-0.216800 0.667600
-0.204200 0.632900
-0.191600 0.601900
-0.178900 0.573400
-0.166300 0.547200
-0.153700 0.523300
-0.141100 0.501700
-0.128400 0.482400
-0.115800 0.465400
-0.103200 0.451400
-0.090600 0.441900
-0.077900 0.437100
-0.065300 0.434500
-0.052700 0.431900
-0.040100 0.429300
-0.027400 0.426700
-0.014800 0.424100
-0.002200 0.421500
0.010400 0.418900
0.023100 0.416300
0.035700 0.413700
0.048300 0.411100
0.060900 0.408500
0.073600 0.405900
0.086200 0.403300
0.098800 0.400700
0.111400 0.398100
0.124100 0.395500
0.136700 0.392800
0.149300 0.390200
0.161900 0.387600
0.174600 0.385000
0.187200 0.382400
0.199800 0.379800
0.212400 0.377200
0.225100 0.374600
0.237700 0.372000
0.250300 0.369400
0.262900 0.366800
0.275600 0.364200
0.288200 0.361600
0.300800 0.359000
0.313400 0.356400
0.326100 0.353800
0.338700 0.351200
0.351300 0.348600
0.363900 0.346000
0.376600 0.343400
0.389200 0.340800
0.401800 0.338200
0.414400 0.335600
0.427000 0.332900
0.439700 0.330300
0.452300 0.327700
0.464900 0.325100
0.477500 0.436600
0.490200 0.529800
0.502800 0.514400
0.515400 0.499000
0.528000 0.483700
0.540700 0.468300
0.553300 0.452900
0.565900 0.437600
0.578500 0.422200
0.591200 0.406900
0.603800 0.391500
0.616400 0.376200
0.629000 0.360800
0.641700 0.345500
0.654300 0.330200
0.666900 0.314800
0.679500 0.299500
0.692200 0.284100
0.704800 0.268800
0.717400 0.253500
0.730000 0.238100
0.742700 0.222800
0.755300 0.207500
0.767900 0.192200
0.780500 0.176900
0.793200 0.161500
0.805800 0.146200
0.818400 0.130900
0.831000 0.115600
0.843700 0.100300
0.856300 0.085000
0.868900 0.069700
0.881500 0.054400
0.894200 0.039100
0.906800 0.026400
0.919400 1.025900
0.932000 6.301500
0.944700 4.005100
0.957300 1.825600
0.969900 1.550000
0.982500 1.607800
0.995200 1.665500
1.007800 1.723300
1.020400 1.781100
1.033000 1.838900
1.045600 1.896700
1.058300 1.954500
1.070900 2.012400
1.083500 2.070200
1.096100 2.128100
1.108800 2.185900
1.121400 2.243800
1.134000 2.301700
1.146600 2.359600
1.159300 2.417500
1.171900 2.475400
1.184500 2.533300
1.197100 2.591200
1.209800 2.649100
1.222400 2.707100
1.235000 2.765100
1.247600 2.823000
1.260300 3.846900
1.272900 7.023700
1.285500 6.472800
1.298100 1.027700
1.310800 1.015400
1.323400 1.003100
1.336000 0.990700
1.348600 0.978400
1.361300 0.966100
1.373900 0.953700
1.386500 0.941400
1.399100 0.929100
1.411800 0.916700
1.424400 2.079900
1.437000 2.084300
1.449600 2.089300
1.462300 2.094900
1.474900 2.100900
1.487500 2.107600
1.500100 2.114800
1.512800 2.122500
1.525400 2.130800
1.538000 2.162400
1.550600 2.325600
1.563300 2.613200
1.575900 2.901800
1.588500 3.367500
1.601100 3.813700
1.613800 4.054500
1.626400 4.207200
1.639000 4.314000
1.651600 4.427300
1.664200 4.580700
1.676900 4.649200
1.689500 4.626500
1.702100 4.512500
1.714700 4.334300
1.727400 4.120200
1.740000 3.837800
1.752600 3.448500
1.765200 2.949400
1.777900 2.722300
1.790500 2.593900
1.803100 3.250600
1.815700 4.167600
1.828400 4.428400
1.841000 4.362400
1.853600 4.432200
1.866200 4.442900
1.878900 4.433800
1.891500 5.730800
1.904100 7.551900
1.916700 6.391100
1.929400 6.661900
1.942000 6.947100
1.954600 7.246700
1.967200 7.560700
1.979900 7.889000
1.992500 8.243400
2.005100 8.780000
2.017700 8.579900
2.030400 7.838300
2.043000 7.718600
2.055600 7.014600
2.068200 6.526100
2.080900 6.624000
2.093500 6.706800
2.106100 6.748500
2.118700 6.789100
2.131400 6.838500
2.144000 6.874300
2.156600 6.886900
2.169200 6.714100
2.181900 6.405900
2.194500 6.161300
2.207100 5.977400
2.219700 5.897400
2.232400 5.817000
2.245000 5.744800
2.257600 5.688700
2.270200 5.644800
2.282800 5.640500
2.295500 5.797700
2.308100 5.963400
2.320700 6.113300
2.333300 6.281300
2.346000 6.682600
2.358600 7.091600
2.371200 7.427900
2.383800 7.691100
2.396500 8.013700
2.409100 8.221400
2.421700 8.420200
2.434300 8.626700
2.447000 8.814300
2.459600 8.751400
2.472200 8.521300
2.484800 8.551500
2.497500 8.618100
2.510100 8.691900
2.522700 8.792500
2.535300 8.902400
2.548000 9.009400
2.560600 9.103700
2.573200 9.212600
2.585800 9.460300
2.598500 9.823900
2.611100 10.437400
2.623700 10.342900
2.636300 9.809400
2.649000 9.185300
2.661600 8.413200
2.674200 8.322300
2.686800 8.215500
2.699500 8.076700
2.712100 7.943700
2.724700 7.834300
2.737300 7.716300
2.750000 7.619800
2.762600 7.578800
2.775200 7.569500
2.787800 7.616800
2.800500 7.678500
2.813100 7.737300
2.825700 7.785600
2.838300 7.836400
2.851000 7.889900
2.863600 7.886000
2.876200 7.952300
2.888800 8.020400
2.901500 8.090500
2.914100 8.174500
2.926700 8.227900
2.939300 8.246300
2.951900 8.320300
2.964600 8.436500
2.977200 8.557600
2.989800 8.674800
3.002400 8.775000
3.015100 8.814600
3.027700 8.876300
3.040300 8.982100
3.052900 9.169300
3.065600 9.437100
3.078200 9.775800
3.090800 10.096000
3.103400 10.408200
3.116100 11.523000
3.128700 9.081000
3.141300 8.731300
3.153900 8.441400
3.166600 8.231300
3.179200 8.069900
3.191800 8.002800
3.204400 8.006600
3.217100 8.069800
3.229700 8.150400
3.242300 8.207200
3.254900 8.255200
3.267600 8.299200
3.280200 8.391000
3.292800 8.539200
3.305400 8.779600
3.318100 9.155200
3.330700 10.434800
3.343300 11.981800
3.355900 10.389000
3.368600 8.871600
3.381200 8.762600
3.393800 8.711900
3.406400 8.653800
3.419100 8.589100
3.431700 8.507200
3.444300 8.428500
3.456900 8.309500
3.469600 8.255100
3.482200 8.242100
3.494800 8.294400
3.507400 8.433200
3.520100 8.785100
3.532700 9.271900
3.545300 9.893100
3.557900 10.646400
3.570500 11.507500
3.583200 12.024900
3.595800 12.044200
3.608400 11.843500
3.621000 11.596000
3.633700 11.417500
3.646300 11.437400
3.658900 11.787300
3.671500 11.441000
3.684200 11.137200
3.696800 10.995200
3.709400 10.749700
3.722000 10.426300
3.734700 10.064200
3.747300 9.749200
3.759900 9.452100
3.772500 9.201600
3.785200 8.956800
3.797800 8.703900
3.810400 8.337600
3.823000 8.130000
3.835700 8.044200
3.848300 8.003800
3.860900 8.025300
3.873500 8.081600
3.886200 8.128000
3.898800 8.164600
3.911400 8.191400
3.924000 8.206200
3.936700 8.802700
3.949300 9.571300
3.961900 9.933500
3.974500 10.280700
3.987200 10.335200
3.999800 10.344800
4.012400 10.204200
4.025000 9.972000
4.037700 9.716700
4.050300 9.413400
4.062900 9.156700
4.075500 8.923500
4.088200 8.606700
4.100800 8.249800
4.113400 8.208100
4.126000 8.440000
4.138700 8.647100
4.151300 8.837700
4.163900 8.805600
4.176500 8.691500
4.189100 8.588100
4.201800 8.511300
4.214400 8.460600
4.227000 8.405900
4.239600 8.309200
4.252300 8.247700
4.264900 8.337900
4.277500 7.087700
4.290100 6.942700
4.302800 6.871600
4.315400 6.410200
4.328000 5.879000
4.340600 5.532900
4.353300 5.385300
4.365900 5.302300
4.378500 5.266300
4.391100 5.310800
4.403800 5.422300
4.416400 5.778500
4.429000 6.266200
4.441600 6.530800
4.454300 6.607500
4.466900 6.723500
4.479500 6.716200
4.492100 6.689100
4.504800 6.637300
4.517400 6.559300
4.530000 6.498300
4.542600 6.565000
4.555300 6.658100
4.567900 6.781100
4.580500 7.112200
4.593100 7.343400
4.605800 7.634800
4.618400 7.909300
4.631000 8.133700
4.643600 8.307600
4.656300 8.430700
4.668900 8.528200
4.681500 8.597300
4.694100 8.680200
4.706800 8.769800
4.719400 8.905600
4.732000 9.064700
4.744600 9.064900
4.757300 8.896400
4.769900 8.725700
4.782500 8.568700
4.795100 8.547100
4.807700 8.489200
4.820400 8.514200
4.833000 8.594000
4.845600 8.665100
4.858200 8.734800
4.870900 8.765700
4.883500 8.840000
4.896100 9.006300
4.908700 8.732600
4.921400 8.474000
4.934000 8.791800
4.946600 8.637800
4.959200 8.499900
4.971900 8.763300
4.984500 9.106200
4.997100 9.425300
5.009700 10.113200
5.022400 11.365300
5.035000 11.805700
5.047600 11.914700
5.060200 11.560600
5.072900 12.156900
5.085500 10.385800
5.098100 8.888700
5.110700 8.758900
5.123400 9.091100
5.136000 8.948300
5.148600 9.062100
5.161200 8.413800
5.173900 7.997200
5.186500 7.417600
5.199100 7.011500
5.211700 6.888600
5.224400 6.700900
5.237000 6.030200
5.249600 5.589100
5.262200 5.910400
5.274900 6.348300
5.287500 6.912700
5.300100 7.683800
5.312700 8.781700
5.325400 9.726100
5.338000 10.374700
5.350600 8.820700
5.363200 8.535400
5.375900 8.205200
5.388500 8.063500
5.401100 8.713000
5.413700 8.283400
5.426300 8.085900
5.439000 7.913400
5.451600 7.806800
5.464200 7.723300
5.476800 7.650300
5.489500 7.598800
5.502100 7.591400
5.514700 7.610600
5.527300 7.604700
