set title 'mp-2552 - Density of States'
set xlabel 'Energy (eV)'
set ylabel 'DOS (states/eV)'
set grid
set xrange [-10:10]
set yrange [0:35.647]
set xzeroaxis lt -1
set terminal png size 800,600
set output 'mp-2552_dos_gnuplot.png'
plot '-' using 1:2 with lines title 'DOS'
-18.026400 0.000000
-18.006900 0.000000
-17.987400 0.000000
-17.967800 0.000000
-17.948300 0.000000
-17.928800 0.000000
-17.909300 0.000000
-17.889700 0.000000
-17.870200 0.000000
-17.850700 0.000000
-17.831100 0.000000
-17.811600 0.000000
-17.792100 0.000000
-17.772600 0.000000
-17.753000 0.000000
-17.733500 0.000000
-17.714000 0.000000
-17.694400 0.000000
-17.674900 0.000000
-17.655400 0.000000
-17.635800 0.000000
-17.616300 0.000000
-17.596800 0.000000
-17.577300 0.000000
-17.557700 0.000000
-17.538200 0.000000
-17.518700 0.000000
-17.499100 0.000000
-17.479600 0.000000
-17.460100 0.000000
-17.440500 0.000000
-17.421000 0.000000
-17.401500 0.000000
-17.382000 0.000000
-17.362400 0.000000
-17.342900 0.000000
-17.323400 0.000000
-17.303800 0.000000
-17.284300 0.000000
-17.264800 0.000000
-17.245300 0.000000
-17.225700 0.000000
-17.206200 0.000000
-17.186700 0.000000
-17.167100 0.000000
-17.147600 0.000000
-17.128100 0.000000
-17.108500 0.000000
-17.089000 0.000000
-17.069500 0.000000
-17.050000 0.000000
-17.030400 0.000000
-17.010900 0.000000
-16.991400 0.000000
-16.971800 0.000000
-16.952300 0.000000
-16.932800 0.000000
-16.913200 0.000000
-16.893700 0.000000
-16.874200 0.000000
-16.854700 0.000000
-16.835100 0.000000
-16.815600 0.000000
-16.796100 0.000000
-16.776500 0.000000
-16.757000 0.000000
-16.737500 0.000000
-16.718000 0.000000
-16.698400 0.000000
-16.678900 0.000000
-16.659400 0.000000
-16.639800 0.000000
-16.620300 0.000000
-16.600800 0.000000
-16.581200 0.000000
-16.561700 0.000000
-16.542200 0.000000
-16.522700 0.000000
-16.503100 0.000000
-16.483600 0.000000
-16.464100 0.000000
-16.444500 0.000000
-16.425000 0.000000
-16.405500 0.000000
-16.386000 0.000000
-16.366400 0.000000
-16.346900 0.000000
-16.327400 0.000000
-16.307800 0.000000
-16.288300 0.000000
-16.268800 0.000000
-16.249200 0.001200
-16.229700 0.171100
-16.210200 0.270200
-16.190700 0.355500
-16.171100 0.447000
-16.151600 0.489600
-16.132100 0.529400
-16.112500 0.583300
-16.093000 0.639300
-16.073500 0.690100
-16.053900 0.720700
-16.034400 0.755100
-16.014900 0.790200
-15.995400 0.831000
-15.975800 0.874100
-15.956300 0.917100
-15.936800 0.948800
-15.917200 0.976400
-15.897700 1.008900
-15.878200 1.042100
-15.858700 1.075600
-15.839100 1.111400
-15.819600 1.148400
-15.800100 1.186300
-15.780500 1.217900
-15.761000 1.248000
-15.741500 1.277900
-15.721900 1.310200
-15.702400 1.344500
-15.682900 1.379300
-15.663400 1.414800
-15.643800 1.451200
-15.624300 1.489200
-15.604800 1.526900
-15.585200 1.562200
-15.565700 1.597900
-15.546200 1.635600
-15.526700 1.674300
-15.507100 1.715100
-15.487600 1.758700
-15.468100 1.804600
-15.448500 1.852500
-15.429000 1.902800
-15.409500 1.956400
-15.389900 2.013900
-15.370400 2.076200
-15.350900 2.146100
-15.331400 2.232700
-15.311800 2.347900
-15.292300 2.486500
-15.272800 2.718400
-15.253200 2.966800
-15.233700 3.080700
-15.214200 3.234500
-15.194600 3.006700
-15.175100 2.732000
-15.155600 2.681200
-15.136100 2.695900
-15.116500 2.894400
-15.097000 2.825700
-15.077500 2.558100
-15.057900 1.985200
-15.038400 1.895000
-15.018900 1.905900
-14.999400 2.006000
-14.979800 2.159400
-14.960300 2.233800
-14.940800 1.848300
-14.921200 1.333900
-14.901700 2.135300
-14.882200 3.192600
-14.862600 3.294200
-14.843100 2.801600
-14.823600 2.465500
-14.804100 2.510100
-14.784500 2.296400
-14.765000 2.215300
-14.745500 2.158000
-14.725900 2.120700
-14.706400 2.094300
-14.686900 2.072300
-14.667300 2.054600
-14.647800 2.030800
-14.628300 1.995700
-14.608800 1.966300
-14.589200 1.935400
-14.569700 1.895800
-14.550200 1.867700
-14.530600 1.842700
-14.511100 1.823200
-14.491600 1.804000
-14.472100 1.784200
-14.452500 1.761600
-14.433000 1.729400
-14.413500 1.681500
-14.393900 1.651300
-14.374400 1.634300
-14.354900 1.611200
-14.335300 1.589700
-14.315800 1.560900
-14.296300 1.524700
-14.276800 1.494200
-14.257200 1.463200
-14.237700 1.431400
-14.218200 1.407400
-14.198600 1.387400
-14.179100 1.371900
-14.159600 1.351900
-14.140100 1.315300
-14.120500 1.257500
-14.101000 1.202600
-14.081500 1.146200
-14.061900 1.088100
-14.042400 1.006200
-14.022900 0.938100
-14.003300 0.885500
-13.983800 0.838800
-13.964300 0.787200
-13.944800 0.744400
-13.925200 0.710000
-13.905700 0.663000
-13.886200 0.622600
-13.866600 0.597400
-13.847100 0.577400
-13.827600 0.556800
-13.808000 0.534900
-13.788500 0.512000
-13.769000 0.485900
-13.749500 0.451200
-13.729900 0.404800
-13.710400 0.416900
-13.690900 1.217000
-13.671300 2.069000
-13.651800 2.936900
-13.632300 3.302300
-13.612800 4.118400
-13.593200 4.746500
-13.573700 5.865700
-13.554200 6.399300
-13.534600 8.812200
-13.515100 9.060100
-13.495600 9.111300
-13.476000 9.201200
-13.456500 9.307100
-13.437000 9.638700
-13.417500 9.145000
-13.397900 9.788100
-13.378400 8.697600
-13.358900 7.586000
-13.339300 7.117400
-13.319800 6.609800
-13.300300 6.350900
-13.280800 6.181300
-13.261200 5.988000
-13.241700 5.796700
-13.222200 5.683600
-13.202600 5.581700
-13.183100 5.476500
-13.163600 5.329900
-13.144000 5.222100
-13.124500 5.187700
-13.105000 5.165000
-13.085500 5.142300
-13.065900 5.044300
-13.046400 4.937300
-13.026900 4.823200
-13.007300 4.751400
-12.987800 4.813600
-12.968300 4.982300
-12.948700 4.582200
-12.929200 4.234900
-12.909700 3.795700
-12.890200 4.082800
-12.870600 4.540500
-12.851100 5.011300
-12.831600 5.628100
-12.812000 5.537400
-12.792500 5.476200
-12.773000 6.062400
-12.753500 4.897800
-12.733900 4.557900
-12.714400 4.126100
-12.694900 3.472500
-12.675300 2.855400
-12.655800 2.053700
-12.636300 2.350900
-12.616700 3.277900
-12.597200 4.322700
-12.577700 4.793800
-12.558200 5.251000
-12.538600 6.082000
-12.519100 5.467000
-12.499600 5.031000
-12.480000 4.837000
-12.460500 4.759200
-12.441000 4.703100
-12.421400 4.667100
-12.401900 4.668700
-12.382400 4.691400
-12.362900 4.787200
-12.343300 4.841300
-12.323800 4.814400
-12.304300 4.816300
-12.284700 5.016700
-12.265200 4.932300
-12.245700 5.373900
-12.226200 4.322200
-12.206600 3.077800
-12.187100 2.388600
-12.167600 1.106900
-12.148000 0.000000
-12.128500 0.000000
-12.109000 0.000000
-12.089400 0.000000
-12.069900 0.000000
-12.050400 0.000000
-12.030900 0.000000
-12.011300 0.000000
-11.991800 0.000000
-11.972300 0.000000
-11.952700 0.000000
-11.933200 0.000000
-11.913700 0.000000
-11.894200 0.000000
-11.874600 0.000000
-11.855100 0.000000
-11.835600 0.000000
-11.816000 0.000000
-11.796500 0.000000
-11.777000 0.000000
-11.757400 0.000000
-11.737900 0.000000
-11.718400 0.000000
-11.698900 0.000000
-11.679300 0.000000
-11.659800 0.000000
-11.640300 0.000000
-11.620700 0.000000
-11.601200 0.000000
-11.581700 0.000000
-11.562100 0.000000
-11.542600 0.000000
-11.523100 0.000000
-11.503600 0.000000
-11.484000 0.000000
-11.464500 0.000000
-11.445000 0.000000
-11.425400 0.000000
-11.405900 0.000000
-11.386400 0.000000
-11.366900 0.000000
-11.347300 0.000000
-11.327800 0.000000
-11.308300 0.000000
-11.288700 0.000000
-11.269200 0.000000
-11.249700 0.000000
-11.230100 0.000000
-11.210600 0.000000
-11.191100 0.000000
-11.171600 0.000000
-11.152000 0.000000
-11.132500 0.000000
-11.113000 0.000000
-11.093400 0.000000
-11.073900 0.000000
-11.054400 0.000000
-11.034900 0.000000
-11.015300 0.000000
-10.995800 0.000000
-10.976300 0.000000
-10.956700 0.000000
-10.937200 0.000000
-10.917700 0.000000
-10.898100 0.000000
-10.878600 0.000000
-10.859100 0.000000
-10.839600 0.000000
-10.820000 0.000000
-10.800500 0.000000
-10.781000 0.000000
-10.761400 0.000000
-10.741900 0.000000
-10.722400 0.000000
-10.702800 0.000000
-10.683300 0.000000
-10.663800 0.000000
-10.644300 0.000000
-10.624700 0.000000
-10.605200 0.000000
-10.585700 0.000000
-10.566100 0.000000
-10.546600 0.000000
-10.527100 0.000000
-10.507600 0.000000
-10.488000 0.000000
-10.468500 0.000000
-10.449000 0.000000
-10.429400 0.000000
-10.409900 0.000000
-10.390400 0.000000
-10.370800 0.000000
-10.351300 0.000000
-10.331800 0.000000
-10.312300 0.000000
-10.292700 0.000000
-10.273200 0.000000
-10.253700 0.000000
-10.234100 0.000000
-10.214600 0.000000
-10.195100 0.000000
-10.175500 0.000000
-10.156000 0.000000
-10.136500 0.000000
-10.117000 0.000000
-10.097400 0.000000
-10.077900 0.000000
-10.058400 0.000000
-10.038800 0.000000
-10.019300 0.000000
-9.999800 0.000000
-9.980300 0.000000
-9.960700 0.000000
-9.941200 0.000000
-9.921700 0.000000
-9.902100 0.000000
-9.882600 0.000000
-9.863100 0.000000
-9.843500 0.000000
-9.824000 0.000000
-9.804500 0.000000
-9.785000 0.000000
-9.765400 0.000000
-9.745900 0.000000
-9.726400 0.000000
-9.706800 0.000000
-9.687300 0.000000
-9.667800 0.000000
-9.648300 0.000000
-9.628700 0.000000
-9.609200 0.000000
-9.589700 0.000000
-9.570100 0.000000
-9.550600 0.000000
-9.531100 0.000000
-9.511500 0.000000
-9.492000 0.000000
-9.472500 0.000000
-9.453000 0.000000
-9.433400 0.000000
-9.413900 0.000000
-9.394400 0.000000
-9.374800 0.000000
-9.355300 0.000000
-9.335800 0.000000
-9.316200 0.000000
-9.296700 0.000000
-9.277200 0.000000
-9.257700 0.000000
-9.238100 0.000000
-9.218600 0.000000
-9.199100 0.000000
-9.179500 0.000000
-9.160000 0.000300
-9.140500 0.005300
-9.121000 0.016700
-9.101400 0.034500
-9.081900 0.058700
-9.062400 0.079200
-9.042800 0.073500
-9.023300 0.078700
-9.003800 0.086000
-8.984200 0.093600
-8.964700 0.101400
-8.945200 0.109500
-8.925700 0.117800
-8.906100 0.126200
-8.886600 0.134100
-8.867100 0.140700
-8.847500 0.145900
-8.828000 0.149700
-8.808500 0.153200
-8.789000 0.158300
-8.769400 0.163900
-8.749900 0.169700
-8.730400 0.175600
-8.710800 0.181500
-8.691300 0.187500
-8.671800 0.193600
-8.652200 0.199700
-8.632700 0.205900
-8.613200 0.212200
-8.593700 0.217500
-8.574100 0.223100
-8.554600 0.228200
-8.535100 0.233000
-8.515500 0.238200
-8.496000 0.243300
-8.476500 0.248500
-8.456900 0.253700
-8.437400 0.259000
-8.417900 0.264300
-8.398400 0.269700
-8.378800 0.275200
-8.359300 0.280800
-8.339800 0.286400
-8.320200 0.292200
-8.300700 0.298000
-8.281200 0.303800
-8.261700 0.309600
-8.242100 0.315400
-8.222600 0.321000
-8.203100 0.326600
-8.183500 0.332100
-8.164000 0.337600
-8.144500 0.343000
-8.124900 0.348600
-8.105400 0.354200
-8.085900 0.359800
-8.066400 0.365500
-8.046800 0.371200
-8.027300 0.377000
-8.007800 0.382800
-7.988200 0.388600
-7.968700 0.394500
-7.949200 0.400500
-7.929600 0.406500
-7.910100 0.412500
-7.890600 0.418600
-7.871100 0.424700
-7.851500 0.430900
-7.832000 0.437000
-7.812500 0.443100
-7.792900 0.449300
-7.773400 0.455500
-7.753900 0.461800
-7.734400 0.468000
-7.714800 0.474300
-7.695300 0.480600
-7.675800 0.487000
-7.656200 0.493500
-7.636700 0.500000
-7.617200 0.506600
-7.597600 0.513200
-7.578100 0.519900
-7.558600 0.526600
-7.539100 0.533400
-7.519500 0.540200
-7.500000 0.547000
-7.480500 0.554000
-7.460900 0.560900
-7.441400 0.568000
-7.421900 0.575000
-7.402400 0.582200
-7.382800 0.589400
-7.363300 0.596600
-7.343800 0.603900
-7.324200 0.611300
-7.304700 0.618800
-7.285200 0.626300
-7.265600 0.634000
-7.246100 0.641800
-7.226600 0.649700
-7.207100 0.657700
-7.187500 0.665700
-7.168000 0.673900
-7.148500 0.682200
-7.128900 0.690600
-7.109400 0.699100
-7.089900 0.707800
-7.070300 0.716500
-7.050800 0.725400
-7.031300 0.734400
-7.011800 0.743500
-6.992200 0.752700
-6.972700 0.762100
-6.953200 0.771600
-6.933600 0.781200
-6.914100 0.791100
-6.894600 0.801200
-6.875100 0.811900
-6.855500 0.823200
-6.836000 0.834900
-6.816500 0.847300
-6.796900 0.860200
-6.777400 0.873800
-6.757900 0.892000
-6.738300 0.910200
-6.718800 0.928000
-6.699300 0.945300
-6.679800 0.962400
-6.660200 0.979500
-6.640700 0.996800
-6.621200 1.018500
-6.601600 1.065000
-6.582100 1.114600
-6.562600 1.150900
-6.543100 1.146600
-6.523500 1.115300
-6.504000 1.104100
-6.484500 1.105800
-6.464900 1.112700
-6.445400 1.123700
-6.425900 1.139600
-6.406300 1.166600
-6.386800 1.209400
-6.367300 1.262800
-6.347800 1.326600
-6.328200 1.430000
-6.308700 1.528200
-6.289200 1.395300
-6.269600 1.443900
-6.250100 1.420500
-6.230600 1.474600
-6.211000 1.399400
-6.191500 1.395400
-6.172000 1.394900
-6.152500 1.435600
-6.132900 1.355200
-6.113400 1.329200
-6.093900 1.369200
-6.074300 1.420300
-6.054800 1.476200
-6.035300 1.407900
-6.015800 1.265700
-5.996200 1.201300
-5.976700 1.169400
-5.957200 1.146400
-5.937600 1.124500
-5.918100 1.102700
-5.898600 1.070700
-5.879000 1.072300
-5.859500 1.101800
-5.840000 1.149700
-5.820500 1.291000
-5.800900 1.286900
-5.781400 1.132100
-5.761900 1.135600
-5.742300 1.160200
-5.722800 1.165100
-5.703300 1.198500
-5.683700 1.432000
-5.664200 1.339600
-5.644700 1.363400
-5.625200 1.413800
-5.605600 1.414200
-5.586100 1.379800
-5.566600 1.291100
-5.547000 1.217800
-5.527500 1.208100
-5.508000 1.370000
-5.488500 1.238100
-5.468900 1.214100
-5.449400 1.193400
-5.429900 1.176100
-5.410300 1.161100
-5.390800 1.147600
-5.371300 1.132900
-5.351700 1.118900
-5.332200 1.106500
-5.312700 1.095600
-5.293200 1.086700
-5.273600 1.080500
-5.254100 1.073500
-5.234600 1.066000
-5.215000 1.058500
-5.195500 1.051200
-5.176000 1.044600
-5.156500 1.039100
-5.136900 1.033200
-5.117400 1.026800
-5.097900 1.020800
-5.078300 1.014900
-5.058800 1.008400
-5.039300 1.000700
-5.019700 0.989700
-5.000200 0.974000
-4.980700 0.965600
-4.961200 0.957600
-4.941600 0.949900
-4.922100 0.942200
-4.902600 0.934000
-4.883000 0.926200
-4.863500 0.919200
-4.844000 0.912800
-4.824400 0.905200
-4.804900 0.897400
-4.785400 0.889100
-4.765900 0.881700
-4.746300 0.875100
-4.726800 0.868700
-4.707300 0.860300
-4.687700 0.853100
-4.668200 0.846600
-4.648700 0.840700
-4.629200 0.835000
-4.609600 0.828600
-4.590100 0.820900
-4.570600 0.811800
-4.551000 0.801500
-4.531500 0.792200
-4.512000 0.781600
-4.492400 0.769300
-4.472900 0.757000
-4.453400 0.746700
-4.433900 0.736700
-4.414300 0.727000
-4.394800 0.717600
-4.375300 0.708400
-4.355700 0.699600
-4.336200 0.695000
-4.316700 0.685900
-4.297200 0.681600
-4.277600 0.680200
-4.258100 0.679300
-4.238600 0.678100
-4.219000 0.676400
-4.199500 0.670400
-4.180000 0.662600
-4.160400 0.651100
-4.140900 0.634700
-4.121400 0.615800
-4.101900 0.594100
-4.082300 0.570200
-4.062800 0.543800
-4.043300 0.516500
-4.023700 0.488700
-4.004200 0.459600
-3.984700 0.430300
-3.965100 0.401400
-3.945600 0.375100
-3.926100 0.355200
-3.906600 0.338800
-3.887000 0.319600
-3.867500 0.303600
-3.848000 0.290800
-3.828400 0.279100
-3.808900 0.268200
-3.789400 0.258000
-3.769900 0.248600
-3.750300 0.239900
-3.730800 0.232000
-3.711300 0.224100
-3.691700 0.213500
-3.672200 0.203300
-3.652700 0.192500
-3.633100 0.180300
-3.613600 0.169200
-3.594100 0.160100
-3.574600 0.152100
-3.555000 0.145000
-3.535500 0.138900
-3.516000 0.133800
-3.496400 0.128900
-3.476900 0.124100
-3.457400 0.119300
-3.437800 0.114600
-3.418300 0.110600
-3.398800 0.110400
-3.379300 0.107900
-3.359700 0.102700
-3.340200 0.094900
-3.320700 0.084400
-3.301100 0.070900
-3.281600 0.050100
-3.262100 0.032200
-3.242600 0.093100
-3.223000 0.161500
-3.203500 0.204400
-3.184000 0.229200
-3.164400 0.253900
-3.144900 0.314100
-3.125400 0.372700
-3.105800 0.415800
-3.086300 0.443900
-3.066800 0.477100
-3.047300 0.547700
-3.027700 0.608900
-3.008200 0.679200
-2.988700 0.716100
-2.969100 0.794200
-2.949600 0.875500
-2.930100 0.963900
-2.910600 1.115500
-2.891000 1.262200
-2.871500 1.349300
-2.852000 1.497900
-2.832400 1.684100
-2.812900 1.974100
-2.793400 2.206000
-2.773800 2.289900
-2.754300 2.385700
-2.734800 2.601700
-2.715300 2.923800
-2.695700 2.956500
-2.676200 2.981500
-2.656700 3.126700
-2.637100 3.393900
-2.617600 3.632600
-2.598100 3.630500
-2.578500 3.926400
-2.559000 4.357200
-2.539500 4.571600
-2.520000 4.244000
-2.500400 4.067600
-2.480900 3.794200
-2.461400 3.712700
-2.441800 3.657600
-2.422300 3.476200
-2.402800 3.342600
-2.383300 3.391300
-2.363700 3.639200
-2.344200 3.570700
-2.324700 3.379000
-2.305100 3.306500
-2.285600 3.230300
-2.266100 3.181600
-2.246500 3.087000
-2.227000 2.976000
-2.207500 2.895100
-2.188000 2.838800
-2.168400 2.783200
-2.148900 2.737400
-2.129400 2.696000
-2.109800 2.655900
-2.090300 2.615500
-2.070800 2.575400
-2.051300 2.531600
-2.031700 2.489100
-2.012200 2.455200
-1.992700 2.428600
-1.973100 2.403900
-1.953600 2.379000
-1.934100 2.354500
-1.914500 2.334600
-1.895000 2.315900
-1.875500 2.297500
-1.856000 2.278300
-1.836400 2.257500
-1.816900 2.233900
-1.797400 2.211100
-1.777800 2.190500
-1.758300 2.171200
-1.738800 2.152600
-1.719200 2.136300
-1.699700 2.122500
-1.680200 2.109700
-1.660700 2.091400
-1.641100 2.073200
-1.621600 2.063900
-1.602100 2.060600
-1.582500 2.058500
-1.563000 2.053900
-1.543500 2.047900
-1.524000 2.040200
-1.504400 2.025500
-1.484900 2.004300
-1.465400 1.992600
-1.445800 1.994900
-1.426300 1.976700
-1.406800 1.880600
-1.387200 1.794500
-1.367700 1.738100
-1.348200 1.725000
-1.328700 1.703100
-1.309100 1.689200
-1.289600 1.658700
-1.270100 1.569000
-1.250500 1.412500
-1.231000 1.313300
-1.211500 1.248200
-1.191900 1.219900
-1.172400 1.238100
-1.152900 1.278600
-1.133400 1.328400
-1.113800 1.385700
-1.094300 1.657700
-1.074800 1.852100
-1.055200 2.179900
-1.035700 2.256800
-1.016200 2.127300
-0.996700 2.160300
-0.977100 2.177900
-0.957600 2.186500
-0.938100 2.185300
-0.918500 2.233400
-0.899000 2.298400
-0.879500 2.685800
-0.859900 2.171300
-0.840400 2.149500
-0.820900 2.056400
-0.801400 1.928200
-0.781800 1.826300
-0.762300 1.704300
-0.742800 1.522200
-0.723200 1.342000
-0.703700 1.202700
-0.684200 1.099400
-0.664700 1.005800
-0.645100 0.937200
-0.625600 1.106100
-0.606100 0.701500
-0.586500 0.666300
-0.567000 0.642400
-0.547500 0.740200
-0.527900 0.829500
-0.508400 0.760500
-0.488900 0.769500
-0.469400 0.803300
-0.449800 0.850800
-0.430300 0.917000
-0.410800 0.984600
-0.391200 0.969300
-0.371700 1.026200
-0.352200 1.109600
-0.332600 1.225800
-0.313100 1.351200
-0.293600 1.496700
-0.274100 1.668800
-0.254500 1.810100
-0.235000 2.033500
-0.215500 2.194700
-0.195900 2.355900
-0.176400 2.292400
-0.156900 2.220000
-0.137400 2.128500
-0.117800 2.016700
-0.098300 1.901000
-0.078800 1.825200
-0.059200 1.776600
-0.039700 1.742700
-0.020200 1.718800
-0.000600 1.699300
0.018900 1.682400
0.038400 1.668400
0.057900 1.658500
0.077500 1.652100
0.097000 1.649900
0.116500 1.654600
0.136100 1.666500
0.155600 1.685000
0.175100 1.710600
0.194600 1.743500
0.214200 1.777200
0.233700 1.813300
0.253200 1.805000
0.272800 1.765900
0.292300 1.736500
0.311800 1.714600
0.331400 1.659700
0.350900 1.604100
0.370400 1.604900
0.389900 1.380600
0.409500 1.337500
0.429000 1.303100
0.448500 1.275600
0.468100 1.263800
0.487600 1.268600
0.507100 1.344900
0.526700 1.626800
0.546200 1.951700
0.565700 2.119700
0.585200 2.216900
0.604800 2.271300
0.624300 2.326300
0.643800 2.383300
0.663400 2.378900
0.682900 2.358000
0.702400 3.015200
0.721900 3.434900
0.741500 5.440700
0.761000 3.611200
0.780500 4.183100
0.800100 4.884800
0.819600 6.735400
0.839100 6.698500
0.858700 6.935600
0.878200 7.445400
0.897700 7.750700
0.917200 7.827800
0.936800 7.849700
0.956300 8.345800
0.975800 9.132200
0.995400 10.222400
1.014900 9.083500
1.034400 9.220600
1.053900 12.601700
1.073500 11.310400
1.093000 11.752700
1.112500 11.157400
1.132100 9.384900
1.151600 8.172100
1.171100 7.349500
1.190700 6.551600
1.210200 5.058700
1.229700 2.902200
1.249200 2.443500
1.268800 2.128700
1.288300 1.942700
1.307800 1.876000
1.327400 2.093500
1.346900 2.494600
1.366400 2.599400
1.386000 2.432400
1.405500 2.068800
1.425000 1.865300
1.444500 1.898100
1.464100 1.852000
1.483600 1.821600
1.503100 1.886700
1.522700 2.096300
1.542200 2.389700
1.561700 2.644800
1.581200 2.920700
1.600800 3.181400
1.620300 3.377300
1.639800 3.614500
1.659400 3.749300
1.678900 3.882600
1.698400 3.936700
1.718000 3.980100
1.737500 4.039600
1.757000 4.111900
1.776500 4.193300
1.796100 4.300100
1.815600 4.560200
1.835100 4.913400
1.854700 5.707900
1.874200 5.384200
1.893700 5.529400
