set title 'mp-981336 - Density of States'
set xlabel 'Energy (eV)'
set ylabel 'DOS (states/eV)'
set grid
set xrange [-10:10]
set yrange [0:35.980]
set xzeroaxis lt -1
set terminal png size 800,600
set output 'mp-981336_dos_gnuplot.png'
plot '-' using 1:2 with lines title 'DOS'
-11.102500 0.000000
-11.075800 0.000000
-11.049100 0.000000
-11.022500 0.000000
-10.995800 0.000000
-10.969100 0.000000
-10.942400 0.000000
-10.915800 0.000000
-10.889100 0.000000
-10.862400 0.000000
-10.835700 0.000000
-10.809100 0.000000
-10.782400 0.000000
-10.755700 0.000000
-10.729000 0.000000
-10.702300 0.000000
-10.675700 0.000000
-10.649000 0.000000
-10.622300 0.000000
-10.595600 0.000000
-10.569000 0.000000
-10.542300 0.000000
-10.515600 0.000000
-10.488900 0.000000
-10.462300 0.000000
-10.435600 0.000000
-10.408900 0.000000
-10.382200 0.000000
-10.355600 0.000000
-10.328900 0.000000
-10.302200 0.000000
-10.275500 0.000000
-10.248900 0.000000
-10.222200 0.000000
-10.195500 0.000000
-10.168800 0.000000
-10.142200 0.000000
-10.115500 0.000000
-10.088800 0.000000
-10.062100 0.000000
-10.035500 0.000000
-10.008800 0.000000
-9.982100 0.000000
-9.955400 0.000000
-9.928700 0.000000
-9.902100 0.000000
-9.875400 0.000000
-9.848700 0.000000
-9.822000 0.000000
-9.795400 0.000000
-9.768700 0.000000
-9.742000 0.000000
-9.715300 0.000000
-9.688700 0.000000
-9.662000 0.000000
-9.635300 0.000000
-9.608600 0.000000
-9.582000 0.000000
-9.555300 0.000000
-9.528600 0.000000
-9.501900 0.000000
-9.475300 0.000000
-9.448600 0.000000
-9.421900 0.000000
-9.395200 0.000000
-9.368600 0.000000
-9.341900 0.000000
-9.315200 0.000000
-9.288500 0.000000
-9.261900 0.000000
-9.235200 0.000000
-9.208500 0.000000
-9.181800 0.000000
-9.155200 0.000000
-9.128500 0.000000
-9.101800 0.000000
-9.075100 0.000000
-9.048400 0.000000
-9.021800 0.000000
-8.995100 0.000000
-8.968400 0.000000
-8.941700 0.000000
-8.915100 0.000000
-8.888400 0.000000
-8.861700 0.000000
-8.835000 0.000000
-8.808400 0.000000
-8.781700 0.000000
-8.755000 0.000000
-8.728300 0.000000
-8.701700 0.000000
-8.675000 0.000200
-8.648300 0.021700
-8.621600 0.078400
-8.595000 0.118300
-8.568300 0.130500
-8.541600 0.148300
-8.514900 0.170500
-8.488300 0.185100
-8.461600 0.206400
-8.434900 0.225800
-8.408200 0.235900
-8.381600 0.246300
-8.354900 0.260600
-8.328200 0.273400
-8.301500 0.284700
-8.274900 0.296200
-8.248200 0.309100
-8.221500 0.322900
-8.194800 0.338200
-8.168100 0.353400
-8.141500 0.365200
-8.114800 0.376500
-8.088100 0.386200
-8.061400 0.397200
-8.034800 0.408600
-8.008100 0.420400
-7.981400 0.432200
-7.954700 0.445900
-7.928100 0.459500
-7.901400 0.473700
-7.874700 0.488500
-7.848000 0.503500
-7.821400 0.519100
-7.794700 0.533200
-7.768000 0.546900
-7.741300 0.561500
-7.714700 0.576800
-7.688000 0.593200
-7.661300 0.610400
-7.634600 0.628300
-7.608000 0.646500
-7.581300 0.665100
-7.554600 0.684400
-7.527900 0.707300
-7.501300 0.732000
-7.474600 0.758000
-7.447900 0.785400
-7.421200 0.816100
-7.394500 0.853000
-7.367900 0.894300
-7.341200 0.947400
-7.314500 0.995900
-7.287800 1.019800
-7.261200 1.061100
-7.234500 1.096400
-7.207800 1.121700
-7.181100 1.141200
-7.154500 1.166300
-7.127800 1.203500
-7.101100 1.243700
-7.074400 1.286100
-7.047800 1.333600
-7.021100 1.396600
-6.994400 1.479000
-6.967700 1.569600
-6.941100 1.685500
-6.914400 1.833700
-6.887700 2.124800
-6.861000 2.362600
-6.834400 2.388800
-6.807700 2.531900
-6.781000 2.665600
-6.754300 2.442400
-6.727700 2.180600
-6.701000 1.954300
-6.674300 1.888600
-6.647600 1.888300
-6.621000 1.829400
-6.594300 1.761300
-6.567600 1.875600
-6.540900 1.906500
-6.514200 1.802600
-6.487600 0.000000
-6.460900 0.000000
-6.434200 0.000000
-6.407500 0.000000
-6.380900 0.000000
-6.354200 0.000000
-6.327500 0.000000
-6.300800 0.000000
-6.274200 0.000000
-6.247500 0.000000
-6.220800 0.000000
-6.194100 0.000000
-6.167500 0.000000
-6.140800 0.000000
-6.114100 0.000000
-6.087400 0.000000
-6.060800 0.000000
-6.034100 0.000000
-6.007400 0.000000
-5.980700 0.000000
-5.954100 0.000000
-5.927400 0.000000
-5.900700 0.000000
-5.874000 0.000000
-5.847400 0.000000
-5.820700 0.000000
-5.794000 0.000000
-5.767300 0.000000
-5.740700 0.000000
-5.714000 0.000000
-5.687300 0.000000
-5.660600 0.000000
-5.633900 0.000000
-5.607300 0.000000
-5.580600 0.000000
-5.553900 0.000000
-5.527200 0.000000
-5.500600 0.000000
-5.473900 0.000000
-5.447200 0.000000
-5.420500 0.000000
-5.393900 0.000000
-5.367200 0.039100
-5.340500 0.101900
-5.313800 0.162000
-5.287200 0.194400
-5.260500 0.243400
-5.233800 0.299600
-5.207100 0.371500
-5.180500 0.440800
-5.153800 0.506100
-5.127100 0.579100
-5.100400 0.666200
-5.073800 0.753300
-5.047100 0.856900
-5.020400 0.987800
-4.993700 1.140700
-4.967100 1.286300
-4.940400 1.481900
-4.913700 1.717100
-4.887000 2.093300
-4.860400 3.875500
-4.833700 6.328100
-4.807000 9.408600
-4.780300 11.172000
-4.753600 8.680400
-4.727000 8.048200
-4.700300 7.786800
-4.673600 6.692400
-4.646900 4.730600
-4.620300 3.610900
-4.593600 8.315100
-4.566900 13.535900
-4.540200 12.395800
-4.513600 11.853200
-4.486900 12.468000
-4.460200 13.551600
-4.433500 16.211500
-4.406900 21.326800
-4.380200 23.540000
-4.353500 27.518800
-4.326800 19.902800
-4.300200 23.146400
-4.273500 18.867000
-4.246800 18.282200
-4.220100 17.414000
-4.193500 13.149400
-4.166800 14.121600
-4.140100 12.686500
-4.113400 13.278100
-4.086800 15.573000
-4.060100 15.912300
-4.033400 17.187200
-4.006700 10.248900
-3.980000 21.477900
-3.953400 15.466500
-3.926700 18.020700
-3.900000 22.880200
-3.873300 18.882600
-3.846700 20.267700
-3.820000 22.494000
-3.793300 21.967900
-3.766600 22.284300
-3.740000 24.702500
-3.713300 18.667200
-3.686600 16.516100
-3.659900 26.071100
-3.633300 28.287600
-3.606600 20.882300
-3.579900 23.107400
-3.553200 28.853500
-3.526600 32.709200
-3.499900 27.328400
-3.473200 28.441700
-3.446500 24.616200
-3.419900 20.989800
-3.393200 17.228800
-3.366500 15.542500
-3.339800 10.839700
-3.313200 11.477000
-3.286500 11.287900
-3.259800 27.658500
-3.233100 19.527900
-3.206500 25.980300
-3.179800 7.779600
-3.153100 4.054400
-3.126400 3.239000
-3.099700 2.974700
-3.073100 1.261200
-3.046400 1.095200
-3.019700 1.158700
-2.993000 0.302800
-2.966400 0.303000
-2.939700 0.298700
-2.913000 0.290100
-2.886300 0.297100
-2.859700 0.308100
-2.833000 0.321200
-2.806300 0.335200
-2.779600 0.349900
-2.753000 0.364600
-2.726300 0.370200
-2.699600 0.382500
-2.672900 0.761800
-2.646300 1.033100
-2.619600 1.246400
-2.592900 1.619000
-2.566200 1.535700
-2.539600 1.557600
-2.512900 1.574600
-2.486200 1.549700
-2.459500 1.540400
-2.432900 1.532200
-2.406200 1.447600
-2.379500 1.395900
-2.352800 1.384600
-2.326200 1.385100
-2.299500 1.378200
-2.272800 1.371300
-2.246100 1.362000
-2.219400 1.340000
-2.192800 1.320900
-2.166100 1.301300
-2.139400 1.291600
-2.112700 1.296100
-2.086100 1.347000
-2.059400 1.339200
-2.032700 1.331200
-2.006000 1.318800
-1.979400 1.314600
-1.952700 1.307700
-1.926000 1.298100
-1.899300 1.288300
-1.872700 1.275300
-1.846000 1.295800
-1.819300 1.272300
-1.792600 1.229700
-1.766000 1.226500
-1.739300 1.212000
-1.712600 1.206100
-1.685900 1.203400
-1.659300 1.199900
-1.632600 1.195500
-1.605900 1.191600
-1.579200 1.185200
-1.552600 1.181200
-1.525900 1.181400
-1.499200 1.183100
-1.472500 1.184200
-1.445800 1.183300
-1.419200 1.180600
-1.392500 1.176200
-1.365800 1.280800
-1.339100 1.171400
-1.312500 1.151700
-1.285800 1.163300
-1.259100 1.163600
-1.232400 1.137000
-1.205800 1.105600
-1.179100 1.072500
-1.152400 1.037100
-1.125700 1.032500
-1.099100 0.989700
-1.072400 0.913900
-1.045700 0.855600
-1.019000 0.843700
-0.992400 0.837400
-0.965700 0.847600
-0.939000 0.861100
-0.912300 0.880800
-0.885700 0.908100
-0.859000 0.968100
-0.832300 0.965600
-0.805600 1.003700
-0.779000 1.008900
-0.752300 1.057600
-0.725600 1.043000
-0.698900 1.018400
-0.672300 1.015700
-0.645600 1.016200
-0.618900 1.015500
-0.592200 1.016900
-0.565500 1.021500
-0.538900 1.033400
-0.512200 1.048600
-0.485500 1.042300
-0.458800 1.052400
-0.432200 1.058900
-0.405500 1.074200
-0.378800 1.093400
-0.352100 1.132500
-0.325500 1.135500
-0.298800 1.160600
-0.272100 1.185300
-0.245400 1.233800
-0.218800 1.322200
-0.192100 1.267400
-0.165400 1.239400
-0.138700 1.212000
-0.112100 1.193300
-0.085400 1.189100
-0.058700 1.210500
-0.032000 1.218200
-0.005400 1.253500
0.021300 1.268800
0.048000 1.266800
0.074700 1.261800
0.101300 1.250600
0.128000 1.233700
0.154700 1.203700
0.181400 1.195900
0.208000 1.190900
0.234700 1.184800
0.261400 1.174500
0.288100 1.154800
0.314800 1.143300
0.341400 1.133000
0.368100 1.123600
0.394800 1.110100
0.421500 1.085800
0.448100 1.055500
0.474800 1.030100
0.501500 1.007600
0.528200 0.990900
0.554800 1.001800
0.581500 0.985400
0.608200 0.966800
0.634900 0.950100
0.661500 0.942900
0.688200 0.942200
0.714900 0.938800
0.741600 0.936900
0.768200 0.939500
0.794900 0.947800
0.821600 0.958800
0.848300 0.960600
0.874900 0.968100
0.901600 0.976400
0.928300 0.985800
0.955000 0.998100
0.981600 1.012500
1.008300 1.034100
1.035000 1.071900
1.061700 1.121300
1.088300 1.162400
1.115000 1.210600
1.141700 1.275300
1.168400 1.367400
1.195100 1.482000
1.221700 1.589600
1.248400 1.608800
1.275100 1.607300
1.301800 1.648500
1.328400 1.638200
1.355100 1.637900
1.381800 1.629100
1.408500 1.612000
1.435100 1.593000
1.461800 1.552100
1.488500 1.499900
1.515200 1.466500
1.541800 1.414700
1.568500 1.357200
1.595200 1.303900
1.621900 1.241900
1.648500 1.217000
1.675200 1.203400
1.701900 1.315100
1.728600 1.411500
1.755200 1.462800
1.781900 1.524200
1.808600 1.523500
1.835300 1.490100
1.861900 1.436400
1.888600 1.399400
1.915300 1.363800
1.942000 1.332000
1.968700 1.301800
1.995300 1.278200
2.022000 1.260500
2.048700 1.249800
2.075400 1.245800
2.102000 1.245500
2.128700 1.245900
2.155400 1.259700
2.182100 1.272000
2.208700 1.235200
2.235400 1.213100
2.262100 1.192600
2.288800 1.177500
2.315400 1.163200
2.342100 1.153500
2.368800 1.142100
2.395500 1.129100
2.422100 1.119900
2.448800 1.104600
2.475500 1.084100
2.502200 1.057300
2.528800 1.045400
2.555500 1.031800
2.582200 1.033400
2.608900 1.019600
2.635500 1.021700
2.662200 1.027400
2.688900 1.022200
2.715600 1.033500
2.742200 1.040600
2.768900 1.048500
2.795600 1.079900
2.822300 1.132400
2.849000 1.310100
2.875600 1.413800
2.902300 1.419800
2.929000 1.396700
2.955700 1.431100
2.982300 1.458000
3.009000 1.492900
3.035700 1.562000
3.062400 1.573600
3.089000 1.629400
3.115700 1.711300
3.142400 1.540600
3.169100 1.466900
3.195700 1.391400
3.222400 1.303200
3.249100 1.262900
3.275800 1.240300
3.302400 1.309000
3.329100 1.376400
3.355800 1.381900
3.382500 1.338300
3.409100 1.366700
3.435800 1.329700
3.462500 1.330000
3.489200 1.297000
3.515800 1.247200
3.542500 1.183300
3.569200 1.116600
3.595900 1.032500
3.622500 0.961800
3.649200 0.971700
3.675900 0.975900
3.702600 0.978700
3.729300 0.979400
3.755900 0.979800
3.782600 0.981700
3.809300 0.987700
3.836000 0.992300
3.862600 1.009700
3.889300 1.033400
3.916000 1.074600
3.942700 1.127500
3.969300 1.206300
3.996000 1.292600
4.022700 1.344500
4.049400 1.219000
4.076000 1.212700
4.102700 1.232900
4.129400 1.237100
4.156100 1.242900
4.182700 1.246900
4.209400 1.245200
4.236100 1.242600
4.262800 1.231300
4.289400 1.206600
4.316100 1.206900
4.342800 1.204700
4.369500 1.200300
4.396100 1.192200
4.422800 1.159500
4.449500 1.154100
4.476200 1.149500
4.502900 1.146600
4.529500 1.145800
4.556200 1.144800
4.582900 1.143400
4.609600 1.147700
4.636200 1.155900
4.662900 1.164800
4.689600 1.170800
4.716300 1.177200
4.742900 1.184300
4.769600 1.194900
4.796300 1.207600
4.823000 1.222000
4.849600 1.240200
4.876300 1.235700
4.903000 1.248200
4.929700 1.265600
4.956300 1.289700
4.983000 1.321500
5.009700 1.350500
5.036400 1.374400
5.063000 1.396800
5.089700 1.427800
5.116400 1.485900
5.143100 1.538700
5.169700 1.579800
5.196400 1.620000
5.223100 1.655300
5.249800 1.673700
5.276400 1.696700
5.303100 1.712600
5.329800 1.717400
5.356500 1.728300
5.383200 1.742800
5.409800 1.787000
5.436500 1.794600
5.463200 1.775400
5.489900 1.755800
5.516500 1.736200
5.543200 1.715500
5.569900 1.692100
5.596600 1.674900
5.623200 1.623600
5.649900 1.738900
5.676600 1.505100
5.703300 1.339000
5.729900 1.213400
5.756600 1.116800
5.783300 1.082000
5.810000 1.055000
5.836600 1.029600
5.863300 1.021500
5.890000 1.101200
5.916700 1.215100
5.943300 1.312500
5.970000 1.390000
5.996700 1.461400
6.023400 1.581300
6.050000 1.522500
6.076700 1.433800
6.103400 1.371200
6.130100 1.380400
6.156700 1.397700
6.183400 1.418900
6.210100 1.439500
6.236800 1.458900
6.263500 1.474000
6.290100 1.508400
6.316800 1.608200
6.343500 1.663300
6.370200 1.703900
6.396800 1.748100
6.423500 1.743500
6.450200 1.745600
6.476900 1.708100
6.503500 1.657100
6.530200 1.673000
6.556900 1.672500
6.583600 1.715300
6.610200 1.774500
6.636900 1.855500
6.663600 1.920600
6.690300 1.982300
6.716900 1.980400
6.743600 1.921700
6.770300 1.830700
6.797000 1.660700
6.823600 1.541600
6.850300 1.564900
6.877000 1.794600
6.903700 2.074100
6.930300 1.942000
6.957000 1.342200
6.983700 1.216800
7.010400 1.161600
7.037000 1.108000
7.063700 1.134900
7.090400 1.172200
7.117100 1.227800
7.143800 1.294000
7.170400 1.373900
7.197100 1.482400
7.223800 1.551100
7.250500 1.581500
7.277100 1.618800
7.303800 1.661700
7.330500 1.645700
7.357200 1.516100
7.383800 1.482000
7.410500 1.468000
7.437200 1.470100
7.463900 1.481100
7.490500 1.494600
7.517200 1.506900
7.543900 1.523800
7.570600 1.533200
7.597200 1.539200
7.623900 1.553600
7.650600 1.626500
7.677300 1.540300
7.703900 1.491100
7.730600 1.392000
7.757300 1.273500
7.784000 1.164800
7.810600 1.097300
7.837300 1.043300
7.864000 0.989500
7.890700 0.901300
7.917400 0.839500
7.944000 0.783100
7.970700 0.763100
7.997400 0.820300
8.024100 0.829900
8.050700 0.790000
8.077400 0.707400
8.104100 0.676400
8.130800 0.662400
8.157400 0.667500
8.184100 0.673700
8.210800 0.675700
8.237500 0.678200
8.264100 0.703200
8.290800 0.744000
8.317500 0.776600
8.344200 0.810500
8.370800 0.846300
8.397500 0.885700
8.424200 0.928100
8.450900 1.027300
8.477500 1.113300
8.504200 1.186000
8.530900 1.274300
8.557600 1.333000
8.584200 1.388200
8.610900 1.447600
8.637600 1.505200
8.664300 1.562700
8.690900 1.563700
8.717600 1.605500
8.744300 1.635900
8.771000 1.677300
8.797700 1.719000
8.824300 1.758300
8.851000 1.801000
8.877700 1.851800
8.904400 1.936200
8.931000 2.077900
8.957700 2.304100
8.984400 2.419000
9.011100 1.981100
9.037700 1.683400
9.064400 1.576900
9.091100 1.482600
9.117800 1.438100
9.144400 1.405800
9.171100 1.381600
9.197800 1.365100
9.224500 1.353600
9.251100 1.423800
9.277800 1.355500
9.304500 1.367100
9.331200 1.375900
9.357800 1.362300
9.384500 1.348100
9.411200 1.337900
9.437900 1.325900
9.464500 1.312900
9.491200 1.304700
9.517900 1.296000
9.544600 1.310500
9.571200 1.292600
9.597900 1.286000
9.624600 1.282400
9.651300 1.282100
9.678000 1.285800
9.704600 1.301100
9.731300 1.326400
9.758000 1.336100
9.784700 1.346400
9.811300 1.356700
9.838000 1.363100
9.864700 1.384500
9.891400 1.418700
9.918000 1.475300
9.944700 1.514400
9.971400 1.683700
9.998100 1.937000
10.024700 2.169400
10.051400 2.340100
10.078100 2.439000
10.104800 2.479400
10.131400 2.450800
10.158100 2.439200
10.184800 2.527800
10.211500 2.529700
10.238100 2.475000
10.264800 2.410800
10.291500 2.402600
10.318200 2.402100
10.344800 2.656500
10.371500 2.878200
10.398200 2.912900
10.424900 2.956300
10.451600 2.778900
10.478200 2.537500
10.504900 2.219700
10.531600 2.084500
10.558300 2.258000
10.584900 2.656800
10.611600 2.968800
10.638300 3.090300
10.665000 3.960400
10.691600 2.956800
10.718300 2.478800
10.745000 2.307500
10.771700 2.246500
10.798300 2.205700
10.825000 2.169800
10.851700 2.012800
10.878400 1.785800
10.905000 1.659200
10.931700 1.572800
10.958400 1.492100
10.985100 1.377000
11.011700 1.319200
11.038400 1.268800
11.065100 1.203200
11.091800 1.155300
11.118400 1.107300
11.145100 1.037200
11.171800 1.018500
11.198500 1.003100
11.225100 0.988800
11.251800 0.977500
11.278500 0.970900
11.305200 0.965500
11.331900 0.962400
11.358500 0.950700
11.385200 0.937800
11.411900 0.942200
11.438600 0.954000
11.465200 0.974200
11.491900 1.017300
11.518600 1.048400
11.545300 1.077600
11.571900 1.093400
11.598600 1.079300
11.625300 1.059800
11.652000 1.030000
11.678600 0.993800
11.705300 0.960200
11.732000 0.936400
11.758700 0.919500
11.785300 0.906900
11.812000 0.941500
11.838700 0.938300
11.865400 0.908600
11.892000 0.861400
11.918700 0.817100
11.945400 0.782600
11.972100 0.752700
11.998700 0.716800
12.025400 0.691000
12.052100 0.678000
12.078800 0.667000
12.105400 0.656900
12.132100 0.649100
12.158800 0.644300
12.185500 0.641900
12.212200 0.642800
12.238800 0.645300
12.265500 0.648300
12.292200 0.652400
12.318900 0.659000
12.345500 0.688500
12.372200 0.725900
12.398900 0.754800
12.425600 0.763600
12.452200 0.770100
12.478900 0.793200
12.505600 0.819600
12.532300 0.851500
12.558900 0.889000
12.585600 0.926700
12.612300 0.970700
12.639000 1.010200
12.665600 1.039200
12.692300 1.060000
12.719000 1.077800
12.745700 1.094200
12.772300 1.108900
12.799000 1.121500
12.825700 1.133100
12.852400 1.142800
12.879000 1.150300
12.905700 1.155900
12.932400 1.158000
12.959100 1.159100
12.985700 1.163300
13.012400 1.090600
13.039100 1.092700
13.065800 1.111300
13.092500 1.133900
13.119100 1.162500
13.145800 1.211000
13.172500 1.256200
13.199200 1.281700
13.225800 1.305200
13.252500 1.331200
13.279200 1.349400
13.305900 1.378100
13.332500 1.435400
13.359200 1.497500
13.385900 1.549700
13.412600 1.591600
13.439200 1.631300
13.465900 1.669800
13.492600 1.699500
13.519300 1.712900
13.545900 1.698800
13.572600 1.685000
13.599300 1.669100
13.626000 1.652200
13.652600 1.631000
13.679300 1.654700
13.706000 1.745300
13.732700 1.809400
13.759300 1.914800
13.786000 1.946900
13.812700 2.006200
13.839400 2.142200
13.866100 2.257700
13.892700 2.348700
13.919400 2.442800
13.946100 2.471300
13.972800 2.561400
13.999400 2.607800
14.026100 2.555000
14.052800 2.462800
14.079500 2.317900
14.106100 2.165300
14.132800 2.061500
14.159500 2.004100
14.186200 1.918400
14.212800 1.841200
14.239500 1.795600
14.266200 1.779100
14.292900 1.769200
14.319500 1.768700
14.346200 1.777200
14.372900 1.727800
14.399600 1.638900
14.426200 1.554800
14.452900 1.462100
14.479600 1.401000
14.506300 1.371100
14.532900 1.343500
14.559600 1.315300
14.586300 1.274200
14.613000 1.258400
14.639600 1.244800
14.666300 1.214000
14.693000 1.189800
14.719700 1.179200
14.746400 1.168300
14.773000 1.169500
14.799700 1.188600
14.826400 1.228900
14.853100 1.267800
14.879700 1.304200
14.906400 1.328000
14.933100 1.375900
14.959800 1.439800
14.986400 1.490600
15.013100 1.603600
15.039800 1.761400
15.066500 1.924800
15.093100 1.950400
15.119800 2.066300
15.146500 2.166400
15.173200 2.200100
15.199800 2.191600
15.226500 2.137900
15.253200 2.093100
15.279900 2.034200
15.306500 1.949700
15.333200 1.945600
15.359900 1.942800
15.386600 1.912500
15.413200 1.960300
15.439900 1.840400
15.466600 1.836000
15.493300 1.706700
15.519900 1.646400
15.546600 1.561400
15.573300 1.513500
15.600000 1.479900
15.626700 1.455800
15.653300 1.453900
15.680000 1.445400
15.706700 1.409100
15.733400 1.335600
15.760000 1.253100
15.786700 1.145300
15.813400 1.074400
15.840100 1.026900
15.866700 0.994600
15.893400 0.975700
15.920100 0.965700
15.946800 0.958400
15.973400 0.954200
16.000100 0.952300
16.026800 0.953500
16.053500 0.958100
16.080100 0.962500
16.106800 0.967900
16.133500 0.977500
16.160200 0.989300
16.186800 1.003500
16.213500 1.026900
16.240200 1.054100
16.266900 1.077000
16.293500 1.092900
16.320200 1.111200
16.346900 1.147300
16.373600 1.180800
16.400200 1.206600
16.426900 1.217500
16.453600 1.212800
16.480300 1.216300
16.507000 1.214800
16.533600 1.211600
16.560300 1.218700
16.587000 1.222400
16.613700 1.223200
16.640300 1.244400
16.667000 1.263900
16.693700 1.289200
16.720400 1.301500
16.747000 1.297800
16.773700 1.300700
16.800400 1.280500
16.827100 1.283800
16.853700 1.274300
16.880400 1.256900
16.907100 1.254100
16.933800 1.272400
