set title 'mp-1224413 - Density of States'
set xlabel 'Energy (eV)'
set ylabel 'DOS (states/eV)'
set grid
set xrange [-10:10]
set yrange [0:22.011]
set xzeroaxis lt -1
set terminal png size 800,600
set output 'mp-1224413_dos_gnuplot.png'
plot '-' using 1:2 with lines title 'DOS'
-5.956100 0.000000
-5.939200 0.000000
-5.922400 0.000000
-5.905600 0.000000
-5.888700 0.000000
-5.871900 0.000000
-5.855100 0.000000
-5.838300 0.000000
-5.821400 0.000000
-5.804600 0.000000
-5.787800 0.000000
-5.770900 0.000000
-5.754100 0.000000
-5.737300 0.000000
-5.720500 0.000000
-5.703600 0.000000
-5.686800 0.000000
-5.670000 0.000000
-5.653200 0.000000
-5.636300 0.000000
-5.619500 0.000000
-5.602700 0.000000
-5.585800 0.000000
-5.569000 0.000000
-5.552200 0.000000
-5.535400 0.000000
-5.518500 0.000000
-5.501700 0.000000
-5.484900 0.000000
-5.468100 0.000000
-5.451200 0.000000
-5.434400 0.000000
-5.417600 0.000000
-5.400700 0.000000
-5.383900 0.000000
-5.367100 0.000000
-5.350300 0.000000
-5.333400 0.000000
-5.316600 0.000000
-5.299800 0.000000
-5.283000 0.000000
-5.266100 0.000000
-5.249300 0.000000
-5.232500 0.000000
-5.215600 0.000000
-5.198800 0.000000
-5.182000 0.000000
-5.165200 0.000000
-5.148300 0.000000
-5.131500 0.000000
-5.114700 0.000000
-5.097900 0.000000
-5.081000 0.000000
-5.064200 0.000000
-5.047400 0.000000
-5.030500 0.000000
-5.013700 0.000000
-4.996900 0.000000
-4.980100 0.000000
-4.963200 0.000000
-4.946400 0.000000
-4.929600 0.000000
-4.912800 0.000000
-4.895900 0.000000
-4.879100 0.000000
-4.862300 0.000000
-4.845400 0.000000
-4.828600 0.000000
-4.811800 0.000000
-4.795000 0.000000
-4.778100 0.000000
-4.761300 0.000000
-4.744500 0.000000
-4.727600 0.000000
-4.710800 0.000000
-4.694000 0.000000
-4.677200 0.000000
-4.660300 0.000000
-4.643500 0.000000
-4.626700 0.000000
-4.609900 0.000000
-4.593000 0.000000
-4.576200 0.000000
-4.559400 0.000000
-4.542500 0.000000
-4.525700 0.000000
-4.508900 0.000000
-4.492100 0.000000
-4.475200 0.000000
-4.458400 0.000000
-4.441600 0.000000
-4.424800 0.000500
-4.407900 0.011000
-4.391100 0.028400
-4.374300 0.051100
-4.357400 0.078000
-4.340600 0.108800
-4.323800 0.143700
-4.307000 0.182500
-4.290100 0.225600
-4.273300 0.274500
-4.256500 0.276900
-4.239700 0.291700
-4.222800 0.309700
-4.206000 0.325400
-4.189200 0.338800
-4.172300 0.348900
-4.155500 0.353200
-4.138700 0.350800
-4.121900 0.322000
-4.105000 0.317700
-4.088200 0.323700
-4.071400 0.329800
-4.054600 0.335800
-4.037700 0.341800
-4.020900 0.347800
-4.004100 0.353900
-3.987200 0.359900
-3.970400 0.365900
-3.953600 0.371100
-3.936800 0.374700
-3.919900 0.377400
-3.903100 0.379300
-3.886300 0.380500
-3.869400 0.380900
-3.852600 0.380500
-3.835800 0.378600
-3.819000 0.376200
-3.802100 0.375100
-3.785300 0.374900
-3.768500 0.375200
-3.751700 0.376200
-3.734800 0.377800
-3.718000 0.380300
-3.701200 0.384000
-3.684300 0.387900
-3.667500 0.391900
-3.650700 0.395900
-3.633900 0.404000
-3.617000 0.420100
-3.600200 0.440800
-3.583400 0.465900
-3.566600 0.493800
-3.549700 0.524200
-3.532900 0.557000
-3.516100 0.587100
-3.499200 0.590000
-3.482400 0.603600
-3.465600 0.620800
-3.448800 0.638300
-3.431900 0.655900
-3.415100 0.675300
-3.398300 0.696700
-3.381500 0.719800
-3.364600 0.744900
-3.347800 0.772000
-3.331000 0.801200
-3.314100 0.830600
-3.297300 0.862000
-3.280500 0.897800
-3.263700 0.937800
-3.246800 0.986200
-3.230000 1.033900
-3.213200 1.081300
-3.196400 1.128000
-3.179500 1.170600
-3.162700 1.254200
-3.145900 1.487600
-3.129000 1.841900
-3.112200 2.292100
-3.095400 2.809700
-3.078600 3.239800
-3.061700 3.428700
-3.044900 3.607800
-3.028100 3.639200
-3.011300 3.614500
-2.994400 3.759700
-2.977600 3.911400
-2.960800 4.202900
-2.943900 4.800400
-2.927100 4.901600
-2.910300 4.312400
-2.893500 3.375900
-2.876600 3.357900
-2.859800 3.431700
-2.843000 3.423500
-2.826100 3.404100
-2.809300 3.384000
-2.792500 3.389500
-2.775700 3.425700
-2.758800 3.499900
-2.742000 3.557500
-2.725200 3.585800
-2.708400 3.604100
-2.691500 3.622200
-2.674700 3.645400
-2.657900 3.915900
-2.641000 4.247000
-2.624200 4.297100
-2.607400 4.892500
-2.590600 5.157700
-2.573700 5.243300
-2.556900 6.682400
-2.540100 4.271900
-2.523300 4.268600
-2.506400 4.274200
-2.489600 4.386900
-2.472800 4.588900
-2.455900 4.970000
-2.439100 5.538700
-2.422300 5.406400
-2.405500 5.172600
-2.388600 5.178600
-2.371800 5.635800
-2.355000 6.275500
-2.338200 6.843500
-2.321300 9.407100
-2.304500 11.193200
-2.287700 9.188000
-2.270800 5.362400
-2.254000 4.523800
-2.237200 4.173300
-2.220400 3.806200
-2.203500 3.475800
-2.186700 3.468700
-2.169900 3.955800
-2.153100 1.819900
-2.136200 1.851000
-2.119400 2.019900
-2.102600 2.302700
-2.085700 2.585400
-2.068900 2.867900
-2.052100 3.150300
-2.035300 3.028700
-2.018400 2.507900
-2.001600 2.217400
-1.984800 2.144800
-1.968000 2.080300
-1.951100 2.022300
-1.934300 1.967300
-1.917500 1.913600
-1.900600 1.861000
-1.883800 1.809600
-1.867000 1.762500
-1.850200 1.730900
-1.833300 1.707500
-1.816500 1.733900
-1.799700 1.786100
-1.782800 1.847100
-1.766000 1.754200
-1.749200 1.567600
-1.732400 1.339700
-1.715500 1.187800
-1.698700 1.068900
-1.681900 0.958600
-1.665100 0.849500
-1.648200 0.740500
-1.631400 0.619700
-1.614600 0.452900
-1.597700 0.305200
-1.580900 0.181900
-1.564100 0.083400
-1.547300 0.016400
-1.530400 0.000000
-1.513600 0.000000
-1.496800 0.000000
-1.480000 0.000000
-1.463100 0.000000
-1.446300 0.000000
-1.429500 0.000000
-1.412600 0.000000
-1.395800 0.000000
-1.379000 0.000000
-1.362200 0.000000
-1.345300 0.000000
-1.328500 0.000000
-1.311700 0.000000
-1.294900 0.000000
-1.278000 0.000000
-1.261200 0.000000
-1.244400 0.000000
-1.227500 0.000000
-1.210700 0.000000
-1.193900 0.000000
-1.177100 0.000000
-1.160200 0.000000
-1.143400 0.000000
-1.126600 0.000000
-1.109800 0.000000
-1.092900 0.000000
-1.076100 0.000000
-1.059300 0.000000
-1.042400 0.000000
-1.025600 0.000000
-1.008800 0.000000
-0.992000 0.000000
-0.975100 0.000000
-0.958300 0.000000
-0.941500 0.000000
-0.924700 0.000000
-0.907800 0.000000
-0.891000 0.000000
-0.874200 0.000000
-0.857300 0.000000
-0.840500 0.000000
-0.823700 0.000000
-0.806900 0.000000
-0.790000 0.000000
-0.773200 0.000000
-0.756400 0.000000
-0.739500 0.000500
-0.722700 0.019600
-0.705900 0.093800
-0.689100 0.205800
-0.672200 0.343700
-0.655400 0.506400
-0.638600 0.689700
-0.621800 0.896900
-0.604900 1.082300
-0.588100 1.159700
-0.571300 1.374400
-0.554400 1.659000
-0.537600 1.987000
-0.520800 2.354200
-0.504000 2.521800
-0.487100 2.618200
-0.470300 2.766600
-0.453500 2.953300
-0.436700 3.127800
-0.419800 3.301900
-0.403000 3.486600
-0.386200 3.673000
-0.369300 3.830700
-0.352500 3.945600
-0.335700 4.061200
-0.318900 4.203000
-0.302000 4.279100
-0.285200 4.473700
-0.268400 4.686600
-0.251600 4.852100
-0.234700 5.005500
-0.217900 5.216400
-0.201100 5.524100
-0.184200 5.980700
-0.167400 6.501900
-0.150600 6.842300
-0.133800 7.228800
-0.116900 7.695100
-0.100100 8.219200
-0.083300 9.875900
-0.066500 10.737700
-0.049600 10.861000
-0.032800 11.887700
-0.016000 10.928600
0.000900 9.965000
0.017700 9.229700
0.034500 8.913700
0.051300 8.725100
0.068200 8.875700
0.085000 8.706700
0.101800 8.166500
0.118600 7.616200
0.135500 6.991800
0.152300 6.697100
0.169100 6.760700
0.186000 7.036000
0.202800 7.749900
0.219600 7.813900
0.236400 8.146100
0.253300 8.658000
0.270100 8.925100
0.286900 9.206600
0.303800 8.912900
0.320600 9.174500
0.337400 9.693400
0.354200 10.367300
0.371100 9.363800
0.387900 8.127200
0.404700 6.764400
0.421500 6.793600
0.438400 7.074400
0.455200 6.812000
0.472000 6.520400
0.488900 5.978400
0.505700 5.156100
0.522500 4.684500
0.539300 4.742100
0.556200 5.690600
0.573000 6.833400
0.589800 6.726500
0.606600 6.246300
0.623500 6.261100
0.640300 5.688100
0.657100 5.132100
0.674000 5.805100
0.690800 6.753100
0.707600 7.742200
0.724400 7.882200
0.741300 7.834100
0.758100 7.803200
0.774900 7.898100
0.791700 8.487000
0.808600 8.334600
0.825400 7.815100
0.842200 7.366700
0.859100 7.134100
0.875900 7.048900
0.892700 7.281500
0.909500 7.792600
0.926400 8.605500
0.943200 10.325100
0.960000 10.289900
0.976800 10.589500
0.993700 10.798300
1.010500 11.173300
1.027300 10.876600
1.044200 10.542800
1.061000 11.196300
1.077800 11.072500
1.094600 10.837200
1.111500 10.000000
1.128300 8.704100
1.145100 7.850100
1.161900 7.824400
1.178800 9.675200
1.195600 11.448800
1.212400 11.796700
1.229300 11.888600
1.246100 12.188200
1.262900 13.446900
1.279700 15.037100
1.296600 16.596300
1.313400 20.009900
1.330200 19.325500
1.347100 19.410300
1.363900 16.848400
1.380700 14.269100
1.397500 12.788300
1.414400 12.292100
1.431200 12.149400
1.448000 11.543500
1.464800 10.697200
1.481700 10.728700
1.498500 11.095600
1.515300 10.802500
1.532200 10.059700
1.549000 9.317700
1.565800 9.458700
1.582600 9.683600
1.599500 9.879000
1.616300 9.268600
1.633100 9.042000
1.649900 9.225900
1.666800 8.788100
1.683600 8.239200
1.700400 9.212300
1.717300 10.565300
1.734100 10.566200
1.750900 10.055100
1.767700 8.948500
1.784600 8.229100
1.801400 8.139900
1.818200 8.045500
1.835000 7.959900
1.851900 8.031400
1.868700 8.664900
1.885500 9.027000
1.902400 9.109000
1.919200 9.088400
1.936000 8.716700
1.952800 8.965400
1.969700 8.975400
1.986500 9.207800
2.003300 9.553700
2.020100 9.559000
2.037000 9.315100
2.053800 8.818800
2.070600 8.975700
2.087500 9.256200
2.104300 9.230100
2.121100 9.786600
2.137900 10.686400
2.154800 11.134800
2.171600 10.961400
2.188400 11.884700
2.205200 10.576800
2.222100 9.098500
2.238900 8.597000
2.255700 8.425700
2.272600 8.655500
2.289400 9.545800
2.306200 9.637900
2.323000 9.657000
2.339900 9.485300
2.356700 8.935500
2.373500 8.663500
2.390400 8.463000
2.407200 8.407300
2.424000 8.092300
2.440800 7.925000
2.457700 7.853500
2.474500 7.841200
2.491300 7.908000
2.508100 7.829000
2.525000 7.778900
2.541800 7.733700
2.558600 7.660800
2.575500 7.601900
2.592300 7.573300
2.609100 7.584200
2.625900 7.513700
2.642800 7.519600
2.659600 7.573500
2.676400 7.631000
2.693200 7.590000
2.710100 7.592500
2.726900 7.676000
2.743700 7.747500
2.760600 7.795800
2.777400 7.904800
2.794200 8.079100
2.811000 8.252300
2.827900 8.403700
2.844700 8.454300
2.861500 8.449300
2.878300 8.477700
2.895200 8.488600
2.912000 8.470700
2.928800 8.473300
2.945700 8.531500
2.962500 8.531600
2.979300 8.472300
2.996100 8.390200
3.013000 8.329200
3.029800 8.322400
3.046600 8.761100
3.063400 9.105600
3.080300 9.204000
3.097100 9.748400
3.113900 10.505500
3.130800 11.513000
3.147600 12.407900
3.164400 12.517600
3.181200 12.634600
3.198100 13.260100
3.214900 13.772000
3.231700 14.092200
3.248500 15.194000
3.265400 14.734200
3.282200 14.446900
3.299000 13.709300
3.315900 12.253400
3.332700 11.357700
3.349500 10.326500
3.366300 9.320200
3.383200 8.453900
3.400000 7.627100
3.416800 6.557200
3.433700 6.108700
3.450500 6.354600
3.467300 6.865200
3.484100 7.670300
3.501000 7.085600
3.517800 6.428700
3.534600 5.720900
3.551400 5.045500
3.568300 4.120700
3.585100 2.627900
3.601900 2.102300
3.618800 2.091400
3.635600 2.077900
3.652400 2.054800
3.669200 2.033900
3.686100 2.014400
3.702900 1.968500
3.719700 1.922000
3.736500 1.887100
3.753400 1.860500
3.770200 1.836300
3.787000 1.814100
3.803900 1.787900
3.820700 1.775100
3.837500 1.764800
3.854300 1.754100
3.871200 1.742300
3.888000 1.719200
3.904800 1.695000
3.921600 1.667300
3.938500 1.642600
3.955300 1.628200
3.972100 1.617000
3.989000 1.605800
4.005800 1.594400
4.022600 1.582600
4.039400 1.570300
4.056300 1.555200
4.073100 1.541200
4.089900 1.530700
4.106700 1.524700
4.123600 1.529400
4.140400 1.541400
4.157200 1.545800
4.174100 1.542700
4.190900 1.531700
4.207700 1.512900
4.224500 1.486400
4.241400 1.467900
4.258200 1.460200
4.275000 1.454300
4.291800 1.450400
4.308700 1.449100
4.325500 1.450300
4.342300 1.454200
4.359200 1.460500
4.376000 1.468000
4.392800 1.476300
4.409600 1.485300
4.426500 1.497100
4.443300 1.510100
4.460100 1.524600
4.477000 1.540000
4.493800 1.554100
4.510600 1.565000
4.527400 1.572100
4.544300 1.573900
4.561100 1.569900
4.577900 1.560000
4.594700 1.542800
4.611600 1.522300
4.628400 1.512300
4.645200 1.502300
4.662100 1.492700
4.678900 1.484600
4.695700 1.477500
4.712500 1.470300
4.729400 1.463100
4.746200 1.455700
4.763000 1.448100
4.779800 1.441200
4.796700 1.435000
4.813500 1.426600
4.830300 1.415300
4.847200 1.405700
4.864000 1.398200
4.880800 1.392700
4.897600 1.388400
4.914500 1.384700
4.931300 1.381600
4.948100 1.378900
4.964900 1.376500
4.981800 1.374400
4.998600 1.373400
5.015400 1.374000
5.032300 1.376000
5.049100 1.379400
5.065900 1.384400
5.082700 1.390500
5.099600 1.397900
5.116400 1.401100
5.133200 1.401300
5.150000 1.400100
5.166900 1.397600
5.183700 1.394500
5.200500 1.390800
5.217400 1.386800
5.234200 1.379900
5.251000 1.369400
5.267800 1.359300
5.284700 1.354300
5.301500 1.349500
5.318300 1.343500
5.335100 1.335700
5.352000 1.326600
5.368800 1.316200
5.385600 1.305700
5.402500 1.297400
5.419300 1.290000
5.436100 1.282800
5.452900 1.275900
5.469800 1.269400
5.486600 1.263300
5.503400 1.256800
5.520300 1.249400
5.537100 1.240800
5.553900 1.227700
5.570700 1.213700
5.587600 1.206500
5.604400 1.203100
5.621200 1.200600
5.638000 1.198600
5.654900 1.197000
5.671700 1.196000
5.688500 1.194400
5.705400 1.192200
5.722200 1.189900
5.739000 1.189600
5.755800 1.191800
5.772700 1.196800
5.789500 1.204000
5.806300 1.212600
5.823100 1.222600
5.840000 1.235000
5.856800 1.257400
5.873600 1.275400
5.890500 1.291400
5.907300 1.311300
5.924100 1.335900
5.940900 1.391700
5.957800 1.465700
5.974600 1.447600
5.991400 1.439900
6.008200 1.429900
6.025100 1.435400
6.041900 1.470000
6.058700 1.479700
6.075600 1.378000
6.092400 1.282900
6.109200 1.229800
6.126000 1.178000
6.142900 1.140200
6.159700 1.112200
6.176500 1.092900
6.193300 1.078600
6.210200 1.066300
6.227000 1.057000
6.243800 1.049300
6.260700 1.042500
6.277500 1.039300
6.294300 1.036400
6.311100 1.030400
6.328000 1.030100
6.344800 1.025600
6.361600 1.018900
6.378500 1.008000
6.395300 0.995500
6.412100 0.982500
6.428900 0.969200
6.445800 0.955400
6.462600 0.941500
6.479400 0.929600
6.496200 0.918500
6.513100 0.899500
6.529900 0.869000
6.546700 0.830200
6.563600 0.811900
6.580400 0.798400
6.597200 0.787700
6.614000 0.779600
6.630900 0.769700
6.647700 0.758300
6.664500 0.747600
6.681300 0.739000
6.698200 0.758100
6.715000 0.851400
6.731800 0.946300
6.748700 1.043700
6.765500 1.144500
6.782300 1.361300
6.799100 1.382900
6.816000 1.176500
6.832800 1.092900
6.849600 1.036000
6.866400 0.994100
6.883300 0.944300
6.900100 0.886500
6.916900 0.820800
6.933800 0.748400
6.950600 0.681100
6.967400 0.598100
6.984200 0.527700
7.001100 0.469900
7.017900 0.424700
7.034700 0.382700
7.051500 0.341900
7.068400 0.291200
7.085200 0.298000
7.102000 0.309700
7.118900 0.321700
7.135700 0.333800
7.152500 0.346100
7.169300 0.358600
7.186200 0.371200
7.203000 0.383900
7.219800 0.396800
7.236600 0.410000
7.253500 0.423300
7.270300 0.436800
7.287100 0.450600
7.304000 0.464600
7.320800 0.478700
7.337600 0.493100
7.354400 0.507800
7.371300 0.522600
7.388100 0.537400
7.404900 0.551600
7.421800 0.565100
7.438600 0.577900
7.455400 0.590100
7.472200 0.601700
7.489100 0.610400
7.505900 0.615600
7.522700 0.617800
7.539500 0.619000
7.556400 0.622100
7.573200 0.624500
7.590000 0.626200
7.606900 0.627300
7.623700 0.627700
7.640500 0.627700
7.657300 0.626100
7.674200 0.608600
7.691000 0.605800
7.707800 0.604200
7.724600 0.603000
7.741500 0.601900
7.758300 0.601300
7.775100 0.601100
7.792000 0.601300
7.808800 0.601700
7.825600 0.607200
7.842400 0.627600
7.859300 0.622600
7.876100 0.619500
7.892900 0.617400
7.909700 0.618200
7.926600 0.621200
7.943400 0.626300
7.960200 0.636600
7.977100 0.660200
7.993900 0.675400
8.010700 0.682200
8.027500 0.679800
8.044400 0.672100
8.061200 0.663600
8.078000 0.654100
8.094800 0.643800
8.111700 0.632600
8.128500 0.620300
8.145300 0.609200
8.162200 0.599000
8.179000 0.594300
8.195800 0.592700
8.212600 0.591200
8.229500 0.589800
8.246300 0.588600
8.263100 0.587400
8.279900 0.586400
8.296800 0.585300
8.313600 0.584100
8.330400 0.582700
8.347300 0.581300
8.364100 0.579700
8.380900 0.578000
8.397700 0.576400
8.414600 0.574800
8.431400 0.573100
8.448200 0.571600
8.465100 0.570000
8.481900 0.568700
8.498700 0.567600
8.515500 0.567100
8.532400 0.568000
8.549200 0.569800
8.566000 0.572200
8.582800 0.572400
8.599700 0.569200
8.616500 0.565200
8.633300 0.560400
8.650200 0.555500
8.667000 0.550700
8.683800 0.546000
8.700600 0.541500
8.717500 0.537100
8.734300 0.532900
8.751100 0.528600
8.767900 0.524300
8.784800 0.520000
8.801600 0.515600
8.818400 0.511900
8.835300 0.509100
8.852100 0.507400
8.868900 0.506300
8.885700 0.504200
8.902600 0.501100
8.919400 0.498000
8.936200 0.495000
8.953000 0.492000
8.969900 0.489200
8.986700 0.486500
9.003500 0.484200
9.020400 0.482300
9.037200 0.480600
9.054000 0.479300
9.070800 0.478300
9.087700 0.520400
9.104500 0.547500
9.121300 0.529600
9.138100 0.505700
9.155000 0.503800
9.171800 0.501100
9.188600 0.497800
9.205500 0.545500
9.222300 0.665100
9.239100 0.740300
9.255900 0.804100
9.272800 0.873500
9.289600 0.947800
9.306400 1.197600
9.323200 1.092500
9.340100 1.014000
9.356900 0.962200
9.373700 0.910600
9.390600 0.855400
9.407400 0.797500
9.424200 0.703900
9.441000 0.584300
9.457900 0.453400
9.474700 0.338000
9.491500 0.225900
9.508400 0.176800
9.525200 0.154500
9.542000 0.134300
9.558800 0.116100
9.575700 0.100000
9.592500 0.085900
9.609300 0.073900
9.626100 0.334300
9.643000 0.432100
9.659800 0.616700
9.676600 0.827500
9.693500 0.984600
9.710300 1.280700
9.727100 1.551100
9.743900 1.744100
9.760800 1.872200
9.777600 1.901300
9.794400 1.969300
9.811200 2.046300
9.828100 2.170700
9.844900 2.061600
9.861700 2.052800
9.878600 2.011700
9.895400 2.017800
9.912200 2.057000
9.929000 2.108000
9.945900 2.162600
9.962700 2.223600
9.979500 2.298800
9.996300 2.374400
10.013200 2.677200
10.030000 2.896200
10.046800 2.761400
10.063700 2.749800
10.080500 2.786600
10.097300 2.857800
10.114100 2.944400
10.131000 2.975900
10.147800 3.048200
10.164600 3.256500
10.181400 3.370600
10.198300 3.400000
10.215100 3.465400
10.231900 3.512300
10.248800 3.581200
10.265600 3.471300
10.282400 3.393300
10.299200 3.352400
10.316100 3.307400
10.332900 3.248300
10.349700 3.175300
10.366500 3.115800
10.383400 3.092600
10.400200 3.207800
10.417000 2.953200
10.433900 2.958500
10.450700 2.987400
10.467500 2.979000
10.484300 2.935000
10.501200 2.869500
10.518000 2.816400
10.534800 2.751600
10.551700 2.643000
10.568500 2.542400
10.585300 2.491000
10.602100 2.464500
10.619000 2.385100
10.635800 2.251500
10.652600 2.064800
10.669400 1.911100
10.686300 1.825600
10.703100 1.765700
10.719900 1.733800
10.736800 1.720200
10.753600 1.728500
10.770400 1.739400
10.787200 1.785600
10.804100 1.909600
10.820900 2.091600
10.837700 2.205900
10.854500 2.264000
10.871400 2.239300
10.888200 2.219200
10.905000 2.239500
10.921900 2.259800
10.938700 2.269900
10.955500 2.179000
10.972300 2.228000
10.989200 2.325600
11.006000 2.352200
11.022800 2.402500
11.039600 2.435400
11.056500 2.477400
11.073300 2.525200
11.090100 2.555600
11.107000 2.534500
11.123800 2.511400
11.140600 2.519300
11.157400 2.523400
11.174300 2.504000
11.191100 2.451300
11.207900 2.375600
11.224700 2.302400
11.241600 2.209100
11.258400 2.080400
11.275200 1.950900
11.292100 1.901900
11.308900 1.871500
11.325700 1.842100
11.342500 1.807900
11.359400 1.768700
11.376200 1.724800
11.393000 1.677500
11.409800 1.634400
11.426700 1.598800
11.443500 1.569800
11.460300 1.544600
11.477200 1.515900
11.494000 1.486700
11.510800 1.540000
11.527600 1.554000
11.544500 1.578300
11.561300 1.609200
11.578100 1.645800
11.595000 1.686700
11.611800 1.727300
11.628600 1.795400
11.645400 2.057400
11.662300 2.125900
11.679100 2.105400
11.695900 1.947500
11.712700 1.768700
11.729600 1.625900
11.746400 1.544300
11.763200 1.517200
11.780100 1.506300
11.796900 1.490000
11.813700 1.468500
11.830500 1.444500
11.847400 1.417900
11.864200 1.386300
11.881000 1.362600
11.897800 1.366600
11.914700 1.390900
11.931500 1.413800
11.948300 1.427500
11.965200 1.428900
