set title 'mp-22777 - Density of States'
set xlabel 'Energy (eV)'
set ylabel 'DOS (states/eV)'
set grid
set xrange [-10:10]
set yrange [0:10.315]
set xzeroaxis lt -1
set terminal png size 800,600
set output 'mp-22777_dos_gnuplot.png'
plot '-' using 1:2 with lines title 'DOS'
-27.885900 0.000000
-27.823900 0.000000
-27.761900 0.000000
-27.699900 0.000000
-27.638000 0.000000
-27.576000 0.000000
-27.514000 0.000000
-27.452100 0.000000
-27.390100 0.000000
-27.328100 0.000000
-27.266200 0.000000
-27.204200 0.000000
-27.142200 0.000000
-27.080300 0.000000
-27.018300 0.000000
-26.956300 0.000000
-26.894300 0.000000
-26.832400 0.000000
-26.770400 0.000000
-26.708400 0.000000
-26.646500 0.000000
-26.584500 0.000000
-26.522500 0.000000
-26.460600 0.000000
-26.398600 0.000000
-26.336600 0.000000
-26.274700 0.000000
-26.212700 0.000000
-26.150700 0.000000
-26.088700 0.000000
-26.026800 0.000000
-25.964800 0.000000
-25.902800 0.000000
-25.840900 0.000000
-25.778900 0.000000
-25.716900 0.000000
-25.655000 0.000000
-25.593000 0.000000
-25.531000 0.000000
-25.469000 0.000000
-25.407100 0.000000
-25.345100 0.000000
-25.283100 0.000000
-25.221200 0.000000
-25.159200 0.000000
-25.097200 0.000000
-25.035300 0.000000
-24.973300 0.000000
-24.911300 0.000000
-24.849400 0.000000
-24.787400 0.000000
-24.725400 0.000000
-24.663400 0.000000
-24.601500 0.000000
-24.539500 0.000000
-24.477500 0.000000
-24.415600 0.000000
-24.353600 0.000000
-24.291600 0.000000
-24.229700 0.000000
-24.167700 0.000000
-24.105700 0.000000
-24.043800 0.000000
-23.981800 0.000000
-23.919800 0.000000
-23.857800 0.000000
-23.795900 0.000000
-23.733900 0.000000
-23.671900 0.000000
-23.610000 0.000000
-23.548000 0.000000
-23.486000 0.000000
-23.424100 0.000000
-23.362100 0.000000
-23.300100 0.000000
-23.238200 0.000000
-23.176200 0.000000
-23.114200 0.000000
-23.052200 0.000000
-22.990300 0.000000
-22.928300 0.000000
-22.866300 0.000000
-22.804400 0.000000
-22.742400 0.000000
-22.680400 0.000000
-22.618500 0.000000
-22.556500 0.000000
-22.494500 0.000000
-22.432600 0.000000
-22.370600 0.000000
-22.308600 0.000000
-22.246600 1.513200
-22.184700 20.444500
-22.122700 6.340200
-22.060700 0.000000
-21.998800 0.000000
-21.936800 0.000000
-21.874800 0.000000
-21.812900 26.746600
-21.750900 0.000000
-21.688900 7.081900
-21.626900 0.000000
-21.565000 0.000000
-21.503000 0.000000
-21.441000 0.000000
-21.379100 0.000000
-21.317100 0.000000
-21.255100 0.000000
-21.193200 0.000000
-21.131200 0.000000
-21.069200 0.000000
-21.007300 0.000000
-20.945300 0.000000
-20.883300 0.000000
-20.821300 0.000000
-20.759400 0.000000
-20.697400 0.000000
-20.635400 0.000000
-20.573500 0.000000
-20.511500 0.000000
-20.449500 0.000000
-20.387600 0.000000
-20.325600 0.000000
-20.263600 0.000000
-20.201700 0.000000
-20.139700 0.000000
-20.077700 0.000000
-20.015700 0.000000
-19.953800 0.000000
-19.891800 0.000000
-19.829800 0.000000
-19.767900 0.000000
-19.705900 0.000000
-19.643900 0.000000
-19.582000 0.000000
-19.520000 0.000000
-19.458000 0.000000
-19.396100 0.000000
-19.334100 0.000000
-19.272100 0.000000
-19.210100 0.000000
-19.148200 0.000000
-19.086200 0.000000
-19.024200 0.000000
-18.962300 0.000000
-18.900300 0.000000
-18.838300 0.000000
-18.776400 0.000000
-18.714400 0.000000
-18.652400 0.000000
-18.590500 0.000000
-18.528500 0.000000
-18.466500 0.000000
-18.404500 0.000000
-18.342600 0.000000
-18.280600 0.000000
-18.218600 0.000000
-18.156700 0.000000
-18.094700 0.000000
-18.032700 0.000000
-17.970800 0.000000
-17.908800 0.000000
-17.846800 0.000000
-17.784900 0.000000
-17.722900 0.000000
-17.660900 0.000000
-17.598900 0.000000
-17.537000 0.000000
-17.475000 0.000000
-17.413000 0.000000
-17.351100 0.000000
-17.289100 0.000000
-17.227100 0.000000
-17.165200 0.000000
-17.103200 0.000000
-17.041200 0.000000
-16.979200 0.000000
-16.917300 0.000000
-16.855300 0.000000
-16.793300 0.000000
-16.731400 0.000000
-16.669400 0.000000
-16.607400 0.000000
-16.545500 0.000000
-16.483500 0.000000
-16.421500 0.000000
-16.359600 0.000000
-16.297600 0.000000
-16.235600 0.000000
-16.173600 0.000000
-16.111700 0.000000
-16.049700 0.000000
-15.987700 0.000000
-15.925800 0.000000
-15.863800 0.000000
-15.801800 0.000000
-15.739900 0.000000
-15.677900 0.000000
-15.615900 0.000000
-15.554000 0.000000
-15.492000 0.000000
-15.430000 0.000000
-15.368000 0.000000
-15.306100 0.000000
-15.244100 0.000000
-15.182100 0.000000
-15.120200 0.000000
-15.058200 0.000000
-14.996200 0.000000
-14.934300 0.000000
-14.872300 0.000000
-14.810300 0.000000
-14.748400 0.000000
-14.686400 0.000000
-14.624400 0.000000
-14.562400 0.000000
-14.500500 0.000000
-14.438500 0.000000
-14.376500 0.000000
-14.314600 0.000000
-14.252600 0.000000
-14.190600 0.000000
-14.128700 0.000000
-14.066700 0.000000
-14.004700 0.000000
-13.942800 0.000000
-13.880800 0.000000
-13.818800 0.000000
-13.756800 0.000000
-13.694900 0.000000
-13.632900 0.000000
-13.570900 0.000000
-13.509000 0.000000
-13.447000 0.000000
-13.385000 0.000000
-13.323100 0.000000
-13.261100 0.000000
-13.199100 0.000000
-13.137100 0.000000
-13.075200 0.000000
-13.013200 0.000000
-12.951200 0.000000
-12.889300 0.000000
-12.827300 0.000000
-12.765300 0.000000
-12.703400 0.000000
-12.641400 0.000000
-12.579400 0.000000
-12.517500 0.000000
-12.455500 0.000000
-12.393500 0.000000
-12.331500 0.000000
-12.269600 0.000000
-12.207600 0.000000
-12.145600 0.000000
-12.083700 0.000000
-12.021700 0.000000
-11.959700 0.000000
-11.897800 3.068500
-11.835800 2.805400
-11.773800 1.889600
-11.711900 1.536200
-11.649900 1.529900
-11.587900 1.293600
-11.525900 1.123800
-11.464000 1.123700
-11.402000 1.123700
-11.340000 1.090700
-11.278100 1.007900
-11.216100 1.007800
-11.154100 1.007700
-11.092200 1.013300
-11.030200 1.071700
-10.968200 1.178800
-10.906300 1.178900
-10.844300 1.240400
-10.782300 1.675800
-10.720300 2.218000
-10.658400 1.763500
-10.596400 0.199500
-10.534400 0.000000
-10.472500 0.000000
-10.410500 0.000000
-10.348500 0.000000
-10.286600 0.000000
-10.224600 0.000000
-10.162600 0.000000
-10.100700 0.000000
-10.038700 0.000000
-9.976700 0.000000
-9.914700 0.000000
-9.852800 0.000000
-9.790800 0.000000
-9.728800 0.000000
-9.666900 0.000000
-9.604900 0.000000
-9.542900 0.000000
-9.481000 0.000000
-9.419000 0.000000
-9.357000 0.000000
-9.295100 0.000000
-9.233100 0.000000
-9.171100 0.000000
-9.109100 0.000000
-9.047200 0.000000
-8.985200 0.000000
-8.923200 0.000000
-8.861300 0.000000
-8.799300 0.000000
-8.737300 0.309400
-8.675400 1.510700
-8.613400 3.909400
-8.551400 5.390100
-8.489400 7.781900
-8.427500 5.498500
-8.365500 4.887700
-8.303500 3.417800
-8.241600 0.000000
-8.179600 0.000000
-8.117600 0.000000
-8.055700 0.000000
-7.993700 0.000000
-7.931700 0.000000
-7.869800 0.000000
-7.807800 0.000000
-7.745800 0.000000
-7.683800 0.000000
-7.621900 0.000000
-7.559900 0.000000
-7.497900 0.000000
-7.436000 0.000000
-7.374000 0.000000
-7.312000 0.000000
-7.250100 0.000000
-7.188100 0.477500
-7.126100 1.166000
-7.064200 1.748000
-7.002200 1.403200
-6.940200 0.924700
-6.878200 0.680400
-6.816300 0.680500
-6.754300 0.680500
-6.692300 0.680600
-6.630400 0.680600
-6.568400 0.675100
-6.506400 0.610400
-6.444500 0.558400
-6.382500 0.558400
-6.320500 0.558300
-6.258600 0.558300
-6.196600 1.020000
-6.134600 1.467300
-6.072600 1.942600
-6.010700 3.040700
-5.948700 3.771700
-5.886700 4.468300
-5.824800 5.320800
-5.762800 9.377000
-5.700800 4.071500
-5.638900 1.993400
-5.576900 0.772100
-5.514900 0.773200
-5.453000 0.762900
-5.391000 0.773400
-5.329000 0.849400
-5.267000 0.894600
-5.205100 0.894400
-5.143100 1.036400
-5.081100 1.409200
-5.019200 1.973600
-4.957200 1.399900
-4.895200 1.301000
-4.833300 1.167700
-4.771300 1.399900
-4.709300 0.759300
-4.647400 1.360300
-4.585400 2.628700
-4.523400 2.310100
-4.461400 2.409600
-4.399500 2.811200
-4.337500 3.875000
-4.275500 3.915800
-4.213600 1.680300
-4.151600 1.252900
-4.089600 1.141800
-4.027700 1.143900
-3.965700 1.148000
-3.903700 1.129100
-3.841700 1.129100
-3.779800 1.129500
-3.717800 5.999800
-3.655800 0.000000
-3.593900 0.000000
-3.531900 0.000000
-3.469900 0.000000
-3.408000 0.000000
-3.346000 0.000000
-3.284000 0.000000
-3.222100 0.000000
-3.160100 0.000000
-3.098100 0.000000
-3.036100 0.000000
-2.974200 0.000000
-2.912200 0.000000
-2.850200 0.000000
-2.788300 0.000000
-2.726300 0.000000
-2.664300 0.000000
-2.602400 0.000000
-2.540400 0.000000
-2.478400 0.000000
-2.416500 0.000000
-2.354500 0.000000
-2.292500 0.000000
-2.230500 0.000000
-2.168600 0.000000
-2.106600 0.000000
-2.044600 0.000000
-1.982700 0.000000
-1.920700 0.000000
-1.858700 0.000000
-1.796800 0.000000
-1.734800 0.000000
-1.672800 0.000000
-1.610900 0.000000
-1.548900 0.000000
-1.486900 0.000000
-1.424900 0.000000
-1.363000 0.000000
-1.301000 0.000000
-1.239000 0.000000
-1.177100 0.000000
-1.115100 0.000000
-1.053100 0.797700
-0.991200 1.111300
-0.929200 1.371500
-0.867200 1.382800
-0.805300 1.669400
-0.743300 2.090900
-0.681300 1.563100
-0.619300 1.214400
-0.557400 1.106500
-0.495400 1.054600
-0.433400 0.983900
-0.371500 0.928100
-0.309500 0.887300
-0.247500 0.860500
-0.185600 0.839500
-0.123600 0.816100
-0.061600 0.788900
0.000400 0.779300
0.062300 0.778600
0.124300 0.793200
0.186300 0.801800
0.248200 0.810200
0.310200 0.820800
0.372200 0.825500
0.434100 1.390900
0.496100 2.063800
0.558100 2.750200
0.620000 3.762100
0.682000 6.855300
0.744000 3.889500
0.806000 3.317400
0.867900 2.791000
0.929900 3.013000
0.991900 2.886200
1.053800 3.626400
1.115800 3.702700
1.177800 2.606900
1.239700 0.816600
1.301700 0.784400
1.363700 0.784400
1.425600 0.585200
1.487600 0.504800
1.549600 0.504800
1.611600 0.504800
1.673500 0.504800
1.735500 0.504800
1.797500 0.504800
1.859400 0.504800
1.921400 0.504800
1.983400 0.504800
2.045300 0.477900
2.107300 0.477900
2.169300 0.477900
2.231200 0.477900
2.293200 0.477900
2.355200 0.477900
2.417200 0.477900
2.479100 0.671800
2.541100 0.837400
2.603100 1.750700
2.665000 3.103500
2.727000 3.745200
2.789000 4.220200
2.850900 5.084300
2.912900 4.847100
2.974900 4.764900
3.036800 4.805500
3.098800 4.945900
3.160800 4.804800
3.222800 3.526700
3.284700 1.547100
3.346700 1.746400
3.408700 1.252900
3.470600 1.589100
3.532600 2.002700
3.594600 2.134600
3.656500 2.939900
3.718500 2.940000
3.780500 0.607000
3.842400 0.619100
3.904400 0.633200
3.966400 0.640700
4.028400 0.646700
4.090300 0.646800
4.152300 0.646800
4.214300 0.646900
4.276200 0.646900
4.338200 0.745100
4.400200 0.805500
4.462100 0.843600
4.524100 0.849500
4.586100 0.849600
4.648100 0.849800
4.710000 1.198700
4.772000 1.473800
4.834000 1.575700
4.895900 2.187000
4.957900 1.919400
5.019900 0.000000
5.081800 0.000000
5.143800 0.000000
5.205800 0.000000
5.267700 0.000000
5.329700 0.000000
5.391700 0.000000
5.453700 0.000000
5.515600 0.000000
5.577600 0.000000
5.639600 0.000000
5.701500 0.000000
5.763500 0.000000
5.825500 0.000000
5.887400 0.000000
5.949400 0.000000
6.011400 0.000000
6.073300 0.000000
6.135300 0.000000
6.197300 0.000000
6.259300 0.000000
6.321200 0.191400
6.383200 0.240300
6.445200 0.326600
6.507100 0.364700
6.569100 0.442600
6.631100 0.486700
6.693000 0.505700
6.755000 0.547600
6.817000 0.598700
6.878900 0.632000
6.940900 0.661800
7.002900 0.691000
7.064900 0.731900
7.126800 0.779200
7.188800 0.824900
7.250800 0.875100
7.312700 0.940000
7.374700 1.025000
7.436700 1.101000
7.498600 1.195900
7.560600 1.308900
7.622600 1.418700
7.684500 1.497100
7.746500 1.649800
7.808500 1.717200
7.870500 1.687800
7.932400 1.622500
7.994400 1.394600
8.056400 1.082700
8.118300 0.916100
8.180300 0.800700
8.242300 0.743600
8.304200 0.591100
8.366200 0.498200
8.428200 0.415800
8.490200 0.352100
8.552100 0.297100
8.614100 0.248100
8.676100 0.212300
8.738000 0.188300
8.800000 0.210000
8.862000 0.243000
8.923900 0.257800
8.985900 0.283200
9.047900 0.480200
9.109800 0.820200
9.171800 0.955900
9.233800 1.133500
9.295800 1.362900
9.357700 1.613000
9.419700 1.797800
9.481700 1.860300
9.543600 2.090000
9.605600 1.895100
9.667600 1.899500
9.729500 1.596900
9.791500 1.493600
9.853500 1.570200
9.915400 1.702800
9.977400 1.852200
10.039400 1.755600
10.101400 1.734600
10.163300 1.698100
10.225300 1.696700
10.287300 1.680600
10.349200 1.677700
10.411200 1.667000
10.473200 1.692400
10.535100 1.698800
10.597100 1.679300
10.659100 1.705700
10.721000 1.558200
10.783000 1.512400
10.845000 1.558700
10.907000 1.914200
10.968900 1.443400
11.030900 1.272200
11.092900 1.122600
11.154800 0.997300
11.216800 0.924100
11.278800 0.892500
11.340700 0.834100
11.402700 0.813700
11.464700 0.795400
11.526600 0.776300
11.588600 0.758900
11.650600 0.764000
11.712600 0.777400
11.774500 0.773900
11.836500 0.755700
11.898500 0.737100
11.960400 0.831800
12.022400 0.864700
12.084400 0.918700
12.146300 0.906900
12.208300 1.065500
12.270300 1.288600
12.332200 1.311900
12.394200 1.280000
12.456200 1.122100
12.518200 1.066700
12.580100 1.054500
12.642100 1.100200
12.704100 1.091700
12.766000 1.079500
12.828000 1.081700
12.890000 1.132500
12.951900 1.391200
13.013900 1.733500
13.075900 1.815500
13.137900 2.139700
13.199800 2.231200
13.261800 1.989500
13.323800 1.978000
13.385700 1.924300
13.447700 1.869900
13.509700 1.672600
13.571600 1.643700
13.633600 1.577500
13.695600 1.581200
13.757500 1.783500
13.819500 2.009900
13.881500 2.124600
13.943500 2.210300
14.005400 2.308800
14.067400 2.381900
14.129400 2.287300
14.191300 1.943800
14.253300 1.566500
14.315300 1.246300
14.377200 0.967000
14.439200 0.832200
14.501200 0.791500
14.563100 1.018600
14.625100 1.019100
14.687100 1.099400
14.749100 1.158300
14.811000 1.166600
14.873000 1.199000
14.935000 1.294600
14.996900 1.367600
15.058900 1.427300
15.120900 1.497300
15.182800 1.456900
15.244800 1.535700
15.306800 1.580300
15.368700 1.583100
15.430700 1.460400
15.492700 1.385100
15.554700 1.232300
15.616600 1.124200
15.678600 1.097800
15.740600 1.056300
15.802500 1.060700
15.864500 1.050900
15.926500 0.962500
15.988400 0.902500
16.050400 0.835400
16.112400 0.804000
16.174300 0.840400
16.236300 0.908800
16.298300 1.038400
16.360300 1.317200
16.422200 1.490300
16.484200 1.512100
16.546200 1.542300
16.608100 1.426400
16.670100 1.440600
16.732100 1.507100
16.794000 1.975800
16.856000 2.165200
16.918000 2.507900
16.979900 2.400800
17.041900 2.365800
17.103900 2.727500
17.165900 2.757100
17.227800 2.589000
17.289800 2.141600
17.351800 1.952800
17.413700 2.007200
17.475700 2.067200
17.537700 2.100500
17.599600 2.274000
17.661600 2.695300
17.723600 2.588900
17.785600 2.579600
17.847500 2.478200
17.909500 2.485500
17.971500 2.533100
18.033400 2.528700
18.095400 2.510100
18.157400 2.524400
18.219300 2.429000
18.281300 2.350400
18.343300 2.342900
18.405200 2.302400
18.467200 2.266900
18.529200 2.282800
18.591200 2.180600
18.653100 2.322100
18.715100 2.400300
18.777100 2.172100
18.839000 2.219000
18.901000 2.210800
18.963000 2.308800
19.024900 2.356500
19.086900 2.404900
19.148900 2.711400
19.210800 2.727700
19.272800 2.394800
19.334800 2.427800
19.396800 2.440700
19.458700 2.396900
19.520700 2.377900
19.582700 2.213400
19.644600 2.158600
19.706600 2.111800
19.768600 2.192000
19.830500 2.481500
19.892500 2.751100
19.954500 2.729700
20.016400 2.553100
20.078400 2.510500
20.140400 2.371000
20.202400 2.263400
20.264300 2.061800
20.326300 1.899300
20.388300 1.811100
20.450200 1.690200
20.512200 1.670400
20.574200 1.701100
20.636100 1.697100
20.698100 1.825100
20.760100 2.102700
20.822000 1.887500
20.884000 1.763200
20.946000 1.669800
21.008000 1.627600
21.069900 1.563800
21.131900 1.552800
21.193900 1.545600
21.255800 1.588000
21.317800 1.608600
21.379800 1.642900
21.441700 1.629900
21.503700 1.571000
21.565700 1.568500
21.627700 1.654600
21.689600 1.895600
21.751600 1.915500
21.813600 2.024900
21.875500 1.946100
21.937500 1.749300
21.999500 1.574900
22.061400 1.467300
22.123400 1.359100
22.185400 1.319300
22.247300 1.406800
22.309300 1.452100
22.371300 1.513300
22.433300 1.600100
22.495200 1.726500
22.557200 1.677300
22.619200 1.556900
22.681100 1.492000
22.743100 1.505100
22.805100 1.566500
22.867000 1.631000
22.929000 1.729100
22.991000 1.740900
23.052900 1.744700
23.114900 1.848100
23.176900 1.935300
23.238900 2.053700
23.300800 2.141200
23.362800 2.162700
23.424800 2.201000
23.486700 2.271200
23.548700 2.269400
23.610700 2.226800
23.672600 2.212300
23.734600 2.351700
23.796600 2.404900
23.858500 2.489400
23.920500 2.472200
23.982500 2.344200
24.044500 2.281000
24.106400 2.334900
24.168400 2.589500
24.230400 2.710800
24.292300 3.029000
24.354300 3.093000
24.416300 2.894000
24.478200 2.543100
24.540200 2.467000
24.602200 2.648500
24.664100 2.716400
24.726100 2.420600
24.788100 2.240600
24.850100 2.229500
24.912000 2.425100
24.974000 2.704800
25.036000 2.770600
25.097900 3.061400
25.159900 3.292500
25.221900 3.302700
25.283800 3.197600
25.345800 2.771000
25.407800 2.450000
25.469700 2.265000
25.531700 2.331400
25.593700 2.135100
25.655700 2.246400
25.717600 2.548400
25.779600 2.636300
25.841600 2.386700
25.903500 2.359900
25.965500 1.876700
26.027500 1.757800
26.089400 1.807600
26.151400 1.938300
26.213400 1.935900
26.275400 2.013100
26.337300 2.089600
26.399300 2.152100
26.461300 2.173800
26.523200 2.188100
26.585200 2.227300
26.647200 2.233800
26.709100 2.280200
26.771100 2.309700
26.833100 2.133000
26.895000 2.219700
26.957000 2.458200
27.019000 2.847400
27.081000 2.726700
27.142900 2.366800
27.204900 2.223900
27.266900 2.168300
27.328800 2.233400
27.390800 2.259200
27.452800 2.110000
27.514700 2.105200
27.576700 2.043700
27.638700 2.065800
27.700600 2.206100
27.762600 2.374400
27.824600 2.456600
27.886600 2.591800
27.948500 2.606800
28.010500 2.462900
28.072500 2.337100
28.134400 2.224100
28.196400 2.117200
28.258400 2.068300
28.320300 2.108000
28.382300 2.244600
28.444300 2.340700
28.506200 2.274500
28.568200 2.097500
28.630200 1.931000
28.692200 1.817300
28.754100 1.984000
28.816100 2.169800
28.878100 2.286200
28.940000 2.299400
29.002000 2.302800
29.064000 2.439800
29.125900 2.606800
29.187900 2.405400
29.249900 2.394500
29.311800 2.331400
29.373800 2.258600
29.435800 2.237800
29.497800 2.202000
29.559700 2.066100
29.621700 1.985600
29.683700 1.961600
29.745600 2.043000
29.807600 2.165400
29.869600 2.216000
29.931500 2.334600
29.993500 2.400600
30.055500 2.433200
30.117500 2.477400
30.179400 2.559100
30.241400 2.735900
30.303400 2.517400
30.365300 2.328500
30.427300 2.100200
30.489300 1.853200
30.551200 1.729500
30.613200 1.661400
30.675200 1.700300
30.737100 1.724700
30.799100 1.800200
30.861100 1.905000
30.923100 2.054400
30.985000 2.144500
31.047000 2.171500
31.109000 2.292500
31.170900 2.256600
31.232900 2.306800
31.294900 2.451100
31.356800 2.709900
31.418800 2.850600
31.480800 2.795200
31.542700 2.752700
31.604700 2.833300
31.666700 2.657700
31.728700 2.622900
31.790600 2.679900
31.852600 2.614000
31.914600 2.620300
31.976500 2.689600
32.038500 2.808300
32.100500 2.662800
32.162400 2.702200
32.224400 2.689200
32.286400 2.595900
32.348300 2.607200
32.410300 2.608100
32.472300 2.636600
32.534300 2.620600
32.596200 2.379300
32.658200 2.433000
32.720200 2.516000
32.782100 2.460000
32.844100 2.516100
32.906100 2.520400
32.968000 2.600800
33.030000 2.780500
33.092000 2.998200
33.153900 2.818600
33.215900 2.682400
33.277900 2.694700
33.339900 2.765600
33.401800 2.716800
33.463800 2.622400
33.525800 2.578500
33.587700 2.631200
33.649700 2.918100
33.711700 3.095300
33.773600 2.839900
33.835600 2.648600
33.897600 2.452100
33.959500 2.457600
34.021500 2.561800
34.083500 2.646700
34.145500 2.493000
34.207400 2.402000
34.269400 2.318400
34.331400 2.361100
34.393300 2.417900
34.455300 2.434500
34.517300 2.493300
34.579200 2.510600
34.641200 2.645400
34.703200 2.865200
34.765200 3.108400
34.827100 2.997900
34.889100 2.947600
34.951100 2.829200
35.013000 2.662400
35.075000 2.617900
35.137000 2.535000
35.198900 2.490300
35.260900 2.463100
35.322900 2.525500
35.384800 2.554100
35.446800 2.573700
35.508800 2.614000
35.570800 2.608100
35.632700 2.736700
35.694700 2.946400
35.756700 3.077600
35.818600 3.142200
35.880600 3.141300
35.942600 3.189100
