set title 'mp-1216527 - Density of States'
set xlabel 'Energy (eV)'
set ylabel 'DOS (states/eV)'
set grid
set xrange [-10:10]
set yrange [0:64.295]
set xzeroaxis lt -1
set terminal png size 800,600
set output 'mp-1216527_dos_gnuplot.png'
plot '-' using 1:2 with lines title 'DOS'
-10.763300 0.000000
-10.735400 0.000000
-10.707500 0.000000
-10.679600 0.000000
-10.651700 0.000000
-10.623800 0.000000
-10.595900 0.000000
-10.568000 0.000000
-10.540100 0.000000
-10.512200 0.000000
-10.484300 0.000000
-10.456400 0.000000
-10.428400 0.000000
-10.400500 0.000000
-10.372600 0.000000
-10.344700 0.000000
-10.316800 0.000000
-10.288900 0.000000
-10.261000 0.000000
-10.233100 0.000000
-10.205200 0.000000
-10.177300 0.000000
-10.149400 0.000000
-10.121400 0.000000
-10.093500 0.000000
-10.065600 0.000000
-10.037700 0.000000
-10.009800 0.000000
-9.981900 0.000000
-9.954000 0.000000
-9.926100 0.000000
-9.898200 0.000000
-9.870300 0.000000
-9.842400 0.000000
-9.814400 0.000000
-9.786500 0.000000
-9.758600 0.000000
-9.730700 0.000000
-9.702800 0.000000
-9.674900 0.000000
-9.647000 0.000000
-9.619100 0.000000
-9.591200 0.000000
-9.563300 0.000000
-9.535400 0.000000
-9.507400 0.000000
-9.479500 0.000000
-9.451600 0.000000
-9.423700 0.000000
-9.395800 0.000000
-9.367900 0.000000
-9.340000 0.000000
-9.312100 0.000000
-9.284200 0.000000
-9.256300 0.000000
-9.228400 0.000000
-9.200500 0.000000
-9.172500 0.000000
-9.144600 0.000000
-9.116700 0.000000
-9.088800 0.000000
-9.060900 0.000000
-9.033000 0.000000
-9.005100 0.000000
-8.977200 0.000000
-8.949300 0.000000
-8.921400 0.000000
-8.893500 0.000000
-8.865500 0.000000
-8.837600 0.000000
-8.809700 0.000000
-8.781800 0.000000
-8.753900 0.000000
-8.726000 0.000000
-8.698100 0.000000
-8.670200 0.000000
-8.642300 0.000000
-8.614400 0.000000
-8.586500 0.000000
-8.558500 0.000000
-8.530600 0.000000
-8.502700 0.000000
-8.474800 0.000000
-8.446900 0.000000
-8.419000 0.000000
-8.391100 0.000000
-8.363200 0.000000
-8.335300 0.000000
-8.307400 0.000000
-8.279500 0.000000
-8.251500 0.000000
-8.223600 1.545800
-8.195700 15.102300
-8.167800 33.980400
-8.139900 32.188700
-8.112000 58.449600
-8.084100 24.172400
-8.056200 34.249800
-8.028300 32.369800
-8.000400 9.254600
-7.972500 17.863700
-7.944500 16.523200
-7.916600 8.270300
-7.888700 0.000000
-7.860800 0.000000
-7.832900 0.000000
-7.805000 0.000000
-7.777100 0.000000
-7.749200 0.000000
-7.721300 0.000000
-7.693400 0.000000
-7.665500 0.000000
-7.637600 0.000000
-7.609600 0.000000
-7.581700 0.000000
-7.553800 0.000000
-7.525900 0.000000
-7.498000 0.000000
-7.470100 0.000000
-7.442200 0.000000
-7.414300 0.000000
-7.386400 0.000000
-7.358500 0.000000
-7.330600 0.000000
-7.302600 0.000000
-7.274700 0.000000
-7.246800 0.000000
-7.218900 0.000000
-7.191000 0.000000
-7.163100 0.000000
-7.135200 0.000000
-7.107300 0.000000
-7.079400 0.000000
-7.051500 0.000000
-7.023600 0.000000
-6.995600 0.000000
-6.967700 0.000000
-6.939800 0.000000
-6.911900 0.000000
-6.884000 0.000000
-6.856100 0.000000
-6.828200 0.000000
-6.800300 0.000000
-6.772400 0.000000
-6.744500 0.000000
-6.716600 0.000000
-6.688600 0.000000
-6.660700 0.000000
-6.632800 0.000000
-6.604900 0.000000
-6.577000 0.000000
-6.549100 0.000000
-6.521200 0.000000
-6.493300 0.000000
-6.465400 0.000000
-6.437500 0.000000
-6.409600 0.000000
-6.381700 0.000000
-6.353700 0.000000
-6.325800 0.000000
-6.297900 0.000000
-6.270000 0.000000
-6.242100 0.000000
-6.214200 0.000000
-6.186300 0.000000
-6.158400 0.000000
-6.130500 0.000000
-6.102600 0.000000
-6.074700 0.000000
-6.046700 0.000000
-6.018800 0.000000
-5.990900 0.000000
-5.963000 0.000000
-5.935100 0.000000
-5.907200 0.000000
-5.879300 0.000000
-5.851400 0.000000
-5.823500 0.000000
-5.795600 0.000000
-5.767700 0.000000
-5.739700 0.000000
-5.711800 0.000000
-5.683900 0.000000
-5.656000 0.000000
-5.628100 0.000000
-5.600200 0.000000
-5.572300 0.000000
-5.544400 0.000000
-5.516500 0.000000
-5.488600 0.000000
-5.460700 0.000000
-5.432700 0.000000
-5.404800 0.000000
-5.376900 0.000000
-5.349000 1.838000
-5.321100 7.293100
-5.293200 6.632400
-5.265300 7.569100
-5.237400 11.217200
-5.209500 17.460700
-5.181600 8.784300
-5.153700 10.694300
-5.125800 24.133700
-5.097800 31.756300
-5.069900 13.903200
-5.042000 3.992800
-5.014100 18.794300
-4.986200 15.406700
-4.958300 14.413200
-4.930400 47.974900
-4.902500 23.729300
-4.874600 32.710500
-4.846700 9.378900
-4.818800 9.126100
-4.790800 16.200700
-4.762900 7.827900
-4.735000 6.010200
-4.707100 5.432100
-4.679200 0.000000
-4.651300 0.000000
-4.623400 0.000000
-4.595500 0.000000
-4.567600 0.000000
-4.539700 0.000000
-4.511800 0.000000
-4.483800 0.000000
-4.455900 0.000000
-4.428000 0.000000
-4.400100 0.000000
-4.372200 0.000000
-4.344300 0.000000
-4.316400 0.000000
-4.288500 0.000000
-4.260600 0.000000
-4.232700 0.000000
-4.204800 0.000000
-4.176800 0.000000
-4.148900 0.000000
-4.121000 0.000000
-4.093100 0.000000
-4.065200 0.000000
-4.037300 0.000000
-4.009400 0.000000
-3.981500 0.000000
-3.953600 0.000000
-3.925700 0.000000
-3.897800 0.000000
-3.869800 0.000000
-3.841900 0.000000
-3.814000 0.000000
-3.786100 0.000000
-3.758200 0.000000
-3.730300 0.000000
-3.702400 0.000000
-3.674500 0.000000
-3.646600 0.000000
-3.618700 0.000000
-3.590800 0.000000
-3.562900 0.000000
-3.534900 0.000000
-3.507000 0.000000
-3.479100 0.000000
-3.451200 0.000000
-3.423300 0.000000
-3.395400 0.000000
-3.367500 0.000000
-3.339600 0.000000
-3.311700 0.000000
-3.283800 0.000000
-3.255900 0.000000
-3.227900 0.000000
-3.200000 0.000000
-3.172100 0.000000
-3.144200 0.000000
-3.116300 0.000000
-3.088400 0.000000
-3.060500 0.000000
-3.032600 0.000000
-3.004700 0.000000
-2.976800 0.017700
-2.948900 0.045800
-2.920900 0.082800
-2.893000 0.122800
-2.865100 0.124400
-2.837200 0.129600
-2.809300 0.142300
-2.781400 0.154900
-2.753500 0.164000
-2.725600 0.174500
-2.697700 0.186400
-2.669800 0.198600
-2.641900 0.211100
-2.613900 0.222900
-2.586000 0.230600
-2.558100 0.236100
-2.530200 0.241100
-2.502300 0.245700
-2.474400 0.251400
-2.446500 0.258100
-2.418600 0.265000
-2.390700 0.272300
-2.362800 0.279900
-2.334900 0.287500
-2.307000 0.295300
-2.279000 0.303500
-2.251100 0.311800
-2.223200 0.320200
-2.195300 0.328900
-2.167400 0.337900
-2.139500 0.347200
-2.111600 0.358100
-2.083700 0.375300
-2.055800 0.390200
-2.027900 0.399700
-2.000000 0.401200
-1.972000 0.394800
-1.944100 0.386600
-1.916200 0.388500
-1.888300 0.390000
-1.860400 0.391200
-1.832500 0.392200
-1.804600 0.393200
-1.776700 0.394100
-1.748800 0.394700
-1.720900 0.393300
-1.693000 0.391200
-1.665000 0.389200
-1.637100 0.388200
-1.609200 0.388300
-1.581300 0.389400
-1.553400 0.391000
-1.525500 0.392700
-1.497600 0.394300
-1.469700 0.395800
-1.441800 0.396800
-1.413900 0.397200
-1.386000 0.397000
-1.358000 0.396600
-1.330100 0.395800
-1.302200 0.395000
-1.274300 0.394100
-1.246400 0.392800
-1.218500 0.391200
-1.190600 0.390200
-1.162700 0.390200
-1.134800 0.390300
-1.106900 0.390400
-1.079000 0.390500
-1.051100 0.390700
-1.023100 0.414900
-0.995200 0.428100
-0.967300 0.430500
-0.939400 0.435900
-0.911500 0.441800
-0.883600 0.447900
-0.855700 0.454400
-0.827800 0.461200
-0.799900 0.468100
-0.772000 0.474400
-0.744100 0.479900
-0.716100 0.484900
-0.688200 0.489100
-0.660300 0.493800
-0.632400 0.497500
-0.604500 0.501000
-0.576600 0.504400
-0.548700 0.507100
-0.520800 0.510300
-0.492900 0.513900
-0.465000 0.517900
-0.437100 0.522100
-0.409100 0.526600
-0.381200 0.531100
-0.353300 0.535600
-0.325400 0.539700
-0.297500 0.543500
-0.269600 0.547700
-0.241700 0.552000
-0.213800 0.556500
-0.185900 0.561000
-0.158000 0.565100
-0.130100 0.569200
-0.102100 0.573400
-0.074200 0.577700
-0.046300 0.582000
-0.018400 0.586300
0.009500 0.590700
0.037400 0.595100
0.065300 0.599500
0.093200 0.604100
0.121100 0.608600
0.149000 0.613300
0.176900 0.618100
0.204900 0.622900
0.232800 0.627500
0.260700 0.632200
0.288600 0.637000
0.316500 0.642000
0.344400 0.647300
0.372300 0.652600
0.400200 0.658000
0.428100 0.663700
0.456000 0.669800
0.483900 0.676100
0.511800 0.682700
0.539800 0.689300
0.567700 0.696300
0.595600 0.703700
0.623500 0.711300
0.651400 0.719200
0.679300 0.727500
0.707200 0.736100
0.735100 0.745000
0.763000 0.754300
0.790900 0.764000
0.818800 0.774100
0.846800 0.784800
0.874700 0.797600
0.902600 0.815500
0.930500 0.838000
0.958400 0.872400
0.986300 0.912400
1.014200 0.945300
1.042100 0.971200
1.070000 0.990300
1.097900 1.004300
1.125800 1.015600
1.153800 1.026400
1.181700 1.038800
1.209600 1.051400
1.237500 1.058700
1.265400 1.061500
1.293300 1.062500
1.321200 1.043700
1.349100 1.009000
1.377000 0.936000
1.404900 0.856400
1.432800 0.825300
1.460800 0.802800
1.488700 0.825300
1.516600 0.939500
1.544500 0.879400
1.572400 0.829200
1.600300 0.796500
1.628200 0.779100
1.656100 0.785400
1.684000 0.796100
1.711900 0.792600
1.739800 0.774400
1.767700 0.742800
1.795700 0.719800
1.823600 0.710400
1.851500 0.701000
1.879400 0.708200
1.907300 0.694400
1.935200 0.655600
1.963100 0.613800
1.991000 0.574900
2.018900 0.543300
2.046800 0.509800
2.074700 0.489100
2.102700 0.489300
2.130600 0.490600
2.158500 0.493100
2.186400 0.496800
2.214300 0.503700
2.242200 0.514500
2.270100 0.528600
2.298000 0.552600
2.325900 0.588300
2.353800 0.627600
2.381700 0.663500
2.409700 0.695900
2.437600 0.721700
2.465500 0.719500
2.493400 0.702300
2.521300 0.713800
2.549200 0.752400
2.577100 0.848200
2.605000 0.781100
2.632900 0.787700
2.660800 0.785000
2.688700 0.774000
2.716700 0.761700
2.744600 0.752500
2.772500 0.747400
2.800400 0.746300
2.828300 0.747200
2.856200 0.748100
2.884100 0.749400
2.912000 0.751100
2.939900 0.753600
2.967800 0.756700
2.995700 0.758100
3.023600 0.758600
3.051600 0.759200
3.079500 0.759700
3.107400 0.762600
3.135300 0.780000
3.163200 0.797200
3.191100 0.818100
3.219000 0.837600
3.246900 0.857800
3.274800 0.886200
3.302700 0.935100
3.330600 0.985300
3.358600 1.027600
3.386500 1.070700
3.414400 1.115400
3.442300 1.164300
3.470200 1.224800
3.498100 1.139400
3.526000 1.107900
3.553900 1.037900
3.581800 0.894100
3.609700 0.723600
3.637600 0.619300
3.665600 0.495600
3.693500 0.348600
3.721400 0.248900
3.749300 0.158400
3.777200 0.105800
3.805100 0.083900
3.833000 0.092500
3.860900 0.114000
3.888800 0.132700
3.916700 0.150800
3.944600 0.170300
3.972600 0.191200
4.000500 0.300500
4.028400 0.248400
4.056300 0.258600
4.084200 0.269000
4.112100 0.275900
4.140000 0.278800
4.167900 0.280500
4.195800 0.283000
4.223700 0.287400
4.251600 0.293000
4.279600 0.302100
4.307500 0.312700
4.335400 0.322500
4.363300 0.331400
4.391200 0.339500
4.419100 0.347800
4.447000 0.357000
4.474900 0.367100
4.502800 0.378200
4.530700 0.392000
4.558600 0.408200
4.586500 0.425800
4.614500 0.444900
4.642400 0.465500
4.670300 0.476500
4.698200 0.474300
4.726100 0.490800
4.754000 0.514100
4.781900 0.534400
4.809800 0.557800
4.837700 0.581900
4.865600 0.604400
4.893500 0.625200
4.921500 0.644300
4.949400 0.662800
4.977300 0.683700
5.005200 0.705600
5.033100 0.728100
5.061000 0.751000
5.088900 0.773900
5.116800 0.795800
5.144700 0.816700
5.172600 0.866700
5.200500 0.860800
5.228500 0.857600
5.256400 0.870500
5.284300 0.883000
5.312200 0.897300
5.340100 0.913500
5.368000 0.931600
5.395900 0.952100
5.423800 0.974000
5.451700 0.998600
5.479600 1.028000
5.507500 1.063900
5.535500 1.107800
5.563400 1.222700
5.591300 1.232700
5.619200 1.290100
5.647100 1.316300
5.675000 1.323600
5.702900 1.345000
5.730800 1.362500
5.758700 1.350900
5.786600 1.336900
5.814500 1.327400
5.842400 1.326000
5.870400 1.335100
5.898300 1.339800
5.926200 1.336400
5.954100 1.302500
5.982000 1.259000
6.009900 1.225900
6.037800 1.208000
6.065700 1.198400
6.093600 1.191900
6.121500 1.184300
6.149400 1.184600
6.177400 1.187000
6.205300 1.174000
6.233200 1.154700
6.261100 1.122400
6.289000 1.074500
6.316900 1.030500
6.344800 0.990500
6.372700 0.943800
6.400600 0.912200
6.428500 0.889900
6.456400 0.872200
6.484400 0.861200
6.512300 0.860700
6.540200 0.862400
6.568100 0.869300
6.596000 0.882200
6.623900 0.974500
6.651800 0.923300
6.679700 0.918500
6.707600 0.905600
6.735500 0.897800
6.763400 0.897000
6.791400 0.914100
6.819300 0.952400
6.847200 0.947400
6.875100 0.951800
6.903000 0.969700
6.930900 0.982600
6.958800 0.990300
6.986700 0.993500
7.014600 0.992800
7.042500 0.993600
7.070400 0.994700
7.098300 0.998400
7.126300 1.004700
7.154200 1.000300
7.182100 0.982000
7.210000 0.959800
7.237900 0.940600
7.265800 0.923500
7.293700 0.922600
7.321600 0.919500
7.349500 0.914500
7.377400 0.913300
7.405300 0.919900
7.433300 0.927700
7.461200 0.935600
7.489100 0.942400
7.517000 0.948700
7.544900 0.954900
7.572800 0.960100
7.600700 0.963200
7.628600 0.962200
7.656500 0.966500
7.684400 0.971600
7.712300 0.976600
7.740300 0.986300
7.768200 0.997400
7.796100 1.008200
7.824000 1.018000
7.851900 1.032000
7.879800 1.044800
7.907700 1.054600
7.935600 1.060500
7.963500 1.060100
7.991400 1.058600
8.019300 1.056900
8.047300 1.055000
8.075200 1.055900
8.103100 1.057900
8.131000 1.056000
8.158900 1.052400
8.186800 1.049100
8.214700 1.055200
8.242600 1.050900
8.270500 1.046700
8.298400 1.044500
8.326300 1.042900
8.354200 1.041700
8.382200 1.041100
8.410100 1.040600
8.438000 1.042900
8.465900 1.044800
8.493800 1.045900
8.521700 1.047000
8.549600 1.048200
8.577500 1.049400
8.605400 1.050600
8.633300 1.051900
8.661200 1.053700
8.689200 1.061000
8.717100 1.068900
8.745000 1.076600
8.772900 1.083100
8.800800 1.089600
8.828700 1.096600
8.856600 1.104500
8.884500 1.112100
8.912400 1.117300
8.940300 1.121800
8.968200 1.130600
8.996200 1.143200
9.024100 1.156200
9.052000 1.159100
9.079900 1.160300
9.107800 1.161200
9.135700 1.163500
9.163600 1.164700
9.191500 1.166000
9.219400 1.167300
9.247300 1.182200
9.275200 1.189000
9.303200 1.185700
9.331100 1.172700
9.359000 1.157100
9.386900 1.147500
9.414800 1.150800
9.442700 1.150700
9.470600 1.152400
9.498500 1.153200
9.526400 1.154800
9.554300 1.158300
9.582200 1.164100
9.610200 1.173800
9.638100 1.187800
9.666000 1.204700
9.693900 1.219300
9.721800 1.230500
9.749700 1.238300
9.777600 1.244300
9.805500 1.252100
9.833400 1.260500
9.861300 1.269900
9.889200 1.281500
9.917100 1.295900
9.945100 1.317100
9.973000 1.380400
10.000900 1.377100
10.028800 1.420000
10.056700 1.458300
10.084600 1.493300
10.112500 1.510600
10.140400 1.523700
10.168300 1.649900
10.196200 1.506400
10.224100 1.510200
10.252100 1.522100
10.280000 1.546100
10.307900 1.603800
10.335800 1.636700
10.363700 1.626500
10.391600 1.608200
10.419500 1.649000
10.447400 1.638100
10.475300 1.633800
10.503200 1.622300
10.531100 1.603000
10.559100 1.581500
10.587000 1.552200
10.614900 1.485100
10.642800 1.467400
10.670700 1.448400
10.698600 1.427700
10.726500 1.405200
10.754400 1.384400
10.782300 1.363500
10.810200 1.342200
10.838100 1.316700
10.866100 1.293200
10.894000 1.282800
10.921900 1.278900
10.949800 1.295700
10.977700 1.336100
11.005600 1.383800
11.033500 1.372400
11.061400 1.304500
11.089300 1.291000
11.117200 1.291200
11.145100 1.292600
11.173000 1.297100
11.201000 1.317000
11.228900 1.346900
11.256800 1.387000
11.284700 1.383700
11.312600 1.374400
11.340500 1.377700
11.368400 1.352400
11.396300 1.335300
11.424200 1.326300
11.452100 1.315500
11.480000 1.312700
11.508000 1.316600
11.535900 1.317400
11.563800 1.315900
11.591700 1.384400
11.619600 1.330000
11.647500 1.348200
11.675400 1.368600
11.703300 1.403000
11.731200 1.427500
11.759100 1.392400
11.787000 1.335000
11.815000 1.300600
11.842900 1.294400
11.870800 1.288600
11.898700 1.283100
11.926600 1.277600
11.954500 1.272100
11.982400 1.268300
12.010300 1.275800
12.038200 1.268500
12.066100 1.268200
12.094000 1.265500
12.122000 1.260300
12.149900 1.252100
12.177800 1.248500
12.205700 1.245500
12.233600 1.240700
12.261500 1.234100
12.289400 1.225500
12.317300 1.215300
12.345200 1.206100
12.373100 1.198800
12.401000 1.196200
12.428900 1.193400
12.456900 1.190300
12.484800 1.187000
12.512700 1.180500
12.540600 1.175400
12.568500 1.172200
12.596400 1.169700
12.624300 1.166700
12.652200 1.163300
12.680100 1.159300
12.708000 1.155000
12.735900 1.150200
12.763900 1.145100
12.791800 1.140200
12.819700 1.134300
12.847600 1.128100
12.875500 1.121800
12.903400 1.115400
12.931300 1.109000
12.959200 1.103200
12.987100 1.099100
13.015000 1.095500
13.042900 1.093600
13.070900 1.089200
13.098800 1.086300
13.126700 1.084300
13.154600 1.082900
13.182500 1.082100
13.210400 1.082000
13.238300 1.082100
13.266200 1.082700
13.294100 1.083400
13.322000 1.084000
13.349900 1.081500
13.377900 1.080000
13.405800 1.080700
13.433700 1.085400
13.461600 1.097400
13.489500 1.126600
13.517400 1.138500
13.545300 1.116600
13.573200 1.102500
13.601100 1.090200
13.629000 1.071600
13.656900 1.039300
13.684900 1.024800
13.712800 1.015800
13.740700 1.012400
13.768600 1.016500
13.796500 1.023900
13.824400 1.064500
13.852300 1.028500
13.880200 0.992500
13.908100 0.967500
13.936000 0.950200
13.963900 0.936700
13.991800 0.927700
14.019800 0.923000
14.047700 0.924600
14.075600 0.929300
14.103500 0.954900
14.131400 0.988300
14.159300 1.025600
14.187200 1.065500
14.215100 1.103400
14.243000 1.136800
14.270900 1.166000
14.298800 1.188400
14.326800 1.263500
14.354700 1.263800
14.382600 1.177200
14.410500 1.150500
14.438400 1.140100
14.466300 1.132700
14.494200 1.137200
14.522100 1.154500
14.550000 1.163600
14.577900 1.169600
14.605800 1.193400
14.633800 1.217200
14.661700 1.239400
14.689600 1.257100
14.717500 1.274800
14.745400 1.290900
14.773300 1.306500
14.801200 1.321400
14.829100 1.335800
14.857000 1.346700
14.884900 1.354100
14.912800 1.358300
14.940800 1.362000
14.968700 1.362700
14.996600 1.362800
15.024500 1.362100
15.052400 1.361500
15.080300 1.359200
15.108200 1.356200
15.136100 1.351800
15.164000 1.350700
15.191900 1.364500
15.219800 1.385300
15.247700 1.411600
15.275700 1.441800
15.303600 1.473800
15.331500 1.511200
15.359400 1.550500
15.387300 1.577100
15.415200 1.597700
15.443100 1.621400
15.471000 1.649800
15.498900 1.685700
15.526800 1.714700
15.554700 1.717200
15.582700 1.716400
15.610600 1.714000
15.638500 1.712500
15.666400 1.713400
15.694300 1.715400
15.722200 1.717700
15.750100 1.719400
15.778000 1.717600
15.805900 1.708500
15.833800 1.701600
15.861700 1.696300
15.889700 1.690700
15.917600 1.686400
15.945500 1.683700
15.973400 1.743200
16.001300 1.714800
16.029200 1.731200
16.057100 1.770800
16.085000 1.800000
16.112900 1.827600
16.140800 1.726300
16.168700 1.703000
16.196700 1.672500
16.224600 1.636200
16.252500 1.597500
16.280400 1.611200
16.308300 1.701400
16.336200 1.828700
16.364100 1.922200
16.392000 1.920700
16.419900 1.917700
16.447800 1.904300
16.475700 1.861100
16.503600 1.805600
16.531600 1.778700
16.559500 1.766400
16.587400 1.760000
16.615300 1.755900
16.643200 1.764400
16.671100 1.771400
16.699000 1.778500
16.726900 1.787800
16.754800 1.797500
16.782700 1.796800
16.810600 1.795500
16.838600 1.804700
16.866500 1.820000
16.894400 1.829400
16.922300 1.818400
16.950200 1.804400
16.978100 1.781700
17.006000 1.765200
17.033900 1.768800
17.061800 1.766000
17.089700 1.757800
17.117600 1.747800
17.145600 1.753000
17.173500 1.776000
17.201400 1.796800
17.229300 1.802700
17.257200 1.781500
17.285100 1.780300
17.313000 1.789700
17.340900 1.753400
17.368800 1.683900
17.396700 1.619700
17.424600 1.542800
17.452600 1.491100
17.480500 1.458300
17.508400 1.433000
17.536300 1.395300
17.564200 1.375500
17.592100 1.359300
17.620000 1.353000
17.647900 1.342500
17.675800 1.316000
17.703700 1.284500
17.731600 1.280800
17.759600 1.275100
17.787500 1.212200
17.815400 1.108700
17.843300 1.003400
17.871200 0.915200
17.899100 0.865000
17.927000 0.822900
17.954900 0.786400
17.982800 0.752400
18.010700 0.721400
18.038600 0.694500
18.066500 0.670800
18.094500 0.690200
18.122400 0.612400
18.150300 0.608300
18.178200 0.605800
18.206100 0.604700
18.234000 0.605100
18.261900 0.607300
18.289800 0.611500
18.317700 0.617300
18.345600 0.624200
18.373500 0.631700
18.401500 0.639800
18.429400 0.648900
18.457300 0.658300
18.485200 0.668100
18.513100 0.678300
18.541000 0.686600
18.568900 0.693000
18.596800 0.702700
18.624700 0.716000
