set title 'mp-1101251 - Density of States'
set xlabel 'Energy (eV)'
set ylabel 'DOS (states/eV)'
set grid
set xrange [-10:10]
set yrange [0:143.692]
set xzeroaxis lt -1
set terminal png size 800,600
set output 'mp-1101251_dos_gnuplot.png'
plot '-' using 1:2 with lines title 'DOS'
-7.166200 0.000000
-7.150700 0.000000
-7.135200 0.000000
-7.119700 0.000000
-7.104200 0.000000
-7.088700 0.000000
-7.073200 0.000000
-7.057700 0.000000
-7.042200 0.000000
-7.026700 0.000000
-7.011200 0.000000
-6.995700 0.000000
-6.980200 0.000000
-6.964700 0.000000
-6.949300 0.000000
-6.933800 0.000000
-6.918300 0.000000
-6.902800 0.000000
-6.887300 0.000000
-6.871800 0.000000
-6.856300 0.000000
-6.840800 0.000000
-6.825300 0.000000
-6.809800 0.000000
-6.794300 0.000000
-6.778800 0.000000
-6.763300 0.000000
-6.747800 0.000000
-6.732300 0.000000
-6.716800 0.000000
-6.701300 0.000000
-6.685800 0.000000
-6.670300 0.000000
-6.654800 0.000000
-6.639300 0.000000
-6.623800 0.000000
-6.608300 0.000000
-6.592800 0.000000
-6.577300 0.000000
-6.561800 0.000000
-6.546300 0.000000
-6.530800 0.000000
-6.515300 0.000000
-6.499800 0.000000
-6.484300 0.000000
-6.468800 0.000000
-6.453400 0.000000
-6.437900 0.000000
-6.422400 0.000000
-6.406900 0.000000
-6.391400 0.000000
-6.375900 0.000000
-6.360400 0.000000
-6.344900 0.000000
-6.329400 0.000000
-6.313900 0.000000
-6.298400 0.000000
-6.282900 0.000000
-6.267400 0.000000
-6.251900 0.000000
-6.236400 0.000000
-6.220900 0.000000
-6.205400 0.000000
-6.189900 0.000000
-6.174400 0.000000
-6.158900 0.000000
-6.143400 0.000000
-6.127900 0.000000
-6.112400 0.000000
-6.096900 0.000000
-6.081400 0.000000
-6.065900 0.000000
-6.050400 0.000000
-6.034900 0.000000
-6.019400 0.000000
-6.003900 0.000000
-5.988400 0.000000
-5.972900 0.000000
-5.957500 0.000000
-5.942000 0.000000
-5.926500 0.000000
-5.911000 0.000000
-5.895500 0.000000
-5.880000 0.000000
-5.864500 0.000000
-5.849000 0.000000
-5.833500 0.000000
-5.818000 0.000000
-5.802500 0.000000
-5.787000 0.000000
-5.771500 0.000000
-5.756000 1.170500
-5.740500 5.445300
-5.725000 19.639300
-5.709500 60.428000
-5.694000 59.984300
-5.678500 48.767700
-5.663000 46.390000
-5.647500 53.499300
-5.632000 49.700100
-5.616500 65.079000
-5.601000 55.187900
-5.585500 36.532800
-5.570000 51.613200
-5.554500 80.320100
-5.539000 77.025000
-5.523500 79.943100
-5.508000 76.452800
-5.492500 88.632100
-5.477000 65.195400
-5.461600 123.839500
-5.446100 52.186600
-5.430600 46.946400
-5.415100 71.609700
-5.399600 46.757800
-5.384100 38.406700
-5.368600 72.884100
-5.353100 69.015700
-5.337600 67.923100
-5.322100 63.554000
-5.306600 83.434500
-5.291100 78.422800
-5.275600 62.696800
-5.260100 92.100500
-5.244600 49.084600
-5.229100 81.941400
-5.213600 86.208400
-5.198100 62.388600
-5.182600 108.083500
-5.167100 130.629300
-5.151600 35.933100
-5.136100 20.556300
-5.120600 1.036800
-5.105100 0.000000
-5.089600 0.000000
-5.074100 0.000000
-5.058600 0.000000
-5.043100 0.000000
-5.027600 0.000000
-5.012100 0.000000
-4.996600 0.000000
-4.981100 0.000000
-4.965700 0.000000
-4.950200 0.000000
-4.934700 0.000000
-4.919200 0.000000
-4.903700 0.000000
-4.888200 0.000000
-4.872700 0.000000
-4.857200 0.000000
-4.841700 0.000000
-4.826200 0.000000
-4.810700 0.000000
-4.795200 0.000000
-4.779700 0.000000
-4.764200 0.000000
-4.748700 0.000000
-4.733200 0.000000
-4.717700 0.000000
-4.702200 0.000000
-4.686700 0.000000
-4.671200 0.000000
-4.655700 0.000000
-4.640200 0.000000
-4.624700 0.000000
-4.609200 0.000000
-4.593700 0.000000
-4.578200 0.000000
-4.562700 0.000000
-4.547200 0.000000
-4.531700 0.000000
-4.516200 0.000000
-4.500700 0.000000
-4.485200 0.000000
-4.469800 0.000000
-4.454300 0.000000
-4.438800 0.000000
-4.423300 0.000000
-4.407800 0.000000
-4.392300 0.000000
-4.376800 0.000000
-4.361300 0.000000
-4.345800 0.000000
-4.330300 0.000000
-4.314800 0.000000
-4.299300 0.000000
-4.283800 0.000000
-4.268300 0.000000
-4.252800 0.000000
-4.237300 0.000000
-4.221800 0.000000
-4.206300 0.000000
-4.190800 0.000000
-4.175300 0.000000
-4.159800 0.000000
-4.144300 0.000000
-4.128800 0.000000
-4.113300 0.000000
-4.097800 0.000000
-4.082300 0.000000
-4.066800 0.000000
-4.051300 0.000000
-4.035800 0.000000
-4.020300 0.000000
-4.004800 0.000000
-3.989300 0.000000
-3.973900 0.000000
-3.958400 0.000000
-3.942900 0.000000
-3.927400 0.000000
-3.911900 0.000000
-3.896400 0.000000
-3.880900 0.000000
-3.865400 0.000000
-3.849900 0.000000
-3.834400 0.000000
-3.818900 0.000000
-3.803400 0.000000
-3.787900 0.000000
-3.772400 0.000000
-3.756900 0.000000
-3.741400 0.000000
-3.725900 0.000000
-3.710400 0.000000
-3.694900 0.000000
-3.679400 0.000000
-3.663900 0.000000
-3.648400 0.000000
-3.632900 0.000000
-3.617400 0.000000
-3.601900 0.000000
-3.586400 0.000000
-3.570900 0.000000
-3.555400 0.000000
-3.539900 0.000000
-3.524400 0.000000
-3.508900 0.001800
-3.493400 0.014800
-3.478000 0.040500
-3.462500 0.079000
-3.447000 0.130100
-3.431500 0.237200
-3.416000 0.325000
-3.400500 0.234900
-3.385000 0.250000
-3.369500 0.268600
-3.354000 0.290300
-3.338500 0.312400
-3.323000 0.334100
-3.307500 0.355600
-3.292000 0.376800
-3.276500 0.397800
-3.261000 0.418400
-3.245500 0.432900
-3.230000 0.445000
-3.214500 0.457000
-3.199000 0.468600
-3.183500 0.479000
-3.168000 0.486300
-3.152500 0.494000
-3.137000 0.502600
-3.121500 0.509500
-3.106000 0.512800
-3.090500 0.524100
-3.075000 0.536900
-3.059500 0.550100
-3.044000 0.563700
-3.028500 0.577500
-3.013000 0.591600
-2.997600 0.606100
-2.982100 0.620900
-2.966600 0.635900
-2.951100 0.651300
-2.935600 0.656600
-2.920100 0.663900
-2.904600 0.671800
-2.889100 0.674100
-2.873600 0.680700
-2.858100 0.688700
-2.842600 0.697200
-2.827100 0.705400
-2.811600 0.713200
-2.796100 0.720600
-2.780600 0.727400
-2.765100 0.734200
-2.749600 0.741300
-2.734100 0.749100
-2.718600 0.757700
-2.703100 0.766400
-2.687600 0.775300
-2.672100 0.784400
-2.656600 0.793600
-2.641100 0.803000
-2.625600 0.812600
-2.610100 0.822700
-2.594600 0.833500
-2.579100 0.844900
-2.563600 0.856500
-2.548100 0.868300
-2.532600 0.879400
-2.517100 0.889400
-2.501700 0.897600
-2.486200 0.903900
-2.470700 0.912100
-2.455200 0.921200
-2.439700 0.930100
-2.424200 0.939200
-2.408700 0.948600
-2.393200 0.958300
-2.377700 0.968700
-2.362200 0.979600
-2.346700 0.991100
-2.331200 1.003200
-2.315700 1.016100
-2.300200 1.030500
-2.284700 1.046400
-2.269200 1.068600
-2.253700 1.092100
-2.238200 1.112900
-2.222700 1.132400
-2.207200 1.147400
-2.191700 1.152200
-2.176200 1.156900
-2.160700 1.161500
-2.145200 1.166200
-2.129700 1.170900
-2.114200 1.175500
-2.098700 1.180200
-2.083200 1.184900
-2.067700 1.189700
-2.052200 1.194400
-2.036700 1.199300
-2.021200 1.282100
-2.005800 1.360300
-1.990300 1.380600
-1.974800 1.309600
-1.959300 1.213000
-1.943800 1.206600
-1.928300 1.202500
-1.912800 1.200600
-1.897300 1.201100
-1.881800 1.202100
-1.866300 1.209500
-1.850800 1.216700
-1.835300 1.222000
-1.819800 1.225500
-1.804300 1.227100
-1.788800 1.227600
-1.773300 1.227600
-1.757800 1.227100
-1.742300 1.237800
-1.726800 1.255300
-1.711300 1.276400
-1.695800 1.298000
-1.680300 1.319900
-1.664800 1.364100
-1.649300 1.398500
-1.633800 1.399500
-1.618300 1.419500
-1.602800 1.446500
-1.587300 1.473600
-1.571800 1.492500
-1.556300 1.508300
-1.540800 1.500800
-1.525300 1.443800
-1.509900 1.358500
-1.494400 1.321400
-1.478900 1.294100
-1.463400 1.274000
-1.447900 1.261100
-1.432400 1.245400
-1.416900 1.229700
-1.401400 1.210000
-1.385900 1.187200
-1.370400 1.165200
-1.354900 1.144400
-1.339400 1.124800
-1.323900 1.120000
-1.308400 1.131200
-1.292900 1.313900
-1.277400 1.498100
-1.261900 1.255800
-1.246400 1.148200
-1.230900 1.045500
-1.215400 1.056900
-1.199900 1.086800
-1.184400 1.108000
-1.168900 1.115400
-1.153400 1.128000
-1.137900 1.158100
-1.122400 1.196200
-1.106900 1.240500
-1.091400 1.290000
-1.075900 1.345000
-1.060400 1.405300
-1.044900 1.765000
-1.029400 1.858200
-1.014000 1.882500
-0.998500 1.932400
-0.983000 1.966900
-0.967500 1.990400
-0.952000 2.010300
-0.936500 2.026800
-0.921000 2.043500
-0.905500 2.058400
-0.890000 2.059800
-0.874500 2.060300
-0.859000 2.052700
-0.843500 2.037300
-0.828000 2.020500
-0.812500 2.002700
-0.797000 1.995600
-0.781500 1.991900
-0.766000 1.991500
-0.750500 2.006000
-0.735000 2.026100
-0.719500 2.042500
-0.704000 2.053500
-0.688500 2.050200
-0.673000 2.040900
-0.657500 2.030500
-0.642000 1.993800
-0.626500 2.002000
-0.611000 2.012200
-0.595500 2.082300
-0.580000 2.630500
-0.564500 2.177200
-0.549000 2.205800
-0.533500 2.291600
-0.518100 2.136300
-0.502600 2.116700
-0.487100 2.136700
-0.471600 2.161100
-0.456100 2.180300
-0.440600 2.269000
-0.425100 2.302000
-0.409600 2.326500
-0.394100 2.432000
-0.378600 2.998300
-0.363100 2.747900
-0.347600 2.735400
-0.332100 2.763600
-0.316600 2.804300
-0.301100 2.810100
-0.285600 2.813600
-0.270100 2.813900
-0.254600 2.810700
-0.239100 2.825000
-0.223600 2.894000
-0.208100 2.979200
-0.192600 3.492300
-0.177100 3.444400
-0.161600 3.415900
-0.146100 3.351900
-0.130600 3.141700
-0.115100 2.877100
-0.099600 2.804600
-0.084100 3.073500
-0.068600 2.519900
-0.053100 1.763400
-0.037600 1.793700
-0.022200 1.826900
-0.006700 1.988600
0.008800 1.999200
0.024300 2.018500
0.039800 2.077100
0.055300 2.147300
0.070800 2.233400
0.086300 2.292600
0.101800 2.384400
0.117300 2.513400
0.132800 2.531800
0.148300 2.636200
0.163800 2.672300
0.179300 2.707700
0.194800 2.745500
0.210300 2.779900
0.225800 2.790500
0.241300 2.850800
0.256800 2.873900
0.272300 2.844100
0.287800 2.758900
0.303300 2.782300
0.318800 2.833200
0.334300 2.941500
0.349800 3.105600
0.365300 3.315100
0.380800 3.668200
0.396300 4.501300
0.411800 4.234300
0.427300 4.040600
0.442800 3.795300
0.458300 3.666600
0.473700 3.538600
0.489200 3.407100
0.504700 3.284200
0.520200 3.174400
0.535700 3.126100
0.551200 3.057300
0.566700 2.907600
0.582200 2.830400
0.597700 2.765800
0.613200 2.711400
0.628700 2.668200
0.644200 2.630900
0.659700 2.589200
0.675200 2.552100
0.690700 2.516400
0.706200 2.482100
0.721700 2.449300
0.737200 2.431800
0.752700 2.422600
0.768200 2.337900
0.783700 2.265600
0.799200 2.225400
0.814700 2.209400
0.830200 2.218300
0.845700 2.236800
0.861200 2.239800
0.876700 2.220700
0.892200 2.180400
0.907700 2.123700
0.923200 2.051300
0.938700 1.968300
0.954200 1.900700
0.969600 1.815800
0.985100 1.780900
1.000600 1.746300
1.016100 1.709000
1.031600 1.670900
1.047100 1.645500
1.062600 1.626300
1.078100 1.691200
1.093600 1.598000
1.109100 1.541900
1.124600 1.491500
1.140100 1.441700
1.155600 1.389500
1.171100 1.337400
1.186600 1.285900
1.202100 1.240400
1.217600 1.194800
1.233100 1.149200
1.248600 1.103600
1.264100 1.059400
1.279600 1.018500
1.295100 0.981500
1.310600 0.970000
1.326100 0.920100
1.341600 0.877000
1.357100 0.836800
1.372600 0.808800
1.388100 0.784400
1.403600 0.776600
1.419100 0.770300
1.434600 0.764700
1.450100 0.759800
1.465500 0.755500
1.481000 0.751900
1.496500 0.749100
1.512000 0.747400
1.527500 0.746600
1.543000 0.746800
1.558500 0.748500
1.574000 0.755800
1.589500 0.770700
1.605000 0.806900
1.620500 0.867100
1.636000 0.927300
1.651500 0.979000
1.667000 0.970300
1.682500 1.015100
1.698000 1.129500
1.713500 1.158000
1.729000 1.178500
1.744500 1.302400
1.760000 1.542800
1.775500 1.823300
1.791000 2.008300
1.806500 2.215400
1.822000 2.404300
1.837500 2.543600
1.853000 2.657400
1.868500 2.813300
1.884000 2.864800
1.899500 3.066600
1.915000 2.984700
1.930500 2.158600
1.946000 1.872500
1.961400 1.734800
1.976900 1.712800
1.992400 1.703100
2.007900 1.689800
2.023400 1.674100
2.038900 1.655000
2.054400 1.629600
2.069900 1.597800
2.085400 1.535500
2.100900 1.409400
2.116400 1.334400
2.131900 1.278300
2.147400 1.233600
2.162900 1.185900
2.178400 1.177900
2.193900 1.179600
2.209400 1.181600
2.224900 1.183700
2.240400 1.186200
2.255900 1.188900
2.271400 1.191800
2.286900 1.195000
2.302400 1.213400
2.317900 1.233600
2.333400 1.280100
2.348900 1.394900
2.364400 1.555500
2.379900 1.745800
2.395400 1.946000
2.410900 2.158600
2.426400 2.403000
2.441900 2.693400
2.457300 3.050200
2.472800 3.452500
2.488300 3.843300
2.503800 4.407400
2.519300 4.918500
2.534800 5.375000
2.550300 5.571800
2.565800 5.836300
2.581300 6.444500
2.596800 6.968900
2.612300 7.853600
2.627800 8.703500
2.643300 10.040300
2.658800 11.387100
2.674300 9.577300
2.689800 9.155600
2.705300 8.747700
2.720800 8.747200
2.736300 8.832700
2.751800 9.184800
2.767300 10.251100
2.782800 10.851400
2.798300 11.561300
2.813800 9.621300
2.829300 9.806800
2.844800 7.929700
2.860300 7.632800
2.875800 7.461900
2.891300 7.912700
2.906800 8.758000
2.922300 8.843700
2.937800 8.999600
2.953200 9.729100
2.968700 8.529000
2.984200 7.681800
2.999700 7.254900
3.015200 7.169800
3.030700 7.360900
3.046200 7.502800
3.061700 7.621600
3.077200 7.577400
3.092700 7.542100
3.108200 7.189500
3.123700 7.062900
3.139200 7.122100
3.154700 7.155800
3.170200 7.542300
3.185700 8.249600
3.201200 8.589300
3.216700 9.032400
3.232200 9.393100
3.247700 10.324300
3.263200 13.823000
3.278700 8.552800
3.294200 9.117900
3.309700 9.837900
3.325200 10.667100
3.340700 11.897300
3.356200 13.125700
3.371700 12.922600
3.387200 12.161900
3.402700 11.188400
3.418200 9.495400
3.433700 8.234800
3.449100 7.027300
3.464600 6.280600
3.480100 5.562500
3.495600 5.056300
3.511100 4.744100
3.526600 4.504000
3.542100 4.443700
3.557600 4.683600
3.573100 5.249200
3.588600 6.328200
3.604100 10.971200
3.619600 11.928200
3.635100 11.340900
3.650600 10.711800
3.666100 11.482400
3.681600 8.461500
3.697100 8.165500
3.712600 10.343200
3.728100 10.931900
3.743600 12.157600
3.759100 13.015000
3.774600 12.998900
3.790100 12.995500
3.805600 15.712800
3.821100 13.656800
3.836600 11.107300
3.852100 9.526800
3.867600 7.172800
3.883100 7.304300
3.898600 7.158000
3.914100 4.663600
3.929600 7.481800
3.945000 5.535100
3.960500 4.831300
3.976000 4.295700
3.991500 4.164000
4.007000 4.471300
4.022500 4.795600
4.038000 4.928600
4.053500 4.997600
4.069000 5.108100
4.084500 5.231800
4.100000 5.383900
4.115500 5.530100
4.131000 5.742700
4.146500 5.962000
4.162000 6.111200
4.177500 6.476100
4.193000 7.185000
4.208500 6.672700
4.224000 6.649600
4.239500 6.534200
4.255000 6.271300
4.270500 6.007500
4.286000 5.764100
4.301500 5.539400
4.317000 5.344900
4.332500 5.202900
4.348000 5.092500
4.363500 5.113900
4.379000 5.012100
4.394500 4.914900
4.410000 4.890800
4.425500 4.899200
4.440900 4.496200
4.456400 4.603100
4.471900 4.826500
4.487400 4.960000
4.502900 5.660200
4.518400 5.585600
4.533900 5.846500
4.549400 5.851900
4.564900 5.730900
4.580400 5.575000
4.595900 5.830300
4.611400 6.121700
4.626900 6.316800
4.642400 6.396900
4.657900 6.218800
4.673400 5.749100
4.688900 5.715200
4.704400 5.440400
4.719900 5.403600
4.735400 5.371200
4.750900 5.350000
4.766400 5.376200
4.781900 5.424900
4.797400 5.500300
4.812900 5.639700
4.828400 5.807100
4.843900 6.019300
4.859400 6.125100
4.874900 6.225100
4.890400 6.334100
4.905900 6.442900
4.921300 6.621300
4.936800 6.853800
4.952300 7.056600
4.967800 7.440000
4.983300 7.926400
4.998800 8.639600
5.014300 9.668200
5.029800 10.333500
5.045300 10.915800
5.060800 9.195200
5.076300 7.816600
5.091800 6.834700
5.107300 5.063300
5.122800 4.538900
5.138300 4.302300
5.153800 4.226500
5.169300 4.078300
5.184800 4.002900
5.200300 3.959600
5.215800 3.876100
5.231300 3.798600
5.246800 3.725700
5.262300 3.635300
5.277800 3.543100
5.293300 3.502400
5.308800 3.644500
5.324300 3.747900
5.339800 3.663800
5.355300 3.626000
5.370800 3.591600
5.386300 3.563100
5.401800 3.532800
5.417200 3.500500
5.432700 3.466400
5.448200 3.430300
5.463700 3.397200
5.479200 3.375300
5.494700 3.324800
5.510200 3.265100
5.525700 3.188200
5.541200 3.039700
5.556700 2.930200
5.572200 2.842700
5.587700 2.700600
5.603200 2.650900
5.618700 2.649700
5.634200 2.696500
5.649700 2.782600
5.665200 2.040500
5.680700 2.100700
5.696200 2.161900
5.711700 2.222500
5.727200 2.277500
5.742700 2.326300
5.758200 2.374100
5.773700 2.414900
5.789200 2.452600
5.804700 2.464000
5.820200 2.451200
5.835700 2.392000
5.851200 2.372400
5.866700 2.351300
5.882200 2.342400
5.897700 2.332500
5.913100 2.308700
5.928600 2.324900
5.944100 2.319000
5.959600 2.322600
5.975100 2.335400
5.990600 2.366000
6.006100 3.234600
6.021600 2.342500
6.037100 2.338100
6.052600 2.275900
6.068100 2.141600
6.083600 2.110100
6.099100 2.112000
6.114600 2.254900
6.130100 2.328400
6.145600 2.417800
6.161100 2.527500
6.176600 2.625600
6.192100 2.624500
6.207600 2.704100
6.223100 2.755100
6.238600 2.845400
6.254100 2.875600
6.269600 2.951700
6.285100 3.017300
6.300600 3.071300
6.316100 3.133300
6.331600 3.203200
6.347100 3.323200
6.362600 3.350600
6.378100 3.736400
6.393600 3.771400
6.409000 3.824100
6.424500 3.868800
6.440000 3.845100
6.455500 3.684600
6.471000 3.462900
6.486500 3.279000
6.502000 3.266400
6.517500 2.566500
6.533000 2.347100
6.548500 2.157300
6.564000 2.021800
6.579500 1.929900
6.595000 1.860200
6.610500 1.817900
6.626000 1.792700
6.641500 1.783800
6.657000 1.791800
6.672500 1.819600
6.688000 1.866100
6.703500 2.000700
6.719000 2.481600
6.734500 2.383200
6.750000 2.279300
6.765500 2.209200
6.781000 2.193600
6.796500 2.193400
6.812000 2.203500
6.827500 2.158300
6.843000 2.191800
6.858500 2.218900
6.874000 2.277800
6.889500 2.222300
6.904900 2.249300
6.920400 2.284400
6.935900 2.321600
6.951400 2.387000
6.966900 2.439800
6.982400 2.483900
6.997900 2.506200
7.013400 2.520200
7.028900 2.534300
7.044400 2.568500
7.059900 2.619900
7.075400 2.674200
7.090900 2.724500
7.106400 2.775300
7.121900 2.826800
7.137400 3.468100
7.152900 2.948300
7.168400 2.990500
7.183900 3.031400
7.199400 3.065700
7.214900 3.100800
7.230400 3.104600
7.245900 3.127900
7.261400 3.198800
7.276900 3.187300
7.292400 3.187000
7.307900 3.172700
7.323400 3.133300
7.338900 3.046500
7.354400 2.878000
7.369900 2.732900
7.385400 2.606800
7.400800 2.479900
7.416300 2.351100
7.431800 2.197000
7.447300 2.012800
7.462800 1.928300
7.478300 1.928100
7.493800 1.946200
7.509300 1.911000
7.524800 1.879200
7.540300 1.854600
7.555800 1.834700
7.571300 1.819300
7.586800 1.808500
7.602300 1.802300
7.617800 1.800700
7.633300 1.844400
7.648800 1.913700
7.664300 1.924700
7.679800 1.935100
7.695300 1.957000
7.710800 1.982500
7.726300 2.012900
7.741800 2.067300
7.757300 2.104600
7.772800 2.174700
7.788300 2.237600
7.803800 2.347000
7.819300 2.389200
7.834800 2.426600
7.850300 2.459900
7.865800 2.475900
7.881300 2.458900
7.896700 2.414600
7.912200 2.355500
7.927700 2.316100
7.943200 2.298100
7.958700 2.297600
7.974200 2.308500
7.989700 2.329400
8.005200 2.321900
8.020700 2.334300
8.036200 2.383400
8.051700 2.447900
8.067200 2.528900
8.082700 2.599900
8.098200 2.668400
8.113700 2.713100
8.129200 2.764900
8.144700 2.810500
8.160200 2.849700
8.175700 2.878700
8.191200 2.898500
8.206700 3.017800
8.222200 3.065400
8.237700 3.102800
8.253200 3.126200
8.268700 3.158600
8.284200 3.158500
8.299700 3.098500
8.315200 3.127100
8.330700 3.164900
8.346200 3.202600
8.361700 3.232400
8.377200 3.253500
8.392600 3.265100
8.408100 3.270700
8.423600 3.303400
8.439100 3.343600
8.454600 3.371900
8.470100 3.397200
8.485600 3.449500
8.501100 3.291100
8.516600 3.306500
8.532100 3.261300
8.547600 3.228200
8.563100 3.190200
8.578600 3.159600
8.594100 3.098600
8.609600 3.102000
8.625100 3.164000
8.640600 3.236300
8.656100 3.300700
8.671600 3.342900
8.687100 3.372000
8.702600 3.469900
8.718100 3.497700
8.733600 3.572700
8.749100 3.604000
8.764600 3.695500
8.780100 3.752100
8.795600 3.803200
8.811100 3.852400
8.826600 3.872000
8.842100 3.857400
8.857600 3.815800
8.873100 3.761700
8.888500 3.693700
8.904000 3.645000
8.919500 3.543700
8.935000 3.417600
8.950500 3.244100
8.966000 2.971400
8.981500 2.761800
8.997000 2.606100
9.012500 2.588300
9.028000 2.569100
9.043500 2.551900
9.059000 2.524300
9.074500 2.520400
9.090000 2.517000
9.105500 2.512700
9.121000 2.504600
9.136500 2.801400
9.152000 2.925400
9.167500 2.896500
9.183000 2.867600
9.198500 2.880900
9.214000 2.896400
9.229500 2.910700
9.245000 2.927700
9.260500 2.946700
9.276000 2.967400
9.291500 2.989600
9.307000 3.012300
9.322500 3.034800
