set title 'mp-48 - Density of States'
set xlabel 'Energy (eV)'
set ylabel 'DOS (states/eV)'
set grid
set xrange [-10:10]
set yrange [0:2.617]
set xzeroaxis lt -1
set terminal png size 800,600
set output 'mp-48_dos_gnuplot.png'
plot '-' using 1:2 with lines title 'DOS'
-21.517400 0.000000
-21.466100 0.000000
-21.414700 0.000000
-21.363300 0.000000
-21.312000 0.000000
-21.260600 0.000000
-21.209200 0.000000
-21.157900 0.000000
-21.106500 0.000000
-21.055100 0.000000
-21.003800 0.000000
-20.952400 0.000000
-20.901000 0.000000
-20.849700 0.000000
-20.798300 0.000000
-20.746900 0.000000
-20.695600 0.000000
-20.644200 0.000000
-20.592800 0.000000
-20.541500 0.000000
-20.490100 0.000000
-20.438700 0.000000
-20.387400 0.000000
-20.336000 0.000000
-20.284600 0.000000
-20.233300 0.000000
-20.181900 0.000000
-20.130500 0.000000
-20.079200 0.000000
-20.027800 0.000000
-19.976400 0.000000
-19.925100 0.000000
-19.873700 0.000000
-19.822300 0.000000
-19.771000 0.000000
-19.719600 0.000000
-19.668200 0.000000
-19.616900 0.000000
-19.565500 0.000000
-19.514100 0.000000
-19.462800 0.000000
-19.411400 0.000000
-19.360000 0.000000
-19.308700 0.000000
-19.257300 0.000000
-19.205900 0.000000
-19.154600 0.000000
-19.103200 0.000000
-19.051800 0.000000
-19.000500 0.000000
-18.949100 0.000000
-18.897700 0.000000
-18.846400 0.000000
-18.795000 0.000000
-18.743600 0.000000
-18.692300 0.000000
-18.640900 0.000000
-18.589600 0.000000
-18.538200 0.000000
-18.486800 0.000000
-18.435500 0.000000
-18.384100 0.000000
-18.332700 0.000000
-18.281400 0.000000
-18.230000 0.000000
-18.178600 0.000000
-18.127300 0.000000
-18.075900 0.000000
-18.024500 0.000000
-17.973200 0.000000
-17.921800 0.000000
-17.870400 0.000000
-17.819100 0.000000
-17.767700 0.000000
-17.716300 0.000000
-17.665000 0.000000
-17.613600 0.000000
-17.562200 0.000000
-17.510900 0.000000
-17.459500 0.000000
-17.408100 0.000000
-17.356800 0.000000
-17.305400 0.000000
-17.254000 0.000000
-17.202700 0.000000
-17.151300 0.000000
-17.099900 0.000000
-17.048600 0.000000
-16.997200 0.000000
-16.945800 0.000000
-16.894500 0.000000
-16.843100 0.013900
-16.791700 0.684800
-16.740400 0.570800
-16.689000 0.652300
-16.637600 0.610100
-16.586300 0.591700
-16.534900 0.620400
-16.483500 0.649100
-16.432200 0.609400
-16.380800 0.603200
-16.329400 0.606400
-16.278100 0.621000
-16.226700 0.635700
-16.175300 0.632800
-16.124000 0.607600
-16.072600 0.610500
-16.021200 0.613300
-15.969900 0.617500
-15.918500 0.626400
-15.867100 0.635300
-15.815800 0.630800
-15.764400 0.618400
-15.713000 0.613000
-15.661700 0.616100
-15.610300 0.619800
-15.558900 0.623500
-15.507600 0.627300
-15.456200 0.633100
-15.404800 0.638500
-15.353500 0.625200
-15.302100 0.622100
-15.250800 0.621500
-15.199400 0.621000
-15.148000 0.623500
-15.096700 0.626900
-15.045300 0.630300
-14.993900 0.633700
-14.942600 0.637000
-14.891200 0.641200
-14.839800 0.631600
-14.788500 0.628100
-14.737100 0.627700
-14.685700 0.628800
-14.634400 0.629900
-14.583000 0.631000
-14.531600 0.633200
-14.480300 0.636200
-14.428900 0.639100
-14.377500 0.642000
-14.326200 0.645000
-14.274800 0.640800
-14.223400 0.636800
-14.172100 0.636600
-14.120700 0.636400
-14.069300 0.637300
-14.018000 0.639000
-13.966600 0.640600
-13.915200 0.642300
-13.863900 0.644000
-13.812500 0.646300
-13.761100 0.649000
-13.709800 0.651600
-13.658400 0.654300
-13.607000 0.649900
-13.555700 0.648300
-13.504300 0.648300
-13.452900 0.649300
-13.401600 0.650500
-13.350200 0.651800
-13.298800 0.653600
-13.247500 0.655800
-13.196100 0.658000
-13.144700 0.660200
-13.093400 0.662400
-13.042000 0.664600
-12.990600 0.667500
-12.939300 0.670400
-12.887900 0.668400
-12.836500 0.669500
-12.785200 0.670900
-12.733800 0.672500
-12.682400 0.675100
-12.631100 0.678000
-12.579700 0.681500
-12.528300 0.685000
-12.477000 0.689200
-12.425600 0.694600
-12.374200 0.699900
-12.322900 0.705200
-12.271500 0.710600
-12.220100 0.715900
-12.168800 0.722400
-12.117400 0.736800
-12.066100 0.752500
-12.014700 0.770500
-11.963300 0.788700
-11.912000 0.807000
-11.860600 0.832500
-11.809200 0.969800
-11.757900 1.029300
-11.706500 0.968400
-11.655100 1.474700
-11.603800 0.990400
-11.552400 0.635700
-11.501000 0.599300
-11.449700 0.562900
-11.398300 0.526500
-11.346900 0.492900
-11.295600 0.488900
-11.244200 0.443800
-11.192800 0.422000
-11.141500 0.400200
-11.090100 0.378400
-11.038700 0.356600
-10.987400 0.334800
-10.936000 0.313000
-10.884600 0.291200
-10.833300 0.269400
-10.781900 0.247600
-10.730500 0.242800
-10.679200 0.293800
-10.627800 0.344900
-10.576400 0.284100
-10.525100 0.154000
-10.473700 0.290800
-10.422300 0.446600
-10.371000 0.602400
-10.319600 0.460800
-10.268200 0.494200
-10.216900 1.229300
-10.165500 0.583100
-10.114100 0.588700
-10.062800 0.594200
-10.011400 0.599800
-9.960000 0.605400
-9.908700 0.621400
-9.857300 0.671100
-9.805900 0.767200
-9.754600 0.831000
-9.703200 0.894800
-9.651800 0.958600
-9.600500 1.022300
-9.549100 1.095900
-9.497700 1.114800
-9.446400 0.820000
-9.395000 0.802300
-9.343600 0.784700
-9.292300 0.767500
-9.240900 0.750500
-9.189500 0.734600
-9.138200 0.720200
-9.086800 0.705900
-9.035400 0.691500
-8.984100 0.677200
-8.932700 0.662900
-8.881300 0.648200
-8.830000 0.634500
-8.778600 0.630200
-8.727300 0.625900
-8.675900 0.621800
-8.624500 0.617800
-8.573200 0.613700
-8.521800 0.609600
-8.470400 0.605200
-8.419100 0.600800
-8.367700 0.596500
-8.316300 0.592100
-8.265000 0.553900
-8.213600 0.551900
-8.162200 0.549900
-8.110900 0.548000
-8.059500 0.546000
-8.008100 0.543900
-7.956800 0.541800
-7.905400 0.539700
-7.854000 0.553300
-7.802700 0.596200
-7.751300 0.639000
-7.699900 0.681800
-7.648600 0.724600
-7.597200 0.767400
-7.545800 0.810200
-7.494500 0.720400
-7.443100 0.721600
-7.391700 0.722500
-7.340400 0.722300
-7.289000 0.722100
-7.237600 0.721900
-7.186300 0.721900
-7.134900 0.730900
-7.083500 0.740000
-7.032200 0.749100
-6.980800 0.758100
-6.929400 0.767200
-6.878100 0.776100
-6.826700 0.756200
-6.775300 0.755100
-6.724000 0.755400
-6.672600 0.756000
-6.621200 0.756600
-6.569900 0.757200
-6.518500 0.757800
-6.467100 0.782100
-6.415800 0.785700
-6.364400 0.789300
-6.313000 0.792800
-6.261700 0.795800
-6.210300 0.795100
-6.158900 0.794500
-6.107600 0.793900
-6.056200 0.793200
-6.004800 0.792600
-5.953500 0.796600
-5.902100 0.805000
-5.850700 0.815900
-5.799400 0.824400
-5.748000 0.832400
-5.696600 0.840300
-5.645300 0.847400
-5.593900 0.854200
-5.542600 0.858500
-5.491200 0.861000
-5.439800 0.863500
-5.388500 0.866000
-5.337100 0.868500
-5.285700 0.871000
-5.234400 0.873500
-5.183000 0.869900
-5.131600 0.888900
-5.080300 1.028500
-5.028900 1.082600
-4.977500 1.143400
-4.926200 1.207600
-4.874800 1.250100
-4.823400 1.296400
-4.772100 1.357400
-4.720700 1.436400
-4.669300 1.527400
-4.618000 1.515400
-4.566600 1.527700
-4.515200 1.529400
-4.463900 1.540100
-4.412500 1.575100
-4.361100 1.682300
-4.309800 1.747400
-4.258400 1.792900
-4.207000 1.842100
-4.155700 1.888700
-4.104300 1.940200
-4.052900 1.973200
-4.001600 1.993300
-3.950200 2.011300
-3.898800 2.174300
-3.847500 2.358700
-3.796100 2.118000
-3.744700 2.072200
-3.693400 1.652800
-3.642000 1.534100
-3.590600 1.493000
-3.539300 1.527900
-3.487900 1.604100
-3.436500 1.704500
-3.385200 2.379000
-3.333800 2.130900
-3.282400 2.026200
-3.231100 1.867400
-3.179700 1.634600
-3.128300 1.490700
-3.077000 1.342500
-3.025600 1.130100
-2.974200 1.056000
-2.922900 1.087200
-2.871500 1.119700
-2.820100 1.202200
-2.768800 1.196700
-2.717400 1.181800
-2.666000 1.573500
-2.614700 1.630900
-2.563300 1.614200
-2.511900 1.558600
-2.460600 1.467300
-2.409200 1.397600
-2.357800 1.348000
-2.306500 1.309300
-2.255100 1.295600
-2.203800 1.281100
-2.152400 1.268400
-2.101000 1.253700
-2.049700 1.242100
-1.998300 1.231100
-1.946900 1.220000
-1.895600 1.209100
-1.844200 1.198100
-1.792800 1.186600
-1.741500 1.177000
-1.690100 1.171800
-1.638700 1.198500
-1.587400 1.188100
-1.536000 1.178100
-1.484600 1.168200
-1.433300 1.158300
-1.381900 1.148200
-1.330500 1.137700
-1.279200 1.127200
-1.227800 1.123300
-1.176400 1.128300
-1.125100 1.161000
-1.073700 1.152300
-1.022300 1.144200
-0.971000 1.133300
-0.919600 1.119700
-0.868200 1.106200
-0.816900 1.093000
-0.765500 1.117000
-0.714100 1.143400
-0.662800 1.120700
-0.611400 1.098200
-0.560000 1.153500
-0.508700 1.079300
-0.457300 1.123600
-0.405900 0.866700
-0.354600 0.711800
-0.303200 0.723200
-0.251800 0.736500
-0.200500 0.753000
-0.149100 0.772000
-0.097700 0.792300
-0.046400 0.815300
0.005000 0.849900
0.056400 0.892100
0.107700 0.941900
0.159100 1.054500
0.210500 1.150800
0.261800 1.162300
0.313200 1.189500
0.364600 1.092700
0.415900 0.940300
0.467300 0.912100
0.518700 0.781900
0.570000 0.726400
0.621400 0.670900
0.672800 0.615400
0.724100 0.567400
0.775500 0.538200
0.826900 0.527800
0.878200 0.527600
0.929600 0.501000
0.980900 0.468400
1.032300 0.445000
1.083700 0.408500
1.135000 0.403500
1.186400 0.393400
1.237800 0.377400
1.289100 0.356100
1.340500 0.333400
1.391900 0.310600
1.443200 0.287900
1.494600 0.267200
1.546000 0.253100
1.597300 0.245500
1.648700 0.241500
1.700100 0.237500
1.751400 0.233500
1.802800 0.229500
1.854200 0.201100
1.905500 0.176700
1.956900 0.151000
2.008300 0.126500
2.059600 0.116200
2.111000 0.105900
2.162400 0.095500
2.213700 0.085200
2.265100 0.074800
2.316500 0.064500
2.367800 0.054200
2.419200 0.043800
2.470600 0.033500
2.521900 0.023200
2.573300 0.013100
2.624700 0.005500
2.676000 0.000500
2.727400 0.006700
2.778800 0.014900
2.830100 0.025700
2.881500 0.036700
2.932900 0.047600
2.984200 0.058500
3.035600 0.069400
3.087000 0.080400
3.138300 0.091300
3.189700 0.102300
3.241100 0.113200
3.292400 0.124100
3.343800 0.135100
3.395200 0.170400
3.446500 0.221400
3.497900 0.260200
3.549300 0.259300
3.600600 0.258300
3.652000 0.257200
3.703400 0.256200
3.754700 0.281900
3.806100 0.317700
3.857500 0.353600
3.908800 0.389400
3.960200 0.425200
4.011600 0.461000
4.062900 0.496800
4.114300 0.702900
4.165700 0.666200
4.217000 0.669500
4.268400 0.735300
4.319700 1.237800
4.371100 1.300400
4.422500 1.308900
4.473800 1.387800
4.525200 1.146900
4.576600 0.990500
4.627900 0.918400
4.679300 0.857200
4.730700 0.813100
4.782000 0.774700
4.833400 0.743100
4.884800 0.719400
4.936100 0.697100
4.987500 0.673000
5.038900 0.652000
5.090200 0.635600
5.141600 0.623000
5.193000 0.611700
5.244300 0.602000
5.295700 0.593100
5.347100 0.584600
5.398400 0.576200
5.449800 0.567700
5.501200 0.559400
5.552500 0.551300
5.603900 0.543300
5.655300 0.535700
5.706600 0.528400
5.758000 0.534600
5.809400 0.558500
5.860700 0.576400
5.912100 0.582300
5.963500 0.585500
6.014800 0.589600
6.066200 0.593300
6.117600 0.598500
6.168900 0.606500
6.220300 0.614200
6.271700 0.619700
6.323000 0.621900
6.374400 0.623300
6.425800 0.626300
6.477100 0.629600
6.528500 0.633500
6.579900 0.637600
6.631200 0.640000
6.682600 0.641100
6.734000 0.642000
6.785300 0.643800
6.836700 0.645800
6.888100 0.646100
6.939400 0.647300
6.990800 0.649300
7.042200 0.653300
7.093500 0.656100
7.144900 0.658500
7.196300 0.660900
7.247600 0.663700
7.299000 0.666900
7.350400 0.670200
7.401700 0.673800
7.453100 0.677600
7.504400 0.681500
7.555800 0.686800
7.607200 0.692400
7.658500 0.697900
7.709900 0.702900
7.761300 0.707900
7.812600 0.717300
7.864000 0.731100
7.915400 0.745800
7.966700 0.763000
8.018100 0.783200
8.069500 0.815900
8.120800 0.863700
8.172200 0.856800
8.223600 0.833700
8.274900 0.811600
8.326300 0.787500
8.377700 0.751900
8.429000 0.705400
8.480400 0.659800
8.531800 0.627000
8.583100 0.603400
8.634500 0.586900
8.685900 0.580100
8.737200 0.596700
8.788600 0.648000
8.840000 0.675100
8.891300 0.693800
8.942700 0.732000
8.994100 0.739500
9.045400 0.919700
9.096800 0.891200
9.148200 0.857600
9.199500 0.820200
9.250900 0.798800
9.302300 0.795200
9.353600 0.789600
9.405000 0.779300
9.456400 0.768800
9.507700 0.766800
9.559100 0.777200
9.610500 0.790600
9.661800 0.794300
9.713200 0.798800
9.764600 0.810600
9.815900 0.830600
9.867300 0.836700
9.918700 0.830900
9.970000 0.824100
10.021400 0.967700
10.072800 1.442200
10.124100 1.704600
10.175500 1.908400
10.226900 1.966700
10.278200 1.827600
10.329600 1.576400
10.381000 1.487200
10.432300 1.617400
10.483700 1.674500
10.535100 1.804800
10.586400 1.890800
10.637800 1.939100
10.689100 2.011100
10.740500 2.078200
10.791900 2.172500
10.843200 2.274800
10.894600 2.353700
10.946000 2.391100
10.997300 3.394500
11.048700 4.639500
11.100100 3.903100
11.151400 3.375600
11.202800 2.529500
11.254200 2.362200
11.305500 2.194600
11.356900 2.026100
11.408300 1.859700
11.459600 1.733900
11.511000 1.725800
11.562400 1.726300
11.613700 1.805900
11.665100 1.940900
11.716500 1.928000
11.767800 1.916800
11.819200 1.907700
11.870600 1.901500
11.921900 1.898400
11.973300 1.888300
12.024700 1.876600
12.076000 1.875100
12.127400 1.877800
12.178800 1.879900
12.230100 1.905400
12.281500 1.916700
12.332900 1.638300
12.384200 1.499100
12.435600 1.281900
12.487000 1.167100
12.538300 1.109500
12.589700 1.103700
12.641100 1.100400
12.692400 1.103600
12.743800 1.113200
12.795200 1.126900
12.846500 2.286800
12.897900 1.948100
12.949300 1.924000
13.000600 1.901500
13.052000 1.903300
13.103400 2.075800
13.154700 2.683400
13.206100 2.691800
13.257500 2.587100
13.308800 2.484000
13.360200 2.151400
13.411600 1.944600
13.462900 1.796400
13.514300 1.648400
13.565700 1.599000
13.617000 1.604500
13.668400 1.554200
13.719800 1.530500
13.771100 1.512400
13.822500 1.545800
13.873900 1.567100
13.925200 1.539100
13.976600 1.420100
14.027900 1.321400
14.079300 1.224800
14.130700 1.158400
14.182000 1.154100
14.233400 1.159700
14.284800 1.127100
14.336100 1.113600
14.387500 1.100100
14.438900 1.328400
14.490200 1.568400
14.541600 1.383600
14.593000 1.477400
14.644300 1.518100
14.695700 1.546100
14.747100 1.565700
14.798400 1.705700
14.849800 1.759700
14.901200 1.790100
14.952500 1.783100
15.003900 1.780000
15.055300 1.771500
15.106600 1.981000
15.158000 2.196800
15.209400 2.405600
15.260700 2.371900
15.312100 2.267200
15.363500 2.205200
15.414800 2.209400
15.466200 2.202400
15.517600 2.161500
15.568900 2.154300
15.620300 2.178000
15.671700 2.212200
15.723000 2.203300
15.774400 2.126500
15.825800 2.067800
15.877100 1.989300
15.928500 1.947800
15.979900 2.023100
16.031200 1.939700
16.082600 1.901700
16.134000 1.904000
16.185300 1.969700
16.236700 1.926800
16.288100 1.949500
16.339400 1.982200
16.390800 2.150500
16.442200 2.230700
16.493500 2.170500
16.544900 2.173100
16.596300 2.151000
16.647600 2.115800
16.699000 2.082900
16.750400 2.055800
16.801700 2.034700
16.853100 2.024500
16.904500 2.005400
16.955800 2.016800
17.007200 2.091700
17.058600 2.138700
17.109900 2.125700
17.161300 2.067100
17.212600 2.012500
17.264000 1.968000
17.315400 1.902800
17.366700 1.863000
17.418100 1.825600
17.469500 1.791800
17.520800 1.762900
17.572200 1.722800
17.623600 1.690300
17.674900 1.672800
17.726300 1.657500
17.777700 1.638800
17.829000 1.620000
17.880400 1.608600
17.931800 1.608000
17.983100 1.660300
18.034500 1.623000
18.085900 1.632500
18.137200 1.641700
18.188600 1.639400
18.240000 1.606900
18.291300 1.593400
18.342700 1.602900
18.394100 1.602500
18.445400 1.568500
18.496800 1.527500
18.548200 1.529000
18.599500 1.469700
18.650900 1.466600
18.702300 1.547600
18.753600 1.646500
18.805000 1.650300
18.856400 1.642500
18.907700 1.588100
18.959100 1.567000
19.010500 1.532200
19.061800 1.479500
19.113200 1.381900
19.164600 1.263000
19.215900 1.190200
19.267300 1.215000
19.318700 1.264000
19.370000 1.311600
19.421400 1.297700
19.472800 1.264300
19.524100 1.276400
19.575500 1.350000
19.626900 1.519200
19.678200 1.675700
19.729600 1.620600
19.781000 1.664800
19.832300 1.536600
19.883700 1.569200
19.935100 1.582500
19.986400 1.699200
20.037800 1.705500
20.089200 1.737400
20.140500 1.812400
20.191900 1.840600
20.243300 1.778500
20.294600 1.613900
20.346000 1.488000
20.397400 1.384200
20.448700 1.277700
20.500100 1.211600
20.551400 1.133200
20.602800 1.091700
20.654200 1.104300
20.705500 1.123200
20.756900 1.132900
20.808300 1.112100
20.859600 1.122200
20.911000 1.120700
20.962400 1.184100
21.013700 1.311400
21.065100 1.502900
21.116500 1.709600
21.167800 1.810900
21.219200 1.794600
21.270600 1.848700
21.321900 1.893300
21.373300 1.970500
21.424700 2.078400
21.476000 2.165000
21.527400 2.237300
21.578800 2.302800
21.630100 2.175800
21.681500 2.130000
21.732900 2.046300
21.784200 1.964800
21.835600 1.893900
21.887000 1.819200
21.938300 1.754700
21.989700 1.759300
22.041100 1.727500
22.092400 1.688300
22.143800 1.690700
22.195200 1.695300
22.246500 1.737400
22.297900 1.954600
22.349300 2.468400
22.400600 2.946300
22.452000 2.967700
22.503400 2.236600
22.554700 1.758500
22.606100 1.626000
22.657500 1.473600
22.708800 1.338800
22.760200 1.164700
22.811600 1.049400
22.862900 0.967200
22.914300 0.951000
22.965700 0.966800
23.017000 0.969700
23.068400 0.980900
23.119800 1.056500
23.171100 1.149600
23.222500 1.276400
23.273900 1.455200
23.325200 1.610300
23.376600 1.658300
23.428000 1.697400
23.479300 1.697300
23.530700 1.678500
23.582100 1.683800
23.633400 1.646500
23.684800 1.645600
23.736100 1.689800
23.787500 1.828400
23.838900 2.075600
23.890200 2.168200
23.941600 2.130200
23.993000 2.105900
24.044300 2.107600
24.095700 2.069800
24.147100 1.827600
24.198400 1.651000
24.249800 1.533700
24.301200 1.425300
24.352500 1.362400
24.403900 1.350600
24.455300 1.363600
24.506600 1.377300
24.558000 1.334600
24.609400 1.283000
24.660700 1.298300
24.712100 1.330000
24.763500 1.370900
24.814800 1.419500
24.866200 1.482900
24.917600 1.535800
24.968900 1.603600
25.020300 1.698000
25.071700 1.815000
25.123000 2.016700
25.174400 2.355900
25.225800 2.366700
25.277100 2.547900
25.328500 2.863000
25.379900 2.538600
25.431200 2.483900
25.482600 2.519000
25.534000 2.794900
25.585300 3.164800
25.636700 3.108400
25.688100 2.651200
25.739400 2.384800
25.790800 2.265300
25.842200 2.160900
25.893500 2.094900
25.944900 2.082900
25.996300 2.107200
26.047600 2.071400
26.099000 1.970900
26.150400 1.832200
26.201700 1.682200
26.253100 1.720100
26.304500 1.618000
26.355800 1.622000
26.407200 1.817600
26.458600 2.056000
26.509900 2.075100
26.561300 2.249900
26.612700 2.373500
26.664000 2.571100
26.715400 2.968900
26.766800 2.561400
26.818100 3.460400
26.869500 3.141900
26.920900 2.580500
26.972200 2.423200
27.023600 2.354000
27.074900 2.408000
27.126300 2.430200
27.177700 2.638100
27.229000 2.749800
27.280400 2.330200
27.331800 2.367000
27.383100 2.382400
27.434500 2.120600
27.485900 1.985400
27.537200 2.123600
27.588600 2.086100
27.640000 2.099100
27.691300 2.098200
27.742700 2.164600
27.794100 2.221000
27.845400 2.205400
27.896800 2.181800
27.948200 2.072600
27.999500 1.981100
28.050900 1.925800
28.102300 1.929200
28.153600 1.942800
28.205000 1.968300
28.256400 1.973800
28.307700 1.974700
28.359100 1.977000
28.410500 1.974100
28.461800 1.957600
28.513200 1.944500
28.564600 1.940600
28.615900 1.935800
28.667300 1.966900
28.718700 2.018700
28.770000 2.151400
28.821400 2.336000
28.872800 2.412000
28.924100 2.405700
28.975500 2.302800
29.026900 2.167400
29.078200 2.151600
29.129600 2.146300
29.181000 2.156400
29.232300 2.175100
29.283700 2.203800
29.335100 2.262400
29.386400 2.244100
29.437800 2.138800
29.489200 2.131000
29.540500 2.232000
29.591900 2.342200
29.643300 2.273300
29.694600 2.138100
29.746000 2.099700
29.797400 1.989400
29.848700 2.042000
29.900100 2.109300
29.951500 2.281100
30.002800 2.158500
30.054200 2.060000
30.105600 1.961400
30.156900 1.784800
30.208300 1.684900
30.259600 1.638400
30.311000 1.608800
30.362400 1.601100
30.413700 1.639700
30.465100 1.633700
30.516500 1.571300
30.567800 1.533900
30.619200 1.589600
30.670600 1.615300
30.721900 1.595400
30.773300 1.587000
30.824700 1.572100
30.876000 1.562200
30.927400 1.565600
30.978800 1.590400
31.030100 1.667400
31.081500 1.667500
31.132900 1.654100
31.184200 1.736500
31.235600 1.749200
31.287000 1.743200
31.338300 1.742100
31.389700 1.743900
31.441100 1.766300
31.492400 1.802100
31.543800 1.860100
31.595200 1.922400
31.646500 1.998700
