set title 'mp-92 - Density of States'
set xlabel 'Energy (eV)'
set ylabel 'DOS (states/eV)'
set grid
set xrange [-10:10]
set yrange [0:1.266]
set xzeroaxis lt -1
set terminal png size 800,600
set output 'mp-92_dos_gnuplot.png'
plot '-' using 1:2 with lines title 'DOS'
-6.115500 0.000000
-6.098800 0.000000
-6.082000 0.000000
-6.065300 0.000000
-6.048600 0.000000
-6.031800 0.000000
-6.015100 0.000000
-5.998400 0.000000
-5.981600 0.000000
-5.964900 0.000000
-5.948200 0.000000
-5.931400 0.000000
-5.914700 0.000000
-5.898000 0.000000
-5.881200 0.000000
-5.864500 0.000000
-5.847800 0.000000
-5.831000 0.000000
-5.814300 0.000000
-5.797500 0.000000
-5.780800 0.000000
-5.764100 0.000000
-5.747300 0.000000
-5.730600 0.000000
-5.713900 0.000000
-5.697100 0.000000
-5.680400 0.000000
-5.663700 0.000000
-5.646900 0.000000
-5.630200 0.000000
-5.613500 0.000000
-5.596700 0.000000
-5.580000 0.000000
-5.563300 0.000000
-5.546500 0.000000
-5.529800 0.000000
-5.513000 0.000000
-5.496300 0.000000
-5.479600 0.000000
-5.462800 0.000000
-5.446100 0.000000
-5.429400 0.000000
-5.412600 0.000000
-5.395900 0.000000
-5.379200 0.000000
-5.362400 0.000000
-5.345700 0.000000
-5.329000 0.000000
-5.312200 0.000000
-5.295500 0.000000
-5.278800 0.000000
-5.262000 0.000000
-5.245300 0.000000
-5.228600 0.000000
-5.211800 0.000000
-5.195100 0.000000
-5.178300 0.000000
-5.161600 0.000000
-5.144900 0.000000
-5.128100 0.000000
-5.111400 0.000000
-5.094700 0.000000
-5.077900 0.000000
-5.061200 0.000000
-5.044500 0.000000
-5.027700 0.000000
-5.011000 0.000000
-4.994300 0.000000
-4.977500 0.000000
-4.960800 0.000000
-4.944100 0.000000
-4.927300 0.000000
-4.910600 0.000000
-4.893800 0.000000
-4.877100 0.000000
-4.860400 0.000000
-4.843600 0.000000
-4.826900 0.000000
-4.810200 0.000000
-4.793400 0.000000
-4.776700 0.000000
-4.760000 0.000000
-4.743200 0.000000
-4.726500 0.000000
-4.709800 0.000000
-4.693000 0.000000
-4.676300 0.000000
-4.659600 0.000000
-4.642800 0.000000
-4.626100 0.000000
-4.609300 0.000000
-4.592600 0.007100
-4.575900 0.030500
-4.559100 0.039700
-4.542400 0.050000
-4.525700 0.060700
-4.508900 0.067400
-4.492200 0.073100
-4.475500 0.076100
-4.458700 0.080500
-4.442000 0.085700
-4.425300 0.091200
-4.408500 0.097100
-4.391800 0.103000
-4.375100 0.106900
-4.358300 0.110200
-4.341600 0.113400
-4.324800 0.116000
-4.308100 0.118800
-4.291400 0.121900
-4.274600 0.125400
-4.257900 0.129000
-4.241200 0.132700
-4.224400 0.136500
-4.207700 0.140400
-4.191000 0.144300
-4.174200 0.147400
-4.157500 0.149900
-4.140800 0.151800
-4.124000 0.154000
-4.107300 0.156300
-4.090600 0.158700
-4.073800 0.161000
-4.057100 0.163500
-4.040300 0.166100
-4.023600 0.168800
-4.006900 0.171600
-3.990100 0.174400
-3.973400 0.177300
-3.956700 0.180200
-3.939900 0.183200
-3.923200 0.186000
-3.906500 0.188000
-3.889700 0.189700
-3.873000 0.191600
-3.856300 0.193500
-3.839500 0.195400
-3.822800 0.197300
-3.806100 0.199300
-3.789300 0.201300
-3.772600 0.203300
-3.755900 0.205400
-3.739100 0.207500
-3.722400 0.209700
-3.705600 0.211900
-3.688900 0.214200
-3.672200 0.216400
-3.655400 0.218800
-3.638700 0.221100
-3.622000 0.223300
-3.605200 0.225400
-3.588500 0.227300
-3.571800 0.228900
-3.555000 0.230600
-3.538300 0.232300
-3.521600 0.234000
-3.504800 0.235600
-3.488100 0.237200
-3.471400 0.238900
-3.454600 0.240600
-3.437900 0.242400
-3.421100 0.244100
-3.404400 0.245900
-3.387700 0.247700
-3.370900 0.249500
-3.354200 0.251300
-3.337500 0.253200
-3.320700 0.255100
-3.304000 0.257000
-3.287300 0.258900
-3.270500 0.260700
-3.253800 0.262400
-3.237100 0.264200
-3.220300 0.265900
-3.203600 0.267700
-3.186900 0.269300
-3.170100 0.270800
-3.153400 0.272300
-3.136600 0.273700
-3.119900 0.275300
-3.103200 0.276800
-3.086400 0.278300
-3.069700 0.279700
-3.053000 0.281200
-3.036200 0.282700
-3.019500 0.284200
-3.002800 0.285800
-2.986000 0.287300
-2.969300 0.288900
-2.952600 0.290500
-2.935800 0.292100
-2.919100 0.293700
-2.902400 0.295300
-2.885600 0.297000
-2.868900 0.298500
-2.852100 0.300000
-2.835400 0.301500
-2.818700 0.303000
-2.801900 0.304500
-2.785200 0.306000
-2.768500 0.307600
-2.751700 0.309100
-2.735000 0.310600
-2.718300 0.312000
-2.701500 0.313300
-2.684800 0.314700
-2.668100 0.316000
-2.651300 0.317400
-2.634600 0.318800
-2.617900 0.320200
-2.601100 0.321600
-2.584400 0.323000
-2.567700 0.324300
-2.550900 0.325700
-2.534200 0.327000
-2.517400 0.328400
-2.500700 0.329800
-2.484000 0.331200
-2.467200 0.332600
-2.450500 0.334100
-2.433800 0.335500
-2.417000 0.336900
-2.400300 0.338200
-2.383600 0.339500
-2.366800 0.340800
-2.350100 0.342100
-2.333400 0.343500
-2.316600 0.344800
-2.299900 0.346200
-2.283200 0.347600
-2.266400 0.349000
-2.249700 0.350400
-2.232900 0.351800
-2.216200 0.353200
-2.199500 0.354500
-2.182700 0.355700
-2.166000 0.357000
-2.149300 0.358200
-2.132500 0.359500
-2.115800 0.360700
-2.099100 0.362000
-2.082300 0.363300
-2.065600 0.364600
-2.048900 0.365900
-2.032100 0.367200
-2.015400 0.368500
-1.998700 0.369800
-1.981900 0.371100
-1.965200 0.372500
-1.948400 0.374300
-1.931700 0.376200
-1.915000 0.378200
-1.898200 0.380300
-1.881500 0.382500
-1.864800 0.384700
-1.848000 0.387100
-1.831300 0.389500
-1.814600 0.392100
-1.797800 0.394700
-1.781100 0.397300
-1.764400 0.400000
-1.747600 0.402800
-1.730900 0.403000
-1.714200 0.401500
-1.697400 0.401200
-1.680700 0.401000
-1.663900 0.402600
-1.647200 0.404900
-1.630500 0.408000
-1.613700 0.412300
-1.597000 0.416500
-1.580300 0.417200
-1.563500 0.416800
-1.546800 0.415200
-1.530100 0.412500
-1.513300 0.409100
-1.496600 0.405500
-1.479900 0.402800
-1.463100 0.401200
-1.446400 0.399900
-1.429700 0.398500
-1.412900 0.397100
-1.396200 0.396400
-1.379400 0.396600
-1.362700 0.397500
-1.346000 0.398800
-1.329200 0.400700
-1.312500 0.404000
-1.295800 0.410100
-1.279000 0.413400
-1.262300 0.416300
-1.245600 0.418700
-1.228800 0.420700
-1.212100 0.422200
-1.195400 0.423300
-1.178600 0.424200
-1.161900 0.425100
-1.145200 0.426000
-1.128400 0.426800
-1.111700 0.427400
-1.095000 0.427900
-1.078200 0.428300
-1.061500 0.428600
-1.044700 0.428700
-1.028000 0.429100
-1.011300 0.430000
-0.994500 0.438900
-0.977800 0.448400
-0.961100 0.453000
-0.944300 0.453300
-0.927600 0.451700
-0.910900 0.451800
-0.894100 0.453100
-0.877400 0.454700
-0.860700 0.456700
-0.843900 0.459500
-0.827200 0.460900
-0.810500 0.461800
-0.793700 0.462100
-0.777000 0.461700
-0.760200 0.461000
-0.743500 0.461100
-0.726800 0.461500
-0.710000 0.462200
-0.693300 0.463300
-0.676600 0.464400
-0.659800 0.465400
-0.643100 0.466300
-0.626400 0.467100
-0.609600 0.467800
-0.592900 0.468500
-0.576200 0.469000
-0.559400 0.469600
-0.542700 0.470300
-0.526000 0.471100
-0.509200 0.471900
-0.492500 0.472900
-0.475700 0.474000
-0.459000 0.475100
-0.442300 0.476200
-0.425500 0.477300
-0.408800 0.478500
-0.392100 0.479600
-0.375300 0.480900
-0.358600 0.482100
-0.341900 0.483400
-0.325100 0.484700
-0.308400 0.486000
-0.291700 0.487300
-0.274900 0.488600
-0.258200 0.489900
-0.241500 0.491000
-0.224700 0.492000
-0.208000 0.493000
-0.191200 0.493900
-0.174500 0.495000
-0.157800 0.497500
-0.141000 0.500500
-0.124300 0.503900
-0.107600 0.507900
-0.090800 0.512400
-0.074100 0.514900
-0.057400 0.516600
-0.040600 0.517700
-0.023900 0.518300
-0.007200 0.518600
0.009600 0.519800
0.026300 0.521200
0.043000 0.522400
0.059800 0.523500
0.076500 0.524400
0.093200 0.525100
0.110000 0.525800
0.126700 0.526700
0.143500 0.527800
0.160200 0.528900
0.176900 0.529900
0.193700 0.530900
0.210400 0.531800
0.227100 0.532900
0.243900 0.534100
0.260600 0.535400
0.277300 0.536700
0.294100 0.538000
0.310800 0.539400
0.327500 0.540900
0.344300 0.542500
0.361000 0.544200
0.377700 0.546000
0.394500 0.547700
0.411200 0.549600
0.428000 0.551500
0.444700 0.553400
0.461400 0.555400
0.478200 0.557300
0.494900 0.559400
0.511600 0.561500
0.528400 0.563600
0.545100 0.565600
0.561800 0.567700
0.578600 0.569900
0.595300 0.572300
0.612000 0.574500
0.628800 0.576600
0.645500 0.579200
0.662200 0.582300
0.679000 0.586600
0.695700 0.591800
0.712500 0.598400
0.729200 0.604700
0.745900 0.610500
0.762700 0.615900
0.779400 0.616800
0.796100 0.625300
0.812900 0.621900
0.829600 0.616200
0.846300 0.614600
0.863100 0.615700
0.879800 0.617500
0.896500 0.618500
0.913300 0.618000
0.930000 0.615500
0.946700 0.615400
0.963500 0.615000
0.980200 0.614000
0.997000 0.612300
1.013700 0.612100
1.030400 0.612000
1.047200 0.613300
1.063900 0.614600
1.080600 0.616100
1.097400 0.617900
1.114100 0.619900
1.130800 0.622100
1.147600 0.622900
1.164300 0.621200
1.181000 0.618900
1.197800 0.618300
1.214500 0.618400
1.231200 0.619300
1.248000 0.621100
1.264700 0.622900
1.281500 0.625300
1.298200 0.628300
1.314900 0.632500
1.331700 0.636600
1.348400 0.640400
1.365100 0.643900
1.381900 0.647500
1.398600 0.651800
1.415300 0.655800
1.432100 0.659800
1.448800 0.663900
1.465500 0.670200
1.482300 0.674900
1.499000 0.676100
1.515700 0.674300
1.532500 0.672000
1.549200 0.667300
1.565900 0.655000
1.582700 0.643700
1.599400 0.634600
1.616200 0.625600
1.632900 0.618500
1.649600 0.613500
1.666400 0.613400
1.683100 0.611500
1.699800 0.610600
1.716600 0.610800
1.733300 0.613400
1.750000 0.610200
1.766800 0.605600
1.783500 0.599600
1.800200 0.594200
1.817000 0.591300
1.833700 0.589800
1.850400 0.589500
1.867200 0.591000
1.883900 0.587600
1.900700 0.580600
1.917400 0.571000
1.934100 0.566300
1.950900 0.562300
1.967600 0.556700
1.984300 0.549800
2.001100 0.543100
2.017800 0.539900
2.034500 0.538300
2.051300 0.535800
2.068000 0.535400
2.084700 0.524700
2.101500 0.513700
2.118200 0.494200
2.134900 0.471900
2.151700 0.457900
2.168400 0.451500
2.185200 0.445800
2.201900 0.440600
2.218600 0.435600
2.235400 0.430700
2.252100 0.425800
2.268800 0.420800
2.285600 0.415900
2.302300 0.412400
2.319000 0.409900
2.335800 0.406800
2.352500 0.408000
2.369200 0.404300
2.386000 0.411500
2.402700 0.411700
2.419400 0.409000
2.436200 0.413800
2.452900 0.408800
2.469700 0.412500
2.486400 0.418700
2.503100 0.427800
2.519900 0.438900
2.536600 0.451200
2.553300 0.471700
2.570100 0.475200
2.586800 0.483300
2.603500 0.490800
2.620300 0.497900
2.637000 0.506600
2.653700 0.513500
2.670500 0.522900
2.687200 0.534900
2.703900 0.552100
2.720700 0.567400
2.737400 0.583100
2.754100 0.600300
2.770900 0.621200
2.787600 0.640800
2.804400 0.655300
2.821100 0.664800
2.837800 0.668500
2.854600 0.672500
2.871300 0.675800
2.888000 0.679000
2.904800 0.687400
2.921500 0.689300
2.938200 0.689400
2.955000 0.689500
2.971700 0.688300
2.988400 0.690400
3.005200 0.692200
3.021900 0.694900
3.038600 0.699000
3.055400 0.707200
3.072100 0.712400
3.088900 0.709200
3.105600 0.711800
3.122300 0.707300
3.139100 0.686700
3.155800 0.670700
3.172500 0.658500
3.189300 0.645100
3.206000 0.632600
3.222700 0.622100
3.239500 0.613100
3.256200 0.606200
3.272900 0.598900
3.289700 0.592000
3.306400 0.585700
3.323100 0.580200
3.339900 0.576200
3.356600 0.572700
3.373400 0.569000
3.390100 0.565100
3.406800 0.562000
3.423600 0.562600
3.440300 0.557700
3.457000 0.552800
3.473800 0.548400
3.490500 0.545000
3.507200 0.543800
3.524000 0.544800
3.540700 0.545500
3.557400 0.546000
3.574200 0.547100
3.590900 0.549400
3.607600 0.552900
3.624400 0.558900
3.641100 0.568900
3.657900 0.581300
3.674600 0.587400
3.691300 0.590000
3.708100 0.594900
3.724800 0.600900
3.741500 0.606100
3.758300 0.610400
3.775000 0.614200
3.791700 0.617500
3.808500 0.619400
3.825200 0.621400
3.841900 0.624800
3.858700 0.629600
3.875400 0.634500
3.892100 0.640000
3.908900 0.646100
3.925600 0.651900
3.942400 0.655600
3.959100 0.658300
3.975800 0.660900
3.992600 0.664100
4.009300 0.667800
4.026000 0.671500
4.042800 0.679600
4.059500 0.679200
4.076200 0.677200
4.093000 0.680400
4.109700 0.683000
4.126400 0.686900
4.143200 0.690700
4.159900 0.695800
4.176600 0.701400
4.193400 0.707300
4.210100 0.715100
4.226800 0.725200
4.243600 0.743000
4.260300 0.762100
4.277100 0.765900
4.293800 0.763900
4.310500 0.761700
4.327300 0.755600
4.344000 0.743700
4.360700 0.736700
4.377500 0.738400
4.394200 0.739300
4.410900 0.739300
4.427700 0.738800
4.444400 0.739600
4.461100 0.741200
4.477900 0.742000
4.494600 0.742800
4.511300 0.744500
4.528100 0.746000
4.544800 0.746200
4.561600 0.745400
4.578300 0.744700
4.595000 0.742400
4.611800 0.739700
4.628500 0.737700
4.645200 0.736500
4.662000 0.735700
4.678700 0.734700
4.695400 0.733000
4.712200 0.731900
4.728900 0.732100
4.745600 0.732800
4.762400 0.733000
4.779100 0.732200
4.795800 0.730700
4.812600 0.730200
4.829300 0.730200
4.846100 0.730300
4.862800 0.729900
4.879500 0.729800
4.896300 0.730300
4.913000 0.731400
4.929700 0.733500
4.946500 0.734300
4.963200 0.734900
4.979900 0.735700
4.996700 0.736600
5.013400 0.737700
5.030100 0.739000
5.046900 0.740500
5.063600 0.742700
5.080300 0.745400
5.097100 0.748200
5.113800 0.750900
5.130600 0.750600
5.147300 0.752900
5.164000 0.755800
5.180800 0.759200
5.197500 0.763100
5.214200 0.766600
5.231000 0.769100
5.247700 0.771200
5.264400 0.772600
5.281200 0.773400
5.297900 0.773600
5.314600 0.774100
5.331400 0.775700
5.348100 0.777000
5.364800 0.779600
5.381600 0.781800
5.398300 0.781900
5.415000 0.781900
5.431800 0.782300
5.448500 0.782300
5.465300 0.782200
5.482000 0.782100
5.498700 0.782400
5.515500 0.783000
5.532200 0.783800
5.548900 0.784700
5.565700 0.785200
5.582400 0.785600
5.599100 0.786600
5.615900 0.787800
5.632600 0.788700
5.649300 0.789300
5.666100 0.789800
5.682800 0.790100
5.699500 0.790700
5.716300 0.792500
5.733000 0.794800
5.749800 0.797300
5.766500 0.799800
5.783200 0.802300
5.800000 0.804700
5.816700 0.806700
5.833400 0.808700
5.850200 0.810600
5.866900 0.812400
5.883600 0.814100
5.900400 0.816100
5.917100 0.818400
5.933800 0.820800
5.950600 0.823200
5.967300 0.825000
5.984000 0.827100
6.000800 0.829700
6.017500 0.832200
6.034300 0.834800
6.051000 0.837400
6.067700 0.839900
6.084500 0.841500
6.101200 0.841600
6.117900 0.842500
6.134700 0.844200
6.151400 0.845900
6.168100 0.847600
6.184900 0.849600
6.201600 0.851700
6.218300 0.854200
6.235100 0.857000
6.251800 0.859600
6.268500 0.862200
6.285300 0.864300
6.302000 0.866300
6.318800 0.868500
6.335500 0.871100
6.352200 0.874400
6.369000 0.878200
6.385700 0.882200
6.402400 0.886700
6.419200 0.891300
6.435900 0.896600
6.452600 0.902200
6.469400 0.908200
6.486100 0.914500
6.502800 0.920800
6.519600 0.927800
6.536300 0.935200
6.553000 0.962200
6.569800 0.944600
6.586500 0.942400
6.603300 0.942700
6.620000 0.945000
6.636700 0.944600
6.653500 0.946700
6.670200 0.986000
6.686900 0.982700
6.703700 0.966400
6.720400 0.961400
6.737100 0.964600
6.753900 0.968300
6.770600 0.972700
6.787300 0.978000
6.804100 0.982700
6.820800 0.983100
6.837500 0.979600
6.854300 0.976100
6.871000 0.973200
6.887700 0.971300
6.904500 0.971800
6.921200 0.974500
6.938000 0.979500
6.954700 0.987300
6.971400 0.993800
6.988200 1.000200
7.004900 1.007900
7.021600 1.019500
7.038400 1.032000
7.055100 1.046700
7.071800 1.057200
7.088600 1.067800
7.105300 1.080500
7.122000 1.094400
7.138800 1.108900
7.155500 1.123400
7.172200 1.132700
7.189000 1.137600
7.205700 1.141900
7.222500 1.150600
7.239200 1.145800
7.255900 1.131500
7.272700 1.128400
7.289400 1.121200
7.306100 1.114000
7.322900 1.100900
7.339600 1.081500
7.356300 1.067100
7.373100 1.059100
7.389800 1.056000
7.406500 1.052100
7.423300 1.053300
7.440000 1.054200
7.456700 1.053100
7.473500 1.055100
7.490200 1.041400
7.507000 1.031500
7.523700 1.019700
7.540400 1.002200
7.557200 0.979800
7.573900 0.965600
7.590600 0.956000
7.607400 0.945200
7.624100 0.931400
7.640800 0.912800
7.657600 0.900300
7.674300 0.889200
7.691000 0.879600
7.707800 0.872900
7.724500 0.867800
7.741200 0.852400
7.758000 0.843700
7.774700 0.843100
7.791500 0.835900
7.808200 0.831000
7.824900 0.831000
7.841700 0.831200
7.858400 0.828200
7.875100 0.823100
7.891900 0.815800
7.908600 0.807100
7.925300 0.792300
7.942100 0.767900
7.958800 0.753000
7.975500 0.734800
7.992300 0.722300
8.009000 0.713600
8.025700 0.705300
8.042500 0.698300
8.059200 0.693700
8.075900 0.690600
8.092700 0.687400
8.109400 0.682800
8.126200 0.679300
8.142900 0.678800
8.159600 0.680100
8.176400 0.682400
8.193100 0.685700
8.209800 0.688400
8.226600 0.690000
8.243300 0.691900
8.260000 0.694000
8.276800 0.699200
8.293500 0.706800
8.310200 0.715500
8.327000 0.725200
8.343700 0.734200
8.360400 0.739200
8.377200 0.735000
8.393900 0.728800
8.410700 0.725000
8.427400 0.722500
8.444100 0.719600
8.460900 0.717200
8.477600 0.716400
8.494300 0.718600
8.511100 0.725700
8.527800 0.727100
8.544500 0.721900
8.561300 0.719700
8.578000 0.719300
8.594700 0.719400
8.611500 0.723400
8.628200 0.725700
8.644900 0.723300
8.661700 0.719100
8.678400 0.716900
8.695200 0.716900
8.711900 0.719400
8.728600 0.722900
8.745400 0.725000
8.762100 0.724600
8.778800 0.718500
8.795600 0.725300
8.812300 0.725200
8.829000 0.724000
8.845800 0.731000
8.862500 0.727700
8.879200 0.722000
8.896000 0.720100
8.912700 0.718400
8.929400 0.718400
8.946200 0.726700
8.962900 0.722900
8.979700 0.720300
8.996400 0.719000
9.013100 0.718400
9.029900 0.718500
9.046600 0.719000
9.063300 0.719200
9.080100 0.719600
9.096800 0.719800
9.113500 0.718800
9.130300 0.717300
9.147000 0.717100
9.163700 0.716500
9.180500 0.714800
9.197200 0.714000
9.213900 0.713500
9.230700 0.713000
9.247400 0.713800
9.264200 0.713300
9.280900 0.714600
9.297600 0.715400
9.314400 0.715800
9.331100 0.714000
9.347800 0.712400
9.364600 0.709300
9.381300 0.704200
9.398000 0.700600
9.414800 0.698900
9.431500 0.696600
9.448200 0.694000
9.465000 0.691600
9.481700 0.690400
9.498400 0.690200
9.515200 0.691000
9.531900 0.691700
9.548600 0.691900
9.565400 0.691700
9.582100 0.692000
9.598900 0.692400
9.615600 0.692800
9.632300 0.693600
9.649100 0.695300
9.665800 0.698000
9.682500 0.699900
9.699300 0.698500
9.716000 0.699200
9.732700 0.700000
9.749500 0.703400
9.766200 0.719600
9.782900 0.701900
9.799700 0.692000
9.816400 0.685200
9.833100 0.680700
9.849900 0.682500
9.866600 0.675800
9.883400 0.668700
9.900100 0.662500
9.916800 0.657200
9.933600 0.652800
9.950300 0.649300
9.967000 0.646200
9.983800 0.643300
10.000500 0.640600
10.017200 0.638200
10.034000 0.636000
10.050700 0.634200
10.067400 0.632900
10.084200 0.632100
10.100900 0.631700
10.117600 0.631800
10.134400 0.631900
10.151100 0.632600
10.167900 0.633800
10.184600 0.636000
10.201300 0.639800
10.218100 0.645900
10.234800 0.655600
10.251500 0.667400
10.268300 0.679800
10.285000 0.700800
10.301700 0.734800
10.318500 0.755700
10.335200 0.762800
10.351900 0.764200
10.368700 0.767000
10.385400 0.773600
10.402100 0.778500
10.418900 0.781900
10.435600 0.787400
10.452400 0.797400
10.469100 0.800100
10.485800 0.797400
10.502600 0.790700
10.519300 0.782300
10.536000 0.775600
10.552800 0.771200
10.569500 0.767900
10.586200 0.767500
10.603000 0.770000
10.619700 0.773200
10.636400 0.778600
10.653200 0.785600
10.669900 0.789000
10.686600 0.791600
10.703400 0.795000
10.720100 0.799500
10.736800 0.807100
10.753600 0.808200
10.770300 0.803300
10.787100 0.796800
10.803800 0.793900
10.820500 0.792900
10.837300 0.792800
10.854000 0.799300
10.870700 0.812800
10.887500 0.834100
10.904200 0.835500
10.920900 0.829200
10.937700 0.825000
10.954400 0.816500
10.971100 0.809800
10.987900 0.809500
11.004600 0.815500
11.021300 0.823200
11.038100 0.826600
11.054800 0.823300
11.071600 0.820200
11.088300 0.822500
11.105000 0.829100
11.121800 0.837900
11.138500 0.847700
11.155200 0.857700
11.172000 0.866300
11.188700 0.868300
11.205400 0.872900
11.222200 0.875500
11.238900 0.876800
11.255600 0.879900
11.272400 0.888900
11.289100 0.896000
11.305800 0.899300
11.322600 0.900700
11.339300 0.901000
11.356100 0.901300
11.372800 0.903400
11.389500 0.908700
11.406300 0.914100
11.423000 0.917500
11.439700 0.922800
11.456500 0.929200
11.473200 0.938300
11.489900 0.948400
11.506700 0.966000
11.523400 0.980700
11.540100 0.983600
11.556900 0.982400
11.573600 0.983300
11.590300 0.985300
11.607100 0.985500
11.623800 0.986900
11.640600 0.987200
11.657300 0.986700
11.674000 0.986400
11.690800 0.987200
11.707500 0.991400
11.724200 0.998600
11.741000 1.008200
11.757700 1.020300
