set title 'mp-1067793 - Density of States'
set xlabel 'Energy (eV)'
set ylabel 'DOS (states/eV)'
set grid
set xrange [-10:10]
set yrange [0:7.572]
set xzeroaxis lt -1
set terminal png size 800,600
set output 'mp-1067793_dos_gnuplot.png'
plot '-' using 1:2 with lines title 'DOS'
-31.070300 0.000000
-31.030000 0.000000
-30.989600 0.000000
-30.949300 0.000000
-30.908900 0.000000
-30.868600 0.000000
-30.828200 0.000000
-30.787900 0.000000
-30.747500 0.000000
-30.707200 0.000000
-30.666800 0.000000
-30.626500 0.000000
-30.586100 0.000000
-30.545800 0.000000
-30.505400 0.000000
-30.465100 0.000000
-30.424700 0.000000
-30.384400 0.000000
-30.344000 0.000000
-30.303700 0.000000
-30.263300 0.000000
-30.223000 0.000000
-30.182600 0.000000
-30.142300 0.000000
-30.101900 0.000000
-30.061600 0.000000
-30.021200 0.000000
-29.980900 0.000000
-29.940500 0.000000
-29.900200 0.000000
-29.859800 0.000000
-29.819500 0.000000
-29.779100 0.000000
-29.738800 0.000000
-29.698400 0.000000
-29.658100 0.000000
-29.617700 0.000000
-29.577400 0.000000
-29.537000 0.000000
-29.496700 0.000000
-29.456300 0.000000
-29.416000 0.000000
-29.375600 0.000000
-29.335300 0.000000
-29.294900 0.000000
-29.254600 0.000000
-29.214200 0.000000
-29.173900 0.000000
-29.133500 0.000000
-29.093200 0.000000
-29.052800 0.000000
-29.012500 0.000000
-28.972100 0.000000
-28.931800 0.000000
-28.891400 0.000000
-28.851100 0.000000
-28.810700 0.000000
-28.770400 0.000000
-28.730000 0.000000
-28.689700 0.000000
-28.649300 0.000000
-28.609000 0.000000
-28.568600 0.000000
-28.528300 0.000000
-28.487900 0.000000
-28.447600 0.000000
-28.407200 0.000000
-28.366900 0.000000
-28.326500 0.000000
-28.286200 0.000000
-28.245800 0.000000
-28.205500 0.000000
-28.165100 0.000000
-28.124800 0.000000
-28.084400 0.000000
-28.044100 0.000000
-28.003700 0.000000
-27.963400 0.000000
-27.923000 0.000000
-27.882700 0.000000
-27.842300 0.000000
-27.802000 0.000000
-27.761600 0.000000
-27.721300 0.000000
-27.680900 0.000000
-27.640600 0.000000
-27.600200 0.000000
-27.559900 0.000000
-27.519500 0.000000
-27.479200 0.000000
-27.438800 0.000000
-27.398500 0.013600
-27.358100 0.572300
-27.317800 0.835100
-27.277400 1.114400
-27.237100 1.349100
-27.196700 1.655800
-27.156400 1.980700
-27.116000 2.411200
-27.075700 3.224200
-27.035300 3.647600
-26.995000 3.586600
-26.954600 3.560400
-26.914300 3.528500
-26.873900 3.503900
-26.833600 3.484400
-26.793200 2.968300
-26.752900 2.651900
-26.712500 2.431100
-26.672200 2.283500
-26.631800 2.195000
-26.591500 2.100200
-26.551100 1.981900
-26.510800 1.895100
-26.470400 1.840500
-26.430100 1.792200
-26.389700 1.741800
-26.349400 1.691900
-26.309000 1.644700
-26.268700 1.606900
-26.228300 1.570500
-26.188000 1.536200
-26.147600 1.506900
-26.107300 1.474900
-26.066900 1.446400
-26.026600 1.423100
-25.986200 1.407100
-25.945900 1.383800
-25.905500 1.357300
-25.865200 1.337800
-25.824800 1.321900
-25.784500 1.301800
-25.744100 1.282700
-25.703800 1.267000
-25.663400 1.260000
-25.623100 1.255600
-25.582700 1.259900
-25.542400 1.295600
-25.502000 1.400600
-25.461700 1.479500
-25.421300 1.544300
-25.381000 1.603600
-25.340600 1.448300
-25.300300 1.241400
-25.259900 1.019600
-25.219600 0.800700
-25.179200 0.470400
-25.138900 0.039500
-25.098500 0.312500
-25.058200 0.716100
-25.017800 0.959200
-24.977500 1.195700
-24.937100 1.408100
-24.896800 1.456700
-24.856400 1.384700
-24.816100 1.318900
-24.775700 1.261200
-24.735400 1.196300
-24.695000 1.134800
-24.654700 1.073000
-24.614300 1.053000
-24.574000 1.045700
-24.533600 1.041100
-24.493300 1.037000
-24.452900 1.035900
-24.412600 1.035900
-24.372200 1.035900
-24.331900 1.035900
-24.291500 1.035700
-24.251200 1.035600
-24.210800 1.035300
-24.170500 1.034800
-24.130100 1.033400
-24.089800 1.032400
-24.049400 1.031600
-24.009100 1.031100
-23.968700 1.031100
-23.928400 1.031100
-23.888000 1.031600
-23.847700 1.034900
-23.807300 1.038800
-23.767000 1.043500
-23.726600 1.050400
-23.686300 1.057600
-23.645900 1.064600
-23.605600 1.070200
-23.565200 1.075100
-23.524900 1.076200
-23.484500 1.076200
-23.444200 1.076200
-23.403800 1.076600
-23.363500 1.086800
-23.323100 1.098900
-23.282800 1.115400
-23.242400 1.138600
-23.202100 1.158200
-23.161700 1.181600
-23.121400 1.199400
-23.081000 1.202000
-23.040700 1.202100
-23.000300 1.202100
-22.960000 1.205600
-22.919600 1.235000
-22.879300 1.273000
-22.838900 1.332300
-22.798600 1.381000
-22.758200 1.444700
-22.717900 1.495800
-22.677500 1.495800
-22.637200 1.495900
-22.596800 1.521000
-22.556500 1.627800
-22.516100 1.805500
-22.475800 1.946800
-22.435400 2.112700
-22.395100 2.285300
-22.354700 2.556100
-22.314400 3.560600
-22.274000 4.013900
-22.233700 3.160800
-22.193300 3.086100
-22.153000 1.725800
-22.112600 0.000000
-22.072300 0.000000
-22.031900 0.000000
-21.991600 0.000000
-21.951200 0.000000
-21.910900 0.000000
-21.870500 0.000000
-21.830200 0.000000
-21.789800 0.000000
-21.749500 0.000000
-21.709100 0.000000
-21.668800 0.000000
-21.628400 0.000000
-21.588100 0.000000
-21.547700 0.000000
-21.507400 0.000000
-21.467000 0.000000
-21.426700 0.000000
-21.386300 0.000000
-21.346000 0.000000
-21.305600 0.000000
-21.265300 0.000000
-21.224900 0.000000
-21.184600 0.000000
-21.144200 0.000000
-21.103900 0.000000
-21.063500 0.000000
-21.023200 0.000000
-20.982800 0.000000
-20.942500 0.000000
-20.902100 0.000000
-20.861800 0.000000
-20.821400 0.000000
-20.781100 0.000000
-20.740700 0.000000
-20.700400 0.000000
-20.660000 0.000000
-20.619700 0.000000
-20.579300 0.000000
-20.539000 0.000000
-20.498600 0.000000
-20.458300 0.000000
-20.417900 0.000000
-20.377600 0.000000
-20.337200 0.000000
-20.296900 0.000000
-20.256500 0.000000
-20.216200 0.000000
-20.175800 0.000000
-20.135500 0.000000
-20.095100 0.000000
-20.054800 0.000000
-20.014400 0.000000
-19.974100 0.000000
-19.933700 0.000000
-19.893400 0.000000
-19.853000 0.000000
-19.812700 0.000000
-19.772300 0.000000
-19.732000 0.000000
-19.691600 0.000000
-19.651300 0.000000
-19.610900 0.000000
-19.570600 0.000000
-19.530200 0.000000
-19.489900 0.000000
-19.449500 0.000000
-19.409200 0.000000
-19.368800 0.000000
-19.328500 0.000000
-19.288100 0.000000
-19.247800 0.000000
-19.207400 0.000000
-19.167100 0.000000
-19.126700 0.000000
-19.086400 0.000000
-19.046000 0.000000
-19.005700 0.000000
-18.965300 0.000000
-18.925000 0.000000
-18.884600 0.000000
-18.844300 0.000000
-18.803900 0.000000
-18.763600 0.000000
-18.723200 0.000000
-18.682900 0.000000
-18.642500 0.000000
-18.602200 0.000000
-18.561800 0.000000
-18.521500 0.000000
-18.481100 0.000000
-18.440800 0.000000
-18.400400 0.000000
-18.360100 0.000000
-18.319700 0.000000
-18.279400 0.000000
-18.239000 0.000000
-18.198700 0.000000
-18.158300 0.000000
-18.118000 0.000000
-18.077600 0.000000
-18.037300 0.000000
-17.996900 0.000000
-17.956600 0.000000
-17.916200 0.000000
-17.875900 0.000000
-17.835500 0.000000
-17.795200 0.000000
-17.754800 0.000000
-17.714500 0.000000
-17.674100 0.000000
-17.633800 0.000000
-17.593400 0.000000
-17.553100 0.000000
-17.512700 0.000000
-17.472400 0.000000
-17.432000 0.000000
-17.391700 0.000000
-17.351300 0.000000
-17.311000 0.000000
-17.270600 0.000000
-17.230300 0.000000
-17.189900 0.000000
-17.149600 0.000000
-17.109200 0.000000
-17.068900 0.000000
-17.028500 0.000000
-16.988200 0.000000
-16.947800 0.000000
-16.907500 0.000000
-16.867100 0.000000
-16.826800 0.000000
-16.786400 0.000000
-16.746100 0.000000
-16.705700 0.000000
-16.665400 0.000000
-16.625000 0.000000
-16.584700 0.000000
-16.544300 0.000000
-16.504000 0.000000
-16.463600 0.000000
-16.423300 0.000000
-16.382900 0.000000
-16.342600 0.000000
-16.302200 0.000000
-16.261900 0.000000
-16.221500 0.000000
-16.181200 0.000000
-16.140800 0.000000
-16.100500 0.000000
-16.060100 0.000000
-16.019800 0.000000
-15.979400 0.000000
-15.939100 0.000000
-15.898700 0.000000
-15.858400 0.000000
-15.818000 0.000000
-15.777700 0.000000
-15.737300 0.000000
-15.697000 0.000000
-15.656600 0.000000
-15.616300 0.000000
-15.575900 0.000000
-15.535600 0.000000
-15.495200 0.000000
-15.454900 0.000000
-15.414500 0.000000
-15.374200 0.000000
-15.333800 0.000000
-15.293500 0.000000
-15.253100 0.000000
-15.212800 0.000000
-15.172400 0.000000
-15.132100 0.000000
-15.091700 0.000000
-15.051400 0.000000
-15.011000 0.000000
-14.970700 0.000000
-14.930300 0.000000
-14.890000 0.000000
-14.849600 0.000000
-14.809300 0.000000
-14.768900 0.000000
-14.728600 0.000000
-14.688200 0.000000
-14.647900 0.000000
-14.607500 0.000000
-14.567200 0.000000
-14.526800 0.000000
-14.486500 0.000000
-14.446100 0.000000
-14.405800 0.000000
-14.365400 0.000000
-14.325100 0.000000
-14.284700 0.000000
-14.244400 0.000000
-14.204000 0.000000
-14.163700 0.000000
-14.123300 0.000000
-14.083000 0.000000
-14.042600 0.000000
-14.002300 0.000000
-13.961900 0.000000
-13.921600 0.000000
-13.881200 0.000000
-13.840900 0.000000
-13.800500 0.000000
-13.760200 0.000000
-13.719800 0.000000
-13.679500 0.000000
-13.639100 0.000000
-13.598800 0.000000
-13.558400 0.000000
-13.518100 0.000000
-13.477700 0.000000
-13.437400 0.000000
-13.397000 0.000000
-13.356700 0.000000
-13.316300 0.000000
-13.276000 0.000000
-13.235600 0.000000
-13.195300 0.000000
-13.154900 0.000000
-13.114600 0.000000
-13.074200 0.000000
-13.033900 0.000000
-12.993500 0.000000
-12.953200 0.000000
-12.912800 0.000000
-12.872500 0.000000
-12.832100 0.000000
-12.791800 0.000000
-12.751400 0.000000
-12.711100 0.000000
-12.670700 0.000000
-12.630400 0.000000
-12.590000 0.000000
-12.549700 0.000000
-12.509300 0.000000
-12.469000 0.000000
-12.428600 0.000000
-12.388300 0.000000
-12.347900 0.000000
-12.307600 0.000000
-12.267200 0.000000
-12.226900 0.000000
-12.186500 0.000000
-12.146200 0.000000
-12.105800 0.000000
-12.065500 0.000000
-12.025100 0.000000
-11.984800 0.000000
-11.944400 0.000000
-11.904100 0.000000
-11.863700 0.000000
-11.823400 0.000000
-11.783000 0.000000
-11.742700 0.000000
-11.702300 0.000000
-11.662000 0.000000
-11.621600 0.000000
-11.581300 0.000000
-11.540900 0.000000
-11.500600 0.000000
-11.460200 0.000000
-11.419900 0.000000
-11.379500 0.000000
-11.339200 0.000000
-11.298800 0.000000
-11.258500 0.000000
-11.218100 0.000000
-11.177800 0.000000
-11.137400 0.000000
-11.097100 0.000000
-11.056700 0.000000
-11.016400 0.000000
-10.976000 0.000000
-10.935700 0.097900
-10.895300 0.368600
-10.855000 0.671800
-10.814600 0.886800
-10.774300 1.120400
-10.733900 1.421300
-10.693600 2.047900
-10.653200 2.479400
-10.612900 2.548300
-10.572500 2.462900
-10.532200 2.509100
-10.491800 2.496300
-10.451500 2.060000
-10.411100 1.833100
-10.370800 1.714900
-10.330400 1.613000
-10.290100 1.487900
-10.249700 1.291900
-10.209400 1.292000
-10.169000 1.292100
-10.128700 1.292200
-10.088300 1.292400
-10.048000 1.293000
-10.007600 1.225600
-9.967300 1.173000
-9.926900 1.132800
-9.886600 1.095800
-9.846200 1.060100
-9.805900 1.060000
-9.765500 1.060000
-9.725200 1.060100
-9.684800 1.060100
-9.644500 1.052400
-9.604100 1.033200
-9.563800 1.022000
-9.523400 1.012400
-9.483100 1.002200
-9.442700 0.986000
-9.402400 0.975500
-9.362000 0.967500
-9.321700 0.960700
-9.281300 0.955300
-9.241000 0.950900
-9.200600 0.946100
-9.160300 0.940900
-9.119900 0.935900
-9.079600 0.932800
-9.039200 0.930400
-8.998900 0.928300
-8.958500 0.926300
-8.918200 0.925500
-8.877800 0.923400
-8.837500 0.920800
-8.797100 0.915900
-8.756800 0.911600
-8.716400 0.907800
-8.676100 0.904200
-8.635700 0.901400
-8.595400 0.900100
-8.555000 0.899300
-8.514700 0.898700
-8.474300 0.898200
-8.434000 0.898100
-8.393600 0.898100
-8.353300 0.896800
-8.312900 0.896000
-8.272600 0.895500
-8.232200 0.896700
-8.191900 0.902700
-8.151500 0.972000
-8.111200 1.165500
-8.070800 1.235900
-8.030500 1.320700
-7.990100 1.403200
-7.949800 1.479200
-7.909400 1.542400
-7.869100 1.500400
-7.828700 1.549500
-7.788400 1.599100
-7.748000 2.053800
-7.707700 2.100000
-7.667300 2.307800
-7.627000 2.663400
-7.586600 3.064400
-7.546300 3.502900
-7.505900 3.114300
-7.465600 2.484600
-7.425200 2.086800
-7.384900 1.899600
-7.344500 1.897100
-7.304200 1.891200
-7.263800 1.983800
-7.223500 2.170600
-7.183100 2.351400
-7.142800 2.863300
-7.102400 3.501300
-7.062100 3.794300
-7.021700 3.742200
-6.981400 3.664800
-6.941000 3.549700
-6.900700 3.378500
-6.860300 3.270000
-6.820000 3.267300
-6.779600 3.606700
-6.739300 3.622700
-6.698900 3.470200
-6.658600 3.286300
-6.618200 3.151700
-6.577900 3.232700
-6.537500 3.280000
-6.497200 3.363200
-6.456800 3.485300
-6.416500 3.625000
-6.376100 3.800600
-6.335800 4.035500
-6.295400 4.212600
-6.255100 4.341100
-6.214700 4.402200
-6.174400 4.242400
-6.134000 4.179600
-6.093700 4.231000
-6.053300 4.328600
-6.013000 4.582100
-5.972600 4.746700
-5.932300 5.098800
-5.891900 5.558800
-5.851600 5.108500
-5.811200 5.346900
-5.770900 6.883600
-5.730500 6.114300
-5.690200 5.267700
-5.649800 4.237000
-5.609500 3.516700
-5.569100 3.682900
-5.528800 3.145900
-5.488400 3.038300
-5.448100 3.264400
-5.407700 3.575700
-5.367400 4.440400
-5.327000 4.464300
-5.286700 4.814400
-5.246300 4.996400
-5.206000 4.216300
-5.165600 4.015000
-5.125300 4.469800
-5.084900 4.633100
-5.044600 4.767500
-5.004200 5.147300
-4.963900 4.909800
-4.923500 4.682600
-4.883200 4.895200
-4.842800 5.131800
-4.802500 5.251700
-4.762100 5.333400
-4.721800 5.524000
-4.681400 5.473200
-4.641100 5.260000
-4.600700 5.243100
-4.560400 5.332500
-4.520000 5.086400
-4.479700 5.380800
-4.439300 4.991000
-4.399000 3.260300
-4.358600 3.808100
-4.318300 3.668400
-4.277900 3.967900
-4.237600 4.345500
-4.197200 4.159600
-4.156900 4.162900
-4.116500 3.803100
-4.076200 3.528400
-4.035800 3.391200
-3.995500 3.284800
-3.955100 3.215500
-3.914800 3.151100
-3.874400 3.089700
-3.834100 3.059100
-3.793700 3.013600
-3.753400 2.920800
-3.713000 2.475100
-3.672700 2.005600
-3.632300 2.233200
-3.592000 2.451100
-3.551600 2.362000
-3.511300 1.990400
-3.470900 1.616900
-3.430600 0.950400
-3.390200 0.902100
-3.349900 0.902100
-3.309500 0.902100
-3.269200 0.902100
-3.228800 0.902100
-3.188500 0.902100
-3.148100 0.902100
-3.107800 0.897600
-3.067400 0.894700
-3.027100 0.894300
-2.986700 0.870800
-2.946400 0.870800
-2.906000 0.870800
-2.865700 0.870800
-2.825300 0.870700
-2.785000 0.870700
-2.744600 0.870700
-2.704300 0.870700
-2.663900 0.870700
-2.623600 0.870800
-2.583200 0.872900
-2.542900 0.877700
-2.502500 0.887300
-2.462200 0.908200
-2.421800 0.944600
-2.381500 0.975900
-2.341100 0.975900
-2.300800 0.975900
-2.260400 0.975900
-2.220100 0.975900
-2.179700 0.975900
-2.139400 0.975900
-2.099000 0.976100
-2.058700 0.983400
-2.018300 0.995800
-1.978000 1.023400
-1.937600 1.058800
-1.897300 1.158200
-1.856900 1.165800
-1.816600 1.165800
-1.776200 1.165800
-1.735900 1.165800
-1.695500 1.165900
-1.655200 1.165900
-1.614800 1.173100
-1.574500 1.203400
-1.534100 1.294300
-1.493800 1.445700
-1.453400 1.496200
-1.413100 1.496200
-1.372700 1.496200
-1.332400 1.496200
-1.292000 1.496300
-1.251700 1.496300
-1.211300 1.793100
-1.171000 2.058800
-1.130600 2.136100
-1.090300 2.135900
-1.049900 2.135800
-1.009600 2.548200
-0.969200 3.040300
-0.928900 4.076800
-0.888500 4.685400
-0.848200 3.749800
-0.807800 2.794200
-0.767500 2.573100
-0.727100 2.453300
-0.686800 2.085700
-0.646400 0.000000
-0.606100 0.000000
-0.565700 0.000000
-0.525400 0.000000
-0.485000 0.000000
-0.444700 0.000000
-0.404300 0.000000
-0.364000 0.000000
-0.323600 0.000000
-0.283300 0.000000
-0.242900 0.000000
-0.202600 0.000000
-0.162200 0.000000
-0.121900 0.000000
-0.081500 0.000000
-0.041200 0.000000
-0.000800 0.000000
0.039500 0.000000
0.079900 0.000000
0.120200 0.000000
0.160600 0.000000
0.200900 0.000000
0.241300 0.000000
0.281600 0.000000
0.322000 0.000000
0.362300 0.000000
0.402700 0.000000
0.443000 0.000000
0.483400 0.000000
0.523700 0.000000
0.564100 0.000000
0.604400 0.000000
0.644800 0.000000
0.685100 0.000000
0.725500 0.000000
0.765800 0.000000
0.806200 0.000000
0.846500 0.000000
0.886900 0.000000
0.927200 0.000000
0.967600 0.000000
1.007900 0.000000
1.048300 0.000000
1.088600 0.000000
1.129000 0.000000
1.169300 0.000000
1.209700 0.000000
1.250000 0.000000
1.290400 0.000000
1.330700 0.000000
1.371100 0.000000
1.411400 0.000000
1.451800 0.000000
1.492100 0.000000
1.532500 0.000000
1.572800 0.000000
1.613200 0.000000
1.653500 0.000000
1.693900 0.000000
1.734200 0.000000
1.774600 0.000000
1.814900 0.000000
1.855300 0.000000
1.895600 0.000000
1.936000 0.000000
1.976300 0.000000
2.016700 0.000000
2.057000 0.000000
2.097400 0.000000
2.137700 0.000000
2.178100 0.000000
2.218400 0.000000
2.258800 0.000000
2.299100 0.000000
2.339500 0.000000
2.379800 0.000000
2.420200 0.000000
2.460500 0.000000
2.500900 0.000000
2.541200 0.000000
2.581600 0.000000
2.621900 0.000000
2.662300 0.000000
2.702600 0.000000
2.743000 0.000000
2.783300 0.000000
2.823700 0.000000
2.864000 0.000000
2.904400 0.000000
2.944700 0.000000
2.985100 0.000000
3.025400 0.000000
3.065800 0.000000
3.106100 0.000000
3.146500 0.000000
3.186800 0.000000
3.227200 0.000000
3.267500 0.000000
3.307900 0.000000
3.348200 0.000000
3.388600 0.000000
3.428900 0.000000
3.469300 0.000000
3.509600 0.000000
3.550000 0.000000
3.590300 0.000000
3.630700 0.000000
3.671000 0.000000
3.711400 0.000000
3.751700 0.000000
3.792100 0.000000
3.832400 0.000000
3.872800 0.000000
3.913100 0.000000
3.953500 0.000000
3.993800 0.000000
4.034200 0.000000
4.074500 0.000000
4.114900 0.000000
4.155200 0.000000
4.195600 0.000000
4.235900 0.000000
4.276300 0.000000
4.316600 0.000000
4.357000 0.000000
4.397300 0.000000
4.437700 0.000000
4.478000 0.000000
4.518400 0.000000
4.558700 0.000000
4.599100 0.000000
4.639400 0.000000
4.679800 0.000000
4.720100 0.000000
4.760500 0.000000
4.800800 0.000000
4.841200 0.000000
4.881500 0.000000
4.921900 0.000000
4.962200 0.000000
5.002600 0.000000
5.042900 0.000000
5.083300 0.000000
5.123600 0.000000
5.164000 0.000000
5.204300 0.000000
5.244700 0.000000
5.285000 0.000000
5.325400 0.000000
5.365700 0.000000
5.406100 0.000000
5.446400 0.000000
5.486800 0.000000
5.527100 0.000000
5.567500 0.000000
5.607800 0.000000
5.648200 0.000000
5.688500 0.000000
5.728900 0.000000
5.769200 0.000000
5.809600 0.000000
5.849900 0.000000
5.890300 0.000000
5.930600 0.000000
5.971000 0.000000
6.011300 0.000000
6.051700 0.000000
6.092000 0.000000
6.132400 0.000000
6.172700 0.000000
6.213100 0.000000
6.253400 0.000000
6.293800 0.000000
6.334100 0.000000
6.374500 0.000000
6.414800 0.000000
6.455200 0.000000
6.495500 0.000000
6.535900 0.000000
6.576200 0.000000
6.616600 0.000000
6.656900 0.000000
6.697300 0.000000
6.737600 0.000000
6.778000 0.004300
6.818300 0.027000
6.858700 0.059800
6.899000 0.073600
6.939400 0.079500
6.979700 0.090000
7.020100 0.101300
7.060400 0.113200
7.100800 0.125500
7.141100 0.133800
7.181500 0.140200
7.221800 0.147500
7.262200 0.154200
7.302500 0.160900
7.342900 0.168400
7.383200 0.176400
7.423600 0.184700
7.463900 0.193300
7.504300 0.201900
7.544600 0.208300
7.585000 0.214500
7.625300 0.220600
7.665700 0.226600
7.706000 0.232700
7.746400 0.239100
7.786700 0.245900
7.827100 0.252800
7.867400 0.259700
7.907800 0.266800
7.948100 0.273900
7.988500 0.281200
8.028800 0.288300
8.069200 0.294700
8.109500 0.302100
8.149900 0.321900
8.190200 0.336300
8.230600 0.343500
8.270900 0.348100
8.311300 0.343500
8.351600 0.346100
8.392000 0.349200
8.432300 0.352200
8.472700 0.355200
8.513000 0.357800
8.553400 0.358800
8.593700 0.360300
8.634100 0.362900
8.674400 0.365500
8.714800 0.368000
8.755100 0.379400
8.795500 0.410300
8.835800 0.425200
8.876200 0.436200
8.916500 0.443200
8.956900 0.444900
8.997200 0.453200
9.037600 0.463300
9.077900 0.472200
9.118300 0.479800
9.158600 0.486700
9.199000 0.492500
9.239300 0.498300
9.279700 0.505100
9.320000 0.511900
9.360400 0.518900
9.400700 0.527300
9.441100 0.536600
9.481400 0.545600
9.521800 0.554200
9.562100 0.562100
9.602500 0.570300
9.642800 0.578700
9.683200 0.587100
9.723500 0.595000
9.763900 0.603400
9.804200 0.612900
9.844600 0.622500
9.884900 0.632400
9.925300 0.642800
9.965600 0.653500
10.006000 0.665000
10.046300 0.677400
10.086700 0.689800
10.127000 0.702900
10.167400 0.717400
