set title 'mp-15649 - Density of States'
set xlabel 'Energy (eV)'
set ylabel 'DOS (states/eV)'
set grid
set xrange [-10:10]
set yrange [0:19.866]
set xzeroaxis lt -1
set terminal png size 800,600
set output 'mp-15649_dos_gnuplot.png'
plot '-' using 1:2 with lines title 'DOS'
-8.572000 0.000000
-8.559300 0.000000
-8.546600 0.000000
-8.533900 0.000000
-8.521200 0.000000
-8.508500 0.000000
-8.495800 0.000000
-8.483100 0.000000
-8.470400 0.000000
-8.457600 0.000000
-8.444900 0.000000
-8.432200 0.000000
-8.419500 0.000000
-8.406800 0.000000
-8.394100 0.000000
-8.381400 0.000000
-8.368700 0.000000
-8.356000 0.000000
-8.343300 0.000000
-8.330600 0.000000
-8.317900 0.000000
-8.305100 0.000000
-8.292400 0.000000
-8.279700 0.000000
-8.267000 0.000000
-8.254300 0.000000
-8.241600 0.000000
-8.228900 0.000000
-8.216200 0.000000
-8.203500 0.000000
-8.190800 0.000000
-8.178100 0.000000
-8.165300 0.000000
-8.152600 0.000000
-8.139900 0.000000
-8.127200 0.000000
-8.114500 0.000000
-8.101800 0.000000
-8.089100 0.000000
-8.076400 0.000000
-8.063700 0.000000
-8.051000 0.000000
-8.038300 0.000000
-8.025500 0.000000
-8.012800 0.000000
-8.000100 0.000000
-7.987400 0.000000
-7.974700 0.000000
-7.962000 0.000000
-7.949300 0.000000
-7.936600 0.000000
-7.923900 0.000000
-7.911200 0.000000
-7.898500 0.000000
-7.885800 0.000000
-7.873000 0.000000
-7.860300 0.000000
-7.847600 0.000000
-7.834900 0.000000
-7.822200 0.000000
-7.809500 0.000000
-7.796800 0.000000
-7.784100 0.000000
-7.771400 0.000000
-7.758700 0.000000
-7.746000 0.000000
-7.733200 0.000000
-7.720500 0.000000
-7.707800 0.000000
-7.695100 0.000000
-7.682400 0.000000
-7.669700 0.000000
-7.657000 0.000000
-7.644300 0.000000
-7.631600 0.000000
-7.618900 0.000000
-7.606200 0.000000
-7.593400 0.000000
-7.580700 0.000000
-7.568000 0.000000
-7.555300 0.000000
-7.542600 0.000000
-7.529900 0.000000
-7.517200 0.000000
-7.504500 0.000000
-7.491800 0.000000
-7.479100 0.000000
-7.466400 0.000000
-7.453700 0.000000
-7.440900 0.000000
-7.428200 0.000000
-7.415500 0.267300
-7.402800 0.220200
-7.390100 0.269400
-7.377400 0.332200
-7.364700 0.398700
-7.352000 0.469000
-7.339300 0.514600
-7.326600 0.538900
-7.313900 0.566100
-7.301100 0.584600
-7.288400 0.613400
-7.275700 0.641500
-7.263000 0.670300
-7.250300 0.701700
-7.237600 0.735400
-7.224900 0.771800
-7.212200 0.809600
-7.199500 0.844500
-7.186800 0.858100
-7.174100 0.880100
-7.161300 0.900200
-7.148600 0.918700
-7.135900 0.935700
-7.123200 0.952900
-7.110500 0.973400
-7.097800 0.994900
-7.085100 1.017900
-7.072400 1.041900
-7.059700 1.066600
-7.047000 1.091700
-7.034300 1.117100
-7.021600 1.142800
-7.008800 1.168500
-6.996100 1.193800
-6.983400 1.211800
-6.970700 1.226900
-6.958000 1.244700
-6.945300 1.262100
-6.932600 1.279100
-6.919900 1.296000
-6.907200 1.313800
-6.894500 1.332500
-6.881800 1.351700
-6.869000 1.371500
-6.856300 1.391700
-6.843600 1.412000
-6.830900 1.432500
-6.818200 1.453000
-6.805500 1.473600
-6.792800 1.494300
-6.780100 1.515600
-6.767400 1.537900
-6.754700 1.560500
-6.742000 1.582700
-6.729200 1.604200
-6.716500 1.776700
-6.703800 1.765600
-6.691100 1.789200
-6.678400 1.814400
-6.665700 1.844100
-6.653000 1.860200
-6.640300 1.877200
-6.627600 1.897900
-6.614900 1.921500
-6.602200 1.958300
-6.589500 1.958400
-6.576700 1.976500
-6.564000 1.941400
-6.551300 1.933000
-6.538600 1.920700
-6.525900 1.902300
-6.513200 1.876500
-6.500500 1.861000
-6.487800 1.846900
-6.475100 1.833600
-6.462400 1.850900
-6.449700 1.884900
-6.436900 1.922000
-6.424200 1.881700
-6.411500 2.025300
-6.398800 2.006500
-6.386100 2.083600
-6.373400 2.107000
-6.360700 2.131900
-6.348000 2.147400
-6.335300 2.255300
-6.322600 2.298600
-6.309900 2.350000
-6.297100 2.427600
-6.284400 2.478100
-6.271700 2.511100
-6.259000 2.524100
-6.246300 2.530700
-6.233600 2.527700
-6.220900 2.509100
-6.208200 2.500700
-6.195500 2.490800
-6.182800 2.481200
-6.170100 2.480300
-6.157400 2.484600
-6.144600 2.502800
-6.131900 2.529000
-6.119200 2.570200
-6.106500 2.620300
-6.093800 2.686600
-6.081100 2.767200
-6.068400 2.859300
-6.055700 2.961400
-6.043000 3.035800
-6.030300 3.041400
-6.017600 3.101400
-6.004800 3.161800
-5.992100 3.223100
-5.979400 3.243800
-5.966700 3.333900
-5.954000 3.390100
-5.941300 3.494900
-5.928600 3.573400
-5.915900 3.672200
-5.903200 3.779800
-5.890500 3.839300
-5.877800 4.059400
-5.865000 4.236100
-5.852300 4.166800
-5.839600 4.102200
-5.826900 4.186000
-5.814200 4.321100
-5.801500 4.488100
-5.788800 4.324800
-5.776100 4.236500
-5.763400 4.252600
-5.750700 4.253100
-5.738000 4.270700
-5.725300 4.295800
-5.712500 4.340600
-5.699800 4.349400
-5.687100 4.270100
-5.674400 4.586200
-5.661700 4.146300
-5.649000 4.119900
-5.636300 4.070600
-5.623600 3.329800
-5.610900 3.079400
-5.598200 3.418500
-5.585500 3.361200
-5.572700 3.549900
-5.560000 3.825900
-5.547300 4.320100
-5.534600 4.671900
-5.521900 5.024000
-5.509200 5.323700
-5.496500 5.682700
-5.483800 6.198300
-5.471100 6.115500
-5.458400 6.043900
-5.445700 5.990100
-5.432900 6.402300
-5.420200 6.680600
-5.407500 6.455300
-5.394800 6.438200
-5.382100 6.315900
-5.369400 6.473400
-5.356700 7.223700
-5.344000 7.334300
-5.331300 8.013900
-5.318600 7.595300
-5.305900 6.741300
-5.293200 6.586800
-5.280400 7.104200
-5.267700 7.433500
-5.255000 7.244900
-5.242300 7.247900
-5.229600 7.312900
-5.216900 7.376400
-5.204200 7.519000
-5.191500 7.609500
-5.178800 7.726600
-5.166100 7.778900
-5.153400 7.552800
-5.140600 7.743500
-5.127900 7.979100
-5.115200 8.214300
-5.102500 8.363600
-5.089800 8.257100
-5.077100 7.915500
-5.064400 7.534600
-5.051700 7.207700
-5.039000 5.967400
-5.026300 4.723800
-5.013600 3.987300
-5.000800 3.464900
-4.988100 2.997100
-4.975400 2.586800
-4.962700 2.286700
-4.950000 1.969200
-4.937300 1.756300
-4.924600 1.456500
-4.911900 0.850400
-4.899200 0.337700
-4.886500 0.251400
-4.873800 0.322100
-4.861100 0.419800
-4.848300 0.498000
-4.835600 0.561600
-4.822900 0.640200
-4.810200 0.722900
-4.797500 0.735700
-4.784800 0.784900
-4.772100 0.799400
-4.759400 0.770600
-4.746700 0.916300
-4.734000 0.850000
-4.721300 0.885800
-4.708500 0.932300
-4.695800 0.999000
-4.683100 1.052600
-4.670400 1.054500
-4.657700 1.102000
-4.645000 1.148300
-4.632300 1.190600
-4.619600 1.236100
-4.606900 1.276500
-4.594200 1.314200
-4.581500 1.350400
-4.568700 1.385200
-4.556000 1.417000
-4.543300 1.449400
-4.530600 1.484600
-4.517900 1.525500
-4.505200 1.574800
-4.492500 1.630500
-4.479800 1.685400
-4.467100 1.742200
-4.454400 1.801400
-4.441700 1.862300
-4.429000 1.924500
-4.416200 1.987900
-4.403500 2.052800
-4.390800 2.152800
-4.378100 2.317900
-4.365400 2.410600
-4.352700 2.478300
-4.340000 2.506100
-4.327300 2.577900
-4.314600 2.611500
-4.301900 2.611800
-4.289200 2.636200
-4.276400 2.670400
-4.263700 2.680600
-4.251000 2.756300
-4.238300 2.835500
-4.225600 2.777400
-4.212900 2.830900
-4.200200 2.913000
-4.187500 2.991500
-4.174800 3.066400
-4.162100 3.148600
-4.149400 3.158200
-4.136600 3.658100
-4.123900 3.521000
-4.111200 3.489300
-4.098500 3.528900
-4.085800 3.743100
-4.073100 3.787000
-4.060400 3.799600
-4.047700 3.807200
-4.035000 3.876100
-4.022300 3.993900
-4.009600 4.092300
-3.996800 4.094300
-3.984100 4.137400
-3.971400 4.150900
-3.958700 4.172000
-3.946000 4.154200
-3.933300 4.125400
-3.920600 4.137500
-3.907900 4.179900
-3.895200 4.216600
-3.882500 4.240600
-3.869800 4.246800
-3.857100 4.297500
-3.844300 4.314400
-3.831600 4.325600
-3.818900 4.337100
-3.806200 4.378800
-3.793500 4.420500
-3.780800 4.482500
-3.768100 4.657300
-3.755400 4.752000
-3.742700 4.724000
-3.730000 4.979600
-3.717300 5.193700
-3.704500 5.332100
-3.691800 5.414300
-3.679100 5.620400
-3.666400 6.027500
-3.653700 6.708200
-3.641000 6.545000
-3.628300 5.454900
-3.615600 4.821300
-3.602900 4.521100
-3.590200 4.384400
-3.577500 5.086200
-3.564700 5.771400
-3.552000 6.834900
-3.539300 6.739200
-3.526600 6.670600
-3.513900 7.289100
-3.501200 10.095800
-3.488500 13.386700
-3.475800 11.779800
-3.463100 10.511700
-3.450400 10.515000
-3.437700 10.344800
-3.425000 10.636800
-3.412200 10.475100
-3.399500 9.992600
-3.386800 9.748400
-3.374100 9.290800
-3.361400 8.762200
-3.348700 8.457400
-3.336000 8.614400
-3.323300 7.940900
-3.310600 7.839700
-3.297900 8.163800
-3.285200 7.795300
-3.272400 7.414300
-3.259700 7.037400
-3.247000 6.918700
-3.234300 6.894100
-3.221600 6.772200
-3.208900 6.880000
-3.196200 6.633800
-3.183500 6.831000
-3.170800 6.745000
-3.158100 6.761600
-3.145400 6.719800
-3.132600 6.639500
-3.119900 6.674200
-3.107200 6.022400
-3.094500 5.674600
-3.081800 4.796500
-3.069100 4.065500
-3.056400 3.437000
-3.043700 3.004100
-3.031000 2.162800
-3.018300 1.592700
-3.005600 1.242700
-2.992900 1.208800
-2.980100 0.544400
-2.967400 0.334300
-2.954700 0.164500
-2.942000 0.000000
-2.929300 0.000000
-2.916600 0.000000
-2.903900 0.000000
-2.891200 0.000000
-2.878500 0.000000
-2.865800 0.000000
-2.853100 0.000000
-2.840300 0.000000
-2.827600 0.000000
-2.814900 0.000000
-2.802200 0.000000
-2.789500 0.000000
-2.776800 0.000000
-2.764100 0.000000
-2.751400 0.000000
-2.738700 0.000000
-2.726000 0.000000
-2.713300 0.000000
-2.700500 0.000000
-2.687800 0.000000
-2.675100 0.000000
-2.662400 0.000000
-2.649700 0.000000
-2.637000 0.000000
-2.624300 0.000000
-2.611600 0.000000
-2.598900 0.000000
-2.586200 0.000000
-2.573500 0.000000
-2.560800 0.000000
-2.548000 0.000000
-2.535300 0.000000
-2.522600 0.000000
-2.509900 0.000000
-2.497200 0.000000
-2.484500 0.000000
-2.471800 0.000000
-2.459100 0.000000
-2.446400 0.000000
-2.433700 0.000000
-2.421000 0.000000
-2.408200 0.000000
-2.395500 0.000000
-2.382800 0.000000
-2.370100 0.000000
-2.357400 0.000000
-2.344700 0.000000
-2.332000 0.000000
-2.319300 0.000000
-2.306600 0.000000
-2.293900 0.000000
-2.281200 0.000000
-2.268400 0.000000
-2.255700 0.000000
-2.243000 0.000000
-2.230300 0.000000
-2.217600 0.000000
-2.204900 0.000000
-2.192200 0.000000
-2.179500 0.000000
-2.166800 0.000000
-2.154100 0.000000
-2.141400 0.000000
-2.128700 0.000000
-2.115900 0.000000
-2.103200 0.000000
-2.090500 0.000000
-2.077800 0.000000
-2.065100 0.000000
-2.052400 0.000000
-2.039700 0.000000
-2.027000 0.000000
-2.014300 0.000000
-2.001600 0.000000
-1.988900 0.000000
-1.976100 0.000000
-1.963400 0.000000
-1.950700 0.000000
-1.938000 0.000000
-1.925300 0.000000
-1.912600 0.000000
-1.899900 0.000000
-1.887200 0.000000
-1.874500 0.000000
-1.861800 0.000000
-1.849100 0.000000
-1.836300 0.000000
-1.823600 0.000000
-1.810900 0.000000
-1.798200 0.000000
-1.785500 0.000000
-1.772800 0.000000
-1.760100 0.000000
-1.747400 0.000000
-1.734700 0.000000
-1.722000 0.000000
-1.709300 0.000000
-1.696600 0.000000
-1.683800 0.000000
-1.671100 0.000000
-1.658400 0.000000
-1.645700 0.000000
-1.633000 0.000000
-1.620300 0.000000
-1.607600 0.000000
-1.594900 0.000000
-1.582200 0.000000
-1.569500 0.000000
-1.556800 0.000000
-1.544000 0.000000
-1.531300 0.000000
-1.518600 0.000000
-1.505900 0.000000
-1.493200 0.000000
-1.480500 0.000000
-1.467800 0.000000
-1.455100 0.000000
-1.442400 0.000000
-1.429700 0.000000
-1.417000 0.000000
-1.404200 0.000000
-1.391500 0.000000
-1.378800 0.000000
-1.366100 0.000000
-1.353400 0.000000
-1.340700 0.000000
-1.328000 0.000000
-1.315300 0.000000
-1.302600 0.000000
-1.289900 0.000000
-1.277200 0.000000
-1.264500 0.000000
-1.251700 0.000000
-1.239000 0.000000
-1.226300 0.000000
-1.213600 0.000000
-1.200900 0.000000
-1.188200 0.000000
-1.175500 0.000000
-1.162800 0.000000
-1.150100 0.000000
-1.137400 0.000000
-1.124700 0.000000
-1.111900 0.000000
-1.099200 0.000000
-1.086500 0.000000
-1.073800 0.000000
-1.061100 0.000000
-1.048400 0.000000
-1.035700 0.000000
-1.023000 0.000000
-1.010300 0.000000
-0.997600 0.000000
-0.984900 0.000000
-0.972100 0.000000
-0.959400 0.000000
-0.946700 0.000000
-0.934000 0.000000
-0.921300 0.000000
-0.908600 0.000000
-0.895900 0.000000
-0.883200 0.000000
-0.870500 0.000000
-0.857800 0.000000
-0.845100 0.000000
-0.832400 0.000000
-0.819600 0.000000
-0.806900 0.000000
-0.794200 0.000000
-0.781500 0.000000
-0.768800 0.000000
-0.756100 0.000000
-0.743400 0.000000
-0.730700 0.000000
-0.718000 0.000000
-0.705300 0.000000
-0.692600 0.000000
-0.679800 0.000000
-0.667100 0.000000
-0.654400 0.000000
-0.641700 0.000000
-0.629000 0.000000
-0.616300 0.000000
-0.603600 0.000000
-0.590900 0.000000
-0.578200 0.000000
-0.565500 0.000000
-0.552800 0.000000
-0.540000 0.000000
-0.527300 0.000000
-0.514600 0.000000
-0.501900 0.000000
-0.489200 0.000000
-0.476500 0.000000
-0.463800 0.000000
-0.451100 0.000000
-0.438400 0.000000
-0.425700 0.000000
-0.413000 0.000000
-0.400300 0.000000
-0.387500 0.000000
-0.374800 0.000000
-0.362100 0.000000
-0.349400 0.000000
-0.336700 0.000000
-0.324000 0.000000
-0.311300 0.000000
-0.298600 0.000000
-0.285900 0.000000
-0.273200 0.000000
-0.260500 0.000000
-0.247700 0.000000
-0.235000 0.000000
-0.222300 0.000000
-0.209600 0.000000
-0.196900 0.000000
-0.184200 0.000000
-0.171500 0.022200
-0.158800 0.076100
-0.146100 0.145300
-0.133400 0.229900
-0.120700 0.166400
-0.107900 0.192900
-0.095200 0.216400
-0.082500 0.234400
-0.069800 0.249500
-0.057100 0.276600
-0.044400 0.305400
-0.031700 0.336000
-0.019000 0.521300
-0.006300 0.686600
0.006400 0.978500
0.019100 1.209100
0.031800 1.375000
0.044600 1.572900
0.057300 1.539000
0.070000 1.640000
0.082700 1.746500
0.095400 1.862100
0.108100 1.980100
0.120800 2.089500
0.133500 2.210300
0.146200 2.350600
0.158900 2.506800
0.171600 2.656500
0.184400 2.812900
0.197100 2.956900
0.209800 3.098400
0.222500 3.681000
0.235200 4.101100
0.247900 4.308200
0.260600 4.934200
0.273300 5.357100
0.286000 5.444800
0.298700 5.590000
0.311400 5.815200
0.324200 6.078100
0.336900 6.173200
0.349600 5.967100
0.362300 6.099300
0.375000 6.728800
0.387700 6.958100
0.400400 7.411000
0.413100 8.097600
0.425800 8.896700
0.438500 9.864600
0.451200 9.829100
0.463900 9.730900
0.476700 9.804400
0.489400 9.702100
0.502100 9.620400
0.514800 10.175600
0.527500 10.589500
0.540200 10.902200
0.552900 11.087000
0.565600 10.988300
0.578300 10.792200
0.591000 10.634400
0.603700 10.299300
0.616500 10.143900
0.629200 10.091900
0.641900 9.889600
0.654600 9.946900
0.667300 9.857900
0.680000 9.954500
0.692700 9.962200
0.705400 9.577200
0.718100 9.326900
0.730800 8.994400
0.743500 8.991100
0.756300 9.051000
0.769000 8.904400
0.781700 9.184100
0.794400 9.540800
0.807100 9.848400
0.819800 9.866300
0.832500 9.846200
0.845200 9.376900
0.857900 8.555300
0.870600 8.597300
0.883300 8.276100
0.896000 8.830600
0.908800 9.960600
0.921500 10.115200
0.934200 8.953100
0.946900 8.740500
0.959600 7.980800
0.972300 7.010800
0.985000 7.230600
0.997700 7.102100
1.010400 7.536300
1.023100 8.319500
1.035800 9.469200
1.048600 10.590600
1.061300 8.584700
1.074000 8.589800
1.086700 9.325900
1.099400 9.359700
1.112100 9.423000
1.124800 9.212100
1.137500 9.433000
1.150200 9.638800
1.162900 10.319700
1.175600 9.795800
1.188400 9.444800
1.201100 8.965000
1.213800 8.961600
1.226500 8.801600
1.239200 8.496100
1.251900 8.560000
1.264600 7.864900
1.277300 7.302700
1.290000 6.870600
1.302700 6.582700
1.315400 6.605000
1.328100 6.939700
1.340900 7.281300
1.353600 7.577800
1.366300 7.791700
1.379000 8.033600
1.391700 7.713100
1.404400 7.938100
1.417100 8.007500
1.429800 7.882900
1.442500 7.785200
1.455200 7.790900
1.467900 7.825300
1.480700 7.724000
1.493400 7.712200
1.506100 7.819300
1.518800 7.916900
1.531500 7.950200
1.544200 8.065300
1.556900 7.952400
1.569600 7.652900
1.582300 7.154400
1.595000 6.937600
1.607700 6.975700
1.620500 7.138200
1.633200 7.570500
1.645900 7.765700
1.658600 7.909700
1.671300 8.008300
1.684000 7.636400
1.696700 7.546500
1.709400 7.184300
1.722100 7.092000
1.734800 6.581600
1.747500 6.395400
1.760200 6.215700
1.773000 6.387100
1.785700 6.704200
1.798400 7.200900
1.811100 8.214600
1.823800 9.154100
1.836500 9.369400
1.849200 9.977200
1.861900 10.561200
1.874600 9.290300
1.887300 8.491000
1.900000 8.064900
1.912800 7.811800
1.925500 7.300400
1.938200 7.451300
1.950900 8.231800
1.963600 8.527200
1.976300 8.253700
1.989000 7.675200
2.001700 7.766800
2.014400 7.273800
2.027100 7.257300
2.039800 7.380800
2.052600 7.583200
2.065300 7.735200
2.078000 7.755500
2.090700 7.769600
2.103400 7.619400
2.116100 7.733800
2.128800 7.263600
2.141500 7.473500
2.154200 7.657300
2.166900 7.386800
2.179600 7.510200
2.192300 7.417200
2.205100 7.626600
2.217800 7.835400
2.230500 7.860600
2.243200 8.244400
2.255900 8.645500
2.268600 9.509600
2.281300 10.343900
2.294000 10.831300
2.306700 11.460700
2.319400 11.529900
2.332100 11.323500
2.344900 11.387200
2.357600 10.964300
2.370300 11.234900
2.383000 9.058200
2.395700 8.407600
2.408400 8.112100
2.421100 8.044900
2.433800 8.112800
2.446500 8.715700
2.459200 9.259100
2.471900 9.247100
2.484700 9.592800
2.497400 9.938300
2.510100 10.592100
2.522800 10.286000
2.535500 10.012200
2.548200 9.496000
2.560900 9.421100
2.573600 9.410300
2.586300 9.340700
2.599000 9.516700
2.611700 9.375600
2.624400 9.782000
2.637200 10.124300
2.649900 10.390500
2.662600 10.499200
2.675300 10.993700
2.688000 11.476200
2.700700 12.034300
2.713400 12.112900
2.726100 11.651000
2.738800 12.007500
2.751500 12.715400
2.764200 13.271000
2.777000 14.162400
2.789700 15.157200
2.802400 14.679600
2.815100 14.537800
2.827800 13.828400
2.840500 13.524700
2.853200 13.157000
2.865900 12.436800
2.878600 11.184700
2.891300 11.084800
2.904000 11.116200
2.916800 11.875600
2.929500 11.449700
2.942200 11.151100
2.954900 10.985900
2.967600 11.419800
2.980300 11.875500
2.993000 11.919300
3.005700 11.909300
3.018400 12.004200
3.031100 12.187500
3.043800 11.590900
3.056600 11.353400
3.069300 10.788200
3.082000 10.417900
3.094700 9.542600
3.107400 9.840200
3.120100 8.827200
3.132800 8.622100
3.145500 9.510000
3.158200 9.959700
3.170900 10.394600
3.183600 10.389000
3.196300 9.542200
3.209100 9.420100
3.221800 9.898500
3.234500 10.596100
3.247200 10.585200
3.259900 11.033100
3.272600 11.470900
3.285300 11.445600
3.298000 11.133900
3.310700 10.888600
3.323400 10.373200
3.336100 10.072100
3.348900 10.294000
3.361600 10.620400
3.374300 11.224900
3.387000 11.162500
3.399700 12.177600
3.412400 10.654000
3.425100 10.975400
3.437800 10.758300
3.450500 11.065600
3.463200 11.483000
3.475900 11.414900
3.488700 10.992600
3.501400 10.889800
3.514100 11.033900
3.526800 11.896500
3.539500 12.850800
3.552200 12.641400
3.564900 13.094700
3.577600 13.040800
3.590300 12.607600
3.603000 12.332600
3.615700 11.911600
3.628400 12.250100
3.641200 14.977200
3.653900 14.057100
3.666600 15.410900
3.679300 15.296200
3.692000 13.458100
3.704700 14.285100
3.717400 15.065900
3.730100 14.208500
3.742800 13.892800
3.755500 13.797400
3.768200 14.619300
3.781000 15.736400
3.793700 13.186700
3.806400 11.908100
3.819100 11.212500
3.831800 11.195000
3.844500 11.433200
3.857200 11.934000
3.869900 13.437500
3.882600 14.746600
3.895300 16.227000
3.908000 15.288100
3.920800 15.523100
3.933500 16.147100
3.946200 15.374400
3.958900 13.916200
3.971600 12.877200
3.984300 12.331000
3.997000 11.712800
4.009700 12.086500
4.022400 11.072300
4.035100 11.060600
4.047800 12.082500
4.060500 12.098400
4.073300 13.360600
4.086000 13.571100
4.098700 12.281400
4.111400 12.470200
4.124100 12.436000
4.136800 12.631100
4.149500 13.149200
4.162200 14.072200
4.174900 14.280200
4.187600 13.589600
4.200300 12.764500
4.213100 11.920700
4.225800 11.072300
4.238500 11.270700
4.251200 10.901400
4.263900 11.097300
4.276600 11.445900
4.289300 11.883600
4.302000 13.201400
4.314700 14.815000
4.327400 17.053900
4.340100 17.869000
4.352900 16.903900
4.365600 17.394300
4.378300 18.060200
4.391000 17.149200
4.403700 16.042600
4.416400 14.528200
4.429100 13.498400
4.441800 14.127700
4.454500 13.802300
4.467200 13.975200
4.479900 14.523900
4.492600 15.582000
4.505400 14.178000
4.518100 15.368700
4.530800 13.661100
4.543500 13.574800
4.556200 12.268000
4.568900 11.065400
4.581600 11.898400
4.594300 13.076300
4.607000 12.140300
4.619700 11.874000
4.632400 11.505900
4.645200 11.076200
4.657900 10.902800
4.670600 11.295400
4.683300 11.715500
4.696000 10.821600
4.708700 10.024400
4.721400 9.832100
