set title 'mp-2245 - Density of States'
set xlabel 'Energy (eV)'
set ylabel 'DOS (states/eV)'
set grid
set xrange [-10:10]
set yrange [0:110.215]
set xzeroaxis lt -1
set terminal png size 800,600
set output 'mp-2245_dos_gnuplot.png'
plot '-' using 1:2 with lines title 'DOS'
-13.332800 0.000000
-13.314500 0.000000
-13.296200 0.000000
-13.277900 0.000000
-13.259600 0.000000
-13.241300 0.000000
-13.223000 0.000000
-13.204700 0.000000
-13.186500 0.000000
-13.168200 0.000000
-13.149900 0.000000
-13.131600 0.000000
-13.113300 0.000000
-13.095000 0.000000
-13.076700 0.000000
-13.058400 0.000000
-13.040100 0.000000
-13.021900 0.000000
-13.003600 0.000000
-12.985300 0.000000
-12.967000 0.000000
-12.948700 0.000000
-12.930400 0.000000
-12.912100 0.000000
-12.893800 0.000000
-12.875500 0.000000
-12.857300 0.000000
-12.839000 0.000000
-12.820700 0.000000
-12.802400 0.000000
-12.784100 0.000000
-12.765800 0.000000
-12.747500 0.000000
-12.729200 0.000000
-12.710900 0.000000
-12.692700 0.000000
-12.674400 0.000000
-12.656100 0.000000
-12.637800 0.000000
-12.619500 0.000000
-12.601200 0.000000
-12.582900 0.000000
-12.564600 0.000000
-12.546300 0.000000
-12.528100 0.000000
-12.509800 0.000000
-12.491500 0.000000
-12.473200 0.000000
-12.454900 0.000000
-12.436600 0.000000
-12.418300 0.000000
-12.400000 0.000000
-12.381700 0.000000
-12.363500 0.000000
-12.345200 0.000000
-12.326900 0.000000
-12.308600 0.000000
-12.290300 0.000000
-12.272000 0.000000
-12.253700 0.000000
-12.235400 0.000000
-12.217100 0.000000
-12.198900 0.000000
-12.180600 0.000000
-12.162300 0.000000
-12.144000 0.000000
-12.125700 0.000000
-12.107400 0.000000
-12.089100 0.000000
-12.070800 0.000000
-12.052500 0.000000
-12.034300 0.000000
-12.016000 0.000000
-11.997700 0.000000
-11.979400 0.000000
-11.961100 0.000000
-11.942800 0.000000
-11.924500 0.000000
-11.906200 0.000000
-11.888000 0.000000
-11.869700 0.000000
-11.851400 0.000000
-11.833100 0.000000
-11.814800 0.000000
-11.796500 0.000000
-11.778200 0.000000
-11.759900 0.000000
-11.741600 0.000000
-11.723400 0.000000
-11.705100 0.000000
-11.686800 0.000000
-11.668500 0.000100
-11.650200 0.017700
-11.631900 0.065000
-11.613600 0.142100
-11.595300 0.248900
-11.577000 0.385400
-11.558800 0.551700
-11.540500 0.743900
-11.522200 0.948700
-11.503900 1.164900
-11.485600 1.392500
-11.467300 1.631500
-11.449000 1.881900
-11.430700 2.210500
-11.412400 2.528900
-11.394200 2.800000
-11.375900 3.024000
-11.357600 3.200700
-11.339300 3.330200
-11.321000 3.384700
-11.302700 3.385400
-11.284400 3.376600
-11.266100 3.358400
-11.247800 3.330800
-11.229600 3.293800
-11.211300 3.247300
-11.193000 3.291100
-11.174700 3.322200
-11.156400 3.331500
-11.138100 3.319100
-11.119800 3.285000
-11.101500 3.229100
-11.083200 3.162900
-11.065000 3.100500
-11.046700 3.042100
-11.028400 2.987600
-11.010100 2.937100
-10.991800 2.957000
-10.973500 2.720500
-10.955200 2.497400
-10.936900 2.289700
-10.918600 2.207400
-10.900400 2.288700
-10.882100 2.533500
-10.863800 2.941900
-10.845500 3.512700
-10.827200 4.212200
-10.808900 5.014500
-10.790600 5.919300
-10.772300 6.302500
-10.754000 6.143000
-10.735800 5.934900
-10.717500 5.678200
-10.699200 5.372900
-10.680900 6.331500
-10.662600 7.421900
-10.644300 8.322300
-10.626000 9.089800
-10.607700 13.003600
-10.589500 20.253700
-10.571200 3.206100
-10.552900 3.350800
-10.534600 3.499400
-10.516300 3.651700
-10.498000 3.807700
-10.479700 3.967600
-10.461400 4.131200
-10.443100 4.298600
-10.424900 4.469700
-10.406600 4.644700
-10.388300 4.823400
-10.370000 5.005800
-10.351700 5.210500
-10.333400 5.468100
-10.315100 5.683700
-10.296800 5.857400
-10.278500 5.989100
-10.260300 4.987100
-10.242000 4.041800
-10.223700 3.663000
-10.205400 3.292600
-10.187100 2.930500
-10.168800 2.576700
-10.150500 2.231300
-10.132200 1.894300
-10.113900 2.090500
-10.095700 2.557300
-10.077400 3.242500
-10.059100 4.146200
-10.040800 5.263800
-10.022500 6.956300
-10.004200 15.741100
-9.985900 9.435200
-9.967600 8.472800
-9.949300 7.638400
-9.931100 6.851100
-9.912800 6.110800
-9.894500 5.417600
-9.876200 4.771500
-9.857900 13.153100
-9.839600 10.152800
-9.821300 7.978600
-9.803000 6.557100
-9.784700 5.876000
-9.766500 5.685600
-9.748200 5.596300
-9.729900 5.588300
-9.711600 5.598000
-9.693300 5.625500
-9.675000 5.670700
-9.656700 7.127200
-9.638400 6.703900
-9.620100 6.355100
-9.601900 6.120000
-9.583600 6.041500
-9.565300 6.152200
-9.547000 6.453700
-9.528700 6.947000
-9.510400 9.612900
-9.492100 16.217100
-9.473800 6.799200
-9.455600 6.884400
-9.437300 6.997200
-9.419000 7.133400
-9.400700 7.284300
-9.382400 7.450000
-9.364100 7.634700
-9.345800 8.102000
-9.327500 10.301900
-9.309200 13.862900
-9.291000 16.575000
-9.272700 16.377400
-9.254400 18.684900
-9.236100 13.636400
-9.217800 9.390800
-9.199500 9.617500
-9.181200 9.825400
-9.162900 11.310400
-9.144600 14.852900
-9.126400 1.883100
-9.108100 4.041600
-9.089800 7.601200
-9.071500 4.988900
-9.053200 5.544800
-9.034900 6.075700
-9.016600 6.535100
-8.998300 6.922800
-8.980000 7.238900
-8.961800 7.483400
-8.943500 13.648800
-8.925200 8.155100
-8.906900 6.971900
-8.888600 6.008500
-8.870300 5.524000
-8.852000 5.423500
-8.833700 5.646500
-8.815400 6.206500
-8.797200 7.570000
-8.778900 10.001300
-8.760600 13.555500
-8.742300 18.233500
-8.724000 20.980700
-8.705700 9.863700
-8.687400 9.998700
-8.669100 10.072600
-8.650800 10.189800
-8.632600 10.350400
-8.614300 10.971100
-8.596000 21.001500
-8.577700 19.419100
-8.559400 9.765000
-8.541100 9.646200
-8.522800 9.399500
-8.504500 8.860100
-8.486200 8.028000
-8.468000 6.903300
-8.449700 4.844300
-8.431400 5.433000
-8.413100 7.014100
-8.394800 8.644900
-8.376500 10.684900
-8.358200 34.705600
-8.339900 18.652100
-8.321600 15.621700
-8.303400 15.016400
-8.285100 22.188200
-8.266800 23.105200
-8.248500 18.734500
-8.230200 10.752400
-8.211900 6.091600
-8.193600 4.752000
-8.175300 5.643400
-8.157100 10.228100
-8.138800 21.447800
-8.120500 26.202100
-8.102200 26.733100
-8.083900 22.362900
-8.065600 24.670600
-8.047300 19.047000
-8.029000 50.686000
-8.010700 17.959800
-7.992500 100.195700
-7.974200 38.237800
-7.955900 23.544300
-7.937600 20.698500
-7.919300 15.687600
-7.901000 18.877400
-7.882700 22.814700
-7.864400 16.690100
-7.846100 4.393000
-7.827900 1.194200
-7.809600 0.148900
-7.791300 0.000000
-7.773000 0.000000
-7.754700 0.000000
-7.736400 0.000000
-7.718100 0.000000
-7.699800 0.000000
-7.681500 0.000000
-7.663300 0.000000
-7.645000 0.000000
-7.626700 0.000000
-7.608400 0.000000
-7.590100 0.000000
-7.571800 0.000000
-7.553500 0.000000
-7.535200 0.000000
-7.516900 0.000000
-7.498700 0.000000
-7.480400 0.000000
-7.462100 0.000000
-7.443800 0.000000
-7.425500 0.000000
-7.407200 0.000000
-7.388900 0.000000
-7.370600 0.000000
-7.352300 0.000000
-7.334100 0.000000
-7.315800 0.000000
-7.297500 0.000000
-7.279200 0.000000
-7.260900 0.000000
-7.242600 0.000000
-7.224300 0.000000
-7.206000 0.000000
-7.187700 0.000000
-7.169500 0.000000
-7.151200 0.000000
-7.132900 0.000000
-7.114600 0.000000
-7.096300 0.000000
-7.078000 0.000000
-7.059700 0.000000
-7.041400 0.000000
-7.023100 0.000000
-7.004900 0.000000
-6.986600 0.000000
-6.968300 0.000000
-6.950000 0.000000
-6.931700 0.000000
-6.913400 0.000000
-6.895100 0.000000
-6.876800 0.000000
-6.858600 0.000000
-6.840300 0.000000
-6.822000 0.000000
-6.803700 0.000000
-6.785400 0.000000
-6.767100 0.000000
-6.748800 0.000000
-6.730500 0.000000
-6.712200 0.000000
-6.694000 0.000000
-6.675700 0.000000
-6.657400 0.000000
-6.639100 0.000000
-6.620800 0.000000
-6.602500 0.000000
-6.584200 0.000000
-6.565900 0.000000
-6.547600 0.000000
-6.529400 0.000000
-6.511100 0.000000
-6.492800 0.000000
-6.474500 0.000000
-6.456200 0.000000
-6.437900 0.000000
-6.419600 0.000000
-6.401300 0.000000
-6.383000 0.000000
-6.364800 0.000000
-6.346500 0.000000
-6.328200 0.000000
-6.309900 0.000000
-6.291600 0.000000
-6.273300 0.000000
-6.255000 0.000000
-6.236700 0.000000
-6.218400 0.000000
-6.200200 0.000000
-6.181900 0.000000
-6.163600 0.000000
-6.145300 0.000000
-6.127000 0.000000
-6.108700 0.000000
-6.090400 0.000000
-6.072100 0.000000
-6.053800 0.000000
-6.035600 0.000000
-6.017300 0.000000
-5.999000 0.000000
-5.980700 0.000000
-5.962400 0.000000
-5.944100 0.000000
-5.925800 0.000000
-5.907500 0.000000
-5.889200 0.000000
-5.871000 0.000000
-5.852700 0.000000
-5.834400 0.000000
-5.816100 0.000000
-5.797800 0.000000
-5.779500 0.000000
-5.761200 0.000000
-5.742900 0.000000
-5.724600 0.000000
-5.706400 0.000000
-5.688100 0.000000
-5.669800 0.000000
-5.651500 0.000000
-5.633200 0.000000
-5.614900 0.000000
-5.596600 0.000000
-5.578300 0.000000
-5.560100 0.000000
-5.541800 0.000000
-5.523500 0.000000
-5.505200 0.000000
-5.486900 0.000000
-5.468600 0.000000
-5.450300 0.000000
-5.432000 0.000000
-5.413700 0.000000
-5.395500 0.000000
-5.377200 0.000000
-5.358900 0.000000
-5.340600 0.000000
-5.322300 0.000000
-5.304000 0.000000
-5.285700 0.000000
-5.267400 0.000000
-5.249100 0.000000
-5.230900 0.000000
-5.212600 0.000000
-5.194300 0.000000
-5.176000 0.000000
-5.157700 0.000000
-5.139400 0.000000
-5.121100 0.000000
-5.102800 0.000000
-5.084500 0.000000
-5.066300 0.000000
-5.048000 0.000000
-5.029700 0.000000
-5.011400 0.000000
-4.993100 0.000000
-4.974800 0.000000
-4.956500 0.000000
-4.938200 0.000000
-4.919900 0.000000
-4.901700 0.000000
-4.883400 0.000000
-4.865100 0.000000
-4.846800 0.000000
-4.828500 0.000000
-4.810200 0.000000
-4.791900 0.000000
-4.773600 0.000000
-4.755300 0.000000
-4.737100 0.000000
-4.718800 0.000000
-4.700500 0.000000
-4.682200 0.000000
-4.663900 0.000000
-4.645600 0.000000
-4.627300 0.000000
-4.609000 0.000000
-4.590700 0.000000
-4.572500 0.000000
-4.554200 0.000000
-4.535900 0.000000
-4.517600 0.000000
-4.499300 0.000000
-4.481000 0.000000
-4.462700 0.000000
-4.444400 0.000000
-4.426100 0.000000
-4.407900 0.000000
-4.389600 0.000000
-4.371300 0.000000
-4.353000 0.000000
-4.334700 0.000000
-4.316400 0.000000
-4.298100 0.000000
-4.279800 0.000000
-4.261600 0.000000
-4.243300 0.000000
-4.225000 0.000000
-4.206700 0.000000
-4.188400 0.000000
-4.170100 0.000000
-4.151800 0.000000
-4.133500 0.000000
-4.115200 0.000000
-4.097000 0.000000
-4.078700 0.000000
-4.060400 0.000000
-4.042100 0.000000
-4.023800 0.000000
-4.005500 0.000000
-3.987200 0.000000
-3.968900 0.000000
-3.950600 0.000000
-3.932400 0.000000
-3.914100 0.000000
-3.895800 0.000000
-3.877500 0.000000
-3.859200 0.000000
-3.840900 0.000000
-3.822600 0.000000
-3.804300 0.000000
-3.786000 0.000000
-3.767800 0.000000
-3.749500 0.000000
-3.731200 0.000000
-3.712900 0.000000
-3.694600 0.000000
-3.676300 0.000000
-3.658000 0.000000
-3.639700 0.000000
-3.621400 0.000000
-3.603200 0.000000
-3.584900 0.000000
-3.566600 0.000000
-3.548300 0.000000
-3.530000 0.000000
-3.511700 0.000000
-3.493400 0.000000
-3.475100 0.000000
-3.456800 0.000000
-3.438600 0.000000
-3.420300 0.000000
-3.402000 0.000000
-3.383700 0.000000
-3.365400 0.000000
-3.347100 0.000000
-3.328800 0.000000
-3.310500 0.000000
-3.292200 0.000000
-3.274000 0.000000
-3.255700 0.000000
-3.237400 0.000000
-3.219100 0.000000
-3.200800 0.000000
-3.182500 0.000000
-3.164200 0.000000
-3.145900 0.000000
-3.127700 0.000000
-3.109400 0.000000
-3.091100 0.000000
-3.072800 0.000000
-3.054500 0.000000
-3.036200 0.006400
-3.017900 0.147400
-2.999600 0.473300
-2.981300 0.984000
-2.963100 2.184700
-2.944800 3.607200
-2.926500 4.575000
-2.908200 5.088100
-2.889900 5.239000
-2.871600 5.660400
-2.853300 6.472000
-2.835000 7.333900
-2.816700 7.646100
-2.798500 7.651500
-2.780200 7.445600
-2.761900 7.066000
-2.743600 6.807000
-2.725300 6.654700
-2.707000 6.495500
-2.688700 6.248300
-2.670400 5.825800
-2.652100 5.373700
-2.633900 5.208700
-2.615600 6.110400
-2.597300 8.475700
-2.579000 7.931400
-2.560700 7.945700
-2.542400 8.109700
-2.524100 8.426400
-2.505800 8.895600
-2.487500 9.494100
-2.469300 10.102600
-2.451000 10.704000
-2.432700 11.307600
-2.414400 12.018700
-2.396100 8.537800
-2.377800 8.669600
-2.359500 8.744600
-2.341200 8.790100
-2.322900 8.921700
-2.304700 9.017000
-2.286400 9.058000
-2.268100 9.044600
-2.249800 7.932700
-2.231500 7.770900
-2.213200 7.722000
-2.194900 8.027700
-2.176600 7.609000
-2.158300 6.845100
-2.140100 7.252600
-2.121800 7.768700
-2.103500 12.708000
-2.085200 8.733400
-2.066900 7.912600
-2.048600 7.757800
-2.030300 7.605700
-2.012000 7.456200
-1.993700 7.338600
-1.975500 7.352000
-1.957200 14.428200
-1.938900 9.702500
-1.920600 9.293100
-1.902300 8.947900
-1.884000 8.992300
-1.865700 8.360100
-1.847400 7.856300
-1.829200 7.553400
-1.810900 7.451400
-1.792600 7.378700
-1.774300 7.191100
-1.756000 7.374900
-1.737700 8.726900
-1.719400 9.724000
-1.701100 10.384800
-1.682800 10.635300
-1.664600 10.554300
-1.646300 10.317800
-1.628000 9.956700
-1.609700 8.088000
-1.591400 7.786200
-1.573100 7.546800
-1.554800 7.370000
-1.536500 7.255600
-1.518200 7.200900
-1.500000 7.191000
-1.481700 7.224000
-1.463400 7.272100
-1.445100 7.308500
-1.426800 7.333200
-1.408500 7.346100
-1.390200 7.367000
-1.371900 7.654000
-1.353600 8.650100
-1.335400 10.369500
-1.317100 5.137900
-1.298800 4.659000
-1.280500 4.336200
-1.262200 4.197800
-1.243900 4.247000
-1.225600 4.342200
-1.207300 4.468200
-1.189000 4.625000
-1.170800 4.818000
-1.152500 14.322700
-1.134200 6.449000
-1.115900 5.797300
-1.097600 5.331900
-1.079300 5.065900
-1.061000 5.030300
-1.042700 5.215800
-1.024400 5.326700
-1.006200 5.405100
-0.987900 5.647700
-0.969600 5.929300
-0.951300 6.222600
-0.933000 6.540900
-0.914700 6.922100
-0.896400 7.368500
-0.878100 7.880100
-0.859800 8.456800
-0.841600 9.098800
-0.823300 9.227400
-0.805000 7.302100
-0.786700 6.037900
-0.768400 5.434700
-0.750100 5.446200
-0.731800 5.594400
-0.713500 6.022400
-0.695200 7.277100
-0.677000 9.374300
-0.658700 12.314200
-0.640400 17.931600
-0.622100 0.856500
-0.603800 1.002900
-0.585500 1.186600
-0.567200 1.382600
-0.548900 1.585600
-0.530700 1.795700
-0.512400 2.012800
-0.494100 2.237000
-0.475800 2.468200
-0.457500 2.706500
-0.439200 2.960300
-0.420900 3.249800
-0.402600 9.975700
-0.384300 9.610200
-0.366100 9.238100
-0.347800 9.045400
-0.329500 8.955900
-0.311200 8.826500
-0.292900 8.799800
-0.274600 9.064100
-0.256300 9.620000
-0.238000 10.467800
-0.219700 15.854400
-0.201500 10.852900
-0.183200 10.086800
-0.164900 10.435900
-0.146600 6.674900
-0.128300 6.805000
-0.110000 7.180500
-0.091700 10.801400
-0.073400 21.079500
-0.055100 12.823500
-0.036900 14.031400
-0.018600 13.823100
-0.000300 13.330700
0.018000 12.295700
0.036300 11.604500
0.054600 11.205500
0.072900 5.050900
0.091200 1.066700
0.109500 2.777200
0.127700 11.185000
0.146000 16.571200
0.164300 14.846400
0.182600 13.172400
0.200900 11.549200
0.219200 10.387800
0.237500 10.197200
0.255800 9.618100
0.274100 9.738700
0.292300 10.625100
0.310600 11.884500
0.328900 8.732500
0.347200 9.172900
0.365500 10.186700
0.383800 11.620400
0.402100 13.123200
0.420400 19.799900
0.438700 18.399000
0.456900 14.681200
0.475200 11.729000
0.493500 9.012800
0.511800 7.700600
0.530100 7.177900
0.548400 7.073600
0.566700 7.347300
0.585000 13.144200
0.603300 11.232900
0.621500 10.041300
0.639800 9.140300
0.658100 8.352800
0.676400 7.656200
0.694700 7.626200
0.713000 8.823400
0.731300 10.571200
0.749600 13.986300
0.767800 21.874500
0.786100 11.576500
0.804400 12.293300
0.822700 14.846800
0.841000 15.209800
0.859300 13.341900
0.877600 11.600900
0.895900 9.968000
0.914200 8.954200
0.932400 8.217700
0.950700 7.740100
0.969000 7.492500
0.987300 7.474300
1.005600 7.685600
1.023900 8.084500
1.042200 8.488000
1.060500 8.731500
1.078800 15.123200
1.097000 13.257000
1.115300 10.576800
1.133600 7.548400
1.151900 4.471900
1.170200 5.340500
1.188500 6.483400
1.206800 7.823800
1.225100 9.331400
1.243400 10.776800
1.261600 12.112100
1.279900 18.249400
1.298200 14.816800
1.316500 12.468600
1.334800 11.197600
1.353100 10.164500
1.371400 9.208600
1.389700 8.330000
1.408000 7.450000
1.426200 6.604600
1.444500 6.084800
1.462800 6.062900
1.481100 6.291100
1.499400 6.939100
1.517700 9.435700
1.536000 25.362400
1.554300 13.014800
1.572600 14.772900
1.590800 20.877200
1.609100 24.665400
1.627400 30.618700
1.645700 22.979900
1.664000 18.979700
1.682300 18.330100
1.700600 13.344800
1.718900 13.376600
1.737200 13.662200
1.755400 12.850600
1.773700 12.965400
1.792000 12.932600
1.810300 12.752100
1.828600 12.423900
1.846900 11.948100
1.865200 11.418800
1.883500 12.059000
1.901800 10.891900
1.920000 12.953100
1.938300 10.727100
1.956600 11.744200
1.974900 13.242400
1.993200 15.152300
2.011500 20.529600
2.029800 21.360100
2.048100 16.305800
2.066300 14.305000
2.084600 14.775200
2.102900 26.234700
2.121200 23.988700
2.139500 26.278400
2.157800 29.310400
2.176100 13.938100
2.194400 14.527500
2.212700 20.213300
2.230900 19.636500
2.249200 12.357000
2.267500 11.211800
2.285800 11.484700
2.304100 12.181200
2.322400 19.632100
2.340700 20.929400
2.359000 13.352400
2.377300 12.751400
2.395500 11.904800
2.413800 10.812600
2.432100 19.399300
2.450400 14.841000
2.468700 15.503300
2.487000 14.813100
2.505300 13.435100
2.523600 9.859600
2.541900 7.495800
2.560100 7.655200
2.578400 7.740100
2.596700 8.341200
2.615000 9.180000
2.633300 11.069000
2.651600 14.578100
2.669900 15.570400
2.688200 26.184400
2.706500 19.930900
2.724700 17.544000
2.743000 15.467700
2.761300 13.324600
2.779600 12.373600
2.797900 13.792600
2.816200 16.386900
2.834500 14.553000
2.852800 11.982800
2.871100 9.200900
2.889300 7.458400
2.907600 6.377800
2.925900 5.657600
2.944200 0.273700
2.962500 1.031400
2.980800 2.455600
2.999100 4.384400
3.017400 7.167300
3.035700 11.197100
3.053900 17.310300
3.072200 34.218000
3.090500 30.458100
3.108800 9.186000
3.127100 14.362300
3.145400 7.540000
3.163700 7.121100
3.182000 6.927700
3.200200 6.959900
3.218500 7.110700
3.236800 7.252900
3.255100 7.386100
3.273400 7.510500
3.291700 7.626000
3.310000 9.602400
3.328300 8.421500
3.346600 11.319600
3.364800 11.031900
3.383100 10.880900
3.401400 11.327400
3.419700 11.933800
3.438000 12.700000
3.456300 9.561500
3.474600 9.281300
3.492900 11.148300
3.511200 9.703200
3.529400 8.190600
3.547700 6.610500
3.566000 5.012000
3.584300 3.807600
3.602600 3.157500
3.620900 2.925900
3.639200 2.749500
3.657500 2.607400
3.675800 2.499600
3.694000 2.426100
3.712300 2.387000
3.730600 2.418300
3.748900 2.532100
3.767200 2.716100
3.785500 2.970200
3.803800 3.294400
3.822100 8.675700
3.840400 14.670700
3.858600 10.205200
3.876900 9.844800
3.895200 10.197700
3.913500 11.263700
3.931800 11.255200
3.950100 11.050200
3.968400 12.163300
3.986700 9.468700
4.005000 7.483600
4.023200 6.208000
4.041500 5.641900
4.059800 5.308500
4.078100 4.353700
4.096400 7.845600
4.114700 13.100900
4.133000 18.230200
4.151300 18.059500
4.169600 15.596800
4.187800 13.470000
4.206100 11.105000
4.224400 8.467500
4.242700 8.961800
4.261000 5.194700
4.279300 14.891600
4.297600 16.232500
4.315900 13.449600
4.334200 11.757600
4.352400 11.104000
4.370700 12.013600
4.389000 13.086400
4.407300 14.232000
4.425600 14.969500
4.443900 13.779000
4.462200 12.029900
4.480500 12.908400
4.498700 17.657900
4.517000 22.024100
4.535300 8.459900
4.553600 6.509300
4.571900 5.919800
4.590200 6.834100
4.608500 9.252000
4.626800 25.403300
4.645100 28.156200
4.663300 26.465900
4.681600 5.394900
4.699900 3.864600
4.718200 3.120500
4.736500 3.102900
4.754800 35.391700
4.773100 14.843400
4.791400 16.524400
4.809700 35.463700
4.827900 28.647600
4.846200 33.049200
4.864500 15.580800
4.882800 13.056300
4.901100 10.572500
4.919400 9.618800
4.937700 9.367100
4.956000 9.198000
4.974300 9.093200
4.992500 25.986600
5.010800 15.048800
5.029100 14.198800
5.047400 11.771000
5.065700 18.402700
5.084000 16.050400
5.102300 13.860800
5.120600 12.178600
5.138900 12.917500
5.157100 16.524800
5.175400 19.365900
5.193700 20.074800
5.212000 23.102100
5.230300 32.350900
5.248600 27.631200
5.266900 19.300200
5.285200 18.815600
5.303500 17.939000
5.321700 20.082000
5.340000 25.891400
5.358300 13.534900
5.376600 13.051000
5.394900 12.525900
5.413200 11.864300
5.431500 10.895100
5.449800 9.680900
5.468100 8.331600
5.486300 6.849100
