set title 'mp-1184731 - Density of States'
set xlabel 'Energy (eV)'
set ylabel 'DOS (states/eV)'
set grid
set xrange [-10:10]
set yrange [0:2.818]
set xzeroaxis lt -1
set terminal png size 800,600
set output 'mp-1184731_dos_gnuplot.png'
plot '-' using 1:2 with lines title 'DOS'
-14.463600 0.000000
-14.439000 0.000000
-14.414400 0.000000
-14.389800 0.000000
-14.365200 0.000000
-14.340600 0.000000
-14.316000 0.000000
-14.291400 0.000000
-14.266800 0.000000
-14.242300 0.000000
-14.217700 0.000000
-14.193100 0.000000
-14.168500 0.000000
-14.143900 0.000000
-14.119300 0.000000
-14.094700 0.000000
-14.070100 0.000000
-14.045500 0.000000
-14.020900 0.000000
-13.996400 0.000000
-13.971800 0.000000
-13.947200 0.000000
-13.922600 0.000000
-13.898000 0.000000
-13.873400 0.000000
-13.848800 0.000000
-13.824200 0.000000
-13.799600 0.000000
-13.775000 0.000000
-13.750500 0.000000
-13.725900 0.000000
-13.701300 0.000000
-13.676700 0.000000
-13.652100 0.000000
-13.627500 0.000000
-13.602900 0.000000
-13.578300 0.000000
-13.553700 0.000000
-13.529200 0.000000
-13.504600 0.000000
-13.480000 0.000000
-13.455400 0.000000
-13.430800 0.000000
-13.406200 0.000000
-13.381600 0.000000
-13.357000 0.000000
-13.332400 0.000000
-13.307800 0.000000
-13.283300 0.000000
-13.258700 0.000000
-13.234100 0.000000
-13.209500 0.000000
-13.184900 0.000000
-13.160300 0.000000
-13.135700 0.000000
-13.111100 0.000000
-13.086500 0.000000
-13.061900 0.000000
-13.037400 0.000000
-13.012800 0.000000
-12.988200 0.000000
-12.963600 0.000000
-12.939000 0.000000
-12.914400 0.000000
-12.889800 0.000000
-12.865200 0.000000
-12.840600 0.000000
-12.816000 0.000000
-12.791500 0.000000
-12.766900 0.000000
-12.742300 0.000000
-12.717700 0.000000
-12.693100 0.000000
-12.668500 0.000000
-12.643900 0.000000
-12.619300 0.000000
-12.594700 0.000000
-12.570200 0.000000
-12.545600 0.000000
-12.521000 0.000000
-12.496400 0.000000
-12.471800 0.000000
-12.447200 0.000000
-12.422600 0.000000
-12.398000 0.000000
-12.373400 0.000000
-12.348800 0.000000
-12.324300 0.000000
-12.299700 0.000000
-12.275100 0.000000
-12.250500 0.000000
-12.225900 1.229800
-12.201300 26.586900
-12.176700 32.618100
-12.152100 45.076400
-12.127500 16.223700
-12.102900 31.928900
-12.078400 82.054500
-12.053800 54.666900
-12.029200 76.133300
-12.004600 78.140200
-11.980000 121.761300
-11.955400 98.148000
-11.930800 55.056100
-11.906200 26.532200
-11.881600 0.000000
-11.857100 0.000000
-11.832500 0.000000
-11.807900 0.000000
-11.783300 0.000000
-11.758700 0.000000
-11.734100 0.000000
-11.709500 0.000000
-11.684900 0.000000
-11.660300 0.000000
-11.635700 0.000000
-11.611200 0.000000
-11.586600 0.000000
-11.562000 0.000000
-11.537400 0.000000
-11.512800 0.000000
-11.488200 0.000000
-11.463600 0.000000
-11.439000 0.000000
-11.414400 0.000000
-11.389800 0.000000
-11.365300 0.000000
-11.340700 0.000000
-11.316100 0.000000
-11.291500 0.000000
-11.266900 0.000000
-11.242300 0.000000
-11.217700 0.000000
-11.193100 0.000000
-11.168500 0.000000
-11.144000 0.000000
-11.119400 0.000000
-11.094800 0.000000
-11.070200 0.000000
-11.045600 0.000000
-11.021000 0.000000
-10.996400 0.000000
-10.971800 0.000000
-10.947200 0.000000
-10.922600 0.000000
-10.898100 0.000000
-10.873500 0.000000
-10.848900 0.000000
-10.824300 0.000000
-10.799700 0.000000
-10.775100 0.000000
-10.750500 0.000000
-10.725900 0.000000
-10.701300 0.000000
-10.676700 0.000000
-10.652200 0.000000
-10.627600 0.000000
-10.603000 0.000000
-10.578400 0.000000
-10.553800 0.000000
-10.529200 0.000000
-10.504600 0.000000
-10.480000 0.000000
-10.455400 0.000000
-10.430900 0.000000
-10.406300 0.000000
-10.381700 0.000000
-10.357100 0.000000
-10.332500 0.000000
-10.307900 0.000000
-10.283300 0.000000
-10.258700 0.000000
-10.234100 0.000000
-10.209500 0.000000
-10.185000 0.000000
-10.160400 0.000000
-10.135800 0.000000
-10.111200 0.000000
-10.086600 0.000000
-10.062000 0.000000
-10.037400 0.000000
-10.012800 0.000000
-9.988200 0.000000
-9.963600 0.000000
-9.939100 0.000000
-9.914500 0.000000
-9.889900 0.000000
-9.865300 0.000000
-9.840700 0.000000
-9.816100 0.000000
-9.791500 0.000000
-9.766900 0.000000
-9.742300 0.000000
-9.717800 0.000000
-9.693200 0.000000
-9.668600 0.000000
-9.644000 0.000000
-9.619400 0.000000
-9.594800 0.000000
-9.570200 0.000000
-9.545600 0.000000
-9.521000 0.000000
-9.496400 0.000000
-9.471900 0.000000
-9.447300 0.000000
-9.422700 0.000000
-9.398100 0.000000
-9.373500 0.000000
-9.348900 0.000000
-9.324300 0.000000
-9.299700 0.000000
-9.275100 0.000000
-9.250500 0.000000
-9.226000 0.000000
-9.201400 0.000000
-9.176800 0.000000
-9.152200 0.000000
-9.127600 0.000000
-9.103000 0.000000
-9.078400 0.000000
-9.053800 0.000000
-9.029200 0.000000
-9.004700 0.000000
-8.980100 0.000000
-8.955500 0.000000
-8.930900 0.000000
-8.906300 0.000000
-8.881700 0.000000
-8.857100 0.000000
-8.832500 0.000000
-8.807900 0.000000
-8.783300 0.000000
-8.758800 0.000000
-8.734200 0.000000
-8.709600 0.000000
-8.685000 0.000000
-8.660400 0.000000
-8.635800 0.000000
-8.611200 0.000000
-8.586600 0.000000
-8.562000 0.000000
-8.537400 0.000000
-8.512900 0.000000
-8.488300 0.000000
-8.463700 0.000000
-8.439100 0.000000
-8.414500 0.000000
-8.389900 0.000000
-8.365300 0.000000
-8.340700 0.000000
-8.316100 0.000000
-8.291600 0.000000
-8.267000 0.000000
-8.242400 0.000000
-8.217800 0.000000
-8.193200 0.000000
-8.168600 0.000000
-8.144000 0.000000
-8.119400 0.000000
-8.094800 0.000000
-8.070200 0.000000
-8.045700 0.000000
-8.021100 0.000000
-7.996500 0.000000
-7.971900 0.000000
-7.947300 0.000000
-7.922700 0.000000
-7.898100 0.000000
-7.873500 0.000000
-7.848900 0.000000
-7.824300 0.000000
-7.799800 0.000000
-7.775200 0.000000
-7.750600 0.000000
-7.726000 0.000000
-7.701400 0.000000
-7.676800 0.000000
-7.652200 0.000000
-7.627600 0.000000
-7.603000 0.000000
-7.578500 0.000000
-7.553900 0.000000
-7.529300 0.000000
-7.504700 0.000000
-7.480100 0.000000
-7.455500 0.000000
-7.430900 0.000000
-7.406300 0.000000
-7.381700 0.000000
-7.357100 0.000000
-7.332600 0.000000
-7.308000 0.000000
-7.283400 0.000000
-7.258800 0.000000
-7.234200 0.000000
-7.209600 0.000000
-7.185000 0.000000
-7.160400 0.000000
-7.135800 0.000000
-7.111200 0.000000
-7.086700 0.000000
-7.062100 0.000000
-7.037500 0.000000
-7.012900 0.000000
-6.988300 0.000000
-6.963700 0.000000
-6.939100 0.000000
-6.914500 0.000000
-6.889900 0.000000
-6.865400 0.000000
-6.840800 0.000000
-6.816200 0.000000
-6.791600 0.000000
-6.767000 0.000000
-6.742400 0.000000
-6.717800 0.000000
-6.693200 0.000000
-6.668600 0.000000
-6.644000 0.000000
-6.619500 0.000000
-6.594900 0.000000
-6.570300 0.000000
-6.545700 0.000000
-6.521100 0.000000
-6.496500 0.000000
-6.471900 0.000000
-6.447300 0.000000
-6.422700 0.000000
-6.398100 0.000000
-6.373600 0.000000
-6.349000 0.000000
-6.324400 0.000000
-6.299800 0.000000
-6.275200 0.000000
-6.250600 0.000000
-6.226000 0.000000
-6.201400 0.000000
-6.176800 0.000000
-6.152300 0.000000
-6.127700 0.000000
-6.103100 0.000000
-6.078500 0.003500
-6.053900 0.034800
-6.029300 0.096300
-6.004700 0.163400
-5.980100 0.176700
-5.955500 0.177000
-5.930900 0.201300
-5.906400 0.226500
-5.881800 0.252100
-5.857200 0.274700
-5.832600 0.293200
-5.808000 0.304900
-5.783400 0.315800
-5.758800 0.324900
-5.734200 0.335700
-5.709600 0.349200
-5.685000 0.363400
-5.660500 0.377900
-5.635900 0.421900
-5.611300 0.459700
-5.586700 0.491300
-5.562100 0.450400
-5.537500 0.458100
-5.512900 0.463300
-5.488300 0.464000
-5.463700 0.464500
-5.439200 0.466300
-5.414600 0.466200
-5.390000 0.461200
-5.365400 0.456700
-5.340800 0.471700
-5.316200 0.511900
-5.291600 0.557900
-5.267000 0.543100
-5.242400 0.556600
-5.217800 0.570500
-5.193300 0.584800
-5.168700 0.599600
-5.144100 0.614700
-5.119500 0.630000
-5.094900 0.634400
-5.070300 0.640700
-5.045700 0.645700
-5.021100 0.652900
-4.996500 0.663100
-4.971900 0.674800
-4.947400 0.687300
-4.922800 0.700600
-4.898200 0.713900
-4.873600 0.727400
-4.849000 0.741200
-4.824400 0.755300
-4.799800 0.769400
-4.775200 0.777200
-4.750600 0.789900
-4.726100 0.802500
-4.701500 0.816300
-4.676900 0.836300
-4.652300 0.864600
-4.627700 0.895700
-4.603100 0.923200
-4.578500 0.949800
-4.553900 0.963700
-4.529300 0.963800
-4.504700 0.959600
-4.480200 0.966900
-4.455600 0.973000
-4.431000 0.977000
-4.406400 0.979000
-4.381800 0.978200
-4.357200 0.976600
-4.332600 0.975400
-4.308000 0.977000
-4.283400 0.980400
-4.258800 0.984800
-4.234300 0.989200
-4.209700 0.993400
-4.185100 0.997400
-4.160500 0.999700
-4.135900 1.002100
-4.111300 1.004200
-4.086700 1.006200
-4.062100 1.008000
-4.037500 1.010800
-4.012900 1.014700
-3.988400 1.019100
-3.963800 1.023700
-3.939200 1.028700
-3.914600 1.034000
-3.890000 1.039700
-3.865400 1.044600
-3.840800 1.050200
-3.816200 1.055900
-3.791600 1.061600
-3.767100 1.067200
-3.742500 1.072500
-3.717900 1.077900
-3.693300 1.083500
-3.668700 1.089400
-3.644100 1.096000
-3.619500 1.103300
-3.594900 1.111400
-3.570300 1.120200
-3.545700 1.129200
-3.521200 1.138400
-3.496600 1.147800
-3.472000 1.157300
-3.447400 1.167200
-3.422800 1.177400
-3.398200 1.189000
-3.373600 1.201600
-3.349000 1.214900
-3.324400 1.229300
-3.299800 1.248000
-3.275300 1.268700
-3.250700 1.290000
-3.226100 1.313200
-3.201500 1.340800
-3.176900 1.372000
-3.152300 1.405800
-3.127700 1.441900
-3.103100 1.564000
-3.078500 1.732800
-3.054000 1.697500
-3.029400 1.634100
-3.004800 1.620500
-2.980200 1.623400
-2.955600 1.605700
-2.931000 1.583400
-2.906400 1.570900
-2.881800 1.562900
-2.857200 1.550900
-2.832600 1.553100
-2.808100 1.570800
-2.783500 1.647000
-2.758900 1.537900
-2.734300 1.483700
-2.709700 1.475500
-2.685100 1.479000
-2.660500 1.491100
-2.635900 1.505400
-2.611300 1.533900
-2.586700 1.701100
-2.562200 1.607200
-2.537600 1.611300
-2.513000 1.606900
-2.488400 1.557600
-2.463800 1.556900
-2.439200 1.544200
-2.414600 1.565700
-2.390000 1.600200
-2.365400 1.730100
-2.340900 1.579700
-2.316300 1.606600
-2.291700 1.587700
-2.267100 1.755600
-2.242500 1.737300
-2.217900 1.459100
-2.193300 1.325000
-2.168700 1.279800
-2.144100 1.158200
-2.119500 1.137000
-2.095000 1.724700
-2.070400 0.521800
-2.045800 0.045900
-2.021200 0.000000
-1.996600 0.000000
-1.972000 0.000000
-1.947400 0.000000
-1.922800 0.000000
-1.898200 0.000000
-1.873600 0.000000
-1.849100 0.000000
-1.824500 0.000000
-1.799900 0.000000
-1.775300 0.000000
-1.750700 0.000000
-1.726100 0.000000
-1.701500 0.000000
-1.676900 0.000000
-1.652300 0.000000
-1.627800 0.000000
-1.603200 0.000000
-1.578600 0.000000
-1.554000 0.000000
-1.529400 0.000000
-1.504800 0.000000
-1.480200 0.000000
-1.455600 0.000000
-1.431000 0.000000
-1.406400 0.000000
-1.381900 0.000000
-1.357300 0.000000
-1.332700 0.000000
-1.308100 0.000000
-1.283500 0.000000
-1.258900 0.000000
-1.234300 0.000000
-1.209700 0.000000
-1.185100 0.000000
-1.160500 0.000000
-1.136000 0.000000
-1.111400 0.000000
-1.086800 0.000000
-1.062200 0.000000
-1.037600 0.000000
-1.013000 0.000000
-0.988400 0.000000
-0.963800 0.000000
-0.939200 0.000000
-0.914700 0.000000
-0.890100 0.000000
-0.865500 0.000000
-0.840900 0.000000
-0.816300 0.000000
-0.791700 0.000000
-0.767100 0.000000
-0.742500 0.004100
-0.717900 0.016700
-0.693300 0.037200
-0.668800 0.050400
-0.644200 0.064500
-0.619600 0.079300
-0.595000 0.094900
-0.570400 0.111300
-0.545800 0.128500
-0.521200 0.145200
-0.496600 0.157600
-0.472000 0.164100
-0.447400 0.168000
-0.422900 0.175800
-0.398300 0.183400
-0.373700 0.190900
-0.349100 0.198200
-0.324500 0.205400
-0.299900 0.212800
-0.275300 0.221000
-0.250700 0.229200
-0.226100 0.237600
-0.201600 0.246000
-0.177000 0.254400
-0.152400 0.262700
-0.127800 0.271100
-0.103200 0.279600
-0.078600 0.288300
-0.054000 0.297200
-0.029400 0.307000
-0.004800 0.317100
0.019800 0.327600
0.044300 0.338500
0.068900 0.350000
0.093500 0.361900
0.118100 0.374400
0.142700 0.386700
0.167300 0.398400
0.191900 0.410300
0.216500 0.423300
0.241100 0.437300
0.265700 0.452400
0.290200 0.468600
0.314800 0.485800
0.339400 0.503900
0.364000 0.526200
0.388600 0.553000
0.413200 0.592000
0.437800 0.644500
0.462400 1.340100
0.487000 1.994600
0.511500 1.712600
0.536100 1.781600
0.560700 1.849300
0.585300 1.892600
0.609900 1.850100
0.634500 1.856400
0.659100 1.851100
0.683700 1.813000
0.708300 1.827500
0.732900 1.931700
0.757400 1.890500
0.782000 1.802000
0.806600 1.746600
0.831200 1.715800
0.855800 1.735300
0.880400 1.758000
0.905000 1.779600
0.929600 1.743400
0.954200 1.760600
0.978800 1.774900
1.003300 1.941000
1.027900 1.821500
1.052500 1.889700
1.077100 1.840100
1.101700 1.777700
1.126300 1.776400
1.150900 1.777500
1.175500 2.102900
1.200100 1.449600
1.224600 1.396900
1.249200 1.350000
1.273800 1.503200
1.298400 1.461500
1.323000 1.369300
1.347600 1.354600
1.372200 1.313600
1.396800 1.301800
1.421400 1.289100
1.446000 1.282500
1.470500 1.284000
1.495100 1.291600
1.519700 1.306500
1.544300 1.325300
1.568900 1.341800
1.593500 1.384100
1.618100 1.433300
1.642700 1.495900
1.667300 1.779900
1.691900 1.414700
1.716400 1.287800
1.741000 1.139800
1.765600 0.859300
1.790200 0.869500
1.814800 0.874800
1.839400 0.867200
1.864000 0.844600
1.888600 0.814500
1.913200 0.776800
1.937700 0.731700
1.962300 0.694200
1.986900 0.674500
2.011500 0.656300
2.036100 0.639700
2.060700 0.625300
2.085300 0.613600
2.109900 0.652600
2.134500 0.716600
2.159100 0.687900
2.183600 0.694600
2.208200 0.702500
2.232800 0.711700
2.257400 0.721300
2.282000 0.724700
2.306600 0.728900
2.331200 0.738700
2.355800 0.748900
2.380400 0.764100
2.405000 0.790100
2.429500 0.817300
2.454100 0.880800
2.478700 0.934100
2.503300 1.047600
2.527900 1.174700
2.552500 1.350000
2.577100 0.617900
2.601700 0.607100
2.626300 0.596700
2.650800 0.586800
2.675400 0.577300
2.700000 0.568900
2.724600 0.561700
2.749200 0.554800
2.773800 0.548100
2.798400 0.541600
2.823000 0.535300
2.847600 0.529200
2.872200 0.523200
2.896700 0.517300
2.921300 0.511500
2.945900 0.505800
2.970500 0.553000
2.995100 0.646300
3.019700 0.701400
3.044300 0.750500
3.068900 0.803400
3.093500 0.860500
3.118100 0.921800
3.142600 0.979800
3.167200 1.000100
3.191800 0.996500
3.216400 1.079100
3.241000 1.142700
3.265600 1.193200
3.290200 1.256000
3.314800 1.293400
3.339400 1.304700
3.363900 1.305800
3.388500 1.303100
3.413100 1.296700
3.437700 1.284000
3.462300 1.295100
3.486900 1.308000
3.511500 1.324100
3.536100 1.345100
3.560700 1.360400
3.585300 1.371800
3.609800 1.370300
3.634400 1.361200
3.659000 1.367200
3.683600 1.340600
3.708200 1.309300
3.732800 1.291700
3.757400 1.269900
3.782000 1.260500
3.806600 1.251100
3.831200 1.241000
3.855700 1.230200
3.880300 1.218700
3.904900 1.206400
3.929500 1.246900
3.954100 1.241800
3.978700 1.236200
4.003300 1.230600
4.027900 1.229000
4.052500 1.229900
4.077000 1.233700
4.101600 1.265100
4.126200 1.287300
4.150800 1.317900
4.175400 1.366900
4.200000 1.471500
4.224600 1.525700
4.249200 1.578100
4.273800 2.169300
4.298400 2.080100
4.322900 2.471900
4.347500 2.044900
4.372100 1.633200
4.396700 1.627200
4.421300 1.580900
4.445900 1.490200
4.470500 1.505500
4.495100 1.485900
4.519700 1.450900
4.544300 1.415000
4.568800 1.358300
4.593400 1.327100
4.618000 1.309000
4.642600 1.293400
4.667200 1.278800
4.691800 1.264900
4.716400 1.269200
4.741000 1.273300
4.765600 1.290400
4.790200 1.322400
4.814700 1.448700
4.839300 1.628300
4.863900 1.713000
4.888500 1.798300
4.913100 1.879200
4.937700 2.516700
4.962300 2.425500
4.986900 2.065100
5.011500 1.884000
5.036000 1.844600
5.060600 1.801700
5.085200 1.738400
5.109800 1.677900
5.134400 1.596400
5.159000 1.578600
5.183600 1.460500
5.208200 1.412000
5.232800 1.385100
5.257400 1.344400
5.281900 1.307600
5.306500 1.276200
5.331100 1.250500
5.355700 1.225800
5.380300 1.189300
5.404900 1.166900
5.429500 1.149000
5.454100 1.134300
5.478700 1.113400
5.503300 1.101700
5.527800 1.094300
5.552400 1.090800
5.577000 1.088100
5.601600 1.086100
5.626200 1.084900
5.650800 1.084400
5.675400 1.084300
5.700000 1.084900
5.724600 1.085600
5.749100 1.086000
5.773700 1.086200
5.798300 1.089300
5.822900 1.098600
5.847500 1.108900
5.872100 1.187700
5.896700 1.264300
5.921300 1.323400
5.945900 1.227300
5.970500 1.214100
5.995000 1.204500
6.019600 1.404400
6.044200 1.206300
6.068800 1.071900
6.093400 1.076300
6.118000 1.081300
6.142600 1.086300
6.167200 1.091300
6.191800 1.096400
6.216400 1.101700
6.240900 1.110300
6.265500 1.123700
6.290100 1.142000
6.314700 1.165100
6.339300 1.287100
6.363900 1.293500
6.388500 1.309800
6.413100 1.609900
6.437700 1.507500
6.462200 1.435900
6.486800 1.364400
6.511400 1.306700
6.536000 1.256400
6.560600 1.255200
6.585200 1.247200
6.609800 1.243800
6.634400 1.246200
6.659000 1.252500
6.683600 1.257200
6.708100 1.260600
6.732700 1.266000
6.757300 1.270700
6.781900 1.275500
6.806500 1.285700
6.831100 1.296200
6.855700 1.302400
6.880300 1.305300
6.904900 1.308100
6.929500 1.311200
6.954000 1.314900
6.978600 1.316000
7.003200 1.308000
7.027800 1.312500
7.052400 1.317900
7.077000 1.325900
7.101600 1.333800
7.126200 1.341000
7.150800 1.356800
7.175300 1.385900
7.199900 1.416000
7.224500 1.453700
7.249100 1.478000
7.273700 1.495700
7.298300 1.516000
7.322900 1.538300
7.347500 1.572400
7.372100 1.622100
7.396700 1.690400
7.421200 1.763100
7.445800 1.825200
7.470400 1.887400
7.495000 2.132900
7.519600 2.362400
7.544200 2.412100
7.568800 2.360000
7.593400 2.347100
7.618000 2.351100
7.642600 2.374300
7.667100 2.460700
7.691700 2.431300
7.716300 2.241900
7.740900 1.993200
7.765500 1.876000
7.790100 1.823300
7.814700 1.783700
7.839300 1.755900
7.863900 1.771700
7.888400 1.800700
7.913000 1.835500
7.937600 1.873900
7.962200 1.923300
7.986800 2.015300
8.011400 2.137700
8.036000 2.288300
8.060600 2.562200
8.085200 2.280200
8.109800 2.279600
8.134300 2.292700
8.158900 2.270400
8.183500 2.232600
8.208100 2.194100
8.232700 2.178800
8.257300 2.161800
8.281900 2.138500
8.306500 2.083600
8.331100 2.053100
8.355700 2.053000
8.380200 2.043500
8.404800 2.046300
8.429400 2.028600
8.454000 1.966200
8.478600 1.963500
8.503200 2.109100
8.527800 2.253900
8.552400 2.250700
8.577000 2.265800
8.601500 2.119700
8.626100 2.086100
8.650700 2.049700
8.675300 2.026400
8.699900 2.026200
8.724500 2.029600
8.749100 2.034500
8.773700 2.041300
8.798300 2.049200
8.822900 2.058300
8.847400 2.094100
8.872000 2.104800
8.896600 2.112700
8.921200 2.118100
8.945800 2.121100
8.970400 2.115400
8.995000 2.084700
9.019600 2.045900
9.044200 2.010300
9.068800 1.993200
9.093300 1.935300
9.117900 1.876900
9.142500 1.816000
9.167100 1.756700
9.191700 1.710900
9.216300 1.675700
9.240900 1.648100
9.265500 1.634800
9.290100 1.624500
9.314600 1.617900
9.339200 1.647500
9.363800 1.614700
9.388400 1.579000
9.413000 1.541900
9.437600 1.466000
9.462200 1.432300
9.486800 1.423300
9.511400 1.434300
9.536000 1.450100
9.560500 1.455800
9.585100 1.464200
9.609700 1.470500
9.634300 1.476400
9.658900 1.486000
9.683500 1.521000
9.708100 1.548000
9.732700 1.565700
9.757300 1.574500
9.781900 1.581900
9.806400 1.589200
9.831000 1.595300
9.855600 1.600700
9.880200 1.605500
9.904800 1.609800
9.929400 1.615000
9.954000 1.620300
9.978600 1.624500
10.003200 1.627700
10.027700 1.633300
10.052300 1.713500
10.076900 1.653500
10.101500 1.612700
10.126100 1.646100
10.150700 1.664000
10.175300 1.686100
10.199900 1.660100
10.224500 1.669100
10.249100 1.679700
10.273600 1.691000
10.298200 1.685600
10.322800 1.661000
10.347400 1.634300
10.372000 1.605600
10.396600 1.570300
10.421200 1.543600
10.445800 1.521900
10.470400 1.502900
10.495000 1.484100
10.519500 1.441300
10.544100 1.417900
10.568700 1.410100
10.593300 1.408500
10.617900 1.415900
10.642500 1.414300
10.667100 1.416000
10.691700 1.412400
10.716300 1.408300
10.740800 1.409700
10.765400 1.418600
10.790000 1.453200
10.814600 1.483800
10.839200 1.510200
10.863800 1.536500
10.888400 1.553700
10.913000 1.566700
10.937600 1.584000
10.962200 1.542900
10.986700 1.502000
11.011300 1.462400
11.035900 1.426700
11.060500 1.395600
11.085100 1.372900
11.109700 1.342300
11.134300 1.302100
11.158900 1.270100
11.183500 1.246400
11.208100 1.228500
11.232600 1.262100
11.257200 1.271300
11.281800 1.291600
11.306400 1.302800
