set title 'mp-850274 - Density of States'
set xlabel 'Energy (eV)'
set ylabel 'DOS (states/eV)'
set grid
set xrange [-10:10]
set yrange [0:2.765]
set xzeroaxis lt -1
set terminal png size 800,600
set output 'mp-850274_dos_gnuplot.png'
plot '-' using 1:2 with lines title 'DOS'
-15.901600 0.000000
-15.842000 0.000000
-15.782300 0.000000
-15.722600 0.000000
-15.662900 0.000000
-15.603300 0.000000
-15.543600 0.000000
-15.483900 0.000000
-15.424200 0.000000
-15.364500 0.000000
-15.304900 0.000000
-15.245200 0.000000
-15.185500 0.000000
-15.125800 0.000000
-15.066200 0.000000
-15.006500 0.000000
-14.946800 0.000000
-14.887100 0.000000
-14.827500 0.000000
-14.767800 0.000000
-14.708100 0.000000
-14.648400 0.000000
-14.588700 0.000000
-14.529100 0.000000
-14.469400 0.000000
-14.409700 0.000000
-14.350000 0.000000
-14.290400 0.000000
-14.230700 0.000000
-14.171000 0.000000
-14.111300 0.000000
-14.051600 0.000000
-13.992000 0.000000
-13.932300 0.000000
-13.872600 0.000000
-13.812900 0.000000
-13.753300 0.000000
-13.693600 0.000000
-13.633900 0.000000
-13.574200 0.000000
-13.514600 0.000000
-13.454900 0.000000
-13.395200 0.000000
-13.335500 0.000000
-13.275800 0.000000
-13.216200 0.000000
-13.156500 0.000000
-13.096800 0.000000
-13.037100 0.000000
-12.977500 0.000000
-12.917800 0.000000
-12.858100 0.000000
-12.798400 0.000000
-12.738700 0.000000
-12.679100 0.000000
-12.619400 0.000000
-12.559700 0.000000
-12.500000 0.000000
-12.440400 0.000000
-12.380700 0.000000
-12.321000 0.000000
-12.261300 0.000000
-12.201700 0.000000
-12.142000 0.000000
-12.082300 0.000000
-12.022600 0.000000
-11.962900 0.000000
-11.903300 0.000000
-11.843600 0.000000
-11.783900 0.000000
-11.724200 0.000000
-11.664600 0.000000
-11.604900 0.000000
-11.545200 0.000000
-11.485500 0.000000
-11.425900 0.000000
-11.366200 0.000000
-11.306500 0.000000
-11.246800 0.000000
-11.187100 0.000000
-11.127500 0.000000
-11.067800 0.000000
-11.008100 0.000000
-10.948400 0.000000
-10.888800 0.000000
-10.829100 0.000000
-10.769400 0.000000
-10.709700 0.000000
-10.650000 0.000000
-10.590400 0.000100
-10.530700 0.009900
-10.471000 0.091200
-10.411300 0.096000
-10.351700 0.103900
-10.292000 0.167900
-10.232300 0.268800
-10.172600 0.387000
-10.113000 0.140100
-10.053300 0.045000
-9.993600 0.299700
-9.933900 0.529000
-9.874200 0.494900
-9.814600 0.364500
-9.754900 0.410000
-9.695200 0.302400
-9.635500 0.248000
-9.575900 0.590300
-9.516200 0.680600
-9.456500 0.524400
-9.396800 1.001200
-9.337200 0.684700
-9.277500 0.353500
-9.217800 0.522900
-9.158100 0.947000
-9.098400 1.327400
-9.038800 1.093000
-8.979100 1.315800
-8.919400 1.129400
-8.859700 1.363000
-8.800100 1.982100
-8.740400 2.331900
-8.680700 2.288400
-8.621000 2.242300
-8.561300 2.513400
-8.501700 2.164200
-8.442000 1.326100
-8.382300 0.562400
-8.322600 0.571000
-8.263000 0.713000
-8.203300 0.505900
-8.143600 0.285200
-8.083900 0.320300
-8.024300 0.162900
-7.964600 0.050000
-7.904900 0.003000
-7.845200 0.000000
-7.785500 0.000000
-7.725900 0.000000
-7.666200 0.000000
-7.606500 0.000000
-7.546800 0.000000
-7.487200 0.000000
-7.427500 0.000000
-7.367800 0.000000
-7.308100 0.000000
-7.248400 0.000000
-7.188800 0.000000
-7.129100 0.000000
-7.069400 0.000000
-7.009700 0.000000
-6.950100 0.000000
-6.890400 0.000000
-6.830700 0.000000
-6.771000 0.000000
-6.711400 0.000000
-6.651700 0.000000
-6.592000 0.000000
-6.532300 0.000000
-6.472600 0.000000
-6.413000 0.000000
-6.353300 0.000000
-6.293600 0.000000
-6.233900 0.000000
-6.174300 0.000000
-6.114600 0.000000
-6.054900 0.000000
-5.995200 0.000000
-5.935600 0.000000
-5.875900 0.000000
-5.816200 0.000000
-5.756500 0.000000
-5.696800 0.000000
-5.637200 0.000000
-5.577500 0.000000
-5.517800 0.000000
-5.458100 0.000000
-5.398500 0.000000
-5.338800 0.000000
-5.279100 0.000000
-5.219400 0.000000
-5.159700 0.000000
-5.100100 0.000000
-5.040400 0.000000
-4.980700 0.000000
-4.921000 0.000000
-4.861400 0.000000
-4.801700 0.000000
-4.742000 0.000000
-4.682300 0.000000
-4.622700 0.000000
-4.563000 0.000000
-4.503300 0.000000
-4.443600 0.000000
-4.383900 0.000000
-4.324300 0.000000
-4.264600 0.000000
-4.204900 0.000000
-4.145200 0.000000
-4.085600 0.000000
-4.025900 0.000000
-3.966200 0.000000
-3.906500 0.000000
-3.846800 0.000000
-3.787200 0.000000
-3.727500 0.000000
-3.667800 0.000000
-3.608100 0.000000
-3.548500 0.000000
-3.488800 0.000000
-3.429100 0.000000
-3.369400 0.000000
-3.309800 0.000000
-3.250100 0.000000
-3.190400 0.000000
-3.130700 0.000000
-3.071000 0.000000
-3.011400 0.000000
-2.951700 0.000000
-2.892000 0.000000
-2.832300 0.000000
-2.772700 0.000000
-2.713000 0.000000
-2.653300 0.000000
-2.593600 0.000000
-2.534000 0.000000
-2.474300 0.000000
-2.414600 0.000000
-2.354900 0.000000
-2.295200 0.000000
-2.235600 0.000000
-2.175900 0.000000
-2.116200 0.000000
-2.056500 0.000000
-1.996900 0.000000
-1.937200 0.000000
-1.877500 0.000000
-1.817800 0.000000
-1.758100 0.000000
-1.698500 0.000000
-1.638800 0.000000
-1.579100 0.000000
-1.519400 0.000000
-1.459800 0.000000
-1.400100 0.000000
-1.340400 0.000000
-1.280700 0.000000
-1.221100 0.000000
-1.161400 0.000000
-1.101700 0.000000
-1.042000 0.000000
-0.982300 0.000000
-0.922700 0.000000
-0.863000 0.000000
-0.803300 0.000000
-0.743600 0.000000
-0.684000 0.000000
-0.624300 0.000000
-0.564600 0.000000
-0.504900 0.000000
-0.445200 0.000000
-0.385600 0.000000
-0.325900 0.000000
-0.266200 0.000000
-0.206500 0.000000
-0.146900 0.000000
-0.087200 0.000000
-0.027500 0.000000
0.032200 0.000000
0.091800 0.000000
0.151500 0.000000
0.211200 0.000000
0.270900 0.000000
0.330600 0.000000
0.390200 0.000000
0.449900 0.000000
0.509600 0.000000
0.569300 0.000000
0.628900 0.000000
0.688600 0.000000
0.748300 0.003800
0.808000 0.115700
0.867600 0.321900
0.927300 0.116700
0.987000 0.161000
1.046700 0.292500
1.106400 0.532200
1.166000 0.756500
1.225700 0.508700
1.285400 0.397700
1.345100 0.776800
1.404700 1.196900
1.464400 0.467200
1.524100 0.504900
1.583800 0.789000
1.643500 0.519100
1.703100 0.651700
1.762800 1.223900
1.822500 0.737200
1.882200 0.689100
1.941800 1.027900
2.001500 0.556500
2.061200 0.469900
2.120900 0.368800
2.180500 0.241500
2.240200 0.461000
2.299900 1.171600
2.359600 0.918100
2.419300 0.499100
2.478900 0.843400
2.538600 1.190000
2.598300 0.755700
2.658000 0.662500
2.717600 0.563200
2.777300 0.991400
2.837000 0.822500
2.896700 0.729600
2.956300 0.737400
3.016000 0.656500
3.075700 0.534900
3.135400 0.430700
3.195100 0.222100
3.254700 0.662200
3.314400 0.896200
3.374100 0.604800
3.433800 0.216100
3.493400 0.101600
3.553100 0.448700
3.612800 0.325600
3.672500 0.329400
3.732200 0.244200
3.791800 0.233000
3.851500 0.336200
3.911200 0.505700
3.970900 0.681200
4.030500 0.520400
4.090200 0.962600
4.149900 0.696100
4.209600 0.248900
4.269200 0.400400
4.328900 0.409300
4.388600 0.088500
4.448300 0.117600
4.508000 0.172700
4.567600 0.383900
4.627300 0.863000
4.687000 0.780500
4.746700 0.280600
4.806300 0.139300
4.866000 0.414800
4.925700 0.371600
4.985400 0.486100
5.045100 0.690400
5.104700 0.453200
5.164400 0.253200
5.224100 0.407700
5.283800 0.324900
5.343400 0.465700
5.403100 0.675200
5.462800 0.799100
5.522500 0.351500
5.582100 0.351300
5.641800 0.515400
5.701500 1.004000
5.761200 0.541300
5.820900 0.355000
5.880500 0.233000
5.940200 0.304200
5.999900 0.632600
6.059600 0.809600
6.119200 0.430800
6.178900 0.345600
6.238600 0.171100
6.298300 0.014900
6.357900 0.190300
6.417600 0.736900
6.477300 0.546800
6.537000 0.733500
6.596700 0.936900
6.656300 0.887000
6.716000 1.353200
6.775700 1.004400
6.835400 0.332600
6.895000 0.600100
6.954700 0.752100
7.014400 0.498900
7.074100 0.129400
7.133800 0.035100
7.193400 0.450100
7.253100 0.955900
7.312800 0.565500
7.372500 0.189600
7.432100 0.201900
7.491800 0.546200
7.551500 0.912700
7.611200 0.400700
7.670800 0.047600
7.730500 0.130000
7.790200 0.449900
7.849900 0.833500
7.909600 0.610600
7.969200 0.708700
8.028900 0.556600
8.088600 0.526100
8.148300 0.984700
8.207900 0.807800
8.267600 0.553700
8.327300 0.414400
8.387000 0.434400
8.446700 0.817800
8.506300 0.787300
8.566000 0.436900
8.625700 0.140900
8.685400 0.337300
8.745000 0.342500
8.804700 0.621200
8.864400 0.987300
8.924100 0.705000
8.983700 0.711300
9.043400 0.529600
9.103100 0.405300
9.162800 0.806400
9.222500 0.549500
9.282100 0.415300
9.341800 0.819100
9.401500 0.575100
9.461200 0.883500
9.520800 0.759400
9.580500 0.561900
9.640200 0.938700
9.699900 0.305100
9.759500 0.364100
9.819200 0.829100
9.878900 0.538900
9.938600 0.567800
9.998300 0.413500
10.057900 0.269300
10.117600 0.649500
10.177300 0.787600
10.237000 0.403400
10.296600 0.209500
10.356300 0.281700
10.416000 0.286800
10.475700 0.203900
10.535400 0.271800
10.595000 0.619300
10.654700 0.610300
10.714400 0.567900
10.774100 0.673900
10.833700 0.588600
10.893400 1.109200
10.953100 1.173600
11.012800 1.034600
11.072400 0.540100
11.132100 1.022500
11.191800 1.512200
11.251500 1.377100
11.311200 1.019100
11.370800 0.736500
11.430500 0.802900
11.490200 0.393600
11.549900 0.247200
11.609500 0.453800
11.669200 0.543300
11.728900 0.850800
11.788600 1.087400
11.848200 0.494700
11.907900 0.434700
11.967600 0.704900
12.027300 0.821300
12.087000 0.292600
12.146600 0.365400
12.206300 1.019800
12.266000 0.881400
12.325700 0.467000
12.385300 0.226200
12.445000 0.481700
12.504700 0.476400
12.564400 0.861600
12.624100 0.425800
12.683700 0.090500
12.743400 0.333900
12.803100 0.775100
12.862800 0.878400
12.922400 1.047600
12.982100 0.719000
13.041800 0.410900
13.101500 0.364200
13.161100 0.818900
13.220800 0.585900
13.280500 0.397300
13.340200 0.563100
13.399900 0.958800
13.459500 0.874800
13.519200 1.199800
13.578900 1.247300
13.638600 1.388300
13.698200 0.873600
13.757900 0.856500
13.817600 0.426100
13.877300 0.403500
13.937000 0.418900
13.996600 0.584100
14.056300 0.577900
14.116000 0.355200
14.175700 0.242300
14.235300 0.491700
14.295000 1.154700
14.354700 0.726200
14.414400 0.266200
14.474000 0.107600
14.533700 0.097600
14.593400 0.464200
14.653100 0.643400
14.712800 0.693300
14.772400 1.031800
14.832100 0.730900
14.891800 0.518500
14.951500 0.988400
15.011100 1.034900
15.070800 0.778000
15.130500 0.453700
15.190200 0.704500
15.249800 0.881000
15.309500 0.575300
15.369200 0.407100
15.428900 0.524500
15.488600 0.747300
15.548200 0.810600
15.607900 0.760100
15.667600 0.219400
15.727300 0.220700
15.786900 0.581300
15.846600 0.720400
15.906300 0.579300
15.966000 0.425700
16.025700 0.288200
16.085300 0.287300
16.145000 0.520200
16.204700 0.531700
16.264400 0.791100
16.324000 0.935000
16.383700 1.528900
16.443400 1.515600
16.503100 0.541200
16.562700 0.355900
16.622400 0.160200
16.682100 0.385300
16.741800 0.951900
16.801500 1.258400
16.861100 1.149600
16.920800 1.175500
16.980500 1.525500
17.040200 1.114800
17.099800 0.923300
17.159500 0.731800
17.219200 0.571200
17.278900 0.639800
17.338600 0.614500
17.398200 0.877500
17.457900 0.768200
17.517600 0.983600
17.577300 1.221000
17.636900 0.863900
17.696600 0.265900
17.756300 0.190600
17.816000 0.779300
17.875600 0.683200
17.935300 0.808600
17.995000 1.730000
18.054700 1.006800
18.114400 0.152600
18.174000 0.182100
18.233700 0.354100
18.293400 0.359000
18.353100 0.726900
18.412700 0.981500
18.472400 1.159400
18.532100 0.874100
18.591800 0.721600
18.651400 0.482800
18.711100 0.619800
18.770800 1.255300
18.830500 0.939500
18.890200 0.740500
18.949800 0.713000
19.009500 0.799400
19.069200 0.516500
19.128900 0.699300
19.188500 0.713700
19.248200 0.818200
19.307900 0.560500
19.367600 0.607000
19.427300 1.063700
19.486900 0.926600
19.546600 0.610500
19.606300 0.254600
19.666000 0.431100
19.725600 0.803800
19.785300 0.597600
19.845000 0.486900
19.904700 0.961700
19.964300 1.156700
20.024000 0.523200
20.083700 0.577200
20.143400 0.616600
20.203100 0.567700
20.262700 1.172300
20.322400 1.474000
20.382100 1.094600
20.441800 0.918200
20.501400 1.326800
20.561100 1.190400
20.620800 1.175200
20.680500 0.977700
20.740200 0.741400
20.799800 0.527500
20.859500 0.861300
20.919200 0.891700
20.978900 0.528600
21.038500 0.649900
21.098200 1.076500
21.157900 0.950200
21.217600 0.544000
21.277200 0.385600
21.336900 0.498700
21.396600 0.717100
21.456300 1.082500
21.516000 0.923100
21.575600 0.457400
21.635300 0.356400
21.695000 1.114300
21.754700 1.625100
21.814300 1.156800
21.874000 0.406600
21.933700 0.472500
21.993400 0.740900
22.053000 0.327700
22.112700 0.427900
22.172400 0.686800
22.232100 0.267500
22.291800 0.633600
22.351400 0.938400
22.411100 0.527000
22.470800 0.329300
22.530500 0.913600
22.590100 1.123800
22.649800 0.690000
22.709500 1.114500
22.769200 1.206100
22.828900 0.657500
22.888500 0.632700
22.948200 0.557400
23.007900 0.841000
23.067600 0.949200
23.127200 0.431900
23.186900 0.230900
23.246600 0.813900
23.306300 0.784600
23.365900 0.998700
23.425600 1.458400
23.485300 1.149300
23.545000 0.465200
23.604700 0.322200
23.664300 0.404800
23.724000 1.105400
23.783700 1.355400
23.843400 0.893400
23.903000 0.673300
23.962700 1.363100
24.022400 1.994500
24.082100 1.519500
24.141700 1.201200
24.201400 2.139200
24.261100 1.346200
24.320800 0.601700
24.380500 0.605100
24.440100 0.910100
24.499800 0.759100
24.559500 0.460800
24.619200 0.360700
24.678800 0.441800
24.738500 0.977900
24.798200 0.963600
24.857900 0.871600
24.917600 0.788100
24.977200 0.767400
25.036900 0.541200
25.096600 0.841300
25.156300 0.937800
25.215900 0.339300
25.275600 0.368000
25.335300 0.962000
25.395000 0.721400
25.454600 0.432600
25.514300 0.677300
25.574000 0.715900
25.633700 0.649300
25.693400 0.234800
25.753000 0.356800
25.812700 0.520000
25.872400 0.652000
25.932100 1.387200
25.991700 0.930500
26.051400 0.673200
26.111100 0.592400
26.170800 0.458400
26.230500 0.574500
26.290100 1.161900
26.349800 1.086700
26.409500 1.217600
26.469200 0.708300
26.528800 0.515300
26.588500 0.985200
26.648200 1.003700
26.707900 1.232300
26.767500 1.478000
26.827200 0.988200
26.886900 0.896400
26.946600 1.038500
27.006300 0.804500
27.065900 1.371800
27.125600 1.160300
27.185300 0.992800
27.245000 0.913200
27.304600 0.730700
27.364300 1.050000
27.424000 0.631400
27.483700 0.770200
27.543300 1.291400
27.603000 1.694900
27.662700 2.335500
27.722400 1.900900
27.782100 0.614600
27.841700 0.409800
27.901400 0.507800
27.961100 0.873900
28.020800 0.485500
28.080400 0.728000
28.140100 0.986100
28.199800 0.955900
28.259500 1.801900
28.319200 1.695200
28.378800 1.549400
28.438500 1.611100
28.498200 0.953100
28.557900 0.891900
28.617500 0.595600
28.677200 0.440500
28.736900 0.344200
28.796600 0.620200
28.856200 0.663700
28.915900 0.643900
28.975600 0.492300
29.035300 0.215000
29.095000 0.610300
29.154600 0.858700
29.214300 1.004700
29.274000 0.644900
29.333700 0.679500
29.393300 0.667800
29.453000 0.241200
29.512700 0.354400
29.572400 0.655800
29.632100 0.518200
29.691700 0.701300
29.751400 0.721900
29.811100 0.331200
29.870800 0.776500
29.930400 1.554500
29.990100 1.098100
30.049800 1.104300
30.109500 1.281200
30.169100 1.214500
30.228800 1.313600
30.288500 0.999600
30.348200 0.887500
30.407900 0.324700
30.467500 0.630200
30.527200 0.959000
30.586900 0.914900
30.646600 1.475400
30.706200 1.333200
30.765900 1.181800
30.825600 0.776600
30.885300 0.902600
30.944900 0.877100
31.004600 0.355100
31.064300 0.595800
31.124000 1.576900
31.183700 1.554600
31.243300 1.802900
31.303000 1.805800
31.362700 1.245100
31.422400 0.929600
31.482000 0.489100
31.541700 0.688800
31.601400 0.672000
31.661100 1.135400
31.720800 1.685600
31.780400 0.810100
31.840100 0.655000
31.899800 1.546000
31.959500 1.673900
32.019100 0.913200
32.078800 0.680200
32.138500 0.555100
32.198200 0.708500
32.257800 1.281400
32.317500 0.900800
32.377200 0.587000
32.436900 0.708300
32.496600 0.604200
32.556200 1.000700
32.615900 1.110700
32.675600 0.755000
32.735300 1.117100
32.794900 1.182800
32.854600 1.441600
32.914300 0.717900
32.974000 0.442600
33.033700 0.464100
33.093300 0.661900
33.153000 1.282600
33.212700 1.183400
33.272400 1.041900
33.332000 0.590800
33.391700 0.718500
33.451400 0.939600
33.511100 0.802400
33.570700 1.165900
33.630400 1.121100
33.690100 0.662100
33.749800 0.698100
33.809500 0.865800
33.869100 0.687700
33.928800 0.902800
33.988500 1.355100
34.048200 1.261100
34.107800 1.182100
34.167500 0.748400
34.227200 0.448500
34.286900 0.492400
34.346500 0.506600
34.406200 0.749100
34.465900 1.499400
34.525600 1.026200
34.585300 0.786000
34.644900 0.628600
34.704600 1.368600
34.764300 1.429700
34.824000 0.968100
34.883600 0.752100
34.943300 0.918600
35.003000 1.279400
35.062700 0.759200
35.122400 0.372200
35.182000 0.273000
35.241700 1.042700
35.301400 1.338600
35.361100 1.057100
35.420700 0.871000
35.480400 0.945100
35.540100 0.936600
35.599800 1.222900
35.659400 1.385600
35.719100 1.314500
35.778800 1.361900
35.838500 1.150400
35.898200 1.042600
35.957800 1.617800
36.017500 2.229100
36.077200 1.757300
36.136900 1.042400
36.196500 1.161700
36.256200 1.093900
36.315900 1.138600
36.375600 1.148800
36.435200 1.009600
36.494900 0.693600
36.554600 0.568000
36.614300 0.681200
36.674000 0.810900
36.733600 0.892400
36.793300 1.401500
36.853000 1.040600
36.912700 0.685100
36.972300 0.670200
37.032000 1.040100
37.091700 1.889000
37.151400 1.434000
37.211100 0.814500
37.270700 0.784500
37.330400 0.992000
37.390100 0.839000
37.449800 0.940900
37.509400 0.879400
37.569100 0.640800
37.628800 1.838900
37.688500 2.131100
37.748100 1.025000
37.807800 0.826700
37.867500 0.786500
37.927200 0.753900
37.986900 0.495600
38.046500 0.249500
38.106200 0.460000
38.165900 0.302200
38.225600 0.624900
38.285200 1.145800
38.344900 0.820600
38.404600 0.653300
38.464300 0.530000
38.524000 0.833000
38.583600 1.147600
38.643300 1.344000
38.703000 0.830100
38.762700 0.371900
38.822300 0.260400
38.882000 0.427200
38.941700 0.954300
39.001400 1.128700
39.061000 0.465600
39.120700 0.817400
39.180400 1.304700
39.240100 1.820000
39.299800 1.466800
39.359400 0.619900
39.419100 0.594000
39.478800 0.759400
39.538500 1.245800
39.598100 1.390800
39.657800 1.424600
39.717500 1.172400
39.777200 1.484500
39.836800 1.337100
39.896500 1.997900
39.956200 2.130800
40.015900 0.892900
40.075600 0.882400
40.135200 1.043400
40.194900 1.325200
40.254600 2.260100
40.314300 1.838100
40.373900 1.112400
40.433600 1.750500
40.493300 1.868100
40.553000 1.267100
40.612700 0.958800
40.672300 0.630400
40.732000 0.891300
40.791700 1.463400
40.851400 1.250100
40.911000 1.161900
40.970700 1.412900
41.030400 1.522800
41.090100 0.931400
41.149700 0.765100
41.209400 0.835600
41.269100 0.725800
41.328800 0.891100
41.388500 1.059500
41.448100 1.251800
41.507800 1.033000
41.567500 0.629200
41.627200 1.078000
41.686800 0.564600
41.746500 0.349400
41.806200 0.482300
41.865900 0.674000
41.925600 1.043900
41.985200 1.055200
42.044900 1.202600
42.104600 1.223800
42.164300 0.659200
42.223900 0.593500
42.283600 0.743200
42.343300 1.105800
42.403000 1.071700
42.462600 1.172800
42.522300 1.144100
42.582000 0.791700
42.641700 0.720200
42.701400 0.944000
42.761000 1.321100
42.820700 0.829900
42.880400 0.161800
42.940100 0.478500
42.999700 0.967700
43.059400 1.003200
43.119100 0.955900
43.178800 1.020700
43.238400 0.960100
43.298100 1.085500
43.357800 1.948500
43.417500 1.461700
43.477200 1.175400
43.536800 0.838900
43.596500 1.045500
43.656200 1.224500
43.715900 0.626100
43.775500 0.850000
43.835200 1.726300
43.894900 1.623000
43.954600 0.901400
44.014300 0.714700
44.073900 0.572300
44.133600 0.662000
44.193300 0.554700
44.253000 0.674500
44.312600 1.077000
44.372300 1.665300
44.432000 2.341100
44.491700 1.753200
44.551300 1.108200
44.611000 1.123800
44.670700 0.680400
44.730400 1.354100
44.790100 1.591200
44.849700 1.190100
44.909400 0.784400
44.969100 0.790100
45.028800 1.100100
45.088400 1.549000
45.148100 1.389100
45.207800 1.483600
45.267500 1.476800
45.327100 2.264700
45.386800 1.672300
45.446500 1.251400
45.506200 1.165100
45.565900 1.072600
45.625500 0.720900
45.685200 0.792900
45.744900 1.177400
45.804600 0.944200
45.864200 1.314400
45.923900 1.637100
45.983600 1.080700
46.043300 1.130700
46.103000 1.349000
46.162600 1.387500
