set title 'mp-1078845 - Density of States'
set xlabel 'Energy (eV)'
set ylabel 'DOS (states/eV)'
set grid
set xrange [-10:10]
set yrange [0:4.920]
set xzeroaxis lt -1
set terminal png size 800,600
set output 'mp-1078845_dos_gnuplot.png'
plot '-' using 1:2 with lines title 'DOS'
-14.763600 0.000000
-14.732100 0.000000
-14.700500 0.000000
-14.669000 0.000000
-14.637400 0.000000
-14.605800 0.000000
-14.574300 0.000000
-14.542700 0.000000
-14.511100 0.000000
-14.479600 0.000000
-14.448000 0.000000
-14.416400 0.000000
-14.384900 0.000000
-14.353300 0.000000
-14.321800 0.000000
-14.290200 0.000000
-14.258600 0.000000
-14.227100 0.000000
-14.195500 0.000000
-14.163900 0.000000
-14.132400 0.000000
-14.100800 0.000000
-14.069300 0.000000
-14.037700 0.000000
-14.006100 0.000000
-13.974600 0.000000
-13.943000 0.000000
-13.911400 0.000000
-13.879900 0.000000
-13.848300 0.000000
-13.816700 0.000000
-13.785200 0.000000
-13.753600 0.000000
-13.722100 0.000000
-13.690500 0.000000
-13.658900 0.000000
-13.627400 0.000000
-13.595800 0.000000
-13.564200 0.000000
-13.532700 0.000000
-13.501100 0.000000
-13.469500 0.000000
-13.438000 0.000000
-13.406400 0.000000
-13.374900 0.000000
-13.343300 0.000000
-13.311700 0.000000
-13.280200 0.000000
-13.248600 0.000000
-13.217000 0.000000
-13.185500 0.000000
-13.153900 0.000000
-13.122300 0.000000
-13.090800 0.000000
-13.059200 0.000000
-13.027700 0.000000
-12.996100 0.000000
-12.964500 0.000000
-12.933000 0.000000
-12.901400 0.000000
-12.869800 0.000000
-12.838300 0.000000
-12.806700 0.000000
-12.775100 0.000000
-12.743600 0.000000
-12.712000 0.000000
-12.680500 0.000000
-12.648900 0.000000
-12.617300 0.000000
-12.585800 0.000000
-12.554200 0.000000
-12.522600 0.000000
-12.491100 0.000000
-12.459500 0.000000
-12.427900 0.000000
-12.396400 0.000000
-12.364800 0.000000
-12.333300 0.000000
-12.301700 0.000000
-12.270100 0.000000
-12.238600 0.000000
-12.207000 0.000000
-12.175400 0.000000
-12.143900 0.000000
-12.112300 0.000000
-12.080700 0.000000
-12.049200 0.000000
-12.017600 0.000000
-11.986100 0.000000
-11.954500 0.000000
-11.922900 0.000000
-11.891400 0.073200
-11.859800 0.095400
-11.828200 0.118700
-11.796700 0.142900
-11.765100 0.168200
-11.733500 0.191700
-11.702000 0.215500
-11.670400 0.239700
-11.638900 0.263700
-11.607300 0.279600
-11.575700 0.282900
-11.544200 0.288300
-11.512600 0.299400
-11.481000 0.310400
-11.449500 0.321700
-11.417900 0.333100
-11.386300 0.344700
-11.354800 0.356400
-11.323200 0.368900
-11.291700 0.383200
-11.260100 0.397700
-11.228500 0.412500
-11.197000 0.422000
-11.165400 0.435600
-11.133800 0.449100
-11.102300 0.459600
-11.070700 0.468800
-11.039100 0.477500
-11.007600 0.485800
-10.976000 0.493800
-10.944500 0.501900
-10.912900 0.509800
-10.881300 0.537800
-10.849800 0.550800
-10.818200 0.564300
-10.786600 0.578400
-10.755100 0.592700
-10.723500 0.607200
-10.691900 0.621800
-10.660400 0.636700
-10.628800 0.649900
-10.597300 0.663000
-10.565700 0.676100
-10.534100 0.689300
-10.502600 0.702600
-10.471000 0.736800
-10.439400 0.801300
-10.407900 0.832200
-10.376300 0.822700
-10.344700 0.803800
-10.313200 0.968700
-10.281600 0.713900
-10.250100 0.694700
-10.218500 0.678800
-10.186900 0.659300
-10.155400 0.638000
-10.123800 0.623100
-10.092200 0.613500
-10.060700 0.595800
-10.029100 0.599900
-9.997600 0.609900
-9.966000 0.620500
-9.934400 0.631800
-9.902900 0.606400
-9.871300 0.605900
-9.839700 0.604900
-9.808200 0.603500
-9.776600 0.601600
-9.745000 0.599100
-9.713500 0.594900
-9.681900 0.588700
-9.650400 0.587100
-9.618800 0.587000
-9.587200 0.588800
-9.555700 0.587500
-9.524100 0.593500
-9.492500 0.599400
-9.461000 0.665000
-9.429400 0.728800
-9.397800 0.751900
-9.366300 0.773400
-9.334700 0.793600
-9.303200 0.812500
-9.271600 0.830300
-9.240000 0.846800
-9.208500 0.858000
-9.176900 0.860400
-9.145300 0.860900
-9.113800 0.860300
-9.082200 0.858800
-9.050600 0.856300
-9.019100 0.852600
-8.987500 0.846900
-8.956000 0.840000
-8.924400 0.834100
-8.892800 0.829700
-8.861300 0.824400
-8.829700 0.820800
-8.798100 0.818700
-8.766600 0.819100
-8.735000 0.819500
-8.703400 0.818600
-8.671900 0.816900
-8.640300 0.815600
-8.608800 1.184500
-8.577200 0.889300
-8.545600 0.899100
-8.514100 0.909300
-8.482500 0.920000
-8.450900 0.931300
-8.419400 0.943100
-8.387800 0.955400
-8.356200 0.958300
-8.324700 0.959600
-8.293100 0.969800
-8.261600 0.980500
-8.230000 1.072900
-8.198400 1.086100
-8.166900 1.099200
-8.135300 1.112200
-8.103700 1.116200
-8.072200 1.122400
-8.040600 1.128800
-8.009000 1.134700
-7.977500 1.125900
-7.945900 1.127900
-7.914400 1.133400
-7.882800 1.138800
-7.851200 1.138100
-7.819700 1.187900
-7.788100 1.358400
-7.756500 1.251700
-7.725000 1.258400
-7.693400 1.264800
-7.661800 1.269500
-7.630300 1.275900
-7.598700 1.282500
-7.567200 1.283700
-7.535600 1.263100
-7.504000 1.260100
-7.472500 1.292800
-7.440900 1.285500
-7.409300 1.281800
-7.377800 1.278500
-7.346200 1.274400
-7.314600 1.269200
-7.283100 1.263600
-7.251500 1.262900
-7.220000 1.276500
-7.188400 1.281300
-7.156800 1.459400
-7.125300 1.340100
-7.093700 1.051900
-7.062100 1.054200
-7.030600 1.063000
-6.999000 1.071100
-6.967400 1.083000
-6.935900 1.100100
-6.904300 1.538300
-6.872800 1.385400
-6.841200 1.464700
-6.809600 1.534000
-6.778100 1.526400
-6.746500 1.493800
-6.714900 1.412500
-6.683400 1.333000
-6.651800 1.318300
-6.620200 1.322400
-6.588700 1.329700
-6.557100 1.330800
-6.525600 1.329100
-6.494000 1.316900
-6.462400 1.308700
-6.430900 1.297300
-6.399300 1.280800
-6.367700 1.268900
-6.336200 1.312100
-6.304600 1.308300
-6.273100 1.303500
-6.241500 1.298600
-6.209900 1.292900
-6.178400 1.286900
-6.146800 1.322900
-6.115200 1.307900
-6.083700 1.270200
-6.052100 1.249100
-6.020500 1.228200
-5.989000 1.133600
-5.957400 1.099300
-5.925900 1.076400
-5.894300 1.081200
-5.862700 1.065800
-5.831200 1.028400
-5.799600 0.996200
-5.768000 0.969900
-5.736500 0.971700
-5.704900 0.994900
-5.673300 0.994300
-5.641800 0.961300
-5.610200 0.941400
-5.578700 1.030000
-5.547100 1.014800
-5.515500 1.002500
-5.484000 0.991900
-5.452400 0.980600
-5.420800 0.968500
-5.389300 0.958400
-5.357700 0.949200
-5.326100 0.940900
-5.294600 0.934000
-5.263000 0.919300
-5.231500 0.911700
-5.199900 0.905300
-5.168300 0.900400
-5.136800 0.893000
-5.105200 0.891500
-5.073600 0.892200
-5.042100 0.893500
-5.010500 0.896300
-4.978900 0.900900
-4.947400 0.906800
-4.915800 0.911100
-4.884300 0.916900
-4.852700 0.970300
-4.821100 0.987400
-4.789600 1.000800
-4.758000 1.010200
-4.726400 1.015600
-4.694900 1.017700
-4.663300 1.016900
-4.631700 1.021400
-4.600200 0.921100
-4.568600 1.141700
-4.537100 0.987700
-4.505500 0.996500
-4.473900 0.972100
-4.442400 0.938600
-4.410800 0.939500
-4.379200 0.957300
-4.347700 0.961600
-4.316100 0.934600
-4.284500 0.955100
-4.253000 0.991500
-4.221400 1.039200
-4.189900 1.206900
-4.158300 1.339000
-4.126700 1.512700
-4.095200 1.563000
-4.063600 1.858900
-4.032000 1.919400
-4.000500 1.954800
-3.968900 1.992500
-3.937300 1.868400
-3.905800 1.766100
-3.874200 1.648400
-3.842700 1.570000
-3.811100 1.505700
-3.779500 1.598900
-3.748000 1.496700
-3.716400 1.456700
-3.684800 1.413800
-3.653300 1.370900
-3.621700 1.361300
-3.590100 1.355400
-3.558600 1.410600
-3.527000 1.400200
-3.495500 1.394500
-3.463900 1.391500
-3.432300 1.389500
-3.400800 1.388600
-3.369200 1.402900
-3.337600 1.427400
-3.306100 1.453000
-3.274500 1.839400
-3.242900 1.592300
-3.211400 1.583300
-3.179800 1.580300
-3.148300 1.577700
-3.116700 1.548700
-3.085100 1.457500
-3.053600 1.424500
-3.022000 1.388100
-2.990400 1.349400
-2.958900 1.318900
-2.927300 1.301900
-2.895700 1.290300
-2.864200 1.279300
-2.832600 1.314800
-2.801100 1.318200
-2.769500 1.323600
-2.737900 1.332000
-2.706400 1.342000
-2.674800 1.353200
-2.643200 1.364500
-2.611700 1.375500
-2.580100 1.396800
-2.548600 1.410400
-2.517000 1.580700
-2.485400 1.553800
-2.453900 1.533000
-2.422300 1.516200
-2.390700 1.495500
-2.359200 1.380000
-2.327600 1.354800
-2.296000 1.329200
-2.264500 1.299700
-2.232900 1.268100
-2.201400 1.251200
-2.169800 1.267500
-2.138200 1.278300
-2.106700 1.377800
-2.075100 1.773100
-2.043500 1.607100
-2.012000 1.613300
-1.980400 1.600500
-1.948800 1.581000
-1.917300 1.563300
-1.885700 1.530800
-1.854200 1.454400
-1.822600 1.371200
-1.791000 1.245100
-1.759500 1.140800
-1.727900 1.119600
-1.696300 1.197300
-1.664800 1.080700
-1.633200 1.086400
-1.601600 1.107100
-1.570100 1.154900
-1.538500 1.162100
-1.507000 1.112900
-1.475400 1.104700
-1.443800 1.085200
-1.412300 1.054900
-1.380700 1.034100
-1.349100 1.056400
-1.317600 1.053900
-1.286000 1.053500
-1.254400 1.087900
-1.222900 1.137500
-1.191300 1.212400
-1.159800 1.229800
-1.128200 1.227900
-1.096600 1.283700
-1.065100 1.372500
-1.033500 1.410100
-1.001900 1.391000
-0.970400 1.328600
-0.938800 1.293700
-0.907200 1.269800
-0.875700 1.256200
-0.844100 1.248800
-0.812600 1.250800
-0.781000 1.257700
-0.749400 1.391300
-0.717900 1.703900
-0.686300 1.694800
-0.654700 1.777500
-0.623200 1.882600
-0.591600 2.162400
-0.560000 2.252500
-0.528500 2.046300
-0.496900 1.893000
-0.465400 1.821200
-0.433800 1.686000
-0.402200 1.569700
-0.370700 1.518300
-0.339100 1.506000
-0.307500 1.526200
-0.276000 1.542700
-0.244400 1.504700
-0.212800 1.437400
-0.181300 1.441400
-0.149700 1.444100
-0.118200 1.448600
-0.086600 1.455800
-0.055000 1.464700
-0.023500 1.475300
0.008100 1.519900
0.039700 1.673800
0.071200 1.752600
0.102800 2.062000
0.134400 2.171300
0.165900 2.092400
0.197500 1.983500
0.229000 1.946300
0.260600 1.969200
0.292200 2.165900
0.323700 2.321500
0.355300 2.279600
0.386900 2.328900
0.418400 2.359600
0.450000 2.390400
0.481600 2.403900
0.513100 2.408400
0.544700 2.313100
0.576200 2.253300
0.607800 2.214500
0.639400 2.168900
0.670900 1.967000
0.702500 1.899400
0.734100 1.833500
0.765600 1.784400
0.797200 1.762200
0.828800 1.754800
0.860300 1.752600
0.891900 1.740200
0.923400 1.757900
0.955000 1.757600
0.986600 1.778700
1.018100 1.772300
1.049700 1.768500
1.081300 1.774300
1.112800 1.800900
1.144400 1.836400
1.176000 1.805800
1.207500 1.885200
1.239100 1.923800
1.270600 1.946300
1.302200 1.948000
1.333800 1.965100
1.365300 1.962600
1.396900 1.954100
1.428500 1.941600
1.460000 1.965700
1.491600 1.995900
1.523100 2.023800
1.554700 2.048100
1.586300 2.073800
1.617800 1.980400
1.649400 1.851300
1.681000 1.836100
1.712500 1.835300
1.744100 1.829200
1.775700 1.829100
1.807200 1.817900
1.838800 1.799300
1.870300 1.790800
1.901900 1.788900
1.933500 1.794800
1.965000 1.810900
1.996600 1.839800
2.028200 1.883400
2.059700 1.942500
2.091300 2.003700
2.122900 2.050600
2.154400 2.187400
2.186000 2.325200
2.217500 2.218100
2.249100 2.293300
2.280700 2.348800
2.312200 2.412900
2.343800 2.479200
2.375400 2.530300
2.406900 2.510900
2.438500 2.494000
2.470100 2.695500
2.501600 2.892500
2.533200 2.923700
2.564700 3.022500
2.596300 2.878900
2.627900 2.704900
2.659400 2.613300
2.691000 2.345000
2.722600 2.265200
2.754100 2.294800
2.785700 2.283200
2.817300 2.337400
2.848800 2.326300
2.880400 2.340500
2.911900 2.376700
2.943500 2.467800
2.975100 2.305200
3.006600 2.279800
3.038200 2.331600
3.069800 2.357700
3.101300 2.334400
3.132900 2.300700
3.164500 2.281900
3.196000 2.335400
3.227600 2.273000
3.259100 2.262700
3.290700 2.274700
3.322300 2.375800
3.353800 2.482400
3.385400 2.622600
3.417000 2.390500
3.448500 2.414400
3.480100 2.456200
3.511700 2.517700
3.543200 2.588300
3.574800 2.662500
3.606300 2.739500
3.637900 2.790200
3.669500 2.901500
3.701000 2.979500
3.732600 2.932800
3.764200 2.913400
3.795700 3.057700
3.827300 3.114600
3.858900 3.114100
3.890400 2.969200
3.922000 3.021700
3.953500 3.023200
3.985100 3.036300
4.016700 3.050400
4.048200 3.142300
4.079800 3.300800
4.111400 3.125500
4.142900 3.055800
4.174500 2.707400
4.206100 2.644200
4.237600 2.569100
4.269200 2.508700
4.300700 2.495100
4.332300 2.506700
4.363900 2.574000
4.395400 2.796100
4.427000 3.019800
4.458600 3.031700
4.490100 2.952400
4.521700 3.021600
4.553300 3.125900
4.584800 3.726800
4.616400 4.473000
4.647900 3.867500
4.679500 3.663700
4.711100 3.191600
4.742600 2.866400
4.774200 2.696700
4.805800 3.988800
4.837300 2.837800
4.868900 2.874500
4.900500 3.114200
4.932000 2.887000
4.963600 2.860400
4.995100 2.841200
5.026700 2.830100
5.058300 2.803600
5.089800 2.836900
5.121400 3.311400
5.153000 3.630400
5.184500 3.584900
5.216100 3.434400
5.247600 3.243800
5.279200 3.070100
5.310800 2.897500
5.342300 2.849700
5.373900 2.826200
5.405500 2.787600
5.437000 2.806000
5.468600 2.759400
5.500200 2.734600
5.531700 2.711200
5.563300 2.682600
5.594800 2.648700
5.626400 2.621100
5.658000 2.658500
5.689500 2.694400
5.721100 2.735100
5.752700 2.743000
5.784200 2.786800
5.815800 2.796500
5.847400 2.829600
5.878900 2.832100
5.910500 2.787100
5.942000 2.763600
5.973600 2.720300
6.005200 2.695700
6.036700 2.619800
6.068300 2.700600
6.099900 2.759700
6.131400 2.811600
6.163000 2.843400
6.194600 2.922600
6.226100 2.999400
6.257700 3.067100
6.289200 3.471100
6.320800 3.891900
6.352400 3.504500
6.383900 2.784100
6.415500 2.435300
6.447100 2.223700
6.478600 2.084500
6.510200 2.017900
6.541800 1.978400
6.573300 1.957400
6.604900 1.929400
6.636400 1.897900
6.668000 1.840900
6.699600 1.785200
6.731100 1.754400
6.762700 1.722300
6.794300 1.704900
6.825800 1.684300
6.857400 1.667700
6.889000 1.655300
6.920500 1.646300
6.952100 1.643400
6.983600 1.660900
7.015200 1.695600
7.046800 1.786100
7.078300 1.743000
7.109900 1.708200
7.141500 1.689500
7.173000 1.694600
7.204600 1.692400
7.236200 1.685400
7.267700 1.720600
7.299300 1.710700
7.330800 1.746200
7.362400 1.658600
7.394000 1.576600
7.425500 1.449900
7.457100 1.386600
7.488700 1.331100
7.520200 1.280300
7.551800 1.234200
7.583400 1.194300
7.614900 1.168800
7.646500 1.150800
7.678000 1.134200
7.709600 1.117900
7.741200 1.101000
7.772700 1.083100
7.804300 1.063600
7.835900 0.977700
7.867400 0.934500
7.899000 0.906800
7.930600 0.888500
7.962100 0.870300
7.993700 0.849900
8.025200 0.830100
8.056800 0.808000
8.088400 0.785700
8.119900 0.762500
8.151500 0.739500
8.183100 0.716600
8.214600 0.693600
8.246200 0.669300
8.277800 0.630200
8.309300 0.606600
8.340900 0.574700
8.372400 0.552900
8.404000 0.532000
8.435600 0.513700
8.467100 0.495600
8.498700 0.477400
8.530300 0.457900
8.561800 0.439000
8.593400 0.420700
8.625000 0.402700
8.656500 0.385300
8.688100 0.368500
8.719600 0.350800
8.751200 0.333000
8.782800 0.313300
8.814300 0.294200
8.845900 0.275500
8.877500 0.257700
8.909000 0.240900
8.940600 0.221400
8.972200 0.188400
9.003700 0.171300
9.035300 0.154800
9.066800 0.138900
9.098400 0.123700
9.130000 0.114200
9.161500 0.104800
9.193100 0.072800
9.224700 0.067200
9.256200 0.000000
9.287800 0.000000
9.319300 0.000000
9.350900 0.000000
9.382500 0.000000
9.414000 0.000000
9.445600 0.000000
9.477200 0.000000
9.508700 0.000000
9.540300 0.000000
9.571900 0.000000
9.603400 0.000000
9.635000 0.000000
9.666500 0.000000
9.698100 0.000000
9.729700 0.000000
9.761200 0.000000
9.792800 0.000000
9.824400 0.000000
9.855900 0.000000
9.887500 0.000000
9.919100 0.000000
9.950600 0.000000
9.982200 0.000000
10.013700 0.000000
10.045300 0.000000
10.076900 0.000000
10.108400 0.000000
10.140000 0.000000
10.171600 0.000000
10.203100 0.000000
10.234700 0.000000
10.266300 0.000000
10.297800 0.000000
10.329400 0.000000
10.360900 0.000000
10.392500 0.000000
10.424100 0.000000
10.455600 0.000000
10.487200 0.000000
10.518800 0.000000
10.550300 0.000000
10.581900 0.000000
10.613500 0.000000
10.645000 0.000000
10.676600 0.000000
10.708100 0.000000
10.739700 0.000000
10.771300 0.000000
10.802800 0.000000
10.834400 0.000000
10.866000 0.000000
10.897500 0.000000
10.929100 0.000000
10.960700 0.000000
10.992200 0.000000
11.023800 0.000000
11.055300 0.000000
11.086900 0.000000
11.118500 0.000000
11.150000 0.000000
11.181600 0.000000
11.213200 0.000000
11.244700 0.000000
11.276300 0.000000
11.307900 0.000000
11.339400 0.000000
11.371000 0.000000
11.402500 0.000000
11.434100 0.000000
11.465700 0.000000
11.497200 0.000000
11.528800 0.000000
11.560400 0.000000
11.591900 0.000000
11.623500 0.000000
11.655100 0.000000
11.686600 0.000000
11.718200 0.000000
11.749700 0.000000
11.781300 0.000000
11.812900 0.000000
11.844400 0.000000
11.876000 0.000000
11.907600 0.000000
11.939100 0.000000
11.970700 0.000000
12.002300 0.000000
12.033800 0.000000
12.065400 0.000000
12.096900 0.000000
12.128500 0.000000
12.160100 0.000000
12.191600 0.000000
12.223200 0.000000
12.254800 0.000000
12.286300 0.000000
12.317900 0.000000
12.349500 0.000000
12.381000 0.000000
12.412600 0.000000
12.444100 0.000000
12.475700 0.000000
12.507300 0.000000
12.538800 0.000000
12.570400 0.000000
12.602000 0.000000
12.633500 0.000000
12.665100 0.000000
12.696700 0.000000
12.728200 0.000000
12.759800 0.000000
12.791300 0.000000
12.822900 0.000000
12.854500 0.003100
12.886000 0.011700
12.917600 0.022100
12.949200 0.034200
12.980700 0.048000
13.012300 0.063300
13.043800 0.076800
13.075400 0.091400
13.107000 0.107200
13.138500 0.124000
13.170100 0.142000
13.201700 0.161000
13.233200 0.180600
13.264800 0.200500
13.296400 0.219200
13.327900 0.237700
13.359500 0.256000
13.391000 0.274100
13.422600 0.291900
13.454200 0.309600
13.485700 0.327400
13.517300 0.372000
13.548900 0.382700
13.580400 0.397000
13.612000 0.412500
13.643600 0.429100
13.675100 0.446600
13.706700 0.465000
13.738200 0.484000
13.769800 0.503300
13.801400 0.522900
13.832900 0.542900
13.864500 0.563000
13.896100 0.583200
13.927600 0.607600
13.959200 0.692600
13.990800 0.800800
14.022300 0.876900
14.053900 0.959500
14.085400 1.048800
14.117000 1.148400
14.148600 1.250800
14.180100 1.352800
14.211700 1.484200
14.243300 1.622600
14.274800 1.785700
14.306400 2.227500
14.338000 2.548400
14.369500 2.581100
14.401100 2.663400
14.432600 2.697300
14.464200 2.492300
14.495800 2.247200
14.527300 2.246500
14.558900 2.322600
14.590500 2.279700
14.622000 2.558200
14.653600 2.184800
14.685200 2.293800
14.716700 2.524800
14.748300 2.513900
14.779800 2.913100
14.811400 2.427000
14.843000 2.447300
14.874500 2.412900
14.906100 2.337900
14.937700 2.279900
14.969200 2.245100
15.000800 2.330600
15.032400 2.442800
15.063900 2.296900
15.095500 2.359300
15.127000 2.448000
15.158600 2.735900
15.190200 2.780800
15.221700 2.858800
15.253300 2.946100
15.284900 3.003000
15.316400 3.061100
15.348000 3.088900
15.379600 2.984900
15.411100 2.771100
15.442700 2.696700
15.474200 2.609300
15.505800 2.571400
15.537400 2.652600
15.568900 2.645300
15.600500 2.634600
15.632100 2.758400
15.663600 2.727100
15.695200 3.026800
15.726800 3.011300
15.758300 3.027600
15.789900 2.783700
15.821400 2.836000
15.853000 2.829800
15.884600 2.688400
15.916100 2.607100
15.947700 2.490400
15.979300 2.441200
16.010800 2.474100
16.042400 2.746000
16.074000 2.600300
16.105500 2.647100
16.137100 2.709400
16.168600 2.782900
16.200200 2.830000
16.231800 2.843000
16.263300 2.795500
16.294900 2.804700
16.326500 2.644200
16.358000 2.495800
16.389600 2.109900
16.421200 1.962500
16.452700 1.914800
16.484300 1.890400
16.515800 1.836300
16.547400 2.187500
16.579000 2.361400
16.610500 2.639200
16.642100 2.747500
16.673700 2.751400
16.705200 2.821600
16.736800 2.912800
16.768300 3.273000
16.799900 3.251000
16.831500 3.372200
16.863000 3.566600
16.894600 3.286200
16.926200 3.308400
16.957700 3.752900
16.989300 3.360500
17.020900 3.186200
17.052400 3.024300
17.084000 2.964000
17.115500 2.894600
17.147100 2.936000
17.178700 3.245800
17.210200 2.840700
17.241800 2.820700
17.273400 2.864500
17.304900 2.899200
17.336500 3.000100
17.368100 3.190900
17.399600 3.231900
17.431200 3.211800
17.462700 3.228100
17.494300 3.327100
17.525900 3.404000
17.557400 3.432200
17.589000 3.475600
17.620600 3.428300
17.652100 3.453200
17.683700 3.396400
17.715300 3.353600
17.746800 3.304000
17.778400 3.344700
17.809900 3.388500
17.841500 3.427600
17.873100 3.464600
17.904600 3.567000
17.936200 3.510100
17.967800 3.430000
17.999300 3.262600
18.030900 3.099200
18.062500 2.995600
18.094000 2.959400
18.125600 3.047100
18.157100 3.173900
18.188700 3.139900
18.220300 3.073000
