set title 'mp-1008395 - Density of States'
set xlabel 'Energy (eV)'
set ylabel 'DOS (states/eV)'
set grid
set xrange [-10:10]
set yrange [0:2.713]
set xzeroaxis lt -1
set terminal png size 800,600
set output 'mp-1008395_dos_gnuplot.png'
plot '-' using 1:2 with lines title 'DOS'
-16.716900 0.000000
-16.665900 0.000000
-16.614900 0.000000
-16.563900 0.000000
-16.512900 0.000000
-16.462000 0.000000
-16.411000 0.000000
-16.360000 0.000000
-16.309000 0.000000
-16.258000 0.000000
-16.207000 0.000000
-16.156000 0.000000
-16.105000 0.000000
-16.054100 0.000000
-16.003100 0.000000
-15.952100 0.000000
-15.901100 0.000000
-15.850100 0.000000
-15.799100 0.000000
-15.748100 0.000000
-15.697200 0.000000
-15.646200 0.000000
-15.595200 0.000000
-15.544200 0.000000
-15.493200 0.000000
-15.442200 0.000000
-15.391200 0.000000
-15.340200 0.000000
-15.289300 0.000000
-15.238300 0.000000
-15.187300 0.000000
-15.136300 0.000000
-15.085300 0.000000
-15.034300 0.000000
-14.983300 0.000000
-14.932400 0.000000
-14.881400 0.000000
-14.830400 0.000000
-14.779400 0.000000
-14.728400 0.000000
-14.677400 0.000000
-14.626400 0.000000
-14.575500 0.000000
-14.524500 0.000000
-14.473500 0.000000
-14.422500 0.000000
-14.371500 0.000000
-14.320500 0.000000
-14.269500 0.000000
-14.218500 0.000000
-14.167600 0.000000
-14.116600 0.000000
-14.065600 0.000000
-14.014600 0.000000
-13.963600 0.000000
-13.912600 0.000000
-13.861600 0.000000
-13.810700 0.000000
-13.759700 0.000000
-13.708700 0.000000
-13.657700 0.000000
-13.606700 0.000000
-13.555700 0.000000
-13.504700 0.000000
-13.453700 0.000000
-13.402800 0.000000
-13.351800 0.000000
-13.300800 0.000000
-13.249800 0.000000
-13.198800 0.000000
-13.147800 0.000000
-13.096800 0.000000
-13.045900 0.000000
-12.994900 0.000000
-12.943900 0.000000
-12.892900 0.000000
-12.841900 0.000000
-12.790900 0.000000
-12.739900 0.000000
-12.688900 0.000000
-12.638000 0.000000
-12.587000 0.000000
-12.536000 0.000000
-12.485000 0.000000
-12.434000 0.000000
-12.383000 0.000000
-12.332000 0.000000
-12.281100 0.000000
-12.230100 0.000000
-12.179100 0.000500
-12.128100 0.014400
-12.077100 0.071800
-12.026100 0.063500
-11.975100 0.032600
-11.924100 0.049300
-11.873200 0.145500
-11.822200 0.332700
-11.771200 0.176300
-11.720200 0.159400
-11.669200 0.126800
-11.618200 0.081800
-11.567200 0.075500
-11.516300 0.101000
-11.465300 0.176300
-11.414300 0.268400
-11.363300 0.632300
-11.312300 0.355100
-11.261300 0.039600
-11.210300 0.038300
-11.159300 0.288000
-11.108400 0.465900
-11.057400 0.236400
-11.006400 0.182100
-10.955400 0.175300
-10.904400 0.310600
-10.853400 0.297600
-10.802400 0.366300
-10.751500 0.296700
-10.700500 0.437500
-10.649500 0.413100
-10.598500 0.102900
-10.547500 0.100900
-10.496500 0.486800
-10.445500 0.833900
-10.394500 0.464000
-10.343600 0.140800
-10.292600 0.179100
-10.241600 0.171500
-10.190600 0.173200
-10.139600 0.211400
-10.088600 0.631200
-10.037600 0.966900
-9.986700 0.914700
-9.935700 0.513600
-9.884700 0.234500
-9.833700 0.308500
-9.782700 0.679500
-9.731700 0.577100
-9.680700 0.250000
-9.629700 0.293000
-9.578800 0.316400
-9.527800 0.216000
-9.476800 0.196500
-9.425800 0.436400
-9.374800 0.735700
-9.323800 0.851200
-9.272800 0.531500
-9.221900 0.425100
-9.170900 0.527400
-9.119900 0.823100
-9.068900 0.760300
-9.017900 0.230100
-8.966900 0.026200
-8.915900 0.128000
-8.864900 0.332600
-8.814000 0.286000
-8.763000 0.417500
-8.712000 0.586900
-8.661000 1.013200
-8.610000 0.717200
-8.559000 0.250000
-8.508000 0.274800
-8.457100 0.835500
-8.406100 0.587900
-8.355100 0.199800
-8.304100 0.140500
-8.253100 0.026100
-8.202100 0.013000
-8.151100 0.179200
-8.100100 0.513200
-8.049200 0.567000
-7.998200 0.880900
-7.947200 1.036600
-7.896200 0.793400
-7.845200 0.590400
-7.794200 0.530300
-7.743200 0.363100
-7.692300 0.230400
-7.641300 0.330200
-7.590300 0.968000
-7.539300 0.910700
-7.488300 0.542100
-7.437300 0.603200
-7.386300 0.623900
-7.335300 0.944900
-7.284400 1.465900
-7.233400 0.839000
-7.182400 0.647200
-7.131400 1.133700
-7.080400 0.852700
-7.029400 0.646900
-6.978400 0.465600
-6.927500 0.319800
-6.876500 0.479800
-6.825500 0.813500
-6.774500 0.748700
-6.723500 0.635900
-6.672500 0.511700
-6.621500 0.358300
-6.570500 0.317400
-6.519600 0.413100
-6.468600 0.520400
-6.417600 0.346200
-6.366600 0.083700
-6.315600 0.169700
-6.264600 0.394100
-6.213600 0.476000
-6.162700 0.318700
-6.111700 0.246100
-6.060700 0.528400
-6.009700 0.701300
-5.958700 0.880900
-5.907700 0.768600
-5.856700 0.807200
-5.805700 0.727900
-5.754800 0.212100
-5.703800 0.320300
-5.652800 0.518100
-5.601800 0.457400
-5.550800 0.269100
-5.499800 0.275200
-5.448800 0.417900
-5.397900 0.543000
-5.346900 0.305700
-5.295900 0.299000
-5.244900 0.508700
-5.193900 0.362700
-5.142900 0.148800
-5.091900 0.353500
-5.040900 0.394300
-4.990000 0.379300
-4.939000 0.519500
-4.888000 0.644400
-4.837000 0.803100
-4.786000 1.143900
-4.735000 1.482300
-4.684000 1.199600
-4.633100 0.907300
-4.582100 1.395300
-4.531100 1.301100
-4.480100 1.133300
-4.429100 1.024900
-4.378100 0.366800
-4.327100 0.492800
-4.276100 0.851000
-4.225200 0.815100
-4.174200 0.864300
-4.123200 0.536700
-4.072200 0.233900
-4.021200 0.302000
-3.970200 0.493500
-3.919200 0.308400
-3.868300 0.366900
-3.817300 0.668700
-3.766300 0.947900
-3.715300 0.917700
-3.664300 1.005200
-3.613300 0.779900
-3.562300 0.455600
-3.511300 0.524700
-3.460400 0.774500
-3.409400 0.726600
-3.358400 1.163500
-3.307400 1.214600
-3.256400 0.802600
-3.205400 0.265200
-3.154400 0.334000
-3.103500 0.770700
-3.052500 0.574000
-3.001500 0.544900
-2.950500 0.871500
-2.899500 0.770800
-2.848500 0.540100
-2.797500 0.800200
-2.746500 1.069000
-2.695600 1.001900
-2.644600 1.291200
-2.593600 0.887600
-2.542600 0.620700
-2.491600 0.488000
-2.440600 0.336900
-2.389600 0.142200
-2.338700 0.191300
-2.287700 0.487000
-2.236700 0.549400
-2.185700 0.460800
-2.134700 0.437700
-2.083700 0.395100
-2.032700 0.365800
-1.981800 0.597800
-1.930800 0.571000
-1.879800 0.255700
-1.828800 0.540700
-1.777800 0.925700
-1.726800 0.818100
-1.675800 1.116700
-1.624800 1.116400
-1.573900 1.106000
-1.522900 1.505200
-1.471900 1.260300
-1.420900 0.782000
-1.369900 0.244100
-1.318900 0.246600
-1.267900 0.834100
-1.217000 1.044100
-1.166000 0.933200
-1.115000 0.739000
-1.064000 0.204900
-1.013000 0.048100
-0.962000 0.413100
-0.911000 1.113300
-0.860000 1.303000
-0.809100 1.006100
-0.758100 0.666200
-0.707100 0.197800
-0.656100 0.319300
-0.605100 0.780200
-0.554100 0.869000
-0.503100 1.340400
-0.452200 1.327300
-0.401200 1.171200
-0.350200 1.256600
-0.299200 1.090200
-0.248200 0.803800
-0.197200 0.633300
-0.146200 0.856800
-0.095200 0.594200
-0.044300 0.765400
0.006700 1.086500
0.057700 1.387100
0.108700 1.540100
0.159700 0.897900
0.210700 0.581600
0.261700 0.940700
0.312600 1.155000
0.363600 0.974500
0.414600 0.697800
0.465600 0.553100
0.516600 0.554100
0.567600 0.927700
0.618600 1.253500
0.669600 0.807000
0.720500 0.622400
0.771500 1.011700
0.822500 1.213400
0.873500 1.190600
0.924500 1.072900
0.975500 0.959600
1.026500 1.156200
1.077400 1.186900
1.128400 1.034600
1.179400 1.067200
1.230400 0.730000
1.281400 0.660200
1.332400 1.117900
1.383400 1.325300
1.434400 1.038400
1.485300 0.867400
1.536300 0.719000
1.587300 0.677200
1.638300 0.527800
1.689300 0.620600
1.740300 1.493200
1.791300 1.333300
1.842200 1.019300
1.893200 0.907800
1.944200 1.144400
1.995200 1.214600
2.046200 1.006500
2.097200 1.151200
2.148200 1.163900
2.199200 0.910100
2.250100 0.881600
2.301100 1.337700
2.352100 1.423000
2.403100 1.141200
2.454100 1.469000
2.505100 1.380600
2.556100 1.318500
2.607000 0.876400
2.658000 0.913500
2.709000 1.490500
2.760000 1.335100
2.811000 1.152700
2.862000 1.685300
2.913000 1.239200
2.964000 0.964500
3.014900 1.015700
3.065900 1.403600
3.116900 1.624800
3.167900 1.729200
3.218900 0.946300
3.269900 0.766300
3.320900 1.166700
3.371800 1.325200
3.422800 0.727100
3.473800 1.141200
3.524800 2.104400
3.575800 2.316700
3.626800 1.920600
3.677800 1.750600
3.728800 2.140800
3.779700 2.139600
3.830700 1.514200
3.881700 0.817000
3.932700 0.396600
3.983700 0.286500
4.034700 0.649900
4.085700 0.795300
4.136600 0.848300
4.187600 1.115000
4.238600 1.560500
4.289600 2.338400
4.340600 2.414600
4.391600 1.495500
4.442600 0.751900
4.493600 0.508900
4.544500 0.965300
4.595500 1.159800
4.646500 1.755400
4.697500 2.235100
4.748500 2.115200
4.799500 2.180800
4.850500 1.478500
4.901400 0.760600
4.952400 1.021500
5.003400 1.725500
5.054400 1.631500
5.105400 1.174000
5.156400 1.732700
5.207400 1.577100
5.258400 0.985100
5.309300 1.309900
5.360300 1.223900
5.411300 0.871700
5.462300 1.548000
5.513300 2.337300
5.564300 2.466200
5.615300 1.734100
5.666200 1.431900
5.717200 1.276300
5.768200 0.762100
5.819200 1.007300
5.870200 1.985900
5.921200 2.204000
5.972200 1.899000
6.023200 1.270900
6.074100 0.919800
6.125100 1.017200
6.176100 1.098900
6.227100 1.055600
6.278100 1.572000
6.329100 1.274700
6.380100 0.667000
6.431000 1.060800
6.482000 1.169300
6.533000 1.130200
6.584000 1.151400
6.635000 0.886500
6.686000 0.963300
6.737000 1.509700
6.788000 1.725300
6.838900 1.311600
6.889900 0.545000
6.940900 0.246300
6.991900 0.253200
7.042900 0.192400
7.093900 0.114200
7.144900 0.238700
7.195800 0.617500
7.246800 0.900700
7.297800 0.815000
7.348800 0.921200
7.399800 0.889400
7.450800 0.694200
7.501800 0.654100
7.552800 0.478300
7.603700 0.448100
7.654700 0.327200
7.705700 0.080100
7.756700 0.185300
7.807700 0.429600
7.858700 0.220500
7.909700 0.168900
7.960600 0.646500
8.011600 0.903800
8.062600 0.486400
8.113600 0.208500
8.164600 0.139500
8.215600 0.288400
8.266600 0.274000
8.317600 0.104200
8.368500 0.028400
8.419500 0.115600
8.470500 0.314200
8.521500 0.282700
8.572500 0.054300
8.623500 0.027500
8.674500 0.164900
8.725400 0.271400
8.776400 0.145500
8.827400 0.026000
8.878400 0.066900
8.929400 0.143900
8.980400 0.085300
9.031400 0.033600
9.082400 0.079500
9.133300 0.049600
9.184300 0.005200
9.235300 0.000100
9.286300 0.000000
9.337300 0.000000
9.388300 0.000000
9.439300 0.000000
9.490200 0.000000
9.541200 0.000000
9.592200 0.000000
9.643200 0.000000
9.694200 0.000000
9.745200 0.000000
9.796200 0.000000
9.847200 0.000000
9.898100 0.000000
9.949100 0.000000
10.000100 0.000000
10.051100 0.000000
10.102100 0.000000
10.153100 0.000000
10.204100 0.000000
10.255000 0.000000
10.306000 0.000000
10.357000 0.000000
10.408000 0.000000
10.459000 0.000000
10.510000 0.000000
10.561000 0.000000
10.612000 0.000000
10.662900 0.000000
10.713900 0.000000
10.764900 0.000000
10.815900 0.000000
10.866900 0.000000
10.917900 0.000000
10.968900 0.000000
11.019800 0.000000
11.070800 0.000000
11.121800 0.000000
11.172800 0.000000
11.223800 0.000000
11.274800 0.000000
11.325800 0.000000
11.376700 0.000000
11.427700 0.000000
11.478700 0.000000
11.529700 0.000000
11.580700 0.000300
11.631700 0.007900
11.682700 0.036700
11.733700 0.029500
11.784600 0.004000
11.835600 0.000100
11.886600 0.000000
11.937600 0.000000
11.988600 0.000300
12.039600 0.016000
12.090600 0.123200
12.141500 0.221800
12.192500 0.197400
12.243500 0.064900
12.294500 0.004000
12.345500 0.000000
12.396500 0.001900
12.447500 0.057100
12.498500 0.283700
12.549400 0.246800
12.600400 0.037300
12.651400 0.000900
12.702400 0.000000
12.753400 0.000000
12.804400 0.000100
12.855400 0.007400
12.906300 0.119700
12.957300 0.359400
13.008300 0.200000
13.059300 0.025000
13.110300 0.076900
13.161300 0.213600
13.212300 0.343900
13.263300 0.363700
13.314200 0.205600
13.365200 0.096300
13.416200 0.175300
13.467200 0.292300
13.518200 0.645400
13.569200 0.551000
13.620200 0.638200
13.671100 0.825100
13.722100 0.747100
13.773100 0.983400
13.824100 1.145100
13.875100 0.566300
13.926100 1.053300
13.977100 1.759300
14.028100 1.899800
14.079000 1.695900
14.130000 1.356600
14.181000 1.118200
14.232000 0.872200
14.283000 1.191100
14.334000 1.470700
14.385000 1.324600
14.435900 1.294100
14.486900 0.734900
14.537900 1.304400
14.588900 1.806300
14.639900 1.475800
14.690900 1.023400
14.741900 1.111700
14.792900 1.592300
14.843800 1.544200
14.894800 1.365700
14.945800 1.833000
14.996800 1.905100
15.047800 1.276800
15.098800 1.307200
15.149800 1.672600
15.200700 2.100600
15.251700 1.120500
15.302700 0.611100
15.353700 1.209600
15.404700 1.637900
15.455700 1.492500
15.506700 1.404800
15.557700 1.668900
15.608600 1.975700
15.659600 1.823000
15.710600 2.437700
15.761600 3.217200
15.812600 2.250700
15.863600 1.506900
15.914600 1.348600
15.965500 1.174800
16.016500 1.629300
16.067500 2.118200
16.118500 1.837400
16.169500 1.502900
16.220500 0.879100
16.271500 1.046600
16.322500 1.833100
16.373400 1.733100
16.424400 1.502800
16.475400 1.535300
16.526400 0.861700
16.577400 0.399700
16.628400 0.923100
16.679400 1.583900
16.730300 1.227400
16.781300 0.843300
16.832300 0.951800
16.883300 1.152800
16.934300 1.268500
16.985300 0.755600
17.036300 0.751100
17.087300 1.091500
17.138200 1.220400
17.189200 0.984600
17.240200 0.751800
17.291200 0.995100
17.342200 1.785300
17.393200 2.281300
17.444200 1.948100
17.495100 1.403300
17.546100 1.263400
17.597100 1.073600
17.648100 1.294300
17.699100 1.813800
17.750100 1.735200
17.801100 0.871600
17.852100 0.863700
17.903000 0.917200
17.954000 0.552300
18.005000 0.712400
18.056000 0.722600
18.107000 0.514200
18.158000 0.494800
18.209000 0.879100
18.259900 1.238300
18.310900 0.979200
18.361900 1.290200
18.412900 1.007800
18.463900 0.563800
18.514900 0.672400
18.565900 0.928600
18.616900 1.155300
18.667800 0.859100
18.718800 1.022000
18.769800 1.441200
18.820800 1.283500
18.871800 1.659200
18.922800 1.745600
18.973800 1.190200
19.024700 1.701600
19.075700 2.618700
19.126700 2.093800
19.177700 1.162000
19.228700 0.573100
19.279700 0.768800
19.330700 0.742600
19.381700 1.120900
19.432600 1.520900
19.483600 2.044100
19.534600 1.630800
19.585600 1.215700
19.636600 1.316300
19.687600 1.026600
19.738600 0.792300
19.789500 1.170500
19.840500 1.129400
19.891500 1.291500
19.942500 1.271700
19.993500 1.705800
20.044500 2.550700
20.095500 2.147400
20.146500 1.696200
20.197400 2.148900
20.248400 2.083800
20.299400 1.928200
20.350400 1.332200
20.401400 0.437600
20.452400 0.639300
20.503400 0.991700
20.554300 0.890100
20.605300 1.092000
20.656300 1.239500
20.707300 1.427800
20.758300 1.322600
20.809300 0.744400
20.860300 0.552100
20.911300 1.295300
20.962200 1.923700
21.013200 1.944200
21.064200 1.791400
21.115200 1.983100
21.166200 1.821900
21.217200 1.090200
21.268200 1.096800
21.319100 0.678000
21.370100 0.837800
21.421100 0.726000
21.472100 0.534400
21.523100 1.007600
21.574100 0.870000
21.625100 0.652000
21.676100 1.339600
21.727000 1.596000
21.778000 1.036600
21.829000 0.953900
21.880000 1.298300
21.931000 1.513200
21.982000 1.246000
22.033000 0.921200
22.083900 0.818200
22.134900 0.903400
22.185900 1.087400
22.236900 0.899000
22.287900 0.797700
22.338900 0.865000
22.389900 0.766700
22.440900 0.749100
22.491800 1.097700
22.542800 1.053700
22.593800 0.706000
22.644800 0.868100
22.695800 0.905400
22.746800 0.891100
22.797800 1.083800
22.848700 0.934900
22.899700 0.728400
22.950700 0.750800
23.001700 0.857800
23.052700 1.363300
23.103700 1.459200
23.154700 1.351700
23.205700 1.777100
23.256600 2.133400
23.307600 1.534700
23.358600 1.505000
23.409600 2.337600
23.460600 2.471800
23.511600 2.024900
23.562600 1.114100
23.613500 0.792600
23.664500 1.318400
23.715500 1.401300
23.766500 1.033400
23.817500 1.241900
23.868500 1.716300
23.919500 2.093400
23.970400 2.223400
24.021400 2.117100
24.072400 2.550900
24.123400 3.450700
24.174400 2.719500
24.225400 1.010500
24.276400 0.735700
24.327400 0.942700
24.378300 1.205300
24.429300 1.622500
24.480300 1.704100
24.531300 1.384700
24.582300 1.211700
24.633300 1.205400
24.684300 1.409600
24.735200 1.691400
24.786200 1.539800
24.837200 1.451900
24.888200 1.642100
24.939200 1.905500
24.990200 1.470000
25.041200 1.401400
25.092200 1.513700
25.143100 1.136800
25.194100 1.432200
25.245100 1.775600
25.296100 1.168200
25.347100 0.619700
25.398100 0.692200
25.449100 0.860300
25.500000 1.159100
25.551000 1.838300
25.602000 2.576600
25.653000 2.400000
25.704000 1.635800
25.755000 0.766900
25.806000 1.003500
25.857000 1.258200
25.907900 1.139700
25.958900 1.557300
26.009900 1.938500
26.060900 2.824400
26.111900 2.344500
26.162900 0.934300
26.213900 0.543700
26.264800 1.034000
26.315800 1.079400
26.366800 0.855300
26.417800 1.552900
26.468800 2.316400
26.519800 1.975200
26.570800 1.139500
26.621800 1.188300
26.672700 1.541900
26.723700 1.090700
26.774700 1.084900
26.825700 1.405300
26.876700 1.586200
26.927700 1.480600
26.978700 1.291700
27.029600 0.906000
27.080600 0.655000
27.131600 1.162200
27.182600 1.341100
27.233600 0.999100
27.284600 1.281700
27.335600 1.876500
27.386600 2.458800
27.437500 1.766800
27.488500 1.327100
27.539500 1.122800
27.590500 1.000800
27.641500 0.853100
27.692500 1.197200
27.743500 1.395400
27.794400 1.532400
27.845400 0.969000
27.896400 0.915300
27.947400 0.718900
27.998400 0.917500
28.049400 2.033200
28.100400 1.517400
28.151400 0.631700
28.202300 1.079100
28.253300 1.469000
28.304300 1.052200
28.355300 1.207700
28.406300 1.575300
28.457300 1.379100
28.508300 1.090000
28.559200 1.208100
28.610200 0.881700
28.661200 0.782600
28.712200 0.878300
28.763200 0.452200
28.814200 0.196700
28.865200 0.322800
28.916200 0.685900
28.967100 1.188500
29.018100 1.332100
29.069100 1.017200
29.120100 0.675500
29.171100 0.800300
29.222100 1.125700
29.273100 0.815700
29.324000 1.116000
29.375000 2.024000
29.426000 1.861100
29.477000 1.191700
29.528000 0.660300
29.579000 0.530000
29.630000 1.185500
29.681000 0.992100
29.731900 0.888000
29.782900 0.888900
29.833900 0.336500
29.884900 0.174000
29.935900 0.570100
29.986900 0.856500
30.037900 0.708400
30.088800 0.902400
30.139800 0.980600
30.190800 0.783500
30.241800 0.838800
30.292800 0.779000
30.343800 0.533400
30.394800 0.889400
30.445800 1.523000
30.496700 0.953800
30.547700 0.225400
30.598700 0.075200
30.649700 0.345900
30.700700 1.058400
30.751700 0.906700
30.802700 0.407300
30.853600 0.280100
30.904600 0.509900
30.955600 0.991600
31.006600 1.150100
31.057600 0.488600
31.108600 0.168100
31.159600 0.469400
31.210600 0.539900
31.261500 0.755400
31.312500 0.798300
31.363500 0.567400
31.414500 0.619500
31.465500 1.008900
31.516500 1.405300
31.567500 1.725300
31.618400 1.617600
31.669400 1.568000
31.720400 1.480400
31.771400 1.298800
31.822400 1.212200
31.873400 1.568000
31.924400 1.375600
31.975400 0.903900
32.026300 0.913400
32.077300 1.119200
32.128300 1.132500
32.179300 0.938700
32.230300 1.632500
32.281300 2.398900
32.332300 1.662800
32.383200 1.225200
32.434200 1.343100
32.485200 1.467800
32.536200 1.362400
32.587200 1.487200
32.638200 1.102900
32.689200 0.715300
32.740200 0.885700
32.791100 0.792900
32.842100 0.732000
32.893100 1.174500
32.944100 1.154500
32.995100 1.152600
33.046100 1.305500
33.097100 1.059800
33.148000 0.594000
33.199000 0.694500
33.250000 0.966600
33.301000 0.799900
33.352000 0.461700
33.403000 0.408100
33.454000 0.510900
33.505000 0.642100
33.555900 0.953400
33.606900 1.263800
33.657900 1.451400
33.708900 1.507400
33.759900 0.900600
33.810900 0.784600
33.861900 0.987400
33.912800 1.518800
33.963800 2.421500
34.014800 1.960000
34.065800 1.578500
34.116800 1.027400
34.167800 1.430400
34.218800 1.498300
34.269800 0.938900
34.320700 0.611000
34.371700 0.943900
34.422700 1.460600
34.473700 1.108100
34.524700 0.890100
34.575700 0.883200
34.626700 1.012700
34.677600 1.107300
34.728600 0.765600
34.779600 1.193100
34.830600 1.560900
34.881600 0.948300
34.932600 0.979900
34.983600 1.088600
35.034600 1.020800
35.085500 0.687300
35.136500 1.022200
35.187500 0.736200
35.238500 0.621100
35.289500 0.718300
35.340500 0.615900
35.391500 0.560000
35.442400 0.935900
35.493400 1.348100
35.544400 1.257100
35.595400 0.715300
35.646400 0.774100
35.697400 1.479000
35.748400 1.431200
35.799400 1.344500
35.850300 1.049000
35.901300 0.549100
35.952300 0.970700
36.003300 1.536600
36.054300 1.434900
36.105300 0.737600
36.156300 0.442000
36.207200 0.400900
36.258200 0.449000
36.309200 0.325700
