set title 'mp-1184010 - Density of States'
set xlabel 'Energy (eV)'
set ylabel 'DOS (states/eV)'
set grid
set xrange [-10:10]
set yrange [0:4.883]
set xzeroaxis lt -1
set terminal png size 800,600
set output 'mp-1184010_dos_gnuplot.png'
plot '-' using 1:2 with lines title 'DOS'
-12.670300 0.000000
-12.650500 0.000000
-12.630800 0.000000
-12.611000 0.000000
-12.591300 0.000000
-12.571600 0.000000
-12.551800 0.000000
-12.532100 0.000000
-12.512400 0.000000
-12.492600 0.000000
-12.472900 0.000000
-12.453200 0.000000
-12.433400 0.000000
-12.413700 0.000000
-12.394000 0.000000
-12.374200 0.000000
-12.354500 0.000000
-12.334800 0.000000
-12.315000 0.000000
-12.295300 0.000000
-12.275600 0.000000
-12.255800 0.000000
-12.236100 0.000000
-12.216300 0.000000
-12.196600 0.000000
-12.176900 0.000000
-12.157100 0.000000
-12.137400 0.000000
-12.117700 0.000000
-12.097900 0.000000
-12.078200 0.000000
-12.058500 0.000000
-12.038700 0.000000
-12.019000 0.000000
-11.999300 0.000000
-11.979500 0.000000
-11.959800 0.000000
-11.940100 0.000000
-11.920300 0.000000
-11.900600 0.000000
-11.880900 0.000000
-11.861100 0.000000
-11.841400 0.000000
-11.821600 0.000000
-11.801900 0.000000
-11.782200 0.000000
-11.762400 0.000000
-11.742700 0.000000
-11.723000 0.000000
-11.703200 0.000000
-11.683500 0.000000
-11.663800 0.000000
-11.644000 0.000000
-11.624300 0.000000
-11.604600 0.000000
-11.584800 0.000000
-11.565100 0.000000
-11.545400 0.000000
-11.525600 0.000000
-11.505900 0.000000
-11.486200 0.000000
-11.466400 0.000000
-11.446700 0.000000
-11.426900 0.000000
-11.407200 0.000000
-11.387500 0.000000
-11.367700 0.000000
-11.348000 0.000000
-11.328300 0.000000
-11.308500 0.000000
-11.288800 0.000000
-11.269100 0.000000
-11.249300 0.000000
-11.229600 0.000000
-11.209900 0.000000
-11.190100 0.000000
-11.170400 0.000000
-11.150700 0.000000
-11.130900 0.000000
-11.111200 0.000000
-11.091500 0.000000
-11.071700 0.000000
-11.052000 0.000000
-11.032200 0.000000
-11.012500 0.000300
-10.992800 0.002500
-10.973000 0.018100
-10.953300 0.102600
-10.933600 0.455000
-10.913800 1.617400
-10.894100 4.737100
-10.874400 11.721000
-10.854600 24.891700
-10.834900 45.611300
-10.815200 72.238200
-10.795400 99.666000
-10.775700 121.903000
-10.756000 134.714600
-10.736200 135.233600
-10.716500 121.855200
-10.696800 97.673500
-10.677000 72.405100
-10.657300 57.914800
-10.637500 61.026700
-10.617800 78.790200
-10.598100 98.057200
-10.578300 102.239300
-10.558600 84.412400
-10.538900 53.822200
-10.519100 26.146400
-10.499400 9.598000
-10.479700 2.648100
-10.459900 0.547100
-10.440200 0.084400
-10.420500 0.009700
-10.400700 0.000800
-10.381000 0.000100
-10.361300 0.000000
-10.341500 0.000000
-10.321800 0.000000
-10.302100 0.000000
-10.282300 0.000000
-10.262600 0.000000
-10.242800 0.000000
-10.223100 0.000000
-10.203400 0.000000
-10.183600 0.000000
-10.163900 0.000000
-10.144200 0.000000
-10.124400 0.000000
-10.104700 0.000000
-10.085000 0.000000
-10.065200 0.000000
-10.045500 0.000000
-10.025800 0.000000
-10.006000 0.000000
-9.986300 0.000000
-9.966600 0.000000
-9.946800 0.000000
-9.927100 0.000000
-9.907400 0.000000
-9.887600 0.000000
-9.867900 0.000000
-9.848100 0.000000
-9.828400 0.000000
-9.808700 0.000000
-9.788900 0.000000
-9.769200 0.000000
-9.749500 0.000000
-9.729700 0.000000
-9.710000 0.000000
-9.690300 0.000000
-9.670500 0.000000
-9.650800 0.000000
-9.631100 0.000000
-9.611300 0.000000
-9.591600 0.000000
-9.571900 0.000000
-9.552100 0.000000
-9.532400 0.000000
-9.512700 0.000000
-9.492900 0.000000
-9.473200 0.000000
-9.453400 0.000000
-9.433700 0.000000
-9.414000 0.000000
-9.394200 0.000000
-9.374500 0.000000
-9.354800 0.000000
-9.335000 0.000000
-9.315300 0.000000
-9.295600 0.000000
-9.275800 0.000000
-9.256100 0.000000
-9.236400 0.000000
-9.216600 0.000000
-9.196900 0.000000
-9.177200 0.000000
-9.157400 0.000000
-9.137700 0.000000
-9.118000 0.000000
-9.098200 0.000000
-9.078500 0.000000
-9.058800 0.000000
-9.039000 0.000000
-9.019300 0.000000
-8.999500 0.000000
-8.979800 0.000000
-8.960100 0.000000
-8.940300 0.000000
-8.920600 0.000000
-8.900900 0.000000
-8.881100 0.000000
-8.861400 0.000000
-8.841700 0.000000
-8.821900 0.000000
-8.802200 0.000000
-8.782500 0.000000
-8.762700 0.000000
-8.743000 0.000000
-8.723300 0.000000
-8.703500 0.000000
-8.683800 0.000000
-8.664100 0.000000
-8.644300 0.000000
-8.624600 0.000000
-8.604800 0.000000
-8.585100 0.000000
-8.565400 0.000000
-8.545600 0.000000
-8.525900 0.000000
-8.506200 0.000000
-8.486400 0.000000
-8.466700 0.000000
-8.447000 0.000000
-8.427200 0.000000
-8.407500 0.000000
-8.387800 0.000000
-8.368000 0.000000
-8.348300 0.000000
-8.328600 0.000000
-8.308800 0.000000
-8.289100 0.000000
-8.269400 0.000000
-8.249600 0.000000
-8.229900 0.000000
-8.210100 0.000000
-8.190400 0.000000
-8.170700 0.000000
-8.150900 0.000000
-8.131200 0.000200
-8.111500 0.001200
-8.091700 0.004800
-8.072000 0.014400
-8.052300 0.034300
-8.032500 0.068300
-8.012800 0.121400
-7.993100 0.198500
-7.973300 0.294700
-7.953600 0.384600
-7.933900 0.436200
-7.914100 0.446100
-7.894400 0.452700
-7.874700 0.494500
-7.854900 0.556700
-7.835200 0.594100
-7.815400 0.613000
-7.795700 0.686500
-7.776000 0.856000
-7.756200 1.040100
-7.736500 1.092800
-7.716800 0.978100
-7.697000 0.833100
-7.677300 0.814500
-7.657600 0.932400
-7.637800 1.082300
-7.618100 1.195000
-7.598400 1.306600
-7.578600 1.481100
-7.558900 1.681400
-7.539200 1.774800
-7.519400 1.701100
-7.499700 1.553200
-7.480000 1.451500
-7.460200 1.431600
-7.440500 1.479700
-7.420700 1.570900
-7.401000 1.653500
-7.381300 1.692400
-7.361500 1.747700
-7.341800 1.913400
-7.322100 2.159400
-7.302300 2.329500
-7.282600 2.327500
-7.262900 2.215700
-7.243100 2.131000
-7.223400 2.205900
-7.203700 2.531900
-7.183900 3.059500
-7.164200 3.531600
-7.144500 3.616800
-7.124700 3.185600
-7.105000 2.457900
-7.085300 1.835600
-7.065500 1.598600
-7.045800 1.745700
-7.026000 2.030500
-7.006300 2.152800
-6.986600 1.995100
-6.966800 1.669400
-6.947100 1.358200
-6.927400 1.185300
-6.907600 1.203500
-6.887900 1.386600
-6.868200 1.595200
-6.848400 1.636800
-6.828700 1.443900
-6.809000 1.155100
-6.789200 0.958000
-6.769500 0.919300
-6.749800 1.002200
-6.730000 1.139400
-6.710300 1.231800
-6.690600 1.171900
-6.670800 0.947400
-6.651100 0.664300
-6.631300 0.426400
-6.611600 0.255100
-6.591900 0.134500
-6.572100 0.057700
-6.552400 0.019100
-6.532700 0.004800
-6.512900 0.000900
-6.493200 0.000100
-6.473500 0.000000
-6.453700 0.000000
-6.434000 0.000000
-6.414300 0.000000
-6.394500 0.000000
-6.374800 0.000000
-6.355100 0.000000
-6.335300 0.000000
-6.315600 0.000000
-6.295900 0.000000
-6.276100 0.000000
-6.256400 0.000000
-6.236600 0.000000
-6.216900 0.000000
-6.197200 0.000000
-6.177400 0.000000
-6.157700 0.000000
-6.138000 0.000000
-6.118200 0.000000
-6.098500 0.000000
-6.078800 0.000000
-6.059000 0.000000
-6.039300 0.000000
-6.019600 0.000000
-5.999800 0.000000
-5.980100 0.000000
-5.960400 0.000000
-5.940600 0.000000
-5.920900 0.000000
-5.901200 0.000000
-5.881400 0.000000
-5.861700 0.000000
-5.841900 0.000000
-5.822200 0.000000
-5.802500 0.000000
-5.782700 0.000000
-5.763000 0.000000
-5.743300 0.000000
-5.723500 0.000000
-5.703800 0.000000
-5.684100 0.000000
-5.664300 0.000000
-5.644600 0.000000
-5.624900 0.000000
-5.605100 0.000000
-5.585400 0.000000
-5.565700 0.000000
-5.545900 0.000000
-5.526200 0.000000
-5.506500 0.000000
-5.486700 0.000000
-5.467000 0.000000
-5.447200 0.000000
-5.427500 0.000000
-5.407800 0.000000
-5.388000 0.000000
-5.368300 0.000000
-5.348600 0.000000
-5.328800 0.000000
-5.309100 0.000000
-5.289400 0.000000
-5.269600 0.000000
-5.249900 0.000000
-5.230200 0.000000
-5.210400 0.000000
-5.190700 0.000000
-5.171000 0.000000
-5.151200 0.000000
-5.131500 0.000000
-5.111800 0.000000
-5.092000 0.000000
-5.072300 0.000000
-5.052500 0.000000
-5.032800 0.000000
-5.013100 0.000000
-4.993300 0.000000
-4.973600 0.000000
-4.953900 0.000000
-4.934100 0.000000
-4.914400 0.000000
-4.894700 0.000000
-4.874900 0.000000
-4.855200 0.000000
-4.835500 0.000000
-4.815700 0.000000
-4.796000 0.000000
-4.776300 0.000000
-4.756500 0.000000
-4.736800 0.000000
-4.717100 0.000000
-4.697300 0.000000
-4.677600 0.000000
-4.657900 0.000000
-4.638100 0.000000
-4.618400 0.000000
-4.598600 0.000000
-4.578900 0.000000
-4.559200 0.000000
-4.539400 0.000000
-4.519700 0.000000
-4.500000 0.000000
-4.480200 0.000000
-4.460500 0.000000
-4.440800 0.000000
-4.421000 0.000100
-4.401300 0.000400
-4.381600 0.001800
-4.361800 0.006700
-4.342100 0.018600
-4.322400 0.040600
-4.302600 0.070600
-4.282900 0.100000
-4.263200 0.115800
-4.243400 0.109200
-4.223700 0.087600
-4.203900 0.077800
-4.184200 0.109300
-4.164500 0.188800
-4.144700 0.282800
-4.125000 0.332700
-4.105300 0.303600
-4.085500 0.218800
-4.065800 0.139300
-4.046100 0.112600
-4.026300 0.146100
-4.006600 0.212900
-3.986900 0.275100
-3.967100 0.308700
-3.947400 0.312600
-3.927700 0.301100
-3.907900 0.293400
-3.888200 0.305400
-3.868500 0.342700
-3.848700 0.396500
-3.829000 0.437700
-3.809200 0.438000
-3.789500 0.411800
-3.769800 0.401300
-3.750000 0.411000
-3.730300 0.407900
-3.710600 0.385500
-3.690800 0.374600
-3.671100 0.391900
-3.651400 0.420500
-3.631600 0.450300
-3.611900 0.518000
-3.592200 0.696600
-3.572400 1.029600
-3.552700 1.461000
-3.533000 1.826300
-3.513200 1.969400
-3.493500 1.921400
-3.473800 1.891900
-3.454000 2.002500
-3.434300 2.111300
-3.414500 2.016600
-3.394800 1.765200
-3.375100 1.611000
-3.355300 1.691300
-3.335600 1.884600
-3.315900 2.005900
-3.296100 2.026500
-3.276400 2.046100
-3.256700 2.132400
-3.236900 2.265600
-3.217200 2.368900
-3.197500 2.330700
-3.177700 2.085500
-3.158000 1.731100
-3.138300 1.463400
-3.118500 1.361000
-3.098800 1.337600
-3.079100 1.300100
-3.059300 1.244100
-3.039600 1.215900
-3.019800 1.280600
-3.000100 1.531400
-2.980400 2.034600
-2.960600 2.702500
-2.940900 3.267100
-2.921200 3.452000
-2.901400 3.173800
-2.881700 2.566700
-2.862000 1.856700
-2.842200 1.237900
-2.822500 0.830800
-2.802800 0.673000
-2.783000 0.710600
-2.763300 0.830500
-2.743600 0.935200
-2.723800 1.008500
-2.704100 1.119100
-2.684400 1.319300
-2.664600 1.514200
-2.644900 1.513700
-2.625100 1.274000
-2.605400 0.998900
-2.585700 0.915600
-2.565900 1.015400
-2.546200 1.095800
-2.526500 1.023000
-2.506700 0.874700
-2.487000 0.820300
-2.467300 0.924900
-2.447500 1.106300
-2.427800 1.241700
-2.408100 1.257500
-2.388300 1.133300
-2.368600 0.900500
-2.348900 0.661600
-2.329100 0.540900
-2.309400 0.584800
-2.289700 0.740500
-2.269900 0.911900
-2.250200 1.007200
-2.230400 0.993600
-2.210700 0.937900
-2.191000 0.929000
-2.171200 0.980700
-2.151500 1.082400
-2.131800 1.259000
-2.112000 1.463600
-2.092300 1.511100
-2.072600 1.264800
-2.052800 0.829200
-2.033100 0.444500
-2.013400 0.249000
-1.993600 0.215400
-1.973900 0.263400
-1.954200 0.369800
-1.934400 0.562400
-1.914700 0.826000
-1.895000 1.065200
-1.875200 1.194600
-1.855500 1.225600
-1.835700 1.231500
-1.816000 1.273300
-1.796300 1.375800
-1.776500 1.520300
-1.756800 1.651100
-1.737100 1.730300
-1.717300 1.767100
-1.697600 1.776900
-1.677900 1.769300
-1.658100 1.774500
-1.638400 1.810200
-1.618700 1.844400
-1.598900 1.829000
-1.579200 1.736300
-1.559500 1.581600
-1.539700 1.439800
-1.520000 1.382000
-1.500300 1.389200
-1.480500 1.382500
-1.460800 1.322500
-1.441000 1.239800
-1.421300 1.181900
-1.401600 1.170900
-1.381800 1.222800
-1.362100 1.359000
-1.342400 1.554900
-1.322600 1.710500
-1.302900 1.723000
-1.283200 1.593100
-1.263400 1.432300
-1.243700 1.340100
-1.224000 1.302800
-1.204200 1.260400
-1.184500 1.214200
-1.164800 1.193100
-1.145000 1.168100
-1.125300 1.069800
-1.105600 0.871200
-1.085800 0.629300
-1.066100 0.454000
-1.046300 0.434000
-1.026600 0.573600
-1.006900 0.804800
-0.987100 1.081200
-0.967400 1.428000
-0.947700 1.841900
-0.927900 2.201900
-0.908200 2.361100
-0.888500 2.275900
-0.868700 2.009800
-0.849000 1.682300
-0.829300 1.424700
-0.809500 1.320400
-0.789800 1.349900
-0.770100 1.399200
-0.750300 1.369800
-0.730600 1.295400
-0.710900 1.317200
-0.691100 1.547000
-0.671400 1.970900
-0.651600 2.454300
-0.631900 2.801800
-0.612200 2.873800
-0.592400 2.729300
-0.572700 2.587100
-0.553000 2.561800
-0.533200 2.550600
-0.513500 2.448800
-0.493800 2.305200
-0.474000 2.175700
-0.454300 1.988100
-0.434600 1.672500
-0.414800 1.348800
-0.395100 1.254700
-0.375400 1.481900
-0.355600 1.865100
-0.335900 2.135900
-0.316200 2.127400
-0.296400 1.857700
-0.276700 1.509300
-0.256900 1.318300
-0.237200 1.373600
-0.217500 1.509300
-0.197700 1.478600
-0.178000 1.236700
-0.158300 0.974000
-0.138500 0.892300
-0.118800 1.036600
-0.099100 1.308200
-0.079300 1.544500
-0.059600 1.612200
-0.039900 1.507300
-0.020100 1.369600
-0.000400 1.351300
0.019300 1.466200
0.039100 1.593100
0.058800 1.621600
0.078500 1.564100
0.098300 1.500700
0.118000 1.450900
0.137700 1.368200
0.157500 1.258400
0.177200 1.212500
0.197000 1.298700
0.216700 1.464300
0.236400 1.560500
0.256200 1.473400
0.275900 1.244700
0.295600 1.048000
0.315400 1.026200
0.335100 1.154800
0.354800 1.290500
0.374600 1.356000
0.394300 1.407100
0.414000 1.479800
0.433800 1.477000
0.453500 1.300100
0.473200 1.018100
0.493000 0.796300
0.512700 0.704000
0.532400 0.680700
0.552200 0.663500
0.571900 0.667000
0.591700 0.743000
0.611400 0.909700
0.631100 1.116000
0.650900 1.253500
0.670600 1.234000
0.690300 1.092100
0.710100 0.988700
0.729800 1.074900
0.749500 1.358600
0.769300 1.723600
0.789000 2.057200
0.808700 2.313800
0.828500 2.465500
0.848200 2.475800
0.867900 2.341900
0.887700 2.092900
0.907400 1.764600
0.927100 1.435900
0.946900 1.233100
0.966600 1.243400
0.986400 1.438300
1.006100 1.681400
1.025800 1.806800
1.045600 1.735600
1.065300 1.558200
1.085000 1.474100
1.104800 1.584200
1.124500 1.744500
1.144200 1.716600
1.164000 1.466500
1.183700 1.183400
1.203400 1.015400
1.223200 0.945700
1.242900 0.925300
1.262600 0.983600
1.282400 1.187700
1.302100 1.544800
1.321800 1.947300
1.341600 2.250900
1.361300 2.434200
1.381100 2.580200
1.400800 2.682700
1.420500 2.631700
1.440300 2.410700
1.460000 2.151600
1.479700 1.984100
1.499500 1.965400
1.519200 2.135800
1.538900 2.484100
1.558700 2.841500
1.578400 2.960300
1.598100 2.740700
1.617900 2.317400
1.637600 1.939800
1.657300 1.782500
1.677100 1.803700
1.696800 1.809000
1.716500 1.719200
1.736300 1.708200
1.756000 1.981700
1.775800 2.469900
1.795500 2.838500
1.815200 2.819000
1.835000 2.466500
1.854700 2.082700
1.874400 1.950800
1.894200 2.152100
1.913900 2.563500
1.933600 2.970000
1.953400 3.173100
1.973100 3.051200
1.992800 2.614500
2.012600 2.038500
2.032300 1.579000
2.052000 1.411700
2.071800 1.563500
2.091500 1.942500
2.111200 2.351500
2.131000 2.526200
2.150700 2.298800
2.170500 1.771000
2.190200 1.284700
2.209900 1.187500
2.229700 1.571400
2.249400 2.178400
2.269100 2.582400
2.288900 2.537100
2.308600 2.147900
2.328300 1.708100
2.348100 1.442000
2.367800 1.412500
2.387500 1.591000
2.407300 1.935600
2.427000 2.365600
2.446700 2.731900
2.466500 2.915300
2.486200 2.908100
2.505900 2.740500
2.525700 2.431900
2.545400 2.065800
2.565200 1.800500
2.584900 1.752800
2.604600 1.899900
2.624400 2.076300
2.644100 2.089500
2.663800 1.889500
2.683600 1.608500
2.703300 1.417800
2.723000 1.371800
2.742800 1.395900
2.762500 1.389400
2.782200 1.330600
2.802000 1.305500
2.821700 1.433000
2.841400 1.733100
2.861200 2.083500
2.880900 2.335200
2.900600 2.428600
2.920400 2.372000
2.940100 2.185800
2.959900 1.925300
2.979600 1.687700
2.999300 1.515300
3.019100 1.348800
3.038800 1.133200
3.058500 0.916900
3.078300 0.818800
3.098000 0.946600
3.117700 1.333100
3.137500 1.901000
3.157200 2.477800
3.176900 2.871300
3.196700 2.965000
3.216400 2.782900
3.236100 2.471200
3.255900 2.201000
3.275600 2.067700
3.295300 2.059700
3.315100 2.106600
3.334800 2.161700
3.354600 2.241600
3.374300 2.370800
3.394000 2.507700
3.413800 2.571900
3.433500 2.527600
3.453200 2.408300
3.473000 2.290100
3.492700 2.262500
3.512400 2.388800
3.532200 2.658900
3.551900 2.971100
3.571600 3.173200
3.591400 3.148200
3.611100 2.872900
3.630800 2.435100
3.650600 2.017400
3.670300 1.788800
3.690000 1.760400
3.709800 1.810400
3.729500 1.832200
3.749300 1.776000
3.769000 1.607000
3.788700 1.324400
3.808500 1.003700
3.828200 0.767400
3.847900 0.703200
3.867700 0.810000
3.887400 1.012300
3.907100 1.225700
3.926900 1.419700
3.946600 1.620000
3.966300 1.847400
3.986100 2.061200
4.005800 2.173900
4.025500 2.117800
4.045300 1.891000
4.065000 1.553300
4.084700 1.189400
4.104500 0.868300
4.124200 0.622700
4.144000 0.459500
4.163700 0.380600
4.183400 0.393600
4.203200 0.519100
4.222900 0.778300
4.242600 1.142600
4.262400 1.503300
4.282100 1.752400
4.301800 1.909300
4.321600 2.099000
4.341300 2.363000
4.361000 2.567100
4.380800 2.551800
4.400500 2.312500
4.420200 2.004600
4.440000 1.812100
4.459700 1.787800
4.479400 1.802500
4.499200 1.690500
4.518900 1.438200
4.538600 1.176800
4.558400 1.009100
4.578100 0.917100
4.597900 0.846000
4.617600 0.812700
4.637300 0.877400
4.657100 1.030100
4.676800 1.161200
4.696500 1.174600
4.716300 1.115000
4.736000 1.150400
4.755700 1.404300
4.775500 1.809900
4.795200 2.152800
4.814900 2.265500
4.834700 2.140300
4.854400 1.858500
4.874100 1.497800
4.893900 1.141100
4.913600 0.904600
4.933300 0.897600
4.953100 1.122700
4.972800 1.432900
4.992600 1.665300
5.012300 1.815900
5.032000 1.982900
5.051800 2.159200
5.071500 2.229600
5.091200 2.167800
5.111000 2.110600
5.130700 2.222800
5.150400 2.528000
5.170200 2.859700
5.189900 3.003100
5.209600 2.904200
5.229400 2.663100
5.249100 2.342100
5.268800 1.930900
5.288600 1.498800
5.308300 1.211700
5.328000 1.159200
5.347800 1.276700
5.367500 1.471700
5.387300 1.732500
5.407000 2.071100
5.426700 2.457900
5.446500 2.859500
5.466200 3.220300
5.485900 3.374500
5.505700 3.152400
5.525400 2.622900
5.545100 2.055700
5.564900 1.655900
5.584600 1.481900
5.604300 1.526600
5.624100 1.730200
5.643800 1.971700
5.663500 2.137800
5.683300 2.207700
5.703000 2.252500
5.722700 2.320400
5.742500 2.332500
5.762200 2.164100
5.782000 1.819100
5.801700 1.450700
5.821400 1.238200
5.841200 1.282400
5.860900 1.553700
5.880600 1.899400
5.900400 2.153800
5.920100 2.248300
5.939800 2.212100
5.959600 2.129100
5.979300 2.103500
5.999000 2.224900
6.018800 2.544900
6.038500 3.022300
6.058200 3.448200
6.078000 3.545500
6.097700 3.248800
6.117400 2.810500
6.137200 2.537000
6.156900 2.491100
6.176700 2.532300
6.196400 2.566000
6.216100 2.616700
6.235900 2.688000
6.255600 2.703100
6.275300 2.630500
6.295100 2.595100
6.314800 2.776400
6.334500 3.156000
6.354300 3.446600
6.374000 3.376400
6.393700 2.994400
6.413500 2.597400
6.433200 2.390400
6.452900 2.324500
6.472700 2.263000
6.492400 2.170500
6.512100 2.079200
6.531900 1.993000
6.551600 1.927500
6.571400 1.942800
6.591100 2.024400
6.610800 2.033900
6.630600 1.888500
6.650300 1.670300
6.670000 1.485200
6.689800 1.361400
6.709500 1.336100
6.729200 1.492200
6.749000 1.860700
6.768700 2.357000
6.788400 2.811900
6.808200 3.058800
6.827900 3.038300
6.847600 2.827500
6.867400 2.561700
6.887100 2.339700
6.906800 2.194000
6.926600 2.149200
6.946300 2.280100
6.966100 2.616800
6.985800 3.026800
7.005500 3.341600
7.025300 3.542700
7.045000 3.651100
7.064700 3.569200
7.084500 3.230400
7.104200 2.754500
7.123900 2.310600
7.143700 1.966900
7.163400 1.751000
7.183100 1.741500
7.202900 1.999500
7.222600 2.405400
7.242300 2.677100
7.262100 2.640100
7.281800 2.406400
7.301500 2.239800
7.321300 2.314800
7.341000 2.607100
7.360800 2.962300
7.380500 3.243500
7.400200 3.384600
7.420000 3.339600
7.439700 3.112500
7.459400 2.830800
7.479200 2.630200
7.498900 2.482500
7.518600 2.273700
7.538400 1.998700
7.558100 1.749800
7.577800 1.588600
7.597600 1.528600
7.617300 1.570000
7.637000 1.683300
7.656800 1.828000
7.676500 2.000600
7.696200 2.202400
7.716000 2.395300
7.735700 2.537500
7.755500 2.604600
7.775200 2.561900
7.794900 2.407300
7.814700 2.231000
7.834400 2.127300
7.854100 2.073300
7.873900 2.006900
7.893600 1.996200
7.913300 2.223000
7.933100 2.773300
7.952800 3.477200
7.972500 4.008200
7.992300 4.178300
8.012000 4.077200
8.031700 3.891600
8.051500 3.677300
