set title 'mp-1183141 - Density of States'
set xlabel 'Energy (eV)'
set ylabel 'DOS (states/eV)'
set grid
set xrange [-10:10]
set yrange [0:21.346]
set xzeroaxis lt -1
set terminal png size 800,600
set output 'mp-1183141_dos_gnuplot.png'
plot '-' using 1:2 with lines title 'DOS'
-11.618500 0.000000
-11.591800 0.000000
-11.565100 0.000000
-11.538400 0.000000
-11.511600 0.000000
-11.484900 0.000000
-11.458200 0.000000
-11.431500 0.000000
-11.404800 0.000000
-11.378000 0.000000
-11.351300 0.000000
-11.324600 0.000000
-11.297900 0.000000
-11.271200 0.000000
-11.244500 0.000000
-11.217700 0.000000
-11.191000 0.000000
-11.164300 0.000000
-11.137600 0.000000
-11.110900 0.000000
-11.084100 0.000000
-11.057400 0.000000
-11.030700 0.000000
-11.004000 0.000000
-10.977300 0.000000
-10.950500 0.000000
-10.923800 0.000000
-10.897100 0.000000
-10.870400 0.000000
-10.843700 0.000000
-10.817000 0.000000
-10.790200 0.000000
-10.763500 0.000000
-10.736800 0.000000
-10.710100 0.000000
-10.683400 0.000000
-10.656600 0.000000
-10.629900 0.000000
-10.603200 0.000000
-10.576500 0.000000
-10.549800 0.000000
-10.523100 0.000000
-10.496300 0.000000
-10.469600 0.000000
-10.442900 0.000000
-10.416200 0.000000
-10.389500 0.000000
-10.362700 0.000000
-10.336000 0.000000
-10.309300 0.000000
-10.282600 0.000000
-10.255900 0.000000
-10.229200 0.000000
-10.202400 0.000000
-10.175700 0.000000
-10.149000 0.000000
-10.122300 0.000000
-10.095600 0.000000
-10.068800 0.000000
-10.042100 0.000000
-10.015400 0.000000
-9.988700 0.000000
-9.962000 0.000000
-9.935300 0.000000
-9.908500 0.000000
-9.881800 0.000000
-9.855100 0.000000
-9.828400 0.000000
-9.801700 0.000000
-9.774900 0.000000
-9.748200 0.000000
-9.721500 0.000000
-9.694800 0.000000
-9.668100 0.000000
-9.641400 0.000000
-9.614600 0.000000
-9.587900 0.000000
-9.561200 0.000000
-9.534500 0.000000
-9.507800 0.000000
-9.481000 0.000000
-9.454300 0.000000
-9.427600 0.000000
-9.400900 0.000000
-9.374200 0.000000
-9.347500 0.000000
-9.320700 0.000000
-9.294000 0.000000
-9.267300 0.000000
-9.240600 0.000000
-9.213900 0.000000
-9.187100 0.000500
-9.160400 0.077200
-9.133700 0.211800
-9.107000 0.235300
-9.080300 0.295700
-9.053600 0.360400
-9.026800 0.410600
-9.000100 0.436900
-8.973400 0.477700
-8.946700 0.521700
-8.920000 0.566300
-8.893200 0.613900
-8.866500 0.657100
-8.839800 0.697600
-8.813100 0.740200
-8.786400 0.784000
-8.759700 0.831400
-8.732900 0.882600
-8.706200 0.935800
-8.679500 1.048100
-8.652800 1.109800
-8.626100 1.152300
-8.599300 1.198400
-8.572600 1.234800
-8.545900 1.263600
-8.519200 1.304600
-8.492500 1.352400
-8.465800 1.599100
-8.439000 1.662200
-8.412300 1.788400
-8.385600 1.910700
-8.358900 2.029300
-8.332200 2.166900
-8.305400 2.337700
-8.278700 2.568000
-8.252000 2.826700
-8.225300 3.125600
-8.198600 3.480900
-8.171900 3.928400
-8.145100 4.887200
-8.118400 4.961400
-8.091700 5.197600
-8.065000 5.630500
-8.038300 5.837400
-8.011500 6.127500
-7.984800 6.299900
-7.958100 6.588200
-7.931400 6.583700
-7.904700 7.032600
-7.878000 10.071900
-7.851200 14.959000
-7.824500 5.146800
-7.797800 0.000000
-7.771100 0.000000
-7.744400 0.000000
-7.717600 0.000000
-7.690900 0.000000
-7.664200 0.000000
-7.637500 0.000000
-7.610800 0.000000
-7.584100 0.000000
-7.557300 0.000000
-7.530600 0.000000
-7.503900 0.000000
-7.477200 0.000000
-7.450500 0.000000
-7.423700 0.000000
-7.397000 0.000000
-7.370300 0.000000
-7.343600 0.000000
-7.316900 0.000000
-7.290100 0.000000
-7.263400 0.000000
-7.236700 0.000000
-7.210000 0.000000
-7.183300 0.000000
-7.156600 0.000000
-7.129800 0.000000
-7.103100 0.000000
-7.076400 0.000000
-7.049700 0.000000
-7.023000 0.000000
-6.996200 0.000000
-6.969500 0.000000
-6.942800 0.000000
-6.916100 0.000000
-6.889400 0.000000
-6.862700 0.000000
-6.835900 0.000000
-6.809200 0.000000
-6.782500 0.000000
-6.755800 0.000000
-6.729100 0.000000
-6.702300 0.000000
-6.675600 0.000000
-6.648900 0.000000
-6.622200 0.000000
-6.595500 0.000000
-6.568800 0.000000
-6.542000 0.000000
-6.515300 0.000000
-6.488600 0.000000
-6.461900 0.000000
-6.435200 0.000000
-6.408400 0.000000
-6.381700 0.000000
-6.355000 0.000000
-6.328300 0.000000
-6.301600 0.000000
-6.274900 0.000000
-6.248100 0.000000
-6.221400 0.000000
-6.194700 0.000000
-6.168000 0.000000
-6.141300 0.000000
-6.114500 0.000000
-6.087800 0.000000
-6.061100 0.000000
-6.034400 0.000000
-6.007700 0.000000
-5.981000 0.000000
-5.954200 0.000000
-5.927500 0.000000
-5.900800 0.000000
-5.874100 0.000000
-5.847400 0.000000
-5.820600 0.000000
-5.793900 0.000000
-5.767200 0.000000
-5.740500 0.000000
-5.713800 0.000000
-5.687100 0.000000
-5.660300 0.000000
-5.633600 0.000000
-5.606900 0.000000
-5.580200 0.000000
-5.553500 0.000000
-5.526700 0.000000
-5.500000 0.000000
-5.473300 0.000000
-5.446600 0.000000
-5.419900 0.000000
-5.393200 0.000000
-5.366400 0.000000
-5.339700 0.000000
-5.313000 0.000000
-5.286300 0.000000
-5.259600 0.000000
-5.232800 0.000000
-5.206100 0.000000
-5.179400 0.000000
-5.152700 0.000000
-5.126000 0.000000
-5.099300 0.000000
-5.072500 0.000000
-5.045800 0.000000
-5.019100 0.000000
-4.992400 0.000000
-4.965700 0.000000
-4.938900 0.000000
-4.912200 0.000000
-4.885500 0.000000
-4.858800 0.000000
-4.832100 0.000000
-4.805400 0.000000
-4.778600 0.000000
-4.751900 0.000000
-4.725200 0.000000
-4.698500 0.000000
-4.671800 0.000000
-4.645000 0.000000
-4.618300 0.000000
-4.591600 0.000000
-4.564900 0.000000
-4.538200 0.000000
-4.511500 0.000000
-4.484700 0.000000
-4.458000 0.000000
-4.431300 0.000000
-4.404600 0.000000
-4.377900 0.000000
-4.351100 0.000000
-4.324400 0.000000
-4.297700 0.000000
-4.271000 0.000000
-4.244300 0.000000
-4.217600 0.000000
-4.190800 0.000000
-4.164100 0.000000
-4.137400 0.000000
-4.110700 0.000000
-4.084000 0.000000
-4.057200 0.000000
-4.030500 0.000000
-4.003800 0.000000
-3.977100 0.000000
-3.950400 0.000000
-3.923700 0.000000
-3.896900 0.000000
-3.870200 0.000000
-3.843500 0.000000
-3.816800 0.000000
-3.790100 4.589600
-3.763300 19.405600
-3.736600 14.439700
-3.709900 11.067900
-3.683200 13.932100
-3.656500 12.804300
-3.629700 11.134700
-3.603000 10.595600
-3.576300 9.600900
-3.549600 10.354000
-3.522900 10.164600
-3.496200 9.874000
-3.469400 9.578800
-3.442700 10.623100
-3.416000 10.872300
-3.389300 13.215100
-3.362600 9.347300
-3.335800 8.502900
-3.309100 9.013400
-3.282400 10.064700
-3.255700 11.310400
-3.229000 10.445400
-3.202300 10.109400
-3.175500 9.418500
-3.148800 8.194600
-3.122100 7.689800
-3.095400 7.270800
-3.068700 7.205000
-3.041900 7.360700
-3.015200 7.592700
-2.988500 7.745500
-2.961800 7.322700
-2.935100 7.165900
-2.908400 6.779600
-2.881600 7.166100
-2.854900 9.175700
-2.828200 10.723600
-2.801500 9.534900
-2.774800 9.027700
-2.748000 7.730900
-2.721300 7.739200
-2.694600 8.307900
-2.667900 8.612200
-2.641200 8.141000
-2.614500 6.086500
-2.587700 4.491900
-2.561000 3.533800
-2.534300 5.160200
-2.507600 6.160600
-2.480900 5.379400
-2.454100 5.546700
-2.427400 5.761900
-2.400700 8.207400
-2.374000 6.126300
-2.347300 7.063700
-2.320600 7.667500
-2.293800 8.931100
-2.267100 8.736800
-2.240400 10.705800
-2.213700 11.406700
-2.187000 17.589400
-2.160200 12.367200
-2.133500 12.736500
-2.106800 13.085400
-2.080100 9.797300
-2.053400 6.471100
-2.026700 5.557200
-1.999900 5.206800
-1.973200 6.519000
-1.946500 7.694300
-1.919800 7.542400
-1.893100 6.695500
-1.866300 5.940600
-1.839600 4.214800
-1.812900 3.861200
-1.786200 3.455400
-1.759500 3.001900
-1.732800 2.726400
-1.706000 2.600400
-1.679300 2.540100
-1.652600 2.490000
-1.625900 2.442200
-1.599200 2.438300
-1.572400 2.430700
-1.545700 2.257700
-1.519000 2.190600
-1.492300 2.143700
-1.465600 2.104300
-1.438900 1.987200
-1.412100 1.965100
-1.385400 1.962200
-1.358700 2.000000
-1.332000 2.090700
-1.305300 2.117700
-1.278500 2.392500
-1.251800 2.604500
-1.225100 2.860700
-1.198400 2.982200
-1.171700 2.440600
-1.145000 2.400700
-1.118200 2.313700
-1.091500 2.164300
-1.064800 2.115300
-1.038100 2.076200
-1.011400 2.048700
-0.984600 2.016300
-0.957900 1.967300
-0.931200 1.920900
-0.904500 1.915200
-0.877800 1.891100
-0.851100 1.798700
-0.824300 1.702000
-0.797600 1.518500
-0.770900 1.354000
-0.744200 1.139200
-0.717500 0.911400
-0.690700 0.901500
-0.664000 0.839100
-0.637300 0.739400
-0.610600 0.589300
-0.583900 0.435300
-0.557200 0.357200
-0.530400 0.288000
-0.503700 0.227300
-0.477000 0.179800
-0.450300 0.184100
-0.423600 0.191700
-0.396800 0.199900
-0.370100 0.208700
-0.343400 0.218000
-0.316700 0.227800
-0.290000 0.238900
-0.263300 0.883600
-0.236500 1.329000
-0.209800 2.247400
-0.183100 2.406900
-0.156400 2.764700
-0.129700 3.256800
-0.102900 3.595700
-0.076200 3.375400
-0.049500 3.175700
-0.022800 2.933200
0.003900 2.535700
0.030700 2.410600
0.057400 2.345100
0.084100 2.299700
0.110800 2.151800
0.137500 2.040600
0.164200 1.847500
0.191000 1.685200
0.217700 1.591300
0.244400 1.514700
0.271100 1.493400
0.297800 1.498100
0.324600 1.525100
0.351300 1.559600
0.378000 1.566700
0.404700 1.596200
0.431400 1.660100
0.458100 1.727200
0.484900 1.772700
0.511600 1.795300
0.538300 1.816000
0.565000 1.735700
0.591700 1.627900
0.618500 1.602100
0.645200 1.626300
0.671900 1.643300
0.698600 1.627500
0.725300 1.605200
0.752000 1.673600
0.778800 1.765400
0.805500 1.784800
0.832200 1.836400
0.858900 1.908900
0.885600 1.957500
0.912400 1.974400
0.939100 1.924200
0.965800 1.867200
0.992500 1.788300
1.019200 1.729400
1.045900 1.684000
1.072700 1.651500
1.099400 1.625100
1.126100 1.618500
1.152800 1.612000
1.179500 1.607500
1.206300 1.632600
1.233000 1.629700
1.259700 1.626500
1.286400 1.627800
1.313100 1.630200
1.339800 1.632700
1.366600 1.671300
1.393300 1.728700
1.420000 1.748800
1.446700 1.732100
1.473400 1.645400
1.500200 1.618200
1.526900 1.587400
1.553600 1.556800
1.580300 1.572400
1.607000 1.553600
1.633700 1.537100
1.660500 1.522400
1.687200 1.502400
1.713900 1.694700
1.740600 1.805500
1.767300 1.919700
1.794100 2.033800
1.820800 2.138600
1.847500 2.228300
1.874200 2.288600
1.900900 2.297600
1.927600 2.279400
1.954400 2.301000
1.981100 2.313700
2.007800 2.307600
2.034500 2.308500
2.061200 2.371200
2.088000 2.467200
2.114700 2.510400
2.141400 2.513300
2.168100 2.512600
2.194800 2.515500
2.221500 2.521800
2.248300 2.514400
2.275000 2.502700
2.301700 2.517800
2.328400 2.538400
2.355100 2.619100
2.381900 2.574700
2.408600 2.499300
2.435300 2.485600
2.462000 2.363400
2.488700 2.057000
2.515400 2.040800
2.542200 2.034800
2.568900 2.123300
2.595600 2.117900
2.622300 2.153200
2.649000 2.204500
2.675800 2.220000
2.702500 2.227000
2.729200 2.227700
2.755900 2.229500
2.782600 2.298800
2.809300 2.387400
2.836100 2.319000
2.862800 2.286300
2.889500 2.268900
2.916200 2.236500
2.942900 2.259200
2.969700 2.281600
2.996400 2.362700
3.023100 2.511900
3.049800 2.660900
3.076500 2.667200
3.103200 2.758400
3.130000 2.775400
3.156700 2.697300
3.183400 2.620400
3.210100 2.522000
3.236800 2.528000
3.263600 2.604400
3.290300 3.201500
3.317000 3.692900
3.343700 4.112500
3.370400 3.483800
3.397100 3.257600
3.423900 3.238600
3.450600 3.173900
3.477300 3.122100
3.504000 3.059300
3.530700 2.940800
3.557500 2.999600
3.584200 3.031400
3.610900 3.281800
3.637600 3.967500
3.664300 5.434900
3.691100 5.006600
3.717800 4.923800
3.744500 4.829000
3.771200 4.752300
3.797900 4.008800
3.824600 3.838700
3.851400 3.711800
3.878100 3.632600
3.904800 3.520400
3.931500 3.393300
3.958200 3.287800
3.985000 3.147200
4.011700 3.020800
4.038400 2.888800
4.065100 2.717800
4.091800 2.589300
4.118500 2.480300
4.145300 2.390000
4.172000 2.333400
4.198700 2.273000
4.225400 2.183700
4.252100 2.109600
4.278900 2.046000
4.305600 1.982800
4.332300 1.932600
4.359000 1.900500
4.385700 1.863000
4.412400 1.814200
4.439200 1.760900
4.465900 1.674500
4.492600 1.602500
4.519300 1.550400
4.546000 1.503100
4.572800 1.481300
4.599500 1.414200
4.626200 1.358000
4.652900 1.301800
4.679600 1.270700
4.706300 1.248000
4.733100 1.211300
4.759800 1.172500
4.786500 1.135000
4.813200 1.130100
4.839900 1.071300
4.866700 1.009600
4.893400 0.944600
4.920100 0.898100
4.946800 0.839300
4.973500 0.786000
5.000200 0.740200
5.027000 0.695700
5.053700 0.655600
5.080400 0.595200
5.107100 0.550900
5.133800 0.515400
5.160600 0.480300
5.187300 0.444600
5.214000 0.414800
5.240700 0.381700
5.267400 0.335300
5.294100 0.285500
5.320900 0.237200
5.347600 0.193300
5.374300 0.179900
5.401000 0.133900
5.427700 0.041100
5.454500 0.000900
5.481200 0.000000
5.507900 0.000000
5.534600 0.000000
5.561300 0.000000
5.588000 0.000000
5.614800 0.000000
5.641500 0.000000
5.668200 0.000000
5.694900 0.000000
5.721600 0.000000
5.748400 0.000000
5.775100 0.000000
5.801800 0.000000
5.828500 0.000000
5.855200 0.000000
5.881900 0.000000
5.908700 0.000000
5.935400 0.000000
5.962100 0.000000
5.988800 0.000000
6.015500 0.000000
6.042300 0.000000
6.069000 0.000000
6.095700 0.000000
6.122400 0.000000
6.149100 0.000000
6.175800 0.000000
6.202600 0.000000
6.229300 0.000000
6.256000 0.000000
6.282700 0.000000
6.309400 0.000000
6.336200 0.000000
6.362900 0.000000
6.389600 0.000000
6.416300 0.000000
6.443000 0.000000
6.469700 0.000000
6.496500 0.000000
6.523200 0.000000
6.549900 0.000000
6.576600 0.000000
6.603300 0.000200
6.630100 0.001000
6.656800 0.002700
6.683500 0.005100
6.710200 0.008300
6.736900 0.012200
6.763600 0.017000
6.790400 0.022500
6.817100 0.029200
6.843800 0.037100
6.870500 0.043700
6.897200 0.047800
6.924000 0.051400
6.950700 0.054300
6.977400 0.056700
7.004100 0.059000
7.030800 0.063500
7.057500 0.068200
7.084300 0.073000
7.111000 0.078000
7.137700 0.083000
7.164400 0.088200
7.191100 0.093500
7.217900 0.098900
7.244600 0.104300
7.271300 0.109400
7.298000 0.114200
7.324700 0.118800
7.351500 0.123800
7.378200 0.130400
7.404900 0.136100
7.431600 0.141800
7.458300 0.147600
7.485000 0.153300
7.511800 0.159100
7.538500 0.164900
7.565200 0.170700
7.591900 0.176600
7.618600 0.182500
7.645400 0.188600
7.672100 0.195100
7.698800 0.202100
7.725500 0.209600
7.752200 0.217500
7.778900 0.225700
7.805700 0.233500
7.832400 0.241000
7.859100 0.248200
7.885800 0.255500
7.912500 0.262800
7.939300 0.270000
7.966000 0.277200
7.992700 0.284400
8.019400 0.291700
8.046100 0.299100
8.072800 0.309300
8.099600 0.318700
8.126300 0.328200
8.153000 0.337900
8.179700 0.356400
8.206400 0.374100
8.233200 0.390900
8.259900 0.406700
8.286600 0.421500
8.313300 0.411600
8.340000 0.420100
8.366700 0.428500
8.393500 0.436200
8.420200 0.442900
8.446900 0.451300
8.473600 0.460500
8.500300 0.470300
8.527100 0.485900
8.553800 0.504200
8.580500 0.523900
8.607200 0.545500
8.633900 0.569700
8.660600 0.595700
8.687400 0.598300
8.714100 0.615600
8.740800 0.633300
8.767500 0.653200
8.794200 0.678700
8.821000 0.706600
8.847700 0.735900
8.874400 0.768200
8.901100 0.802300
8.927800 0.838000
8.954500 0.878800
8.981300 0.924000
9.008000 0.980000
9.034700 1.037300
9.061400 1.094000
9.088100 1.149200
9.114900 1.217800
9.141600 1.306200
9.168300 1.419300
9.195000 1.574600
9.221700 1.762300
9.248400 1.760900
9.275200 1.719800
9.301900 1.646900
9.328600 1.560000
9.355300 1.481100
9.382000 1.375000
9.408800 1.375800
9.435500 1.383500
9.462200 1.457800
9.488900 1.573800
9.515600 1.753200
9.542300 1.813300
9.569100 1.861100
9.595800 1.884900
9.622500 1.872900
9.649200 1.758200
9.675900 1.754800
9.702700 1.748300
9.729400 1.748500
9.756100 1.757700
9.782800 1.762900
9.809500 1.781600
9.836200 1.801900
9.863000 1.823500
9.889700 1.853700
9.916400 1.887800
9.943100 1.956600
9.969800 2.029100
9.996600 2.092000
10.023300 2.144200
10.050000 2.182600
10.076700 2.288100
10.103400 2.449200
10.130100 2.755500
10.156900 2.694800
10.183600 2.592200
10.210300 2.446500
10.237000 2.304000
10.263700 2.114200
10.290500 1.949900
10.317200 1.881300
10.343900 1.845200
10.370600 1.829700
10.397300 1.820400
10.424000 1.819500
10.450800 1.868800
10.477500 2.203300
10.504200 2.903000
10.530900 2.316200
10.557600 1.782700
10.584400 1.537600
10.611100 1.430100
10.637800 1.241800
10.664500 1.086600
10.691200 0.986800
10.717900 0.931600
10.744700 0.882300
10.771400 0.818700
10.798100 0.763400
10.824800 0.678400
10.851500 0.702000
10.878300 0.827300
10.905000 0.937400
10.931700 0.987200
10.958400 1.039800
10.985100 1.063100
11.011900 1.093600
11.038600 1.030100
11.065300 1.036100
11.092000 1.052400
11.118700 1.085800
11.145400 1.119100
11.172200 1.151100
11.198900 1.184300
11.225600 1.225100
11.252300 1.286200
11.279000 1.365200
11.305800 1.450100
11.332500 1.589400
11.359200 1.748300
11.385900 2.010400
11.412600 2.095200
11.439300 2.130600
11.466100 2.327800
11.492800 2.438100
11.519500 2.605300
11.546200 2.805800
11.572900 2.862000
11.599700 2.775400
11.626400 2.760000
11.653100 2.706200
11.679800 2.631000
11.706500 2.523700
11.733200 2.840800
11.760000 2.807400
11.786700 2.369100
11.813400 3.147600
11.840100 2.697500
11.866800 2.622300
11.893600 2.602600
11.920300 3.147300
11.947000 3.781300
11.973700 4.293500
12.000400 4.562000
12.027100 4.888300
12.053900 5.286600
12.080600 5.527000
12.107300 6.280700
12.134000 6.855900
12.160700 9.792200
12.187500 5.769600
12.214200 3.153800
12.240900 2.861600
12.267600 1.032900
12.294300 0.898500
12.321000 0.822400
12.347800 0.779700
12.374500 0.742200
12.401200 0.705700
12.427900 0.741100
12.454600 0.588900
12.481400 0.462700
12.508100 0.405200
12.534800 0.373000
12.561500 0.359500
12.588200 0.346100
12.614900 0.333000
12.641700 0.320100
12.668400 0.553700
12.695100 0.582600
12.721800 0.605500
12.748500 0.642800
12.775300 0.680500
12.802000 0.710100
12.828700 0.729100
12.855400 0.743700
12.882100 0.767300
12.908800 0.787100
12.935600 0.797300
12.962300 0.814000
12.989000 0.840400
13.015700 0.868800
13.042400 0.900600
13.069200 0.936700
13.095900 0.975800
13.122600 1.022700
13.149300 1.071500
13.176000 1.122500
13.202700 1.175200
13.229500 1.229500
13.256200 1.287800
13.282900 1.444600
13.309600 1.651700
13.336300 1.843000
13.363100 2.053300
13.389800 2.265300
13.416500 2.525000
13.443200 2.828100
13.469900 3.266000
13.496600 3.655800
13.523400 4.085600
13.550100 3.709800
13.576800 3.084600
13.603500 3.138100
13.630200 3.212500
13.657000 3.302600
13.683700 3.386900
13.710400 3.517400
13.737100 3.627300
13.763800 3.731000
13.790500 3.740800
13.817300 3.766500
13.844000 3.723700
13.870700 3.569800
13.897400 3.444700
13.924100 3.326300
13.950900 3.205200
13.977600 3.049800
14.004300 3.020800
14.031000 3.008000
14.057700 3.128900
14.084400 3.234900
14.111200 3.365500
14.137900 3.204800
14.164600 2.945600
14.191300 2.370900
14.218000 2.383900
14.244800 2.073500
14.271500 1.935100
14.298200 1.822800
14.324900 1.786100
14.351600 1.900300
14.378300 2.226400
14.405100 2.556300
14.431800 2.733900
14.458500 2.855000
14.485200 2.917700
14.511900 2.793000
14.538700 2.888600
14.565400 2.887500
14.592100 2.860800
14.618800 2.841700
14.645500 2.896000
14.672300 2.954900
14.699000 3.070600
14.725700 3.158300
14.752400 3.273400
14.779100 3.933700
14.805800 3.581500
14.832600 3.421700
14.859300 3.366000
14.886000 3.324500
14.912700 3.330400
14.939400 3.454500
14.966200 2.699000
14.992900 2.098500
15.019600 1.947100
15.046300 1.872700
15.073000 1.795500
15.099700 1.722000
15.126500 1.655500
15.153200 1.591300
15.179900 1.518000
15.206600 1.470300
15.233300 1.435000
15.260100 1.402800
15.286800 1.374300
15.313500 1.352500
15.340200 1.382600
15.366900 1.373600
15.393600 1.358400
15.420400 1.337300
15.447100 1.406800
15.473800 1.134800
15.500500 1.073400
15.527200 1.007700
15.554000 0.959900
15.580700 0.937200
15.607400 0.933400
15.634100 0.935700
15.660800 0.941400
15.687500 0.947600
15.714300 0.963900
15.741000 0.984200
15.767700 0.997000
15.794400 1.063400
15.821100 1.153000
15.847900 1.059100
15.874600 1.071700
15.901300 1.085100
15.928000 1.076400
15.954700 1.064600
15.981400 1.049800
16.008200 1.046300
16.034900 1.047300
16.061600 1.021200
16.088300 1.032900
16.115000 1.040400
16.141800 1.042300
16.168500 1.036800
16.195200 1.028600
16.221900 1.020900
16.248600 1.016100
16.275300 1.011200
16.302100 0.999900
16.328800 0.999000
16.355500 1.001000
16.382200 1.006900
16.408900 1.018300
16.435700 1.033000
16.462400 1.048900
16.489100 1.064900
