set title 'mp-9410 - Density of States'
set xlabel 'Energy (eV)'
set ylabel 'DOS (states/eV)'
set grid
set xrange [-10:10]
set yrange [0:53.327]
set xzeroaxis lt -1
set terminal png size 800,600
set output 'mp-9410_dos_gnuplot.png'
plot '-' using 1:2 with lines title 'DOS'
-18.019200 0.000000
-17.995600 0.000000
-17.972000 0.000000
-17.948400 0.000000
-17.924700 0.000000
-17.901100 0.000000
-17.877500 0.000000
-17.853900 0.000000
-17.830200 0.000000
-17.806600 0.000000
-17.783000 0.000000
-17.759400 0.000000
-17.735800 0.000000
-17.712100 0.000000
-17.688500 0.000000
-17.664900 0.000000
-17.641300 0.000000
-17.617700 0.000000
-17.594000 0.000000
-17.570400 0.000000
-17.546800 0.000000
-17.523200 0.000000
-17.499600 0.000000
-17.475900 0.000000
-17.452300 0.000000
-17.428700 0.000000
-17.405100 0.000000
-17.381400 0.000000
-17.357800 0.000000
-17.334200 0.000000
-17.310600 0.000000
-17.287000 0.000000
-17.263300 0.000000
-17.239700 0.000000
-17.216100 0.000000
-17.192500 0.000000
-17.168900 0.000000
-17.145200 0.000000
-17.121600 0.000000
-17.098000 0.000000
-17.074400 0.000000
-17.050800 0.000000
-17.027100 0.000000
-17.003500 0.000000
-16.979900 0.000000
-16.956300 0.000000
-16.932600 0.000000
-16.909000 0.000000
-16.885400 0.000000
-16.861800 0.000000
-16.838200 0.000000
-16.814500 0.000000
-16.790900 0.000000
-16.767300 0.000000
-16.743700 0.000000
-16.720100 0.000000
-16.696400 0.000000
-16.672800 0.000000
-16.649200 0.000000
-16.625600 0.000000
-16.602000 0.000000
-16.578300 0.000000
-16.554700 0.000000
-16.531100 0.000000
-16.507500 0.000000
-16.483800 0.000000
-16.460200 0.000000
-16.436600 0.000000
-16.413000 0.000000
-16.389400 0.000000
-16.365700 0.000000
-16.342100 0.000000
-16.318500 0.000000
-16.294900 0.000000
-16.271300 0.000000
-16.247600 0.000000
-16.224000 0.000000
-16.200400 0.000000
-16.176800 0.000000
-16.153200 0.000000
-16.129500 0.000000
-16.105900 0.000000
-16.082300 0.000000
-16.058700 0.000000
-16.035000 0.000000
-16.011400 0.000000
-15.987800 0.000000
-15.964200 0.000000
-15.940600 0.000000
-15.916900 0.000000
-15.893300 0.000000
-15.869700 0.000100
-15.846100 0.017300
-15.822500 0.063600
-15.798800 0.138900
-15.775200 0.243400
-15.751600 0.376900
-15.728000 0.533700
-15.704400 0.701500
-15.680700 0.879900
-15.657100 0.967200
-15.633500 1.015300
-15.609900 1.048300
-15.586200 1.066300
-15.562600 1.069300
-15.539000 1.102600
-15.515400 1.171700
-15.491800 1.242400
-15.468100 1.314600
-15.444500 1.388400
-15.420900 1.463700
-15.397300 1.540600
-15.373700 1.619000
-15.350000 1.696700
-15.326400 1.772000
-15.302800 1.844800
-15.279200 2.587700
-15.255600 2.922900
-15.231900 3.089000
-15.208300 3.086000
-15.184700 2.940700
-15.161100 2.395300
-15.137400 2.052500
-15.113800 1.812500
-15.090200 1.675100
-15.066600 1.634400
-15.043000 1.615600
-15.019300 1.596500
-14.995700 1.576900
-14.972100 1.556900
-14.948500 1.540400
-14.924900 1.538000
-14.901200 1.550400
-14.877600 1.577500
-14.854000 1.619400
-14.830400 1.671600
-14.806800 1.668900
-14.783100 1.703500
-14.759500 1.760100
-14.735900 1.837800
-14.712300 1.936300
-14.688600 2.044800
-14.665000 2.157100
-14.641400 2.273200
-14.617800 2.393200
-14.594200 2.525300
-14.570500 2.692500
-14.546900 3.169000
-14.523300 3.255300
-14.499700 3.328000
-14.476100 3.383500
-14.452400 3.839700
-14.428800 3.793100
-14.405200 4.000800
-14.381600 4.205100
-14.358000 4.406300
-14.334300 4.320600
-14.310700 4.452700
-14.287100 4.721400
-14.263500 4.749400
-14.239800 4.685900
-14.216200 4.600100
-14.192600 4.492000
-14.169000 4.361800
-14.145400 4.161600
-14.121700 3.918700
-14.098100 3.368900
-14.074500 3.398700
-14.050900 3.533200
-14.027300 3.678200
-14.003600 3.748200
-13.980000 3.682700
-13.956400 2.607900
-13.932800 2.681400
-13.909200 2.758900
-13.885500 2.838200
-13.861900 2.901300
-13.838300 2.944600
-13.814700 2.968200
-13.791000 2.971900
-13.767400 2.957300
-13.743800 2.948600
-13.720200 3.052900
-13.696600 3.200300
-13.672900 3.372100
-13.649300 3.445200
-13.625700 3.397300
-13.602100 3.286200
-13.578500 3.110300
-13.554800 2.869600
-13.531200 2.627400
-13.507600 2.495800
-13.484000 2.370900
-13.460400 2.252700
-13.436700 2.145900
-13.413100 2.061400
-13.389500 1.999900
-13.365900 1.961200
-13.342200 1.945500
-13.318600 1.947100
-13.295000 1.952900
-13.271400 1.962200
-13.247800 1.962300
-13.224100 4.262100
-13.200500 4.915200
-13.176900 3.809600
-13.153300 3.163400
-13.129700 3.155600
-13.106000 3.236400
-13.082400 3.413600
-13.058800 4.034400
-13.035200 4.237200
-13.011600 3.597000
-12.987900 3.465600
-12.964300 3.670900
-12.940700 3.720800
-12.917100 3.785900
-12.893400 3.866300
-12.869800 3.962000
-12.846200 4.073000
-12.822600 4.199200
-12.799000 4.340800
-12.775300 4.497600
-12.751700 4.665900
-12.728100 4.741100
-12.704500 5.491100
-12.680900 6.011600
-12.657200 5.624900
-12.633600 5.107900
-12.610000 4.838300
-12.586400 4.713800
-12.562800 4.653300
-12.539100 4.559800
-12.515500 4.435600
-12.491900 4.546000
-12.468300 4.323800
-12.444700 4.136200
-12.421000 3.507300
-12.397400 3.454300
-12.373800 3.447500
-12.350200 3.467200
-12.326500 3.556100
-12.302900 3.612500
-12.279300 3.676300
-12.255700 3.760900
-12.232100 3.839100
-12.208400 3.900500
-12.184800 3.945100
-12.161200 3.972800
-12.137600 3.668800
-12.114000 3.486200
-12.090300 3.520100
-12.066700 3.551100
-12.043100 3.536700
-12.019500 3.474000
-11.995900 3.416400
-11.972200 3.519900
-11.948600 3.465000
-11.925000 3.491600
-11.901400 3.601600
-11.877700 3.825800
-11.854100 4.128200
-11.830500 4.508700
-11.806900 5.954300
-11.783300 6.900500
-11.759600 6.750200
-11.736000 5.542800
-11.712400 5.349900
-11.688800 5.178500
-11.665200 4.882900
-11.641500 4.721200
-11.617900 4.762300
-11.594300 4.861700
-11.570700 5.002200
-11.547100 5.052300
-11.523400 4.981700
-11.499800 4.753300
-11.476200 4.729200
-11.452600 4.783700
-11.428900 4.787600
-11.405300 4.659700
-11.381700 4.859600
-11.358100 5.042700
-11.334500 5.426600
-11.310800 5.623100
-11.287200 5.941900
-11.263600 6.684200
-11.240000 4.443500
-11.216400 3.778700
-11.192700 3.380100
-11.169100 3.256500
-11.145500 3.150900
-11.121900 3.025100
-11.098300 2.879000
-11.074600 2.715700
-11.051000 2.576400
-11.027400 2.642400
-11.003800 2.583000
-10.980100 2.971100
-10.956500 3.205400
-10.932900 1.005600
-10.909300 1.387300
-10.885700 2.120400
-10.862000 2.714900
-10.838400 3.211900
-10.814800 3.613100
-10.791200 3.968800
-10.767600 4.303200
-10.743900 4.616400
-10.720300 4.902900
-10.696700 5.800600
-10.673100 6.252800
-10.649500 5.291600
-10.625800 8.355200
-10.602200 6.096600
-10.578600 6.093400
-10.555000 6.099700
-10.531300 6.071800
-10.507700 6.009400
-10.484100 5.912800
-10.460500 5.846200
-10.436900 5.667500
-10.413200 5.408500
-10.389600 5.143600
-10.366000 4.940300
-10.342400 4.776900
-10.318800 4.659000
-10.295100 4.586000
-10.271500 4.412800
-10.247900 4.587800
-10.224300 4.637500
-10.200700 4.579100
-10.177000 4.697400
-10.153400 5.385700
-10.129800 5.381700
-10.106200 3.990900
-10.082500 2.611700
-10.058900 2.421700
-10.035300 2.253600
-10.011700 2.129700
-9.988100 2.069800
-9.964400 2.052300
-9.940800 2.077200
-9.917200 2.143500
-9.893600 2.278600
-9.870000 3.134400
-9.846300 4.130800
-9.822700 5.162900
-9.799100 7.199400
-9.775500 5.631400
-9.751900 5.832300
-9.728200 6.012600
-9.704600 6.227900
-9.681000 6.314900
-9.657400 7.090700
-9.633700 6.117800
-9.610100 5.450100
-9.586500 5.649100
-9.562900 6.140900
-9.539300 6.624200
-9.515600 6.784900
-9.492000 6.790200
-9.468400 6.232800
-9.444800 5.862900
-9.421200 6.286100
-9.397500 5.738900
-9.373900 3.641600
-9.350300 3.044000
-9.326700 2.556100
-9.303100 2.339300
-9.279400 1.952900
-9.255800 1.576400
-9.232200 1.287800
-9.208600 1.179800
-9.184900 1.254800
-9.161300 1.509600
-9.137700 2.006100
-9.114100 2.033700
-9.090500 2.074700
-9.066800 2.172200
-9.043200 2.351400
-9.019600 2.739300
-8.996000 3.177700
-8.972400 4.752100
-8.948700 6.310300
-8.925100 7.407200
-8.901500 7.523700
-8.877900 8.775700
-8.854300 9.418900
-8.830600 11.842800
-8.807000 14.732400
-8.783400 15.954100
-8.759800 11.419300
-8.736100 10.775200
-8.712500 13.192200
-8.688900 12.791700
-8.665300 7.894300
-8.641700 7.514600
-8.618000 9.897300
-8.594400 16.677200
-8.570800 20.895300
-8.547200 20.205300
-8.523600 15.869100
-8.499900 15.578400
-8.476300 14.413800
-8.452700 12.955000
-8.429100 16.385300
-8.405500 7.778600
-8.381800 5.045800
-8.358200 3.527800
-8.334600 2.766100
-8.311000 2.116500
-8.287300 1.685800
-8.263700 1.344500
-8.240100 1.041500
-8.216500 0.777000
-8.192900 0.551900
-8.169200 0.366400
-8.145600 0.220400
-8.122000 0.111900
-8.098400 0.039800
-8.074800 0.004200
-8.051100 0.000000
-8.027500 0.000000
-8.003900 0.000000
-7.980300 0.000000
-7.956700 0.000000
-7.933000 0.000000
-7.909400 0.000000
-7.885800 0.000000
-7.862200 0.000000
-7.838500 0.000000
-7.814900 0.000000
-7.791300 0.000000
-7.767700 0.000000
-7.744100 0.000000
-7.720400 0.000000
-7.696800 0.000000
-7.673200 0.000000
-7.649600 0.000000
-7.626000 0.000000
-7.602300 0.000000
-7.578700 0.000000
-7.555100 0.000000
-7.531500 0.000000
-7.507900 0.000000
-7.484200 0.000000
-7.460600 0.000000
-7.437000 0.000000
-7.413400 0.000000
-7.389700 0.000000
-7.366100 0.000000
-7.342500 0.000000
-7.318900 0.000000
-7.295300 0.000000
-7.271600 0.000000
-7.248000 0.000200
-7.224400 0.003300
-7.200800 0.009800
-7.177200 0.019800
-7.153500 0.033200
-7.129900 0.050100
-7.106300 0.070400
-7.082700 0.094200
-7.059100 0.121500
-7.035400 0.152200
-7.011800 0.186400
-6.988200 0.224100
-6.964600 0.676400
-6.940900 1.120800
-6.917300 1.535200
-6.893700 1.988300
-6.870100 2.297100
-6.846500 2.505600
-6.822800 2.679000
-6.799200 2.817300
-6.775600 2.920500
-6.752000 2.988600
-6.728400 3.021600
-6.704700 3.219900
-6.681100 3.533900
-6.657500 3.682700
-6.633900 3.525500
-6.610300 3.563200
-6.586600 3.732400
-6.563000 3.783600
-6.539400 3.791500
-6.515800 3.760500
-6.492100 3.658200
-6.468500 3.642000
-6.444900 3.804900
-6.421300 3.867300
-6.397700 3.938300
-6.374000 3.985400
-6.350400 4.016300
-6.326800 4.031200
-6.303200 4.252100
-6.279600 4.306000
-6.255900 4.114400
-6.232300 4.450200
-6.208700 4.667800
-6.185100 4.695300
-6.161500 6.266600
-6.137800 4.901000
-6.114200 4.737600
-6.090600 4.641400
-6.067000 4.582700
-6.043300 4.520500
-6.019700 4.370900
-5.996100 4.271500
-5.972500 4.159800
-5.948900 4.050400
-5.925200 3.946000
-5.901600 3.859900
-5.878000 3.792000
-5.854400 3.742400
-5.830800 3.853600
-5.807100 4.014400
-5.783500 3.988300
-5.759900 4.017100
-5.736300 4.116400
-5.712700 4.601600
-5.689000 4.461900
-5.665400 4.389400
-5.641800 4.314000
-5.618200 4.236600
-5.594500 4.151300
-5.570900 4.055300
-5.547300 3.954300
-5.523700 3.859700
-5.500100 3.762200
-5.476400 3.661800
-5.452800 3.482100
-5.429200 3.348500
-5.405600 3.316100
-5.382000 3.309000
-5.358300 3.303500
-5.334700 3.299500
-5.311100 3.297000
-5.287500 3.296200
-5.263900 3.297900
-5.240200 3.372400
-5.216600 3.893700
-5.193000 4.461300
-5.169400 5.306800
-5.145700 6.126100
-5.122100 7.059500
-5.098500 7.639800
-5.074900 7.879600
-5.051300 7.831800
-5.027600 8.165200
-5.004000 7.174000
-4.980400 6.348200
-4.956800 5.930100
-4.933200 5.405200
-4.909500 5.920600
-4.885900 6.414900
-4.862300 4.318200
-4.838700 4.229700
-4.815100 4.132500
-4.791400 4.082100
-4.767800 4.106100
-4.744200 4.247700
-4.720600 4.203100
-4.696900 4.074700
-4.673300 4.090900
-4.649700 4.124400
-4.626100 4.175200
-4.602500 4.243300
-4.578800 4.328700
-4.555200 4.624200
-4.531600 4.424000
-4.508000 4.138300
-4.484400 4.151800
-4.460700 4.227500
-4.437100 4.306700
-4.413500 4.397500
-4.389900 4.517000
-4.366300 4.752800
-4.342600 5.005500
-4.319000 5.321900
-4.295400 5.729300
-4.271800 6.125500
-4.248200 6.321200
-4.224500 6.376200
-4.200900 6.318300
-4.177300 6.192700
-4.153700 6.040600
-4.130000 5.862000
-4.106400 5.657000
-4.082800 5.398800
-4.059200 4.837700
-4.035600 4.121400
-4.011900 3.943000
-3.988300 3.700000
-3.964700 3.481700
-3.941100 3.293700
-3.917500 3.137000
-3.893800 3.009900
-3.870200 2.931700
-3.846600 3.038700
-3.823000 2.883400
-3.799400 2.844500
-3.775700 2.886100
-3.752100 2.981200
-3.728500 3.082300
-3.704900 3.181400
-3.681200 3.349200
-3.657600 3.417900
-3.634000 3.693400
-3.610400 4.028600
-3.586800 4.197300
-3.563100 4.443100
-3.539500 4.971000
-3.515900 5.064000
-3.492300 7.671600
-3.468700 9.177600
-3.445000 5.444700
-3.421400 5.134000
-3.397800 5.103300
-3.374200 5.282700
-3.350600 5.963900
-3.326900 6.693500
-3.303300 7.646200
-3.279700 6.725300
-3.256100 5.712200
-3.232400 6.213600
-3.208800 6.251900
-3.185200 6.504400
-3.161600 5.897200
-3.138000 4.618600
-3.114300 4.564800
-3.090700 4.522400
-3.067100 5.506900
-3.043500 5.066800
-3.019900 4.064300
-2.996200 3.747600
-2.972600 4.045600
-2.949000 4.060900
-2.925400 4.248100
-2.901800 4.419700
-2.878100 4.442900
-2.854500 4.639200
-2.830900 4.973000
-2.807300 5.344800
-2.783600 6.407100
-2.760000 6.337300
-2.736400 5.827100
-2.712800 5.075100
-2.689200 4.844400
-2.665500 5.029800
-2.641900 5.049100
-2.618300 5.058200
-2.594700 5.201300
-2.571100 5.509500
-2.547400 6.023500
-2.523800 6.958800
-2.500200 8.136900
-2.476600 9.709300
-2.453000 12.657600
-2.429300 13.724900
-2.405700 11.242200
-2.382100 8.429400
-2.358500 6.199700
-2.334800 4.683400
-2.311200 3.936600
-2.287600 4.977500
-2.264000 5.035300
-2.240400 5.183600
-2.216700 6.180500
-2.193100 6.789400
-2.169500 7.289000
-2.145900 7.411900
-2.122300 6.911100
-2.098600 6.172000
-2.075000 5.390600
-2.051400 4.921200
-2.027800 4.418300
-2.004200 4.921700
-1.980500 6.341300
-1.956900 8.917100
-1.933300 10.591900
-1.909700 13.694400
-1.886000 10.129500
-1.862400 9.770300
-1.838800 9.738800
-1.815200 10.047700
-1.791600 10.589000
-1.767900 11.320800
-1.744300 11.482400
-1.720700 9.362600
-1.697100 7.589900
-1.673500 6.876100
-1.649800 6.489300
-1.626200 6.644300
-1.602600 7.290400
-1.579000 8.733300
-1.555400 9.824600
-1.531700 9.353400
-1.508100 9.190700
-1.484500 8.790600
-1.460900 8.599200
-1.437200 8.166500
-1.413600 7.520600
-1.390000 6.736000
-1.366400 6.340400
-1.342800 6.086500
-1.319100 7.665200
-1.295500 8.217600
-1.271900 7.622600
-1.248300 7.372700
-1.224700 7.162600
-1.201000 7.022900
-1.177400 8.545500
-1.153800 9.053000
-1.130200 9.301900
-1.106600 11.714200
-1.082900 10.442500
-1.059300 10.314700
-1.035700 8.143100
-1.012100 6.558700
-0.988400 5.438500
-0.964800 5.353900
-0.941200 5.032400
-0.917600 4.791700
-0.894000 4.636800
-0.870300 4.567600
-0.846700 4.571700
-0.823100 4.629800
-0.799500 4.707900
-0.775900 4.824900
-0.752200 6.314700
-0.728600 8.068300
-0.705000 8.191400
-0.681400 6.457600
-0.657800 6.051400
-0.634100 5.808600
-0.610500 5.660400
-0.586900 5.609900
-0.563300 5.680000
-0.539600 5.740000
-0.516000 5.830900
-0.492400 5.957200
-0.468800 6.581100
-0.445200 7.577900
-0.421500 10.481300
-0.397900 13.589100
-0.374300 16.005400
-0.350700 15.762300
-0.327100 14.727600
-0.303400 13.794000
-0.279800 12.239600
-0.256200 10.527200
-0.232600 9.979700
-0.209000 10.038800
-0.185300 11.765000
-0.161700 12.371000
-0.138100 11.340800
-0.114500 11.348400
-0.090800 11.582800
-0.067200 48.478700
-0.043600 9.391500
-0.020000 8.359500
0.003600 7.799800
0.027300 7.808200
0.050900 8.114400
0.074500 8.193300
0.098100 8.148400
0.121700 8.012300
0.145400 8.162300
0.169000 8.079100
0.192600 8.247000
0.216200 8.011400
0.239800 7.575600
0.263500 8.020800
0.287100 8.671400
0.310700 10.092900
0.334300 15.389400
0.358000 10.590200
0.381600 9.689500
0.405200 8.924700
0.428800 8.330000
0.452400 8.158200
0.476100 8.617000
0.499700 10.317200
0.523300 10.520000
0.546900 11.143600
0.570500 11.510300
0.594200 14.108200
0.617800 11.621000
0.641400 9.415900
0.665000 12.631200
0.688600 18.597000
0.712300 17.502400
0.735900 10.377500
0.759500 7.550300
0.783100 7.359300
0.806800 8.714500
0.830400 12.531600
0.854000 24.278200
0.877600 11.942300
0.901200 10.504900
0.924900 9.767300
0.948500 8.831000
0.972100 9.491600
0.995700 12.361000
1.019300 13.529900
1.043000 10.337500
1.066600 6.475500
1.090200 7.322700
1.113800 9.649400
1.137400 10.914500
1.161100 11.130600
1.184700 10.948700
1.208300 10.545600
1.231900 7.828700
1.255600 7.408100
1.279200 9.046900
1.302800 10.565800
1.326400 10.771400
1.350000 6.363400
1.373700 4.317100
1.397300 5.152400
1.420900 6.390500
1.444500 6.850200
1.468100 8.083600
1.491800 9.797700
1.515400 11.525100
1.539000 11.424200
1.562600 10.302700
1.586200 9.200000
1.609900 8.372500
1.633500 7.676600
1.657100 13.254800
1.680700 9.430000
1.704400 7.111300
1.728000 5.946200
1.751600 5.102000
1.775200 4.345000
1.798800 3.920800
1.822500 3.904300
1.846100 3.864700
1.869700 3.801800
1.893300 3.985700
1.916900 4.615800
1.940600 4.935900
1.964200 5.052100
1.987800 5.235900
2.011400 14.246100
2.035000 8.326300
2.058700 5.677200
2.082300 5.139700
2.105900 5.533800
2.129500 6.296000
2.153200 8.008100
2.176800 9.212800
2.200400 10.912100
2.224000 11.094100
2.247600 7.484400
2.271300 8.640500
2.294900 7.934800
2.318500 7.596700
2.342100 7.504900
2.365700 7.202100
2.389400 7.246300
2.413000 6.407100
2.436600 5.566300
2.460200 4.757700
2.483800 4.403900
2.507500 4.276700
2.531100 4.229200
2.554700 4.261500
2.578300 4.923600
2.602000 5.210800
2.625600 5.432200
2.649200 4.966500
2.672800 4.114200
2.696400 2.918700
2.720100 1.380000
2.743700 0.527000
2.767300 0.045400
2.790900 0.000000
2.814500 0.000000
2.838200 0.000000
2.861800 0.000000
2.885400 0.000000
2.909000 0.000000
2.932600 0.000000
2.956300 0.000000
2.979900 0.000000
3.003500 0.000000
3.027100 0.000000
3.050800 0.000000
3.074400 0.000000
3.098000 0.000000
3.121600 0.000000
3.145200 0.000000
3.168900 0.000000
3.192500 0.000000
3.216100 0.000000
3.239700 0.000300
3.263300 0.021000
3.287000 0.049800
3.310600 0.083500
3.334200 0.122400
3.357800 0.166300
3.381400 0.215000
3.405100 0.266000
3.428700 0.318400
3.452300 0.372500
3.475900 0.428100
3.499600 0.485300
3.523200 0.544000
3.546800 0.604300
3.570400 0.666100
3.594000 0.729600
3.617700 0.794500
3.641300 0.861100
3.664900 0.929200
3.688500 0.998900
3.712100 1.082100
3.735800 1.187100
3.759400 1.306100
3.783000 1.430700
3.806600 1.582100
3.830200 1.744000
3.853900 1.916800
3.877500 2.100500
3.901100 2.295100
3.924700 2.373200
3.948300 2.447600
3.972000 2.524900
3.995600 2.608000
4.019200 2.717000
4.042800 2.834000
4.066500 4.056800
4.090100 4.192600
4.113700 3.985200
4.137300 3.807600
4.160900 3.659200
4.184600 3.535300
4.208200 3.434800
4.231800 3.357700
4.255400 3.303900
4.279000 3.273500
4.302700 3.480700
4.326300 4.768700
4.349900 7.054900
4.373500 5.350000
4.397100 3.658600
4.420800 2.496900
4.444400 2.606100
4.468000 2.723400
4.491600 2.848600
4.515300 3.138500
4.538900 3.771000
4.562500 4.749800
4.586100 5.985700
4.609700 7.453600
4.633400 6.178700
4.657000 4.962800
4.680600 4.214000
4.704200 3.725400
4.727800 3.406600
4.751500 3.070100
4.775100 3.082300
4.798700 3.873200
4.822300 5.928800
4.845900 1.998100
4.869600 2.367500
4.893200 2.710600
4.916800 3.027500
4.940400 3.318100
4.964100 3.582400
4.987700 3.485700
5.011300 3.540200
5.034900 3.613500
5.058500 3.725600
5.082200 4.073500
5.105800 4.378600
5.129400 4.579400
5.153000 5.177300
5.176600 7.334600
5.200300 8.472900
5.223900 9.527200
5.247500 10.214500
5.271100 10.916500
5.294700 9.543100
5.318400 9.280900
5.342000 9.184900
5.365600 8.940500
5.389200 7.031800
5.412900 6.313800
5.436500 5.794100
5.460100 6.113800
5.483700 7.181300
5.507300 2.094400
5.531000 1.563600
5.554600 2.010200
5.578200 3.530500
5.601800 4.761500
5.625400 6.108400
5.649100 7.571300
5.672700 12.682300
5.696300 11.151600
5.719900 12.647900
5.743500 33.087200
5.767200 12.353400
5.790800 11.743100
5.814400 10.480800
5.838000 7.988500
5.861700 6.695800
5.885300 5.774600
5.908900 5.238900
5.932500 5.104600
5.956100 5.140100
5.979800 5.357600
6.003400 5.461700
6.027000 6.197600
6.050600 15.413800
6.074200 10.844700
6.097900 12.133400
6.121500 13.116900
6.145100 14.516900
6.168700 12.569200
6.192300 8.968100
6.216000 7.416000
6.239600 7.792200
6.263200 9.250600
