set title 'mp-8640 - Density of States'
set xlabel 'Energy (eV)'
set ylabel 'DOS (states/eV)'
set grid
set xrange [-10:10]
set yrange [0:1.966]
set xzeroaxis lt -1
set terminal png size 800,600
set output 'mp-8640_dos_gnuplot.png'
plot '-' using 1:2 with lines title 'DOS'
-31.596700 0.000000
-31.535300 0.000000
-31.473900 0.000000
-31.412500 0.000000
-31.351100 0.000000
-31.289700 0.000000
-31.228300 0.000000
-31.166900 0.000000
-31.105500 0.000000
-31.044100 0.000000
-30.982700 0.000000
-30.921300 0.000000
-30.859900 0.000000
-30.798400 0.000000
-30.737000 0.000000
-30.675600 0.000000
-30.614200 0.000000
-30.552800 0.000000
-30.491400 0.000000
-30.430000 0.000000
-30.368600 0.000000
-30.307200 0.000000
-30.245800 0.000000
-30.184400 0.000000
-30.123000 0.000000
-30.061600 0.000000
-30.000200 0.000000
-29.938800 0.000000
-29.877400 0.000000
-29.816000 0.000000
-29.754500 0.000000
-29.693100 0.000000
-29.631700 0.000000
-29.570300 0.000000
-29.508900 0.000000
-29.447500 0.000000
-29.386100 0.000000
-29.324700 0.000000
-29.263300 0.000000
-29.201900 0.000000
-29.140500 0.000000
-29.079100 0.000000
-29.017700 0.000000
-28.956300 0.000000
-28.894900 0.000000
-28.833500 0.000000
-28.772100 0.000000
-28.710600 0.000000
-28.649200 0.000000
-28.587800 0.000000
-28.526400 0.000000
-28.465000 0.000000
-28.403600 0.000000
-28.342200 0.000000
-28.280800 0.000000
-28.219400 0.000000
-28.158000 0.000000
-28.096600 0.000000
-28.035200 0.000000
-27.973800 0.000000
-27.912400 0.000000
-27.851000 0.000000
-27.789600 0.000000
-27.728200 0.000000
-27.666800 0.000000
-27.605300 0.000000
-27.543900 0.000000
-27.482500 0.000000
-27.421100 0.000000
-27.359700 0.000000
-27.298300 0.000000
-27.236900 0.000000
-27.175500 0.000000
-27.114100 0.000000
-27.052700 0.000000
-26.991300 0.000000
-26.929900 0.000000
-26.868500 0.000000
-26.807100 0.000000
-26.745700 0.000000
-26.684300 0.000000
-26.622900 0.000000
-26.561400 0.000000
-26.500000 0.000000
-26.438600 0.000000
-26.377200 0.000000
-26.315800 0.000000
-26.254400 0.000000
-26.193000 0.000000
-26.131600 0.000000
-26.070200 0.000000
-26.008800 0.646700
-25.947400 3.720300
-25.886000 8.813500
-25.824600 10.505400
-25.763200 2.561900
-25.701800 4.394500
-25.640400 5.159300
-25.579000 5.855700
-25.517500 6.546400
-25.456100 12.739400
-25.394700 13.646000
-25.333300 15.322600
-25.271900 6.593600
-25.210500 0.000000
-25.149100 0.000000
-25.087700 0.000000
-25.026300 0.000000
-24.964900 0.000000
-24.903500 0.000000
-24.842100 0.000000
-24.780700 0.000000
-24.719300 0.000000
-24.657900 0.000000
-24.596500 0.000000
-24.535100 0.000000
-24.473600 0.000000
-24.412200 0.000000
-24.350800 0.000000
-24.289400 0.000000
-24.228000 0.000000
-24.166600 0.000000
-24.105200 0.000000
-24.043800 0.000000
-23.982400 0.000000
-23.921000 0.000000
-23.859600 0.000000
-23.798200 0.000000
-23.736800 0.000000
-23.675400 0.000000
-23.614000 0.000000
-23.552600 0.000000
-23.491200 0.000000
-23.429700 0.000000
-23.368300 0.000000
-23.306900 0.000000
-23.245500 0.000000
-23.184100 0.000000
-23.122700 0.000000
-23.061300 0.000000
-22.999900 0.000000
-22.938500 0.000000
-22.877100 0.000000
-22.815700 0.000000
-22.754300 0.000000
-22.692900 0.000000
-22.631500 0.000000
-22.570100 0.000000
-22.508700 0.000000
-22.447300 0.000000
-22.385900 0.000000
-22.324400 0.000000
-22.263000 0.000000
-22.201600 0.000000
-22.140200 0.000000
-22.078800 0.000000
-22.017400 0.000000
-21.956000 0.000000
-21.894600 0.000000
-21.833200 0.000000
-21.771800 0.000000
-21.710400 0.000000
-21.649000 0.000000
-21.587600 0.000000
-21.526200 0.000000
-21.464800 0.000000
-21.403400 0.000000
-21.342000 0.000000
-21.280500 0.000000
-21.219100 0.000000
-21.157700 0.000000
-21.096300 0.000000
-21.034900 0.000000
-20.973500 0.000000
-20.912100 0.000000
-20.850700 0.000000
-20.789300 0.000000
-20.727900 0.000000
-20.666500 0.000000
-20.605100 0.000000
-20.543700 0.000000
-20.482300 0.000000
-20.420900 0.000000
-20.359500 0.000000
-20.298100 0.000000
-20.236600 0.000000
-20.175200 0.000000
-20.113800 0.000000
-20.052400 0.000000
-19.991000 0.000000
-19.929600 0.000000
-19.868200 0.000000
-19.806800 0.000000
-19.745400 0.000000
-19.684000 0.000000
-19.622600 0.000000
-19.561200 0.000000
-19.499800 0.000000
-19.438400 0.000000
-19.377000 0.000000
-19.315600 0.000000
-19.254200 0.000000
-19.192700 0.000000
-19.131300 0.000000
-19.069900 0.000000
-19.008500 0.000000
-18.947100 0.000000
-18.885700 0.000000
-18.824300 0.000000
-18.762900 0.000000
-18.701500 0.000000
-18.640100 0.000000
-18.578700 0.000000
-18.517300 0.000000
-18.455900 0.000000
-18.394500 0.000000
-18.333100 0.000000
-18.271700 0.000000
-18.210300 0.000000
-18.148800 0.000000
-18.087400 0.000000
-18.026000 0.000000
-17.964600 0.000000
-17.903200 0.000000
-17.841800 0.000000
-17.780400 0.000000
-17.719000 0.000000
-17.657600 0.000000
-17.596200 0.000000
-17.534800 0.000000
-17.473400 0.000000
-17.412000 0.000000
-17.350600 0.000000
-17.289200 0.000000
-17.227800 0.000000
-17.166400 0.000000
-17.105000 0.000000
-17.043500 0.000000
-16.982100 0.000000
-16.920700 0.000000
-16.859300 0.000000
-16.797900 0.000000
-16.736500 0.000000
-16.675100 0.000000
-16.613700 0.000000
-16.552300 0.000000
-16.490900 0.000000
-16.429500 0.000000
-16.368100 0.000000
-16.306700 0.000000
-16.245300 0.000000
-16.183900 0.000000
-16.122500 0.000000
-16.061100 0.000000
-15.999600 0.000000
-15.938200 0.000000
-15.876800 0.000000
-15.815400 0.000000
-15.754000 0.000000
-15.692600 0.000000
-15.631200 0.000000
-15.569800 0.000000
-15.508400 0.000000
-15.447000 0.000000
-15.385600 0.000000
-15.324200 0.000000
-15.262800 0.000000
-15.201400 0.000000
-15.140000 0.000000
-15.078600 0.000000
-15.017200 0.000000
-14.955700 0.000000
-14.894300 0.000000
-14.832900 0.000000
-14.771500 0.000000
-14.710100 0.000000
-14.648700 0.000000
-14.587300 0.000000
-14.525900 0.000000
-14.464500 0.000000
-14.403100 0.000000
-14.341700 0.000000
-14.280300 0.000000
-14.218900 0.000000
-14.157500 0.000000
-14.096100 0.000000
-14.034700 0.000000
-13.973300 0.000000
-13.911800 0.000000
-13.850400 0.000000
-13.789000 0.000000
-13.727600 0.000000
-13.666200 0.000000
-13.604800 0.000000
-13.543400 0.000000
-13.482000 0.000000
-13.420600 0.000000
-13.359200 0.000000
-13.297800 0.000000
-13.236400 0.000000
-13.175000 0.000000
-13.113600 0.000000
-13.052200 0.000000
-12.990800 0.000000
-12.929400 0.000000
-12.868000 0.000000
-12.806500 0.000000
-12.745100 0.000000
-12.683700 0.000000
-12.622300 0.000000
-12.560900 0.000000
-12.499500 0.000000
-12.438100 0.000000
-12.376700 0.000000
-12.315300 0.000000
-12.253900 0.000000
-12.192500 0.000000
-12.131100 0.000000
-12.069700 0.000000
-12.008300 0.000000
-11.946900 0.000000
-11.885500 0.000000
-11.824100 0.000000
-11.762600 0.000000
-11.701200 0.000000
-11.639800 0.000000
-11.578400 0.000000
-11.517000 0.000000
-11.455600 0.000000
-11.394200 0.000000
-11.332800 0.000000
-11.271400 0.000000
-11.210000 0.000000
-11.148600 0.000000
-11.087200 0.000000
-11.025800 0.000000
-10.964400 0.000000
-10.903000 0.000000
-10.841600 0.000000
-10.780200 0.000000
-10.718700 0.000000
-10.657300 0.000000
-10.595900 0.000000
-10.534500 0.000000
-10.473100 0.000000
-10.411700 0.000000
-10.350300 0.000000
-10.288900 0.000000
-10.227500 0.000000
-10.166100 0.000000
-10.104700 0.000000
-10.043300 0.000000
-9.981900 0.000000
-9.920500 0.000000
-9.859100 0.000000
-9.797700 0.000000
-9.736300 0.000000
-9.674800 0.000000
-9.613400 0.000000
-9.552000 0.000000
-9.490600 0.000000
-9.429200 0.000000
-9.367800 0.000000
-9.306400 0.000000
-9.245000 0.000000
-9.183600 0.000000
-9.122200 0.000000
-9.060800 0.000000
-8.999400 0.000000
-8.938000 0.000000
-8.876600 0.000000
-8.815200 0.000000
-8.753800 0.000000
-8.692400 0.000000
-8.630900 0.000000
-8.569500 0.000000
-8.508100 0.000000
-8.446700 0.000000
-8.385300 0.000000
-8.323900 0.000000
-8.262500 0.000000
-8.201100 0.000000
-8.139700 0.000000
-8.078300 0.000000
-8.016900 0.000000
-7.955500 0.000000
-7.894100 0.000000
-7.832700 0.000000
-7.771300 0.000000
-7.709900 0.000000
-7.648500 0.000000
-7.587100 0.000000
-7.525600 0.000000
-7.464200 0.000000
-7.402800 0.000000
-7.341400 0.000000
-7.280000 0.000000
-7.218600 0.000000
-7.157200 0.000000
-7.095800 0.000000
-7.034400 0.000000
-6.973000 0.000000
-6.911600 0.000000
-6.850200 0.000000
-6.788800 0.000000
-6.727400 0.000000
-6.666000 0.000000
-6.604600 0.000000
-6.543200 0.000000
-6.481700 0.000000
-6.420300 0.000000
-6.358900 0.000000
-6.297500 0.000000
-6.236100 0.000000
-6.174700 0.000000
-6.113300 0.000000
-6.051900 0.000000
-5.990500 0.000000
-5.929100 0.000000
-5.867700 0.000000
-5.806300 0.000000
-5.744900 0.000000
-5.683500 0.000000
-5.622100 0.000000
-5.560700 0.000000
-5.499300 0.000000
-5.437800 0.000000
-5.376400 0.000000
-5.315000 0.000000
-5.253600 0.000000
-5.192200 0.000000
-5.130800 0.000000
-5.069400 0.000000
-5.008000 0.000000
-4.946600 0.000000
-4.885200 0.000000
-4.823800 0.000000
-4.762400 0.000000
-4.701000 0.000000
-4.639600 0.000000
-4.578200 0.000000
-4.516800 0.000000
-4.455400 0.000000
-4.393900 0.000000
-4.332500 0.000000
-4.271100 0.000000
-4.209700 0.000000
-4.148300 0.000000
-4.086900 0.000000
-4.025500 0.000000
-3.964100 0.000000
-3.902700 0.000000
-3.841300 0.000000
-3.779900 0.000000
-3.718500 0.000000
-3.657100 0.000000
-3.595700 0.000000
-3.534300 0.000000
-3.472900 0.000000
-3.411500 0.000000
-3.350000 0.000000
-3.288600 0.000000
-3.227200 0.000000
-3.165800 0.000000
-3.104400 0.000000
-3.043000 0.000000
-2.981600 0.000000
-2.920200 0.000000
-2.858800 0.000000
-2.797400 0.000000
-2.736000 0.000000
-2.674600 0.000000
-2.613200 0.000000
-2.551800 0.000000
-2.490400 0.000000
-2.429000 0.000200
-2.367600 0.010700
-2.306200 0.027600
-2.244700 0.030200
-2.183300 0.037000
-2.121900 0.044300
-2.060500 0.050200
-1.999100 0.052600
-1.937700 0.056600
-1.876300 0.061200
-1.814900 0.065900
-1.753500 0.070800
-1.692100 0.075200
-1.630700 0.078300
-1.569300 0.081800
-1.507900 0.085300
-1.446500 0.089100
-1.385100 0.093100
-1.323700 0.097400
-1.262300 0.101700
-1.200800 0.106000
-1.139400 0.109400
-1.078000 0.112900
-1.016600 0.116800
-0.955200 0.120800
-0.893800 0.124900
-0.832400 0.129100
-0.771000 0.133600
-0.709600 0.138100
-0.648200 0.142800
-0.586800 0.147500
-0.525400 0.151800
-0.464000 0.156400
-0.402600 0.161200
-0.341200 0.166300
-0.279800 0.171600
-0.218400 0.177200
-0.156900 0.182900
-0.095500 0.188900
-0.034100 0.195200
0.027300 0.201700
0.088700 0.208400
0.150100 0.215100
0.211500 0.222500
0.272900 0.230300
0.334300 0.239000
0.395700 0.248300
0.457100 0.258200
0.518500 0.268800
0.579900 0.280300
0.641300 0.292500
0.702700 0.305400
0.764100 0.319100
0.825500 0.336500
0.887000 0.359500
0.948400 0.386100
1.009800 0.416700
1.071200 0.451000
1.132600 0.529300
1.194000 0.563000
1.255400 0.552100
1.316800 0.568700
1.378200 0.587200
1.439600 0.605000
1.501000 0.688900
1.562400 0.844200
1.623800 0.780500
1.685200 0.799800
1.746600 0.820700
1.808000 0.792100
1.869400 0.786600
1.930800 0.787400
1.992300 0.785100
2.053700 0.781600
2.115100 0.766900
2.176500 0.762800
2.237900 0.757200
2.299300 0.753100
2.360700 0.743100
2.422100 0.730700
2.483500 0.715300
2.544900 0.701200
2.606300 0.686900
2.667700 0.795300
2.729100 0.851700
2.790500 0.906800
2.851900 0.959100
2.913300 1.008000
2.974700 0.998500
3.036200 0.948100
3.097600 0.860800
3.159000 0.758200
3.220400 0.661200
3.281800 0.673700
3.343200 0.787500
3.404600 0.974600
3.466000 1.368000
3.527400 1.480600
3.588800 1.345400
3.650200 1.241900
3.711600 1.234600
3.773000 1.229500
3.834400 1.212700
3.895800 1.115400
3.957200 1.024400
4.018600 0.960700
4.080100 0.973200
4.141500 0.954200
4.202900 0.974500
4.264300 1.143000
4.325700 1.386700
4.387100 1.343700
4.448500 1.422500
4.509900 1.537700
4.571300 1.659600
4.632700 1.632500
4.694100 1.582000
4.755500 1.430200
4.816900 1.418200
4.878300 1.453800
4.939700 1.477400
5.001100 1.480100
5.062500 1.787700
5.124000 1.753400
5.185400 1.516200
5.246800 1.392300
5.308200 1.294500
5.369600 1.238300
5.431000 1.199600
5.492400 1.175500
5.553800 1.122400
5.615200 1.063800
5.676600 1.069800
5.738000 1.032600
5.799400 0.959600
5.860800 0.992600
5.922200 0.782300
5.983600 0.821300
6.045000 0.789400
6.106400 0.804900
6.167900 0.922600
6.229300 0.989400
6.290700 1.144800
6.352100 1.266300
6.413500 1.528600
6.474900 1.344900
6.536300 1.224600
6.597700 1.042800
6.659100 0.970000
6.720500 0.934700
6.781900 0.893400
6.843300 0.855000
6.904700 0.844900
6.966100 0.839400
7.027500 0.851100
7.088900 0.880900
7.150300 0.873600
7.211700 0.923200
7.273200 0.879100
7.334600 0.863200
7.396000 0.887700
7.457400 1.064900
7.518800 1.197100
7.580200 1.317400
7.641600 1.404500
7.703000 1.288900
7.764400 1.136500
7.825800 1.082100
7.887200 1.003500
7.948600 0.957700
8.010000 0.915400
8.071400 0.887100
8.132800 0.873000
8.194200 0.854300
8.255600 0.829800
8.317100 0.810300
8.378500 0.780900
8.439900 0.746700
8.501300 0.709600
8.562700 0.681700
8.624100 0.653800
8.685500 0.641100
8.746900 0.655000
8.808300 0.698800
8.869700 0.799200
8.931100 0.846100
8.992500 0.798100
9.053900 0.797000
9.115300 0.780700
9.176700 0.761200
9.238100 0.762400
9.299500 0.770200
9.361000 0.777300
9.422400 0.785700
9.483800 0.796100
9.545200 0.805900
9.606600 0.802800
9.668000 0.809100
9.729400 0.816300
9.790800 0.827300
9.852200 0.841300
9.913600 0.863900
9.975000 0.916500
10.036400 0.975200
10.097800 1.029600
10.159200 1.075200
10.220600 1.119700
10.282000 1.294200
10.343400 1.306200
10.404900 1.301800
10.466300 1.284200
10.527700 1.285900
10.589100 1.274200
10.650500 1.299100
10.711900 1.292900
10.773300 1.371400
10.834700 1.295300
10.896100 1.136200
10.957500 1.023600
11.018900 1.036800
11.080300 1.008500
11.141700 1.012200
11.203100 1.008600
11.264500 1.004700
11.325900 0.997000
11.387300 1.001700
11.448800 0.947700
11.510200 0.827200
11.571600 0.872000
11.633000 0.987000
11.694400 1.131700
11.755800 1.212800
11.817200 1.346400
11.878600 1.301000
11.940000 1.112900
12.001400 0.906400
12.062800 0.811800
12.124200 0.718800
12.185600 0.651300
12.247000 0.591400
12.308400 0.536100
12.369800 0.490500
12.431200 0.463000
12.492600 0.459900
12.554100 0.417900
12.615500 0.374100
12.676900 0.353900
12.738300 0.288300
12.799700 0.188900
12.861100 0.153700
12.922500 0.136500
12.983900 0.120000
13.045300 0.104200
13.106700 0.171900
13.168100 0.239300
13.229500 0.377800
13.290900 0.240400
13.352300 0.706600
13.413700 0.855900
13.475100 0.784000
13.536500 0.727500
13.598000 0.716900
13.659400 0.708700
13.720800 0.716600
13.782200 0.721800
13.843600 0.735700
13.905000 0.752600
13.966400 0.772600
14.027800 0.735900
14.089200 0.676800
14.150600 0.649900
14.212000 0.622100
14.273400 0.596300
14.334800 0.573500
14.396200 0.553000
14.457600 0.533700
14.519000 0.566400
14.580400 0.532500
14.641900 0.547000
14.703300 0.533000
14.764700 0.520800
14.826100 0.546800
14.887500 0.592300
14.948900 0.560300
15.010300 0.582500
15.071700 0.595700
15.133100 0.584700
15.194500 0.561900
15.255900 0.552200
15.317300 0.583000
15.378700 0.546300
15.440100 0.523400
15.501500 0.509400
15.562900 0.499500
15.624300 0.493300
15.685800 0.500000
15.747200 0.522100
15.808600 0.549700
15.870000 0.590500
15.931400 0.620600
15.992800 0.659900
16.054200 0.718900
16.115600 0.788300
16.177000 0.877900
16.238400 1.008800
16.299800 1.227000
16.361200 1.591400
16.422600 2.526400
16.484000 2.617800
16.545400 1.494700
16.606800 1.286000
16.668200 1.193800
16.729600 1.111000
16.791100 1.054600
16.852500 0.965100
16.913900 0.908300
16.975300 0.873400
17.036700 0.841700
17.098100 0.809100
17.159500 0.787700
17.220900 0.784600
17.282300 0.782600
17.343700 0.777000
17.405100 0.772000
17.466500 0.770000
17.527900 0.782600
17.589300 0.790800
17.650700 0.797100
17.712100 0.833700
17.773500 0.791200
17.835000 0.778900
17.896400 0.794900
17.957800 0.817000
18.019200 0.848700
18.080600 0.893100
18.142000 0.948000
18.203400 1.009200
18.264800 1.106000
18.326200 1.497700
18.387600 1.181800
18.449000 1.105100
18.510400 1.051700
18.571800 1.038200
18.633200 1.003600
18.694600 0.990500
18.756000 0.973700
18.817400 0.943200
18.878900 1.024400
18.940300 1.075400
19.001700 1.097700
19.063100 1.109000
19.124500 1.215400
19.185900 1.347200
19.247300 1.399200
19.308700 1.407400
19.370100 1.401700
19.431500 1.591800
19.492900 1.301000
19.554300 1.170600
19.615700 1.056000
19.677100 0.995800
19.738500 0.944200
19.799900 0.878300
19.861300 0.812900
19.922800 0.769100
19.984200 0.735800
20.045600 0.705300
20.107000 0.652600
20.168400 0.620100
20.229800 0.583700
20.291200 0.543400
20.352600 0.520800
20.414000 0.520600
20.475400 0.512200
20.536800 0.524200
20.598200 0.502400
20.659600 0.522700
20.721000 0.623800
20.782400 0.690900
20.843800 0.725400
20.905200 0.739900
20.966700 0.794800
21.028100 0.821600
21.089500 0.781500
21.150900 0.801600
21.212300 0.816200
21.273700 0.794900
21.335100 0.780300
21.396500 0.775900
21.457900 0.773400
21.519300 0.774000
21.580700 0.776400
21.642100 0.786600
21.703500 0.796800
21.764900 0.807700
21.826300 0.812400
21.887700 0.825400
21.949100 0.837100
22.010500 0.854700
22.072000 0.875300
22.133400 0.902900
22.194800 0.942000
22.256200 0.988600
22.317600 1.020400
22.379000 1.048400
22.440400 1.130400
22.501800 1.166400
22.563200 1.122700
22.624600 1.087900
22.686000 1.065200
22.747400 1.058200
22.808800 1.060700
22.870200 1.034200
22.931600 0.953500
22.993000 0.892800
23.054400 0.777700
23.115900 0.682000
23.177300 0.604000
23.238700 0.527300
23.300100 0.456800
23.361500 0.395100
23.422900 0.318600
23.484300 0.300300
23.545700 0.279700
23.607100 0.264900
23.668500 0.258500
23.729900 0.248700
23.791300 0.244700
23.852700 0.245800
23.914100 0.250100
23.975500 0.259300
24.036900 0.331500
24.098300 0.354300
24.159800 0.350900
24.221200 0.349900
24.282600 0.354700
24.344000 0.365100
24.405400 0.384200
24.466800 0.406400
24.528200 0.429400
24.589600 0.458800
24.651000 0.486600
24.712400 0.547000
24.773800 0.618000
24.835200 0.651100
24.896600 0.693800
24.958000 0.736600
25.019400 0.775000
25.080800 0.783400
25.142200 0.776600
25.203700 0.764700
25.265100 0.727400
25.326500 0.714900
25.387900 0.707800
25.449300 0.712500
25.510700 0.718700
25.572100 0.727900
25.633500 0.737700
25.694900 0.745600
25.756300 0.820700
25.817700 0.833300
25.879100 0.854900
25.940500 0.874700
26.001900 0.868000
26.063300 0.854100
26.124700 0.749300
26.186100 0.756000
26.247600 0.782600
26.309000 0.787100
26.370400 0.794100
26.431800 0.812100
26.493200 0.851300
26.554600 0.883200
26.616000 0.958700
26.677400 0.889700
26.738800 0.796200
26.800200 0.768000
26.861600 0.744600
26.923000 0.728400
26.984400 0.738400
27.045800 0.743200
27.107200 0.754100
27.168600 0.761800
27.230000 0.746400
27.291400 0.739600
27.352900 0.742300
27.414300 0.753900
27.475700 0.769600
27.537100 0.813600
27.598500 0.885800
27.659900 0.970600
27.721300 1.077700
27.782700 1.189500
27.844100 1.416300
27.905500 1.341700
27.966900 1.324100
28.028300 1.331900
28.089700 1.263800
28.151100 1.206800
28.212500 1.186900
28.273900 1.206500
28.335300 1.199000
28.396800 1.186100
28.458200 1.162200
28.519600 1.160800
28.581000 1.211300
28.642400 1.291700
28.703800 1.366700
28.765200 1.441700
28.826600 1.413300
28.888000 1.414300
28.949400 1.428800
29.010800 1.487300
29.072200 1.645300
29.133600 1.494900
29.195000 1.309500
29.256400 0.982600
29.317800 0.799600
29.379200 0.760400
29.440700 0.762300
29.502100 0.852200
29.563500 0.842900
29.624900 0.814500
29.686300 0.779300
29.747700 0.746200
29.809100 0.757500
29.870500 0.778700
29.931900 0.807800
29.993300 0.829700
30.054700 0.832100
30.116100 0.813200
30.177500 0.787500
30.238900 0.784800
30.300300 0.738100
30.361700 0.722000
30.423100 0.714300
30.484600 0.710600
30.546000 0.709900
30.607400 0.711400
30.668800 0.716600
30.730200 0.726000
30.791600 0.751300
30.853000 0.827000
30.914400 0.884000
30.975800 1.024600
31.037200 1.048200
31.098600 1.019100
31.160000 0.934300
31.221400 0.834500
31.282800 0.746300
31.344200 0.705200
31.405600 0.703800
31.467000 0.709600
