set title 'mp-1239196 - Density of States'
set xlabel 'Energy (eV)'
set ylabel 'DOS (states/eV)'
set grid
set xrange [-10:10]
set yrange [0:4.648]
set xzeroaxis lt -1
set terminal png size 800,600
set output 'mp-1239196_dos_gnuplot.png'
plot '-' using 1:2 with lines title 'DOS'
-7.219300 0.000000
-7.198300 0.000000
-7.177300 0.000000
-7.156300 0.000000
-7.135400 0.000000
-7.114400 0.000000
-7.093400 0.000000
-7.072400 0.000000
-7.051400 0.000000
-7.030400 0.000000
-7.009400 0.000000
-6.988400 0.000000
-6.967400 0.000000
-6.946400 0.000000
-6.925500 0.000000
-6.904500 0.000000
-6.883500 0.000000
-6.862500 0.000000
-6.841500 0.000000
-6.820500 0.000000
-6.799500 0.000000
-6.778500 0.000000
-6.757500 0.000000
-6.736600 0.000000
-6.715600 0.000000
-6.694600 0.000000
-6.673600 0.000000
-6.652600 0.000000
-6.631600 0.000000
-6.610600 0.000000
-6.589600 0.000000
-6.568600 0.000000
-6.547600 0.000000
-6.526700 0.000000
-6.505700 0.000000
-6.484700 0.000000
-6.463700 0.000000
-6.442700 0.000000
-6.421700 0.000000
-6.400700 0.000000
-6.379700 0.000000
-6.358700 0.000000
-6.337800 0.000000
-6.316800 0.000000
-6.295800 0.000000
-6.274800 0.000000
-6.253800 0.000000
-6.232800 0.000000
-6.211800 0.000000
-6.190800 0.000000
-6.169800 0.000000
-6.148800 0.000000
-6.127900 0.000000
-6.106900 0.000000
-6.085900 0.000000
-6.064900 0.000000
-6.043900 0.000000
-6.022900 0.000000
-6.001900 0.000000
-5.980900 0.000000
-5.959900 0.000000
-5.938900 0.000000
-5.918000 0.000000
-5.897000 0.000000
-5.876000 0.000000
-5.855000 0.000000
-5.834000 0.000000
-5.813000 0.000000
-5.792000 0.000000
-5.771000 0.000000
-5.750000 0.000000
-5.729100 0.000000
-5.708100 0.000000
-5.687100 0.000000
-5.666100 0.000000
-5.645100 0.000000
-5.624100 0.000000
-5.603100 0.000000
-5.582100 0.000000
-5.561100 0.000000
-5.540100 0.000000
-5.519200 0.000000
-5.498200 0.000000
-5.477200 0.000000
-5.456200 0.000000
-5.435200 0.000000
-5.414200 0.000300
-5.393200 0.001700
-5.372200 0.006600
-5.351200 0.019100
-5.330200 0.041100
-5.309300 0.068800
-5.288300 0.098200
-5.267300 0.138000
-5.246300 0.205600
-5.225300 0.297800
-5.204300 0.380200
-5.183300 0.432700
-5.162300 0.479200
-5.141300 0.543200
-5.120400 0.609100
-5.099400 0.642600
-5.078400 0.627400
-5.057400 0.588800
-5.036400 0.566200
-5.015400 0.559100
-4.994400 0.550700
-4.973400 0.560800
-4.952400 0.607800
-4.931400 0.662400
-4.910500 0.693700
-4.889500 0.724700
-4.868500 0.796000
-4.847500 0.881000
-4.826500 0.910600
-4.805500 0.877400
-4.784500 0.826200
-4.763500 0.783400
-4.742500 0.757000
-4.721600 0.732800
-4.700600 0.686000
-4.679600 0.638300
-4.658600 0.621300
-4.637600 0.603200
-4.616600 0.545000
-4.595600 0.471600
-4.574600 0.424500
-4.553600 0.410600
-4.532600 0.427900
-4.511700 0.481700
-4.490700 0.554500
-4.469700 0.621600
-4.448700 0.710000
-4.427700 0.861600
-4.406700 1.039400
-4.385700 1.148400
-4.364700 1.131900
-4.343700 1.018700
-4.322700 0.894900
-4.301800 0.810800
-4.280800 0.744800
-4.259800 0.682900
-4.238800 0.646400
-4.217800 0.642000
-4.196800 0.661200
-4.175800 0.700100
-4.154800 0.743300
-4.133800 0.758200
-4.112900 0.723400
-4.091900 0.651700
-4.070900 0.568100
-4.049900 0.488000
-4.028900 0.439100
-4.007900 0.440800
-3.986900 0.464600
-3.965900 0.491500
-3.944900 0.553000
-3.923900 0.648500
-3.903000 0.705700
-3.882000 0.673100
-3.861000 0.592800
-3.840000 0.560300
-3.819000 0.632500
-3.798000 0.764700
-3.777000 0.850700
-3.756000 0.854400
-3.735000 0.841900
-3.714000 0.867700
-3.693100 0.921800
-3.672100 0.974500
-3.651100 0.982800
-3.630100 0.919700
-3.609100 0.847800
-3.588100 0.861800
-3.567100 0.961100
-3.546100 1.067100
-3.525100 1.112500
-3.504200 1.065900
-3.483200 0.941400
-3.462200 0.800200
-3.441200 0.690400
-3.420200 0.593800
-3.399200 0.484700
-3.378200 0.404800
-3.357200 0.405500
-3.336200 0.457700
-3.315200 0.496700
-3.294300 0.497300
-3.273300 0.449200
-3.252300 0.343100
-3.231300 0.222900
-3.210300 0.174700
-3.189300 0.245700
-3.168300 0.399900
-3.147300 0.562800
-3.126300 0.732300
-3.105400 0.988000
-3.084400 1.313700
-3.063400 1.509700
-3.042400 1.407500
-3.021400 1.073900
-3.000400 0.712400
-2.979400 0.476300
-2.958400 0.403600
-2.937400 0.432200
-2.916400 0.491700
-2.895500 0.606600
-2.874500 0.838600
-2.853500 1.157900
-2.832500 1.476500
-2.811500 1.733200
-2.790500 1.847800
-2.769500 1.709100
-2.748500 1.306800
-2.727500 0.796200
-2.706500 0.377100
-2.685600 0.140800
-2.664600 0.055100
-2.643600 0.049900
-2.622600 0.076000
-2.601600 0.111700
-2.580600 0.163100
-2.559600 0.283100
-2.538600 0.561800
-2.517600 1.012300
-2.496700 1.444600
-2.475700 1.587900
-2.454700 1.395200
-2.433700 1.119400
-2.412700 1.070800
-2.391700 1.340200
-2.370700 1.710600
-2.349700 1.874700
-2.328700 1.743300
-2.307700 1.446200
-2.286800 1.144100
-2.265800 0.972000
-2.244800 1.011000
-2.223800 1.197700
-2.202800 1.352100
-2.181800 1.355100
-2.160800 1.270900
-2.139800 1.253300
-2.118800 1.336200
-2.097800 1.427900
-2.076900 1.511800
-2.055900 1.651800
-2.034900 1.812300
-2.013900 1.892700
-1.992900 1.886900
-1.971900 1.839800
-1.950900 1.744700
-1.929900 1.598200
-1.908900 1.467800
-1.888000 1.446800
-1.867000 1.568300
-1.846000 1.746600
-1.825000 1.814000
-1.804000 1.654100
-1.783000 1.295500
-1.762000 0.906100
-1.741000 0.696000
-1.720000 0.772100
-1.699000 1.060100
-1.678100 1.362400
-1.657100 1.538500
-1.636100 1.626200
-1.615100 1.688600
-1.594100 1.638500
-1.573100 1.397400
-1.552100 1.088900
-1.531100 0.884500
-1.510100 0.807600
-1.489200 0.821500
-1.468200 0.937400
-1.447200 1.120500
-1.426200 1.243800
-1.405200 1.260500
-1.384200 1.286300
-1.363200 1.386800
-1.342200 1.436300
-1.321200 1.319600
-1.300200 1.106800
-1.279300 0.928100
-1.258300 0.842600
-1.237300 0.865400
-1.216300 0.966800
-1.195300 1.053300
-1.174300 1.057700
-1.153300 1.002200
-1.132300 0.939800
-1.111300 0.908800
-1.090300 0.912700
-1.069400 0.894800
-1.048400 0.800800
-1.027400 0.658500
-1.006400 0.544100
-0.985400 0.491300
-0.964400 0.458300
-0.943400 0.399100
-0.922400 0.350500
-0.901400 0.387500
-0.880500 0.502900
-0.859500 0.608900
-0.838500 0.661100
-0.817500 0.689200
-0.796500 0.689500
-0.775500 0.610700
-0.754500 0.466800
-0.733500 0.333400
-0.712500 0.240000
-0.691500 0.168400
-0.670600 0.125600
-0.649600 0.141700
-0.628600 0.217500
-0.607600 0.315000
-0.586600 0.396500
-0.565600 0.449400
-0.544600 0.479300
-0.523600 0.510900
-0.502600 0.586200
-0.481600 0.720200
-0.460700 0.854400
-0.439700 0.893000
-0.418700 0.808500
-0.397700 0.677500
-0.376700 0.604600
-0.355700 0.663800
-0.334700 0.871300
-0.313700 1.130000
-0.292700 1.266100
-0.271800 1.207100
-0.250800 1.074000
-0.229800 1.044700
-0.208800 1.181900
-0.187800 1.433100
-0.166800 1.745000
-0.145800 2.120700
-0.124800 2.541000
-0.103800 2.883600
-0.082800 3.026700
-0.061900 2.984300
-0.040900 2.814300
-0.019900 2.502800
0.001100 2.076300
0.022100 1.705800
0.043100 1.593100
0.064100 1.806000
0.085100 2.234900
0.106100 2.658000
0.127000 2.884800
0.148000 2.895400
0.169000 2.800800
0.190000 2.678200
0.211000 2.532400
0.232000 2.372100
0.253000 2.236600
0.274000 2.180300
0.295000 2.209500
0.316000 2.200700
0.336900 2.007300
0.357900 1.652900
0.378900 1.267600
0.399900 0.914600
0.420900 0.613200
0.441900 0.420800
0.462900 0.387700
0.483900 0.463100
0.504900 0.514800
0.525900 0.480700
0.546800 0.452100
0.567800 0.551600
0.588800 0.778700
0.609800 1.018600
0.630800 1.136300
0.651800 1.041500
0.672800 0.754800
0.693800 0.423300
0.714800 0.209600
0.735700 0.196300
0.756700 0.405700
0.777700 0.799900
0.798700 1.232100
0.819700 1.526600
0.840700 1.673000
0.861700 1.835900
0.882700 2.114800
0.903700 2.389900
0.924700 2.473000
0.945600 2.332500
0.966600 2.096200
0.987600 1.894700
1.008600 1.791300
1.029600 1.801800
1.050600 1.881200
1.071600 1.928300
1.092600 1.856700
1.113600 1.682000
1.134500 1.561800
1.155500 1.714600
1.176500 2.243800
1.197500 2.974900
1.218500 3.456200
1.239500 3.300500
1.260500 2.604200
1.281500 1.862900
1.302500 1.458200
1.323500 1.370300
1.344400 1.364500
1.365400 1.299200
1.386400 1.206100
1.407400 1.172000
1.428400 1.238900
1.449400 1.395800
1.470400 1.582600
1.491400 1.676500
1.512400 1.557800
1.533400 1.262500
1.554300 1.020900
1.575300 1.056900
1.596300 1.354300
1.617300 1.689300
1.638300 1.867200
1.659300 1.815000
1.680300 1.525100
1.701300 1.095300
1.722300 0.739100
1.743200 0.641600
1.764200 0.871000
1.785200 1.364900
1.806200 1.893800
1.827200 2.148900
1.848200 2.012200
1.869200 1.661700
1.890200 1.342800
1.911200 1.155500
1.932200 1.062300
1.953100 0.982600
1.974100 0.908700
1.995100 0.960100
2.016100 1.241000
2.037100 1.632200
2.058100 1.837300
2.079100 1.696200
2.100100 1.376200
2.121100 1.167100
2.142100 1.140800
2.163000 1.131400
2.184000 1.014400
2.205000 0.867800
2.226000 0.851000
2.247000 1.031700
2.268000 1.345400
2.289000 1.668500
2.310000 1.942200
2.331000 2.192700
2.351900 2.390600
2.372900 2.426200
2.393900 2.306400
2.414900 2.200300
2.435900 2.218400
2.456900 2.316800
2.477900 2.454300
2.498900 2.665800
2.519900 2.933400
2.540900 3.148200
2.561800 3.228900
2.582800 3.159700
2.603800 2.953500
2.624800 2.647200
2.645800 2.295800
2.666800 1.982800
2.687800 1.832000
2.708800 1.952800
2.729800 2.306700
2.750700 2.616100
2.771700 2.555200
2.792700 2.142700
2.813700 1.802900
2.834700 1.916300
2.855700 2.429200
2.876700 2.975000
2.897700 3.220900
2.918700 3.035800
2.939700 2.533900
2.960600 2.047100
2.981600 1.897600
3.002600 2.139400
3.023600 2.607100
3.044600 3.158200
3.065600 3.696900
3.086600 4.032700
3.107600 3.995200
3.128600 3.701500
3.149600 3.481700
3.170500 3.493300
3.191500 3.545400
3.212500 3.356000
3.233500 2.883800
3.254500 2.367400
3.275500 2.091000
3.296500 2.121600
3.317500 2.280400
3.338500 2.341900
3.359400 2.197900
3.380400 1.897100
3.401400 1.599400
3.422400 1.441200
3.443400 1.421900
3.464400 1.446000
3.485400 1.441100
3.506400 1.374200
3.527400 1.225400
3.548400 1.033900
3.569300 0.920400
3.590300 1.023900
3.611300 1.399100
3.632300 1.917400
3.653300 2.325400
3.674300 2.472400
3.695300 2.415600
3.716300 2.282300
3.737300 2.107500
3.758300 1.827600
3.779200 1.413700
3.800200 0.962200
3.821200 0.627800
3.842200 0.513400
3.863200 0.609000
3.884200 0.807900
3.905200 0.990400
3.926200 1.096600
3.947200 1.142800
3.968100 1.199100
3.989100 1.316400
4.010100 1.457700
4.031100 1.533700
4.052100 1.483600
4.073100 1.300100
4.094100 1.030200
4.115100 0.769200
4.136100 0.592600
4.157100 0.486800
4.178000 0.418100
4.199000 0.443300
4.220000 0.655800
4.241000 1.032300
4.262000 1.405600
4.283000 1.586500
4.304000 1.484800
4.325000 1.156500
4.346000 0.769100
4.366900 0.490200
4.387900 0.423400
4.408900 0.629900
4.429900 1.069500
4.450900 1.508800
4.471900 1.675500
4.492900 1.540700
4.513900 1.307400
4.534900 1.155100
4.555900 1.122900
4.576800 1.162400
4.597800 1.187300
4.618800 1.136800
4.639800 1.041600
4.660800 0.960000
4.681800 0.892500
4.702800 0.841200
4.723800 0.835000
4.744800 0.834800
4.765800 0.751800
4.786700 0.597700
4.807700 0.496200
4.828700 0.520200
4.849700 0.621900
4.870700 0.742200
4.891700 0.884000
4.912700 1.045800
4.933700 1.168300
4.954700 1.187000
4.975600 1.092700
4.996600 0.966500
5.017600 0.977000
5.038600 1.241900
5.059600 1.646100
5.080600 1.903500
5.101600 1.853800
5.122600 1.609200
5.143600 1.401800
5.164600 1.380100
5.185500 1.519500
5.206500 1.668200
5.227500 1.724900
5.248500 1.768500
5.269500 1.959100
5.290500 2.315200
5.311500 2.668900
5.332500 2.887800
5.353500 3.020100
5.374500 3.163900
5.395400 3.346400
5.416400 3.583000
5.437400 3.910200
5.458400 4.225900
5.479400 4.216400
5.500400 3.679600
5.521400 2.831600
5.542400 2.107800
5.563400 1.803200
5.584300 1.957400
5.605300 2.395800
5.626300 2.839900
5.647300 3.049300
5.668300 2.912300
5.689300 2.494900
5.710300 2.016500
5.731300 1.696300
5.752300 1.583700
5.773300 1.556600
5.794200 1.506200
5.815200 1.489400
5.836200 1.636100
5.857200 1.932800
5.878200 2.213900
5.899200 2.344500
5.920200 2.304600
5.941200 2.191600
5.962200 2.195300
5.983100 2.410900
6.004100 2.697900
6.025100 2.863500
6.046100 2.867300
6.067100 2.763000
6.088100 2.575000
6.109100 2.318600
6.130100 2.069800
6.151100 1.939000
6.172100 2.000700
6.193000 2.291800
6.214000 2.762400
6.235000 3.167800
6.256000 3.209800
6.277000 2.854600
6.298000 2.358200
6.319000 2.025900
6.340000 2.031700
6.361000 2.347300
6.382000 2.774700
6.402900 3.055000
6.423900 2.986600
6.444900 2.567800
6.465900 2.036300
6.486900 1.653900
6.507900 1.481500
6.528900 1.451300
6.549900 1.575500
6.570900 1.945000
6.591800 2.514700
6.612800 3.013000
6.633800 3.172600
6.654800 3.035400
6.675800 2.931100
6.696800 3.131000
6.717800 3.588000
6.738800 4.013600
6.759800 4.106600
6.780800 3.745000
6.801700 3.072500
6.822700 2.363000
6.843700 1.822000
6.864700 1.553400
6.885700 1.561500
6.906700 1.703700
6.927700 1.742100
6.948700 1.530400
6.969700 1.169700
6.990700 0.956400
7.011600 1.141700
7.032600 1.704100
7.053600 2.295500
7.074600 2.490000
7.095600 2.200700
7.116600 1.775700
7.137600 1.645000
7.158600 1.964000
7.179600 2.519700
7.200500 2.902300
7.221500 2.888600
7.242500 2.672500
7.263500 2.624100
7.284500 2.857500
7.305500 3.104400
7.326500 3.024700
7.347500 2.598000
7.368500 2.120500
7.389500 1.854400
7.410400 1.799700
7.431400 1.794700
7.452400 1.740700
7.473400 1.674700
7.494400 1.660600
7.515400 1.681800
7.536400 1.649800
7.557400 1.508600
7.578400 1.316600
7.599300 1.205200
7.620300 1.291400
7.641300 1.600100
7.662300 1.984900
7.683300 2.211000
7.704300 2.232600
7.725300 2.261400
7.746300 2.456600
7.767300 2.702200
7.788300 2.768700
7.809200 2.589500
7.830200 2.316600
7.851200 2.133200
7.872200 2.093700
7.893200 2.155800
7.914200 2.263800
7.935200 2.374100
7.956200 2.453800
7.977200 2.487400
7.998200 2.492200
8.019100 2.462200
8.040100 2.314700
8.061100 2.033100
8.082100 1.806800
8.103100 1.842900
8.124100 2.096200
8.145100 2.344400
8.166100 2.456900
8.187100 2.488700
8.208000 2.608500
8.229000 2.932300
8.250000 3.347600
8.271000 3.622300
8.292000 3.681100
8.313000 3.617200
8.334000 3.521000
8.355000 3.422800
8.376000 3.311200
8.397000 3.151500
8.417900 2.947500
8.438900 2.759100
8.459900 2.602000
8.480900 2.423100
8.501900 2.242600
8.522900 2.193300
8.543900 2.378400
8.564900 2.779700
8.585900 3.253300
8.606900 3.589400
8.627800 3.634800
8.648800 3.368900
8.669800 2.906300
8.690800 2.443600
8.711800 2.135600
8.732800 2.029700
8.753800 2.094000
8.774800 2.232100
8.795800 2.339900
8.816700 2.397100
8.837700 2.462700
8.858700 2.626700
8.879700 2.971800
8.900700 3.471500
8.921700 3.933800
8.942700 4.129000
8.963700 3.979900
8.984700 3.604800
9.005700 3.204900
9.026600 2.930300
9.047600 2.822000
9.068600 2.805600
9.089600 2.720200
9.110600 2.450800
9.131600 2.047400
9.152600 1.652600
9.173600 1.366500
9.194600 1.242000
9.215500 1.338500
9.236500 1.700900
9.257500 2.258300
9.278500 2.778300
9.299500 3.000800
9.320500 2.857400
9.341500 2.517700
9.362500 2.198400
9.383500 1.957500
9.404500 1.732600
9.425400 1.577200
9.446400 1.690500
9.467400 2.152300
9.488400 2.787700
9.509400 3.305700
9.530400 3.468000
9.551400 3.211500
9.572400 2.732700
9.593400 2.375900
9.614400 2.342400
9.635300 2.520400
9.656300 2.620300
9.677300 2.466300
9.698300 2.133400
9.719300 1.848800
9.740300 1.813900
9.761300 2.050200
9.782300 2.357600
9.803300 2.482500
9.824200 2.353500
9.845200 2.121500
9.866200 1.995900
9.887200 2.087700
9.908200 2.367700
9.929200 2.678100
9.950200 2.790800
9.971200 2.605500
9.992200 2.321400
10.013200 2.244500
10.034100 2.397200
10.055100 2.521600
10.076100 2.519000
10.097100 2.635800
10.118100 3.049800
10.139100 3.466400
10.160100 3.430200
10.181100 2.940900
10.202100 2.411100
10.223100 2.113200
10.244000 1.986100
10.265000 1.906800
10.286000 1.902000
10.307000 2.041500
10.328000 2.243800
10.349000 2.336100
10.370000 2.308400
10.391000 2.294100
10.412000 2.299600
10.432900 2.225200
10.453900 2.126800
10.474900 2.171700
10.495900 2.339200
10.516900 2.423400
10.537900 2.369600
10.558900 2.346400
10.579900 2.438500
10.600900 2.554800
10.621900 2.652100
10.642800 2.763200
10.663800 2.831500
10.684800 2.771700
10.705800 2.684200
10.726800 2.794100
10.747800 3.160400
10.768800 3.608800
10.789800 3.912000
10.810800 3.892000
10.831700 3.498800
10.852700 2.957100
10.873700 2.628500
10.894700 2.625100
10.915700 2.731400
10.936700 2.686500
10.957700 2.422100
10.978700 2.090200
10.999700 1.923100
11.020700 2.010000
11.041600 2.211000
11.062600 2.332600
11.083600 2.318200
11.104600 2.208200
11.125600 2.013100
11.146600 1.760300
11.167600 1.640000
11.188600 1.943600
11.209600 2.745300
11.230600 3.650700
11.251500 4.016800
11.272500 3.554400
11.293500 2.621000
11.314500 1.848100
11.335500 1.583800
11.356500 1.730000
11.377500 2.018700
11.398500 2.307100
11.419500 2.554400
11.440400 2.712100
11.461400 2.797700
11.482400 2.930900
11.503400 3.156500
11.524400 3.338300
11.545400 3.340000
11.566400 3.198800
11.587400 3.005400
11.608400 2.759000
11.629400 2.452900
11.650300 2.176200
11.671300 2.040100
11.692300 2.063900
11.713300 2.195400
11.734300 2.396400
11.755300 2.597600
11.776300 2.637100
11.797300 2.406900
11.818300 1.999900
11.839200 1.622300
11.860200 1.446100
11.881200 1.557100
11.902200 1.969600
11.923200 2.672300
11.944200 3.566600
11.965200 4.328400
11.986200 4.605200
12.007200 4.460000
12.028200 4.301000
12.049100 4.325500
12.070100 4.380200
12.091100 4.279700
12.112100 3.952000
12.133100 3.435300
12.154100 2.906700
12.175100 2.548300
12.196100 2.336200
12.217100 2.108800
12.238100 1.858500
12.259000 1.783400
12.280000 2.017800
12.301000 2.448100
12.322000 2.825500
12.343000 2.977400
12.364000 2.904000
12.385000 2.740800
12.406000 2.649400
12.427000 2.692700
12.447900 2.810000
12.468900 2.921500
12.489900 3.013900
12.510900 3.112300
12.531900 3.213700
12.552900 3.274300
12.573900 3.241100
12.594900 3.099300
12.615900 2.906200
12.636900 2.771100
12.657800 2.828800
12.678800 3.190500
12.699800 3.776300
12.720800 4.244700
12.741800 4.258700
12.762800 3.792400
12.783800 3.138700
12.804800 2.711400
12.825800 2.744000
12.846800 3.070100
12.867700 3.352800
12.888700 3.538200
12.909700 3.820500
12.930700 4.184400
12.951700 4.324000
12.972700 4.064200
12.993700 3.599800
13.014700 3.228800
13.035700 3.015200
13.056600 2.843500
13.077600 2.701300
13.098600 2.710600
13.119600 2.912800
13.140600 3.205200
13.161600 3.489200
13.182600 3.723800
13.203600 3.797200
13.224600 3.539500
13.245600 2.994000
13.266500 2.523200
13.287500 2.474800
13.308500 2.793100
13.329500 3.088300
13.350500 3.091800
13.371500 2.888300
13.392500 2.664900
13.413500 2.471900
13.434500 2.334700
13.455400 2.336100
13.476400 2.460900
13.497400 2.576900
13.518400 2.616600
13.539400 2.605800
13.560400 2.578600
13.581400 2.573500
13.602400 2.600100
13.623400 2.597400
13.644400 2.526900
13.665300 2.482000
13.686300 2.635900
13.707300 3.056100
13.728300 3.567600
13.749300 3.866600
13.770300 3.813900
13.791300 3.549400
13.812300 3.291700
13.833300 3.090500
13.854300 2.856100
13.875200 2.574600
13.896200 2.353500
13.917200 2.298300
13.938200 2.438300
13.959200 2.725700
13.980200 3.025500
14.001200 3.127500
14.022200 2.903300
14.043200 2.471300
14.064100 2.083400
14.085100 1.872900
14.106100 1.810800
14.127100 1.872700
14.148100 2.120300
14.169100 2.544100
14.190100 2.966400
14.211100 3.243200
14.232100 3.422300
14.253100 3.574300
14.274000 3.643700
14.295000 3.606000
14.316000 3.565600
14.337000 3.523500
14.358000 3.302200
14.379000 2.875800
14.400000 2.504400
14.421000 2.437200
14.442000 2.707700
14.463000 3.199800
14.483900 3.712700
14.504900 4.031900
14.525900 4.089700
14.546900 3.975000
14.567900 3.742600
14.588900 3.358300
14.609900 2.845100
14.630900 2.353800
14.651900 2.082300
14.672800 2.156300
14.693800 2.543500
14.714800 3.031100
14.735800 3.369200
14.756800 3.520100
14.777800 3.612100
14.798800 3.625500
14.819800 3.437900
14.840800 3.118200
14.861800 2.831700
14.882700 2.646200
14.903700 2.654200
14.924700 2.967800
14.945700 3.444000
14.966700 3.675000
14.987700 3.375100
15.008700 2.664100
15.029700 1.900200
15.050700 1.337100
15.071600 1.041600
