set title 'mp-1060281 - Density of States'
set xlabel 'Energy (eV)'
set ylabel 'DOS (states/eV)'
set grid
set xrange [-10:10]
set yrange [0:2.793]
set xzeroaxis lt -1
set terminal png size 800,600
set output 'mp-1060281_dos_gnuplot.png'
plot '-' using 1:2 with lines title 'DOS'
-24.899400 0.000000
-24.809200 0.000000
-24.718900 0.000000
-24.628700 0.000000
-24.538500 0.000000
-24.448200 0.000000
-24.358000 0.000000
-24.267800 0.000000
-24.177500 0.000000
-24.087300 0.000000
-23.997100 0.000000
-23.906800 0.000000
-23.816600 0.000000
-23.726400 0.000000
-23.636200 0.000000
-23.545900 0.000000
-23.455700 0.000000
-23.365500 0.000000
-23.275200 0.000000
-23.185000 0.000000
-23.094800 0.000000
-23.004500 0.000000
-22.914300 0.000000
-22.824100 0.000000
-22.733800 0.000000
-22.643600 0.000000
-22.553400 0.000000
-22.463200 0.000000
-22.372900 0.000000
-22.282700 0.000000
-22.192500 0.000000
-22.102200 0.000000
-22.012000 0.000000
-21.921800 0.000000
-21.831500 0.000000
-21.741300 0.000000
-21.651100 0.000000
-21.560800 0.000000
-21.470600 0.000000
-21.380400 0.000000
-21.290200 0.000000
-21.199900 0.000000
-21.109700 0.000000
-21.019500 0.000000
-20.929200 0.000000
-20.839000 0.000000
-20.748800 0.000000
-20.658500 0.000000
-20.568300 0.000000
-20.478100 0.000000
-20.387800 0.000000
-20.297600 0.000000
-20.207400 0.000000
-20.117200 0.000000
-20.026900 0.000000
-19.936700 0.000000
-19.846500 0.000000
-19.756200 0.000000
-19.666000 0.000000
-19.575800 0.000000
-19.485500 0.000000
-19.395300 0.000000
-19.305100 0.000000
-19.214800 0.000000
-19.124600 0.000000
-19.034400 0.000000
-18.944200 0.000000
-18.853900 0.000000
-18.763700 0.000000
-18.673500 0.000000
-18.583200 0.000000
-18.493000 0.000000
-18.402800 0.000000
-18.312500 0.000000
-18.222300 0.000000
-18.132100 0.000000
-18.041800 0.000000
-17.951600 0.000000
-17.861400 0.000000
-17.771200 0.000000
-17.680900 0.000000
-17.590700 0.000000
-17.500500 0.000000
-17.410200 0.000000
-17.320000 0.000000
-17.229800 0.000000
-17.139500 0.000000
-17.049300 0.000000
-16.959100 0.000000
-16.868800 0.000000
-16.778600 0.000000
-16.688400 0.014800
-16.598200 0.827600
-16.507900 1.493000
-16.417700 2.949700
-16.327500 2.901900
-16.237200 2.894400
-16.147000 2.443600
-16.056800 2.649400
-15.966500 3.321100
-15.876300 0.000000
-15.786100 0.000000
-15.695800 0.000000
-15.605600 0.000000
-15.515400 0.000000
-15.425200 0.000000
-15.334900 0.000000
-15.244700 0.000000
-15.154500 0.000000
-15.064200 0.000000
-14.974000 0.000000
-14.883800 0.000000
-14.793500 0.000000
-14.703300 0.000000
-14.613100 0.000000
-14.522800 0.000000
-14.432600 0.000000
-14.342400 0.000000
-14.252200 0.000000
-14.161900 0.000000
-14.071700 0.000000
-13.981500 0.000000
-13.891200 0.000000
-13.801000 0.000000
-13.710800 0.000000
-13.620500 0.000000
-13.530300 0.000000
-13.440100 0.000000
-13.349800 0.000000
-13.259600 0.000000
-13.169400 0.000000
-13.079200 0.000000
-12.988900 0.000000
-12.898700 0.000000
-12.808500 0.000000
-12.718200 0.000000
-12.628000 0.000000
-12.537800 0.000000
-12.447500 0.000000
-12.357300 0.000000
-12.267100 0.000000
-12.176800 0.000000
-12.086600 0.000000
-11.996400 0.000000
-11.906200 0.000000
-11.815900 0.000000
-11.725700 0.000000
-11.635500 0.000000
-11.545200 0.000000
-11.455000 0.000000
-11.364800 0.000000
-11.274500 0.000000
-11.184300 0.000000
-11.094100 0.000000
-11.003800 0.000000
-10.913600 0.000000
-10.823400 0.000000
-10.733200 0.000000
-10.642900 0.000000
-10.552700 0.000000
-10.462500 0.000000
-10.372200 0.000000
-10.282000 0.000000
-10.191800 0.000000
-10.101500 0.000000
-10.011300 0.000000
-9.921100 0.000000
-9.830800 0.000000
-9.740600 0.000000
-9.650400 0.000000
-9.560200 0.000000
-9.469900 0.000000
-9.379700 1.426000
-9.289500 1.426000
-9.199200 1.426000
-9.109000 0.925700
-9.018800 0.925700
-8.928500 0.925700
-8.838300 0.925700
-8.748100 0.925700
-8.657800 0.959100
-8.567600 1.028700
-8.477400 1.028700
-8.387200 1.028700
-8.296900 1.028700
-8.206700 2.345500
-8.116500 2.538800
-8.026200 0.306600
-7.936000 0.000000
-7.845800 0.000000
-7.755500 0.000000
-7.665300 0.000000
-7.575100 0.000000
-7.484800 0.000000
-7.394600 0.000000
-7.304400 0.000000
-7.214200 0.000000
-7.123900 0.000000
-7.033700 0.000000
-6.943500 0.000000
-6.853200 0.000000
-6.763000 0.000000
-6.672800 0.000000
-6.582500 0.000000
-6.492300 0.000000
-6.402100 0.000000
-6.311800 0.000000
-6.221600 0.000000
-6.131400 0.000000
-6.041200 0.000000
-5.950900 0.000000
-5.860700 0.000000
-5.770500 0.000000
-5.680200 0.000000
-5.590000 0.000000
-5.499800 0.133100
-5.409500 0.287200
-5.319300 0.460300
-5.229100 0.669000
-5.138800 0.797100
-5.048600 0.870200
-4.958400 0.801400
-4.868200 0.859100
-4.777900 0.844500
-4.687700 0.883200
-4.597500 0.913600
-4.507200 0.937200
-4.417000 0.974400
-4.326800 0.995600
-4.236500 1.007000
-4.146300 1.059300
-4.056100 1.227900
-3.965800 1.305300
-3.875600 1.498500
-3.785400 1.531900
-3.695200 1.300100
-3.604900 1.125000
-3.514700 1.026200
-3.424500 1.003900
-3.334200 0.978700
-3.244000 0.950200
-3.153800 0.911800
-3.063500 0.865700
-2.973300 0.823600
-2.883100 0.807600
-2.792800 0.805100
-2.702600 0.802600
-2.612400 0.801900
-2.522100 0.802000
-2.431900 0.803400
-2.341700 0.806500
-2.251500 0.813600
-2.161200 0.824100
-2.071000 1.042100
-1.980800 1.136700
-1.890500 1.185500
-1.800300 1.224700
-1.710100 1.139800
-1.619800 1.072500
-1.529600 1.047200
-1.439400 1.190200
-1.349100 1.400400
-1.258900 0.000000
-1.168700 0.000000
-1.078500 0.000000
-0.988200 0.000000
-0.898000 0.000000
-0.807800 0.000000
-0.717500 0.000000
-0.627300 0.000000
-0.537100 0.000000
-0.446800 0.000000
-0.356600 0.000000
-0.266400 0.000000
-0.176100 0.000000
-0.085900 0.000000
0.004300 0.000000
0.094500 0.000000
0.184800 0.000000
0.275000 0.000000
0.365200 0.000000
0.455500 0.000000
0.545700 0.000000
0.635900 0.000000
0.726200 0.000000
0.816400 0.000000
0.906600 0.000000
0.996900 0.000000
1.087100 0.000000
1.177300 0.000000
1.267500 0.000000
1.357800 0.000000
1.448000 0.000000
1.538200 0.000000
1.628500 0.000000
1.718700 0.000000
1.808900 0.000000
1.899200 0.000000
1.989400 0.000000
2.079600 0.000000
2.169900 0.000000
2.260100 0.000000
2.350300 0.000000
2.440500 0.000000
2.530800 0.000000
2.621000 0.000000
2.711200 0.131600
2.801500 0.777900
2.891700 0.573900
2.981900 0.761300
3.072200 1.047000
3.162400 1.119900
3.252600 1.013600
3.342900 0.587200
3.433100 0.505200
3.523300 0.520500
3.613500 0.546000
3.703800 0.563900
3.794000 0.557900
3.884200 0.567400
3.974500 0.577300
4.064700 0.587200
4.154900 0.597300
4.245200 0.607400
4.335400 0.613700
4.425600 0.618800
4.515900 0.694200
4.606100 0.806300
4.696300 0.746500
4.786500 0.692800
4.876800 0.665400
4.967000 0.649800
5.057200 0.641800
5.147500 0.633400
5.237700 0.625600
5.327900 0.618600
5.418200 0.613500
5.508400 0.610200
5.598600 0.615500
5.688900 0.616400
5.779100 0.617700
5.869300 0.619300
5.959500 0.621400
6.049800 0.658700
6.140000 0.683900
6.230200 0.705700
6.320500 0.753200
6.410700 0.799200
6.500900 0.855700
6.591200 0.918700
6.681400 1.024200
6.771600 1.059800
6.861900 0.936000
6.952100 0.790500
7.042300 0.586100
7.132500 0.441200
7.222800 0.464900
7.313000 0.508900
7.403200 0.554900
7.493500 0.595000
7.583700 0.684000
7.673900 0.792500
7.764200 0.873200
7.854400 0.993700
7.944600 1.021800
8.034900 1.021600
8.125100 1.038100
8.215300 1.049900
8.305500 1.092200
8.395800 1.098700
8.486000 1.062800
8.576200 1.067000
8.666500 1.019200
8.756700 0.996100
8.846900 1.001700
8.937200 1.018000
9.027400 0.992100
9.117600 0.988800
9.207900 0.989300
9.298100 1.126700
9.388300 1.278200
9.478500 1.335200
9.568800 1.355800
9.659000 1.356100
9.749200 1.305400
9.839500 1.133200
9.929700 1.042100
10.019900 0.968600
10.110200 0.841300
10.200400 0.670500
10.290600 0.627400
10.380900 0.587300
10.471100 0.549300
10.561300 0.551000
10.651500 0.543700
10.741800 0.536700
10.832000 0.538800
10.922200 0.537900
11.012500 0.545400
11.102700 0.558100
11.192900 0.605300
11.283200 0.689100
11.373400 0.776600
11.463600 0.858000
11.553900 0.912000
11.644100 0.959600
11.734300 1.043400
11.824500 1.082200
11.914800 1.316400
12.005000 0.750000
12.095200 0.696500
12.185500 0.870200
12.275700 1.067900
12.365900 1.191800
12.456200 1.309700
12.546400 1.310000
12.636600 1.223000
12.726900 1.161100
12.817100 1.223300
12.907300 1.138500
12.997500 1.081500
13.087800 1.042900
13.178000 1.082400
13.268200 1.037300
13.358500 0.956800
13.448700 0.878400
13.538900 0.757000
13.629200 0.699400
13.719400 0.660500
13.809600 0.646700
13.899900 0.665700
13.990100 0.736400
14.080300 0.856200
14.170500 0.982300
14.260800 1.151200
14.351000 1.279100
14.441200 1.336400
14.531500 1.281000
14.621700 1.252200
14.711900 1.217000
14.802200 1.187700
14.892400 1.099200
14.982600 1.073400
15.072900 1.088800
15.163100 1.131400
15.253300 1.162600
15.343500 1.223400
15.433800 1.147900
15.524000 1.112900
15.614200 1.054900
15.704500 0.956500
15.794700 0.945800
15.884900 0.922600
15.975200 0.862900
16.065400 0.779900
16.155600 0.649400
16.245900 0.529800
16.336100 0.454500
16.426300 0.436000
16.516500 0.263200
16.606800 0.222000
16.697000 0.111500
16.787200 0.085100
16.877500 0.095300
16.967700 0.109600
17.057900 0.129400
17.148200 0.155700
17.238400 0.197300
17.328600 0.266300
17.418900 0.402000
17.509100 0.578800
17.599300 0.790700
17.689500 1.037100
17.779800 1.595300
17.870000 1.763600
17.960200 1.092300
18.050500 0.760900
18.140700 0.731200
18.230900 0.727600
18.321200 0.722900
18.411400 0.731100
18.501600 0.742900
18.591900 0.762300
18.682100 0.793900
18.772300 0.841700
18.862500 0.857100
18.952800 0.883200
19.043000 0.883300
19.133200 0.994200
19.223500 1.067300
19.313700 1.043400
19.403900 1.000400
19.494200 0.962000
19.584400 0.954000
19.674600 1.035100
19.764900 1.027100
19.855100 0.961200
19.945300 0.888400
20.035500 0.865000
20.125800 0.852500
20.216000 0.856900
20.306200 0.899700
20.396500 0.910400
20.486700 0.823300
20.576900 0.855100
20.667200 0.843600
20.757400 0.915000
20.847600 1.044900
20.937900 1.178700
21.028100 1.301000
21.118300 1.420000
21.208500 1.410200
21.298800 1.447500
21.389000 1.598300
21.479200 1.470600
21.569500 1.387900
21.659700 1.264500
21.749900 1.211900
21.840200 1.207600
21.930400 1.216400
22.020600 1.233900
22.110900 1.242600
22.201100 1.228200
22.291300 1.202100
22.381500 1.193500
22.471800 1.205400
22.562000 1.223600
22.652200 1.216300
22.742500 1.232400
22.832700 1.227000
22.922900 1.287400
23.013200 1.309100
23.103400 1.337400
23.193600 1.373900
23.283900 1.499900
23.374100 1.521400
23.464300 1.670700
23.554500 1.455000
23.644800 1.197300
23.735000 1.047100
23.825200 1.045200
23.915500 1.105400
24.005700 1.174500
24.095900 1.270500
24.186200 1.291800
24.276400 1.186900
24.366600 1.111900
24.456900 1.105000
24.547100 1.131900
24.637300 1.169400
24.727500 1.242100
24.817800 1.314200
24.908000 1.384100
24.998200 1.444800
25.088500 1.660500
25.178700 1.717300
25.268900 1.260900
25.359200 0.954900
25.449400 0.896800
25.539600 0.877300
25.629900 0.869900
25.720100 0.876700
25.810300 0.903400
25.900500 0.958500
25.990800 1.051900
26.081000 1.001600
26.171200 0.987600
26.261500 1.000600
26.351700 1.007500
26.441900 1.055000
26.532200 1.132800
26.622400 1.231000
26.712600 1.325200
26.802900 1.374400
26.893100 1.455600
26.983300 1.519600
27.073500 1.572600
27.163800 1.533800
27.254000 1.438200
27.344200 1.387800
27.434500 1.309900
27.524700 1.252300
27.614900 1.153400
27.705200 0.959500
27.795400 0.861000
27.885600 0.860800
27.975900 0.909400
28.066100 0.975100
28.156300 1.059500
28.246500 1.205000
28.336800 1.257800
28.427000 1.294700
28.517200 1.345200
28.607500 1.418400
28.697700 1.334900
28.787900 1.326300
28.878200 1.255500
28.968400 1.151700
29.058600 1.123200
29.148900 1.093700
29.239100 1.067600
29.329300 1.010200
29.419500 0.974600
29.509800 0.913800
29.600000 0.921900
29.690200 0.881700
29.780500 0.843100
29.870700 0.814200
29.960900 0.801800
30.051200 0.809400
30.141400 0.827000
30.231600 1.027000
30.321900 1.093000
30.412100 1.382600
30.502300 1.788700
30.592500 1.866300
30.682800 2.005600
30.773000 2.131900
30.863200 2.118600
30.953500 1.988400
31.043700 1.928700
31.133900 1.975900
31.224200 2.072200
31.314400 2.136700
31.404600 2.166100
31.494900 2.399600
31.585100 1.760700
31.675300 1.631600
31.765500 1.523200
31.855800 1.413600
31.946000 1.340000
32.036200 1.345800
32.126500 1.299700
32.216700 1.253300
32.306900 1.189900
32.397200 1.341100
32.487400 1.561500
32.577600 1.690400
32.667900 1.960400
32.758100 1.986700
32.848300 2.007300
32.938500 1.920400
33.028800 1.352200
33.119000 1.143700
33.209200 0.955300
33.299500 0.833400
33.389700 0.776700
33.479900 0.768200
33.570200 0.804500
33.660400 0.875600
33.750600 0.964500
33.840900 1.110400
33.931100 1.201700
34.021300 1.298000
34.111600 1.242500
34.201800 1.194800
34.292000 1.123800
34.382200 1.121800
34.472500 1.230300
34.562700 1.281000
34.652900 1.251000
34.743200 1.242200
34.833400 1.164300
34.923600 1.057500
35.013900 1.018300
35.104100 1.086300
35.194300 0.997200
35.284600 0.822100
35.374800 0.784300
35.465000 0.823400
35.555200 0.925200
35.645500 1.154900
35.735700 1.502900
35.825900 1.420200
35.916200 1.433500
36.006400 1.480500
36.096600 1.557100
36.186900 1.699900
36.277100 1.943500
36.367300 1.942200
36.457600 1.891400
36.547800 1.825500
36.638000 1.725900
36.728200 1.649800
36.818500 1.685900
36.908700 1.531900
36.998900 1.495900
37.089200 1.355900
37.179400 1.375000
37.269600 1.422900
37.359900 1.477600
37.450100 1.536800
37.540300 1.613100
37.630600 1.954800
37.720800 1.568200
37.811000 1.355100
37.901200 1.253800
37.991500 1.226400
38.081700 1.293700
38.171900 1.363000
38.262200 1.454100
38.352400 1.386600
38.442600 1.429600
38.532900 1.513000
38.623100 1.455500
38.713300 1.425400
38.803600 1.394800
38.893800 1.368200
38.984000 1.328400
39.074200 1.271300
39.164500 1.348500
39.254700 1.221200
39.344900 1.230100
39.435200 1.226600
39.525400 1.201700
39.615600 1.167800
39.705900 1.130300
39.796100 1.114700
39.886300 1.097600
39.976600 1.088500
40.066800 1.084600
40.157000 1.094100
40.247200 1.120000
40.337500 1.164300
40.427700 1.176400
40.517900 1.195900
40.608200 1.169900
40.698400 1.150100
40.788600 1.153400
40.878900 1.160300
40.969100 1.165800
41.059300 1.157800
41.149600 1.139800
41.239800 1.094500
41.330000 1.065000
41.420200 1.046400
41.510500 1.044200
41.600700 1.058500
41.690900 1.068100
41.781200 1.085600
41.871400 1.148300
41.961600 1.196400
42.051900 1.240100
42.142100 1.267600
42.232300 1.236400
42.322600 1.304500
42.412800 1.394900
42.503000 1.453000
42.593200 1.492100
42.683500 1.510200
42.773700 1.478700
42.863900 1.442800
42.954200 1.393200
43.044400 1.501200
43.134600 1.491800
43.224900 1.541400
43.315100 1.561300
43.405300 1.586000
43.495600 1.601300
43.585800 1.570600
43.676000 1.574600
43.766200 1.479700
43.856500 1.492300
43.946700 1.520100
44.036900 1.555300
44.127200 1.502000
44.217400 1.463200
44.307600 1.363200
44.397900 1.307500
44.488100 1.317300
44.578300 1.345200
44.668600 1.378900
44.758800 1.413500
44.849000 1.451800
44.939200 1.492800
45.029500 1.513900
45.119700 1.547700
45.209900 1.549400
45.300200 1.540900
45.390400 1.603800
45.480600 1.722000
45.570900 1.778100
45.661100 1.725700
45.751300 1.780300
45.841600 1.811600
45.931800 1.918400
46.022000 1.844800
46.112200 1.845100
46.202500 1.837800
46.292700 1.828500
46.382900 1.839500
46.473200 1.812300
46.563400 1.785800
46.653600 1.751300
46.743900 1.732000
46.834100 1.750300
46.924300 1.783300
47.014600 1.802400
47.104800 1.781200
47.195000 1.748200
47.285200 1.630300
47.375500 1.576900
47.465700 1.549500
47.555900 1.657200
47.646200 1.921600
47.736400 1.809800
47.826600 1.637800
47.916900 1.525300
48.007100 1.482400
48.097300 1.491700
48.187600 1.542800
48.277800 1.676700
48.368000 2.011800
48.458200 1.879300
48.548500 1.664900
48.638700 1.536800
48.728900 1.399700
48.819200 1.297200
48.909400 1.207700
48.999600 1.179800
49.089900 1.147800
49.180100 1.157700
49.270300 1.175800
49.360600 1.195300
49.450800 1.325500
49.541000 1.357500
49.631200 1.257300
49.721500 1.227200
49.811700 1.164500
49.901900 1.198700
49.992200 1.307500
50.082400 1.388600
50.172600 1.433300
50.262900 1.461200
50.353100 1.514200
50.443300 1.475700
50.533600 1.491400
50.623800 1.386400
50.714000 1.310700
50.804200 1.270400
50.894500 1.237100
50.984700 1.224500
51.074900 1.200900
51.165200 1.178000
51.255400 1.168900
51.345600 1.184900
51.435900 1.228600
51.526100 1.476200
51.616300 1.549700
51.706600 1.581200
51.796800 1.608200
51.887000 1.603500
51.977200 1.602600
52.067500 1.613200
52.157700 2.074100
52.247900 1.417000
52.338200 1.513000
52.428400 1.518700
52.518600 1.518800
52.608900 1.560000
52.699100 1.581000
52.789300 1.560900
52.879600 1.500200
52.969800 1.483800
53.060000 1.499700
53.150200 1.528700
53.240500 1.558500
53.330700 1.599400
53.420900 1.620500
53.511200 1.577000
53.601400 1.534800
53.691600 1.553200
53.781900 1.657900
53.872100 1.770900
53.962300 1.875000
54.052600 1.814100
54.142800 1.694500
54.233000 1.564500
54.323200 1.508500
54.413500 1.559200
54.503700 1.499300
54.593900 1.426100
54.684200 1.431500
54.774400 1.475600
54.864600 1.623700
54.954900 1.705800
55.045100 1.634000
55.135300 1.635800
55.225600 1.686400
55.315800 1.711000
55.406000 1.699500
55.496200 1.656400
55.586500 1.668300
55.676700 1.685600
55.766900 1.679300
55.857200 1.687300
55.947400 1.696300
56.037600 1.726900
56.127900 1.759100
56.218100 1.774000
56.308300 1.778300
56.398600 1.754900
56.488800 1.708100
56.579000 1.636600
56.669200 1.567500
56.759500 1.544100
56.849700 1.505900
56.939900 1.475900
57.030200 1.491200
57.120400 1.518600
57.210600 1.441600
57.300900 1.414900
57.391100 1.617600
57.481300 1.664200
57.571600 1.641500
57.661800 1.567400
57.752000 1.514200
57.842200 1.481200
57.932500 1.475300
58.022700 1.471600
58.112900 1.473000
58.203200 1.494600
58.293400 1.526600
58.383600 1.599900
58.473900 1.761300
58.564100 1.746300
58.654300 1.822500
58.744600 1.932700
58.834800 1.907800
58.925000 1.895000
59.015200 1.883300
59.105500 1.790300
59.195700 1.791400
59.285900 1.892300
59.376200 2.051900
59.466400 1.776700
59.556600 1.957800
59.646900 1.793500
59.737100 1.735700
59.827300 1.790800
59.917600 1.835000
60.007800 1.888500
60.098000 1.877300
60.188200 1.848900
60.278500 1.661000
60.368700 1.598700
60.458900 1.776400
60.549200 1.610800
60.639400 1.542200
60.729600 1.417500
60.819900 1.451000
60.910100 1.542000
61.000300 1.602300
61.090600 1.559900
61.180800 1.597800
61.271000 1.595500
61.361200 1.536200
61.451500 1.533100
61.541700 1.522800
61.631900 1.570300
61.722200 1.581900
61.812400 1.622900
61.902600 1.610200
61.992900 1.568000
62.083100 1.499300
62.173300 1.455900
62.263600 1.437000
62.353800 1.466300
62.444000 1.481400
62.534200 1.512100
62.624500 1.447000
62.714700 1.479500
62.804900 1.422700
62.895200 1.511400
62.985400 1.597200
63.075600 1.674300
63.165900 1.671800
63.256100 1.911000
63.346300 1.966500
63.436600 1.949100
63.526800 1.901200
63.617000 1.804800
63.707200 1.768100
63.797500 1.761000
63.887700 1.807200
63.977900 1.861400
64.068200 1.910900
64.158400 1.948800
64.248600 1.941700
64.338900 1.923900
64.429100 1.887800
64.519300 1.852800
64.609600 1.812200
64.699800 1.729300
64.790000 1.661600
64.880200 1.650600
64.970500 1.629200
65.060700 1.591200
65.150900 1.565300
65.241200 1.566900
65.331400 1.680800
65.421600 1.772400
65.511900 1.836100
65.602100 1.770300
65.692300 1.685000
65.782600 1.605300
65.872800 1.574900
65.963000 1.583700
66.053200 1.621300
66.143500 1.669600
66.233700 1.652600
66.323900 1.687400
66.414200 1.679300
66.504400 1.697500
66.594600 1.691800
66.684900 1.730500
66.775100 1.712400
66.865300 1.701300
66.955600 1.712400
67.045800 1.729700
67.136000 1.735000
67.226200 1.746800
67.316500 1.743900
67.406700 1.737300
67.496900 1.721000
67.587200 1.635500
67.677400 1.575400
67.767600 1.613600
67.857900 1.645300
67.948100 1.671800
68.038300 1.731200
68.128600 1.822500
68.218800 1.934000
68.309000 2.060500
68.399200 2.113600
