set title 'mp-8937 - Density of States'
set xlabel 'Energy (eV)'
set ylabel 'DOS (states/eV)'
set grid
set xrange [-10:10]
set yrange [0:6.242]
set xzeroaxis lt -1
set terminal png size 800,600
set output 'mp-8937_dos_gnuplot.png'
plot '-' using 1:2 with lines title 'DOS'
-36.771100 0.000000
-36.721200 0.000000
-36.671400 0.000000
-36.621500 0.000000
-36.571600 0.000000
-36.521800 0.000000
-36.471900 0.000000
-36.422000 0.000000
-36.372200 0.000000
-36.322300 0.000000
-36.272400 0.000000
-36.222600 0.000000
-36.172700 0.000000
-36.122800 0.000000
-36.073000 0.000000
-36.023100 0.000000
-35.973300 0.000000
-35.923400 0.000000
-35.873500 0.000000
-35.823700 0.000000
-35.773800 0.000000
-35.723900 0.000000
-35.674100 0.000000
-35.624200 0.000000
-35.574300 0.000000
-35.524500 0.000000
-35.474600 0.000000
-35.424700 0.000000
-35.374900 0.000000
-35.325000 0.000000
-35.275100 0.000000
-35.225300 0.000000
-35.175400 0.000000
-35.125500 0.000000
-35.075700 0.000000
-35.025800 0.000000
-34.976000 0.000000
-34.926100 0.000000
-34.876200 0.000000
-34.826400 0.000000
-34.776500 0.000000
-34.726600 0.000000
-34.676800 0.000000
-34.626900 0.000000
-34.577000 0.000000
-34.527200 0.000000
-34.477300 0.000000
-34.427400 0.000000
-34.377600 0.000000
-34.327700 0.000000
-34.277800 0.000000
-34.228000 0.000000
-34.178100 0.000000
-34.128200 0.000000
-34.078400 0.000000
-34.028500 0.000000
-33.978700 0.000000
-33.928800 0.000000
-33.878900 0.000000
-33.829100 0.000000
-33.779200 0.000000
-33.729300 0.000000
-33.679500 0.000000
-33.629600 0.000000
-33.579700 0.000000
-33.529900 0.000000
-33.480000 0.000000
-33.430100 0.000000
-33.380300 0.000000
-33.330400 0.000000
-33.280500 0.000000
-33.230700 0.000000
-33.180800 0.000000
-33.131000 0.000000
-33.081100 0.000000
-33.031200 0.000000
-32.981400 0.000000
-32.931500 0.000000
-32.881600 0.000000
-32.831800 0.000000
-32.781900 0.000000
-32.732000 0.000000
-32.682200 0.000000
-32.632300 0.000000
-32.582400 0.000000
-32.532600 0.000000
-32.482700 0.000000
-32.432800 0.000000
-32.383000 0.000000
-32.333100 0.000000
-32.283200 0.000000
-32.233400 47.411600
-32.183500 30.910300
-32.133700 0.000000
-32.083800 0.000000
-32.033900 0.000000
-31.984100 0.000000
-31.934200 0.000000
-31.884300 0.000000
-31.834500 0.000000
-31.784600 0.000000
-31.734700 0.000000
-31.684900 0.000000
-31.635000 0.000000
-31.585100 0.000000
-31.535300 0.000000
-31.485400 0.000000
-31.435500 0.000000
-31.385700 0.000000
-31.335800 0.000000
-31.285900 0.000000
-31.236100 0.000000
-31.186200 0.000000
-31.136400 0.000000
-31.086500 0.000000
-31.036600 0.000000
-30.986800 0.000000
-30.936900 0.000000
-30.887000 0.000000
-30.837200 0.000000
-30.787300 0.000000
-30.737400 0.000000
-30.687600 0.000000
-30.637700 0.000000
-30.587800 0.000000
-30.538000 0.000000
-30.488100 0.000000
-30.438200 0.000000
-30.388400 0.000000
-30.338500 0.000000
-30.288600 0.000000
-30.238800 0.000000
-30.188900 0.000000
-30.139100 0.000000
-30.089200 0.000000
-30.039300 0.000000
-29.989500 0.000000
-29.939600 0.000000
-29.889700 0.000000
-29.839900 0.000000
-29.790000 0.000000
-29.740100 0.000000
-29.690300 0.000000
-29.640400 0.000000
-29.590500 0.000000
-29.540700 0.000000
-29.490800 0.000000
-29.440900 0.000000
-29.391100 0.000000
-29.341200 0.000000
-29.291300 0.000000
-29.241500 0.000000
-29.191600 0.000000
-29.141800 0.000000
-29.091900 0.000000
-29.042000 0.000000
-28.992200 0.000000
-28.942300 0.000000
-28.892400 0.000000
-28.842600 0.000000
-28.792700 0.000000
-28.742800 0.000000
-28.693000 0.000000
-28.643100 0.000000
-28.593200 0.000000
-28.543400 0.000000
-28.493500 0.000000
-28.443600 0.000000
-28.393800 0.000000
-28.343900 0.000000
-28.294100 0.000000
-28.244200 0.000000
-28.194300 0.000000
-28.144500 0.000000
-28.094600 0.000000
-28.044700 0.000000
-27.994900 0.000000
-27.945000 0.000000
-27.895100 0.000000
-27.845300 0.000000
-27.795400 0.000000
-27.745500 0.000000
-27.695700 0.000000
-27.645800 0.000000
-27.595900 0.000000
-27.546100 0.000000
-27.496200 0.000000
-27.446300 0.000000
-27.396500 0.000000
-27.346600 0.000000
-27.296800 0.000000
-27.246900 0.000000
-27.197000 0.000000
-27.147200 0.000000
-27.097300 0.000000
-27.047400 0.000000
-26.997600 0.000000
-26.947700 0.000000
-26.897800 0.000000
-26.848000 0.000000
-26.798100 0.000000
-26.748200 0.000000
-26.698400 0.000000
-26.648500 0.000000
-26.598600 0.000000
-26.548800 0.000000
-26.498900 0.000000
-26.449000 0.000000
-26.399200 0.000000
-26.349300 0.000000
-26.299500 0.000000
-26.249600 0.000000
-26.199700 0.000000
-26.149900 0.000000
-26.100000 0.000000
-26.050100 0.000000
-26.000300 0.000000
-25.950400 0.000000
-25.900500 0.000000
-25.850700 0.000000
-25.800800 0.000000
-25.750900 0.000000
-25.701100 0.000000
-25.651200 0.000000
-25.601300 0.000000
-25.551500 0.000000
-25.501600 0.000000
-25.451700 0.000000
-25.401900 0.000000
-25.352000 0.000000
-25.302200 0.000000
-25.252300 0.000000
-25.202400 0.000000
-25.152600 0.000000
-25.102700 0.000000
-25.052800 0.000000
-25.003000 0.000000
-24.953100 0.000000
-24.903200 0.000000
-24.853400 0.000000
-24.803500 0.000000
-24.753600 0.000000
-24.703800 0.000000
-24.653900 0.000000
-24.604000 0.000000
-24.554200 0.000000
-24.504300 0.000000
-24.454500 0.000000
-24.404600 0.000000
-24.354700 0.000000
-24.304900 0.000000
-24.255000 0.000000
-24.205100 0.000000
-24.155300 0.000000
-24.105400 0.000000
-24.055500 0.000000
-24.005700 0.000000
-23.955800 0.000000
-23.905900 0.000000
-23.856100 0.000000
-23.806200 0.000000
-23.756300 0.000000
-23.706500 0.000000
-23.656600 0.000000
-23.606700 0.000000
-23.556900 0.000000
-23.507000 0.000000
-23.457200 0.000000
-23.407300 0.000000
-23.357400 0.000000
-23.307600 0.000000
-23.257700 0.000000
-23.207800 0.000000
-23.158000 0.000000
-23.108100 0.000000
-23.058200 0.000000
-23.008400 0.000000
-22.958500 0.000000
-22.908600 0.000000
-22.858800 0.000000
-22.808900 0.000000
-22.759000 0.000000
-22.709200 0.000000
-22.659300 0.000000
-22.609400 0.000000
-22.559600 0.000000
-22.509700 0.000000
-22.459900 0.000000
-22.410000 0.000000
-22.360100 0.000000
-22.310300 0.000000
-22.260400 0.000000
-22.210500 0.000000
-22.160700 0.000000
-22.110800 0.000000
-22.060900 0.000000
-22.011100 0.000000
-21.961200 0.000000
-21.911300 0.000000
-21.861500 0.000000
-21.811600 0.000000
-21.761700 0.000000
-21.711900 0.000000
-21.662000 0.000000
-21.612100 0.000000
-21.562300 0.000000
-21.512400 0.000000
-21.462600 0.000000
-21.412700 0.000000
-21.362800 0.000000
-21.313000 0.000000
-21.263100 0.000000
-21.213200 0.000000
-21.163400 0.000000
-21.113500 0.000000
-21.063600 0.000000
-21.013800 0.000000
-20.963900 0.000000
-20.914000 0.000000
-20.864200 0.000000
-20.814300 0.000000
-20.764400 0.000000
-20.714600 0.000000
-20.664700 0.000000
-20.614800 0.000000
-20.565000 0.000000
-20.515100 0.000000
-20.465300 0.000000
-20.415400 0.000000
-20.365500 0.000000
-20.315700 0.000000
-20.265800 0.000000
-20.215900 0.000000
-20.166100 0.000000
-20.116200 0.000000
-20.066300 0.000000
-20.016500 0.000000
-19.966600 0.000000
-19.916700 0.000000
-19.866900 0.000000
-19.817000 0.000000
-19.767100 0.000000
-19.717300 0.000000
-19.667400 0.000000
-19.617600 0.000000
-19.567700 0.000000
-19.517800 0.000000
-19.468000 0.000000
-19.418100 0.000000
-19.368200 0.000000
-19.318400 0.000000
-19.268500 0.000000
-19.218600 0.000000
-19.168800 0.000000
-19.118900 0.000000
-19.069000 0.000000
-19.019200 0.000000
-18.969300 0.000000
-18.919400 0.000000
-18.869600 0.000000
-18.819700 0.000000
-18.769800 0.000000
-18.720000 0.000000
-18.670100 0.000000
-18.620300 0.000000
-18.570400 0.000000
-18.520500 0.000000
-18.470700 0.000000
-18.420800 0.000000
-18.370900 0.000000
-18.321100 0.000000
-18.271200 0.000000
-18.221300 0.000000
-18.171500 0.000000
-18.121600 0.000000
-18.071700 0.000000
-18.021900 0.000000
-17.972000 0.000000
-17.922100 0.000000
-17.872300 0.000000
-17.822400 0.000000
-17.772500 0.000000
-17.722700 0.000000
-17.672800 0.000000
-17.623000 0.000000
-17.573100 0.000000
-17.523200 0.000000
-17.473400 0.000000
-17.423500 0.000000
-17.373600 0.000000
-17.323800 0.000000
-17.273900 0.000000
-17.224000 0.000000
-17.174200 0.000000
-17.124300 0.000000
-17.074400 0.000000
-17.024600 0.000000
-16.974700 0.000000
-16.924800 0.000000
-16.875000 0.000000
-16.825100 0.000000
-16.775200 0.000000
-16.725400 0.000000
-16.675500 0.000000
-16.625700 0.000000
-16.575800 0.000000
-16.525900 0.000000
-16.476100 0.000000
-16.426200 0.000000
-16.376300 0.000000
-16.326500 0.000000
-16.276600 0.000000
-16.226700 0.000000
-16.176900 0.000000
-16.127000 0.000000
-16.077100 0.000000
-16.027300 0.000000
-15.977400 0.000000
-15.927500 0.000000
-15.877700 0.000000
-15.827800 0.000000
-15.777900 0.000000
-15.728100 0.000000
-15.678200 0.000000
-15.628400 0.000000
-15.578500 0.000000
-15.528600 0.000000
-15.478800 0.000000
-15.428900 0.000000
-15.379000 0.000000
-15.329200 0.000000
-15.279300 0.000000
-15.229400 0.000000
-15.179600 0.000000
-15.129700 0.000000
-15.079800 0.000000
-15.030000 0.000000
-14.980100 0.000000
-14.930200 0.000000
-14.880400 0.000000
-14.830500 0.000000
-14.780700 0.000000
-14.730800 0.000000
-14.680900 0.000000
-14.631100 0.000000
-14.581200 0.000000
-14.531300 0.000000
-14.481500 0.000000
-14.431600 0.000000
-14.381700 0.000000
-14.331900 0.000000
-14.282000 0.000000
-14.232100 0.000000
-14.182300 0.000000
-14.132400 0.000000
-14.082500 0.000000
-14.032700 0.000000
-13.982800 0.000000
-13.932900 0.000000
-13.883100 0.000000
-13.833200 0.000000
-13.783400 0.000000
-13.733500 0.000000
-13.683600 0.000000
-13.633800 0.000000
-13.583900 0.000000
-13.534000 0.000000
-13.484200 0.000000
-13.434300 0.000000
-13.384400 0.000000
-13.334600 0.000000
-13.284700 0.000000
-13.234800 0.000000
-13.185000 0.000000
-13.135100 0.000000
-13.085200 0.000000
-13.035400 0.000000
-12.985500 0.000000
-12.935600 0.000000
-12.885800 0.000000
-12.835900 0.000000
-12.786100 0.000000
-12.736200 0.000000
-12.686300 0.000000
-12.636500 0.000000
-12.586600 0.000000
-12.536700 0.000000
-12.486900 0.000000
-12.437000 0.000000
-12.387100 0.000000
-12.337300 0.000000
-12.287400 0.000000
-12.237500 0.000000
-12.187700 0.000000
-12.137800 0.000000
-12.087900 0.000000
-12.038100 0.000000
-11.988200 0.000000
-11.938300 0.000000
-11.888500 0.000000
-11.838600 0.000000
-11.788800 0.000000
-11.738900 0.000000
-11.689000 0.000000
-11.639200 0.000000
-11.589300 0.000000
-11.539400 0.000000
-11.489600 0.000000
-11.439700 0.000000
-11.389800 0.000000
-11.340000 0.000000
-11.290100 0.000000
-11.240200 0.000000
-11.190400 0.000000
-11.140500 0.000000
-11.090600 0.000000
-11.040800 0.000000
-10.990900 0.000000
-10.941100 0.000000
-10.891200 0.000000
-10.841300 0.000000
-10.791500 0.000000
-10.741600 0.000000
-10.691700 0.000000
-10.641900 0.000000
-10.592000 0.000000
-10.542100 0.000000
-10.492300 0.000000
-10.442400 0.000000
-10.392500 0.000000
-10.342700 0.000000
-10.292800 0.000000
-10.242900 0.000000
-10.193100 0.000000
-10.143200 0.000000
-10.093300 0.000000
-10.043500 0.000000
-9.993600 0.000000
-9.943800 0.000000
-9.893900 0.000000
-9.844000 0.000000
-9.794200 0.000000
-9.744300 0.000000
-9.694400 0.000000
-9.644600 0.000000
-9.594700 0.000000
-9.544800 0.000000
-9.495000 0.000000
-9.445100 0.000000
-9.395200 0.000000
-9.345400 0.000000
-9.295500 0.000000
-9.245600 0.000000
-9.195800 0.000000
-9.145900 0.000000
-9.096000 0.000000
-9.046200 0.000000
-8.996300 0.000000
-8.946500 0.000000
-8.896600 0.000000
-8.846700 0.000000
-8.796900 0.000000
-8.747000 0.000000
-8.697100 0.000000
-8.647300 0.000000
-8.597400 0.000000
-8.547500 0.000000
-8.497700 0.000000
-8.447800 0.000000
-8.397900 0.000000
-8.348100 0.000000
-8.298200 0.000000
-8.248300 0.000000
-8.198500 0.000000
-8.148600 0.000000
-8.098700 0.000000
-8.048900 0.000000
-7.999000 0.000000
-7.949200 0.000000
-7.899300 0.000000
-7.849400 0.000000
-7.799600 0.000000
-7.749700 0.000000
-7.699800 0.000000
-7.650000 0.000000
-7.600100 0.000000
-7.550200 0.000000
-7.500400 0.000000
-7.450500 0.000000
-7.400600 0.000000
-7.350800 0.000000
-7.300900 0.000000
-7.251000 0.000000
-7.201200 0.000000
-7.151300 0.000000
-7.101400 0.000000
-7.051600 0.000000
-7.001700 0.000000
-6.951900 0.000000
-6.902000 0.000000
-6.852100 0.000000
-6.802300 0.000000
-6.752400 0.000000
-6.702500 0.000000
-6.652700 0.000000
-6.602800 0.000000
-6.552900 0.000000
-6.503100 0.000000
-6.453200 0.000000
-6.403300 0.000000
-6.353500 0.000000
-6.303600 0.000000
-6.253700 0.000000
-6.203900 0.000000
-6.154000 0.000000
-6.104200 0.000000
-6.054300 0.000000
-6.004400 0.000000
-5.954600 0.000000
-5.904700 0.000000
-5.854800 0.000000
-5.805000 0.000000
-5.755100 0.000000
-5.705200 0.000000
-5.655400 0.000000
-5.605500 0.000000
-5.555600 0.000000
-5.505800 0.000000
-5.455900 0.000000
-5.406000 0.000000
-5.356200 0.000000
-5.306300 0.000000
-5.256400 0.000000
-5.206600 0.000000
-5.156700 0.000000
-5.106900 0.000000
-5.057000 0.000000
-5.007100 0.000000
-4.957300 0.000000
-4.907400 0.000000
-4.857500 0.000000
-4.807700 0.000000
-4.757800 0.000000
-4.707900 0.000000
-4.658100 0.000000
-4.608200 0.000000
-4.558300 0.000000
-4.508500 0.000000
-4.458600 0.000000
-4.408700 0.000000
-4.358900 0.000000
-4.309000 0.000000
-4.259100 0.000000
-4.209300 0.000000
-4.159400 0.000000
-4.109600 0.000000
-4.059700 0.000000
-4.009800 0.000000
-3.960000 0.000000
-3.910100 0.000000
-3.860200 0.000000
-3.810400 0.000000
-3.760500 0.000000
-3.710600 0.000000
-3.660800 0.000000
-3.610900 0.000000
-3.561000 0.000000
-3.511200 0.000000
-3.461300 0.000500
-3.411400 0.036700
-3.361600 0.074000
-3.311700 0.090100
-3.261800 0.102300
-3.212000 0.121800
-3.162100 0.140100
-3.112300 0.146200
-3.062400 0.156300
-3.012500 0.165900
-2.962700 0.177300
-2.912800 0.188800
-2.862900 0.200000
-2.813100 0.209600
-2.763200 0.216700
-2.713300 0.224400
-2.663500 0.232700
-2.613600 0.240700
-2.563700 0.248100
-2.513900 0.256600
-2.464000 0.265700
-2.414100 0.275000
-2.364300 0.284300
-2.314400 0.291700
-2.264500 0.298600
-2.214700 0.305300
-2.164800 0.312900
-2.115000 0.320700
-2.065100 0.328800
-2.015200 0.337200
-1.965400 0.346100
-1.915500 0.355300
-1.865600 0.365500
-1.815800 0.376500
-1.765900 0.388800
-1.716000 0.404200
-1.666200 0.424600
-1.616300 0.435600
-1.566400 0.434300
-1.516600 0.441500
-1.466700 0.444000
-1.416800 0.441000
-1.367000 0.439900
-1.317100 0.441700
-1.267300 0.444300
-1.217400 0.446300
-1.167500 0.447500
-1.117700 0.448600
-1.067800 0.448700
-1.017900 0.450600
-0.968100 0.451200
-0.918200 0.452000
-0.868300 0.452900
-0.818500 0.454300
-0.768600 0.455700
-0.718700 0.456100
-0.668900 0.456500
-0.619000 0.458000
-0.569100 0.459500
-0.519300 0.460900
-0.469400 0.462800
-0.419500 0.465400
-0.369700 0.467900
-0.319800 0.470400
-0.270000 0.472500
-0.220100 0.474300
-0.170200 0.476300
-0.120400 0.478700
-0.070500 0.482700
-0.020600 0.487500
0.029200 0.494300
0.079100 0.502700
0.129000 0.513000
0.178800 0.537700
0.228700 0.587100
0.278600 0.612800
0.328400 0.632100
0.378300 0.634600
0.428200 0.643200
0.478000 0.657800
0.527900 0.671400
0.577800 0.675700
0.627600 0.648600
0.677500 0.591500
0.727300 0.562300
0.777200 0.533600
0.827100 0.515800
0.876900 0.505500
0.926800 0.496900
0.976700 0.489400
1.026500 0.479800
1.076400 0.477300
1.126300 0.504400
1.176100 0.547800
1.226000 0.610700
1.275900 0.704400
1.325700 0.785700
1.375600 0.821500
1.425500 0.866600
1.475300 0.911800
1.525200 0.898500
1.575100 0.874500
1.624900 0.883900
1.674800 0.899600
1.724600 0.912900
1.774500 0.901300
1.824400 0.894900
1.874200 0.889700
1.924100 0.910900
1.974000 0.976500
2.023800 0.914400
2.073700 0.860700
2.123600 0.673600
2.173400 0.645000
2.223300 0.634500
2.273200 0.627800
2.323000 0.622300
2.372900 0.618300
2.422800 0.614400
2.472600 0.610100
2.522500 0.604200
2.572300 0.597600
2.622200 0.595700
2.672100 0.590000
2.721900 0.585000
2.771800 0.580500
2.821700 0.575300
2.871500 0.569600
2.921400 0.562500
2.971300 0.553800
3.021100 0.544900
3.071000 0.539300
3.120900 0.535300
3.170700 0.531300
3.220600 0.527600
3.270500 0.524100
3.320300 0.511500
3.370200 0.510100
3.420100 0.498500
3.469900 0.510300
3.519800 0.522700
3.569600 0.538600
3.619500 0.557500
3.669400 0.574900
3.719200 0.590600
3.769100 0.606900
3.819000 0.617400
3.868800 0.626100
3.918700 0.633200
3.968600 0.662900
4.018400 0.687100
4.068300 0.680500
4.118200 0.668300
4.168000 0.662500
4.217900 0.663100
4.267800 0.669200
4.317600 0.679600
4.367500 0.698900
4.417400 1.010100
4.467200 1.121700
4.517100 1.336900
4.566900 1.410600
4.616800 1.484000
4.666700 1.257600
4.716500 1.253600
4.766400 1.245700
4.816300 1.230200
4.866100 1.233500
4.916000 1.225100
4.965900 1.194600
5.015700 1.158200
5.065600 1.136200
5.115500 1.079800
5.165300 1.060100
5.215200 1.065300
5.265100 1.059300
5.314900 1.089900
5.364800 1.088900
5.414700 1.061700
5.464500 1.037300
5.514400 1.058000
5.564200 1.010200
5.614100 0.810100
5.664000 0.666200
5.713800 0.615900
5.763700 0.585400
5.813600 0.479100
5.863400 0.445600
5.913300 0.426200
5.963200 0.432000
6.013000 0.451500
6.062900 0.472600
6.112800 0.524400
6.162600 0.553700
6.212500 0.575600
6.262400 0.584000
6.312200 0.630800
6.362100 0.656800
6.412000 0.689800
6.461800 0.718100
6.511700 0.736400
6.561500 0.764400
6.611400 0.790700
6.661300 0.801500
6.711100 0.855900
6.761000 0.893900
6.810900 0.942500
6.860700 0.984200
6.910600 1.039300
6.960500 1.112500
7.010300 1.209400
7.060200 1.385500
7.110100 1.443400
7.159900 1.528800
7.209800 1.623600
7.259700 1.594700
7.309500 1.503200
7.359400 1.420700
7.409200 1.401800
7.459100 1.376600
7.509000 1.370700
7.558800 1.384300
7.608700 1.427100
7.658600 1.579600
7.708400 1.685600
7.758300 1.710800
7.808200 1.737700
7.858000 1.752200
7.907900 1.635400
7.957800 1.508800
8.007600 1.612900
8.057500 1.804600
8.107400 1.896200
8.157200 1.902000
8.207100 2.266500
8.257000 2.322400
8.306800 2.712500
8.356700 3.227400
8.406500 3.795200
8.456400 4.317500
8.506300 4.852800
8.556100 4.772800
8.606000 4.659900
8.655900 4.958500
8.705700 5.383400
8.755600 5.674600
8.805500 5.440000
8.855300 5.100500
8.905200 4.048900
8.955100 3.527400
9.004900 3.071900
9.054800 2.799100
9.104700 2.557200
9.154500 2.228100
9.204400 1.979500
9.254300 1.841400
9.304100 1.755700
9.354000 1.673200
9.403800 1.646300
9.453700 1.620000
9.503600 1.590000
9.553400 1.522300
9.603300 1.479300
9.653200 1.442700
9.703000 1.434900
9.752900 1.421000
9.802800 1.406300
9.852600 1.383800
9.902500 1.396500
9.952400 1.423600
10.002200 1.474900
10.052100 1.489200
10.102000 1.538700
10.151800 1.704400
10.201700 1.679300
10.251600 1.639100
10.301400 1.058800
10.351300 0.369400
10.401100 0.265600
10.451000 0.259700
10.500900 0.268500
10.550700 0.286100
10.600600 0.236900
10.650500 0.183400
10.700300 0.167500
10.750200 0.202300
10.800100 0.243200
10.849900 0.284300
10.899800 0.334800
10.949700 0.398300
10.999500 0.447900
11.049400 0.509600
11.099300 0.575300
11.149100 0.647000
11.199000 0.724000
11.248800 0.803000
11.298700 0.905500
11.348600 1.405500
11.398400 1.810600
11.448300 1.906400
11.498200 1.913800
11.548000 1.949200
11.597900 2.228100
11.647800 2.586800
11.697600 3.181600
11.747500 4.928300
11.797400 5.701400
11.847200 2.939000
11.897100 2.679300
11.947000 2.504300
11.996800 2.266000
12.046700 2.083500
12.096600 1.923000
12.146400 1.841700
12.196300 1.761300
12.246100 1.752300
12.296000 1.479500
12.345900 1.371300
12.395700 1.340100
12.445600 1.299700
12.495500 1.256200
12.545300 1.373900
12.595200 1.349200
12.645100 1.951200
12.694900 2.256500
12.744800 2.354100
12.794700 2.350700
12.844500 2.159300
12.894400 2.225800
12.944300 2.533100
12.994100 2.230500
13.044000 1.930900
13.093900 1.803700
13.143700 1.831300
13.193600 2.053500
13.243400 2.291800
13.293300 2.717300
13.343200 2.646700
13.393000 2.451600
13.442900 2.711200
13.492800 2.492800
13.542600 2.359900
13.592500 2.205400
13.642400 2.100900
13.692200 2.034400
13.742100 1.855100
13.792000 1.814500
13.841800 1.775400
13.891700 1.794300
13.941600 1.730900
13.991400 1.693500
14.041300 1.657200
