set title 'mp-1226010 - Density of States'
set xlabel 'Energy (eV)'
set ylabel 'DOS (states/eV)'
set grid
set xrange [-10:10]
set yrange [0:19.879]
set xzeroaxis lt -1
set terminal png size 800,600
set output 'mp-1226010_dos_gnuplot.png'
plot '-' using 1:2 with lines title 'DOS'
-21.467200 0.000000
-21.432400 0.000000
-21.397500 0.000000
-21.362600 0.000000
-21.327700 0.000000
-21.292800 0.000000
-21.257900 0.000000
-21.223100 0.000000
-21.188200 0.000000
-21.153300 0.000000
-21.118400 0.000000
-21.083500 0.000000
-21.048600 0.000000
-21.013800 0.000000
-20.978900 0.000000
-20.944000 0.000000
-20.909100 0.000000
-20.874200 0.000000
-20.839300 0.000000
-20.804500 0.000000
-20.769600 0.000000
-20.734700 0.000000
-20.699800 0.000000
-20.664900 0.000000
-20.630000 0.000000
-20.595200 0.000000
-20.560300 0.000000
-20.525400 0.000000
-20.490500 0.000000
-20.455600 0.000000
-20.420700 0.000000
-20.385900 0.000000
-20.351000 0.000000
-20.316100 0.000000
-20.281200 0.000000
-20.246300 0.000000
-20.211400 0.000000
-20.176600 0.000000
-20.141700 0.000000
-20.106800 0.000000
-20.071900 0.000000
-20.037000 0.000000
-20.002100 0.000000
-19.967300 0.000000
-19.932400 0.000000
-19.897500 0.000000
-19.862600 0.000000
-19.827700 0.000000
-19.792800 0.000000
-19.758000 0.000000
-19.723100 0.000000
-19.688200 0.000000
-19.653300 0.000000
-19.618400 0.000000
-19.583500 0.000000
-19.548700 0.000000
-19.513800 0.000000
-19.478900 0.000000
-19.444000 0.000000
-19.409100 0.000000
-19.374200 0.000000
-19.339400 0.000000
-19.304500 0.000000
-19.269600 0.000000
-19.234700 0.000000
-19.199800 0.000000
-19.164900 0.000000
-19.130000 0.000000
-19.095200 0.000000
-19.060300 0.000000
-19.025400 0.000000
-18.990500 0.000000
-18.955600 0.000000
-18.920700 0.000000
-18.885900 0.000000
-18.851000 0.000000
-18.816100 0.000000
-18.781200 0.000000
-18.746300 0.000000
-18.711400 0.000000
-18.676600 0.000000
-18.641700 0.000000
-18.606800 0.000000
-18.571900 0.000000
-18.537000 0.000000
-18.502100 0.000000
-18.467300 0.000000
-18.432400 0.000000
-18.397500 0.000000
-18.362600 0.000000
-18.327700 0.000000
-18.292800 3.112300
-18.258000 10.935600
-18.223100 17.081300
-18.188200 15.440200
-18.153300 8.150200
-18.118400 5.696100
-18.083500 10.000400
-18.048700 54.741900
-18.013800 27.692600
-17.978900 28.101400
-17.944000 62.529700
-17.909100 35.750900
-17.874200 0.000000
-17.839400 0.000000
-17.804500 0.000000
-17.769600 0.000000
-17.734700 0.000000
-17.699800 0.000000
-17.664900 0.000000
-17.630100 0.000000
-17.595200 0.000000
-17.560300 0.000000
-17.525400 0.000000
-17.490500 0.000000
-17.455600 0.000000
-17.420800 0.000000
-17.385900 0.000000
-17.351000 0.000000
-17.316100 0.000000
-17.281200 0.000000
-17.246300 0.000000
-17.211500 0.000000
-17.176600 0.000000
-17.141700 0.000000
-17.106800 0.000000
-17.071900 0.000000
-17.037000 0.000000
-17.002200 0.000000
-16.967300 0.000000
-16.932400 0.000000
-16.897500 0.000000
-16.862600 0.000000
-16.827700 0.000000
-16.792900 0.000000
-16.758000 0.000000
-16.723100 0.000000
-16.688200 0.000000
-16.653300 0.000000
-16.618400 0.000000
-16.583500 0.000000
-16.548700 0.000000
-16.513800 0.000000
-16.478900 0.000000
-16.444000 0.000000
-16.409100 0.000000
-16.374200 0.000000
-16.339400 0.000000
-16.304500 0.000000
-16.269600 0.000000
-16.234700 0.000000
-16.199800 0.000000
-16.164900 0.000000
-16.130100 0.000000
-16.095200 0.000000
-16.060300 0.000000
-16.025400 0.000000
-15.990500 0.000000
-15.955600 0.000000
-15.920800 0.000000
-15.885900 0.000000
-15.851000 0.000000
-15.816100 0.000000
-15.781200 0.000000
-15.746300 0.000000
-15.711500 0.000000
-15.676600 0.000000
-15.641700 0.000000
-15.606800 0.000000
-15.571900 0.000000
-15.537000 0.000000
-15.502200 0.000000
-15.467300 0.000000
-15.432400 0.000000
-15.397500 0.000000
-15.362600 0.000000
-15.327700 0.000000
-15.292900 0.000000
-15.258000 0.000000
-15.223100 0.000000
-15.188200 0.000000
-15.153300 0.000000
-15.118400 0.000000
-15.083600 0.000000
-15.048700 0.000000
-15.013800 0.000000
-14.978900 0.000000
-14.944000 0.000000
-14.909100 0.000000
-14.874300 0.000000
-14.839400 0.000000
-14.804500 0.000000
-14.769600 0.000000
-14.734700 0.000000
-14.699800 0.000000
-14.665000 0.000000
-14.630100 0.000000
-14.595200 0.000000
-14.560300 0.000000
-14.525400 0.000000
-14.490500 0.000000
-14.455700 0.000000
-14.420800 0.000000
-14.385900 0.000000
-14.351000 0.000000
-14.316100 0.000000
-14.281200 0.000000
-14.246400 0.000000
-14.211500 0.000000
-14.176600 0.000000
-14.141700 0.000000
-14.106800 0.000000
-14.071900 0.000000
-14.037000 0.000000
-14.002200 0.000000
-13.967300 0.000000
-13.932400 0.000000
-13.897500 0.000000
-13.862600 0.000000
-13.827700 0.000000
-13.792900 0.000000
-13.758000 0.000000
-13.723100 0.000000
-13.688200 0.000000
-13.653300 0.000000
-13.618400 0.000000
-13.583600 0.000000
-13.548700 0.000000
-13.513800 0.000000
-13.478900 0.000000
-13.444000 0.000000
-13.409100 0.000000
-13.374300 0.000000
-13.339400 0.000000
-13.304500 0.000000
-13.269600 0.000000
-13.234700 0.000000
-13.199800 0.000000
-13.165000 0.000000
-13.130100 0.000000
-13.095200 0.000000
-13.060300 0.000000
-13.025400 0.000000
-12.990500 0.000000
-12.955700 0.000000
-12.920800 0.000000
-12.885900 0.000000
-12.851000 0.000000
-12.816100 0.000000
-12.781200 0.000000
-12.746400 0.000000
-12.711500 0.000000
-12.676600 0.000000
-12.641700 0.000000
-12.606800 0.000000
-12.571900 0.000000
-12.537100 0.000000
-12.502200 0.000000
-12.467300 0.000000
-12.432400 0.000000
-12.397500 0.000000
-12.362600 0.000000
-12.327800 0.000000
-12.292900 0.000000
-12.258000 0.000000
-12.223100 0.000000
-12.188200 0.000000
-12.153300 0.000000
-12.118500 0.000000
-12.083600 0.000000
-12.048700 0.000000
-12.013800 0.000000
-11.978900 0.000000
-11.944000 0.000000
-11.909200 0.000000
-11.874300 0.000000
-11.839400 0.000000
-11.804500 0.000000
-11.769600 0.000000
-11.734700 0.000000
-11.699900 0.000000
-11.665000 0.000000
-11.630100 0.000000
-11.595200 0.000000
-11.560300 0.000000
-11.525400 0.000000
-11.490500 0.000000
-11.455700 0.000000
-11.420800 0.000000
-11.385900 0.000000
-11.351000 0.000000
-11.316100 0.000000
-11.281200 0.000000
-11.246400 0.000000
-11.211500 0.000000
-11.176600 0.000000
-11.141700 0.000000
-11.106800 0.000000
-11.071900 0.000000
-11.037100 0.000000
-11.002200 0.000000
-10.967300 0.000000
-10.932400 0.000000
-10.897500 0.000000
-10.862600 0.000000
-10.827800 0.000000
-10.792900 0.000000
-10.758000 0.000000
-10.723100 0.000000
-10.688200 0.000000
-10.653300 0.000000
-10.618500 0.000000
-10.583600 0.000000
-10.548700 0.000000
-10.513800 0.000000
-10.478900 0.000000
-10.444000 0.000000
-10.409200 0.000000
-10.374300 0.000000
-10.339400 0.000000
-10.304500 0.000000
-10.269600 0.000000
-10.234700 0.000000
-10.199900 0.000000
-10.165000 0.000000
-10.130100 0.000000
-10.095200 0.000000
-10.060300 0.000000
-10.025400 0.000000
-9.990600 0.000000
-9.955700 0.000000
-9.920800 0.000000
-9.885900 0.000000
-9.851000 0.000000
-9.816100 0.000000
-9.781300 0.000000
-9.746400 0.000000
-9.711500 0.000000
-9.676600 0.000000
-9.641700 0.000000
-9.606800 0.000000
-9.572000 0.000000
-9.537100 0.000000
-9.502200 0.000000
-9.467300 0.000000
-9.432400 0.000000
-9.397500 0.000000
-9.362700 0.000000
-9.327800 0.000000
-9.292900 0.000000
-9.258000 0.000000
-9.223100 0.000000
-9.188200 0.000000
-9.153300 0.000000
-9.118500 0.000000
-9.083600 0.000000
-9.048700 0.000000
-9.013800 0.000000
-8.978900 0.000000
-8.944000 0.000000
-8.909200 0.000000
-8.874300 0.000000
-8.839400 0.000000
-8.804500 0.000000
-8.769600 0.000000
-8.734700 0.000000
-8.699900 0.000000
-8.665000 0.000000
-8.630100 0.000000
-8.595200 0.000000
-8.560300 0.000000
-8.525400 0.000000
-8.490600 0.000000
-8.455700 0.000000
-8.420800 0.000000
-8.385900 0.000000
-8.351000 0.000000
-8.316100 0.000000
-8.281300 0.000000
-8.246400 0.000000
-8.211500 0.000000
-8.176600 0.000000
-8.141700 0.000000
-8.106800 0.000000
-8.072000 0.000000
-8.037100 0.000000
-8.002200 0.021300
-7.967300 0.096500
-7.932400 0.171800
-7.897500 0.247100
-7.862700 0.322300
-7.827800 0.397600
-7.792900 0.215500
-7.758000 0.221700
-7.723100 0.227900
-7.688200 0.234100
-7.653400 0.240300
-7.618500 0.246600
-7.583600 0.252800
-7.548700 0.259000
-7.513800 0.265200
-7.478900 0.271400
-7.444100 0.277700
-7.409200 0.278900
-7.374300 0.271000
-7.339400 0.263100
-7.304500 0.255200
-7.269600 0.247300
-7.234800 0.239400
-7.199900 0.238400
-7.165000 0.240600
-7.130100 0.242700
-7.095200 0.244900
-7.060300 0.247100
-7.025500 0.249200
-6.990600 0.251400
-6.955700 0.253500
-6.920800 0.255700
-6.885900 0.257900
-6.851000 0.260000
-6.816200 0.262200
-6.781300 0.264300
-6.746400 0.266500
-6.711500 0.268700
-6.676600 0.270800
-6.641700 0.273000
-6.606800 0.252100
-6.572000 0.251600
-6.537100 0.251100
-6.502200 0.250600
-6.467300 0.250100
-6.432400 0.249600
-6.397500 0.249100
-6.362700 0.248600
-6.327800 0.248100
-6.292900 0.247600
-6.258000 0.247100
-6.223100 0.247100
-6.188200 0.248200
-6.153400 0.249300
-6.118500 0.250400
-6.083600 0.251500
-6.048700 0.252600
-6.013800 0.253700
-5.978900 0.254800
-5.944100 0.255900
-5.909200 0.257000
-5.874300 0.258100
-5.839400 0.259200
-5.804500 0.260300
-5.769600 0.261400
-5.734800 0.262500
-5.699900 0.263600
-5.665000 0.264700
-5.630100 0.264800
-5.595200 0.262000
-5.560300 0.259200
-5.525500 0.256500
-5.490600 0.253700
-5.455700 0.250900
-5.420800 0.249900
-5.385900 0.250100
-5.351000 0.250400
-5.316200 0.250600
-5.281300 0.250900
-5.246400 0.251100
-5.211500 0.251300
-5.176600 0.251600
-5.141700 0.251800
-5.106900 0.252100
-5.072000 0.252300
-5.037100 0.252500
-5.002200 0.252800
-4.967300 0.253000
-4.932400 0.253300
-4.897600 0.253500
-4.862700 0.253700
-4.827800 0.254300
-4.792900 0.255000
-4.758000 0.255700
-4.723100 0.256400
-4.688300 0.257100
-4.653400 0.257800
-4.618500 0.258500
-4.583600 0.259200
-4.548700 0.259900
-4.513800 0.260600
-4.479000 0.261300
-4.444100 0.262000
-4.409200 0.262700
-4.374300 0.263400
-4.339400 0.264100
-4.304500 0.264800
-4.269700 0.265500
-4.234800 0.258900
-4.199900 0.258600
-4.165000 0.258300
-4.130100 0.258000
-4.095200 0.257600
-4.060300 0.257300
-4.025500 0.257000
-3.990600 0.256600
-3.955700 0.256300
-3.920800 0.256000
-3.885900 0.255700
-3.851000 0.255700
-3.816200 0.256100
-3.781300 0.256500
-3.746400 0.256900
-3.711500 0.257400
-3.676600 0.257800
-3.641700 0.258200
-3.606900 0.258600
-3.572000 0.259000
-3.537100 0.259400
-3.502200 0.259800
-3.467300 0.260200
-3.432400 0.260600
-3.397600 0.261100
-3.362700 0.261500
-3.327800 0.261900
-3.292900 0.262300
-3.258000 0.262700
-3.223100 0.263100
-3.188300 0.263500
-3.153400 0.263900
-3.118500 0.264300
-3.083600 0.264900
-3.048700 0.265800
-3.013800 0.266700
-2.979000 0.267600
-2.944100 0.268500
-2.909200 0.269400
-2.874300 0.270300
-2.839400 0.271200
-2.804500 0.272100
-2.769700 0.273000
-2.734800 0.273800
-2.699900 0.274500
-2.665000 0.274600
-2.630100 0.274700
-2.595200 0.274800
-2.560400 0.274900
-2.525500 0.275000
-2.490600 0.276700
-2.455700 0.278500
-2.420800 0.280300
-2.385900 0.282100
-2.351100 0.284000
-2.316200 0.285800
-2.281300 0.287600
-2.246400 0.289400
-2.211500 0.291200
-2.176600 0.293000
-2.141800 0.300100
-2.106900 0.318500
-2.072000 0.342800
-2.037100 0.372000
-2.002200 0.405000
-1.967300 0.637300
-1.932500 0.629000
-1.897600 0.617300
-1.862700 0.610800
-1.827800 0.606300
-1.792900 0.603300
-1.758000 0.603800
-1.723200 0.604300
-1.688300 0.602500
-1.653400 0.598000
-1.618500 0.590800
-1.583600 0.575800
-1.548700 0.546900
-1.513800 0.537000
-1.479000 0.525200
-1.444100 0.511900
-1.409200 0.497600
-1.374300 0.482500
-1.339400 0.469000
-1.304500 0.461200
-1.269700 0.466000
-1.234800 0.474900
-1.199900 0.486100
-1.165000 0.498500
-1.130100 0.496100
-1.095200 0.494800
-1.060400 0.495800
-1.025500 0.498600
-0.990600 0.502100
-0.955700 0.506200
-0.920800 0.510900
-0.885900 1.401500
-0.851100 0.928100
-0.816200 0.513100
-0.781300 0.518800
-0.746400 0.524800
-0.711500 0.530000
-0.676600 0.535300
-0.641800 0.543700
-0.606900 0.552300
-0.572000 0.560700
-0.537100 0.569200
-0.502200 0.578100
-0.467300 0.587300
-0.432500 0.597000
-0.397600 0.606700
-0.362700 0.615800
-0.327800 0.625400
-0.292900 0.636200
-0.258000 0.649300
-0.223200 0.666600
-0.188300 0.683100
-0.153400 0.696100
-0.118500 0.704700
-0.083600 0.707600
-0.048700 0.738600
-0.013900 0.781800
0.021000 0.825100
0.055900 0.868100
0.090800 0.911000
0.125700 0.953900
0.160600 0.996600
0.195400 1.039100
0.230300 1.081400
0.265200 1.123700
0.300100 0.838000
0.335000 0.858200
0.369900 0.878500
0.404700 0.899200
0.439600 0.915800
0.474500 0.932500
0.509400 0.950600
0.544300 0.968300
0.579200 0.986500
0.614000 1.005400
0.648900 1.024800
0.683800 1.044600
0.718700 1.065100
0.753600 1.085900
0.788500 1.106900
0.823400 1.128100
0.858200 1.148800
0.893100 1.169700
0.928000 1.196800
0.962900 1.230100
0.997800 1.268500
1.032700 1.312200
1.067500 1.363400
1.102400 1.425500
1.137300 1.515200
1.172200 1.560700
1.207100 1.544800
1.242000 1.529400
1.276800 2.093800
1.311700 2.008800
1.346600 1.925800
1.381500 1.844700
1.416400 1.770700
1.451300 1.751100
1.486100 1.780400
1.521000 1.872100
1.555900 1.975400
1.590800 2.069900
1.625700 2.001600
1.660600 1.598700
1.695400 1.463900
1.730300 1.443000
1.765200 1.466800
1.800100 1.494900
1.835000 1.536700
1.869900 1.592000
1.904700 1.693900
1.939600 1.864100
1.974500 2.019100
2.009400 2.170200
2.044300 2.364700
2.079200 2.628600
2.114000 2.888300
2.148900 3.769200
2.183800 3.545700
2.218700 3.713400
2.253600 4.311500
2.288500 4.377400
2.323300 4.455200
2.358200 4.517100
2.393100 4.676100
2.428000 4.688700
2.462900 4.705300
2.497800 4.655100
2.532600 4.821300
2.567500 4.991700
2.602400 5.275400
2.637300 5.281600
2.672200 4.712800
2.707100 4.667500
2.741900 4.738600
2.776800 4.853700
2.811700 4.626000
2.846600 5.375500
2.881500 5.560500
2.916400 5.867400
2.951200 6.934600
2.986100 7.065100
3.021000 8.825300
3.055900 9.751400
3.090800 8.616600
3.125700 7.066300
3.160500 8.182300
3.195400 6.942700
3.230300 6.171000
3.265200 6.611300
3.300100 11.813900
3.335000 14.702800
3.369900 6.271400
3.404700 5.529600
3.439600 7.823000
3.474500 7.661900
3.509400 7.072300
3.544300 6.355700
3.579200 5.210700
3.614000 6.043700
3.648900 6.635900
3.683800 6.520600
3.718700 6.460700
3.753600 7.843300
3.788500 7.580900
3.823300 7.336600
3.858200 7.080800
3.893100 7.511000
3.928000 7.643000
3.962900 7.476500
3.997800 7.534500
4.032600 7.236200
4.067500 6.880900
4.102400 7.321000
4.137300 7.524100
4.172200 7.610700
4.207100 7.415200
4.241900 8.789100
4.276800 16.032700
4.311700 9.903400
4.346600 10.770400
4.381500 11.518400
4.416400 11.887700
4.451200 11.019800
4.486100 10.490800
4.521000 11.059700
4.555900 10.971100
4.590800 17.585500
4.625700 14.023200
4.660500 8.679800
4.695400 9.918500
4.730300 15.208000
4.765200 12.436800
4.800100 11.294100
4.835000 9.935800
4.869800 9.346700
4.904700 12.108200
4.939600 7.258900
4.974500 7.872500
5.009400 10.615900
5.044300 9.086600
5.079100 9.636700
5.114000 9.289600
5.148900 8.560200
5.183800 9.447700
5.218700 7.380000
5.253600 5.065300
5.288400 4.743100
5.323300 5.631700
5.358200 7.919900
5.393100 12.770900
5.428000 12.020200
5.462900 9.629800
5.497700 11.525400
5.532600 13.111000
5.567500 7.195700
5.602400 7.813800
5.637300 10.646300
5.672200 16.755600
5.707000 13.080300
5.741900 12.124800
5.776800 11.101400
5.811700 9.056600
5.846600 7.682200
5.881500 7.498900
5.916400 8.166700
5.951200 8.803100
5.986100 8.853100
6.021000 9.254200
6.055900 9.645700
6.090800 9.903400
6.125700 10.553700
6.160500 11.250300
6.195400 12.715800
6.230300 10.645200
6.265200 9.563800
6.300100 11.668900
6.335000 13.123500
6.369800 14.307800
6.404700 18.072100
6.439600 14.952800
6.474500 13.179300
6.509400 9.667200
6.544300 6.999600
6.579100 12.266000
6.614000 7.664900
6.648900 5.531500
6.683800 3.957400
6.718700 3.006200
6.753600 2.796700
6.788400 2.795700
6.823300 2.783400
6.858200 2.754800
6.893100 2.678600
6.928000 2.706700
6.962900 2.617500
6.997700 2.598600
7.032600 2.563000
7.067500 2.554900
7.102400 2.783600
7.137300 2.793400
7.172200 2.807800
7.207000 2.901900
7.241900 3.397300
7.276800 2.585000
7.311700 2.218900
7.346600 1.988800
7.381500 1.834900
7.416300 1.762400
7.451200 1.742900
7.486100 1.843100
7.521000 1.922700
7.555900 2.072100
7.590800 2.015600
7.625600 1.947300
7.660500 1.908500
7.695400 1.765000
7.730300 1.485000
7.765200 1.377900
7.800100 1.305900
7.834900 1.259200
7.869800 1.219900
7.904700 1.208500
7.939600 1.226300
7.974500 1.279200
8.009400 1.324300
8.044200 1.357500
8.079100 1.379700
8.114000 1.392200
8.148900 1.435700
8.183800 1.473000
8.218700 1.508800
8.253500 1.542700
8.288400 1.577500
8.323300 1.626000
8.358200 1.677200
8.393100 1.728200
8.428000 1.776700
8.462900 1.772900
8.497700 2.372800
8.532600 1.986900
8.567500 1.763800
8.602400 1.692100
8.637300 1.666300
8.672200 1.694100
8.707000 1.716400
8.741900 1.707000
8.776800 1.667200
8.811700 1.578400
8.846600 1.472800
8.881500 1.468600
8.916300 1.342200
8.951200 1.394200
8.986100 1.374800
9.021000 1.306200
9.055900 1.295400
9.090800 1.262500
9.125600 1.226200
9.160500 1.209400
9.195400 1.119100
9.230300 1.084900
9.265200 1.047300
9.300100 1.002700
9.334900 0.980500
9.369800 0.980300
9.404700 1.029600
9.439600 1.107500
9.474500 1.296600
9.509400 1.452400
9.544200 1.529300
9.579100 1.590800
9.614000 1.621400
9.648900 1.645300
9.683800 1.641300
9.718700 1.625300
9.753500 1.587500
9.788400 1.525400
9.823300 1.452700
9.858200 1.373200
9.893100 1.286500
9.928000 1.218300
9.962800 1.146800
9.997700 1.067000
10.032600 0.963400
10.067500 0.929200
10.102400 0.928500
10.137300 0.928800
10.172100 0.923800
10.207000 0.928100
10.241900 0.941700
10.276800 0.957100
10.311700 0.971400
10.346600 0.984900
10.381400 0.998400
10.416300 1.012300
10.451200 1.025200
10.486100 1.038600
10.521000 1.050300
10.555900 1.075600
10.590700 1.106700
10.625600 1.141600
10.660500 1.168300
10.695400 1.183800
10.730300 1.198700
10.765200 1.215800
10.800000 1.215300
10.834900 1.209300
10.869800 1.212600
10.904700 1.210200
10.939600 1.200300
10.974500 1.200900
11.009400 1.202000
11.044200 1.198600
11.079100 1.195600
11.114000 1.191300
11.148900 1.203200
11.183800 3.124000
11.218700 1.837200
11.253500 1.746900
11.288400 1.706100
11.323300 1.643600
11.358200 1.510000
11.393100 1.374400
11.428000 1.433800
11.462800 1.278900
11.497700 1.201100
11.532600 1.169600
11.567500 1.147100
11.602400 1.143900
11.637300 1.145600
11.672100 1.136000
11.707000 1.133500
11.741900 1.135600
11.776800 1.140300
11.811700 1.145600
11.846600 1.146400
11.881400 1.143300
11.916300 1.179200
11.951200 1.300300
11.986100 1.412700
12.021000 1.486700
12.055900 1.568400
12.090700 1.689000
12.125600 1.833300
12.160500 1.991700
12.195400 2.115200
12.230300 2.060500
12.265200 2.066700
12.300000 1.872700
12.334900 1.731700
12.369800 1.579700
12.404700 1.496000
12.439600 1.421700
12.474500 1.376600
12.509300 1.348400
12.544200 1.362700
12.579100 1.422200
12.614000 1.541300
12.648900 1.707800
12.683800 1.844000
12.718600 1.891800
12.753500 1.897800
12.788400 1.906000
12.823300 1.851300
12.858200 1.787900
12.893100 1.747400
12.927900 1.716900
12.962800 1.691800
12.997700 1.680100
13.032600 1.730600
13.067500 2.223800
13.102400 2.094300
13.137200 1.956000
13.172100 1.825600
13.207000 1.735800
13.241900 1.694300
13.276800 1.684300
13.311700 1.665100
13.346600 1.659100
13.381400 1.674900
13.416300 1.681500
13.451200 1.684800
13.486100 1.686800
13.521000 1.685900
13.555900 1.682600
13.590700 1.690200
13.625600 1.722100
13.660500 1.714300
13.695400 1.763800
13.730300 1.782800
13.765200 1.792400
13.800000 1.802900
13.834900 1.789300
13.869800 1.770700
13.904700 1.768100
13.939600 1.764700
13.974500 1.779100
14.009300 1.800000
14.044200 1.783500
14.079100 1.745100
14.114000 1.709000
14.148900 1.679900
14.183800 1.662100
14.218600 1.668300
14.253500 1.672700
14.288400 1.669700
14.323300 1.647600
14.358200 1.629100
14.393100 1.509000
14.427900 1.396900
14.462800 1.317800
14.497700 1.258300
14.532600 1.214400
