set title 'mp-1095269 - Density of States'
set xlabel 'Energy (eV)'
set ylabel 'DOS (states/eV)'
set grid
set xrange [-10:10]
set yrange [0:23.361]
set xzeroaxis lt -1
set terminal png size 800,600
set output 'mp-1095269_dos_gnuplot.png'
plot '-' using 1:2 with lines title 'DOS'
-8.343500 0.000000
-8.328600 0.000000
-8.313800 0.000000
-8.298900 0.000000
-8.284100 0.000000
-8.269200 0.000000
-8.254400 0.000000
-8.239500 0.000000
-8.224700 0.000000
-8.209900 0.000000
-8.195000 0.000000
-8.180200 0.000000
-8.165300 0.000000
-8.150500 0.000000
-8.135600 0.000000
-8.120800 0.000000
-8.105900 0.000000
-8.091100 0.000000
-8.076200 0.000000
-8.061400 0.000000
-8.046500 0.000000
-8.031700 0.000000
-8.016900 0.000000
-8.002000 0.000000
-7.987200 0.000000
-7.972300 0.000000
-7.957500 0.000000
-7.942600 0.000000
-7.927800 0.000000
-7.912900 0.000000
-7.898100 0.000000
-7.883200 0.000000
-7.868400 0.000000
-7.853500 0.000000
-7.838700 0.000000
-7.823900 0.000000
-7.809000 0.000000
-7.794200 0.000000
-7.779300 0.000000
-7.764500 0.000000
-7.749600 0.000000
-7.734800 0.000000
-7.719900 0.000000
-7.705100 0.000000
-7.690200 0.000000
-7.675400 0.000000
-7.660500 0.000000
-7.645700 0.000000
-7.630900 0.000000
-7.616000 0.000000
-7.601200 0.000000
-7.586300 0.000000
-7.571500 0.000000
-7.556600 0.000000
-7.541800 0.000000
-7.526900 0.000000
-7.512100 0.000000
-7.497200 0.000000
-7.482400 0.000000
-7.467500 0.000000
-7.452700 0.000000
-7.437900 0.000000
-7.423000 0.000000
-7.408200 0.000000
-7.393300 0.000000
-7.378500 0.000000
-7.363600 0.000000
-7.348800 0.000000
-7.333900 0.000000
-7.319100 0.000000
-7.304200 0.000000
-7.289400 0.000000
-7.274500 0.000000
-7.259700 0.000000
-7.244900 0.000000
-7.230000 0.000000
-7.215200 0.000000
-7.200300 0.000000
-7.185500 0.000000
-7.170600 0.000000
-7.155800 0.000000
-7.140900 0.000000
-7.126100 0.000000
-7.111200 0.000000
-7.096400 0.000000
-7.081500 0.000000
-7.066700 0.000000
-7.051900 0.000000
-7.037000 0.000000
-7.022200 0.000000
-7.007300 0.000000
-6.992500 0.000000
-6.977600 0.005700
-6.962800 0.020800
-6.947900 0.045600
-6.933100 0.079800
-6.918200 0.123600
-6.903400 0.176900
-6.888500 0.239800
-6.873700 0.312200
-6.858800 0.394100
-6.844000 0.483900
-6.829200 0.579800
-6.814300 0.680800
-6.799500 0.781600
-6.784600 0.881600
-6.769800 0.980700
-6.754900 1.078800
-6.740100 1.176100
-6.725200 1.272500
-6.710400 1.368000
-6.695500 1.462700
-6.680700 1.556400
-6.665800 1.649500
-6.651000 1.739600
-6.636200 1.824800
-6.621300 1.905200
-6.606500 1.980600
-6.591600 2.027900
-6.576800 2.065200
-6.561900 2.096700
-6.547100 2.122200
-6.532200 2.141800
-6.517400 2.155400
-6.502500 2.163100
-6.487700 2.164800
-6.472800 2.161100
-6.458000 2.162000
-6.443200 2.163800
-6.428300 2.165000
-6.413500 2.165600
-6.398600 2.165600
-6.383800 2.164900
-6.368900 2.163600
-6.354100 2.161600
-6.339200 2.180200
-6.324400 2.203000
-6.309500 2.223000
-6.294700 2.240100
-6.279800 2.254400
-6.265000 2.278300
-6.250200 2.305600
-6.235300 2.330600
-6.220500 2.353200
-6.205600 2.373600
-6.190800 2.386000
-6.175900 2.390400
-6.161100 2.393900
-6.146200 2.396400
-6.131400 2.398000
-6.116500 2.398500
-6.101700 2.397800
-6.086800 2.395900
-6.072000 2.392600
-6.057200 2.388100
-6.042300 2.382400
-6.027500 2.375400
-6.012600 2.367200
-5.997800 2.357700
-5.982900 2.346900
-5.968100 2.334900
-5.953200 2.321600
-5.938400 2.307100
-5.923500 2.288600
-5.908700 2.255200
-5.893800 2.221000
-5.879000 2.186800
-5.864200 2.152600
-5.849300 2.118400
-5.834500 2.084300
-5.819600 2.050100
-5.804800 2.016200
-5.789900 1.983700
-5.775100 1.952900
-5.760200 1.923900
-5.745400 1.896500
-5.730500 1.870900
-5.715700 1.847000
-5.700800 1.824800
-5.686000 1.804400
-5.671200 1.785600
-5.656300 1.768600
-5.641500 1.753200
-5.626600 1.741500
-5.611800 1.733900
-5.596900 1.730400
-5.582100 1.731000
-5.567200 1.735600
-5.552400 1.744300
-5.537500 1.757100
-5.522700 1.785700
-5.507800 1.840700
-5.493000 1.903500
-5.478200 2.031400
-5.463300 2.183700
-5.448500 2.335500
-5.433600 2.489600
-5.418800 2.651200
-5.403900 2.820600
-5.389100 2.997800
-5.374200 3.175700
-5.359400 3.339900
-5.344500 3.477500
-5.329700 3.610100
-5.314800 3.737500
-5.300000 3.859500
-5.285200 3.976200
-5.270300 4.087600
-5.255500 4.195500
-5.240600 4.293700
-5.225800 4.379800
-5.210900 4.467900
-5.196100 4.558300
-5.181200 4.651000
-5.166400 4.718100
-5.151500 4.757900
-5.136700 4.769000
-5.121800 4.748500
-5.107000 4.690100
-5.092200 4.608700
-5.077300 4.510100
-5.062500 4.394500
-5.047600 4.263400
-5.032800 4.105900
-5.017900 3.894500
-5.003100 3.764700
-4.988200 3.654100
-4.973400 3.547500
-4.958500 3.444700
-4.943700 3.345900
-4.928800 3.250700
-4.914000 3.156000
-4.899200 3.083000
-4.884300 3.010600
-4.869500 2.941500
-4.854600 2.875600
-4.839800 2.813100
-4.824900 2.754000
-4.810100 2.704700
-4.795200 2.668500
-4.780400 2.635900
-4.765500 2.607100
-4.750700 2.581900
-4.735800 2.560400
-4.721000 2.542700
-4.706200 2.528600
-4.691300 2.538800
-4.676500 2.562500
-4.661600 2.587100
-4.646800 2.612500
-4.631900 2.639000
-4.617100 2.667600
-4.602200 2.699800
-4.587400 2.733200
-4.572500 2.767300
-4.557700 2.802000
-4.542800 2.837300
-4.528000 2.873300
-4.513200 2.910000
-4.498300 2.947500
-4.483500 2.986200
-4.468600 3.026000
-4.453800 3.066900
-4.438900 3.108900
-4.424100 3.152100
-4.409200 3.199500
-4.394400 3.529200
-4.379500 4.127300
-4.364700 4.717300
-4.349800 4.676600
-4.335000 4.640300
-4.320200 4.608200
-4.305300 4.578500
-4.290500 4.555300
-4.275600 4.538900
-4.260800 4.529100
-4.245900 4.526000
-4.231100 4.529800
-4.216200 4.541500
-4.201400 4.561300
-4.186500 4.669500
-4.171700 4.778400
-4.156800 4.838900
-4.142000 4.837500
-4.127200 4.798500
-4.112300 4.747500
-4.097500 4.683400
-4.082600 4.606500
-4.067800 4.520800
-4.052900 4.428100
-4.038100 4.328300
-4.023200 4.221400
-4.008400 4.133200
-3.993500 4.138700
-3.978700 4.142100
-3.963800 4.143400
-3.949000 4.142700
-3.934200 4.139800
-3.919300 4.135000
-3.904500 4.121600
-3.889600 4.099000
-3.874800 4.070700
-3.859900 4.036800
-3.845100 3.997300
-3.830200 3.952100
-3.815400 3.902300
-3.800500 3.890400
-3.785700 3.903200
-3.770800 3.926000
-3.756000 3.958900
-3.741200 4.001800
-3.726300 4.054800
-3.711500 4.116700
-3.696600 4.135500
-3.681800 4.082900
-3.666900 4.004800
-3.652100 3.930500
-3.637200 3.860000
-3.622400 3.806500
-3.607500 3.777400
-3.592700 3.756300
-3.577800 3.743300
-3.563000 3.738300
-3.548200 3.741400
-3.533300 3.752600
-3.518500 3.771800
-3.503600 3.793400
-3.488800 3.807500
-3.473900 3.814000
-3.459100 3.810200
-3.444200 3.769000
-3.429400 3.837200
-3.414500 3.876900
-3.399700 3.875000
-3.384800 3.831300
-3.370000 3.745900
-3.355200 3.618100
-3.340300 3.464700
-3.325500 3.324600
-3.310600 3.199000
-3.295800 3.088000
-3.280900 2.991600
-3.266100 2.910400
-3.251200 2.884600
-3.236400 2.874600
-3.221500 2.863800
-3.206700 2.852200
-3.191800 2.839700
-3.177000 2.826400
-3.162200 2.812300
-3.147300 2.797300
-3.132500 2.783600
-3.117600 2.772600
-3.102800 2.764400
-3.087900 2.759100
-3.073100 2.756500
-3.058200 2.756700
-3.043400 2.772800
-3.028500 2.817000
-3.013700 2.889300
-2.998800 2.989800
-2.984000 3.089300
-2.969200 3.137500
-2.954300 3.191900
-2.939500 3.252500
-2.924600 3.319400
-2.909800 3.398700
-2.894900 3.423000
-2.880100 3.398900
-2.865200 3.333100
-2.850400 3.137800
-2.835500 2.555600
-2.820700 2.549800
-2.805800 2.540600
-2.791000 2.524900
-2.776200 2.511500
-2.761300 2.500200
-2.746500 2.491200
-2.731600 2.484400
-2.716800 2.479700
-2.701900 2.483300
-2.687100 2.492200
-2.672200 2.505100
-2.657400 2.522000
-2.642500 2.542800
-2.627700 2.567600
-2.612800 2.596300
-2.598000 2.629000
-2.583200 2.665600
-2.568300 2.706200
-2.553500 2.750300
-2.538600 2.798000
-2.523800 2.849300
-2.508900 2.904200
-2.494100 2.962700
-2.479200 3.024700
-2.464400 3.090200
-2.449500 3.157900
-2.434700 3.226400
-2.419800 3.295700
-2.405000 3.365800
-2.390200 3.436600
-2.375300 3.508200
-2.360500 3.580600
-2.345600 3.653800
-2.330800 3.728200
-2.315900 3.808300
-2.301100 3.897500
-2.286200 3.987600
-2.271400 4.052400
-2.256500 4.092400
-2.241700 3.944100
-2.226800 3.956800
-2.212000 3.960300
-2.197200 3.954500
-2.182300 3.939600
-2.167500 3.915400
-2.152600 3.882000
-2.137800 3.840300
-2.122900 3.791100
-2.108100 3.734300
-2.093200 3.669900
-2.078400 3.596600
-2.063500 3.480100
-2.048700 3.310000
-2.033800 3.136300
-2.019000 2.973700
-2.004200 2.822100
-1.989300 2.681500
-1.974500 2.554300
-1.959600 2.475400
-1.944800 2.396900
-1.929900 2.318600
-1.915100 2.240800
-1.900200 2.163200
-1.885400 2.086000
-1.870500 2.009200
-1.855700 1.932700
-1.840800 1.859200
-1.826000 1.789800
-1.811200 1.728500
-1.796300 1.674200
-1.781500 1.618700
-1.766600 1.555400
-1.751800 1.469100
-1.736900 1.416900
-1.722100 1.386900
-1.707200 1.357200
-1.692400 1.327800
-1.677500 1.298600
-1.662700 1.269600
-1.647800 1.241000
-1.633000 1.216900
-1.618200 1.238300
-1.603300 1.315200
-1.588500 1.447800
-1.573600 1.635900
-1.558800 2.087900
-1.543900 2.729700
-1.529100 2.870500
-1.514200 2.890600
-1.499400 2.909100
-1.484500 2.926400
-1.469700 2.943000
-1.454800 2.959000
-1.440000 2.974300
-1.425200 2.988800
-1.410300 3.002700
-1.395500 3.015900
-1.380600 4.515200
-1.365800 4.775400
-1.350900 4.865800
-1.336100 4.684300
-1.321200 4.350500
-1.306400 4.049400
-1.291500 3.782200
-1.276700 3.549100
-1.261800 3.349800
-1.247000 3.184600
-1.232100 3.053300
-1.217300 2.956300
-1.202500 2.885000
-1.187600 2.829400
-1.172800 2.788400
-1.157900 2.749100
-1.143100 2.711500
-1.128200 2.675500
-1.113400 2.641100
-1.098500 2.608500
-1.083700 2.577500
-1.068800 2.548100
-1.054000 2.520400
-1.039100 2.495300
-1.024300 2.479800
-1.009500 2.475200
-0.994600 2.481600
-0.979800 2.499000
-0.964900 2.527300
-0.950100 2.570300
-0.935200 2.652500
-0.920400 2.755000
-0.905500 2.869000
-0.890700 2.993700
-0.875800 3.127900
-0.861000 3.173400
-0.846100 3.220000
-0.831300 3.267600
-0.816500 3.316300
-0.801600 3.368000
-0.786800 3.498000
-0.771900 3.624100
-0.757100 3.743400
-0.742200 3.855900
-0.727400 3.961400
-0.712500 4.060100
-0.697700 4.151900
-0.682800 4.236900
-0.668000 4.267500
-0.653100 4.299100
-0.638300 4.348500
-0.623500 4.408400
-0.608600 4.478700
-0.593800 4.538400
-0.578900 4.600200
-0.564100 4.679900
-0.549200 4.777600
-0.534400 4.893100
-0.519500 5.026500
-0.504700 5.142300
-0.489800 5.185300
-0.475000 5.169500
-0.460100 5.142900
-0.445300 5.107600
-0.430500 5.067800
-0.415600 5.028500
-0.400800 4.988600
-0.385900 4.948100
-0.371100 4.908100
-0.356200 4.866500
-0.341400 4.814200
-0.326500 4.764400
-0.311700 4.717300
-0.296800 4.672800
-0.282000 4.630800
-0.267100 4.591500
-0.252300 4.554800
-0.237500 4.520700
-0.222600 4.489200
-0.207800 4.476900
-0.192900 4.504400
-0.178100 4.571700
-0.163200 4.613900
-0.148400 4.597500
-0.133500 4.656600
-0.118700 4.791300
-0.103800 4.735900
-0.089000 4.256300
-0.074100 3.866500
-0.059300 3.580500
-0.044500 3.398300
-0.029600 3.285400
-0.014800 3.182500
0.000100 3.085100
0.014900 2.994700
0.029800 2.911200
0.044600 2.834000
0.059500 2.760500
0.074300 2.690100
0.089200 2.622900
0.104000 2.558800
0.118900 2.498000
0.133700 2.440300
0.148500 2.385800
0.163400 2.333900
0.178200 2.282100
0.193100 2.234800
0.207900 2.192200
0.222800 2.154200
0.237600 2.120900
0.252500 2.092300
0.267300 2.076700
0.282200 2.069300
0.297000 2.061200
0.311900 2.052500
0.326700 2.046100
0.341500 2.059100
0.356400 2.080400
0.371200 2.110200
0.386100 2.148400
0.400900 2.195100
0.415800 2.236100
0.430600 2.278000
0.445500 2.325000
0.460300 2.377100
0.475200 2.436300
0.490000 2.504900
0.504900 2.582700
0.519700 2.616000
0.534500 2.642800
0.549400 2.672700
0.564200 2.705600
0.579100 2.741500
0.593900 2.780500
0.608800 2.822500
0.623600 2.867500
0.638500 2.915500
0.653300 2.967200
0.668200 3.023000
0.683000 3.082000
0.697900 3.143900
0.712700 3.208700
0.727500 3.276400
0.742400 3.346900
0.757200 3.431100
0.772100 3.533600
0.786900 3.654100
0.801800 3.797800
0.816600 3.970800
0.831500 4.160600
0.846300 4.333000
0.861200 4.455400
0.876000 4.563000
0.890900 4.666000
0.905700 4.764600
0.920500 4.858700
0.935400 4.948300
0.950200 5.033500
0.965100 5.114300
0.979900 5.195400
0.994800 5.278800
1.009600 5.359300
1.024500 5.435200
1.039300 5.506400
1.054200 5.572900
1.069000 5.634800
1.083900 5.692000
1.098700 5.822700
1.113500 5.978900
1.128400 6.134000
1.143200 6.273000
1.158100 6.395900
1.172900 6.503700
1.187800 6.599300
1.202600 6.561300
1.217500 6.088000
1.232300 5.427400
1.247200 5.177500
1.262000 4.958800
1.276900 4.771000
1.291700 4.614200
1.306500 4.488400
1.321400 4.394600
1.336200 4.341700
1.351100 4.371800
1.365900 4.494800
1.380800 4.702500
1.395600 4.947100
1.410500 5.221700
1.425300 5.526300
1.440200 5.861000
1.455000 6.198200
1.469900 6.400200
1.484700 6.628800
1.499500 6.858700
1.514400 6.944300
1.529200 7.231600
1.544100 7.536400
1.558900 7.858500
1.573800 8.198000
1.588600 8.594500
1.603500 8.793600
1.618300 8.672400
1.633200 8.406100
1.648000 8.187300
1.662900 7.926800
1.677700 7.624600
1.692500 7.280600
1.707400 6.894900
1.722200 6.479100
1.737100 6.176900
1.751900 5.852200
1.766800 5.501200
1.781600 5.100800
1.796500 4.372400
1.811300 4.288000
1.826200 4.205900
1.841000 4.126200
1.855900 4.048700
1.870700 3.973600
1.885500 3.913000
1.900400 3.940100
1.915200 3.982300
1.930100 4.039500
1.944900 4.111800
1.959800 4.199000
1.974600 4.301300
1.989500 4.418500
2.004300 4.550800
2.019200 5.503100
2.034000 5.718700
2.048900 5.932900
2.063700 6.145700
2.078500 6.357200
2.093400 6.568100
2.108200 6.779800
2.123100 6.992000
2.137900 7.200800
2.152800 7.406400
2.167600 7.608000
2.182500 7.754500
2.197300 7.815700
2.212200 8.222800
2.227000 8.274300
2.241900 8.190300
2.256700 8.096300
2.271500 7.993400
2.286400 7.887800
2.301200 7.790600
2.316100 7.702400
2.330900 7.653000
2.345800 7.526400
2.360600 7.246700
2.375500 7.013700
2.390300 6.890100
2.405200 6.780400
2.420000 6.639700
2.434900 6.541700
2.449700 7.031200
2.464500 7.704200
2.479400 8.569500
2.494200 9.265600
2.509100 9.416700
2.523900 9.723800
2.538800 10.201400
2.553600 10.842600
2.568500 12.699700
2.583300 12.782600
2.598200 11.998900
2.613000 11.278000
2.627900 10.619800
2.642700 10.024400
2.657500 9.481500
2.672400 9.026400
2.687200 8.656400
2.702100 8.262300
2.716900 7.701600
2.731800 7.267400
2.746600 6.987000
2.761500 6.857200
2.776300 6.818200
2.791200 6.887300
2.806000 7.000500
2.820900 7.139500
2.835700 7.304300
2.850500 7.494900
2.865400 7.711000
2.880200 7.950200
2.895100 8.153800
2.909900 8.277000
2.924800 8.423000
2.939600 8.565600
2.954500 8.705400
2.969300 8.833900
2.984200 8.934000
2.999000 8.975500
3.013900 8.998200
3.028700 9.004100
3.043500 8.993100
3.058400 8.965300
3.073200 8.920600
3.088100 8.859100
3.102900 8.782000
3.117800 8.583300
3.132600 8.465300
3.147500 8.395500
3.162300 8.203700
3.177200 8.040500
3.192000 7.906000
3.206900 7.789900
3.221700 7.700000
3.236500 7.639700
3.251400 7.610700
3.266200 7.611200
3.281100 7.639900
3.295900 7.689200
3.310800 7.745000
3.325600 7.804500
3.340500 7.861500
3.355300 7.953600
3.370200 8.402300
3.385000 8.667200
3.399900 8.656600
3.414700 8.647300
3.429500 8.639200
3.444400 8.632500
3.459200 8.627000
3.474100 8.621000
3.488900 8.611200
3.503800 8.602400
3.518600 8.594400
3.533500 8.583000
3.548300 8.577000
3.563200 8.644300
3.578000 8.618000
3.592900 8.584100
3.607700 8.606900
3.622500 8.650600
3.637400 8.584700
3.652200 8.517500
3.667100 8.444000
3.681900 8.365000
3.696800 8.292600
3.711600 8.230300
3.726500 8.177700
3.741300 8.159100
3.756200 8.140900
3.771000 8.114900
3.785900 8.080900
3.800700 8.027700
3.815500 7.771000
3.830400 7.256800
3.845200 7.192000
3.860100 7.127500
3.874900 7.064000
3.889800 7.002100
3.904600 6.939400
3.919500 6.875400
3.934300 6.809700
3.949200 6.742200
3.964000 6.667600
3.978900 6.446900
3.993700 6.145600
4.008500 5.825500
4.023400 5.463400
4.038200 5.125500
4.053100 4.873500
4.067900 4.665500
4.082800 4.477300
4.097600 4.286400
4.112500 4.093400
4.127300 3.910500
4.142200 3.665600
4.157000 3.390000
4.171900 3.143000
4.186700 2.953000
4.201600 2.772400
4.216400 2.601400
4.231200 2.439800
4.246100 2.336500
4.260900 2.247900
4.275800 2.157800
4.290600 2.069100
4.305500 1.981700
4.320300 1.895700
4.335200 1.811000
4.350000 1.727600
4.364900 1.645600
4.379700 1.564900
4.394600 1.485500
4.409400 1.407500
4.424200 1.330800
4.439100 1.256200
4.453900 1.187600
4.468800 1.123800
4.483600 1.064500
4.498500 1.004100
4.513300 0.939900
4.528200 0.880700
4.543000 0.826700
4.557900 0.777800
4.572700 0.731800
4.587600 0.687100
4.602400 0.643700
4.617200 0.601600
4.632100 0.560700
4.646900 0.521200
4.661800 0.482900
4.676600 0.445800
4.691500 0.410100
4.706300 0.375600
4.721200 0.342300
4.736000 0.310400
4.750900 0.279700
4.765700 0.248800
4.780600 0.204400
4.795400 0.163000
4.810200 0.124400
4.825100 0.088800
4.839900 0.056200
4.854800 0.026400
4.869600 0.000000
4.884500 0.000000
4.899300 0.000000
4.914200 0.000000
4.929000 0.000000
4.943900 0.000000
4.958700 0.000000
4.973600 0.000000
4.988400 0.000000
5.003200 0.000000
5.018100 0.000000
5.032900 0.000000
5.047800 0.000000
5.062600 0.000000
5.077500 0.000000
5.092300 0.000000
5.107200 0.000000
5.122000 0.000000
5.136900 0.000000
5.151700 0.000000
5.166600 0.000000
5.181400 0.000000
5.196200 0.000000
5.211100 0.000000
5.225900 0.000000
5.240800 0.000000
5.255600 0.000000
5.270500 0.000000
5.285300 0.000000
5.300200 0.000000
5.315000 0.000000
5.329900 0.000000
5.344700 0.000000
5.359600 0.000000
5.374400 0.000000
5.389200 0.000000
5.404100 0.000000
5.418900 0.000000
5.433800 0.000000
5.448600 0.000000
5.463500 0.000000
5.478300 0.000000
5.493200 0.032500
5.508000 0.155400
5.522900 0.182700
5.537700 0.211300
5.552600 0.241200
5.567400 0.272300
5.582200 0.304800
5.597100 0.338600
5.611900 0.373600
5.626800 0.410000
5.641600 0.447700
5.656500 0.486600
5.671300 0.526800
5.686200 0.568400
5.701000 0.611200
5.715900 0.655800
5.730700 0.721700
5.745600 0.813000
5.760400 0.914400
5.775200 0.987500
5.790100 1.035300
5.804900 1.079400
5.819800 1.122300
5.834600 1.164100
5.849500 1.204800
5.864300 1.244300
5.879200 1.282600
5.894000 1.319800
5.908900 1.355900
5.923700 1.390800
5.938600 1.424600
5.953400 1.457300
5.968200 1.488800
5.983100 1.519200
5.997900 1.548400
6.012800 1.576400
6.027600 1.602900
6.042500 1.627800
6.057300 1.651200
6.072200 1.673000
6.087000 3.087200
6.101900 5.667500
6.116700 4.516700
6.131600 4.757800
6.146400 5.020700
6.161200 5.305000
6.176100 5.594900
6.190900 5.883000
6.205800 6.169200
6.220600 6.453600
6.235500 6.679900
6.250300 6.743300
6.265200 6.793800
6.280000 6.858200
6.294900 6.936700
6.309700 7.029200
6.324600 7.135800
6.339400 7.259800
6.354200 7.400500
6.369100 7.354500
6.383900 7.088200
6.398800 5.291800
6.413600 5.247200
6.428500 5.207500
6.443300 5.172600
6.458200 5.142500
6.473000 5.117100
6.487900 5.096000
6.502700 5.078100
6.517600 5.063300
6.532400 5.051600
6.547200 5.101200
6.562100 5.220300
6.576900 5.334200
6.591800 5.474900
6.606600 5.650300
6.621500 5.858000
6.636300 6.092600
6.651200 6.345900
6.666000 6.571700
6.680900 6.826000
6.695700 7.153600
6.710600 7.786800
6.725400 8.404800
6.740200 8.857600
6.755100 7.803700
6.769900 7.196500
6.784800 7.335300
6.799600 7.592200
6.814500 7.821600
6.829300 8.017200
6.844200 8.031600
6.859000 7.984800
6.873900 7.904900
6.888700 7.792000
6.903600 7.646100
6.918400 7.462400
6.933200 7.233500
6.948100 6.991900
6.962900 6.716300
6.977800 6.489900
6.992600 6.378100
7.007500 6.316400
7.022300 6.275500
7.037200 6.255000
7.052000 6.254000
7.066900 6.244200
7.081700 6.238100
7.096600 6.261600
7.111400 6.313700
7.126200 6.392100
7.141100 6.496800
7.155900 6.627700
7.170800 6.733900
7.185600 6.841000
7.200500 6.960600
7.215300 7.099600
7.230200 7.257800
7.245000 7.409600
7.259900 8.144800
7.274700 8.971200
7.289600 9.618000
7.304400 9.945900
7.319200 10.063100
7.334100 9.991000
7.348900 9.954700
7.363800 10.036400
7.378600 10.184900
7.393500 10.351200
7.408300 10.445100
7.423200 10.415500
