set title 'mp-21400 - Density of States'
set xlabel 'Energy (eV)'
set ylabel 'DOS (states/eV)'
set grid
set xrange [-10:10]
set yrange [0:185.219]
set xzeroaxis lt -1
set terminal png size 800,600
set output 'mp-21400_dos_gnuplot.png'
plot '-' using 1:2 with lines title 'DOS'
-11.452200 0.000000
-11.435400 0.000000
-11.418700 0.000000
-11.401900 0.000000
-11.385200 0.000000
-11.368400 0.000000
-11.351600 0.000000
-11.334900 0.000000
-11.318100 0.000000
-11.301400 0.000000
-11.284600 0.000000
-11.267900 0.000000
-11.251100 0.000000
-11.234300 0.000000
-11.217600 0.000000
-11.200800 0.000000
-11.184100 0.000000
-11.167300 0.000000
-11.150600 0.000000
-11.133800 0.000000
-11.117000 0.000000
-11.100300 0.000000
-11.083500 0.000000
-11.066800 0.000000
-11.050000 0.000000
-11.033200 0.000000
-11.016500 0.000000
-10.999700 0.000000
-10.983000 0.000000
-10.966200 0.000000
-10.949500 0.000000
-10.932700 0.000000
-10.915900 0.000000
-10.899200 0.000000
-10.882400 0.000000
-10.865700 0.000000
-10.848900 0.000000
-10.832200 0.000000
-10.815400 0.000000
-10.798600 0.000000
-10.781900 0.000000
-10.765100 0.000000
-10.748400 0.000000
-10.731600 0.000000
-10.714900 0.000000
-10.698100 0.000000
-10.681300 0.000000
-10.664600 0.000000
-10.647800 0.000000
-10.631100 0.000000
-10.614300 0.000000
-10.597600 0.000000
-10.580800 0.000000
-10.564000 0.000000
-10.547300 0.000000
-10.530500 0.000000
-10.513800 0.000000
-10.497000 0.000000
-10.480300 0.000000
-10.463500 0.000000
-10.446700 0.000000
-10.430000 0.000000
-10.413200 0.000000
-10.396500 0.000000
-10.379700 0.000000
-10.363000 0.000000
-10.346200 0.000000
-10.329400 0.000000
-10.312700 0.000000
-10.295900 0.000000
-10.279200 0.000000
-10.262400 0.000000
-10.245700 0.000000
-10.228900 0.000000
-10.212100 0.000000
-10.195400 0.000000
-10.178600 0.000000
-10.161900 0.000000
-10.145100 0.000000
-10.128300 0.000000
-10.111600 0.000000
-10.094800 0.000000
-10.078100 0.000000
-10.061300 0.000000
-10.044600 0.000000
-10.027800 0.000000
-10.011000 0.000000
-9.994300 0.000000
-9.977500 0.000000
-9.960800 0.000000
-9.944000 0.000000
-9.927300 1.924600
-9.910500 42.786700
-9.893700 123.963200
-9.877000 109.866200
-9.860200 168.380900
-9.843500 167.865800
-9.826700 8.965900
-9.810000 47.021600
-9.793200 95.184400
-9.776400 141.447300
-9.759700 142.414300
-9.742900 128.367900
-9.726200 57.396500
-9.709400 67.747200
-9.692700 105.035600
-9.675900 127.025900
-9.659100 51.601900
-9.642400 20.957700
-9.625600 31.495900
-9.608900 48.169900
-9.592100 42.924600
-9.575400 20.145500
-9.558600 0.000000
-9.541800 0.000000
-9.525100 0.000000
-9.508300 0.000000
-9.491600 0.000000
-9.474800 0.000000
-9.458100 0.000000
-9.441300 0.000000
-9.424500 0.000000
-9.407800 0.000000
-9.391000 0.000000
-9.374300 0.000000
-9.357500 0.000000
-9.340800 0.000000
-9.324000 0.000000
-9.307200 0.000000
-9.290500 0.000000
-9.273700 0.000000
-9.257000 0.000000
-9.240200 0.000000
-9.223500 0.000000
-9.206700 0.000000
-9.189900 0.000000
-9.173200 0.000000
-9.156400 0.000000
-9.139700 0.000000
-9.122900 0.000000
-9.106100 0.000000
-9.089400 0.000000
-9.072600 0.000000
-9.055900 0.000000
-9.039100 0.000000
-9.022400 0.000000
-9.005600 0.000000
-8.988800 0.000000
-8.972100 0.000000
-8.955300 0.000000
-8.938600 0.000000
-8.921800 0.000000
-8.905100 0.000000
-8.888300 0.000000
-8.871500 0.000000
-8.854800 0.000000
-8.838000 0.000000
-8.821300 0.000000
-8.804500 0.000000
-8.787800 0.000000
-8.771000 0.000000
-8.754200 0.000000
-8.737500 0.000000
-8.720700 0.000000
-8.704000 0.000000
-8.687200 0.000000
-8.670500 0.000000
-8.653700 0.000000
-8.636900 0.000000
-8.620200 0.000000
-8.603400 0.000000
-8.586700 0.000000
-8.569900 0.000000
-8.553200 0.000000
-8.536400 0.000000
-8.519600 0.000000
-8.502900 0.000000
-8.486100 0.000000
-8.469400 0.000000
-8.452600 0.000000
-8.435900 0.000000
-8.419100 0.000000
-8.402300 0.000000
-8.385600 0.000000
-8.368800 0.000000
-8.352100 0.000000
-8.335300 0.000000
-8.318600 0.000000
-8.301800 0.000000
-8.285000 0.000000
-8.268300 0.000000
-8.251500 0.000000
-8.234800 0.000000
-8.218000 0.000000
-8.201200 0.000000
-8.184500 0.000000
-8.167700 0.000000
-8.151000 0.000000
-8.134200 0.000000
-8.117500 0.000000
-8.100700 0.000000
-8.083900 0.000000
-8.067200 0.000000
-8.050400 0.000000
-8.033700 0.000000
-8.016900 0.000000
-8.000200 0.000000
-7.983400 0.000000
-7.966600 0.000000
-7.949900 0.000000
-7.933100 0.000000
-7.916400 0.000000
-7.899600 0.000000
-7.882900 0.000000
-7.866100 0.000000
-7.849300 0.000000
-7.832600 0.000000
-7.815800 0.000000
-7.799100 0.000000
-7.782300 0.000000
-7.765600 0.000000
-7.748800 0.000000
-7.732000 0.000000
-7.715300 0.000000
-7.698500 0.000000
-7.681800 0.000000
-7.665000 0.000000
-7.648300 0.000000
-7.631500 0.000000
-7.614700 0.000000
-7.598000 0.000000
-7.581200 0.000000
-7.564500 0.000000
-7.547700 0.000000
-7.531000 0.000000
-7.514200 0.000000
-7.497400 0.000000
-7.480700 0.000000
-7.463900 0.000000
-7.447200 0.000000
-7.430400 0.000000
-7.413700 0.000000
-7.396900 0.000000
-7.380100 0.000000
-7.363400 0.000000
-7.346600 0.000000
-7.329900 0.000000
-7.313100 0.000000
-7.296300 0.000000
-7.279600 0.000000
-7.262800 0.000000
-7.246100 0.000000
-7.229300 0.000000
-7.212600 0.000000
-7.195800 0.000000
-7.179000 0.000000
-7.162300 0.000000
-7.145500 0.000000
-7.128800 0.000000
-7.112000 0.000000
-7.095300 0.000000
-7.078500 0.000000
-7.061700 0.000000
-7.045000 0.000000
-7.028200 0.000000
-7.011500 0.000000
-6.994700 0.000000
-6.978000 0.000000
-6.961200 0.000000
-6.944400 0.000000
-6.927700 0.000000
-6.910900 0.000000
-6.894200 0.000000
-6.877400 0.000000
-6.860700 0.000000
-6.843900 0.000000
-6.827100 0.000000
-6.810400 0.000000
-6.793600 0.000000
-6.776900 0.000000
-6.760100 0.000000
-6.743400 0.000000
-6.726600 0.000000
-6.709800 0.000000
-6.693100 0.000000
-6.676300 0.000000
-6.659600 0.000000
-6.642800 0.000000
-6.626100 0.000000
-6.609300 0.000000
-6.592500 0.000000
-6.575800 0.000000
-6.559000 0.000000
-6.542300 0.000000
-6.525500 0.000000
-6.508800 0.000000
-6.492000 0.000000
-6.475200 0.000000
-6.458500 0.000000
-6.441700 0.000000
-6.425000 0.000000
-6.408200 0.000000
-6.391400 0.000000
-6.374700 0.000000
-6.357900 0.000000
-6.341200 0.000000
-6.324400 0.000000
-6.307700 0.000000
-6.290900 0.000000
-6.274100 0.000000
-6.257400 0.000000
-6.240600 0.000000
-6.223900 0.000000
-6.207100 0.000000
-6.190400 0.000000
-6.173600 0.000000
-6.156800 0.000000
-6.140100 0.000000
-6.123300 0.000000
-6.106600 0.000000
-6.089800 0.000000
-6.073100 0.000000
-6.056300 0.000000
-6.039500 0.000000
-6.022800 0.000000
-6.006000 0.000000
-5.989300 0.000000
-5.972500 0.000000
-5.955800 0.012600
-5.939000 0.047500
-5.922200 0.100000
-5.905500 0.123500
-5.888700 0.128400
-5.872000 0.135600
-5.855200 0.152600
-5.838500 0.170400
-5.821700 0.188700
-5.804900 0.205900
-5.788200 0.217500
-5.771400 0.222800
-5.754700 0.227800
-5.737900 0.234600
-5.721200 0.243400
-5.704400 0.253400
-5.687600 0.263300
-5.670900 0.273300
-5.654100 0.283200
-5.637400 0.293600
-5.620600 0.303900
-5.603900 0.313500
-5.587100 0.320200
-5.570300 0.325500
-5.553600 0.331200
-5.536800 0.338100
-5.520100 0.344900
-5.503300 0.351400
-5.486500 0.357700
-5.469800 0.364100
-5.453000 0.371000
-5.436300 0.378400
-5.419500 0.386200
-5.402800 0.394200
-5.386000 0.402200
-5.369200 0.410200
-5.352500 0.417900
-5.335700 0.425700
-5.319000 0.433300
-5.302200 0.439900
-5.285500 0.445400
-5.268700 0.450700
-5.251900 0.456600
-5.235200 0.463100
-5.218400 0.469600
-5.201700 0.476200
-5.184900 0.482700
-5.168200 0.489300
-5.151400 0.496100
-5.134600 0.503000
-5.117900 0.511100
-5.101100 0.522000
-5.084400 0.535600
-5.067600 0.548500
-5.050900 0.560400
-5.034100 0.572500
-5.017300 0.584800
-5.000600 0.597400
-4.983800 0.609600
-4.967100 0.617300
-4.950300 0.618300
-4.933600 0.614200
-4.916800 0.616300
-4.900000 0.617700
-4.883300 0.618700
-4.866500 0.619300
-4.849800 0.619600
-4.833000 0.619700
-4.816300 0.619600
-4.799500 0.620100
-4.782700 0.621200
-4.766000 0.622900
-4.749200 0.624800
-4.732500 0.626300
-4.715700 0.627700
-4.699000 0.629000
-4.682200 0.630100
-4.665400 0.631100
-4.648700 0.631900
-4.631900 0.632700
-4.615200 0.633500
-4.598400 0.634400
-4.581600 0.636000
-4.564900 0.637700
-4.548100 0.639300
-4.531400 0.640500
-4.514600 0.641600
-4.497900 0.642900
-4.481100 0.644400
-4.464300 0.645900
-4.447600 0.647200
-4.430800 0.648300
-4.414100 0.649300
-4.397300 0.650300
-4.380600 0.651300
-4.363800 0.652300
-4.347000 0.653400
-4.330300 0.654500
-4.313500 0.655700
-4.296800 0.657100
-4.280000 0.658800
-4.263300 0.660600
-4.246500 0.662500
-4.229700 0.664400
-4.213000 0.666400
-4.196200 0.668400
-4.179500 0.670500
-4.162700 0.672600
-4.146000 0.674700
-4.129200 0.677000
-4.112400 0.679300
-4.095700 0.681500
-4.078900 0.683600
-4.062200 0.685500
-4.045400 0.687500
-4.028700 0.689500
-4.011900 0.691500
-3.995100 0.693500
-3.978400 0.697200
-3.961600 0.707200
-3.944900 0.723900
-3.928100 0.735800
-3.911400 0.748400
-3.894600 0.761600
-3.877800 0.775600
-3.861100 0.790200
-3.844300 0.805300
-3.827600 0.820600
-3.810800 0.835700
-3.794100 0.851300
-3.777300 0.865500
-3.760500 0.876800
-3.743800 0.887400
-3.727000 0.900300
-3.710300 0.913400
-3.693500 0.926500
-3.676700 0.939200
-3.660000 0.951600
-3.643200 0.986900
-3.626500 1.014300
-3.609700 1.030700
-3.593000 1.038100
-3.576200 1.043300
-3.559400 1.047500
-3.542700 1.051500
-3.525900 1.055000
-3.509200 1.057500
-3.492400 1.165100
-3.475700 1.140000
-3.458900 1.080400
-3.442100 1.075800
-3.425400 1.073400
-3.408600 1.071100
-3.391900 1.068800
-3.375100 1.065300
-3.358400 1.058900
-3.341600 1.051600
-3.324800 1.047700
-3.308100 1.045200
-3.291300 1.042200
-3.274600 1.038900
-3.257800 1.035400
-3.241100 1.031700
-3.224300 1.028100
-3.207500 1.024500
-3.190800 1.021800
-3.174000 1.023200
-3.157300 1.028900
-3.140500 1.036300
-3.123800 1.045100
-3.107000 1.055300
-3.090200 1.060600
-3.073500 1.044900
-3.056700 1.028300
-3.040000 1.025600
-3.023200 1.023800
-3.006500 1.021800
-2.989700 1.019700
-2.972900 1.017800
-2.956200 1.016300
-2.939400 1.016500
-2.922700 1.020500
-2.905900 1.027300
-2.889200 1.033200
-2.872400 1.038500
-2.855600 1.042700
-2.838900 1.045600
-2.822100 1.047400
-2.805400 1.068100
-2.788600 1.112400
-2.771900 1.166600
-2.755100 1.236200
-2.738300 1.312900
-2.721600 1.298500
-2.704800 1.333000
-2.688100 1.399500
-2.671300 1.500800
-2.654500 1.895200
-2.637800 1.789100
-2.621000 1.840000
-2.604300 1.884800
-2.587500 1.945100
-2.570800 1.994600
-2.554000 1.998500
-2.537200 1.960500
-2.520500 1.955600
-2.503700 1.968700
-2.487000 1.997300
-2.470200 2.033300
-2.453500 2.059600
-2.436700 2.038800
-2.419900 2.034100
-2.403200 2.031200
-2.386400 2.031800
-2.369700 2.028400
-2.352900 2.040400
-2.336200 2.071600
-2.319400 2.054200
-2.302600 2.054500
-2.285900 2.058800
-2.269100 2.065500
-2.252400 2.071200
-2.235600 2.083600
-2.218900 2.117900
-2.202100 2.153700
-2.185300 2.197900
-2.168600 2.251000
-2.151800 2.304400
-2.135100 2.379500
-2.118300 2.572800
-2.101600 2.584500
-2.084800 2.584700
-2.068000 2.553600
-2.051300 2.494100
-2.034500 2.407100
-2.017800 2.202000
-2.001000 1.980100
-1.984300 1.888500
-1.967500 1.811600
-1.950700 1.747300
-1.934000 1.706900
-1.917200 1.703800
-1.900500 1.725400
-1.883700 1.749000
-1.867000 1.751400
-1.850200 1.766300
-1.833400 1.797200
-1.816700 1.837100
-1.799900 1.904000
-1.783200 2.145200
-1.766400 2.364600
-1.749600 2.728000
-1.732900 3.493400
-1.716100 3.415400
-1.699400 3.360200
-1.682600 3.468900
-1.665900 3.617700
-1.649100 3.826400
-1.632300 4.185300
-1.615600 3.893400
-1.598800 3.913000
-1.582100 4.271700
-1.565300 3.641800
-1.548600 3.280000
-1.531800 3.453100
-1.515000 3.001600
-1.498300 2.669100
-1.481500 2.310500
-1.464800 2.155000
-1.448000 2.014500
-1.431300 1.895900
-1.414500 1.789100
-1.397700 1.690800
-1.381000 1.606700
-1.364200 1.533500
-1.347500 1.461900
-1.330700 1.398500
-1.314000 1.350400
-1.297200 1.309700
-1.280400 1.271000
-1.263700 1.233000
-1.246900 1.200000
-1.230200 1.169400
-1.213400 1.138100
-1.196700 1.113300
-1.179900 1.146800
-1.163100 1.230500
-1.146400 1.339400
-1.129600 1.462300
-1.112900 1.502200
-1.096100 1.510200
-1.079400 1.516700
-1.062600 1.486500
-1.045800 1.456200
-1.029100 1.418500
-1.012300 1.380700
-0.995600 1.348000
-0.978800 1.317800
-0.962100 1.289500
-0.945300 1.262200
-0.928500 1.238700
-0.911800 1.218800
-0.895000 1.204400
-0.878300 1.195100
-0.861500 1.189200
-0.844700 1.181400
-0.828000 1.158800
-0.811200 1.149500
-0.794500 1.140300
-0.777700 1.132300
-0.761000 1.127100
-0.744200 1.122800
-0.727400 1.119400
-0.710700 1.116200
-0.693900 1.112600
-0.677200 1.108900
-0.660400 1.105700
-0.643700 1.107900
-0.626900 1.112700
-0.610100 1.119100
-0.593400 1.126400
-0.576600 1.134900
-0.559900 1.144100
-0.543100 1.151900
-0.526400 1.160900
-0.509600 1.170100
-0.492800 1.180000
-0.476100 1.188800
-0.459300 1.196700
-0.442600 1.204900
-0.425800 1.215000
-0.409100 1.228600
-0.392300 1.245700
-0.375500 1.269500
-0.358800 1.289100
-0.342000 1.318700
-0.325300 1.339700
-0.308500 1.339800
-0.291800 1.375100
-0.275000 1.430200
-0.258200 1.704300
-0.241500 1.970200
-0.224700 2.273000
-0.208000 2.470200
-0.191200 2.715900
-0.174500 2.955500
-0.157700 3.233600
-0.140900 3.555200
-0.124200 4.081400
-0.107400 4.837000
-0.090700 5.131700
-0.073900 4.586000
-0.057200 4.231900
-0.040400 4.139200
-0.023600 4.223700
-0.006900 4.358300
0.009900 4.466700
0.026600 4.460000
0.043400 4.414200
0.060200 4.359900
0.076900 4.326800
0.093700 4.361900
0.110400 4.475500
0.127200 4.673500
0.143900 4.928600
0.160700 5.088800
0.177500 4.888300
0.194200 4.805200
0.211000 4.397900
0.227700 4.343900
0.244500 4.385200
0.261200 4.293900
0.278000 3.887700
0.294800 3.512400
0.311500 3.327500
0.328300 3.204100
0.345000 3.175600
0.361800 3.213100
0.378500 3.297900
0.395300 3.487600
0.412100 3.725000
0.428800 4.161400
0.445600 4.746000
0.462300 5.120500
0.479100 5.734300
0.495800 6.325900
0.512600 6.788000
0.529400 7.076500
0.546100 7.488200
0.562900 8.089500
0.579600 8.252900
0.596400 8.461100
0.613100 8.800300
0.629900 8.903900
0.646700 8.602600
0.663400 8.176000
0.680200 8.142200
0.696900 8.293300
0.713700 8.888400
0.730400 9.538900
0.747200 8.133300
0.764000 7.314500
0.780700 6.757500
0.797500 6.073100
0.814200 5.846900
0.831000 5.770500
0.847700 5.819800
0.864500 5.825600
0.881300 6.064700
0.898000 5.468600
0.914800 4.335200
0.931500 3.833600
0.948300 3.288200
0.965100 2.869100
0.981800 2.671300
0.998600 2.584000
1.015300 2.453100
1.032100 2.306400
1.048800 3.147600
1.065600 3.674700
1.082400 4.452900
1.099100 5.388200
1.115900 5.026300
1.132600 5.037400
1.149400 5.301200
1.166100 5.350500
1.182900 5.060600
1.199700 4.984300
1.216400 4.935900
1.233200 4.995500
1.249900 4.858300
1.266700 4.856700
1.283400 4.883300
1.300200 4.949100
1.317000 5.061000
1.333700 5.265900
1.350500 5.425200
1.367200 5.545800
1.384000 5.915500
1.400700 6.655000
1.417500 6.956000
1.434300 6.163100
1.451000 5.183400
1.467800 4.871200
1.484500 4.685100
1.501300 4.431100
1.518000 4.287700
1.534800 4.176400
1.551600 4.131400
1.568300 4.101700
1.585100 4.274500
1.601800 5.020100
1.618600 5.582800
1.635300 6.573600
1.652100 8.370800
1.668900 8.490900
1.685600 7.596700
1.702400 6.954600
1.719100 6.597300
1.735900 6.286600
1.752600 5.989000
1.769400 5.757900
1.786200 5.440200
1.802900 5.002200
1.819700 4.747100
1.836400 4.614100
1.853200 4.506700
1.870000 4.364900
1.886700 4.266400
1.903500 4.193500
1.920200 3.950900
1.937000 3.500800
1.953700 3.172800
1.970500 2.912900
1.987300 2.708000
2.004000 3.074200
2.020800 3.707600
2.037500 4.230800
2.054300 5.022800
2.071000 5.399300
2.087800 6.208800
2.104600 7.257100
2.121300 11.229200
2.138100 12.601600
2.154800 14.788900
2.171600 11.718700
2.188300 11.211100
2.205100 10.414400
2.221900 9.616300
2.238600 9.153900
2.255400 8.939400
2.272100 8.306200
2.288900 7.768600
2.305600 7.240200
2.322400 6.790500
2.339200 6.095000
2.355900 6.066200
2.372700 6.166700
2.389400 6.791600
2.406200 6.874600
2.422900 7.064500
2.439700 6.948000
2.456500 6.738500
2.473200 6.596200
2.490000 6.448500
2.506700 6.354200
2.523500 6.243200
2.540200 6.165800
2.557000 6.187700
2.573800 6.262400
2.590500 6.337800
2.607300 6.410300
2.624000 6.658900
2.640800 6.900200
2.657500 6.502000
2.674300 6.034100
2.691100 5.992200
2.707800 5.982900
2.724600 5.867500
2.741300 5.884800
2.758100 5.727800
2.774800 5.666600
2.791600 5.691800
2.808400 5.760400
2.825100 5.793700
2.841900 5.864900
2.858600 6.730800
2.875400 4.706700
2.892200 3.444700
2.908900 2.768400
2.925700 2.714500
2.942400 2.652200
2.959200 2.626400
2.975900 2.650200
2.992700 2.680600
3.009500 2.683000
3.026200 2.696300
3.043000 2.524500
3.059700 2.171600
3.076500 1.929900
3.093200 1.817500
3.110000 1.726900
3.126800 1.638800
3.143500 1.544800
3.160300 1.459700
3.177000 1.390900
3.193800 1.341800
3.210500 1.256900
3.227300 1.216400
3.244100 1.284700
3.260800 1.532000
3.277600 1.660400
3.294300 1.626500
3.311100 1.605900
3.327800 1.647400
3.344600 1.702600
3.361400 1.769800
3.378100 1.825000
3.394900 1.835200
3.411600 1.846500
3.428400 1.852000
3.445100 1.878600
3.461900 1.916700
3.478700 1.964600
3.495400 2.013900
3.512200 2.059200
3.528900 2.099300
3.545700 2.146200
3.562400 2.193200
3.579200 2.255200
3.596000 2.311900
3.612700 2.482900
3.629500 2.505800
3.646200 2.582000
3.663000 3.025000
3.679700 3.224000
3.696500 3.102100
3.713300 2.993900
3.730000 2.905600
3.746800 2.839700
3.763500 2.792400
3.780300 2.751900
3.797100 2.724500
3.813800 2.696700
3.830600 2.668200
3.847300 2.659800
3.864100 2.611100
3.880800 2.539000
3.897600 2.469300
3.914400 2.427600
3.931100 2.392000
3.947900 2.362200
3.964600 2.351200
3.981400 2.366400
3.998100 2.383200
4.014900 2.388300
4.031700 2.403800
4.048400 2.426000
4.065200 2.442700
4.081900 2.452500
4.098700 2.455500
4.115400 2.450000
4.132200 2.428800
4.149000 2.403900
4.165700 2.376800
4.182500 2.341200
4.199200 2.306500
4.216000 2.286100
4.232700 2.307400
4.249500 2.311400
4.266300 2.295700
4.283000 2.291100
4.299800 2.316000
4.316500 2.356200
4.333300 2.301100
4.350000 2.200600
4.366800 2.089100
4.383600 2.027000
4.400300 1.991300
4.417100 1.956300
4.433800 1.917400
4.450600 1.879800
4.467300 1.844000
4.484100 1.811600
4.500900 1.791500
4.517600 1.773400
4.534400 1.755900
4.551100 1.739400
4.567900 1.724500
4.584600 1.716800
4.601400 1.715600
4.618200 1.715100
4.634900 1.706500
4.651700 1.693500
4.668400 1.679700
4.685200 1.662200
4.702000 1.647800
4.718700 1.635700
4.735500 1.629100
4.752200 1.623700
4.769000 1.623100
4.785700 1.627000
4.802500 1.635400
4.819300 1.648700
4.836000 1.669700
4.852800 1.693700
4.869500 1.713400
4.886300 1.736900
4.903000 1.759700
4.919800 1.790000
4.936600 1.836600
4.953300 1.864300
4.970100 1.857700
4.986800 1.816600
5.003600 1.771400
5.020300 1.600100
5.037100 1.472900
5.053900 1.290400
5.070600 1.146500
5.087400 1.069200
5.104100 1.043900
5.120900 1.034000
5.137600 1.026200
5.154400 1.018100
5.171200 1.009600
5.187900 1.003500
5.204700 0.997700
5.221400 0.992900
5.238200 0.989200
5.254900 0.985300
5.271700 0.981500
5.288500 0.977700
5.305200 0.977200
5.322000 0.975900
5.338700 1.006100
5.355500 1.034800
5.372200 1.054900
5.389000 1.066700
5.405800 1.072800
5.422500 1.073200
5.439300 1.066100
5.456000 1.044600
5.472800 1.007800
5.489500 0.939200
5.506300 0.856300
5.523100 0.809300
5.539800 0.776000
5.556600 0.754800
5.573300 0.763600
5.590100 0.804000
5.606900 0.858800
5.623600 0.882500
5.640400 0.883000
5.657100 0.870500
5.673900 0.871000
5.690600 0.873900
5.707400 0.879700
5.724200 0.887800
5.740900 0.897700
5.757700 0.909200
5.774400 0.920600
5.791200 0.930200
5.807900 0.937300
5.824700 0.938100
5.841500 0.937200
5.858200 0.934700
5.875000 0.934000
5.891700 0.935000
5.908500 0.935400
5.925200 0.936300
5.942000 0.939100
5.958800 0.939900
5.975500 0.940800
5.992300 0.942200
6.009000 0.943600
6.025800 0.945900
6.042500 0.949400
6.059300 0.954900
6.076100 0.961700
6.092800 0.969500
6.109600 0.981000
6.126300 0.995600
