set title 'mp-1181998 - Density of States'
set xlabel 'Energy (eV)'
set ylabel 'DOS (states/eV)'
set grid
set xrange [-10:10]
set yrange [0:2.228]
set xzeroaxis lt -1
set terminal png size 800,600
set output 'mp-1181998_dos_gnuplot.png'
plot '-' using 1:2 with lines title 'DOS'
-21.736900 0.000000
-21.694700 0.000000
-21.652500 0.000000
-21.610200 0.000000
-21.568000 0.000000
-21.525800 0.000000
-21.483600 0.000000
-21.441300 0.000000
-21.399100 0.000000
-21.356900 0.000000
-21.314700 0.000000
-21.272400 0.000000
-21.230200 0.000000
-21.188000 0.000000
-21.145800 0.000000
-21.103500 0.000000
-21.061300 0.000000
-21.019100 0.000000
-20.976800 0.000000
-20.934600 0.000000
-20.892400 0.000000
-20.850200 0.000000
-20.807900 0.000000
-20.765700 0.000000
-20.723500 0.000000
-20.681300 0.000000
-20.639000 0.000000
-20.596800 0.000000
-20.554600 0.000000
-20.512400 0.000000
-20.470100 0.000000
-20.427900 0.000000
-20.385700 0.000000
-20.343500 0.000000
-20.301200 0.000000
-20.259000 0.000000
-20.216800 0.000000
-20.174600 0.000000
-20.132300 0.000000
-20.090100 0.000000
-20.047900 0.000000
-20.005700 0.000000
-19.963400 0.000000
-19.921200 0.000000
-19.879000 0.000000
-19.836800 0.000000
-19.794500 0.000000
-19.752300 0.000000
-19.710100 0.000000
-19.667900 0.000000
-19.625600 0.000000
-19.583400 0.000000
-19.541200 0.000000
-19.499000 0.000000
-19.456700 0.000000
-19.414500 0.000000
-19.372300 0.000000
-19.330100 0.000000
-19.287800 0.000000
-19.245600 0.000000
-19.203400 0.000000
-19.161200 0.000000
-19.118900 0.000000
-19.076700 0.000000
-19.034500 0.000000
-18.992300 0.000000
-18.950000 0.000000
-18.907800 0.000000
-18.865600 0.000000
-18.823400 0.000000
-18.781100 0.000000
-18.738900 0.000000
-18.696700 0.000000
-18.654500 0.000000
-18.612200 0.000000
-18.570000 0.000000
-18.527800 0.000000
-18.485600 0.000000
-18.443300 0.000000
-18.401100 0.000000
-18.358900 0.000000
-18.316700 0.000000
-18.274400 0.000000
-18.232200 0.000000
-18.190000 0.000000
-18.147800 0.000000
-18.105500 0.000000
-18.063300 0.000000
-18.021100 0.000000
-17.978800 0.000000
-17.936600 0.000000
-17.894400 0.008000
-17.852200 0.130400
-17.809900 0.198900
-17.767700 0.266700
-17.725500 0.321600
-17.683300 0.398900
-17.641000 0.537600
-17.598800 0.551500
-17.556600 0.569200
-17.514400 0.573100
-17.472100 0.594300
-17.429900 0.603300
-17.387700 0.615900
-17.345500 0.635200
-17.303200 0.655800
-17.261000 0.674200
-17.218800 0.700200
-17.176600 0.730000
-17.134300 0.763800
-17.092100 0.802900
-17.049900 0.848400
-17.007700 0.915700
-16.965400 1.001100
-16.923200 1.120100
-16.881000 1.303300
-16.838800 1.651500
-16.796500 2.005200
-16.754300 1.502400
-16.712100 1.165300
-16.669900 1.040400
-16.627600 0.994200
-16.585400 0.000000
-16.543200 0.000000
-16.501000 0.000000
-16.458700 0.000000
-16.416500 0.000000
-16.374300 0.000000
-16.332100 0.000000
-16.289800 0.000000
-16.247600 0.000000
-16.205400 0.000000
-16.163200 0.000000
-16.120900 0.000000
-16.078700 0.000000
-16.036500 0.000000
-15.994300 0.000000
-15.952000 0.000000
-15.909800 0.000000
-15.867600 0.000000
-15.825400 0.000000
-15.783100 0.000000
-15.740900 0.000000
-15.698700 0.000000
-15.656500 0.000000
-15.614200 0.000000
-15.572000 0.000000
-15.529800 0.000000
-15.487600 0.000000
-15.445300 0.000000
-15.403100 0.000000
-15.360900 0.000000
-15.318700 0.000000
-15.276400 0.000000
-15.234200 0.000000
-15.192000 0.000000
-15.149800 0.000000
-15.107500 0.000000
-15.065300 0.000000
-15.023100 0.000000
-14.980800 0.000000
-14.938600 0.000000
-14.896400 0.000000
-14.854200 0.000000
-14.811900 0.000000
-14.769700 0.000000
-14.727500 0.000000
-14.685300 0.000000
-14.643000 0.000000
-14.600800 0.000000
-14.558600 0.000000
-14.516400 0.000000
-14.474100 0.000000
-14.431900 0.000000
-14.389700 0.000000
-14.347500 0.000000
-14.305200 0.000000
-14.263000 0.000000
-14.220800 0.000000
-14.178600 0.000000
-14.136300 0.000000
-14.094100 0.517600
-14.051900 0.817800
-14.009700 0.795300
-13.967400 0.861700
-13.925200 1.305000
-13.883000 1.297300
-13.840800 1.240200
-13.798500 1.008500
-13.756300 0.898700
-13.714100 0.803200
-13.671900 0.732100
-13.629600 0.670200
-13.587400 0.608900
-13.545200 0.541600
-13.503000 0.522000
-13.460700 0.504300
-13.418500 0.486900
-13.376300 0.469800
-13.334100 0.452600
-13.291800 0.434300
-13.249600 0.414200
-13.207400 0.388800
-13.165200 0.380300
-13.122900 0.371700
-13.080700 0.363100
-13.038500 0.354300
-12.996300 0.345500
-12.954000 0.336600
-12.911800 0.327300
-12.869600 0.316600
-12.827400 0.308600
-12.785100 0.301800
-12.742900 0.294900
-12.700700 0.288100
-12.658500 0.281700
-12.616200 0.276300
-12.574000 0.271000
-12.531800 0.269300
-12.489600 0.264500
-12.447300 0.256300
-12.405100 0.248200
-12.362900 0.240000
-12.320700 0.233100
-12.278400 0.238600
-12.236200 0.245300
-12.194000 0.233100
-12.151700 0.216500
-12.109500 0.199900
-12.067300 0.249300
-12.025100 0.179000
-11.982800 0.030900
-11.940600 0.000000
-11.898400 0.000000
-11.856200 0.000000
-11.813900 0.000000
-11.771700 0.000000
-11.729500 0.000000
-11.687300 0.000000
-11.645000 0.000000
-11.602800 0.000000
-11.560600 0.000000
-11.518400 0.000000
-11.476100 0.000000
-11.433900 0.000000
-11.391700 0.000000
-11.349500 0.000000
-11.307200 0.000000
-11.265000 0.000000
-11.222800 0.000000
-11.180600 0.000000
-11.138300 0.000000
-11.096100 0.000000
-11.053900 0.000000
-11.011700 0.000000
-10.969400 0.000000
-10.927200 0.000000
-10.885000 0.000000
-10.842800 0.000000
-10.800500 0.000000
-10.758300 0.000000
-10.716100 0.000000
-10.673900 0.000000
-10.631600 0.000000
-10.589400 0.000000
-10.547200 0.000000
-10.505000 0.000000
-10.462700 0.000000
-10.420500 0.000000
-10.378300 0.000000
-10.336100 0.000000
-10.293800 0.000000
-10.251600 0.000000
-10.209400 0.000000
-10.167200 0.000000
-10.124900 0.000000
-10.082700 0.000000
-10.040500 0.000000
-9.998300 0.000000
-9.956000 0.000000
-9.913800 0.000000
-9.871600 0.000000
-9.829400 0.000000
-9.787100 0.000000
-9.744900 0.000000
-9.702700 0.000000
-9.660500 0.000000
-9.618200 0.000000
-9.576000 0.000000
-9.533800 0.000000
-9.491600 0.000000
-9.449300 0.000000
-9.407100 0.000000
-9.364900 0.000000
-9.322700 0.000000
-9.280400 0.000000
-9.238200 0.000000
-9.196000 0.000000
-9.153700 0.000000
-9.111500 0.000000
-9.069300 0.000000
-9.027100 0.000000
-8.984800 0.000000
-8.942600 0.000000
-8.900400 0.000000
-8.858200 0.000000
-8.815900 0.000000
-8.773700 0.000000
-8.731500 0.000000
-8.689300 0.000000
-8.647000 0.000000
-8.604800 0.000000
-8.562600 0.000000
-8.520400 0.000000
-8.478100 0.000000
-8.435900 0.000000
-8.393700 0.000000
-8.351500 0.000000
-8.309200 0.000000
-8.267000 0.000000
-8.224800 0.000000
-8.182600 0.000000
-8.140300 0.000000
-8.098100 0.000000
-8.055900 0.000000
-8.013700 0.000000
-7.971400 0.000000
-7.929200 0.000000
-7.887000 0.000000
-7.844800 0.000000
-7.802500 0.000000
-7.760300 0.000000
-7.718100 0.000000
-7.675900 0.000000
-7.633600 0.000000
-7.591400 0.000000
-7.549200 0.000000
-7.507000 0.000000
-7.464700 0.000000
-7.422500 0.000000
-7.380300 0.000000
-7.338100 0.000000
-7.295800 0.000000
-7.253600 0.000000
-7.211400 0.000000
-7.169200 0.000000
-7.126900 0.000000
-7.084700 0.000000
-7.042500 0.000000
-7.000300 0.000000
-6.958000 0.000000
-6.915800 0.000000
-6.873600 0.000000
-6.831400 0.000000
-6.789100 0.000000
-6.746900 0.000000
-6.704700 0.000000
-6.662500 0.000000
-6.620200 0.000000
-6.578000 0.000000
-6.535800 0.000000
-6.493600 0.000000
-6.451300 0.000000
-6.409100 0.000000
-6.366900 0.000000
-6.324700 0.000000
-6.282400 0.000000
-6.240200 0.000000
-6.198000 0.000000
-6.155700 0.000000
-6.113500 0.000000
-6.071300 0.000000
-6.029100 0.000000
-5.986800 0.000000
-5.944600 0.000000
-5.902400 0.000000
-5.860200 0.000000
-5.817900 0.000000
-5.775700 0.000000
-5.733500 0.000000
-5.691300 0.000000
-5.649000 0.000000
-5.606800 0.000000
-5.564600 0.000000
-5.522400 0.000000
-5.480100 0.000000
-5.437900 0.000000
-5.395700 0.000000
-5.353500 0.078500
-5.311200 0.495900
-5.269000 0.514600
-5.226800 0.516100
-5.184600 0.533400
-5.142300 0.548400
-5.100100 0.547800
-5.057900 0.562300
-5.015700 0.576400
-4.973400 0.595600
-4.931200 0.616500
-4.889000 0.636300
-4.846800 0.653100
-4.804500 0.681000
-4.762300 0.747200
-4.720100 0.817800
-4.677900 0.884700
-4.635600 0.881800
-4.593400 0.875300
-4.551200 0.875600
-4.509000 0.880800
-4.466700 0.867200
-4.424500 0.826500
-4.382300 0.766300
-4.340100 0.669200
-4.297800 0.622600
-4.255600 0.578600
-4.213400 0.548500
-4.171200 0.520400
-4.128900 0.490600
-4.086700 0.473000
-4.044500 0.484600
-4.002300 0.464000
-3.960000 0.473900
-3.917800 0.527600
-3.875600 0.698700
-3.833400 0.683600
-3.791100 0.692400
-3.748900 0.669100
-3.706700 0.658000
-3.664500 0.670700
-3.622200 0.533400
-3.580000 0.640100
-3.537800 0.634900
-3.495600 0.693400
-3.453300 0.712400
-3.411100 0.707400
-3.368900 0.721100
-3.326600 0.719500
-3.284400 0.719400
-3.242200 0.706100
-3.200000 0.710700
-3.157700 0.719100
-3.115500 0.726800
-3.073300 0.733800
-3.031100 0.736200
-2.988800 0.736300
-2.946600 0.745300
-2.904400 0.755300
-2.862200 0.762400
-2.819900 0.753000
-2.777700 0.712600
-2.735500 0.676900
-2.693300 0.639600
-2.651000 0.604000
-2.608800 0.572800
-2.566600 0.563900
-2.524400 0.555700
-2.482100 0.547800
-2.439900 0.542500
-2.397700 0.538100
-2.355500 0.533600
-2.313200 0.530500
-2.271000 0.528500
-2.228800 0.526100
-2.186600 0.526500
-2.144300 0.525600
-2.102100 0.524900
-2.059900 0.523000
-2.017700 0.523200
-1.975400 0.522800
-1.933200 0.524900
-1.891000 0.526800
-1.848800 0.529500
-1.806500 0.537900
-1.764300 0.544600
-1.722100 0.539800
-1.679900 0.472100
-1.637600 0.450400
-1.595400 0.475700
-1.553200 0.502800
-1.511000 0.532900
-1.468700 0.567700
-1.426500 0.616300
-1.384300 0.638300
-1.342100 0.691700
-1.299800 0.769400
-1.257600 0.982900
-1.215400 1.161900
-1.173200 1.376700
-1.130900 1.439000
-1.088700 1.438500
-1.046500 1.346800
-1.004300 1.279900
-0.962000 0.733500
-0.919800 0.416000
-0.877600 0.252000
-0.835400 0.130600
-0.793100 0.054600
-0.750900 0.035800
-0.708700 0.217200
-0.666500 0.330000
-0.624200 0.460600
-0.582000 0.707800
-0.539800 1.060100
-0.497600 1.449000
-0.455300 1.954900
-0.413100 1.616900
-0.370900 1.429800
-0.328600 1.157400
-0.286400 1.045000
-0.244200 0.956100
-0.202000 0.896600
-0.159700 0.850800
-0.117500 0.807500
-0.075300 0.666500
-0.033100 0.583300
0.009200 0.548600
0.051400 0.521100
0.093600 0.489600
0.135800 0.461600
0.178100 0.437900
0.220300 0.421400
0.262500 0.400400
0.304700 0.377300
0.347000 0.353900
0.389200 0.336100
0.431400 0.323400
0.473600 0.312700
0.515900 0.301500
0.558100 0.282700
0.600300 0.475800
0.642500 0.424300
0.684800 0.416200
0.727000 0.430400
0.769200 0.436600
0.811400 0.438300
0.853700 0.510800
0.895900 0.495600
0.938100 0.433600
0.980300 0.480100
1.022600 0.587500
1.064800 0.677700
1.107000 0.822900
1.149200 1.096600
1.191500 1.359400
1.233700 1.541100
1.275900 1.936400
1.318100 2.025900
1.360400 1.807900
1.402600 1.792200
1.444800 1.747200
1.487000 1.726700
1.529300 1.309900
1.571500 1.136700
1.613700 1.012400
1.655900 0.991100
1.698200 0.937100
1.740400 0.738600
1.782600 0.378600
1.824800 0.245600
1.867100 0.252400
1.909300 0.259300
1.951500 0.265900
1.993700 0.271600
2.036000 0.276700
2.078200 0.283800
2.120400 0.292600
2.162600 0.303300
2.204900 0.314200
2.247100 0.325400
2.289300 0.336700
2.331500 0.348200
2.373800 0.360600
2.416000 0.372800
2.458200 0.384800
2.500400 0.396700
2.542700 0.424900
2.584900 0.450800
2.627100 0.478800
2.669400 0.509600
2.711600 0.549500
2.753800 0.579900
2.796000 0.608600
2.838300 0.649700
2.880500 0.761500
2.922700 0.886900
2.964900 1.112200
3.007200 1.375300
3.049400 1.437800
3.091600 1.221100
3.133800 1.202200
3.176100 1.138200
3.218300 1.203000
3.260500 1.148500
3.302700 0.000000
3.345000 0.000000
3.387200 0.000000
3.429400 0.000000
3.471600 0.000000
3.513900 0.000000
3.556100 0.000000
3.598300 0.000000
3.640500 0.000000
3.682800 0.000000
3.725000 0.000000
3.767200 0.000000
3.809400 0.000000
3.851700 0.000000
3.893900 0.000000
3.936100 0.000000
3.978300 0.000000
4.020600 0.000000
4.062800 0.000000
4.105000 0.000000
4.147200 0.000000
4.189500 0.000000
4.231700 0.000000
4.273900 0.000000
4.316100 0.000000
4.358400 0.000000
4.400600 0.000000
4.442800 0.000000
4.485000 0.000000
4.527300 0.000000
4.569500 0.000000
4.611700 0.000000
4.653900 0.000000
4.696200 0.000000
4.738400 0.000000
4.780600 0.000000
4.822800 0.000000
4.865100 0.000000
4.907300 0.000000
4.949500 0.000000
4.991700 0.000000
5.034000 0.000000
5.076200 0.000000
5.118400 0.000000
5.160600 0.000000
5.202900 0.000000
5.245100 0.000000
5.287300 0.000000
5.329500 0.000000
5.371800 0.000000
5.414000 0.000000
5.456200 0.000000
5.498400 0.000000
5.540700 0.000000
5.582900 0.000000
5.625100 0.000000
5.667400 0.000000
5.709600 0.000000
5.751800 0.000000
5.794000 0.000000
5.836300 0.000000
5.878500 0.000000
5.920700 0.000000
5.962900 0.000000
6.005200 0.000000
6.047400 0.000000
6.089600 0.000000
6.131800 0.000000
6.174100 0.000000
6.216300 0.000000
6.258500 0.000000
6.300700 0.000000
6.343000 0.000000
6.385200 0.000000
6.427400 0.000000
6.469600 0.000000
6.511900 0.000000
6.554100 0.000000
6.596300 0.000000
6.638500 0.000000
6.680800 0.000000
6.723000 0.000000
6.765200 0.000000
6.807400 0.000000
6.849700 0.000000
6.891900 0.000000
6.934100 0.000000
6.976300 0.000000
7.018600 0.000000
7.060800 0.000000
7.103000 0.000000
7.145200 0.000000
7.187500 0.000000
7.229700 0.000000
7.271900 0.000000
7.314100 0.000000
7.356400 0.000000
7.398600 0.000000
7.440800 0.000000
7.483000 0.000000
7.525300 0.000000
7.567500 0.000000
7.609700 0.000000
7.651900 0.000000
7.694200 0.000000
7.736400 0.000000
7.778600 0.000000
7.820800 0.012700
7.863100 0.012700
7.905300 0.015700
7.947500 0.018900
7.989700 0.022300
8.032000 0.025800
8.074200 0.028700
8.116400 0.030800
8.158600 0.032600
8.200900 0.035000
8.243100 0.037500
8.285300 0.040200
8.327500 0.043000
8.369800 0.045900
8.412000 0.048800
8.454200 0.051900
8.496500 0.055300
8.538700 0.058600
8.580900 0.062000
8.623100 0.065700
8.665400 0.069600
8.707600 0.073700
8.749800 0.077900
8.792000 0.082300
8.834300 0.086800
8.876500 0.092500
8.918700 0.099000
8.960900 0.107900
9.003200 0.119100
9.045400 0.131800
9.087600 0.242600
9.129800 0.308900
9.172100 0.370000
9.214300 0.385100
9.256500 0.388600
9.298700 0.387300
9.341000 0.397600
9.383200 0.403400
9.425400 0.411300
9.467600 0.427400
9.509900 0.450000
9.552100 0.465900
9.594300 0.482300
9.636500 0.495600
9.678800 0.691200
9.721000 0.553300
9.763200 0.560700
9.805400 0.563900
9.847700 0.607500
9.889900 0.681200
9.932100 1.261900
9.974300 0.648300
10.016600 0.604200
10.058800 0.560900
10.101000 0.509800
10.143200 0.467000
10.185500 0.437500
10.227700 0.412200
10.269900 0.385300
10.312100 0.364400
10.354400 0.355400
10.396600 0.347700
10.438800 0.352700
10.481000 0.360100
10.523300 0.365300
10.565500 0.338400
10.607700 0.446800
10.649900 0.620700
10.692200 0.884000
10.734400 0.986600
10.776600 1.003500
10.818800 1.031500
10.861100 0.997100
10.903300 0.996300
10.945500 1.041600
10.987700 1.071200
11.030000 1.085700
11.072200 1.081500
11.114400 1.214600
11.156600 1.102400
11.198900 1.090100
11.241100 1.082100
11.283300 1.068700
11.325500 1.065200
11.367800 1.030100
11.410000 0.812700
11.452200 0.809100
11.494500 0.810800
11.536700 1.024800
11.578900 1.252800
11.621100 1.219400
11.663400 1.343100
11.705600 1.303000
11.747800 1.044400
11.790000 0.969600
11.832300 0.924600
11.874500 0.857700
11.916700 0.779700
11.958900 0.729300
12.001200 0.694400
12.043400 0.667600
12.085600 0.644800
12.127800 0.622300
12.170100 0.600100
12.212300 0.581800
12.254500 0.562700
12.296700 0.541900
12.339000 0.512500
12.381200 0.481100
12.423400 0.462200
12.465600 0.448200
12.507900 0.434400
12.550100 0.422500
12.592300 0.413500
12.634500 0.406600
12.676800 0.401300
12.719000 0.394400
12.761200 0.389200
12.803400 0.389300
12.845700 0.380900
12.887900 0.348100
12.930100 0.343300
12.972300 0.343400
13.014600 0.350700
13.056800 0.363400
13.099000 0.376300
13.141200 0.382000
13.183500 0.385500
13.225700 0.387400
13.267900 0.388500
13.310100 0.392600
13.352400 0.393500
13.394600 0.394400
13.436800 0.395700
13.479000 0.398700
13.521300 0.402500
13.563500 0.405500
13.605700 0.407200
13.647900 0.409100
13.690200 0.408300
13.732400 0.409400
13.774600 0.413800
13.816800 0.419400
13.859100 0.422000
13.901300 0.422500
13.943500 0.424200
13.985700 0.430100
14.028000 0.437700
14.070200 0.442700
14.112400 0.445100
14.154600 0.444200
14.196900 0.439400
14.239100 0.431700
14.281300 0.426100
14.323500 0.427300
14.365800 0.428800
14.408000 0.430300
14.450200 0.431200
14.492500 0.432600
14.534700 0.435800
14.576900 0.442600
14.619100 0.450700
14.661400 0.436800
14.703600 0.402900
14.745800 0.366000
14.788000 0.368600
14.830300 0.374000
14.872500 0.393100
14.914700 0.407300
14.956900 0.422000
14.999200 0.431800
15.041400 0.439600
15.083600 0.448000
15.125800 0.456500
15.168100 0.449200
15.210300 0.451300
15.252500 0.452200
15.294700 0.542000
15.337000 0.507700
15.379200 0.544200
15.421400 0.588200
15.463600 0.536500
15.505900 0.506700
15.548100 0.486200
15.590300 0.478400
15.632500 0.413600
15.674800 0.383500
15.717000 0.358200
15.759200 0.337000
15.801400 0.318100
15.843700 0.298500
15.885900 0.320100
15.928100 0.389700
15.970300 0.416800
16.012600 0.497600
16.054800 0.533600
16.097000 0.591100
16.139200 0.619900
16.181500 0.724200
16.223700 0.841700
16.265900 0.946600
16.308100 0.900800
16.350400 0.807500
16.392600 0.761800
16.434800 0.879800
16.477000 0.959100
16.519300 0.926100
16.561500 0.833900
16.603700 0.789600
16.645900 0.803500
16.688200 0.836000
16.730400 0.878900
16.772600 0.950300
16.814800 1.011000
16.857100 1.014400
16.899300 1.063900
16.941500 1.091300
16.983700 1.065000
17.026000 1.092600
17.068200 1.146400
17.110400 1.132500
17.152600 1.125300
17.194900 1.103800
17.237100 1.119800
17.279300 1.072600
17.321500 0.984900
17.363800 0.927600
17.406000 0.859700
17.448200 0.752400
17.490500 0.662500
17.532700 0.621100
17.574900 0.606900
17.617100 0.573800
17.659400 0.544500
17.701600 0.551800
17.743800 0.542100
17.786000 0.535900
17.828300 0.490000
17.870500 0.449300
17.912700 0.477200
17.954900 0.524900
17.997200 0.558100
18.039400 0.575100
18.081600 0.591800
18.123800 0.603200
18.166100 0.611100
18.208300 0.622900
18.250500 0.630500
18.292700 0.641300
18.335000 0.666100
18.377200 0.690400
18.419400 0.641800
18.461600 0.629100
18.503900 0.625600
18.546100 0.619900
18.588300 0.614000
18.630500 0.607800
18.672800 0.844200
18.715000 0.707100
18.757200 0.716600
18.799400 0.753000
18.841700 0.764400
18.883900 0.762600
18.926100 0.767300
18.968300 0.812000
19.010600 0.753100
19.052800 0.745700
19.095000 0.716300
19.137200 0.725900
19.179500 0.672700
19.221700 0.677000
19.263900 0.694800
19.306100 0.675900
19.348400 0.650800
19.390600 0.609700
19.432800 0.585400
19.475000 0.610600
19.517300 0.576400
19.559500 0.550200
19.601700 0.534400
19.643900 0.523400
19.686200 0.520400
19.728400 0.526000
19.770600 0.535000
19.812800 0.543900
19.855100 0.544700
19.897300 0.545600
19.939500 0.544100
19.981700 0.546800
20.024000 0.574000
20.066200 0.597100
20.108400 0.590000
20.150600 0.563300
20.192900 0.560200
20.235100 0.558700
20.277300 0.565500
20.319600 0.576500
20.361800 0.588200
20.404000 0.608300
20.446200 0.626800
20.488500 0.616400
20.530700 0.584400
20.572900 0.579500
20.615100 0.583100
20.657400 0.581500
20.699600 0.589300
20.741800 0.604000
20.784000 0.619300
20.826300 0.658500
20.868500 0.708700
20.910700 0.736300
20.952900 0.770000
20.995200 0.798600
21.037400 0.783000
21.079600 0.805900
21.121800 0.808800
21.164100 0.811100
21.206300 0.823400
21.248500 0.884100
21.290700 0.910000
21.333000 0.949600
21.375200 0.952100
21.417400 0.956800
21.459600 0.922500
21.501900 0.850900
21.544100 0.678700
21.586300 0.614100
21.628500 0.538300
21.670800 0.468600
21.713000 0.416900
21.755200 0.379300
21.797400 0.372400
21.839700 0.385000
21.881900 0.352300
21.924100 0.350200
