set title 'mp-1180981 - Density of States'
set xlabel 'Energy (eV)'
set ylabel 'DOS (states/eV)'
set grid
set xrange [-10:10]
set yrange [0:2.549]
set xzeroaxis lt -1
set terminal png size 800,600
set output 'mp-1180981_dos_gnuplot.png'
plot '-' using 1:2 with lines title 'DOS'
-14.738100 0.000000
-14.700800 0.000000
-14.663600 0.000000
-14.626300 0.000000
-14.589000 0.000000
-14.551700 0.000000
-14.514500 0.000000
-14.477200 0.000000
-14.439900 0.000000
-14.402700 0.000000
-14.365400 0.000000
-14.328100 0.000000
-14.290900 0.000000
-14.253600 0.000000
-14.216300 0.000000
-14.179000 0.000000
-14.141800 0.000000
-14.104500 0.000000
-14.067200 0.000000
-14.030000 0.000000
-13.992700 0.000000
-13.955400 0.000000
-13.918200 0.000000
-13.880900 0.000000
-13.843600 0.000000
-13.806300 0.000000
-13.769100 0.000000
-13.731800 0.000000
-13.694500 0.000000
-13.657300 0.000000
-13.620000 0.000000
-13.582700 0.000000
-13.545500 0.000000
-13.508200 0.000000
-13.470900 0.000000
-13.433600 0.000000
-13.396400 0.000000
-13.359100 0.000000
-13.321800 0.000000
-13.284600 0.000000
-13.247300 0.000000
-13.210000 0.000000
-13.172800 0.000000
-13.135500 0.000000
-13.098200 0.000000
-13.060900 0.000000
-13.023700 0.000000
-12.986400 0.000000
-12.949100 0.000000
-12.911900 0.000000
-12.874600 0.000000
-12.837300 0.000000
-12.800100 0.000000
-12.762800 0.000000
-12.725500 0.000000
-12.688200 0.000000
-12.651000 0.000000
-12.613700 0.000000
-12.576400 0.000000
-12.539200 0.000000
-12.501900 0.000000
-12.464600 0.000000
-12.427400 0.000000
-12.390100 0.000000
-12.352800 0.000000
-12.315500 0.000000
-12.278300 0.000000
-12.241000 0.000000
-12.203700 0.000000
-12.166500 0.000000
-12.129200 0.000000
-12.091900 0.000000
-12.054700 0.000000
-12.017400 0.000000
-11.980100 0.000000
-11.942800 0.000000
-11.905600 0.000000
-11.868300 0.000000
-11.831000 0.000000
-11.793800 0.000000
-11.756500 0.000000
-11.719200 0.000000
-11.682000 0.000000
-11.644700 0.000000
-11.607400 0.000000
-11.570100 0.000000
-11.532900 0.000000
-11.495600 0.000000
-11.458300 0.000000
-11.421100 0.000000
-11.383800 0.000000
-11.346500 0.002600
-11.309300 0.192400
-11.272000 0.427400
-11.234700 0.676200
-11.197500 0.622300
-11.160200 0.659200
-11.122900 0.665800
-11.085600 0.695200
-11.048400 0.684000
-11.011100 0.685500
-10.973800 0.681600
-10.936600 0.695600
-10.899300 0.711900
-10.862000 0.725300
-10.824800 0.733500
-10.787500 0.737600
-10.750200 0.745800
-10.712900 0.756900
-10.675700 0.769600
-10.638400 0.783100
-10.601100 0.796800
-10.563900 0.810300
-10.526600 0.825900
-10.489300 0.842400
-10.452100 0.860000
-10.414800 0.881300
-10.377500 0.909100
-10.340200 0.940900
-10.303000 0.969900
-10.265700 0.999800
-10.228400 1.031400
-10.191200 1.075900
-10.153900 1.156400
-10.116600 1.239800
-10.079400 1.354900
-10.042100 1.554100
-10.004800 2.017100
-9.967500 1.555200
-9.930300 1.335600
-9.893000 1.171400
-9.855700 1.083700
-9.818500 1.016900
-9.781200 0.952100
-9.743900 0.886900
-9.706700 0.848000
-9.669400 0.812800
-9.632100 0.778400
-9.594800 0.743600
-9.557600 0.708100
-9.520300 0.683800
-9.483000 0.661100
-9.445800 0.639100
-9.408500 0.617600
-9.371200 0.596300
-9.334000 0.575900
-9.296700 0.558100
-9.259400 0.541200
-9.222100 0.525100
-9.184900 0.510400
-9.147600 0.498200
-9.110300 0.486200
-9.073100 0.469500
-9.035800 0.454000
-8.998500 0.440700
-8.961300 0.432200
-8.924000 0.434900
-8.886700 0.410600
-8.849400 0.385300
-8.812200 0.388900
-8.774900 0.398500
-8.737600 0.104200
-8.700400 0.000000
-8.663100 0.000000
-8.625800 0.000000
-8.588600 0.000000
-8.551300 0.000000
-8.514000 0.000000
-8.476700 0.000000
-8.439500 0.000000
-8.402200 0.000000
-8.364900 0.000000
-8.327700 0.000000
-8.290400 0.000000
-8.253100 0.000000
-8.215900 0.000000
-8.178600 0.000000
-8.141300 0.000000
-8.104000 0.000000
-8.066800 0.000000
-8.029500 0.000000
-7.992200 0.000000
-7.955000 0.000000
-7.917700 0.000000
-7.880400 0.000000
-7.843200 0.000000
-7.805900 0.000000
-7.768600 0.000000
-7.731300 0.000000
-7.694100 0.000000
-7.656800 0.000000
-7.619500 0.000000
-7.582300 0.000000
-7.545000 0.000000
-7.507700 0.000000
-7.470500 0.000000
-7.433200 0.000000
-7.395900 0.000000
-7.358600 0.000000
-7.321400 0.000000
-7.284100 0.000000
-7.246800 0.000000
-7.209600 0.000000
-7.172300 0.000000
-7.135000 0.000000
-7.097800 0.000000
-7.060500 0.000000
-7.023200 0.000000
-6.985900 0.000000
-6.948700 0.000000
-6.911400 0.000000
-6.874100 0.000000
-6.836900 0.000000
-6.799600 0.000000
-6.762300 0.000000
-6.725100 0.000000
-6.687800 0.000000
-6.650500 0.000000
-6.613200 0.000000
-6.576000 0.000000
-6.538700 0.000000
-6.501400 0.000000
-6.464200 0.000000
-6.426900 0.000000
-6.389600 0.000000
-6.352400 0.000000
-6.315100 0.000000
-6.277800 0.000000
-6.240500 0.000000
-6.203300 0.000000
-6.166000 0.000000
-6.128700 0.000000
-6.091500 0.000000
-6.054200 0.000000
-6.016900 0.000000
-5.979700 0.000000
-5.942400 0.000000
-5.905100 0.000000
-5.867900 0.000000
-5.830600 0.000000
-5.793300 0.000000
-5.756000 0.000000
-5.718800 0.000000
-5.681500 0.000000
-5.644200 0.000000
-5.607000 0.000000
-5.569700 0.000000
-5.532400 0.000000
-5.495200 0.000000
-5.457900 0.000000
-5.420600 0.000000
-5.383300 0.000000
-5.346100 0.000000
-5.308800 0.000000
-5.271500 0.000000
-5.234300 0.000000
-5.197000 0.000000
-5.159700 0.000000
-5.122500 0.000000
-5.085200 0.000000
-5.047900 0.000000
-5.010600 0.000000
-4.973400 0.000000
-4.936100 0.000000
-4.898800 0.000000
-4.861600 0.000000
-4.824300 0.000000
-4.787000 0.000000
-4.749800 0.000000
-4.712500 0.000000
-4.675200 0.000000
-4.637900 0.000000
-4.600700 0.000000
-4.563400 0.000000
-4.526100 0.000000
-4.488900 0.000000
-4.451600 0.000000
-4.414300 0.000000
-4.377100 0.000000
-4.339800 0.000000
-4.302500 0.000000
-4.265200 0.000000
-4.228000 0.000000
-4.190700 0.000000
-4.153400 0.000000
-4.116200 0.000000
-4.078900 0.000000
-4.041600 0.000000
-4.004400 0.000000
-3.967100 0.000000
-3.929800 0.000000
-3.892500 0.000000
-3.855300 0.000000
-3.818000 0.000000
-3.780700 0.000000
-3.743500 0.000000
-3.706200 0.000000
-3.668900 0.000000
-3.631700 0.000000
-3.594400 0.000000
-3.557100 0.000000
-3.519800 0.000000
-3.482600 0.000000
-3.445300 0.000000
-3.408000 0.000000
-3.370800 0.000000
-3.333500 0.000000
-3.296200 0.000000
-3.259000 0.000000
-3.221700 0.000000
-3.184400 0.000000
-3.147100 0.000000
-3.109900 0.000000
-3.072600 0.000000
-3.035300 0.000000
-2.998100 0.000000
-2.960800 0.000000
-2.923500 0.000000
-2.886300 0.000000
-2.849000 0.000000
-2.811700 0.000000
-2.774400 0.000000
-2.737200 0.000000
-2.699900 0.083600
-2.662600 0.326700
-2.625400 0.569200
-2.588100 0.664400
-2.550800 0.654100
-2.513600 0.623500
-2.476300 0.626900
-2.439000 0.636900
-2.401700 0.644500
-2.364500 0.649100
-2.327200 0.659800
-2.289900 0.673400
-2.252700 0.687500
-2.215400 0.700900
-2.178100 0.707800
-2.140900 0.703200
-2.103600 0.709600
-2.066300 0.720100
-2.029000 0.734200
-1.991800 0.752500
-1.954500 0.772800
-1.917200 0.795100
-1.880000 0.879800
-1.842700 1.181600
-1.805400 1.403700
-1.768200 1.473600
-1.730900 1.366800
-1.693600 1.107400
-1.656300 0.950700
-1.619100 0.861200
-1.581800 0.803600
-1.544500 0.774000
-1.507300 0.691000
-1.470000 0.648400
-1.432700 0.619500
-1.395500 0.594900
-1.358200 0.576400
-1.320900 0.558300
-1.283600 0.530000
-1.246400 0.512400
-1.209100 0.499800
-1.171800 0.492300
-1.134600 0.663000
-1.097300 0.839100
-1.060000 0.988500
-1.022800 0.964000
-0.985500 0.964800
-0.948200 0.982700
-0.911000 1.004300
-0.873700 0.994600
-0.836400 0.975400
-0.799100 0.991600
-0.761900 1.025300
-0.724600 1.066000
-0.687300 1.095600
-0.650100 1.106300
-0.612800 1.079800
-0.575500 1.056200
-0.538300 1.029100
-0.501000 1.004500
-0.463700 0.979100
-0.426400 0.966800
-0.389200 0.940600
-0.351900 0.919600
-0.314600 0.905900
-0.277400 0.920400
-0.240100 0.955900
-0.202800 0.972000
-0.165600 0.977800
-0.128300 0.993600
-0.091000 1.030000
-0.053700 1.079500
-0.016500 1.156500
0.020800 1.246500
0.058100 1.270200
0.095300 1.303900
0.132600 1.336600
0.169900 1.359300
0.207100 1.366100
0.244400 1.331500
0.281700 1.353800
0.319000 1.385000
0.356200 1.389200
0.393500 1.436600
0.430800 1.465600
0.468000 1.498900
0.505300 1.549700
0.542600 1.620600
0.579800 1.711100
0.617100 1.825400
0.654400 2.021400
0.691700 2.317700
0.728900 2.266600
0.766200 2.129800
0.803500 1.800700
0.840700 1.654800
0.878000 1.520400
0.915300 1.387400
0.952500 1.202300
0.989800 1.147300
1.027100 1.076500
1.064400 0.981200
1.101600 0.956400
1.138900 1.004300
1.176200 1.103400
1.213400 1.249900
1.250700 1.410100
1.288000 1.400800
1.325200 1.288600
1.362500 1.241000
1.399800 1.245100
1.437100 1.196000
1.474300 1.165200
1.511600 1.123700
1.548900 1.088000
1.586100 1.063100
1.623400 1.055400
1.660700 1.068200
1.697900 1.018300
1.735200 0.884000
1.772500 0.766600
1.809800 0.700700
1.847000 0.646600
1.884300 0.494400
1.921600 0.492100
1.958800 0.488700
1.996100 0.493800
2.033400 0.492000
2.070600 0.496700
2.107900 0.508400
2.145200 0.510000
2.182500 0.509700
2.219700 0.517200
2.257000 0.512900
2.294300 0.514700
2.331500 0.516600
2.368800 0.519300
2.406100 0.521400
2.443300 0.525300
2.480600 0.528900
2.517900 0.530400
2.555200 0.540500
2.592400 0.542800
2.629700 0.553400
2.667000 0.561900
2.704200 0.576700
2.741500 0.605400
2.778800 0.639700
2.816000 0.637000
2.853300 0.622000
2.890600 0.594800
2.927900 0.600700
2.965100 0.630200
3.002400 0.663700
3.039700 0.729100
3.076900 0.864300
3.114200 0.889100
3.151500 0.917900
3.188700 0.938700
3.226000 0.963800
3.263300 0.923700
3.300600 0.824100
3.337800 0.717200
3.375100 0.634100
3.412400 0.606700
3.449600 0.584700
3.486900 0.567700
3.524200 0.552200
3.561400 0.538600
3.598700 0.527900
3.636000 0.517600
3.673300 0.507600
3.710500 0.503200
3.747800 0.518100
3.785100 0.530800
3.822300 0.503400
3.859600 0.433900
3.896900 0.325800
3.934100 0.241800
3.971400 0.163600
4.008700 0.076600
4.045900 0.000000
4.083200 0.000000
4.120500 0.000000
4.157800 0.000000
4.195000 0.000000
4.232300 0.000000
4.269600 0.000000
4.306800 0.000000
4.344100 0.000000
4.381400 0.000000
4.418600 0.000000
4.455900 0.000000
4.493200 0.000000
4.530500 0.000000
4.567700 0.000000
4.605000 0.000000
4.642300 0.000000
4.679500 0.000000
4.716800 0.000000
4.754100 0.000000
4.791300 0.000000
4.828600 0.000000
4.865900 0.000000
4.903200 0.000000
4.940400 0.000000
4.977700 0.000000
5.015000 0.000000
5.052200 0.000000
5.089500 0.000000
5.126800 0.000000
5.164000 0.000000
5.201300 0.000000
5.238600 0.000000
5.275900 0.000000
5.313100 0.000000
5.350400 0.000000
5.387700 0.000000
5.424900 0.000000
5.462200 0.000000
5.499500 0.000000
5.536700 0.000000
5.574000 0.000000
5.611300 0.000000
5.648600 0.000000
5.685800 0.000000
5.723100 0.000000
5.760400 0.000000
5.797600 0.000000
5.834900 0.000000
5.872200 0.000000
5.909400 0.000000
5.946700 0.000000
5.984000 0.000000
6.021300 0.000000
6.058500 0.000000
6.095800 0.000000
6.133100 0.000000
6.170300 0.000000
6.207600 0.000000
6.244900 0.000000
6.282100 0.000000
6.319400 0.000000
6.356700 0.000000
6.394000 0.000000
6.431200 0.000000
6.468500 0.004200
6.505800 0.016300
6.543000 0.058700
6.580300 0.125100
6.617600 0.173400
6.654800 0.204000
6.692100 0.220100
6.729400 0.209700
6.766700 0.208500
6.803900 0.217300
6.841200 0.227800
6.878500 0.238000
6.915700 0.248400
6.953000 0.259500
6.990300 0.267800
7.027500 0.274200
7.064800 0.275300
7.102100 0.278900
7.139400 0.283600
7.176600 0.288500
7.213900 0.294100
7.251200 0.300300
7.288400 0.307000
7.325700 0.314300
7.363000 0.329900
7.400200 0.399800
7.437500 0.493900
7.474800 0.558000
7.512100 0.600600
7.549300 0.648000
7.586600 0.691300
7.623900 0.731700
7.661100 0.775300
7.698400 0.823200
7.735700 0.877000
7.772900 0.936500
7.810200 1.004200
7.847500 1.105600
7.884800 1.206200
7.922000 1.256700
7.959300 1.304100
7.996600 1.336500
8.033800 1.329800
8.071100 1.331600
8.108400 1.347900
8.145600 1.330300
8.182900 1.301300
8.220200 1.305600
8.257500 1.331100
8.294700 1.325700
8.332000 1.257500
8.369300 1.169900
8.406500 1.076600
8.443800 0.984400
8.481100 0.893300
8.518300 0.829300
8.555600 0.802200
8.592900 0.831100
8.630200 0.885100
8.667400 0.997800
8.704700 1.102100
8.742000 1.200400
8.779200 1.236800
8.816500 1.187100
8.853800 1.178900
8.891000 1.147300
8.928300 1.135800
8.965600 1.142000
9.002900 1.146300
9.040100 1.143600
9.077400 1.146500
9.114700 1.136600
9.151900 1.119800
9.189200 1.101900
9.226500 1.064600
9.263700 1.016800
9.301000 0.980800
9.338300 0.954200
9.375500 0.928300
9.412800 0.896800
9.450100 0.876600
9.487400 0.857000
9.524600 0.850300
9.561900 0.850800
9.599200 0.825400
9.636400 0.806800
9.673700 0.786800
9.711000 0.765000
9.748200 0.760000
9.785500 0.769600
9.822800 0.783400
9.860100 0.802700
9.897300 0.829600
9.934600 0.859000
9.971900 0.895400
10.009100 0.933100
10.046400 0.968700
10.083700 1.019800
10.120900 1.060300
10.158200 1.102600
10.195500 1.141300
10.232800 1.180500
10.270000 1.190000
10.307300 1.195100
10.344600 1.215700
10.381800 1.233500
10.419100 1.238700
10.456400 1.255600
10.493600 1.257200
10.530900 1.254300
10.568200 1.249500
10.605500 1.246400
10.642700 1.244500
10.680000 1.243900
10.717300 1.250900
10.754500 1.271000
10.791800 1.302100
10.829100 1.332000
10.866300 1.357600
10.903600 1.373700
10.940900 1.399500
10.978200 1.428600
11.015400 1.463100
11.052700 1.496300
11.090000 1.533300
11.127200 1.563500
11.164500 1.592800
11.201800 1.632000
11.239000 1.650600
11.276300 1.634700
11.313600 1.592200
11.350900 1.568800
11.388100 1.607800
11.425400 1.629000
11.462700 1.655100
11.499900 1.635900
11.537200 1.600800
11.574500 1.579800
11.611700 1.572600
11.649000 1.604200
11.686300 1.587200
11.723600 1.537700
11.760800 1.493300
11.798100 1.461200
11.835400 1.423800
11.872600 1.419700
11.909900 1.378000
11.947200 1.322100
11.984400 1.283400
12.021700 1.251400
12.059000 1.228700
12.096300 1.229200
12.133500 1.203400
12.170800 1.145800
12.208100 1.092500
12.245300 1.036600
12.282600 0.978800
12.319900 0.946300
12.357100 0.929000
12.394400 0.918200
12.431700 0.917200
12.469000 0.935600
12.506200 0.949700
12.543500 0.978500
12.580800 1.009100
12.618000 1.052400
12.655300 1.091000
12.692600 1.132400
12.729800 1.171100
12.767100 1.212600
12.804400 1.272300
12.841700 1.337800
12.878900 1.383000
12.916200 1.426700
12.953500 1.478000
12.990700 1.551500
13.028000 1.628700
13.065300 1.695700
13.102500 1.715600
13.139800 1.714900
13.177100 1.704200
13.214400 1.681500
13.251600 1.644800
13.288900 1.586800
13.326200 1.504600
13.363400 1.430700
13.400700 1.346000
13.438000 1.289600
13.475200 1.255100
13.512500 1.249200
13.549800 1.264800
13.587100 1.259500
13.624300 1.256000
13.661600 1.250500
13.698900 1.245400
13.736100 1.237500
13.773400 1.252300
13.810700 1.257500
13.847900 1.233000
13.885200 1.229400
13.922500 1.213400
13.959800 1.225400
13.997000 1.247300
14.034300 1.298400
14.071600 1.370900
14.108800 1.461200
14.146100 1.556900
14.183400 1.536900
14.220600 1.574500
14.257900 1.562000
14.295200 1.580800
14.332400 1.607500
14.369700 1.644300
14.407000 1.618400
14.444300 1.613200
14.481500 1.627000
14.518800 1.641900
14.556100 1.674400
14.593300 1.664300
14.630600 1.646900
14.667900 1.626800
14.705100 1.612800
14.742400 1.587000
14.779700 1.555400
14.817000 1.506800
14.854200 1.454200
14.891500 1.395200
14.928800 1.360500
14.966000 1.301600
15.003300 1.263400
15.040600 1.246100
15.077800 1.246500
15.115100 1.253400
15.152400 1.261100
15.189700 1.246300
15.226900 1.267400
15.264200 1.294700
15.301500 1.317200
15.338700 1.325700
15.376000 1.316200
15.413300 1.330500
15.450500 1.347800
15.487800 1.360700
15.525100 1.357700
15.562400 1.374000
15.599600 1.402800
15.636900 1.475500
15.674200 1.525100
15.711400 1.557400
15.748700 1.574500
15.786000 1.562100
15.823200 1.534700
15.860500 1.522800
15.897800 1.513600
15.935100 1.524600
15.972300 1.536300
16.009600 1.520500
16.046900 1.499400
16.084100 1.493500
16.121400 1.481000
16.158700 1.469400
16.195900 1.412500
16.233200 1.374800
16.270500 1.351500
16.307800 1.326800
16.345000 1.327000
16.382300 1.368400
16.419600 1.367500
16.456800 1.357200
16.494100 1.376300
16.531400 1.333000
16.568600 1.316600
16.605900 1.319700
16.643200 1.358600
16.680500 1.411700
16.717700 1.416400
16.755000 1.459700
16.792300 1.538700
16.829500 1.586800
16.866800 1.614800
16.904100 1.624500
16.941300 1.642000
16.978600 1.640800
17.015900 1.638600
17.053200 1.623500
17.090400 1.609000
17.127700 1.596600
17.165000 1.578200
17.202200 1.565400
17.239500 1.538900
17.276800 1.514600
17.314000 1.470500
17.351300 1.439600
17.388600 1.424900
17.425900 1.417300
17.463100 1.402900
17.500400 1.376200
17.537700 1.357700
17.574900 1.340100
17.612200 1.326500
17.649500 1.316600
17.686700 1.303600
17.724000 1.302800
17.761300 1.309800
17.798600 1.310100
17.835800 1.327300
17.873100 1.363300
17.910400 1.389900
17.947600 1.409400
17.984900 1.436200
18.022200 1.438200
18.059400 1.450100
18.096700 1.461900
18.134000 1.480400
18.171300 1.486200
18.208500 1.473700
18.245800 1.460400
18.283100 1.456200
18.320300 1.447900
18.357600 1.459500
18.394900 1.490000
18.432100 1.515600
18.469400 1.539800
18.506700 1.561400
18.544000 1.580600
18.581200 1.609800
18.618500 1.666500
18.655800 1.716500
18.693000 1.777200
18.730300 1.849000
18.767600 1.908800
18.804800 1.935200
18.842100 1.917600
18.879400 1.882600
18.916700 1.857000
18.953900 1.819800
18.991200 1.806400
19.028500 1.794500
19.065700 1.801400
19.103000 1.790000
19.140300 1.779200
19.177500 1.762500
19.214800 1.755400
19.252100 1.744600
19.289400 1.722000
19.326600 1.717800
19.363900 1.711600
19.401200 1.729500
19.438400 1.736800
19.475700 1.699300
19.513000 1.676100
19.550200 1.621500
19.587500 1.568700
19.624800 1.527200
19.662000 1.502100
19.699300 1.494100
19.736600 1.495200
19.773900 1.513600
19.811100 1.527300
19.848400 1.540200
19.885700 1.562500
19.922900 1.587700
19.960200 1.615600
19.997500 1.655500
20.034700 1.687100
20.072000 1.714200
20.109300 1.747100
20.146600 1.726600
20.183800 1.750800
20.221100 1.775200
20.258400 1.791700
20.295600 1.812100
20.332900 1.813500
20.370200 1.810100
20.407400 1.811700
20.444700 1.813200
20.482000 1.818800
20.519300 1.813600
20.556500 1.843100
20.593800 1.851000
20.631100 1.844800
20.668300 1.852300
20.705600 1.855000
20.742900 1.874600
20.780100 1.901100
20.817400 1.881000
20.854700 1.859200
20.892000 1.822900
20.929200 1.804500
20.966500 1.781400
21.003800 1.782600
21.041000 1.788000
21.078300 1.803900
21.115600 1.801900
21.152800 1.799100
21.190100 1.789800
21.227400 1.793000
21.264700 1.813000
21.301900 1.822900
21.339200 1.824100
21.376500 1.798200
21.413700 1.757600
21.451000 1.752100
21.488300 1.741000
21.525500 1.741000
21.562800 1.742000
21.600100 1.745800
21.637400 1.741100
21.674600 1.732900
21.711900 1.739100
21.749200 1.714800
21.786400 1.700900
21.823700 1.703300
21.861000 1.744700
21.898200 1.752300
21.935500 1.785200
21.972800 1.813600
22.010100 1.806600
22.047300 1.829200
22.084600 1.853400
22.121900 1.865000
22.159100 1.856100
22.196400 1.860100
22.233700 1.860900
22.270900 1.859400
22.308200 1.845000
22.345500 1.805700
22.382800 1.799200
22.420000 1.772800
22.457300 1.734700
22.494600 1.702800
22.531800 1.678700
22.569100 1.652400
22.606400 1.647200
22.643600 1.655000
22.680900 1.678500
22.718200 1.715800
22.755500 1.746000
22.792700 1.764500
22.830000 1.809500
22.867300 1.871900
22.904500 1.915400
22.941800 1.943900
22.979100 1.971700
23.016300 1.951100
23.053600 1.936600
23.090900 1.933000
23.128200 1.929100
23.165400 1.930200
23.202700 1.918400
23.240000 1.903700
23.277200 1.885100
23.314500 1.816000
23.351800 1.769600
23.389000 1.718600
23.426300 1.665100
23.463600 1.646100
23.500900 1.643200
23.538100 1.656800
23.575400 1.696100
23.612700 1.734800
23.649900 1.779200
23.687200 1.819200
23.724500 1.859200
23.761700 1.881600
23.799000 1.898900
23.836300 1.924400
23.873600 1.963300
23.910800 2.002700
23.948100 2.047300
23.985400 2.064800
24.022600 2.078700
24.059900 2.070300
24.097200 2.047300
24.134400 2.047700
24.171700 2.074000
