set title 'mp-1579 - Density of States'
set xlabel 'Energy (eV)'
set ylabel 'DOS (states/eV)'
set grid
set xrange [-10:10]
set yrange [0:4.838]
set xzeroaxis lt -1
set terminal png size 800,600
set output 'mp-1579_dos_gnuplot.png'
plot '-' using 1:2 with lines title 'DOS'
-25.123000 0.000000
-25.067400 0.000000
-25.011800 0.000000
-24.956200 0.000000
-24.900700 0.000000
-24.845100 0.000000
-24.789500 0.000000
-24.733900 0.000000
-24.678300 0.000000
-24.622700 0.000000
-24.567100 0.000000
-24.511500 0.000000
-24.455900 0.000000
-24.400300 0.000000
-24.344700 0.000000
-24.289100 0.000000
-24.233500 0.000000
-24.177900 0.000000
-24.122300 0.000000
-24.066700 0.000000
-24.011100 0.000000
-23.955500 0.000000
-23.899900 0.000000
-23.844300 0.000000
-23.788700 0.000000
-23.733100 0.000000
-23.677500 0.000000
-23.621900 0.000000
-23.566300 0.000000
-23.510700 0.000000
-23.455100 0.000000
-23.399500 0.000000
-23.343900 0.000000
-23.288300 0.000000
-23.232700 0.000000
-23.177100 0.000000
-23.121500 0.000000
-23.065900 0.000000
-23.010300 0.000000
-22.954700 0.000000
-22.899100 0.000000
-22.843500 0.000000
-22.787900 0.000000
-22.732300 0.000000
-22.676700 0.000000
-22.621200 0.000000
-22.565600 0.000000
-22.510000 0.000000
-22.454400 0.000000
-22.398800 0.000000
-22.343200 0.000000
-22.287600 0.000000
-22.232000 0.000000
-22.176400 0.000000
-22.120800 0.000000
-22.065200 0.000000
-22.009600 0.000000
-21.954000 0.000000
-21.898400 0.000000
-21.842800 0.000000
-21.787200 0.000000
-21.731600 0.000000
-21.676000 0.000000
-21.620400 0.000000
-21.564800 0.000000
-21.509200 0.000000
-21.453600 0.000000
-21.398000 0.000000
-21.342400 0.000000
-21.286800 0.000000
-21.231200 0.000000
-21.175600 0.000000
-21.120000 0.000000
-21.064400 0.000000
-21.008800 0.000000
-20.953200 0.000000
-20.897600 0.000000
-20.842000 0.000000
-20.786400 0.000000
-20.730800 0.000000
-20.675200 0.000000
-20.619600 0.000000
-20.564000 0.000000
-20.508400 0.000000
-20.452800 0.000000
-20.397300 0.000000
-20.341700 0.000000
-20.286100 0.000000
-20.230500 0.000000
-20.174900 0.000800
-20.119300 0.091800
-20.063700 1.555200
-20.008100 6.199200
-19.952500 9.911800
-19.896900 9.440300
-19.841300 8.760900
-19.785700 8.750300
-19.730100 10.425900
-19.674500 11.696000
-19.618900 7.313200
-19.563300 5.681400
-19.507700 11.766200
-19.452100 12.272500
-19.396500 3.720800
-19.340900 0.325700
-19.285300 0.006300
-19.229700 0.000000
-19.174100 0.000000
-19.118500 0.000000
-19.062900 0.000000
-19.007300 0.000000
-18.951700 0.000000
-18.896100 0.000000
-18.840500 0.000000
-18.784900 0.000000
-18.729300 0.000000
-18.673700 0.000000
-18.618100 0.000000
-18.562500 0.000000
-18.506900 0.000000
-18.451300 0.000000
-18.395700 0.000000
-18.340100 0.000000
-18.284500 0.000000
-18.228900 0.000000
-18.173300 0.000000
-18.117800 0.000000
-18.062200 0.000000
-18.006600 0.000000
-17.951000 0.000000
-17.895400 0.000000
-17.839800 0.000000
-17.784200 0.000000
-17.728600 0.000000
-17.673000 0.000000
-17.617400 0.000000
-17.561800 0.000000
-17.506200 0.000000
-17.450600 0.000000
-17.395000 0.000000
-17.339400 0.000000
-17.283800 0.000000
-17.228200 0.000000
-17.172600 0.000000
-17.117000 0.000000
-17.061400 0.000000
-17.005800 0.000000
-16.950200 0.000000
-16.894600 0.000000
-16.839000 0.000000
-16.783400 0.000000
-16.727800 0.000000
-16.672200 0.000000
-16.616600 0.000000
-16.561000 0.000000
-16.505400 0.000000
-16.449800 0.000000
-16.394200 0.000000
-16.338600 0.000000
-16.283000 0.000000
-16.227400 0.000000
-16.171800 0.000000
-16.116200 0.000000
-16.060600 0.000000
-16.005000 0.000000
-15.949400 0.000000
-15.893800 0.000000
-15.838300 0.000000
-15.782700 0.000000
-15.727100 0.000000
-15.671500 0.000000
-15.615900 0.000000
-15.560300 0.000000
-15.504700 0.000000
-15.449100 0.000000
-15.393500 0.000000
-15.337900 0.000000
-15.282300 0.000000
-15.226700 0.000000
-15.171100 0.000000
-15.115500 0.000000
-15.059900 0.000000
-15.004300 0.000000
-14.948700 0.000000
-14.893100 0.000000
-14.837500 0.000000
-14.781900 0.000000
-14.726300 0.000000
-14.670700 0.000000
-14.615100 0.000000
-14.559500 0.000000
-14.503900 0.000000
-14.448300 0.000000
-14.392700 0.000000
-14.337100 0.000000
-14.281500 0.000000
-14.225900 0.000000
-14.170300 0.000000
-14.114700 0.000000
-14.059100 0.000000
-14.003500 0.000000
-13.947900 0.000000
-13.892300 0.000000
-13.836700 0.000000
-13.781100 0.000000
-13.725500 0.000000
-13.669900 0.000000
-13.614400 0.000000
-13.558800 0.000000
-13.503200 0.000000
-13.447600 0.000000
-13.392000 0.000000
-13.336400 0.000000
-13.280800 0.000000
-13.225200 0.000000
-13.169600 0.000000
-13.114000 0.000000
-13.058400 0.000000
-13.002800 0.000000
-12.947200 0.000000
-12.891600 0.000000
-12.836000 0.000000
-12.780400 0.000000
-12.724800 0.000000
-12.669200 0.000000
-12.613600 0.000000
-12.558000 0.000000
-12.502400 0.000000
-12.446800 0.000000
-12.391200 0.000000
-12.335600 0.000000
-12.280000 0.000000
-12.224400 0.000000
-12.168800 0.000000
-12.113200 0.000000
-12.057600 0.000000
-12.002000 0.000000
-11.946400 0.000000
-11.890800 0.000000
-11.835200 0.000000
-11.779600 0.000000
-11.724000 0.000000
-11.668400 0.000000
-11.612800 0.000000
-11.557200 0.000000
-11.501600 0.000000
-11.446000 0.000000
-11.390400 0.000000
-11.334900 0.000000
-11.279300 0.000000
-11.223700 0.000000
-11.168100 0.000000
-11.112500 0.000000
-11.056900 0.000000
-11.001300 0.000000
-10.945700 0.000800
-10.890100 0.015400
-10.834500 0.087700
-10.778900 0.178500
-10.723300 0.245600
-10.667700 0.365200
-10.612100 0.404100
-10.556500 0.494600
-10.500900 0.685600
-10.445300 0.913000
-10.389700 1.072300
-10.334100 1.726800
-10.278500 2.911300
-10.222900 3.698000
-10.167300 4.293900
-10.111700 4.656300
-10.056100 4.454300
-10.000500 3.441500
-9.944900 2.791000
-9.889300 2.174100
-9.833700 1.143900
-9.778100 0.210500
-9.722500 0.008400
-9.666900 0.000100
-9.611300 0.000000
-9.555700 0.000000
-9.500100 0.000000
-9.444500 0.000000
-9.388900 0.000000
-9.333300 0.000000
-9.277700 0.000000
-9.222100 0.000000
-9.166500 0.000000
-9.111000 0.000000
-9.055400 0.000000
-8.999800 0.000000
-8.944200 0.000000
-8.888600 0.000000
-8.833000 0.000000
-8.777400 0.000000
-8.721800 0.000000
-8.666200 0.000000
-8.610600 0.000000
-8.555000 0.000000
-8.499400 0.000000
-8.443800 0.000000
-8.388200 0.000000
-8.332600 0.000000
-8.277000 0.000000
-8.221400 0.000000
-8.165800 0.000000
-8.110200 0.000000
-8.054600 0.000000
-7.999000 0.000000
-7.943400 0.000000
-7.887800 0.000000
-7.832200 0.000000
-7.776600 0.000000
-7.721000 0.000000
-7.665400 0.000000
-7.609800 0.000000
-7.554200 0.000000
-7.498600 0.000000
-7.443000 0.000000
-7.387400 0.000000
-7.331800 0.000000
-7.276200 0.000000
-7.220600 0.000000
-7.165000 0.000000
-7.109400 0.000000
-7.053800 0.000000
-6.998200 0.000000
-6.942600 0.000000
-6.887000 0.000000
-6.831500 0.000000
-6.775900 0.000000
-6.720300 0.000000
-6.664700 0.000000
-6.609100 0.000000
-6.553500 0.000000
-6.497900 0.000000
-6.442300 0.000000
-6.386700 0.000000
-6.331100 0.000000
-6.275500 0.000000
-6.219900 0.000000
-6.164300 0.000000
-6.108700 0.000000
-6.053100 0.000000
-5.997500 0.000000
-5.941900 0.000000
-5.886300 0.000000
-5.830700 0.000000
-5.775100 0.000000
-5.719500 0.000000
-5.663900 0.000000
-5.608300 0.000000
-5.552700 0.000000
-5.497100 0.000000
-5.441500 0.000000
-5.385900 0.000000
-5.330300 0.000000
-5.274700 0.000000
-5.219100 0.000000
-5.163500 0.000000
-5.107900 0.000000
-5.052300 0.000000
-4.996700 0.000000
-4.941100 0.000000
-4.885500 0.000000
-4.829900 0.000000
-4.774300 0.000000
-4.718700 0.000000
-4.663100 0.000000
-4.607600 0.000000
-4.552000 0.000000
-4.496400 0.000000
-4.440800 0.000000
-4.385200 0.000000
-4.329600 0.000000
-4.274000 0.000000
-4.218400 0.000000
-4.162800 0.000000
-4.107200 0.000000
-4.051600 0.000000
-3.996000 0.000000
-3.940400 0.000000
-3.884800 0.000000
-3.829200 0.000000
-3.773600 0.000000
-3.718000 0.000000
-3.662400 0.000000
-3.606800 0.000000
-3.551200 0.000000
-3.495600 0.000000
-3.440000 0.000000
-3.384400 0.000000
-3.328800 0.000000
-3.273200 0.000000
-3.217600 0.000000
-3.162000 0.000000
-3.106400 0.000000
-3.050800 0.000000
-2.995200 0.001700
-2.939600 0.049200
-2.884000 0.213500
-2.828400 0.389200
-2.772800 0.647400
-2.717200 1.008100
-2.661600 1.531700
-2.606000 2.295200
-2.550400 2.037500
-2.494800 1.917000
-2.439200 1.829600
-2.383600 1.738200
-2.328100 1.718700
-2.272500 1.426300
-2.216900 1.254400
-2.161300 1.853100
-2.105700 1.161100
-2.050100 0.991700
-1.994500 1.165500
-1.938900 0.913200
-1.883300 1.236900
-1.827700 1.361600
-1.772100 0.983900
-1.716500 0.637700
-1.660900 0.508400
-1.605300 0.791300
-1.549700 0.982800
-1.494100 1.000700
-1.438500 0.767800
-1.382900 0.624600
-1.327300 0.577400
-1.271700 0.739100
-1.216100 0.674600
-1.160500 0.569700
-1.104900 0.898800
-1.049300 0.794300
-0.993700 0.416000
-0.938100 0.540000
-0.882500 0.616900
-0.826900 0.672600
-0.771300 1.063300
-0.715700 1.201400
-0.660100 1.269100
-0.604500 1.682200
-0.548900 1.724000
-0.493300 1.849500
-0.437700 2.209000
-0.382100 2.230800
-0.326500 2.429800
-0.270900 2.594900
-0.215300 2.401100
-0.159700 2.397700
-0.104200 1.600700
-0.048600 1.426100
0.007000 2.778700
0.062600 4.398200
0.118200 4.084500
0.173800 3.011200
0.229400 2.403900
0.285000 2.868600
0.340600 2.569400
0.396200 1.921400
0.451800 1.802600
0.507400 2.068100
0.563000 1.929400
0.618600 1.753200
0.674200 1.941300
0.729800 1.801600
0.785400 1.989700
0.841000 1.776500
0.896600 1.551800
0.952200 1.921300
1.007800 1.968200
1.063400 1.792200
1.119000 1.775900
1.174600 1.480500
1.230200 1.555200
1.285800 1.524100
1.341400 1.340700
1.397000 1.282400
1.452600 1.623200
1.508200 1.313300
1.563800 1.136800
1.619400 1.316400
1.675000 1.717400
1.730600 1.716200
1.786200 1.636100
1.841800 1.344400
1.897400 1.716800
1.953000 1.853300
2.008600 1.532700
2.064200 1.627200
2.119800 1.485900
2.175300 1.066700
2.230900 0.787300
2.286500 0.590200
2.342100 0.443500
2.397700 0.324900
2.453300 0.277500
2.508900 0.231200
2.564500 0.221600
2.620100 0.239700
2.675700 0.089800
2.731300 0.065300
2.786900 0.221100
2.842500 0.190900
2.898100 0.172700
2.953700 0.141900
3.009300 0.131000
3.064900 0.211100
3.120500 0.225500
3.176100 0.332400
3.231700 0.229600
3.287300 0.353800
3.342900 0.554800
3.398500 0.310100
3.454100 0.060600
3.509700 0.047400
3.565300 0.238100
3.620900 0.511500
3.676500 0.468300
3.732100 0.197500
3.787700 0.304900
3.843300 0.488500
3.898900 0.291200
3.954500 0.384600
4.010100 0.511600
4.065700 0.373900
4.121300 0.435400
4.176900 0.634700
4.232500 0.642800
4.288100 0.529300
4.343700 0.486100
4.399300 0.341400
4.454800 0.542300
4.510400 0.646300
4.566000 0.802500
4.621600 0.779300
4.677200 0.595000
4.732800 0.600600
4.788400 0.503900
4.844000 0.504700
4.899600 0.901700
4.955200 1.212100
5.010800 1.064500
5.066400 0.746900
5.122000 0.557700
5.177600 0.578200
5.233200 0.840600
5.288800 0.875800
5.344400 0.763700
5.400000 0.760700
5.455600 0.676500
5.511200 0.795100
5.566800 1.007800
5.622400 1.066500
5.678000 0.923700
5.733600 1.030300
5.789200 1.221500
5.844800 1.235800
5.900400 0.926300
5.956000 0.936400
6.011600 1.125900
6.067200 1.011900
6.122800 0.655500
6.178400 0.658300
6.234000 0.799000
6.289600 1.175500
6.345200 1.150200
6.400800 0.942900
6.456400 1.187800
6.512000 1.347600
6.567600 1.369400
6.623200 1.250700
6.678700 1.120300
6.734300 1.186100
6.789900 1.226000
6.845500 1.055200
6.901100 1.022600
6.956700 1.476100
7.012300 1.518000
7.067900 0.955900
7.123500 0.607800
7.179100 0.858000
7.234700 1.194600
7.290300 1.427500
7.345900 1.310800
7.401500 1.753000
7.457100 2.041000
7.512700 1.757700
7.568300 1.555800
7.623900 1.390900
7.679500 1.317200
7.735100 1.679200
7.790700 1.439000
7.846300 0.866900
7.901900 1.251500
7.957500 1.548300
8.013100 1.178500
8.068700 0.973400
8.124300 1.289700
8.179900 1.585000
8.235500 1.497500
8.291100 1.362700
8.346700 1.032000
8.402300 1.121900
8.457900 1.348700
8.513500 1.248500
8.569100 1.030300
8.624700 1.000400
8.680300 1.099200
8.735900 1.504900
8.791500 1.722400
8.847100 2.038800
8.902700 1.998800
8.958200 1.608600
9.013800 1.766600
9.069400 2.574400
9.125000 2.347800
9.180600 1.925000
9.236200 2.024300
9.291800 2.393500
9.347400 2.475900
9.403000 2.407300
9.458600 2.312100
9.514200 2.213700
9.569800 2.512600
9.625400 2.632600
9.681000 2.111000
9.736600 1.823200
9.792200 2.288000
9.847800 2.793000
9.903400 2.834800
9.959000 2.440800
10.014600 2.424700
10.070200 2.366200
10.125800 2.201500
10.181400 2.590500
10.237000 2.959700
10.292600 2.444000
10.348200 1.858600
10.403800 1.713400
10.459400 1.502900
10.515000 1.456400
10.570600 1.961100
10.626200 2.404100
10.681800 2.105400
10.737400 1.703800
10.793000 1.943900
10.848600 2.157000
10.904200 2.334000
10.959800 1.863000
11.015400 1.995500
11.071000 1.816000
11.126600 2.119400
11.182100 2.154500
11.237700 1.962900
11.293300 1.538200
11.348900 1.489900
11.404500 1.808900
11.460100 2.233000
11.515700 1.897400
11.571300 1.123500
11.626900 1.840600
11.682500 2.515300
11.738100 2.205800
11.793700 2.402000
11.849300 2.642300
11.904900 2.178400
11.960500 1.756900
12.016100 1.583000
12.071700 2.084800
12.127300 2.320100
12.182900 1.702800
12.238500 1.964000
12.294100 2.015500
12.349700 1.921100
12.405300 2.100400
12.460900 2.016100
12.516500 1.444100
12.572100 1.459600
12.627700 2.229100
12.683300 2.357800
12.738900 1.867200
12.794500 1.814000
12.850100 2.059700
12.905700 2.153100
12.961300 2.132300
13.016900 1.663400
13.072500 0.909500
13.128100 0.863300
13.183700 1.339500
13.239300 1.660200
13.294900 2.020700
13.350500 2.310900
13.406100 2.016900
13.461600 1.521600
13.517200 1.597800
13.572800 1.146500
13.628400 1.053100
13.684000 1.652600
13.739600 1.852600
13.795200 2.180700
13.850800 2.142600
13.906400 1.335000
13.962000 1.097600
14.017600 1.458200
14.073200 1.111100
14.128800 0.878000
14.184400 0.940000
14.240000 0.840200
14.295600 0.787200
14.351200 0.886300
14.406800 1.117600
14.462400 1.071800
14.518000 0.854300
14.573600 0.771500
14.629200 1.119800
14.684800 1.509300
14.740400 1.334100
14.796000 1.246100
14.851600 1.171300
14.907200 1.402400
14.962800 1.079300
15.018400 0.726000
15.074000 0.473200
15.129600 0.402700
15.185200 0.841400
15.240800 1.286900
15.296400 0.903600
15.352000 0.552000
15.407600 0.626400
15.463200 0.863400
15.518800 0.794200
15.574400 0.733900
15.630000 0.677800
15.685500 0.626800
15.741100 0.675000
15.796700 0.587300
15.852300 0.728300
15.907900 0.501300
15.963500 0.594900
16.019100 0.847900
16.074700 0.589500
16.130300 0.407400
16.185900 0.549000
16.241500 0.687200
16.297100 0.699000
16.352700 0.790100
16.408300 1.083100
16.463900 1.517000
16.519500 1.139500
16.575100 1.218900
16.630700 1.226600
16.686300 1.399000
16.741900 1.566600
16.797500 1.226700
16.853100 0.958000
16.908700 1.242000
16.964300 1.280500
17.019900 1.010200
17.075500 0.840400
17.131100 1.022800
17.186700 1.417400
17.242300 1.356200
17.297900 1.021400
17.353500 1.078100
17.409100 0.936800
17.464700 0.758000
17.520300 0.919700
17.575900 1.187400
17.631500 1.134000
17.687100 1.177000
17.742700 1.154100
17.798300 1.108300
17.853900 0.996000
17.909500 0.874000
17.965000 0.980000
18.020600 0.916600
18.076200 0.972500
18.131800 1.008000
18.187400 1.569800
18.243000 1.992000
18.298600 1.690800
18.354200 1.258800
18.409800 0.976900
18.465400 0.808700
18.521000 1.026300
18.576600 1.060900
18.632200 1.384800
18.687800 1.463500
18.743400 1.727400
18.799000 1.929300
18.854600 1.973100
18.910200 1.585800
18.965800 1.742300
19.021400 1.927700
19.077000 1.302400
19.132600 1.050900
19.188200 1.199800
19.243800 1.468600
19.299400 1.670900
19.355000 1.549000
19.410600 1.588500
19.466200 1.642000
19.521800 1.479200
19.577400 1.805400
19.633000 2.053200
19.688600 1.401700
19.744200 0.919600
19.799800 1.065500
19.855400 1.093900
19.911000 0.909000
19.966600 0.955700
20.022200 1.117900
20.077800 0.814100
20.133400 0.859500
20.188900 1.391100
20.244500 1.667000
20.300100 1.634400
20.355700 1.299400
20.411300 1.082000
20.466900 0.881900
20.522500 0.956800
20.578100 1.763000
20.633700 1.936400
20.689300 1.953400
20.744900 1.442700
20.800500 1.381100
20.856100 1.686200
20.911700 1.619600
20.967300 1.651200
21.022900 1.845600
21.078500 1.402200
21.134100 1.581300
21.189700 1.656400
21.245300 1.586000
21.300900 1.446200
21.356500 1.157300
21.412100 0.898000
21.467700 0.650700
21.523300 0.841900
21.578900 0.820700
21.634500 0.817800
21.690100 0.910100
21.745700 1.251200
21.801300 1.537700
21.856900 1.160300
21.912500 0.937900
21.968100 0.984200
22.023700 0.888800
22.079300 0.839800
22.134900 0.961600
22.190500 1.113100
22.246100 0.756200
22.301700 1.034500
22.357300 1.189900
22.412900 0.844000
22.468400 0.972200
22.524000 1.042700
22.579600 0.902300
22.635200 1.060800
22.690800 1.081700
22.746400 0.978200
22.802000 0.768400
22.857600 0.730100
22.913200 0.657500
22.968800 1.160200
23.024400 1.500800
23.080000 1.606000
23.135600 2.173600
23.191200 2.520900
23.246800 1.908100
23.302400 1.604000
23.358000 1.902700
23.413600 1.847300
23.469200 1.686600
23.524800 1.291800
23.580400 1.607200
23.636000 2.351600
23.691600 2.383100
23.747200 2.023300
23.802800 2.081000
23.858400 1.509700
23.914000 1.316300
23.969600 1.845200
24.025200 1.967700
24.080800 2.249200
24.136400 2.804500
24.192000 2.282200
24.247600 1.796800
24.303200 1.928000
24.358800 1.782100
24.414400 1.525000
24.470000 1.376000
24.525600 0.941600
24.581200 1.018900
24.636800 1.224600
24.692400 0.897300
24.747900 0.925400
24.803500 0.908800
24.859100 1.256800
24.914700 1.343400
24.970300 1.844000
25.025900 1.413200
25.081500 0.847500
25.137100 0.758100
25.192700 0.860700
25.248300 1.115900
25.303900 1.066600
25.359500 1.397000
25.415100 1.837700
25.470700 1.928600
25.526300 1.953900
25.581900 2.241500
25.637500 2.451900
25.693100 1.813100
25.748700 1.557000
25.804300 1.592000
25.859900 1.439900
25.915500 1.189100
25.971100 1.391100
26.026700 1.807000
26.082300 1.613400
26.137900 1.384700
26.193500 1.552300
26.249100 1.177600
26.304700 1.039900
26.360300 1.486600
26.415900 1.585800
26.471500 1.900600
26.527100 2.158000
26.582700 1.701200
26.638300 1.507400
26.693900 1.501900
26.749500 1.578800
26.805100 1.461000
26.860700 1.546000
26.916300 1.676800
26.971800 2.242900
27.027400 2.748100
27.083000 2.058100
27.138600 1.720000
27.194200 2.154000
27.249800 2.195200
27.305400 2.513100
27.361000 2.222600
27.416600 1.839700
27.472200 1.524400
27.527800 1.733100
27.583400 2.079600
27.639000 2.275700
27.694600 2.035900
27.750200 1.926000
27.805800 2.459500
27.861400 1.972200
27.917000 1.962000
27.972600 2.097100
28.028200 2.081400
28.083800 2.177200
28.139400 2.714100
28.195000 2.379700
28.250600 1.885500
28.306200 2.084000
28.361800 2.153500
28.417400 1.842600
28.473000 1.621500
28.528600 1.890400
28.584200 2.274800
28.639800 1.816600
28.695400 1.624200
28.751000 1.616900
28.806600 2.020300
28.862200 2.035200
28.917800 1.868500
28.973400 1.295200
29.029000 1.175300
29.084600 1.626200
29.140200 1.666500
29.195800 1.581100
29.251300 1.762000
29.306900 1.702200
29.362500 1.364000
29.418100 1.351000
29.473700 1.109800
29.529300 1.273000
29.584900 1.201000
29.640500 1.479100
29.696100 1.585700
29.751700 1.229000
29.807300 1.380200
29.862900 1.438700
29.918500 1.377400
29.974100 1.574900
30.029700 1.454200
30.085300 1.588000
30.140900 1.614200
30.196500 1.077600
30.252100 1.327400
30.307700 1.979200
30.363300 2.049200
30.418900 1.969000
30.474500 1.537500
30.530100 1.274700
30.585700 1.504800
30.641300 1.430800
30.696900 1.578600
30.752500 1.107700
30.808100 1.089300
30.863700 1.530300
30.919300 1.199500
30.974900 1.140400
31.030500 1.048900
31.086100 1.166000
31.141700 1.059000
31.197300 0.631100
31.252900 0.734600
31.308500 0.833100
31.364100 1.135800
31.419700 1.678500
31.475200 1.909100
31.530800 1.399200
31.586400 0.979800
31.642000 0.792500
31.697600 0.936400
31.753200 1.724400
31.808800 1.947900
31.864400 1.740600
31.920000 1.777500
31.975600 1.700800
32.031200 1.699000
32.086800 1.571400
32.142400 1.653600
32.198000 1.594200
32.253600 1.459000
