set title 'mp-569360 - Density of States'
set xlabel 'Energy (eV)'
set ylabel 'DOS (states/eV)'
set grid
set xrange [-10:10]
set yrange [0:44.347]
set xzeroaxis lt -1
set terminal png size 800,600
set output 'mp-569360_dos_gnuplot.png'
plot '-' using 1:2 with lines title 'DOS'
-8.681100 0.000000
-8.653300 0.000000
-8.625500 0.000000
-8.597700 0.000000
-8.570000 0.000000
-8.542200 0.000000
-8.514400 0.000000
-8.486600 0.000000
-8.458800 0.000000
-8.431100 0.000000
-8.403300 0.000000
-8.375500 0.000000
-8.347700 0.000000
-8.319900 0.000000
-8.292100 0.000000
-8.264400 0.000000
-8.236600 0.000000
-8.208800 0.000000
-8.181000 0.000000
-8.153200 0.000000
-8.125400 0.000000
-8.097700 0.000000
-8.069900 0.000000
-8.042100 0.000000
-8.014300 0.000000
-7.986500 0.000000
-7.958700 0.000000
-7.931000 0.000000
-7.903200 0.000000
-7.875400 0.000000
-7.847600 0.000000
-7.819800 0.000000
-7.792100 0.000000
-7.764300 0.000000
-7.736500 0.000000
-7.708700 0.000000
-7.680900 0.000000
-7.653100 0.000000
-7.625400 0.000000
-7.597600 0.000000
-7.569800 0.000000
-7.542000 0.000000
-7.514200 0.000000
-7.486400 0.000000
-7.458700 0.000000
-7.430900 0.000000
-7.403100 0.000000
-7.375300 0.000000
-7.347500 0.000000
-7.319700 0.000000
-7.292000 0.000000
-7.264200 0.000000
-7.236400 0.000000
-7.208600 0.000000
-7.180800 0.000000
-7.153100 0.000000
-7.125300 0.000000
-7.097500 0.000000
-7.069700 0.000000
-7.041900 0.000000
-7.014100 0.000000
-6.986400 0.000000
-6.958600 0.000000
-6.930800 0.000000
-6.903000 0.000000
-6.875200 0.000000
-6.847400 0.000000
-6.819700 0.000000
-6.791900 0.000000
-6.764100 0.000000
-6.736300 0.000000
-6.708500 0.000000
-6.680700 0.000000
-6.653000 0.000000
-6.625200 0.000000
-6.597400 0.000000
-6.569600 0.000000
-6.541800 0.000000
-6.514000 0.000000
-6.486300 0.000000
-6.458500 0.000000
-6.430700 0.000000
-6.402900 0.000000
-6.375100 0.000000
-6.347400 0.000000
-6.319600 0.000000
-6.291800 0.000000
-6.264000 0.000000
-6.236200 0.000000
-6.208400 0.000000
-6.180700 0.000000
-6.152900 0.000100
-6.125100 0.019000
-6.097300 0.069700
-6.069500 0.151900
-6.041700 0.185400
-6.014000 0.217200
-5.986200 0.261500
-5.958400 0.310900
-5.930600 0.521900
-5.902800 6.000800
-5.875000 9.658100
-5.847300 12.366600
-5.819500 18.405400
-5.791700 27.057500
-5.763900 30.802900
-5.736100 32.575700
-5.708400 24.239600
-5.680600 24.726800
-5.652800 25.146100
-5.625000 23.923400
-5.597200 20.522600
-5.569400 26.123000
-5.541700 25.883300
-5.513900 34.681900
-5.486100 40.315500
-5.458300 36.245400
-5.430500 25.287600
-5.402700 20.961800
-5.375000 33.140600
-5.347200 30.102600
-5.319400 15.912600
-5.291600 23.332500
-5.263800 29.132300
-5.236000 25.283800
-5.208300 28.262200
-5.180500 28.518200
-5.152700 31.639300
-5.124900 34.633800
-5.097100 27.500100
-5.069400 21.824100
-5.041600 24.840300
-5.013800 25.653000
-4.986000 28.520600
-4.958200 29.790400
-4.930400 29.981700
-4.902700 36.940100
-4.874900 30.458200
-4.847100 33.166400
-4.819300 32.171400
-4.791500 29.898400
-4.763700 5.761800
-4.736000 0.928300
-4.708200 0.869300
-4.680400 0.825100
-4.652600 0.783000
-4.624800 0.744200
-4.597000 0.726200
-4.569300 0.718300
-4.541500 0.714200
-4.513700 0.708200
-4.485900 0.701900
-4.458100 0.694800
-4.430400 0.687500
-4.402600 0.678900
-4.374800 0.671400
-4.347000 0.667600
-4.319200 0.663400
-4.291400 0.663300
-4.263700 0.667000
-4.235900 0.671900
-4.208100 0.677200
-4.180300 0.682700
-4.152500 0.688300
-4.124700 0.693300
-4.097000 0.699000
-4.069200 0.704500
-4.041400 0.709400
-4.013600 0.714500
-3.985800 0.719300
-3.958000 0.724600
-3.930300 0.730100
-3.902500 0.736600
-3.874700 0.743500
-3.846900 0.750700
-3.819100 0.758000
-3.791400 0.765300
-3.763600 0.772200
-3.735800 0.777800
-3.708000 0.784400
-3.680200 0.797000
-3.652400 0.823100
-3.624700 0.847700
-3.596900 0.847900
-3.569100 0.837400
-3.541300 0.828900
-3.513500 0.816900
-3.485700 0.816800
-3.458000 0.818500
-3.430200 0.820100
-3.402400 0.821600
-3.374600 0.823200
-3.346800 0.824900
-3.319000 0.826800
-3.291300 0.829500
-3.263500 0.832900
-3.235700 0.836800
-3.207900 0.841100
-3.180100 0.846800
-3.152400 0.850900
-3.124600 0.853200
-3.096800 0.855900
-3.069000 0.859700
-3.041200 0.864300
-3.013400 0.869400
-2.985700 0.874800
-2.957900 0.880600
-2.930100 0.887200
-2.902300 0.893400
-2.874500 0.900000
-2.846700 0.906800
-2.819000 0.913900
-2.791200 0.921300
-2.763400 0.928900
-2.735600 0.937800
-2.707800 0.947900
-2.680000 0.964700
-2.652300 0.985600
-2.624500 0.998100
-2.596700 1.004000
-2.568900 1.011600
-2.541100 1.018400
-2.513400 1.017600
-2.485600 1.021200
-2.457800 1.030200
-2.430000 1.040600
-2.402200 1.052000
-2.374400 1.063800
-2.346700 1.075600
-2.318900 1.087800
-2.291100 1.100700
-2.263300 1.114500
-2.235500 1.126700
-2.207700 1.138200
-2.180000 1.146400
-2.152200 1.155100
-2.124400 1.164800
-2.096600 1.175400
-2.068800 1.188100
-2.041000 1.204200
-2.013300 1.225600
-1.985500 1.253800
-1.957700 1.301000
-1.929900 1.354600
-1.902100 1.398700
-1.874300 1.422600
-1.846600 1.434100
-1.818800 1.437500
-1.791000 1.433300
-1.763200 1.420200
-1.735400 1.397000
-1.707700 1.363200
-1.679900 1.337300
-1.652100 1.311400
-1.624300 1.293600
-1.596500 1.318900
-1.568700 1.407800
-1.541000 1.407000
-1.513200 1.349300
-1.485400 1.338000
-1.457600 1.375800
-1.429800 1.273900
-1.402000 1.258400
-1.374300 1.260000
-1.346500 1.265900
-1.318700 1.277200
-1.290900 1.480400
-1.263100 1.361800
-1.235300 1.360100
-1.207600 1.370300
-1.179800 1.380600
-1.152000 1.403500
-1.124200 1.427100
-1.096400 1.448600
-1.068700 1.463400
-1.040900 1.479400
-1.013100 1.505000
-0.985300 1.579600
-0.957500 1.587900
-0.929700 1.552700
-0.902000 1.475800
-0.874200 1.466300
-0.846400 1.481800
-0.818600 1.456300
-0.790800 1.423600
-0.763000 1.387500
-0.735300 1.362500
-0.707500 1.341000
-0.679700 1.406200
-0.651900 1.487900
-0.624100 1.580800
-0.596300 1.757200
-0.568600 1.872900
-0.540800 2.025900
-0.513000 2.098400
-0.485200 2.049000
-0.457400 1.917500
-0.429700 1.854400
-0.401900 1.803400
-0.374100 1.792500
-0.346300 1.864600
-0.318500 2.173100
-0.290700 2.183100
-0.263000 2.146600
-0.235200 1.998900
-0.207400 1.851100
-0.179600 1.758200
-0.151800 1.732900
-0.124000 1.788200
-0.096300 1.728400
-0.068500 1.610400
-0.040700 1.462300
-0.012900 1.320800
0.014900 1.261700
0.042700 0.989100
0.070400 0.746300
0.098200 0.643800
0.126000 0.572500
0.153800 0.518100
0.181600 0.482400
0.209300 0.432900
0.237100 0.384400
0.264900 0.340700
0.292700 0.301900
0.320500 0.271600
0.348300 0.300600
0.376000 0.109200
0.403800 0.006200
0.431600 0.000000
0.459400 0.000000
0.487200 0.000000
0.515000 0.000000
0.542700 0.000000
0.570500 0.000000
0.598300 0.000000
0.626100 0.000000
0.653900 0.000000
0.681700 0.000300
0.709400 0.001600
0.737200 0.006700
0.765000 0.016200
0.792800 0.035900
0.820600 0.076800
0.848300 0.114400
0.876100 0.112000
0.903900 0.140800
0.931700 0.170800
0.959500 0.204200
0.987300 0.240300
1.015000 0.279600
1.042800 0.344000
1.070600 0.417800
1.098400 0.500200
1.126200 0.522900
1.154000 0.527600
1.181700 0.524900
1.209500 0.517100
1.237300 0.514300
1.265100 0.526600
1.292900 0.541400
1.320700 0.559900
1.348400 0.582100
1.376200 0.606300
1.404000 0.631800
1.431800 0.661100
1.459600 0.690300
1.487300 0.717000
1.515100 0.739100
1.542900 0.759600
1.570700 0.778000
1.598500 0.793900
1.626300 0.807100
1.654000 0.813900
1.681800 0.829900
1.709600 0.859000
1.737400 0.898000
1.765200 0.941000
1.793000 0.983600
1.820700 1.026300
1.848500 1.071300
1.876300 1.123800
1.904100 1.172600
1.931900 1.216200
1.959700 1.257600
1.987400 1.305100
2.015200 1.367600
2.043000 1.438100
2.070800 1.512300
2.098600 1.715500
2.126300 1.695500
2.154100 1.717300
2.181900 1.731600
2.209700 1.756900
2.237500 1.793400
2.265300 1.759000
2.293000 1.630900
2.320800 1.629700
2.348600 1.669300
2.376400 1.745200
2.404200 1.844800
2.432000 1.960100
2.459700 2.109500
2.487500 2.214400
2.515300 2.258300
2.543100 2.261200
2.570900 2.118100
2.598700 1.986800
2.626400 1.797800
2.654200 1.673300
2.682000 1.627200
2.709800 1.598600
2.737600 1.578900
2.765400 1.573600
2.793100 1.572000
2.820900 1.492200
2.848700 1.432800
2.876500 1.398300
2.904300 1.374800
2.932000 1.356100
2.959800 1.343500
2.987600 1.328200
3.015400 1.319200
3.043200 1.326000
3.071000 1.347600
3.098700 1.353400
3.126500 1.358300
3.154300 1.431000
3.182100 1.482100
3.209900 1.549800
3.237700 1.572600
3.265400 1.586000
3.293200 1.576600
3.321000 1.612900
3.348800 1.654100
3.376600 1.666800
3.404400 1.661400
3.432100 1.665100
3.459900 1.679000
3.487700 1.702300
3.515500 1.709000
3.543300 1.700200
3.571000 1.683800
3.598800 1.670400
3.626600 1.676000
3.654400 1.675600
3.682200 1.616000
3.710000 1.533800
3.737700 1.494000
3.765500 1.470800
3.793300 1.465100
3.821100 1.477800
3.848900 1.494700
3.876700 1.550900
3.904400 1.548500
3.932200 1.493400
3.960000 1.411900
3.987800 1.373600
4.015600 1.377900
4.043400 1.338800
4.071100 1.280100
4.098900 1.240700
4.126700 1.209100
4.154500 1.184600
4.182300 1.161900
4.210000 1.143700
4.237800 1.135000
4.265600 1.154100
4.293400 1.195300
4.321200 1.195000
4.349000 1.194400
4.376700 1.199200
4.404500 1.228000
4.432300 1.257000
4.460100 1.264600
4.487900 1.295400
4.515700 1.324600
4.543400 1.358900
4.571200 1.394300
4.599000 1.426400
4.626800 1.456300
4.654600 1.492900
4.682400 1.551800
4.710100 1.610300
4.737900 1.665000
4.765700 1.707700
4.793500 1.748200
4.821300 1.780700
4.849000 1.776100
4.876800 1.742300
4.904600 1.735300
4.932400 1.747000
4.960200 1.718900
4.988000 1.714100
5.015700 1.703200
5.043500 1.695700
5.071300 1.672200
5.099100 1.656100
5.126900 1.642900
5.154700 1.632600
5.182400 1.626600
5.210200 1.631400
5.238000 1.654000
5.265800 1.678600
5.293600 1.691900
5.321400 1.696600
5.349100 1.687700
5.376900 1.678400
5.404700 1.674100
5.432500 1.677700
5.460300 1.684500
5.488000 1.699200
5.515800 1.715300
5.543600 1.729600
5.571400 1.739700
5.599200 1.748300
5.627000 1.751000
5.654700 1.749000
5.682500 1.744400
5.710300 1.737400
5.738100 1.730000
5.765900 1.728800
5.793700 1.733000
5.821400 1.742200
5.849200 1.753700
5.877000 1.768400
5.904800 1.783700
5.932600 1.795200
5.960400 1.796100
5.988100 1.784700
6.015900 1.766000
6.043700 1.741700
6.071500 1.726400
6.099300 1.728600
6.127000 1.735600
6.154800 1.730000
6.182600 1.722800
6.210400 1.715500
6.238200 1.698900
6.266000 1.681400
6.293700 1.666200
6.321500 1.654000
6.349300 1.651700
6.377100 1.662900
6.404900 1.677500
6.432700 1.690200
6.460400 1.701900
6.488200 1.719900
6.516000 1.744400
6.543800 1.772300
6.571600 1.807900
6.599400 1.842900
6.627100 1.871100
6.654900 1.893600
6.682700 1.913000
6.710500 1.936900
6.738300 1.955000
6.766100 1.968200
6.793800 1.994000
6.821600 2.028300
6.849400 2.017800
6.877200 2.012900
6.905000 2.023400
6.932700 2.041000
6.960500 2.063000
6.988300 2.082700
7.016100 2.097000
7.043900 2.109700
7.071700 2.122000
7.099400 2.103800
7.127200 2.081500
7.155000 2.054400
7.182800 2.024400
7.210600 2.004800
7.238400 1.994900
7.266100 2.003300
7.293900 1.999800
7.321700 1.983700
7.349500 1.989800
7.377300 1.981700
7.405100 1.991900
7.432800 1.993300
7.460600 1.996300
7.488400 1.999200
7.516200 1.968500
7.544000 1.927000
7.571700 1.867600
7.599500 1.808100
7.627300 1.775000
7.655100 1.743500
7.682900 1.712800
7.710700 1.689500
7.738400 1.712700
7.766200 1.711800
7.794000 1.712700
7.821800 1.699700
7.849600 1.671600
7.877400 1.686900
7.905100 1.707300
7.932900 1.732000
7.960700 1.763300
7.988500 1.806900
8.016300 1.849000
8.044100 1.938700
8.071800 1.999900
8.099600 1.998900
8.127400 2.006100
8.155200 2.025400
8.183000 2.058300
8.210700 2.081000
8.238500 2.097000
8.266300 2.118000
8.294100 2.153700
8.321900 2.199400
8.349700 2.223500
8.377400 2.240300
8.405200 2.261300
8.433000 2.270000
8.460800 2.257900
8.488600 2.254100
8.516400 2.252500
8.544100 2.231400
8.571900 2.198400
8.599700 2.217700
8.627500 2.168500
8.655300 2.155700
8.683100 2.142100
8.710800 2.137700
8.738600 2.136500
8.766400 2.130400
8.794200 2.105300
8.822000 2.070600
8.849700 2.040800
8.877500 2.017300
8.905300 1.998600
8.933100 1.990400
8.960900 1.984400
8.988700 1.977500
9.016400 1.971200
9.044200 1.965100
9.072000 1.953600
9.099800 1.961900
9.127600 1.976400
9.155400 1.991700
9.183100 2.004600
9.210900 2.008400
9.238700 2.007800
9.266500 2.036600
9.294300 2.048400
9.322100 2.021700
9.349800 2.009400
9.377600 2.001200
9.405400 1.990800
9.433200 1.975900
9.461000 1.966900
9.488700 1.968800
9.516500 1.989800
9.544300 2.018300
9.572100 2.055800
9.599900 2.059100
9.627700 2.037000
9.655400 1.992700
9.683200 1.981400
9.711000 1.957100
9.738800 1.943500
9.766600 1.936100
9.794400 1.926500
9.822100 1.917700
9.849900 1.915800
9.877700 1.914200
9.905500 1.913000
9.933300 1.913800
9.961100 1.920400
9.988800 1.935500
10.016600 1.957400
10.044400 2.006500
10.072200 2.112300
10.100000 2.107200
10.127700 2.124600
10.155500 2.151400
10.183300 2.163200
10.211100 2.160700
10.238900 2.157600
10.266700 2.143800
10.294400 2.105800
10.322200 2.136900
10.350000 2.136300
10.377800 1.918000
10.405600 1.872800
10.433400 1.833200
10.461100 1.802400
10.488900 1.759700
10.516700 1.722000
10.544500 1.687600
10.572300 1.664500
10.600100 1.645100
10.627800 1.626700
10.655600 1.608300
10.683400 1.583300
10.711200 1.564000
10.739000 1.542500
10.766700 1.512200
10.794500 1.504100
10.822300 1.507800
10.850100 1.505900
10.877900 1.507300
10.905700 1.512900
10.933400 1.530500
10.961200 1.556700
10.989000 1.584700
11.016800 1.612400
11.044600 1.637600
11.072400 1.657500
11.100100 1.679800
11.127900 1.699100
11.155700 1.712000
11.183500 1.723200
11.211300 1.740100
11.239100 1.746600
11.266800 1.820400
11.294600 1.866100
11.322400 1.858200
11.350200 1.833000
11.378000 1.849100
11.405800 1.866300
11.433500 1.880200
11.461300 1.901600
11.489100 1.925000
11.516900 1.933400
11.544700 1.941700
11.572400 1.960000
11.600200 1.999500
11.628000 2.060000
11.655800 2.115700
11.683600 2.162000
11.711400 2.215800
11.739100 2.289200
11.766900 2.365700
11.794700 2.421900
11.822500 2.426300
11.850300 2.351000
11.878100 2.348000
11.905800 2.351300
11.933600 2.352800
11.961400 2.354900
11.989200 2.343700
12.017000 2.335200
12.044800 2.336800
12.072500 2.353000
12.100300 2.370700
12.128100 2.384900
12.155900 2.385200
12.183700 2.359500
12.211400 2.327000
12.239200 2.304100
12.267000 2.280400
12.294800 2.254700
12.322600 2.233600
12.350400 2.239100
12.378100 2.245800
12.405900 2.257100
12.433700 2.268800
12.461500 2.259100
12.489300 2.284700
12.517100 2.307100
12.544800 2.322400
12.572600 2.351900
12.600400 2.381400
12.628200 2.410400
12.656000 2.442100
12.683800 2.491200
12.711500 2.524200
12.739300 2.528900
12.767100 2.540200
12.794900 2.518100
12.822700 2.493400
12.850400 2.543900
12.878200 2.626100
12.906000 2.620100
12.933800 2.548700
12.961600 2.502600
12.989400 2.415500
13.017100 2.322800
13.044900 2.281200
13.072700 2.280100
13.100500 2.300300
13.128300 2.383600
13.156100 2.550700
13.183800 2.686400
13.211600 2.716600
13.239400 2.780200
13.267200 2.728400
13.295000 2.715700
13.322800 2.596100
13.350500 2.455000
13.378300 2.350200
13.406100 2.274400
13.433900 2.244000
13.461700 2.231800
13.489400 2.227600
13.517200 2.216900
13.545000 2.260400
13.572800 2.359100
13.600600 2.411200
13.628400 2.334600
13.656100 2.303800
13.683900 2.223700
13.711700 2.122900
13.739500 2.052800
13.767300 1.987300
13.795100 1.954500
13.822800 1.952700
13.850600 1.965200
13.878400 1.997900
13.906200 1.965200
13.934000 1.887000
13.961800 1.802100
13.989500 1.770900
14.017300 1.750900
14.045100 1.747300
14.072900 1.752700
14.100700 1.770000
14.128400 1.818800
14.156200 1.791600
14.184000 1.735500
14.211800 1.661200
14.239600 1.599600
14.267400 1.541200
14.295100 1.497000
14.322900 1.467400
14.350700 1.447900
14.378500 1.444900
14.406300 1.455100
14.434100 1.452700
14.461800 1.462400
14.489600 1.511400
14.517400 1.558800
14.545200 1.609500
14.573000 1.638900
14.600800 1.663300
14.628500 1.682000
14.656300 1.743100
14.684100 1.885200
14.711900 1.893500
14.739700 1.888100
14.767400 1.899100
14.795200 1.884300
14.823000 1.875200
14.850800 1.873900
14.878600 1.883100
14.906400 1.907500
14.934100 1.941300
14.961900 2.018600
14.989700 2.077800
15.017500 2.113800
15.045300 2.189000
15.073100 2.128700
15.100800 1.993000
15.128600 1.898300
15.156400 1.848800
15.184200 1.810200
15.212000 1.787200
15.239800 1.785100
15.267500 1.807500
15.295300 1.859700
15.323100 1.915900
15.350900 2.045700
15.378700 2.182500
15.406400 2.297400
15.434200 2.448600
15.462000 2.597500
15.489800 2.703300
15.517600 2.751200
15.545400 2.842900
15.573100 2.890000
15.600900 2.905600
15.628700 2.804500
15.656500 2.671800
15.684300 2.546000
15.712100 2.448600
15.739800 2.398400
15.767600 2.425500
15.795400 2.497400
15.823200 2.566300
15.851000 2.626500
15.878800 2.697700
15.906500 2.757900
15.934300 2.790800
15.962100 2.815200
15.989900 2.765400
16.017700 2.685500
16.045500 2.663100
16.073200 2.645400
16.101000 2.625300
16.128800 2.610400
16.156600 2.601400
16.184400 2.602500
16.212100 2.634400
16.239900 2.710300
16.267700 2.685100
16.295500 2.658800
16.323300 2.647500
16.351100 2.633400
16.378800 2.613400
16.406600 2.635500
16.434400 2.661800
16.462200 2.706100
16.490000 2.759900
16.517800 2.757000
16.545500 2.780100
16.573300 2.798700
16.601100 2.842100
16.628900 2.842000
16.656700 2.834200
16.684500 2.834300
16.712200 2.758700
16.740000 2.701300
16.767800 2.713400
16.795600 2.731600
16.823400 2.776700
16.851100 2.804400
16.878900 2.853000
16.906700 3.010200
16.934500 3.158100
16.962300 3.395300
16.990100 3.575400
17.017800 3.636100
17.045600 3.585000
17.073400 3.636500
17.101200 3.693100
17.129000 3.726600
17.156800 3.736600
17.184500 3.611200
17.212300 3.509800
17.240100 3.353200
17.267900 3.208600
17.295700 3.124000
17.323500 3.052100
17.351200 3.019900
17.379000 2.982100
17.406800 2.953000
17.434600 2.939100
17.462400 2.941100
17.490100 2.928200
17.517900 2.928300
17.545700 2.927900
17.573500 2.954200
17.601300 3.000100
17.629100 3.054500
17.656800 3.129500
17.684600 3.107900
17.712400 2.962600
17.740200 2.829800
17.768000 2.838600
17.795800 2.786600
17.823500 2.798600
17.851300 2.822800
17.879100 2.843500
17.906900 2.870200
17.934700 2.877900
17.962500 2.850500
17.990200 2.896100
18.018000 2.893300
18.045800 2.914000
18.073600 2.936500
18.101400 3.000600
18.129100 3.066000
18.156900 3.114400
18.184700 3.127800
18.212500 3.125700
18.240300 3.114500
18.268100 3.131000
18.295800 3.184100
18.323600 3.238100
18.351400 3.276500
18.379200 3.317400
18.407000 3.351100
18.434800 3.363500
18.462500 3.333700
18.490300 3.260900
18.518100 3.234500
18.545900 3.259400
18.573700 3.262100
18.601500 3.265900
18.629200 3.270400
18.657000 3.276600
18.684800 3.285600
18.712600 3.304600
18.740400 3.338400
18.768100 3.350000
18.795900 3.304500
18.823700 3.247900
18.851500 3.205400
18.879300 3.171700
18.907100 3.139600
18.934800 3.128500
18.962600 3.146000
18.990400 3.161400
19.018200 3.202400
19.046000 3.224200
19.073800 3.272400
19.101500 3.329900
19.129300 3.295800
19.157100 3.251700
19.184900 3.232400
19.212700 3.220100
19.240500 3.235000
19.268200 3.268500
19.296000 3.297100
19.323800 3.348200
19.351600 3.388100
19.379400 3.454900
19.407100 3.504900
19.434900 3.517200
19.462700 3.576800
19.490500 3.602600
19.518300 3.563100
19.546100 3.523700
19.573800 3.495700
19.601600 3.538900
19.629400 3.552600
19.657200 3.586100
19.685000 3.610100
19.712800 3.620900
19.740500 3.646100
19.768300 3.660300
19.796100 3.704600
19.823900 3.624800
19.851700 3.586400
19.879500 3.578600
19.907200 3.598200
19.935000 3.622900
19.962800 3.613600
19.990600 3.600500
20.018400 3.611300
20.046100 3.619100
20.073900 3.616200
20.101700 3.636500
20.129500 3.672000
20.157300 3.689200
20.185100 3.632700
20.212800 3.630900
20.240600 3.631400
20.268400 3.636900
20.296200 3.644400
20.324000 3.668100
20.351800 3.677100
20.379500 3.668400
20.407300 3.659800
20.435100 3.657900
20.462900 3.631600
20.490700 3.616500
20.518500 3.655100
20.546200 3.635700
20.574000 3.668000
