set title 'mp-974558 - Density of States'
set xlabel 'Energy (eV)'
set ylabel 'DOS (states/eV)'
set grid
set xrange [-10:10]
set yrange [0:4.972]
set xzeroaxis lt -1
set terminal png size 800,600
set output 'mp-974558_dos_gnuplot.png'
plot '-' using 1:2 with lines title 'DOS'
-28.916700 0.000000
-28.866900 0.000000
-28.817000 0.000000
-28.767200 0.000000
-28.717400 0.000000
-28.667600 0.000000
-28.617800 0.000000
-28.567900 0.000000
-28.518100 0.000000
-28.468300 0.000000
-28.418500 0.000000
-28.368600 0.000000
-28.318800 0.000000
-28.269000 0.000000
-28.219200 0.000000
-28.169300 0.000000
-28.119500 0.000000
-28.069700 0.000000
-28.019900 0.000000
-27.970000 0.000000
-27.920200 0.000000
-27.870400 0.000000
-27.820600 0.000000
-27.770800 0.000000
-27.720900 0.000000
-27.671100 0.000000
-27.621300 0.000000
-27.571500 0.000000
-27.521600 0.000000
-27.471800 0.000000
-27.422000 0.000000
-27.372200 0.000000
-27.322300 0.000000
-27.272500 0.000000
-27.222700 0.000000
-27.172900 0.000000
-27.123100 0.000000
-27.073200 0.000000
-27.023400 0.000000
-26.973600 0.000000
-26.923800 0.000000
-26.873900 0.000000
-26.824100 0.000000
-26.774300 0.000000
-26.724500 0.000000
-26.674600 0.000000
-26.624800 0.000000
-26.575000 0.000000
-26.525200 0.000000
-26.475400 0.000000
-26.425500 0.000000
-26.375700 0.000000
-26.325900 0.000000
-26.276100 0.000000
-26.226200 0.000000
-26.176400 0.000000
-26.126600 0.000000
-26.076800 0.000000
-26.026900 0.000000
-25.977100 0.000000
-25.927300 0.000000
-25.877500 0.000000
-25.827700 0.000000
-25.777800 0.000000
-25.728000 0.000000
-25.678200 0.000000
-25.628400 0.000000
-25.578500 0.000000
-25.528700 0.000000
-25.478900 0.000000
-25.429100 0.000000
-25.379200 0.000000
-25.329400 0.000000
-25.279600 0.000000
-25.229800 0.000000
-25.180000 0.000000
-25.130100 0.000000
-25.080300 0.000000
-25.030500 0.000000
-24.980700 0.000000
-24.930800 0.000000
-24.881000 0.000000
-24.831200 0.000000
-24.781400 0.000000
-24.731500 0.000000
-24.681700 0.000000
-24.631900 0.000000
-24.582100 0.000000
-24.532300 0.000000
-24.482400 0.000000
-24.432600 0.000000
-24.382800 115.731700
-24.333000 0.000000
-24.283100 0.000000
-24.233300 0.000000
-24.183500 0.000000
-24.133700 0.000000
-24.083800 0.000000
-24.034000 0.000000
-23.984200 0.000000
-23.934400 0.000000
-23.884600 0.000000
-23.834700 0.000000
-23.784900 0.000000
-23.735100 0.000000
-23.685300 0.000000
-23.635400 0.000000
-23.585600 0.000000
-23.535800 0.000000
-23.486000 0.000000
-23.436100 0.000000
-23.386300 0.000000
-23.336500 0.000000
-23.286700 0.000000
-23.236900 0.000000
-23.187000 0.000000
-23.137200 0.000000
-23.087400 0.000000
-23.037600 0.000000
-22.987700 0.000000
-22.937900 0.000000
-22.888100 0.000000
-22.838300 0.000000
-22.788400 0.000000
-22.738600 0.000000
-22.688800 0.000000
-22.639000 0.000000
-22.589200 0.000000
-22.539300 0.000000
-22.489500 0.000000
-22.439700 0.000000
-22.389900 0.000000
-22.340000 0.000000
-22.290200 0.000000
-22.240400 0.000000
-22.190600 0.000000
-22.140700 0.000000
-22.090900 0.000000
-22.041100 0.000000
-21.991300 0.000000
-21.941500 0.000000
-21.891600 0.000000
-21.841800 0.000000
-21.792000 0.000000
-21.742200 0.000000
-21.692300 0.000000
-21.642500 0.000000
-21.592700 0.000000
-21.542900 0.000000
-21.493000 0.000000
-21.443200 0.000000
-21.393400 0.000000
-21.343600 0.000000
-21.293800 0.000000
-21.243900 0.000000
-21.194100 0.000000
-21.144300 0.000000
-21.094500 0.000000
-21.044600 0.000000
-20.994800 0.000000
-20.945000 0.000000
-20.895200 0.000000
-20.845300 0.000000
-20.795500 0.000000
-20.745700 0.000000
-20.695900 0.000000
-20.646100 0.000000
-20.596200 0.000000
-20.546400 0.000000
-20.496600 0.000000
-20.446800 0.000000
-20.396900 0.000000
-20.347100 0.000000
-20.297300 0.000000
-20.247500 0.000000
-20.197600 0.000000
-20.147800 0.000000
-20.098000 0.000000
-20.048200 0.000000
-19.998400 0.000000
-19.948500 0.000000
-19.898700 0.000000
-19.848900 0.000000
-19.799100 0.000000
-19.749200 0.000000
-19.699400 0.000000
-19.649600 0.000000
-19.599800 0.000000
-19.549900 0.000000
-19.500100 0.000000
-19.450300 0.000000
-19.400500 0.000000
-19.350700 0.000000
-19.300800 0.000000
-19.251000 0.000000
-19.201200 0.000000
-19.151400 0.000000
-19.101500 0.000000
-19.051700 0.000000
-19.001900 0.000000
-18.952100 0.000000
-18.902200 0.000000
-18.852400 0.000000
-18.802600 0.000000
-18.752800 0.000000
-18.703000 0.000000
-18.653100 0.000000
-18.603300 0.000000
-18.553500 0.000000
-18.503700 0.000000
-18.453800 0.000000
-18.404000 0.000000
-18.354200 0.000000
-18.304400 0.000000
-18.254500 0.000000
-18.204700 0.000000
-18.154900 0.000000
-18.105100 0.000000
-18.055300 0.000000
-18.005400 0.000000
-17.955600 0.000000
-17.905800 0.000000
-17.856000 0.000000
-17.806100 0.000000
-17.756300 0.000000
-17.706500 0.000000
-17.656700 0.000000
-17.606800 0.000000
-17.557000 0.000000
-17.507200 0.000000
-17.457400 0.000000
-17.407600 0.000000
-17.357700 0.000000
-17.307900 0.000000
-17.258100 0.000000
-17.208300 0.000000
-17.158400 0.000000
-17.108600 0.000000
-17.058800 0.000000
-17.009000 0.000000
-16.959100 0.000000
-16.909300 0.000000
-16.859500 0.000000
-16.809700 0.000000
-16.759900 0.000000
-16.710000 0.000000
-16.660200 0.000000
-16.610400 0.000000
-16.560600 0.000000
-16.510700 0.000000
-16.460900 0.000000
-16.411100 0.000000
-16.361300 0.000000
-16.311400 0.000000
-16.261600 0.000000
-16.211800 0.000000
-16.162000 0.000000
-16.112200 0.000000
-16.062300 0.000000
-16.012500 0.000000
-15.962700 0.000000
-15.912900 0.000000
-15.863000 0.000000
-15.813200 0.000000
-15.763400 0.000000
-15.713600 0.000000
-15.663700 0.000000
-15.613900 0.000000
-15.564100 0.000000
-15.514300 0.000000
-15.464500 0.000000
-15.414600 0.000000
-15.364800 0.000000
-15.315000 0.000000
-15.265200 0.000000
-15.215300 0.000000
-15.165500 0.000000
-15.115700 0.000000
-15.065900 0.000000
-15.016000 0.000000
-14.966200 0.000000
-14.916400 0.000000
-14.866600 0.000000
-14.816800 0.000000
-14.766900 0.000000
-14.717100 0.000000
-14.667300 0.000000
-14.617500 0.000000
-14.567600 0.000000
-14.517800 0.000000
-14.468000 0.000000
-14.418200 0.000000
-14.368300 0.000000
-14.318500 0.000000
-14.268700 0.000000
-14.218900 0.000000
-14.169100 0.000000
-14.119200 0.000000
-14.069400 0.000000
-14.019600 0.000000
-13.969800 0.000000
-13.919900 0.000000
-13.870100 0.000000
-13.820300 0.000000
-13.770500 0.000000
-13.720600 0.000000
-13.670800 0.000000
-13.621000 0.000000
-13.571200 0.000000
-13.521400 0.000000
-13.471500 0.000000
-13.421700 0.000000
-13.371900 0.000000
-13.322100 0.000000
-13.272200 0.000000
-13.222400 0.000000
-13.172600 0.000000
-13.122800 0.000000
-13.072900 0.000000
-13.023100 0.000000
-12.973300 0.000000
-12.923500 0.000000
-12.873700 0.000000
-12.823800 0.000000
-12.774000 0.000000
-12.724200 0.000000
-12.674400 0.000000
-12.624500 0.000000
-12.574700 0.000000
-12.524900 0.000000
-12.475100 0.000000
-12.425200 0.000000
-12.375400 0.000000
-12.325600 0.000000
-12.275800 0.000000
-12.226000 0.000000
-12.176100 0.000000
-12.126300 0.000000
-12.076500 0.000000
-12.026700 0.000000
-11.976800 0.000000
-11.927000 0.000000
-11.877200 0.000000
-11.827400 0.000000
-11.777500 0.000000
-11.727700 0.000000
-11.677900 0.000000
-11.628100 0.000000
-11.578300 0.000000
-11.528400 0.000000
-11.478600 0.000000
-11.428800 0.000000
-11.379000 0.000000
-11.329100 0.000000
-11.279300 0.000000
-11.229500 0.000000
-11.179700 0.000000
-11.129800 0.000000
-11.080000 0.000000
-11.030200 0.000000
-10.980400 0.000000
-10.930600 0.000000
-10.880700 0.000000
-10.830900 0.000000
-10.781100 0.000000
-10.731300 0.000000
-10.681400 0.000000
-10.631600 0.000000
-10.581800 0.000000
-10.532000 0.000000
-10.482100 0.000000
-10.432300 0.000000
-10.382500 0.000000
-10.332700 0.000000
-10.282900 0.000000
-10.233000 0.000000
-10.183200 0.000000
-10.133400 0.000000
-10.083600 0.000000
-10.033700 0.000000
-9.983900 0.000000
-9.934100 0.000000
-9.884300 0.000000
-9.834400 0.000000
-9.784600 0.000000
-9.734800 0.000000
-9.685000 0.000000
-9.635200 0.000000
-9.585300 0.000000
-9.535500 0.000000
-9.485700 0.000000
-9.435900 0.000000
-9.386000 0.000000
-9.336200 0.000000
-9.286400 0.000000
-9.236600 0.000000
-9.186700 0.000000
-9.136900 0.000000
-9.087100 0.000000
-9.037300 0.000000
-8.987500 0.000000
-8.937600 0.000000
-8.887800 0.000000
-8.838000 0.000000
-8.788200 0.000000
-8.738300 0.000000
-8.688500 0.000000
-8.638700 0.000000
-8.588900 0.000000
-8.539000 0.000000
-8.489200 0.000000
-8.439400 0.000000
-8.389600 0.000000
-8.339800 0.000000
-8.289900 0.000000
-8.240100 0.000000
-8.190300 0.000000
-8.140500 0.000000
-8.090600 0.000000
-8.040800 0.000000
-7.991000 0.000000
-7.941200 0.000000
-7.891300 0.000000
-7.841500 0.000000
-7.791700 0.000000
-7.741900 0.000000
-7.692100 0.000000
-7.642200 0.000000
-7.592400 0.000000
-7.542600 0.000000
-7.492800 0.000000
-7.442900 0.000000
-7.393100 0.000000
-7.343300 0.000000
-7.293500 0.000000
-7.243600 0.000000
-7.193800 0.000000
-7.144000 0.000000
-7.094200 0.000000
-7.044400 0.000000
-6.994500 0.000000
-6.944700 0.000000
-6.894900 0.000000
-6.845100 0.000000
-6.795200 0.000000
-6.745400 0.000000
-6.695600 0.000000
-6.645800 0.000000
-6.595900 0.000000
-6.546100 0.000000
-6.496300 0.000000
-6.446500 0.000000
-6.396700 0.000000
-6.346800 0.000000
-6.297000 0.000000
-6.247200 0.000000
-6.197400 0.000000
-6.147500 0.000000
-6.097700 0.000000
-6.047900 0.000000
-5.998100 0.000000
-5.948200 0.000000
-5.898400 0.000000
-5.848600 0.000000
-5.798800 0.000000
-5.749000 0.000000
-5.699100 0.000000
-5.649300 0.000000
-5.599500 0.000000
-5.549700 0.000000
-5.499800 0.000000
-5.450000 0.000000
-5.400200 0.000000
-5.350400 0.000000
-5.300500 0.000000
-5.250700 0.000000
-5.200900 0.000000
-5.151100 0.000000
-5.101200 0.000000
-5.051400 0.000000
-5.001600 0.000000
-4.951800 0.000000
-4.902000 0.000000
-4.852100 0.000000
-4.802300 0.000000
-4.752500 0.000000
-4.702700 0.000000
-4.652800 0.000000
-4.603000 0.000000
-4.553200 0.000000
-4.503400 0.000000
-4.453500 0.000000
-4.403700 0.000000
-4.353900 0.000000
-4.304100 0.000000
-4.254300 0.000000
-4.204400 0.000000
-4.154600 0.000000
-4.104800 0.000000
-4.055000 0.000000
-4.005100 0.000000
-3.955300 0.000000
-3.905500 0.000000
-3.855700 0.000000
-3.805800 0.000000
-3.756000 0.000000
-3.706200 0.000000
-3.656400 0.000000
-3.606600 0.000000
-3.556700 0.000000
-3.506900 0.000000
-3.457100 0.000000
-3.407300 0.000000
-3.357400 0.000000
-3.307600 0.000000
-3.257800 0.000000
-3.208000 0.000000
-3.158100 0.000000
-3.108300 0.000000
-3.058500 0.000000
-3.008700 0.000000
-2.958900 0.000000
-2.909000 0.000000
-2.859200 0.000000
-2.809400 0.000000
-2.759600 0.016400
-2.709700 0.062200
-2.659900 0.074300
-2.610100 0.094400
-2.560300 0.112500
-2.510400 0.118000
-2.460600 0.128800
-2.410800 0.140700
-2.361000 0.152900
-2.311200 0.163100
-2.261300 0.169600
-2.211500 0.176600
-2.161700 0.183500
-2.111900 0.191600
-2.062000 0.200500
-2.012200 0.209600
-1.962400 0.217500
-1.912600 0.221700
-1.862700 0.227600
-1.812900 0.233600
-1.763100 0.239700
-1.713300 0.245900
-1.663500 0.252700
-1.613600 0.259600
-1.563800 0.266700
-1.514000 0.272400
-1.464200 0.277300
-1.414300 0.281900
-1.364500 0.286600
-1.314700 0.291800
-1.264900 0.297300
-1.215000 0.302800
-1.165200 0.308300
-1.115400 0.313800
-1.065600 0.319600
-1.015800 0.325600
-0.965900 0.330500
-0.916100 0.334400
-0.866300 0.338900
-0.816500 0.343300
-0.766600 0.347600
-0.716800 0.352200
-0.667000 0.357000
-0.617200 0.361900
-0.567300 0.366800
-0.517500 0.371900
-0.467700 0.376900
-0.417900 0.382000
-0.368100 0.387100
-0.318200 0.391000
-0.268400 0.395000
-0.218600 0.398900
-0.168800 0.403100
-0.118900 0.407500
-0.069100 0.411900
-0.019300 0.416200
0.030500 0.420600
0.080400 0.425200
0.130200 0.429900
0.180000 0.434700
0.229800 0.439500
0.279600 0.444500
0.329500 0.449500
0.379300 0.453900
0.429100 0.458200
0.478900 0.462900
0.528800 0.467800
0.578600 0.473300
0.628400 0.479600
0.678200 0.486900
0.728100 0.495100
0.777900 0.507800
0.827700 0.521300
0.877500 0.532900
0.927300 0.544500
0.977200 0.597800
1.027000 0.608500
1.076800 0.569400
1.126600 0.541500
1.176500 0.528100
1.226300 0.518100
1.276100 0.517800
1.325900 0.555500
1.375800 0.516900
1.425600 0.495800
1.475400 0.552600
1.525200 0.485400
1.575000 0.469300
1.624900 0.456200
1.674700 0.462000
1.724500 0.477600
1.774300 0.490900
1.824200 0.502100
1.874000 0.515400
1.923800 0.544500
1.973600 0.589400
2.023500 0.613500
2.073300 0.599300
2.123100 0.577900
2.172900 0.586100
2.222700 0.596400
2.272600 0.605600
2.322400 0.609000
2.372200 0.615900
2.422000 0.631400
2.471900 0.636200
2.521700 0.593100
2.571500 0.571500
2.621300 0.563100
2.671200 0.557000
2.721000 0.549700
2.770800 0.528000
2.820600 0.507800
2.870400 0.476900
2.920300 0.472200
2.970100 0.486700
3.019900 0.506700
3.069700 0.679400
3.119600 0.799700
3.169400 0.732900
3.219200 0.729100
3.269000 0.745600
3.318900 0.757700
3.368700 0.770200
3.418500 0.842200
3.468300 0.782700
3.518100 0.726500
3.568000 0.684800
3.617800 0.647900
3.667600 0.627700
3.717400 0.620100
3.767300 0.590300
3.817100 0.564500
3.866900 0.542700
3.916700 0.524700
3.966600 0.511000
4.016400 0.569400
4.066200 0.578000
4.116000 0.611400
4.165800 0.656900
4.215700 0.696600
4.265500 0.754500
4.315300 0.751600
4.365100 0.755200
4.415000 0.711600
4.464800 0.717900
4.514600 0.722300
4.564400 0.716500
4.614300 0.718700
4.664100 0.728500
4.713900 0.727500
4.763700 0.713400
4.813500 0.712400
4.863400 0.716600
4.913200 0.726400
4.963000 0.740500
5.012800 0.754600
5.062700 0.775600
5.112500 0.801400
5.162300 0.830500
5.212100 0.864900
5.262000 0.928400
5.311800 0.983800
5.361600 1.059300
5.411400 1.181200
5.461200 1.536400
5.511100 1.865900
5.560900 2.551500
5.610700 4.519600
5.660500 2.602900
5.710400 1.859200
5.760200 1.527700
5.810000 1.277300
5.859800 1.138900
5.909700 1.063900
5.959500 1.003400
6.009300 0.950600
6.059100 0.917100
6.108900 0.896000
6.158800 0.883300
6.208600 0.868700
6.258400 0.845100
6.308200 0.839900
6.358100 0.824500
6.407900 0.815300
6.457700 0.807000
6.507500 0.796400
6.557400 0.794400
6.607200 0.781700
6.657000 0.769700
6.706800 0.763200
6.756600 0.759500
6.806500 0.758600
6.856300 0.760000
6.906100 0.763200
6.955900 0.767900
7.005800 0.771600
7.055600 0.781200
7.105400 0.791900
7.155200 0.810000
7.205100 0.820700
7.254900 0.830300
7.304700 0.834400
7.354500 0.838700
7.404300 0.841300
7.454200 0.850800
7.504000 0.871400
7.553800 0.879300
7.603600 0.889000
7.653500 0.901000
7.703300 0.909800
7.753100 0.921400
7.802900 0.936100
7.852800 0.935300
7.902600 0.960800
7.952400 0.916900
8.002200 0.916400
8.052000 0.921900
8.101900 0.929000
8.151700 0.939200
8.201500 0.922300
8.251300 0.912600
8.301200 0.908800
8.351000 0.906000
8.400800 0.900800
8.450600 0.894700
8.500500 0.889400
8.550300 0.884700
8.600100 0.880100
8.649900 0.875400
8.699700 0.873900
8.749600 0.876100
8.799400 0.879500
8.849200 0.885900
8.899000 0.893100
8.948900 0.899500
8.998700 0.906800
9.048500 0.911100
9.098300 0.908700
9.148200 0.905700
9.198000 0.902300
9.247800 0.898100
9.297600 0.893200
9.347400 0.887700
9.397300 0.881600
9.447100 0.876300
9.496900 0.874200
9.546700 0.874700
9.596600 0.879700
9.646400 0.884200
9.696200 0.888700
9.746000 0.893000
9.795900 0.896900
9.845700 0.902700
9.895500 0.905400
9.945300 0.906700
9.995100 0.906400
10.045000 0.906200
10.094800 0.905800
10.144600 0.905400
10.194400 0.902900
10.244300 0.905400
10.294100 0.910900
10.343900 0.917000
10.393700 0.923800
10.443600 0.931100
10.493400 0.934900
10.543200 0.937100
10.593000 0.937800
10.642800 0.939000
10.692700 0.941200
10.742500 0.941500
10.792300 0.910800
10.842100 0.910100
10.892000 0.909900
10.941800 0.910500
10.991600 0.912400
11.041400 0.915700
11.091300 0.920600
11.141100 0.928500
11.190900 0.938400
11.240700 0.954900
11.290500 0.971100
11.340400 0.990500
11.390200 1.017300
11.440000 1.069600
11.489800 1.126700
11.539700 1.163800
11.589500 1.187400
11.639300 1.202300
11.689100 1.201100
11.739000 1.168700
11.788800 1.113000
11.838600 1.036000
11.888400 0.983600
11.938200 0.983700
11.988100 0.968400
12.037900 0.964100
12.087700 0.953800
12.137500 0.939400
12.187400 0.926000
12.237200 0.972000
12.287000 0.981600
12.336800 0.962000
12.386700 0.910200
12.436500 0.834200
12.486300 0.815800
12.536100 0.805800
12.585900 0.789000
12.635800 0.812800
12.685600 0.846900
12.735400 0.896400
12.785200 0.956600
12.835100 1.016400
12.884900 1.079200
12.934700 1.131400
12.984500 1.116500
13.034400 1.055300
13.084200 1.074400
13.134000 1.089400
13.183800 1.128900
13.233600 1.169000
13.283500 1.203700
13.333300 1.237000
13.383100 1.270400
13.432900 1.287300
13.482800 1.271600
13.532600 1.336600
13.582400 1.470600
13.632200 1.431700
13.682100 1.228000
13.731900 1.081900
13.781700 1.015100
13.831500 0.943700
13.881300 0.882600
13.931200 0.898800
13.981000 0.927500
14.030800 0.961100
14.080600 0.996500
14.130500 1.025400
14.180300 1.056400
14.230100 1.090600
14.279900 1.004600
14.329800 0.954200
14.379600 0.962000
14.429400 1.060700
14.479200 1.065400
14.529000 0.987300
14.578900 0.990900
14.628700 1.015800
14.678500 1.047200
14.728300 1.112400
14.778200 1.238400
14.828000 1.289900
14.877800 1.330900
14.927600 1.384100
14.977500 1.328000
15.027300 1.287000
15.077100 1.283500
15.126900 1.258100
15.176700 1.250400
15.226600 1.240800
15.276400 1.227500
15.326200 1.216700
15.376000 1.209900
15.425900 1.218800
15.475700 1.237700
15.525500 1.249400
15.575300 1.246000
15.625200 1.224700
15.675000 1.177700
15.724800 1.167700
15.774600 1.184700
15.824400 1.219300
15.874300 1.269600
15.924100 1.315200
15.973900 1.320100
16.023700 1.263200
16.073600 1.213000
16.123400 1.209600
16.173200 1.204300
16.223000 1.187600
16.272900 1.154700
16.322700 1.107600
16.372500 1.067800
16.422300 1.038800
16.472100 1.014600
16.522000 1.015700
16.571800 1.042200
16.621600 1.063100
16.671400 1.099600
16.721300 1.133400
16.771100 1.154800
16.820900 1.177400
16.870700 1.251900
16.920600 1.337700
16.970400 1.371700
17.020200 1.396900
17.070000 1.382200
17.119900 1.367500
17.169700 1.344100
17.219500 1.315800
17.269300 1.294200
17.319100 1.279000
17.369000 1.272700
17.418800 1.257000
17.468600 1.239500
17.518400 1.234700
17.568300 1.260500
17.618100 1.292300
17.667900 1.321000
17.717700 1.347200
17.767600 1.360300
17.817400 1.418600
17.867200 1.335000
17.917000 1.285600
17.966800 1.243400
18.016700 1.208300
18.066500 1.180400
18.116300 1.160800
18.166100 1.141400
18.216000 1.114700
18.265800 1.086900
18.315600 1.082300
18.365400 1.084800
18.415300 1.095100
18.465100 1.126200
18.514900 1.148900
18.564700 1.172600
18.614500 1.185500
18.664400 1.209000
18.714200 1.296200
18.764000 1.378200
18.813800 1.365800
18.863700 1.357500
18.913500 1.350200
18.963300 1.354000
19.013100 1.372600
19.063000 1.447800
19.112800 1.373700
19.162600 1.380600
19.212400 1.397700
19.262200 1.424500
19.312100 1.420800
19.361900 1.426800
19.411700 1.430900
19.461500 1.445600
19.511400 1.451400
19.561200 1.450700
19.611000 1.520900
19.660800 1.467800
19.710700 1.441600
19.760500 1.380500
19.810300 1.307800
19.860100 1.260900
19.909900 1.221500
19.959800 1.209000
20.009600 1.178500
20.059400 1.139200
20.109200 1.126600
20.159100 1.123000
20.208900 1.078100
20.258700 1.066000
20.308500 1.055700
20.358400 1.047400
20.408200 1.042400
20.458000 1.039600
20.507800 1.031300
20.557600 1.023000
20.607500 1.025600
20.657300 1.028600
20.707100 1.033300
20.756900 1.039900
20.806800 1.027800
20.856600 1.066400
20.906400 1.088400
20.956200 1.254800
21.006100 1.282500
21.055900 1.298900
21.105700 1.246900
21.155500 1.176800
21.205300 1.157900
21.255200 1.149500
21.305000 1.144400
21.354800 1.123200
21.404600 1.114300
21.454500 1.084300
21.504300 1.044400
21.554100 1.028000
21.603900 1.011000
21.653800 1.018400
21.703600 0.964700
21.753400 0.957600
21.803200 0.953100
21.853000 0.954500
21.902900 0.957200
21.952700 0.961200
22.002500 0.977800
22.052300 1.038600
22.102200 1.099700
22.152000 1.156800
22.201800 1.127600
22.251600 1.071000
