set title 'mp-570562 - Density of States'
set xlabel 'Energy (eV)'
set ylabel 'DOS (states/eV)'
set grid
set xrange [-10:10]
set yrange [0:26.666]
set xzeroaxis lt -1
set terminal png size 800,600
set output 'mp-570562_dos_gnuplot.png'
plot '-' using 1:2 with lines title 'DOS'
-7.945200 0.000000
-7.929800 0.000000
-7.914500 0.000000
-7.899100 0.000000
-7.883800 0.000000
-7.868400 0.000000
-7.853100 0.000000
-7.837700 0.000000
-7.822400 0.000000
-7.807000 0.000000
-7.791700 0.000000
-7.776300 0.000000
-7.761000 0.000000
-7.745600 0.000000
-7.730300 0.000000
-7.714900 0.000000
-7.699600 0.000000
-7.684200 0.000000
-7.668900 0.000000
-7.653500 0.000000
-7.638200 0.000000
-7.622800 0.000000
-7.607500 0.000000
-7.592100 0.000000
-7.576800 0.000000
-7.561400 0.000000
-7.546100 0.000000
-7.530700 0.000000
-7.515400 0.000000
-7.500000 0.000000
-7.484600 0.000000
-7.469300 0.000000
-7.453900 0.000000
-7.438600 0.000000
-7.423200 0.000000
-7.407900 0.000000
-7.392500 0.000000
-7.377200 0.000000
-7.361800 0.000000
-7.346500 0.000000
-7.331100 0.000000
-7.315800 0.000000
-7.300400 0.000000
-7.285100 0.000000
-7.269700 0.000000
-7.254400 0.000000
-7.239000 0.000000
-7.223700 0.000000
-7.208300 0.000000
-7.193000 0.000000
-7.177600 0.000000
-7.162300 0.000000
-7.146900 0.000000
-7.131600 0.000000
-7.116200 0.000000
-7.100900 0.000000
-7.085500 0.000000
-7.070200 0.000000
-7.054800 0.000000
-7.039500 0.000000
-7.024100 0.000000
-7.008800 0.000000
-6.993400 0.000000
-6.978100 0.000000
-6.962700 0.000000
-6.947400 0.000000
-6.932000 0.000000
-6.916700 0.000000
-6.901300 0.000000
-6.886000 0.000000
-6.870600 0.000000
-6.855300 0.000000
-6.839900 0.000000
-6.824500 0.000000
-6.809200 0.000000
-6.793800 0.000000
-6.778500 0.000000
-6.763100 0.000000
-6.747800 0.000000
-6.732400 0.000000
-6.717100 0.000000
-6.701700 0.000000
-6.686400 0.000000
-6.671000 0.000000
-6.655700 0.000000
-6.640300 0.000000
-6.625000 0.000000
-6.609600 0.000000
-6.594300 0.000000
-6.578900 0.000000
-6.563600 0.000000
-6.548200 0.768100
-6.532900 0.719000
-6.517500 0.669500
-6.502200 0.672600
-6.486800 0.698400
-6.471500 0.724200
-6.456100 0.750100
-6.440800 0.769400
-6.425400 0.732900
-6.410100 0.696400
-6.394700 0.702500
-6.379400 0.715400
-6.364000 0.728300
-6.348700 0.741200
-6.333300 0.713200
-6.318000 0.723900
-6.302600 0.734500
-6.287300 0.745100
-6.271900 0.755800
-6.256600 0.766400
-6.241200 0.777000
-6.225900 0.769600
-6.210500 0.754700
-6.195200 0.748100
-6.179800 0.752100
-6.164400 0.861500
-6.149100 1.518400
-6.133700 1.467500
-6.118400 1.462000
-6.103000 1.496900
-6.087700 1.526800
-6.072300 1.556100
-6.057000 1.574800
-6.041600 1.543800
-6.026300 1.521400
-6.010900 1.529700
-5.995600 1.550400
-5.980200 1.571000
-5.964900 1.591600
-5.949500 1.571300
-5.934200 1.583000
-5.918800 1.591400
-5.903500 1.605700
-5.888100 1.621500
-5.872800 1.637200
-5.857400 1.645500
-5.842100 1.641500
-5.826700 1.634800
-5.811400 1.643500
-5.796000 1.654600
-5.780700 1.665700
-5.765300 1.677700
-5.750000 1.688100
-5.734600 1.702200
-5.719300 1.711000
-5.703900 1.719900
-5.688600 1.728800
-5.673200 2.176200
-5.657900 2.663600
-5.642500 2.574700
-5.627200 2.612800
-5.611800 2.658000
-5.596500 2.703700
-5.581100 2.719200
-5.565800 2.726400
-5.550400 2.737800
-5.535100 2.759000
-5.519700 2.789500
-5.504400 2.810800
-5.489000 2.813600
-5.473600 2.846500
-5.458300 2.879600
-5.442900 2.911000
-5.427600 2.939500
-5.412200 2.966400
-5.396900 2.991700
-5.381500 3.018900
-5.366200 3.047600
-5.350800 3.082300
-5.335500 3.116400
-5.320100 3.150800
-5.304800 3.181700
-5.289400 3.212800
-5.274100 3.245300
-5.258700 3.283400
-5.243400 3.326100
-5.228000 3.372000
-5.212700 3.444600
-5.197300 3.509200
-5.182000 3.570200
-5.166600 3.631500
-5.151300 3.984300
-5.135900 4.817800
-5.120600 5.151500
-5.105200 5.165500
-5.089900 5.315600
-5.074500 5.472500
-5.059200 5.614500
-5.043800 5.731400
-5.028500 5.792700
-5.013100 5.936800
-4.997800 6.341600
-4.982400 6.415000
-4.967100 6.507000
-4.951700 6.644600
-4.936400 6.801600
-4.921000 6.973900
-4.905700 7.982500
-4.890300 7.022400
-4.875000 7.006900
-4.859600 7.045800
-4.844300 7.127400
-4.828900 7.213400
-4.813500 7.345300
-4.798200 7.569600
-4.782800 7.821000
-4.767500 8.183600
-4.752100 8.754700
-4.736800 9.275200
-4.721400 9.132800
-4.706100 8.806800
-4.690700 8.950000
-4.675400 9.878500
-4.660000 9.250300
-4.644700 9.197400
-4.629300 8.351300
-4.614000 8.481000
-4.598600 8.485300
-4.583300 8.944700
-4.567900 9.265800
-4.552600 11.228600
-4.537200 12.396400
-4.521900 13.076200
-4.506500 13.101000
-4.491200 10.633800
-4.475800 10.040100
-4.460500 8.984000
-4.445100 6.513500
-4.429800 9.831000
-4.414400 16.251000
-4.399100 17.053900
-4.383700 15.959700
-4.368400 17.933700
-4.353000 14.221600
-4.337700 10.676000
-4.322300 5.638200
-4.307000 3.455600
-4.291600 4.529500
-4.276300 9.827900
-4.260900 12.745700
-4.245600 13.323800
-4.230200 6.668000
-4.214900 4.850400
-4.199500 4.142100
-4.184200 3.844400
-4.168800 3.646200
-4.153400 3.410600
-4.138100 3.355900
-4.122700 3.319400
-4.107400 3.295300
-4.092000 3.267400
-4.076700 3.226200
-4.061300 3.206000
-4.046000 3.168900
-4.030600 3.170000
-4.015300 3.209700
-3.999900 3.213600
-3.984600 3.194800
-3.969200 3.182900
-3.953900 3.190000
-3.938500 3.264200
-3.923200 3.220000
-3.907800 3.281700
-3.892500 3.215200
-3.877100 2.302900
-3.861800 0.000000
-3.846400 0.000000
-3.831100 0.000000
-3.815700 0.000000
-3.800400 0.000000
-3.785000 0.000000
-3.769700 0.000000
-3.754300 0.000000
-3.739000 0.000000
-3.723600 0.000000
-3.708300 0.000000
-3.692900 0.000000
-3.677600 0.000000
-3.662200 0.000000
-3.646900 0.000000
-3.631500 0.000000
-3.616200 0.000000
-3.600800 0.000000
-3.585500 0.000000
-3.570100 0.000000
-3.554800 0.000000
-3.539400 0.000000
-3.524100 0.000000
-3.508700 0.000000
-3.493300 0.000000
-3.478000 0.000000
-3.462600 0.000000
-3.447300 0.000000
-3.431900 0.000000
-3.416600 0.000000
-3.401200 0.000000
-3.385900 0.000000
-3.370500 0.000000
-3.355200 0.000000
-3.339800 0.000000
-3.324500 0.000000
-3.309100 0.000000
-3.293800 0.000000
-3.278400 0.000000
-3.263100 0.000000
-3.247700 0.000000
-3.232400 0.000000
-3.217000 0.000000
-3.201700 0.000000
-3.186300 0.000000
-3.171000 0.000000
-3.155600 0.000000
-3.140300 0.000000
-3.124900 0.000000
-3.109600 0.000000
-3.094200 0.000000
-3.078900 0.000000
-3.063500 0.000000
-3.048200 0.000000
-3.032800 0.000000
-3.017500 0.000000
-3.002100 0.000000
-2.986800 0.000000
-2.971400 0.000000
-2.956100 0.000000
-2.940700 0.000000
-2.925400 0.000000
-2.910000 0.000000
-2.894700 0.000000
-2.879300 0.000000
-2.864000 0.000000
-2.848600 0.000000
-2.833200 0.000000
-2.817900 0.000000
-2.802500 0.000000
-2.787200 0.000000
-2.771800 0.000000
-2.756500 0.000000
-2.741100 0.000000
-2.725800 0.000000
-2.710400 0.000000
-2.695100 0.000000
-2.679700 0.000000
-2.664400 0.000000
-2.649000 0.000000
-2.633700 0.000000
-2.618300 0.000000
-2.603000 0.000000
-2.587600 0.000000
-2.572300 0.000000
-2.556900 0.000000
-2.541600 0.000000
-2.526200 0.000000
-2.510900 0.000000
-2.495500 0.000000
-2.480200 0.000000
-2.464800 0.000000
-2.449500 0.000000
-2.434100 0.000000
-2.418800 0.000000
-2.403400 0.000000
-2.388100 0.000000
-2.372700 0.000000
-2.357400 0.000000
-2.342000 0.000000
-2.326700 0.000000
-2.311300 0.000000
-2.296000 0.000000
-2.280600 0.000000
-2.265300 0.000000
-2.249900 0.000000
-2.234600 0.000000
-2.219200 0.000000
-2.203900 0.000000
-2.188500 0.000000
-2.173100 0.000000
-2.157800 0.000000
-2.142400 0.000000
-2.127100 0.000000
-2.111700 0.000000
-2.096400 0.000000
-2.081000 0.000000
-2.065700 0.000000
-2.050300 0.000000
-2.035000 0.000000
-2.019600 0.000000
-2.004300 0.000000
-1.988900 0.000000
-1.973600 0.000000
-1.958200 0.000000
-1.942900 0.000000
-1.927500 0.000000
-1.912200 0.000000
-1.896800 0.000000
-1.881500 0.000000
-1.866100 0.000000
-1.850800 0.000000
-1.835400 0.000000
-1.820100 0.000000
-1.804700 0.000000
-1.789400 0.000000
-1.774000 0.000000
-1.758700 0.000000
-1.743300 0.000000
-1.728000 0.000000
-1.712600 0.000000
-1.697300 0.000000
-1.681900 0.000000
-1.666600 0.000000
-1.651200 0.000000
-1.635900 0.000000
-1.620500 0.000000
-1.605200 0.000000
-1.589800 0.000000
-1.574500 0.000000
-1.559100 0.000000
-1.543800 0.000000
-1.528400 0.000000
-1.513100 0.000000
-1.497700 0.000000
-1.482300 0.000000
-1.467000 0.000000
-1.451600 0.000000
-1.436300 0.000000
-1.420900 0.000000
-1.405600 0.000000
-1.390200 0.000000
-1.374900 0.000000
-1.359500 0.000000
-1.344200 0.000000
-1.328800 0.000000
-1.313500 0.000000
-1.298100 0.000000
-1.282800 0.000000
-1.267400 0.000000
-1.252100 0.000000
-1.236700 0.000000
-1.221400 0.000000
-1.206000 0.000000
-1.190700 0.000000
-1.175300 0.000000
-1.160000 0.000000
-1.144600 0.000000
-1.129300 0.000000
-1.113900 0.000000
-1.098600 0.000000
-1.083200 0.000000
-1.067900 0.000000
-1.052500 0.000000
-1.037200 0.000000
-1.021800 0.000000
-1.006500 0.000000
-0.991100 0.000000
-0.975800 0.000000
-0.960400 0.000000
-0.945100 0.000000
-0.929700 0.000000
-0.914400 0.000000
-0.899000 0.000000
-0.883700 0.000000
-0.868300 0.000000
-0.853000 0.000000
-0.837600 0.000000
-0.822200 0.000000
-0.806900 0.000000
-0.791500 0.000000
-0.776200 0.000000
-0.760800 0.000000
-0.745500 0.000000
-0.730100 0.000000
-0.714800 0.000000
-0.699400 0.000000
-0.684100 0.000000
-0.668700 0.000000
-0.653400 0.000000
-0.638000 0.000000
-0.622700 0.000000
-0.607300 0.000000
-0.592000 0.000000
-0.576600 0.000000
-0.561300 0.000000
-0.545900 0.000000
-0.530600 0.000000
-0.515200 0.000000
-0.499900 0.000000
-0.484500 0.000000
-0.469200 0.000000
-0.453800 0.000000
-0.438500 0.000000
-0.423100 0.000000
-0.407800 0.000000
-0.392400 0.000000
-0.377100 0.000000
-0.361700 0.000000
-0.346400 0.000000
-0.331000 0.000000
-0.315700 0.000000
-0.300300 0.000000
-0.285000 0.000000
-0.269600 0.000000
-0.254300 0.000000
-0.238900 0.000000
-0.223600 0.000000
-0.208200 0.000000
-0.192900 0.000000
-0.177500 0.000000
-0.162100 0.000000
-0.146800 0.000000
-0.131400 0.000000
-0.116100 0.000000
-0.100700 0.000000
-0.085400 0.000000
-0.070000 0.000000
-0.054700 0.000000
-0.039300 0.000000
-0.024000 0.000000
-0.008600 0.000000
0.006700 0.000000
0.022100 0.000000
0.037400 0.000000
0.052800 0.000000
0.068100 0.000000
0.083500 0.000000
0.098800 0.000000
0.114200 0.000000
0.129500 0.000000
0.144900 0.000000
0.160200 0.000000
0.175600 0.000000
0.190900 0.000000
0.206300 0.000000
0.221600 0.000000
0.237000 0.000000
0.252300 0.000000
0.267700 0.000000
0.283000 0.701900
0.298400 0.746000
0.313700 1.581600
0.329100 1.264000
0.344400 1.235400
0.359800 1.293100
0.375100 1.295900
0.390500 1.294800
0.405800 1.294900
0.421200 1.324900
0.436500 1.362400
0.451900 1.399900
0.467200 1.437500
0.482600 1.471200
0.498000 1.450600
0.513300 2.627700
0.528700 2.748600
0.544000 2.683100
0.559400 2.901200
0.574700 3.130300
0.590100 3.245600
0.605400 3.231300
0.620800 3.271900
0.636100 3.434200
0.651500 3.601800
0.666800 3.928800
0.682200 4.281900
0.697500 4.540600
0.712900 6.512900
0.728200 8.019600
0.743600 8.391700
0.758900 7.869200
0.774300 7.711400
0.789600 7.534200
0.805000 7.632100
0.820300 8.459700
0.835700 7.919500
0.851000 8.190400
0.866400 8.490400
0.881700 8.540400
0.897100 8.609300
0.912400 8.710400
0.927800 9.123200
0.943100 9.584700
0.958500 9.565600
0.973800 10.027700
0.989200 9.682700
1.004500 9.431700
1.019900 8.807500
1.035200 8.325000
1.050600 6.850800
1.065900 5.715100
1.081300 5.413300
1.096600 5.567000
1.112000 7.034400
1.127300 11.831300
1.142700 11.702600
1.158100 8.896600
1.173400 5.142700
1.188800 4.294000
1.204100 4.249000
1.219500 4.358000
1.234800 4.458900
1.250200 5.538600
1.265500 9.489900
1.280900 6.873000
1.296200 7.880100
1.311600 7.572700
1.326900 8.638500
1.342300 8.594900
1.357600 9.755900
1.373000 12.113600
1.388300 12.152700
1.403700 11.310800
1.419000 9.428300
1.434400 7.459500
1.449700 7.630100
1.465100 8.316300
1.480400 10.504700
1.495800 12.289700
1.511100 12.757800
1.526500 14.137100
1.541800 14.517800
1.557200 11.664100
1.572500 10.606800
1.587900 9.654000
1.603200 9.033200
1.618600 8.771600
1.633900 11.796600
1.649300 8.088500
1.664600 8.148300
1.680000 8.005300
1.695300 8.193900
1.710700 9.700500
1.726000 10.881900
1.741400 11.129700
1.756700 12.736500
1.772100 15.375500
1.787400 13.335500
1.802800 10.754100
1.818200 9.834700
1.833500 15.223000
1.848900 15.775800
1.864200 15.969000
1.879600 14.547400
1.894900 13.051600
1.910300 12.793100
1.925600 14.635500
1.941000 16.172800
1.956300 13.872900
1.971700 15.195000
1.987000 16.722300
2.002400 15.088600
2.017700 14.762100
2.033100 14.972000
2.048400 15.685500
2.063800 12.419500
2.079100 12.975000
2.094500 15.051100
2.109800 15.155900
2.125200 15.571000
2.140500 15.238700
2.155900 15.247300
2.171200 16.134600
2.186600 16.669100
2.201900 16.200900
2.217300 15.480800
2.232600 14.313700
2.248000 11.517300
2.263300 10.680100
2.278700 10.506700
2.294000 10.765500
2.309400 11.847900
2.324700 13.971600
2.340100 11.751500
2.355400 10.393500
2.370800 10.521700
2.386100 10.546300
2.401500 9.638900
2.416800 9.342400
2.432200 8.693800
2.447500 10.921000
2.462900 11.880000
2.478200 11.972000
2.493600 10.733400
2.509000 8.169500
2.524300 6.576300
2.539700 6.049200
2.555000 6.300000
2.570400 6.907500
2.585700 7.465700
2.601100 8.031700
2.616400 8.170100
2.631800 8.114100
2.647100 7.516300
2.662500 6.905500
2.677800 8.062000
2.693200 9.995800
2.708500 11.644100
2.723900 12.298000
2.739200 12.861500
2.754600 14.782400
2.769900 14.260400
2.785300 12.508500
2.800600 11.600300
2.816000 13.225200
2.831300 13.177900
2.846700 12.741300
2.862000 12.505200
2.877400 15.202500
2.892700 13.893900
2.908100 14.591600
2.923400 16.244200
2.938800 17.152200
2.954100 17.962600
2.969500 17.078600
2.984800 16.613600
3.000200 15.583300
3.015500 16.722500
3.030900 14.610000
3.046200 15.847400
3.061600 19.091700
3.076900 18.309400
3.092300 18.481700
3.107600 15.502600
3.123000 14.209200
3.138300 14.680200
3.153700 15.882400
3.169100 16.871000
3.184400 15.645700
3.199800 15.261300
3.215100 18.246800
3.230500 16.580400
3.245800 16.094000
3.261200 15.239900
3.276500 14.689600
3.291900 14.414200
3.307200 12.270300
3.322600 11.110700
3.337900 9.740600
3.353300 8.149800
3.368600 5.973200
3.384000 4.261900
3.399300 5.742100
3.414700 6.721900
3.430000 7.878400
3.445400 9.845400
3.460700 14.098500
3.476100 12.958500
3.491400 12.800500
3.506800 10.650200
3.522100 15.584200
3.537500 10.075900
3.552800 10.635500
3.568200 9.558800
3.583500 6.810000
3.598900 7.704400
3.614200 9.072000
3.629600 10.680200
3.644900 11.428100
3.660300 12.183200
3.675600 15.812100
3.691000 23.016900
3.706300 23.846700
3.721700 23.763500
3.737000 23.372700
3.752400 24.242000
3.767700 23.053000
3.783100 22.551200
3.798400 22.963700
3.813800 18.377000
3.829200 14.896700
3.844500 17.052600
3.859900 13.735300
3.875200 14.201100
3.890600 13.577000
3.905900 11.095900
3.921300 9.852900
3.936600 7.475500
3.952000 7.848100
3.967300 8.227300
3.982700 8.957900
3.998000 8.164200
4.013400 7.664200
4.028700 6.853800
4.044100 6.102900
4.059400 5.896100
4.074800 5.316800
4.090100 5.058400
4.105500 7.051000
4.120800 9.417100
4.136200 10.240400
4.151500 9.940800
4.166900 7.287700
4.182200 6.426400
4.197600 6.160300
4.212900 6.412600
4.228300 6.654300
4.243600 7.194400
4.259000 8.134300
4.274300 8.693300
4.289700 8.772900
4.305000 9.440200
4.320400 9.272100
4.335700 11.930700
4.351100 13.035600
4.366400 19.371000
4.381800 13.832400
4.397100 11.936500
4.412500 11.296400
4.427800 11.711500
4.443200 12.133300
4.458500 11.320700
4.473900 10.834200
4.489300 11.787900
4.504600 13.821500
4.520000 13.927700
4.535300 13.728200
4.550700 13.387200
4.566000 12.308200
4.581400 11.649400
4.596700 12.021400
4.612100 12.005800
4.627400 12.247200
4.642800 11.575700
4.658100 15.827500
4.673500 14.246400
4.688800 13.864400
4.704200 13.279700
4.719500 10.805200
4.734900 10.457000
4.750200 12.504100
4.765600 13.671700
4.780900 14.169400
4.796300 12.745600
4.811600 11.306500
4.827000 10.580800
4.842300 9.980000
4.857700 9.603800
4.873000 9.406600
4.888400 9.370100
4.903700 9.451300
4.919100 10.587200
4.934400 11.590100
4.949800 12.088400
4.965100 12.472400
4.980500 12.509900
4.995800 12.930200
5.011200 14.050700
5.026500 14.263700
5.041900 15.830300
5.057200 14.071700
5.072600 14.936800
5.087900 20.450200
5.103300 10.997400
5.118600 10.977000
5.134000 11.020700
5.149400 10.907500
5.164700 10.985900
5.180100 11.110200
5.195400 11.205900
5.210800 11.247000
5.226100 11.176800
5.241500 11.105500
5.256800 11.068200
5.272200 11.105400
5.287500 11.947800
5.302900 14.585000
5.318200 17.099000
5.333600 16.088200
5.348900 15.598100
5.364300 9.967300
5.379600 9.827200
5.395000 9.133700
5.410300 8.912300
5.425700 9.227200
5.441000 10.900300
5.456400 9.181900
5.471700 8.066700
5.487100 8.044800
5.502400 8.058500
5.517800 8.515400
5.533100 8.985900
5.548500 8.942600
5.563800 8.756400
5.579200 8.509600
5.594500 8.318200
5.609900 8.048500
5.625200 7.671300
5.640600 6.370100
5.655900 6.126400
5.671300 5.882800
5.686600 5.658800
5.702000 5.471300
5.717300 5.341000
5.732700 5.262100
5.748000 5.328100
5.763400 5.395500
5.778700 5.463300
5.794100 5.528600
5.809400 5.655400
5.824800 5.730100
5.840200 5.791700
5.855500 5.840200
5.870900 5.880800
5.886200 5.917300
5.901600 5.946600
5.916900 5.965100
5.932300 6.014600
5.947600 5.986200
5.963000 6.023400
5.978300 6.106500
5.993700 6.201000
6.009000 6.471900
6.024400 6.581500
6.039700 6.792900
6.055100 6.981700
6.070400 7.222400
6.085800 7.244900
6.101100 7.432600
6.116500 9.028600
6.131800 6.805300
6.147200 6.845900
6.162500 6.315700
6.177900 6.022200
6.193200 5.810700
6.208600 5.590600
6.223900 5.368500
6.239300 5.217100
6.254600 5.158200
6.270000 5.081100
6.285300 4.976400
6.300700 4.896200
6.316000 4.947300
6.331400 4.688100
6.346700 4.543100
6.362100 4.488400
6.377400 4.455000
6.392800 4.371700
6.408100 4.325700
6.423500 4.265100
6.438800 4.186300
6.454200 4.097800
6.469500 4.009500
6.484900 3.922000
6.500300 3.833600
6.515600 3.476800
6.531000 3.418800
6.546300 3.411200
6.561700 3.407400
6.577000 3.402400
6.592400 3.389700
6.607700 3.370600
6.623100 3.349200
6.638400 3.336700
6.653800 3.338000
6.669100 3.326400
6.684500 3.317000
6.699800 3.310000
6.715200 3.402700
6.730500 3.523600
6.745900 3.613900
6.761200 3.673800
6.776600 3.520600
6.791900 3.420200
6.807300 3.355700
6.822600 3.305800
6.838000 3.266600
6.853300 3.231900
6.868700 3.197600
6.884000 3.159400
6.899400 3.119700
6.914700 3.161200
6.930100 3.205000
6.945400 3.192600
6.960800 3.133400
6.976100 2.854400
6.991500 2.859400
7.006800 2.865000
7.022200 2.913600
7.037500 2.942300
7.052900 2.957000
7.068200 3.005100
7.083600 2.959200
7.098900 2.661200
7.114300 2.627000
7.129600 2.605600
7.145000 2.591600
7.160400 2.579500
7.175700 2.571800
7.191100 2.601400
7.206400 2.634000
7.221800 2.669500
7.237100 2.718600
7.252500 2.784900
7.267800 2.861500
7.283200 3.015300
7.298500 3.179400
7.313900 3.350500
7.329200 3.638900
7.344600 3.890100
7.359900 3.969600
7.375300 4.231300
7.390600 4.524600
7.406000 5.035200
7.421300 6.094500
7.436700 5.944600
7.452000 6.207700
7.467400 6.775700
7.482700 7.056900
7.498100 7.700400
7.513400 8.053500
7.528800 8.306600
7.544100 8.641100
7.559500 9.975600
7.574800 9.272700
7.590200 8.473500
7.605500 7.863500
7.620900 7.197100
7.636200 6.629800
7.651600 6.423400
7.666900 5.688600
7.682300 5.143600
7.697600 4.494400
7.713000 4.320800
7.728300 4.171900
7.743700 4.005500
7.759000 3.839500
7.774400 3.706600
7.789700 3.666000
7.805100 3.647100
7.820500 3.637800
7.835800 3.647100
7.851200 3.687300
7.866500 3.771600
7.881900 3.924000
7.897200 4.194900
7.912600 4.585300
7.927900 5.088600
7.943300 5.881200
7.958600 7.235300
7.974000 10.268900
7.989300 10.332800
8.004700 7.798700
8.020000 6.061800
8.035400 4.920900
8.050700 4.342200
8.066100 4.413100
8.081400 4.927300
8.096800 4.817900
8.112100 4.673100
8.127500 4.492600
8.142800 5.047200
8.158200 5.652000
8.173500 5.885100
8.188900 5.037500
8.204200 5.406200
8.219600 6.041500
8.234900 6.472200
