set title 'mp-1232344 - Density of States'
set xlabel 'Energy (eV)'
set ylabel 'DOS (states/eV)'
set grid
set xrange [-10:10]
set yrange [0:8.545]
set xzeroaxis lt -1
set terminal png size 800,600
set output 'mp-1232344_dos_gnuplot.png'
plot '-' using 1:2 with lines title 'DOS'
-40.565300 0.000000
-40.521800 0.000000
-40.478300 0.000000
-40.434700 0.000000
-40.391200 0.000000
-40.347600 0.000000
-40.304100 0.000000
-40.260600 0.000000
-40.217000 0.000000
-40.173500 0.000000
-40.130000 0.000000
-40.086400 0.000000
-40.042900 0.000000
-39.999300 0.000000
-39.955800 0.000000
-39.912300 0.000000
-39.868700 0.000000
-39.825200 0.000000
-39.781700 0.000000
-39.738100 0.000000
-39.694600 0.000000
-39.651000 0.000000
-39.607500 0.000000
-39.564000 0.000000
-39.520400 0.000000
-39.476900 0.000000
-39.433400 0.000000
-39.389800 0.000000
-39.346300 0.000000
-39.302800 0.000000
-39.259200 0.000000
-39.215700 0.000000
-39.172100 0.000000
-39.128600 0.000000
-39.085100 0.000000
-39.041500 0.000000
-38.998000 0.000000
-38.954500 0.000000
-38.910900 0.000000
-38.867400 0.000000
-38.823800 0.000000
-38.780300 0.000000
-38.736800 0.000000
-38.693200 0.000000
-38.649700 0.000000
-38.606200 0.000000
-38.562600 0.000000
-38.519100 0.000000
-38.475500 0.000000
-38.432000 0.000000
-38.388500 0.000000
-38.344900 0.000000
-38.301400 0.000000
-38.257900 0.000000
-38.214300 0.000000
-38.170800 0.000000
-38.127300 0.000000
-38.083700 0.000000
-38.040200 0.000000
-37.996600 0.000000
-37.953100 0.000000
-37.909600 0.000000
-37.866000 0.000000
-37.822500 0.000000
-37.779000 0.000000
-37.735400 0.000000
-37.691900 0.000000
-37.648300 0.000000
-37.604800 0.000000
-37.561300 0.000000
-37.517700 0.000000
-37.474200 0.000000
-37.430700 0.000000
-37.387100 0.000000
-37.343600 0.000000
-37.300000 0.000000
-37.256500 0.000000
-37.213000 0.000000
-37.169400 0.000000
-37.125900 0.000000
-37.082400 0.000000
-37.038800 0.000000
-36.995300 0.000000
-36.951800 0.000000
-36.908200 0.000000
-36.864700 0.000000
-36.821100 0.000000
-36.777600 0.000000
-36.734100 0.000000
-36.690500 0.000000
-36.647000 0.000000
-36.603500 5.268500
-36.559900 8.008700
-36.516400 16.490600
-36.472800 15.471100
-36.429300 0.000000
-36.385800 6.874800
-36.342200 5.225100
-36.298700 5.955200
-36.255200 7.633300
-36.211600 12.281100
-36.168100 10.073100
-36.124500 8.070900
-36.081000 7.122300
-36.037500 0.000000
-35.993900 0.000000
-35.950400 0.000000
-35.906900 0.000000
-35.863300 0.000000
-35.819800 0.000000
-35.776200 0.000000
-35.732700 0.000000
-35.689200 0.000000
-35.645600 0.000000
-35.602100 0.000000
-35.558600 0.000000
-35.515000 0.000000
-35.471500 0.000000
-35.428000 0.000000
-35.384400 0.000000
-35.340900 0.000000
-35.297300 0.000000
-35.253800 0.000000
-35.210300 0.000000
-35.166700 0.000000
-35.123200 0.000000
-35.079700 0.000000
-35.036100 0.000000
-34.992600 0.000000
-34.949000 0.000000
-34.905500 0.000000
-34.862000 0.000000
-34.818400 0.000000
-34.774900 0.000000
-34.731400 0.000000
-34.687800 0.000000
-34.644300 0.000000
-34.600700 0.000000
-34.557200 0.000000
-34.513700 0.000000
-34.470100 0.000000
-34.426600 0.000000
-34.383100 0.000000
-34.339500 0.000000
-34.296000 0.000000
-34.252500 0.000000
-34.208900 0.000000
-34.165400 0.000000
-34.121800 0.000000
-34.078300 0.000000
-34.034800 0.000000
-33.991200 0.000000
-33.947700 0.000000
-33.904200 0.000000
-33.860600 0.000000
-33.817100 0.000000
-33.773500 0.000000
-33.730000 0.000000
-33.686500 0.000000
-33.642900 0.000000
-33.599400 0.000000
-33.555900 0.000000
-33.512300 0.000000
-33.468800 0.000000
-33.425200 0.000000
-33.381700 0.000000
-33.338200 0.000000
-33.294600 0.000000
-33.251100 0.000000
-33.207600 0.000000
-33.164000 0.000000
-33.120500 0.000000
-33.077000 0.000000
-33.033400 0.000000
-32.989900 0.000000
-32.946300 0.000000
-32.902800 0.000000
-32.859300 0.000000
-32.815700 0.000000
-32.772200 0.000000
-32.728700 0.000000
-32.685100 0.000000
-32.641600 0.000000
-32.598000 0.000000
-32.554500 0.000000
-32.511000 0.000000
-32.467400 0.000000
-32.423900 0.000000
-32.380400 0.000000
-32.336800 0.000000
-32.293300 0.000000
-32.249700 0.000000
-32.206200 0.000000
-32.162700 0.000000
-32.119100 0.000000
-32.075600 0.000000
-32.032100 0.000000
-31.988500 0.000000
-31.945000 0.000000
-31.901500 0.000000
-31.857900 0.000000
-31.814400 0.000000
-31.770800 0.000000
-31.727300 0.000000
-31.683800 0.000000
-31.640200 0.000000
-31.596700 0.000000
-31.553200 0.000000
-31.509600 0.000000
-31.466100 0.000000
-31.422500 0.000000
-31.379000 0.000000
-31.335500 0.000000
-31.291900 0.000000
-31.248400 0.000000
-31.204900 0.000000
-31.161300 0.000000
-31.117800 0.000000
-31.074200 0.000000
-31.030700 0.000000
-30.987200 0.000000
-30.943600 0.000000
-30.900100 0.000000
-30.856600 0.000000
-30.813000 0.000000
-30.769500 0.000000
-30.726000 0.000000
-30.682400 0.000000
-30.638900 0.000000
-30.595300 0.000000
-30.551800 0.000000
-30.508300 0.000000
-30.464700 0.000000
-30.421200 0.000000
-30.377700 0.000000
-30.334100 0.000000
-30.290600 0.000000
-30.247000 0.000000
-30.203500 0.000000
-30.160000 0.000000
-30.116400 0.000000
-30.072900 0.000000
-30.029400 0.000000
-29.985800 0.000000
-29.942300 0.000000
-29.898700 0.000000
-29.855200 0.000000
-29.811700 0.000000
-29.768100 0.000000
-29.724600 0.000000
-29.681100 0.000000
-29.637500 0.000000
-29.594000 0.000000
-29.550500 0.000000
-29.506900 0.000000
-29.463400 0.000000
-29.419800 0.000000
-29.376300 0.000000
-29.332800 0.000000
-29.289200 0.000000
-29.245700 0.000000
-29.202200 0.000000
-29.158600 0.000000
-29.115100 0.000000
-29.071500 0.000000
-29.028000 0.000000
-28.984500 0.000000
-28.940900 0.000000
-28.897400 0.000000
-28.853900 0.000000
-28.810300 0.000000
-28.766800 0.000000
-28.723200 0.000000
-28.679700 0.000000
-28.636200 0.000000
-28.592600 0.000000
-28.549100 0.000000
-28.505600 0.000000
-28.462000 0.000000
-28.418500 0.000000
-28.375000 0.000000
-28.331400 0.000000
-28.287900 0.000000
-28.244300 0.000000
-28.200800 0.000000
-28.157300 0.000000
-28.113700 0.000000
-28.070200 0.000000
-28.026700 0.000000
-27.983100 0.000000
-27.939600 0.000000
-27.896000 0.000000
-27.852500 0.000000
-27.809000 0.000000
-27.765400 0.000000
-27.721900 0.000000
-27.678400 0.000000
-27.634800 0.000000
-27.591300 0.000000
-27.547700 0.000000
-27.504200 0.000000
-27.460700 0.000000
-27.417100 0.000000
-27.373600 0.000000
-27.330100 0.000000
-27.286500 0.000000
-27.243000 0.000000
-27.199500 0.000000
-27.155900 0.000000
-27.112400 0.000000
-27.068800 0.000000
-27.025300 0.000000
-26.981800 0.000000
-26.938200 0.000000
-26.894700 0.000000
-26.851200 0.000000
-26.807600 0.000000
-26.764100 0.000000
-26.720500 0.000000
-26.677000 0.000000
-26.633500 0.000000
-26.589900 0.000000
-26.546400 0.000000
-26.502900 0.000000
-26.459300 0.000000
-26.415800 0.000000
-26.372200 0.000000
-26.328700 0.000000
-26.285200 0.000000
-26.241600 0.000000
-26.198100 0.000000
-26.154600 0.000000
-26.111000 0.000000
-26.067500 0.000000
-26.024000 0.000000
-25.980400 0.000000
-25.936900 0.000000
-25.893300 0.000000
-25.849800 0.000000
-25.806300 0.000000
-25.762700 0.000000
-25.719200 0.000000
-25.675700 0.000000
-25.632100 0.000000
-25.588600 0.000000
-25.545000 0.000000
-25.501500 0.000000
-25.458000 0.000000
-25.414400 0.000000
-25.370900 0.000000
-25.327400 0.000000
-25.283800 0.000000
-25.240300 0.000000
-25.196700 0.000000
-25.153200 0.000000
-25.109700 0.000000
-25.066100 0.000000
-25.022600 0.000000
-24.979100 0.000000
-24.935500 0.000000
-24.892000 0.000000
-24.848500 0.000000
-24.804900 0.000000
-24.761400 0.000000
-24.717800 0.000000
-24.674300 0.000000
-24.630800 0.000000
-24.587200 0.000000
-24.543700 0.000000
-24.500200 0.000000
-24.456600 0.000000
-24.413100 0.000000
-24.369500 0.000000
-24.326000 0.000000
-24.282500 0.000000
-24.238900 0.000000
-24.195400 0.000000
-24.151900 0.000000
-24.108300 0.000000
-24.064800 0.000000
-24.021200 0.000000
-23.977700 0.000000
-23.934200 0.000000
-23.890600 0.000000
-23.847100 0.000000
-23.803600 0.000000
-23.760000 0.000000
-23.716500 0.000000
-23.673000 0.000000
-23.629400 0.000000
-23.585900 0.000000
-23.542300 0.000000
-23.498800 0.000000
-23.455300 0.000000
-23.411700 0.000000
-23.368200 0.000000
-23.324700 0.000000
-23.281100 0.000000
-23.237600 0.000000
-23.194000 0.000000
-23.150500 0.000000
-23.107000 0.000000
-23.063400 0.000000
-23.019900 0.000000
-22.976400 0.000000
-22.932800 0.000000
-22.889300 0.000000
-22.845700 0.000000
-22.802200 0.000000
-22.758700 0.000000
-22.715100 0.000000
-22.671600 0.000000
-22.628100 0.000000
-22.584500 0.000000
-22.541000 0.000000
-22.497500 0.000000
-22.453900 0.000000
-22.410400 0.000000
-22.366800 0.000000
-22.323300 0.000000
-22.279800 0.000000
-22.236200 0.000000
-22.192700 0.000000
-22.149200 0.000000
-22.105600 0.000000
-22.062100 0.000000
-22.018500 0.000000
-21.975000 0.000000
-21.931500 0.000000
-21.887900 0.000000
-21.844400 0.000000
-21.800900 0.000000
-21.757300 0.000000
-21.713800 0.000000
-21.670200 0.000000
-21.626700 0.000000
-21.583200 0.000000
-21.539600 0.000000
-21.496100 0.000000
-21.452600 0.000000
-21.409000 0.000000
-21.365500 0.000000
-21.322000 0.000000
-21.278400 0.000000
-21.234900 0.000000
-21.191300 0.000000
-21.147800 0.000000
-21.104300 0.000000
-21.060700 0.000000
-21.017200 0.000000
-20.973700 0.000000
-20.930100 0.000000
-20.886600 0.000000
-20.843000 0.000000
-20.799500 0.000000
-20.756000 0.000000
-20.712400 0.000000
-20.668900 0.000000
-20.625400 0.000000
-20.581800 0.000000
-20.538300 0.000000
-20.494700 0.000000
-20.451200 0.000000
-20.407700 0.000000
-20.364100 0.000000
-20.320600 0.000000
-20.277100 0.000000
-20.233500 0.000000
-20.190000 0.000000
-20.146500 0.000000
-20.102900 0.000000
-20.059400 0.000000
-20.015800 0.000000
-19.972300 0.000000
-19.928800 0.000000
-19.885200 0.000000
-19.841700 0.000000
-19.798200 0.000000
-19.754600 0.000000
-19.711100 0.000000
-19.667500 0.000000
-19.624000 0.000000
-19.580500 0.000000
-19.536900 0.000000
-19.493400 0.000000
-19.449900 0.000000
-19.406300 0.000000
-19.362800 0.000000
-19.319200 0.000000
-19.275700 0.000000
-19.232200 0.000000
-19.188600 0.000000
-19.145100 0.000000
-19.101600 0.000000
-19.058000 0.000000
-19.014500 0.000000
-18.971000 0.000000
-18.927400 0.000000
-18.883900 0.000000
-18.840300 0.000000
-18.796800 0.000000
-18.753300 0.000000
-18.709700 0.000000
-18.666200 0.000000
-18.622700 0.000000
-18.579100 0.000000
-18.535600 0.000000
-18.492000 0.000000
-18.448500 0.000000
-18.405000 0.000000
-18.361400 0.000000
-18.317900 0.000000
-18.274400 0.000000
-18.230800 0.000000
-18.187300 0.000000
-18.143700 0.000000
-18.100200 0.000000
-18.056700 0.000000
-18.013100 0.000000
-17.969600 0.000000
-17.926100 0.000000
-17.882500 0.000000
-17.839000 0.000000
-17.795500 0.000000
-17.751900 0.000000
-17.708400 0.000000
-17.664800 0.000000
-17.621300 0.000000
-17.577800 0.000000
-17.534200 0.000000
-17.490700 0.000000
-17.447200 0.000000
-17.403600 0.000000
-17.360100 0.000000
-17.316500 0.000000
-17.273000 0.000000
-17.229500 0.000000
-17.185900 0.000000
-17.142400 0.000000
-17.098900 0.000000
-17.055300 0.000000
-17.011800 0.000000
-16.968200 0.000000
-16.924700 0.000000
-16.881200 0.000000
-16.837600 0.000000
-16.794100 0.000000
-16.750600 0.000000
-16.707000 0.000000
-16.663500 0.000000
-16.620000 0.000000
-16.576400 0.000000
-16.532900 0.000000
-16.489300 0.000000
-16.445800 0.000000
-16.402300 0.000000
-16.358700 0.000000
-16.315200 0.000000
-16.271700 0.000000
-16.228100 0.000000
-16.184600 0.000000
-16.141000 0.000000
-16.097500 0.000000
-16.054000 0.000000
-16.010400 0.000000
-15.966900 0.000000
-15.923400 0.000000
-15.879800 0.000000
-15.836300 0.000000
-15.792700 0.000000
-15.749200 0.000000
-15.705700 0.000000
-15.662100 0.000000
-15.618600 0.000000
-15.575100 0.000000
-15.531500 0.000000
-15.488000 0.000000
-15.444500 0.000000
-15.400900 0.000000
-15.357400 0.000000
-15.313800 0.000000
-15.270300 0.000000
-15.226800 0.000000
-15.183200 0.000000
-15.139700 0.000000
-15.096200 0.000000
-15.052600 0.000000
-15.009100 0.000000
-14.965500 0.000000
-14.922000 0.000000
-14.878500 0.000000
-14.834900 0.000000
-14.791400 0.000000
-14.747900 0.000000
-14.704300 0.000000
-14.660800 0.000000
-14.617200 0.000000
-14.573700 0.000000
-14.530200 0.000000
-14.486600 0.000000
-14.443100 0.000000
-14.399600 0.000000
-14.356000 0.000000
-14.312500 0.000000
-14.269000 0.000000
-14.225400 0.000000
-14.181900 0.000000
-14.138300 0.000000
-14.094800 0.000000
-14.051300 0.000000
-14.007700 0.000000
-13.964200 0.000000
-13.920700 0.000000
-13.877100 0.000000
-13.833600 0.000000
-13.790000 0.000000
-13.746500 0.000000
-13.703000 0.000000
-13.659400 0.000000
-13.615900 0.000000
-13.572400 0.000000
-13.528800 0.000000
-13.485300 0.000000
-13.441700 0.000000
-13.398200 0.000000
-13.354700 0.000000
-13.311100 0.000000
-13.267600 0.000000
-13.224100 0.000000
-13.180500 0.000000
-13.137000 0.000000
-13.093400 0.000000
-13.049900 0.000000
-13.006400 0.000000
-12.962800 0.000000
-12.919300 0.000000
-12.875800 0.000000
-12.832200 0.000000
-12.788700 0.000000
-12.745200 0.000000
-12.701600 0.000000
-12.658100 0.000000
-12.614500 0.000000
-12.571000 0.000000
-12.527500 0.000000
-12.483900 0.000000
-12.440400 0.000000
-12.396900 0.000000
-12.353300 0.000000
-12.309800 0.000000
-12.266200 0.000000
-12.222700 0.000000
-12.179200 0.000000
-12.135600 0.000000
-12.092100 0.000000
-12.048600 0.000000
-12.005000 0.000000
-11.961500 0.000000
-11.917900 0.000000
-11.874400 0.000000
-11.830900 0.000000
-11.787300 0.000000
-11.743800 0.000000
-11.700300 0.000000
-11.656700 0.000000
-11.613200 0.000000
-11.569700 0.000000
-11.526100 0.000000
-11.482600 0.000000
-11.439000 0.000000
-11.395500 0.000000
-11.352000 0.000000
-11.308400 0.000000
-11.264900 0.000000
-11.221400 0.000000
-11.177800 0.000000
-11.134300 0.000000
-11.090700 0.000000
-11.047200 0.000000
-11.003700 0.000000
-10.960100 0.000000
-10.916600 0.000000
-10.873100 0.000000
-10.829500 0.000000
-10.786000 0.000000
-10.742400 0.000000
-10.698900 0.000000
-10.655400 0.000000
-10.611800 0.000000
-10.568300 0.000000
-10.524800 0.000000
-10.481200 0.000000
-10.437700 0.000000
-10.394200 0.000000
-10.350600 0.000000
-10.307100 0.154200
-10.263500 0.447000
-10.220000 0.381500
-10.176500 0.423800
-10.132900 0.449200
-10.089400 0.413500
-10.045900 0.413000
-10.002300 0.429700
-9.958800 0.446300
-9.915200 0.454300
-9.871700 0.439500
-9.828200 0.440600
-9.784600 0.443600
-9.741100 0.453300
-9.697600 0.463400
-9.654000 0.473600
-9.610500 0.476500
-9.566900 0.469800
-9.523400 0.475000
-9.479900 0.480900
-9.436300 0.486700
-9.392800 0.494000
-9.349300 0.502200
-9.305700 0.510400
-9.262200 0.515800
-9.218700 0.519200
-9.175100 0.524500
-9.131600 0.532000
-9.088000 0.540000
-9.044500 0.548000
-9.001000 0.555900
-8.957400 0.564500
-8.913900 0.573200
-8.870400 0.584100
-8.826800 0.597200
-8.783300 0.609200
-8.739700 0.621100
-8.696200 0.633700
-8.652700 0.646400
-8.609100 0.799400
-8.565600 0.997400
-8.522100 1.164800
-8.478500 1.160600
-8.435000 1.212900
-8.391400 1.224400
-8.347900 1.242900
-8.304400 1.290000
-8.260800 1.341700
-8.217300 1.370100
-8.173800 1.390800
-8.130200 1.432600
-8.086700 1.551200
-8.043200 1.688500
-7.999600 1.845000
-7.956100 2.176200
-7.912500 2.678100
-7.869000 1.894800
-7.825500 1.649900
-7.781900 1.866500
-7.738400 1.640800
-7.694900 1.447900
-7.651300 1.435300
-7.607800 1.389000
-7.564200 1.428400
-7.520700 1.141000
-7.477200 0.528700
-7.433600 0.535400
-7.390100 0.542100
-7.346600 0.548800
-7.303000 0.556000
-7.259500 0.563800
-7.215900 0.571500
-7.172400 0.579600
-7.128900 0.588600
-7.085300 0.597600
-7.041800 0.607300
-6.998300 0.617800
-6.954700 0.628200
-6.911200 0.638700
-6.867700 0.649200
-6.824100 0.660600
-6.780600 0.687300
-6.737000 0.710900
-6.693500 0.732900
-6.650000 0.754900
-6.606400 0.778000
-6.562900 0.804600
-6.519400 0.831300
-6.475800 0.857900
-6.432300 0.889200
-6.388700 0.983500
-6.345200 1.073100
-6.301700 1.182100
-6.258100 1.341100
-6.214600 1.610500
-6.171100 1.926100
-6.127500 1.407000
-6.084000 1.340400
-6.040400 1.252800
-5.996900 1.033900
-5.953400 0.878100
-5.909800 0.879400
-5.866300 0.900500
-5.822800 0.824100
-5.779200 0.553100
-5.735700 0.000000
-5.692200 0.000000
-5.648600 0.000000
-5.605100 0.000000
-5.561500 0.000000
-5.518000 0.000000
-5.474500 0.000000
-5.430900 0.000000
-5.387400 0.000000
-5.343900 0.000000
-5.300300 0.000000
-5.256800 0.000000
-5.213200 0.000000
-5.169700 0.000000
-5.126200 0.000000
-5.082600 0.000000
-5.039100 0.000000
-4.995600 0.000000
-4.952000 0.000000
-4.908500 0.000000
-4.864900 0.000000
-4.821400 0.000000
-4.777900 0.000000
-4.734300 0.000000
-4.690800 0.000000
-4.647300 0.000000
-4.603700 0.000000
-4.560200 0.000000
-4.516700 0.000000
-4.473100 0.000000
-4.429600 0.000000
-4.386000 0.000000
-4.342500 0.000000
-4.299000 0.000000
-4.255400 0.000000
-4.211900 0.000000
-4.168400 0.000000
-4.124800 0.000000
-4.081300 0.000000
-4.037700 0.000000
-3.994200 0.000000
-3.950700 0.000000
-3.907100 0.000000
-3.863600 0.000000
-3.820100 0.000000
-3.776500 0.000000
-3.733000 0.000000
-3.689400 0.000000
-3.645900 0.000000
-3.602400 0.000000
-3.558800 0.000000
-3.515300 0.000000
-3.471800 0.000000
-3.428200 0.000000
-3.384700 0.000000
-3.341200 0.000000
-3.297600 0.000000
-3.254100 0.000000
-3.210500 0.000000
-3.167000 0.000000
-3.123500 0.000000
-3.079900 0.000000
-3.036400 0.000000
-2.992900 0.000000
-2.949300 0.000000
-2.905800 0.000000
-2.862200 0.000000
-2.818700 0.000000
-2.775200 0.000000
-2.731600 0.000000
-2.688100 0.000000
-2.644600 0.000000
-2.601000 0.000000
-2.557500 0.000000
-2.513900 0.000000
-2.470400 0.000000
-2.426900 0.000000
-2.383300 0.000000
-2.339800 0.000000
-2.296300 0.000000
-2.252700 0.000000
-2.209200 0.447700
-2.165700 0.602700
-2.122100 0.721400
-2.078600 0.840200
-2.035000 0.844700
-1.991500 0.792800
-1.948000 0.856800
-1.904400 0.934700
-1.860900 0.976000
-1.817400 1.060000
-1.773800 1.168700
-1.730300 1.241700
-1.686700 1.239900
-1.643200 1.274500
-1.599700 1.309800
-1.556100 1.412500
-1.512600 1.549900
-1.469100 1.672700
-1.425500 2.136900
-1.382000 2.267800
-1.338400 1.209100
-1.294900 1.153400
-1.251400 1.096700
-1.207800 1.037600
-1.164300 0.996000
-1.120800 0.990500
-1.077200 0.995900
-1.033700 1.005700
-0.990200 1.020600
-0.946600 1.025100
-0.903100 1.033600
-0.859500 1.061800
-0.816000 1.159200
-0.772500 1.350200
-0.728900 1.538900
-0.685400 1.557900
-0.641900 1.435900
-0.598300 1.206400
-0.554800 1.025000
-0.511200 0.203100
-0.467700 0.134500
-0.424200 0.191000
-0.380600 0.339100
-0.337100 0.247500
-0.293600 0.248900
-0.250000 0.261600
-0.206500 0.286800
-0.162900 0.315000
-0.119400 0.640100
-0.075900 0.695200
-0.032300 0.872900
0.011200 1.076500
0.054700 1.319300
0.098300 1.750800
0.141800 2.180700
0.185300 2.782700
0.228900 3.755000
0.272400 4.633500
0.316000 4.084700
0.359500 3.867800
0.403000 4.314300
0.446600 3.845200
0.490100 3.693800
0.533600 3.130400
0.577200 2.556700
0.620700 1.982000
0.664300 1.746000
0.707800 1.763900
0.751300 1.973400
0.794900 3.477500
0.838400 2.770200
0.881900 1.729400
0.925500 2.084000
0.969000 2.229100
1.012600 2.077900
1.056100 1.007500
1.099600 0.730300
1.143200 1.750100
1.186700 2.511700
1.230200 3.235400
1.273800 3.029000
1.317300 2.382100
1.360800 1.922400
1.404400 1.600100
1.447900 1.673200
1.491500 1.762200
1.535000 1.994100
1.578500 2.891700
1.622100 2.601800
1.665600 2.488600
1.709100 2.428100
1.752700 2.527900
1.796200 2.168500
1.839800 1.908500
1.883300 1.846700
1.926800 1.934500
1.970400 2.036700
2.013900 2.088700
2.057400 2.114800
2.101000 2.099800
2.144500 1.978700
2.188100 1.804100
2.231600 1.352300
2.275100 1.125000
2.318700 1.242100
2.362200 1.572900
2.405700 1.970300
2.449300 2.727100
2.492800 3.307600
2.536300 3.710500
2.579900 4.203900
2.623400 4.629900
2.667000 4.336700
2.710500 3.248300
2.754000 3.441400
2.797600 4.285400
2.841100 2.294000
2.884600 0.813700
2.928200 0.746400
2.971700 0.679100
3.015300 0.643400
3.058800 0.794500
3.102300 1.262100
