set title 'mp-1183658 - Density of States'
set xlabel 'Energy (eV)'
set ylabel 'DOS (states/eV)'
set grid
set xrange [-10:10]
set yrange [0:52.128]
set xzeroaxis lt -1
set terminal png size 800,600
set output 'mp-1183658_dos_gnuplot.png'
plot '-' using 1:2 with lines title 'DOS'
-9.707500 0.000000
-9.689300 0.000000
-9.671100 0.000000
-9.652900 0.000000
-9.634600 0.000000
-9.616400 0.000000
-9.598200 0.000000
-9.580000 0.000000
-9.561700 0.000000
-9.543500 0.000000
-9.525300 0.000000
-9.507100 0.000000
-9.488800 0.000000
-9.470600 0.000000
-9.452400 0.000000
-9.434200 0.000000
-9.415900 0.000000
-9.397700 0.000000
-9.379500 0.000000
-9.361300 0.000000
-9.343000 0.000000
-9.324800 0.000000
-9.306600 0.000000
-9.288400 0.000000
-9.270100 0.000000
-9.251900 0.000000
-9.233700 0.000000
-9.215500 0.000000
-9.197200 0.000000
-9.179000 0.000000
-9.160800 0.000000
-9.142600 0.000000
-9.124300 0.000000
-9.106100 0.000000
-9.087900 0.000000
-9.069700 0.000000
-9.051500 0.000000
-9.033200 0.000000
-9.015000 0.000000
-8.996800 0.000000
-8.978600 0.000000
-8.960300 0.000000
-8.942100 0.000000
-8.923900 0.000000
-8.905700 0.000000
-8.887400 0.000000
-8.869200 0.000000
-8.851000 0.000000
-8.832800 0.000000
-8.814500 0.000000
-8.796300 0.000000
-8.778100 0.000000
-8.759900 0.000000
-8.741600 0.000000
-8.723400 0.000000
-8.705200 0.000000
-8.687000 0.000000
-8.668700 0.000000
-8.650500 0.000000
-8.632300 0.000000
-8.614100 0.000000
-8.595800 0.000000
-8.577600 0.000000
-8.559400 0.000000
-8.541200 0.000000
-8.522900 0.000000
-8.504700 0.000000
-8.486500 0.000000
-8.468300 0.000000
-8.450000 0.000000
-8.431800 0.000000
-8.413600 0.000000
-8.395400 0.000000
-8.377100 0.000000
-8.358900 0.000000
-8.340700 0.000000
-8.322500 0.000000
-8.304200 0.000000
-8.286000 0.000000
-8.267800 0.000000
-8.249600 0.000000
-8.231300 0.000000
-8.213100 0.000000
-8.194900 0.000000
-8.176700 0.000000
-8.158400 0.000200
-8.140200 0.001200
-8.122000 0.004800
-8.103800 0.015300
-8.085500 0.040500
-8.067300 0.090100
-8.049100 0.173100
-8.030900 0.288700
-8.012600 0.418600
-7.994400 0.532200
-7.976200 0.617900
-7.958000 0.706700
-7.939700 0.840200
-7.921500 1.013500
-7.903300 1.174000
-7.885100 1.281100
-7.866800 1.352600
-7.848600 1.449900
-7.830400 1.620800
-7.812200 1.864600
-7.793900 2.157800
-7.775700 2.490900
-7.757500 2.853200
-7.739300 3.208300
-7.721000 3.540600
-7.702800 3.923500
-7.684600 4.490300
-7.666400 5.344700
-7.648200 6.547500
-7.629900 8.122400
-7.611700 9.882900
-7.593500 11.188600
-7.575300 11.135000
-7.557000 9.316000
-7.538800 6.363000
-7.520600 3.485000
-7.502400 1.514000
-7.484100 0.518100
-7.465900 0.139100
-7.447700 0.029200
-7.429500 0.004800
-7.411200 0.000600
-7.393000 0.000100
-7.374800 0.000000
-7.356600 0.000000
-7.338300 0.000000
-7.320100 0.000000
-7.301900 0.000000
-7.283700 0.000000
-7.265400 0.000000
-7.247200 0.000000
-7.229000 0.000000
-7.210800 0.000000
-7.192500 0.000000
-7.174300 0.000000
-7.156100 0.000000
-7.137900 0.000000
-7.119600 0.000000
-7.101400 0.000000
-7.083200 0.000000
-7.065000 0.000000
-7.046700 0.000000
-7.028500 0.000000
-7.010300 0.000000
-6.992100 0.000000
-6.973800 0.000000
-6.955600 0.000000
-6.937400 0.000000
-6.919200 0.000000
-6.900900 0.000000
-6.882700 0.000000
-6.864500 0.000000
-6.846300 0.000000
-6.828000 0.000000
-6.809800 0.000000
-6.791600 0.000000
-6.773400 0.000000
-6.755100 0.000000
-6.736900 0.000000
-6.718700 0.000000
-6.700500 0.000000
-6.682200 0.000000
-6.664000 0.000000
-6.645800 0.000000
-6.627600 0.000000
-6.609300 0.000000
-6.591100 0.000000
-6.572900 0.000000
-6.554700 0.000000
-6.536400 0.000000
-6.518200 0.000000
-6.500000 0.000000
-6.481800 0.000000
-6.463500 0.000000
-6.445300 0.000000
-6.427100 0.000000
-6.408900 0.000000
-6.390600 0.000000
-6.372400 0.000000
-6.354200 0.000000
-6.336000 0.000000
-6.317700 0.000000
-6.299500 0.000000
-6.281300 0.000000
-6.263100 0.000000
-6.244900 0.000000
-6.226600 0.000000
-6.208400 0.000000
-6.190200 0.000000
-6.172000 0.000000
-6.153700 0.000000
-6.135500 0.000000
-6.117300 0.000000
-6.099100 0.000000
-6.080800 0.000000
-6.062600 0.000000
-6.044400 0.000000
-6.026200 0.000000
-6.007900 0.000000
-5.989700 0.000000
-5.971500 0.000000
-5.953300 0.000000
-5.935000 0.000000
-5.916800 0.000000
-5.898600 0.000000
-5.880400 0.000000
-5.862100 0.000000
-5.843900 0.000000
-5.825700 0.000000
-5.807500 0.000000
-5.789200 0.000000
-5.771000 0.000000
-5.752800 0.000100
-5.734600 0.000500
-5.716300 0.003900
-5.698100 0.021900
-5.679900 0.097000
-5.661700 0.343100
-5.643400 0.977800
-5.625200 2.278700
-5.607000 4.433900
-5.588800 7.404300
-5.570500 10.974700
-5.552300 14.971300
-5.534100 19.413700
-5.515900 24.441700
-5.497600 30.045700
-5.479400 35.776100
-5.461200 40.748300
-5.443000 44.130000
-5.424700 45.719600
-5.406500 45.950000
-5.388300 45.309100
-5.370100 43.910700
-5.351800 41.687800
-5.333600 38.853200
-5.315400 36.011300
-5.297200 33.839600
-5.278900 32.724100
-5.260700 32.614500
-5.242500 33.106000
-5.224300 33.684800
-5.206000 34.005200
-5.187800 34.022100
-5.169600 33.999700
-5.151400 34.521400
-5.133100 36.290500
-5.114900 39.505600
-5.096700 43.353500
-5.078500 46.364700
-5.060200 47.389100
-5.042000 46.298900
-5.023800 44.003200
-5.005600 41.848300
-4.987300 40.658400
-4.969100 40.136700
-4.950900 39.342300
-4.932700 37.774400
-4.914500 35.789900
-4.896200 34.054400
-4.878000 32.988900
-4.859800 32.774800
-4.841600 33.312200
-4.823300 33.721000
-4.805100 32.280200
-4.786900 27.671900
-4.768700 20.441100
-4.750400 12.766500
-4.732200 6.714500
-4.714000 2.988400
-4.695800 1.133300
-4.677500 0.366900
-4.659300 0.100800
-4.641100 0.023200
-4.622900 0.004400
-4.604600 0.000700
-4.586400 0.000100
-4.568200 0.000000
-4.550000 0.000000
-4.531700 0.000000
-4.513500 0.000000
-4.495300 0.000000
-4.477100 0.000000
-4.458800 0.000000
-4.440600 0.000000
-4.422400 0.000000
-4.404200 0.000000
-4.385900 0.000000
-4.367700 0.000000
-4.349500 0.000000
-4.331300 0.000000
-4.313000 0.000000
-4.294800 0.000000
-4.276600 0.000000
-4.258400 0.000000
-4.240100 0.000000
-4.221900 0.000000
-4.203700 0.000000
-4.185500 0.000000
-4.167200 0.000000
-4.149000 0.000000
-4.130800 0.000000
-4.112600 0.000000
-4.094300 0.000000
-4.076100 0.000000
-4.057900 0.000000
-4.039700 0.000000
-4.021400 0.000000
-4.003200 0.000000
-3.985000 0.000000
-3.966800 0.000000
-3.948500 0.000000
-3.930300 0.000000
-3.912100 0.000000
-3.893900 0.000000
-3.875600 0.000000
-3.857400 0.000000
-3.839200 0.000000
-3.821000 0.000000
-3.802700 0.000000
-3.784500 0.000000
-3.766300 0.000000
-3.748100 0.000000
-3.729800 0.000000
-3.711600 0.000000
-3.693400 0.000000
-3.675200 0.000000
-3.656900 0.000000
-3.638700 0.000000
-3.620500 0.000000
-3.602300 0.000000
-3.584000 0.000000
-3.565800 0.000000
-3.547600 0.000000
-3.529400 0.000000
-3.511200 0.000000
-3.492900 0.000000
-3.474700 0.000000
-3.456500 0.000000
-3.438300 0.000000
-3.420000 0.000000
-3.401800 0.000000
-3.383600 0.000000
-3.365400 0.000000
-3.347100 0.000000
-3.328900 0.000000
-3.310700 0.000000
-3.292500 0.000000
-3.274200 0.000000
-3.256000 0.000000
-3.237800 0.000000
-3.219600 0.000000
-3.201300 0.000000
-3.183100 0.000000
-3.164900 0.000000
-3.146700 0.000000
-3.128400 0.000000
-3.110200 0.000000
-3.092000 0.000000
-3.073800 0.000000
-3.055500 0.000000
-3.037300 0.000000
-3.019100 0.000000
-3.000900 0.000000
-2.982600 0.000000
-2.964400 0.000000
-2.946200 0.000000
-2.928000 0.000000
-2.909700 0.000000
-2.891500 0.000000
-2.873300 0.000000
-2.855100 0.000300
-2.836800 0.001300
-2.818600 0.004900
-2.800400 0.014300
-2.782200 0.033500
-2.763900 0.063000
-2.745700 0.096300
-2.727500 0.119500
-2.709300 0.120300
-2.691000 0.099500
-2.672800 0.073700
-2.654600 0.066400
-2.636400 0.092800
-2.618100 0.149200
-2.599900 0.213800
-2.581700 0.261300
-2.563500 0.277600
-2.545200 0.260800
-2.527000 0.219000
-2.508800 0.175900
-2.490600 0.168400
-2.472300 0.223600
-2.454100 0.337000
-2.435900 0.471700
-2.417700 0.576100
-2.399400 0.613600
-2.381200 0.592900
-2.363000 0.580000
-2.344800 0.670700
-2.326500 0.921300
-2.308300 1.276900
-2.290100 1.573100
-2.271900 1.653700
-2.253600 1.508400
-2.235400 1.281400
-2.217200 1.143300
-2.199000 1.177300
-2.180700 1.371900
-2.162500 1.662600
-2.144300 1.958700
-2.126100 2.174900
-2.107900 2.271900
-2.089600 2.274800
-2.071400 2.262300
-2.053200 2.321400
-2.035000 2.462200
-2.016700 2.570700
-1.998500 2.504200
-1.980300 2.254500
-1.962100 1.970900
-1.943800 1.796600
-1.925600 1.726700
-1.907400 1.654600
-1.889200 1.523500
-1.870900 1.399800
-1.852700 1.418500
-1.834500 1.662400
-1.816300 2.064900
-1.798000 2.433500
-1.779800 2.608000
-1.761600 2.572500
-1.743400 2.379000
-1.725100 2.053400
-1.706900 1.659600
-1.688700 1.359900
-1.670500 1.311400
-1.652200 1.522700
-1.634000 1.839100
-1.615800 2.063000
-1.597600 2.101600
-1.579300 2.000500
-1.561100 1.843400
-1.542900 1.663100
-1.524700 1.453700
-1.506400 1.226100
-1.488200 1.028400
-1.470000 0.924000
-1.451800 0.953800
-1.433500 1.114700
-1.415300 1.356000
-1.397100 1.584400
-1.378900 1.702100
-1.360600 1.684600
-1.342400 1.604500
-1.324200 1.542600
-1.306000 1.502800
-1.287700 1.441300
-1.269500 1.327000
-1.251300 1.145800
-1.233100 0.897800
-1.214800 0.625900
-1.196600 0.417800
-1.178400 0.357500
-1.160200 0.465600
-1.141900 0.671900
-1.123700 0.849600
-1.105500 0.907500
-1.087300 0.854900
-1.069000 0.759600
-1.050800 0.661200
-1.032600 0.558600
-1.014400 0.464100
-0.996100 0.421100
-0.977900 0.459200
-0.959700 0.559000
-0.941500 0.669900
-0.923200 0.754400
-0.905000 0.815500
-0.886800 0.883600
-0.868600 0.968900
-0.850300 1.032100
-0.832100 1.024500
-0.813900 0.958600
-0.795700 0.913800
-0.777400 0.965300
-0.759200 1.120500
-0.741000 1.317300
-0.722800 1.461700
-0.704600 1.474600
-0.686300 1.337700
-0.668100 1.112000
-0.649900 0.900900
-0.631700 0.784000
-0.613400 0.785200
-0.595200 0.891600
-0.577000 1.071400
-0.558800 1.268200
-0.540500 1.412800
-0.522300 1.454500
-0.504100 1.372500
-0.485900 1.172100
-0.467600 0.897500
-0.449400 0.632000
-0.431200 0.446400
-0.413000 0.355500
-0.394700 0.350300
-0.376500 0.464300
-0.358300 0.768800
-0.340100 1.274500
-0.321800 1.839800
-0.303600 2.216400
-0.285400 2.227400
-0.267200 1.916800
-0.248900 1.517600
-0.230700 1.268300
-0.212500 1.243800
-0.194300 1.333700
-0.176000 1.366100
-0.157800 1.255000
-0.139600 1.052800
-0.121400 0.888000
-0.103100 0.861700
-0.084900 0.979800
-0.066700 1.154700
-0.048500 1.270200
-0.030200 1.276300
-0.012000 1.231200
0.006200 1.235300
0.024400 1.340700
0.042700 1.534600
0.060900 1.761400
0.079100 1.926300
0.097300 1.938000
0.115600 1.789000
0.133800 1.567700
0.152000 1.387900
0.170200 1.322700
0.188500 1.377200
0.206700 1.490500
0.224900 1.579300
0.243100 1.595100
0.261400 1.530300
0.279600 1.394600
0.297800 1.218000
0.316000 1.059700
0.334300 0.983300
0.352500 1.031300
0.370700 1.220200
0.388900 1.530500
0.407200 1.882700
0.425400 2.131000
0.443600 2.119500
0.461800 1.801000
0.480100 1.313500
0.498300 0.901800
0.516500 0.740200
0.534700 0.832000
0.553000 1.052300
0.571200 1.253200
0.589400 1.336300
0.607600 1.271900
0.625800 1.090500
0.644100 0.865500
0.662300 0.685100
0.680500 0.621200
0.698700 0.711700
0.717000 0.950500
0.735200 1.270800
0.753400 1.553900
0.771600 1.699300
0.789900 1.706200
0.808100 1.672300
0.826300 1.699300
0.844500 1.795700
0.862800 1.871500
0.881000 1.830700
0.899200 1.673100
0.917400 1.504700
0.935700 1.442600
0.953900 1.507900
0.972100 1.623200
0.990300 1.707800
1.008600 1.738700
1.026800 1.731000
1.045000 1.723000
1.063200 1.796900
1.081500 2.045000
1.099700 2.443700
1.117900 2.783000
1.136100 2.800600
1.154400 2.423700
1.172600 1.849300
1.190800 1.364300
1.209000 1.111900
1.227300 1.034200
1.245500 0.997300
1.263700 0.943000
1.281900 0.939500
1.300200 1.114600
1.318400 1.533300
1.336600 2.114700
1.354800 2.658200
1.373100 2.970500
1.391300 2.987700
1.409500 2.782600
1.427700 2.460800
1.446000 2.074300
1.464200 1.653600
1.482400 1.288400
1.500600 1.105200
1.518900 1.148600
1.537100 1.323100
1.555300 1.469100
1.573500 1.484800
1.591800 1.387600
1.610000 1.275600
1.628200 1.236100
1.646400 1.296200
1.664700 1.443900
1.682900 1.636900
1.701100 1.782800
1.719300 1.784300
1.737600 1.650800
1.755800 1.509900
1.774000 1.461700
1.792200 1.464800
1.810500 1.412100
1.828700 1.277200
1.846900 1.133500
1.865100 1.064700
1.883400 1.100000
1.901600 1.217700
1.919800 1.373000
1.938000 1.521700
1.956300 1.639100
1.974500 1.731900
1.992700 1.830300
2.010900 1.948700
2.029100 2.048100
2.047400 2.062500
2.065600 1.968700
2.083800 1.816000
2.102000 1.685700
2.120300 1.624600
2.138500 1.610000
2.156700 1.569100
2.174900 1.440300
2.193200 1.224900
2.211400 0.979000
2.229600 0.770400
2.247800 0.668400
2.266100 0.752200
2.284300 1.061700
2.302500 1.512000
2.320700 1.899600
2.339000 2.044700
2.357200 1.935700
2.375400 1.719800
2.393600 1.569500
2.411900 1.575600
2.430100 1.734100
2.448300 1.979400
2.466500 2.215600
2.484800 2.343700
2.503000 2.310300
2.521200 2.153500
2.539400 1.974000
2.557700 1.856300
2.575900 1.842700
2.594100 1.955500
2.612300 2.175800
2.630600 2.408300
2.648800 2.543900
2.667000 2.564700
2.685200 2.522000
2.703500 2.412100
2.721700 2.164200
2.739900 1.775100
2.758100 1.380800
2.776400 1.140200
2.794600 1.088200
2.812800 1.150400
2.831000 1.271700
2.849300 1.462300
2.867500 1.708800
2.885700 1.895700
2.903900 1.882800
2.922200 1.670800
2.940400 1.440900
2.958600 1.399100
2.976800 1.605200
2.995100 1.953900
3.013300 2.277200
3.031500 2.443200
3.049700 2.400500
3.068000 2.184200
3.086200 1.896700
3.104400 1.667500
3.122600 1.591900
3.140900 1.663400
3.159100 1.761500
3.177300 1.750000
3.195500 1.608200
3.213800 1.427300
3.232000 1.271100
3.250200 1.107700
3.268400 0.909000
3.286700 0.745200
3.304900 0.717300
3.323100 0.838600
3.341300 1.030400
3.359600 1.208900
3.377800 1.329100
3.396000 1.371800
3.414200 1.345600
3.432400 1.295000
3.450700 1.272600
3.468900 1.301200
3.487100 1.380400
3.505300 1.520900
3.523600 1.738900
3.541800 1.998600
3.560000 2.185500
3.578200 2.180400
3.596500 1.967600
3.614700 1.657500
3.632900 1.401900
3.651100 1.291600
3.669400 1.318600
3.687600 1.408500
3.705800 1.473200
3.724000 1.444500
3.742300 1.299800
3.760500 1.083000
3.778700 0.890000
3.796900 0.817400
3.815200 0.920800
3.833400 1.191700
3.851600 1.531200
3.869800 1.760200
3.888100 1.729400
3.906300 1.455800
3.924500 1.126600
3.942700 0.947600
3.961000 0.994300
3.979200 1.189900
3.997400 1.394500
4.015600 1.527800
4.033900 1.635000
4.052100 1.831100
4.070300 2.163800
4.088500 2.540600
4.106800 2.816800
4.125000 2.933100
4.143200 2.928700
4.161400 2.840300
4.179700 2.670500
4.197900 2.482100
4.216100 2.438700
4.234300 2.665900
4.252600 3.089900
4.270800 3.459900
4.289000 3.518400
4.307200 3.170300
4.325500 2.574400
4.343700 2.073100
4.361900 1.926500
4.380100 2.083200
4.398400 2.254300
4.416600 2.209700
4.434800 1.955900
4.453000 1.652300
4.471300 1.439200
4.489500 1.362800
4.507700 1.399900
4.525900 1.513800
4.544200 1.704500
4.562400 1.993100
4.580600 2.315200
4.598800 2.479100
4.617100 2.325200
4.635300 1.913500
4.653500 1.472900
4.671700 1.180700
4.690000 1.056700
4.708200 1.039900
4.726400 1.071800
4.744600 1.096500
4.762900 1.078800
4.781100 1.081000
4.799300 1.271800
4.817500 1.757500
4.835700 2.382600
4.854000 2.788100
4.872200 2.750800
4.890400 2.409200
4.908600 2.087300
4.926900 1.975800
4.945100 2.056400
4.963300 2.242400
4.981500 2.470400
4.999800 2.673600
5.018000 2.756400
5.036200 2.647600
5.054400 2.373400
5.072700 2.068300
5.090900 1.885100
5.109100 1.858900
5.127300 1.864900
5.145600 1.745900
5.163800 1.472600
5.182000 1.154100
5.200200 0.920700
5.218500 0.842400
5.236700 0.929400
5.254900 1.141600
5.273100 1.387200
5.291400 1.562800
5.309600 1.616700
5.327800 1.568400
5.346000 1.468200
5.364300 1.351200
5.382500 1.228000
5.400700 1.108300
5.418900 1.021100
5.437200 1.002600
5.455400 1.066300
5.473600 1.188400
5.491800 1.314500
5.510100 1.385500
5.528300 1.385900
5.546500 1.379400
5.564700 1.478800
5.583000 1.748900
5.601200 2.110800
5.619400 2.357800
5.637600 2.329600
5.655900 2.081100
5.674100 1.827300
5.692300 1.734900
5.710500 1.822100
5.728800 2.026200
5.747000 2.281500
5.765200 2.528400
5.783400 2.719700
5.801700 2.854400
5.819900 2.975000
5.838100 3.105100
5.856300 3.212300
5.874600 3.249600
5.892800 3.191300
5.911000 3.012500
5.929200 2.704200
5.947500 2.343600
5.965700 2.086600
5.983900 2.040900
6.002100 2.165700
6.020400 2.313600
6.038600 2.352900
6.056800 2.258200
6.075000 2.105200
6.093300 1.970900
6.111500 1.843100
6.129700 1.675500
6.147900 1.527700
6.166100 1.566900
6.184400 1.888100
6.202600 2.375900
6.220800 2.776000
6.239000 2.882400
6.257300 2.655900
6.275500 2.213900
6.293700 1.745900
6.311900 1.407500
6.330200 1.242900
6.348400 1.195800
6.366600 1.205900
6.384800 1.287400
6.403100 1.505000
6.421300 1.877200
6.439500 2.313900
6.457700 2.658400
6.476000 2.796400
6.494200 2.730900
6.512400 2.544600
6.530600 2.299900
6.548900 2.004500
6.567100 1.673200
6.585300 1.378100
6.603500 1.208200
6.621800 1.185500
6.640000 1.232000
6.658200 1.240000
6.676400 1.174000
6.694700 1.087900
6.712900 1.048000
6.731100 1.076000
6.749300 1.170200
6.767600 1.330500
6.785800 1.540700
6.804000 1.770500
6.822200 2.021300
6.840500 2.321000
6.858700 2.638000
6.876900 2.861700
6.895100 2.923100
6.913400 2.874900
6.931600 2.793700
6.949800 2.677900
6.968000 2.501500
6.986300 2.295300
7.004500 2.104900
7.022700 1.930000
7.040900 1.760100
7.059200 1.623600
7.077400 1.562600
7.095600 1.591700
7.113800 1.704700
7.132100 1.891400
7.150300 2.112100
7.168500 2.276800
7.186700 2.325300
7.205000 2.335000
7.223200 2.482000
7.241400 2.859100
7.259600 3.346800
7.277900 3.676800
7.296100 3.636600
7.314300 3.242000
7.332500 2.733900
7.350800 2.416300
7.369000 2.456700
7.387200 2.789300
7.405400 3.185400
7.423700 3.408900
7.441900 3.316900
7.460100 2.895000
7.478300 2.275500
7.496600 1.687400
7.514800 1.314200
7.533000 1.185800
7.551200 1.216700
7.569400 1.312100
7.587700 1.417700
7.605900 1.507100
7.624100 1.576900
7.642300 1.659600
7.660600 1.802600
7.678800 2.002700
7.697000 2.183400
7.715200 2.275100
7.733500 2.299800
7.751700 2.334400
7.769900 2.395800
7.788100 2.407700
7.806400 2.296200
7.824600 2.089200
7.842800 1.892200
7.861000 1.782300
7.879300 1.752200
7.897500 1.750200
7.915700 1.756600
7.933900 1.807000
7.952200 1.935700
7.970400 2.110800
7.988600 2.265900
8.006800 2.387200
8.025100 2.496700
8.043300 2.545900
8.061500 2.442000
8.079700 2.204900
8.098000 1.976700
8.116200 1.865900
8.134400 1.891500
8.152600 2.055700
8.170900 2.333400
8.189100 2.592800
8.207300 2.656300
8.225500 2.493700
8.243800 2.281300
8.262000 2.219600
8.280200 2.347000
8.298400 2.568400
8.316700 2.783300
8.334900 2.918900
8.353100 2.911000
8.371300 2.751700
8.389600 2.536700
8.407800 2.411200
8.426000 2.466300
8.444200 2.695600
8.462500 3.014600
8.480700 3.295000
8.498900 3.421600
8.517100 3.380300
8.535400 3.285200
8.553600 3.275000
8.571800 3.387400
8.590000 3.540600
8.608300 3.611700
8.626500 3.533700
8.644700 3.333200
8.662900 3.081400
8.681200 2.827100
8.699400 2.585200
8.717600 2.357900
8.735800 2.145900
8.754100 1.966700
8.772300 1.866200
8.790500 1.877300
8.808700 1.974100
8.827000 2.099700
8.845200 2.226700
8.863400 2.359300
8.881600 2.494200
8.899900 2.609200
8.918100 2.684400
8.936300 2.724300
8.954500 2.763300
8.972700 2.826100
8.991000 2.861000
9.009200 2.748300
9.027400 2.421000
9.045600 1.963300
9.063900 1.555900
9.082100 1.318700
9.100300 1.228300
9.118500 1.197400
9.136800 1.204300
9.155000 1.318800
9.173200 1.620300
9.191400 2.106600
9.209700 2.650900
9.227900 3.049900
9.246100 3.171600
9.264300 3.062000
9.282600 2.866500
9.300800 2.664800
9.319000 2.436000
9.337200 2.172300
9.355500 1.948900
9.373700 1.858300
9.391900 1.931200
9.410100 2.127300
9.428400 2.346100
9.446600 2.464000
9.464800 2.430800
9.483000 2.315900
9.501300 2.209500
9.519500 2.120200
9.537700 2.013900
9.555900 1.902400
9.574200 1.834600
9.592400 1.821600
9.610600 1.818800
9.628800 1.777300
9.647100 1.692300
