set title 'mp-754417 - Density of States'
set xlabel 'Energy (eV)'
set ylabel 'DOS (states/eV)'
set grid
set xrange [-10:10]
set yrange [0:0.217]
set xzeroaxis lt -1
set terminal png size 800,600
set output 'mp-754417_dos_gnuplot.png'
plot '-' using 1:2 with lines title 'DOS'
-23.940400 0.000000
-23.813400 0.000000
-23.686500 0.000000
-23.559500 0.000000
-23.432500 0.000000
-23.305500 0.000000
-23.178600 0.000000
-23.051600 0.000000
-22.924600 0.000000
-22.797600 0.000000
-22.670600 0.000000
-22.543700 0.000000
-22.416700 0.000000
-22.289700 0.000000
-22.162700 0.000000
-22.035700 0.000000
-21.908800 0.000000
-21.781800 0.000000
-21.654800 0.000000
-21.527800 0.000000
-21.400800 0.000000
-21.273900 0.000000
-21.146900 0.000000
-21.019900 0.000000
-20.892900 0.000000
-20.766000 0.000000
-20.639000 0.000000
-20.512000 0.000000
-20.385000 0.000000
-20.258000 0.000000
-20.131100 0.000000
-20.004100 0.000000
-19.877100 0.000000
-19.750100 0.000000
-19.623100 0.000000
-19.496200 0.000000
-19.369200 0.000000
-19.242200 0.000000
-19.115200 0.000000
-18.988200 0.000000
-18.861300 0.000000
-18.734300 0.000000
-18.607300 0.000000
-18.480300 0.000000
-18.353400 0.000000
-18.226400 0.000000
-18.099400 0.000000
-17.972400 0.000000
-17.845400 0.000000
-17.718500 0.000000
-17.591500 0.000000
-17.464500 0.000000
-17.337500 0.000000
-17.210500 0.000000
-17.083600 0.000000
-16.956600 0.000000
-16.829600 0.000000
-16.702600 0.000000
-16.575600 0.000000
-16.448700 0.000000
-16.321700 0.000000
-16.194700 0.000000
-16.067700 0.000000
-15.940800 0.000000
-15.813800 0.000000
-15.686800 0.000000
-15.559800 0.000000
-15.432800 0.000000
-15.305900 0.000000
-15.178900 0.000000
-15.051900 0.000000
-14.924900 0.000000
-14.797900 0.000000
-14.671000 0.000000
-14.544000 0.000000
-14.417000 0.000000
-14.290000 0.000000
-14.163000 0.000000
-14.036100 0.000000
-13.909100 0.000000
-13.782100 0.000000
-13.655100 0.000000
-13.528200 0.000000
-13.401200 0.000000
-13.274200 0.000000
-13.147200 0.000000
-13.020200 0.000000
-12.893300 0.000000
-12.766300 0.000000
-12.639300 0.000000
-12.512300 0.000000
-12.385300 0.000200
-12.258400 0.025300
-12.131400 0.042000
-12.004400 0.053700
-11.877400 0.065700
-11.750400 0.077000
-11.623500 0.087700
-11.496500 0.099100
-11.369500 0.111400
-11.242500 0.125000
-11.115600 0.139900
-10.988600 0.163700
-10.861600 0.195600
-10.734600 0.238100
-10.607600 0.314700
-10.480700 0.280400
-10.353700 0.214900
-10.226700 0.193900
-10.099700 0.178900
-9.972700 0.157200
-9.845800 0.144700
-9.718800 0.141400
-9.591800 0.137400
-9.464800 0.132400
-9.337800 0.126200
-9.210900 0.116800
-9.083900 0.110800
-8.956900 0.108500
-8.829900 0.107200
-8.703000 0.105800
-8.576000 0.104300
-8.449000 0.102400
-8.322000 0.100000
-8.195000 0.096300
-8.068100 0.091100
-7.941100 0.087800
-7.814100 0.087200
-7.687100 0.086500
-7.560100 0.085700
-7.433200 0.084900
-7.306200 0.084000
-7.179200 0.083100
-7.052200 0.082000
-6.925200 0.080600
-6.798300 0.078800
-6.671300 0.075900
-6.544300 0.074000
-6.417300 0.073000
-6.290400 0.072600
-6.163400 0.072100
-6.036400 0.071600
-5.909400 0.071200
-5.782400 0.070600
-5.655500 0.070100
-5.528500 0.069400
-5.401500 0.068800
-5.274500 0.068000
-5.147500 0.067000
-5.020600 0.065700
-4.893600 0.063600
-4.766600 0.062300
-4.639600 0.062300
-4.512600 0.062300
-4.385700 0.062000
-4.258700 0.061700
-4.131700 0.061400
-4.004700 0.061000
-3.877800 0.060700
-3.750800 0.060300
-3.623800 0.059900
-3.496800 0.059500
-3.369800 0.059000
-3.242900 0.058400
-3.115900 0.057700
-2.988900 0.056900
-2.861900 0.055400
-2.734900 0.054500
-2.608000 0.054100
-2.481000 0.054100
-2.354000 0.054100
-2.227000 0.054100
-2.100000 0.054100
-1.973100 0.053800
-1.846100 0.053600
-1.719100 0.053300
-1.592100 0.053100
-1.465200 0.052800
-1.338200 0.052500
-1.211200 0.052200
-1.084200 0.051900
-0.957200 0.051500
-0.830300 0.051000
-0.703300 0.050500
-0.576300 0.049800
-0.449300 0.048600
-0.322300 0.048000
-0.195400 0.047900
-0.068400 0.047900
0.058600 0.047900
0.185600 0.047900
0.312600 0.047900
0.439500 0.047900
0.566500 0.047900
0.693500 0.047700
0.820500 0.047500
0.947400 0.047300
1.074400 0.047100
1.201400 0.046900
1.328400 0.046700
1.455400 0.046400
1.582300 0.046200
1.709300 0.045900
1.836300 0.048800
1.963300 0.067000
2.090300 0.092300
2.217200 0.105800
2.344200 0.114900
2.471200 0.127200
2.598200 0.140000
2.725200 0.152500
2.852100 0.179600
2.979100 0.195800
3.106100 0.197600
3.233100 0.196900
3.360000 0.184400
3.487000 0.178000
3.614000 0.171000
3.741000 0.167100
3.868000 0.164500
3.994900 0.163600
4.121900 0.162900
4.248900 0.161700
4.375900 0.159900
4.502900 0.158100
4.629800 0.155000
4.756800 0.163700
4.883800 0.160300
5.010800 0.161100
5.137800 0.161900
5.264700 0.162600
5.391700 0.162200
5.518700 0.162800
5.645700 0.163900
5.772600 0.165200
5.899600 0.166900
6.026600 0.168300
6.153600 0.169000
6.280600 0.169600
6.407500 0.170100
6.534500 0.170500
6.661500 0.171300
6.788500 0.172300
6.915500 0.172700
7.042400 0.173200
7.169400 0.174000
7.296400 0.174600
7.423400 0.175700
7.550400 0.176900
7.677300 0.178000
7.804300 0.179600
7.931300 0.181200
8.058300 0.181500
8.185200 0.181600
8.312200 0.181400
8.439200 0.180900
8.566200 0.179900
8.693200 0.178600
8.820100 0.177700
8.947100 0.177500
9.074100 0.177700
9.201100 0.178200
9.328100 0.178700
9.455000 0.179500
9.582000 0.180200
9.709000 0.181100
9.836000 0.181800
9.963000 0.182500
10.089900 0.183100
10.216900 0.183800
10.343900 0.184600
10.470900 0.185200
10.597900 0.185900
10.724800 0.186400
10.851800 0.187300
10.978800 0.188300
11.105800 0.189300
11.232700 0.190600
11.359700 0.191900
11.486700 0.193200
11.613700 0.193900
11.740700 0.193600
11.867600 0.194500
11.994600 0.196100
12.121600 0.196900
12.248600 0.197800
12.375600 0.198900
12.502500 0.199800
12.629500 0.200600
12.756500 0.201500
12.883500 0.202400
13.010500 0.203500
13.137400 0.204700
13.264400 0.205900
13.391400 0.207200
13.518400 0.208600
13.645300 0.210300
13.772300 0.211700
13.899300 0.213000
14.026300 0.214200
14.153300 0.215300
14.280200 0.216500
14.407200 0.217700
14.534200 0.219100
14.661200 0.220500
14.788200 0.222000
14.915100 0.225100
15.042100 0.230800
15.169100 0.232400
15.296100 0.233600
15.423100 0.234500
15.550000 0.234900
15.677000 0.246000
15.804000 0.262300
15.931000 0.250700
16.057900 0.251500
16.184900 0.252200
16.311900 0.251700
16.438900 0.249800
16.565900 0.264900
16.692800 0.260700
16.819800 0.251100
16.946800 0.247500
17.073800 0.246000
17.200800 0.240900
17.327700 0.238400
17.454700 0.237100
17.581700 0.236000
17.708700 0.234800
17.835700 0.233700
17.962600 0.232000
18.089600 0.230300
18.216600 0.229100
18.343600 0.227500
18.470500 0.226600
18.597500 0.225700
18.724500 0.224800
18.851500 0.223900
18.978500 0.223000
19.105400 0.223900
19.232400 0.244600
19.359400 0.236100
19.486400 0.247300
19.613400 0.254000
19.740300 0.253100
19.867300 0.252700
19.994300 0.253900
20.121300 0.254000
20.248300 0.253800
20.375200 0.254300
20.502200 0.254500
20.629200 0.253200
20.756200 0.253200
20.883100 0.252700
21.010100 0.253200
21.137100 0.267700
21.264100 0.276000
21.391100 0.263500
21.518000 0.263600
21.645000 0.264500
21.772000 0.302300
21.899000 0.287700
22.026000 0.288200
22.152900 0.288900
22.279900 0.290500
22.406900 0.293400
22.533900 0.306000
22.660900 0.321800
22.787800 0.363100
22.914800 0.221900
23.041800 0.222300
23.168800 0.221600
23.295700 0.222200
23.422700 0.222900
23.549700 0.223600
23.676700 0.223900
23.803700 0.224200
23.930600 0.225200
24.057600 0.225900
24.184600 0.228100
24.311600 0.240900
24.438600 0.242500
24.565500 0.249000
24.692500 0.250000
24.819500 0.245700
24.946500 0.244800
25.073500 0.244600
25.200400 0.244900
25.327400 0.244200
25.454400 0.244800
25.581400 0.245600
25.708300 0.245800
25.835300 0.245900
25.962300 0.246200
26.089300 0.245800
26.216300 0.246100
26.343200 0.246500
26.470200 0.247000
26.597200 0.247300
26.724200 0.247800
26.851200 0.247900
26.978100 0.247700
27.105100 0.247700
27.232100 0.247800
27.359100 0.248100
27.486100 0.248300
27.613000 0.248600
27.740000 0.248900
27.867000 0.249100
27.994000 0.249800
28.120900 0.250600
28.247900 0.251400
28.374900 0.251500
28.501900 0.252300
28.628900 0.253200
28.755800 0.264900
28.882800 0.266900
29.009800 0.267900
29.136800 0.267300
29.263800 0.268100
29.390700 0.267200
29.517700 0.266300
29.644700 0.265600
29.771700 0.265500
29.898700 0.265600
30.025600 0.265800
30.152600 0.266000
30.279600 0.265500
30.406600 0.265400
30.533500 0.269500
30.660500 0.286800
30.787500 0.281300
30.914500 0.284300
31.041500 0.287100
31.168400 0.287700
31.295400 0.289600
31.422400 0.291900
31.549400 0.294300
31.676400 0.296500
31.803300 0.299200
31.930300 0.302000
32.057300 0.305300
32.184300 0.308800
32.311300 0.313100
32.438200 0.322700
32.565200 0.334100
32.692200 0.346200
32.819200 0.360300
32.946100 0.377400
33.073100 0.395800
33.200100 0.435100
33.327100 0.440500
33.454100 0.442100
33.581000 0.425700
33.708000 0.411000
33.835000 0.417600
33.962000 0.382400
34.089000 0.321300
34.215900 0.286300
34.342900 0.279100
34.469900 0.272400
34.596900 0.266400
34.723900 0.261200
34.850800 0.256100
34.977800 0.252300
35.104800 0.248300
35.231800 0.245200
35.358700 0.243200
35.485700 0.241600
35.612700 0.240300
35.739700 0.239100
35.866700 0.239000
35.993600 0.239600
36.120600 0.240900
36.247600 0.242900
36.374600 0.245900
36.501600 0.249800
36.628500 0.256000
36.755500 0.270500
36.882500 0.278700
37.009500 0.302500
37.136500 0.291300
37.263400 0.294300
37.390400 0.298700
37.517400 0.302500
37.644400 0.304000
37.771300 0.308400
37.898300 0.318200
38.025300 0.324700
38.152300 0.333400
38.279300 0.347400
38.406200 0.358400
38.533200 0.361000
38.660200 0.361000
38.787200 0.360300
38.914200 0.360900
39.041100 0.359800
39.168100 0.356200
39.295100 0.359100
39.422100 0.342600
39.549100 0.324700
39.676000 0.322000
39.803000 0.320600
39.930000 0.320800
40.057000 0.323100
40.183900 0.326700
40.310900 0.330300
40.437900 0.334100
40.564900 0.338200
40.691900 0.343300
40.818800 0.349000
40.945800 0.352300
41.072800 0.352000
41.199800 0.343400
41.326800 0.335400
41.453700 0.331700
41.580700 0.333700
41.707700 0.340600
41.834700 0.309100
41.961700 0.309500
42.088600 0.308700
42.215600 0.303700
42.342600 0.301300
42.469600 0.300400
42.596500 0.301900
42.723500 0.306200
42.850500 0.313800
42.977500 0.321400
43.104500 0.327000
43.231400 0.341700
43.358400 0.366600
43.485400 0.348300
43.612400 0.340000
43.739400 0.335600
43.866300 0.330600
43.993300 0.333600
44.120300 0.343600
44.247300 0.362000
44.374300 0.350700
44.501200 0.338400
44.628200 0.326100
44.755200 0.323800
44.882200 0.323700
45.009100 0.324600
45.136100 0.322700
45.263100 0.322600
45.390100 0.322900
45.517100 0.323300
45.644000 0.323600
45.771000 0.324000
45.898000 0.324500
46.025000 0.325200
46.152000 0.329300
46.278900 0.330000
46.405900 0.334100
46.532900 0.338200
46.659900 0.343400
46.786900 0.350400
46.913800 0.354300
47.040800 0.360200
47.167800 0.364100
47.294800 0.368300
47.421700 0.375600
47.548700 0.364200
47.675700 0.351700
47.802700 0.345100
47.929700 0.343400
48.056600 0.343100
48.183600 0.344400
48.310600 0.345600
48.437600 0.353300
48.564600 0.355400
48.691500 0.353800
48.818500 0.362300
48.945500 0.356900
49.072500 0.357500
49.199500 0.358700
49.326400 0.359800
49.453400 0.359500
49.580400 0.368900
49.707400 0.372600
49.834300 0.367600
49.961300 0.368300
50.088300 0.362500
50.215300 0.370500
50.342300 0.367600
50.469200 0.364400
50.596200 0.360500
50.723200 0.354300
50.850200 0.350400
50.977200 0.351800
51.104100 0.353700
51.231100 0.364300
51.358100 0.365700
51.485100 0.359500
51.612100 0.352400
51.739000 0.338900
51.866000 0.324800
51.993000 0.320600
52.120000 0.321600
52.246900 0.322600
52.373900 0.316500
52.500900 0.315200
52.627900 0.318600
52.754900 0.324700
52.881800 0.337600
53.008800 0.344700
53.135800 0.350400
53.262800 0.364000
53.389800 0.383500
53.516700 0.381000
53.643700 0.379500
53.770700 0.385400
53.897700 0.384100
54.024700 0.382900
54.151600 0.385400
54.278600 0.388500
54.405600 0.390500
54.532600 0.391200
54.659500 0.388600
54.786500 0.386900
54.913500 0.387700
55.040500 0.387500
55.167500 0.387300
55.294400 0.383600
55.421400 0.388300
55.548400 0.392400
55.675400 0.407500
55.802400 0.392200
55.929300 0.408000
56.056300 0.414000
56.183300 0.396300
56.310300 0.386100
56.437300 0.377700
56.564200 0.376300
56.691200 0.374800
56.818200 0.375600
56.945200 0.378100
57.072100 0.382800
57.199100 0.408000
57.326100 0.406800
57.453100 0.354000
57.580100 0.347100
57.707000 0.345100
57.834000 0.343600
57.961000 0.343300
58.088000 0.345600
58.215000 0.346900
58.341900 0.351000
58.468900 0.338800
58.595900 0.336600
58.722900 0.337200
58.849900 0.337900
58.976800 0.338300
59.103800 0.337700
59.230800 0.337300
59.357800 0.340200
59.484700 0.346300
59.611700 0.353500
59.738700 0.361700
59.865700 0.368300
59.992700 0.375900
60.119600 0.392500
60.246600 0.412800
60.373600 0.423200
60.500600 0.414200
60.627600 0.410800
60.754500 0.412300
60.881500 0.412800
61.008500 0.445300
61.135500 0.470800
61.262500 0.431600
61.389400 0.433700
61.516400 0.435600
61.643400 0.461500
61.770400 0.429100
61.897300 0.423500
62.024300 0.417300
62.151300 0.443500
62.278300 0.407400
62.405300 0.402700
62.532200 0.403500
62.659200 0.406400
62.786200 0.384500
62.913200 0.375500
63.040200 0.367000
63.167100 0.360600
63.294100 0.354500
63.421100 0.352800
63.548100 0.349100
63.675100 0.347500
63.802000 0.346900
63.929000 0.347200
64.056000 0.348400
64.183000 0.357900
64.309900 0.370400
64.436900 0.373300
64.563900 0.375800
64.690900 0.378300
64.817900 0.379900
64.944800 0.382300
65.071800 0.389100
65.198800 0.395000
65.325800 0.397600
65.452800 0.409400
65.579700 0.422800
65.706700 0.429900
65.833700 0.446400
65.960700 0.432000
66.087700 0.415100
66.214600 0.404400
66.341600 0.397600
66.468600 0.381600
66.595600 0.376400
66.722600 0.380100
66.849500 0.393500
66.976500 0.418000
67.103500 0.428600
67.230500 0.435100
67.357400 0.440000
67.484400 0.440200
67.611400 0.435300
67.738400 0.429300
67.865400 0.426200
67.992300 0.426200
68.119300 0.424100
68.246300 0.421300
68.373300 0.418000
68.500300 0.415700
68.627200 0.416100
68.754200 0.413000
68.881200 0.414300
69.008200 0.418700
69.135200 0.421000
69.262100 0.419400
69.389100 0.430800
69.516100 0.451900
69.643100 0.463000
69.770000 0.466700
69.897000 0.466500
70.024000 0.464700
70.151000 0.452900
70.278000 0.450600
70.404900 0.440000
70.531900 0.435800
70.658900 0.432900
70.785900 0.428800
70.912900 0.424000
71.039800 0.421600
71.166800 0.420600
71.293800 0.420700
71.420800 0.420600
71.547800 0.421000
71.674700 0.431900
71.801700 0.414600
71.928700 0.413800
72.055700 0.412600
72.182600 0.407800
72.309600 0.404200
72.436600 0.402500
72.563600 0.401500
72.690600 0.401000
72.817500 0.400300
72.944500 0.402600
73.071500 0.407100
73.198500 0.410600
73.325500 0.413600
73.452400 0.462000
73.579400 0.462700
73.706400 0.464600
73.833400 0.413900
73.960400 0.411800
74.087300 0.412200
74.214300 0.416900
74.341300 0.409700
74.468300 0.410500
74.595200 0.406900
74.722200 0.400600
74.849200 0.392000
74.976200 0.382300
75.103200 0.378000
75.230100 0.382300
75.357100 0.384200
75.484100 0.393800
75.611100 0.418900
75.738100 0.471100
75.865000 0.402600
75.992000 0.365400
76.119000 0.373000
76.246000 0.367400
76.373000 0.367800
76.499900 0.373700
76.626900 0.382700
76.753900 0.397500
76.880900 0.420900
77.007800 0.444400
77.134800 0.457800
77.261800 0.445900
77.388800 0.439900
77.515800 0.438500
77.642700 0.436700
77.769700 0.434100
77.896700 0.435100
78.023700 0.437400
78.150700 0.437700
78.277600 0.434600
78.404600 0.432800
78.531600 0.430700
78.658600 0.432300
78.785600 0.420300
78.912500 0.417600
79.039500 0.413700
79.166500 0.414300
79.293500 0.415200
79.420400 0.416800
79.547400 0.429300
79.674400 0.409600
79.801400 0.411000
79.928400 0.414400
80.055300 0.421900
80.182300 0.430100
80.309300 0.437800
80.436300 0.433600
80.563300 0.438800
80.690200 0.436700
80.817200 0.447600
80.944200 0.458700
81.071200 0.458300
81.198200 0.458300
81.325100 0.475000
81.452100 0.470100
81.579100 0.469800
81.706100 0.467700
81.833000 0.466000
81.960000 0.464200
82.087000 0.467500
82.214000 0.471700
82.341000 0.474000
82.467900 0.476800
82.594900 0.473800
82.721900 0.465900
82.848900 0.464400
82.975900 0.460300
83.102800 0.451000
83.229800 0.443700
83.356800 0.429900
83.483800 0.421500
83.610800 0.447300
83.737700 0.437200
83.864700 0.426000
83.991700 0.424300
84.118700 0.426000
84.245600 0.427200
84.372600 0.429100
84.499600 0.429800
84.626600 0.428400
84.753600 0.437300
84.880500 0.436700
85.007500 0.440200
85.134500 0.446000
85.261500 0.451000
85.388500 0.450400
85.515400 0.456100
85.642400 0.468300
85.769400 0.474100
85.896400 0.475900
86.023400 0.474500
86.150300 0.478700
86.277300 0.483000
86.404300 0.489500
86.531300 0.508200
86.658200 0.509700
86.785200 0.505200
86.912200 0.505700
87.039200 0.498400
87.166200 0.490900
87.293100 0.484500
87.420100 0.477300
87.547100 0.472000
87.674100 0.459900
87.801100 0.447400
87.928000 0.440700
88.055000 0.436300
88.182000 0.434700
88.309000 0.433500
88.436000 0.432400
88.562900 0.431700
88.689900 0.431700
88.816900 0.432100
88.943900 0.432400
89.070800 0.435300
89.197800 0.442300
89.324800 0.447600
89.451800 0.450600
89.578800 0.450900
89.705700 0.449800
89.832700 0.463400
89.959700 0.458200
90.086700 0.449000
90.213700 0.442800
90.340600 0.443400
90.467600 0.451100
90.594600 0.454900
90.721600 0.459500
90.848600 0.461900
90.975500 0.465100
91.102500 0.468200
91.229500 0.469900
91.356500 0.477100
91.483400 0.478900
91.610400 0.479600
91.737400 0.474200
91.864400 0.460200
91.991400 0.456800
92.118300 0.454600
92.245300 0.462100
92.372300 0.473000
92.499300 0.469600
92.626300 0.466900
92.753200 0.468500
92.880200 0.472500
93.007200 0.481900
93.134200 0.489700
93.261200 0.497600
93.388100 0.504800
93.515100 0.499000
93.642100 0.492900
93.769100 0.486200
93.896000 0.482000
94.023000 0.472600
94.150000 0.467300
94.277000 0.473600
94.404000 0.478500
94.530900 0.482900
94.657900 0.485600
94.784900 0.491000
94.911900 0.489100
95.038900 0.484900
95.165800 0.482400
95.292800 0.480300
95.419800 0.477400
95.546800 0.477500
95.673800 0.478000
95.800700 0.478700
95.927700 0.478200
96.054700 0.476800
96.181700 0.474300
96.308600 0.470900
96.435600 0.468500
96.562600 0.467900
96.689600 0.466600
96.816600 0.461400
96.943500 0.460000
97.070500 0.457200
97.197500 0.455100
97.324500 0.459900
97.451500 0.462000
97.578400 0.461800
97.705400 0.459000
97.832400 0.456500
97.959400 0.452500
98.086400 0.449700
98.213300 0.448300
98.340300 0.454800
98.467300 0.455200
98.594300 0.450600
98.721200 0.451200
98.848200 0.453800
98.975200 0.478000
99.102200 0.469400
99.229200 0.472200
99.356100 0.476400
99.483100 0.480800
99.610100 0.488500
99.737100 0.483200
99.864100 0.479700
99.991000 0.478500
100.118000 0.477000
100.245000 0.499000
100.372000 0.506000
100.499000 0.518100
100.625900 0.512800
100.752900 0.510600
100.879900 0.512100
101.006900 0.512600
101.133800 0.514100
101.260800 0.516800
101.387800 0.518700
101.514800 0.519300
101.641800 0.522500
101.768700 0.526700
101.895700 0.530700
102.022700 0.525600
102.149700 0.530400
102.276700 0.541500
102.403600 0.531700
102.530600 0.522400
102.657600 0.517200
102.784600 0.509100
102.911600 0.509000
103.038500 0.513000
103.165500 0.513300
103.292500 0.511800
103.419500 0.509100
103.546400 0.506400
103.673400 0.501700
103.800400 0.498900
103.927400 0.496900
104.054400 0.497900
104.181300 0.503300
104.308300 0.500600
104.435300 0.488800
104.562300 0.486200
104.689300 0.470800
104.816200 0.470600
104.943200 0.464300
105.070200 0.461400
105.197200 0.461500
105.324200 0.465000
105.451100 0.469600
105.578100 0.476300
105.705100 0.488300
105.832100 0.507200
105.959000 0.506900
106.086000 0.507600
106.213000 0.506100
106.340000 0.502400
106.467000 0.492600
106.593900 0.492600
106.720900 0.491700
106.847900 0.491200
106.974900 0.490800
107.101900 0.493200
