set title 'mp-1216530 - Density of States'
set xlabel 'Energy (eV)'
set ylabel 'DOS (states/eV)'
set grid
set xrange [-10:10]
set yrange [0:58.751]
set xzeroaxis lt -1
set terminal png size 800,600
set output 'mp-1216530_dos_gnuplot.png'
plot '-' using 1:2 with lines title 'DOS'
-13.616600 0.000000
-13.587600 0.000000
-13.558500 0.000000
-13.529500 0.000000
-13.500500 0.000000
-13.471500 0.000000
-13.442500 0.000000
-13.413400 0.000000
-13.384400 0.000000
-13.355400 0.000000
-13.326400 0.000000
-13.297400 0.000000
-13.268300 0.000000
-13.239300 0.000000
-13.210300 0.000000
-13.181300 0.000000
-13.152300 0.000000
-13.123200 0.000000
-13.094200 0.000000
-13.065200 0.000000
-13.036200 0.000000
-13.007200 0.000000
-12.978100 0.000000
-12.949100 0.000000
-12.920100 0.000000
-12.891100 0.000000
-12.862100 0.000000
-12.833000 0.000000
-12.804000 0.000000
-12.775000 0.000000
-12.746000 0.000000
-12.716900 0.000000
-12.687900 0.000000
-12.658900 0.000000
-12.629900 0.000000
-12.600900 0.000000
-12.571800 0.000000
-12.542800 0.000000
-12.513800 0.000000
-12.484800 0.000000
-12.455800 0.000000
-12.426700 0.000000
-12.397700 0.000000
-12.368700 0.000000
-12.339700 0.000000
-12.310700 0.000000
-12.281600 0.000000
-12.252600 0.000000
-12.223600 0.000000
-12.194600 0.000000
-12.165600 0.000000
-12.136500 0.000000
-12.107500 0.000000
-12.078500 0.000000
-12.049500 0.000000
-12.020500 0.000000
-11.991400 0.000000
-11.962400 0.000000
-11.933400 0.000000
-11.904400 0.000000
-11.875400 0.000000
-11.846300 0.000000
-11.817300 0.000000
-11.788300 0.000000
-11.759300 0.000000
-11.730300 0.000000
-11.701200 0.000000
-11.672200 0.000000
-11.643200 0.000000
-11.614200 0.000000
-11.585200 0.000000
-11.556100 0.000000
-11.527100 0.000000
-11.498100 0.000000
-11.469100 0.000000
-11.440100 0.000000
-11.411000 0.000000
-11.382000 0.000000
-11.353000 0.000000
-11.324000 0.000000
-11.295000 0.000000
-11.265900 0.000000
-11.236900 0.000000
-11.207900 0.000000
-11.178900 0.000000
-11.149900 0.000000
-11.120800 0.000000
-11.091800 0.000000
-11.062800 0.000000
-11.033800 0.000000
-11.004700 0.000000
-10.975700 4.520900
-10.946700 16.954600
-10.917700 41.963200
-10.888700 25.910300
-10.859600 64.468600
-10.830600 69.467900
-10.801600 143.455900
-10.772600 26.028900
-10.743600 17.240900
-10.714500 19.435700
-10.685500 4.722800
-10.656500 0.000000
-10.627500 0.000000
-10.598500 0.000000
-10.569400 0.000000
-10.540400 0.000000
-10.511400 0.000000
-10.482400 0.000000
-10.453400 0.000000
-10.424300 0.000000
-10.395300 0.000000
-10.366300 0.000000
-10.337300 0.000000
-10.308300 0.000000
-10.279200 0.000000
-10.250200 0.000000
-10.221200 0.000000
-10.192200 0.000000
-10.163200 0.000000
-10.134100 0.000000
-10.105100 0.000000
-10.076100 0.000000
-10.047100 0.000000
-10.018100 0.000000
-9.989000 0.000000
-9.960000 0.000000
-9.931000 0.000000
-9.902000 0.000000
-9.873000 0.000000
-9.843900 0.000000
-9.814900 0.000000
-9.785900 0.000000
-9.756900 0.000000
-9.727900 0.000000
-9.698800 0.000000
-9.669800 0.000000
-9.640800 0.000000
-9.611800 0.000000
-9.582800 0.000000
-9.553700 0.000000
-9.524700 0.000000
-9.495700 0.000000
-9.466700 0.000000
-9.437700 0.000000
-9.408600 0.000000
-9.379600 0.000000
-9.350600 0.000000
-9.321600 0.000000
-9.292600 0.000000
-9.263500 0.000000
-9.234500 0.000000
-9.205500 0.000000
-9.176500 0.000000
-9.147400 0.000000
-9.118400 0.000000
-9.089400 0.000000
-9.060400 0.000000
-9.031400 0.000000
-9.002300 0.000000
-8.973300 0.000000
-8.944300 0.000000
-8.915300 0.000000
-8.886300 0.000000
-8.857200 0.000000
-8.828200 0.000000
-8.799200 0.000000
-8.770200 0.000000
-8.741200 0.000000
-8.712100 0.000000
-8.683100 0.000000
-8.654100 0.000000
-8.625100 0.000000
-8.596100 0.000000
-8.567000 0.000000
-8.538000 0.000000
-8.509000 0.000000
-8.480000 0.000000
-8.451000 0.000000
-8.421900 0.000000
-8.392900 0.000000
-8.363900 0.000000
-8.334900 0.000000
-8.305900 0.000000
-8.276800 0.000000
-8.247800 0.000000
-8.218800 0.000000
-8.189800 0.000000
-8.160800 0.000000
-8.131700 0.000000
-8.102700 0.000000
-8.073700 0.000000
-8.044700 0.000000
-8.015700 0.000000
-7.986600 0.000000
-7.957600 0.000000
-7.928600 0.000000
-7.899600 0.000000
-7.870600 0.000000
-7.841500 0.000000
-7.812500 0.000000
-7.783500 0.000000
-7.754500 0.000000
-7.725500 0.000000
-7.696400 0.000000
-7.667400 0.000000
-7.638400 0.000000
-7.609400 0.000000
-7.580400 0.000000
-7.551300 0.000000
-7.522300 0.000000
-7.493300 0.000000
-7.464300 0.000000
-7.435200 0.000000
-7.406200 0.000000
-7.377200 0.000000
-7.348200 0.000000
-7.319200 0.000000
-7.290100 0.000000
-7.261100 0.000000
-7.232100 0.000000
-7.203100 0.000000
-7.174100 0.000000
-7.145000 0.000000
-7.116000 0.000000
-7.087000 0.000000
-7.058000 0.000000
-7.029000 0.000000
-6.999900 0.000000
-6.970900 0.000000
-6.941900 0.000000
-6.912900 0.000000
-6.883900 0.000000
-6.854800 0.000000
-6.825800 0.000000
-6.796800 0.000000
-6.767800 0.000000
-6.738800 0.000000
-6.709700 0.000000
-6.680700 0.000000
-6.651700 0.000000
-6.622700 0.000000
-6.593700 0.000000
-6.564600 0.000000
-6.535600 0.000000
-6.506600 0.000000
-6.477600 0.000000
-6.448600 0.000000
-6.419500 0.000000
-6.390500 0.000000
-6.361500 0.000000
-6.332500 0.000000
-6.303500 0.000000
-6.274400 0.000000
-6.245400 0.000000
-6.216400 0.000000
-6.187400 0.000000
-6.158400 0.000000
-6.129300 0.000000
-6.100300 0.000000
-6.071300 0.000000
-6.042300 0.000000
-6.013300 0.000000
-5.984200 0.000000
-5.955200 0.000000
-5.926200 0.000000
-5.897200 0.000000
-5.868200 0.000000
-5.839100 0.000000
-5.810100 0.000000
-5.781100 0.000000
-5.752100 0.000000
-5.723000 0.000000
-5.694000 0.000000
-5.665000 0.000000
-5.636000 0.000000
-5.607000 0.000000
-5.577900 0.000000
-5.548900 0.000000
-5.519900 0.000000
-5.490900 7.019600
-5.461900 8.720700
-5.432800 11.275000
-5.403800 18.555600
-5.374800 21.402000
-5.345800 19.818700
-5.316800 33.135100
-5.287700 21.367600
-5.258700 5.505800
-5.229700 32.607300
-5.200700 16.075800
-5.171700 53.410300
-5.142600 16.306900
-5.113600 25.182800
-5.084600 10.249900
-5.055600 16.725000
-5.026600 9.128600
-4.997500 6.756400
-4.968500 1.296000
-4.939500 0.000000
-4.910500 0.000000
-4.881500 0.000000
-4.852400 0.000000
-4.823400 0.000000
-4.794400 0.000000
-4.765400 0.000000
-4.736400 0.000000
-4.707300 0.000000
-4.678300 0.000000
-4.649300 0.000000
-4.620300 0.000000
-4.591300 0.000000
-4.562200 0.000000
-4.533200 0.000000
-4.504200 0.000000
-4.475200 0.000000
-4.446200 0.003600
-4.417100 0.035500
-4.388100 0.085300
-4.359100 0.143300
-4.330100 0.162500
-4.301100 0.174100
-4.272000 0.189900
-4.243000 0.205700
-4.214000 0.225300
-4.185000 0.245500
-4.156000 0.264200
-4.126900 0.283900
-4.097900 0.302700
-4.068900 0.317800
-4.039900 0.332000
-4.010900 0.347500
-3.981800 0.364700
-3.952800 0.391300
-3.923800 0.418300
-3.894800 0.441200
-3.865700 0.447300
-3.836700 0.424400
-3.807700 0.430900
-3.778700 0.437100
-3.749700 0.443100
-3.720600 0.448700
-3.691600 0.453800
-3.662600 0.455400
-3.633600 0.454400
-3.604600 0.453100
-3.575500 0.450500
-3.546500 0.448400
-3.517500 0.447100
-3.488500 0.447800
-3.459500 0.449800
-3.430400 0.451900
-3.401400 0.454200
-3.372400 0.456600
-3.343400 0.459000
-3.314400 0.461400
-3.285300 0.463600
-3.256300 0.465800
-3.227300 0.467700
-3.198300 0.469300
-3.169300 0.469700
-3.140200 0.470000
-3.111200 0.472300
-3.082200 0.473700
-3.053200 0.474600
-3.024200 0.475300
-2.995100 0.476200
-2.966100 0.477700
-2.937100 0.479700
-2.908100 0.481900
-2.879100 0.484200
-2.850000 0.486500
-2.821000 0.488800
-2.792000 0.491000
-2.763000 0.493300
-2.734000 0.495600
-2.704900 0.497800
-2.675900 0.499900
-2.646900 0.502100
-2.617900 0.504100
-2.588900 0.506100
-2.559800 0.508400
-2.530800 0.511200
-2.501800 0.514500
-2.472800 0.517800
-2.443800 0.521200
-2.414700 0.524500
-2.385700 0.528200
-2.356700 0.532100
-2.327700 0.536200
-2.298700 0.540500
-2.269600 0.545000
-2.240600 0.549700
-2.211600 0.554600
-2.182600 0.560000
-2.153500 0.565800
-2.124500 0.571800
-2.095500 0.578200
-2.066500 0.592200
-2.037500 0.622400
-2.008400 0.649900
-1.979400 0.672900
-1.950400 0.689100
-1.921400 0.706600
-1.892400 0.725100
-1.863300 0.741200
-1.834300 0.756800
-1.805300 0.775500
-1.776300 0.795300
-1.747300 0.815800
-1.718200 0.836000
-1.689200 0.854900
-1.660200 0.878400
-1.631200 0.906900
-1.602200 0.939300
-1.573100 0.975600
-1.544100 1.016700
-1.515100 1.063400
-1.486100 1.114600
-1.457100 1.300300
-1.428000 1.471900
-1.399000 1.449300
-1.370000 1.418500
-1.341000 1.426300
-1.312000 1.466700
-1.282900 1.550800
-1.253900 1.436000
-1.224900 1.105500
-1.195900 1.032400
-1.166900 0.964100
-1.137800 0.934400
-1.108800 0.933800
-1.079800 0.962400
-1.050800 0.990900
-1.021800 1.003100
-0.992700 0.998400
-0.963700 0.944300
-0.934700 0.875800
-0.905700 0.777000
-0.876700 0.626100
-0.847600 0.473900
-0.818600 0.320500
-0.789600 0.301500
-0.760600 0.307300
-0.731600 0.313900
-0.702500 0.320600
-0.673500 0.327300
-0.644500 0.333600
-0.615500 0.340000
-0.586500 0.346400
-0.557400 0.352900
-0.528400 0.359700
-0.499400 0.366700
-0.470400 0.373900
-0.441300 0.381200
-0.412300 0.388700
-0.383300 0.396300
-0.354300 0.404000
-0.325300 0.412100
-0.296200 0.425100
-0.267200 0.440400
-0.238200 0.457100
-0.209200 0.486100
-0.180200 0.506300
-0.151100 0.514400
-0.122100 0.510500
-0.093100 0.507200
-0.064100 0.514600
-0.035100 0.521000
-0.006000 0.526300
0.023000 0.530600
0.052000 0.529000
0.081000 0.527300
0.110000 0.528500
0.139100 0.532500
0.168100 0.538400
0.197100 0.544600
0.226100 0.550800
0.255100 0.556700
0.284200 0.562000
0.313200 0.566900
0.342200 0.571800
0.371200 0.576700
0.400200 0.581900
0.429300 0.589900
0.458300 0.598600
0.487300 0.607800
0.516300 0.617600
0.545300 0.628700
0.574400 0.641300
0.603400 0.655300
0.632400 0.670800
0.661400 0.688700
0.690400 0.709300
0.719500 0.732600
0.748500 0.761600
0.777500 0.811600
0.806500 0.893000
0.835500 1.016600
0.864600 1.104500
0.893600 1.068000
0.922600 1.078800
0.951600 1.140000
0.980600 1.184700
1.009700 1.201600
1.038700 1.195100
1.067700 1.191100
1.096700 1.182500
1.125700 1.187900
1.154800 1.205700
1.183800 1.259100
1.212800 1.270100
1.241800 1.277600
1.270900 1.309300
1.299900 1.322500
1.328900 1.292400
1.357900 1.221600
1.386900 1.251800
1.416000 1.314600
1.445000 1.451800
1.474000 1.258600
1.503000 1.164200
1.532000 1.053900
1.561100 0.886600
1.590100 0.826000
1.619100 0.231500
1.648100 0.106200
1.677100 0.022400
1.706200 0.000000
1.735200 0.000000
1.764200 0.000000
1.793200 0.000000
1.822200 0.000000
1.851300 0.000000
1.880300 0.000000
1.909300 0.000000
1.938300 0.000000
1.967300 0.000000
1.996400 0.000000
2.025400 0.000000
2.054400 0.000000
2.083400 0.000000
2.112400 0.000000
2.141500 0.000000
2.170500 0.000000
2.199500 0.000000
2.228500 0.000000
2.257500 0.000000
2.286600 0.000000
2.315600 0.000000
2.344600 0.000000
2.373600 0.000000
2.402600 0.000000
2.431700 0.000000
2.460700 0.000000
2.489700 0.000000
2.518700 0.000000
2.547700 0.000000
2.576800 0.000000
2.605800 0.000000
2.634800 0.000000
2.663800 0.000000
2.692800 0.000000
2.721900 0.000000
2.750900 0.000000
2.779900 0.005800
2.808900 0.014600
2.837900 0.025300
2.867000 0.038100
2.896000 0.052800
2.925000 0.069500
2.954000 0.088500
2.983000 0.126300
3.012100 0.178000
3.041100 0.214400
3.070100 0.239200
3.099100 0.255800
3.128200 0.262800
3.157200 0.264900
3.186200 0.282300
3.215200 0.303800
3.244200 0.324300
3.273300 0.334900
3.302300 0.340500
3.331300 0.348000
3.360300 0.360200
3.389300 0.379700
3.418400 0.398500
3.447400 0.417600
3.476400 0.436300
3.505400 0.454200
3.534400 0.471400
3.563500 0.488600
3.592500 0.507800
3.621500 0.531700
3.650500 0.555400
3.679500 0.574800
3.708600 0.590700
3.737600 0.607400
3.766600 0.633400
3.795600 0.667200
3.824600 0.701800
3.853700 0.725000
3.882700 0.746900
3.911700 0.767000
3.940700 0.783400
3.969700 0.797400
3.998800 0.811100
4.027800 0.829400
4.056800 0.849500
4.085800 0.871500
4.114800 0.895900
4.143900 0.922600
4.172900 0.951500
4.201900 0.981300
4.230900 1.019100
4.259900 1.069800
4.289000 1.123100
4.318000 1.175600
4.347000 1.200500
4.376000 1.198100
4.405000 1.193800
4.434100 1.204000
4.463100 1.219400
4.492100 1.251100
4.521100 1.285000
4.550100 1.321200
4.579200 1.358800
4.608200 1.417700
4.637200 1.395000
4.666200 1.370500
4.695200 1.359000
4.724300 1.359400
4.753300 1.426300
4.782300 1.477500
4.811300 1.514300
4.840400 1.574600
4.869400 1.624900
4.898400 1.645500
4.927400 1.638800
4.956400 1.650300
4.985500 1.617600
5.014500 1.559000
5.043500 1.484100
5.072500 1.413400
5.101500 1.350900
5.130600 1.293300
5.159600 1.262300
5.188600 1.219400
5.217600 1.179700
5.246600 1.157800
5.275700 1.116400
5.304700 1.053300
5.333700 1.012600
5.362700 1.010900
5.391700 1.021400
5.420800 1.025500
5.449800 1.026200
5.478800 1.023200
5.507800 1.016500
5.536800 1.006300
5.565900 1.192800
5.594900 1.003300
5.623900 1.014700
5.652900 1.072100
5.681900 1.072400
5.711000 1.135200
5.740000 0.910600
5.769000 0.904100
5.798000 0.908000
5.827000 0.918000
5.856100 0.929500
5.885100 0.941100
5.914100 0.952300
5.943100 0.963100
5.972100 0.973600
6.001200 1.008500
6.030200 1.039200
6.059200 1.047800
6.088200 1.074600
6.117200 1.023800
6.146300 0.967600
6.175300 0.928800
6.204300 0.906600
6.233300 0.893500
6.262300 0.886700
6.291400 0.895000
6.320400 0.916800
6.349400 0.926100
6.378400 0.945800
6.407400 0.969800
6.436500 0.968300
6.465500 0.927400
6.494500 0.950700
6.523500 0.979600
6.552600 0.992300
6.581600 0.997100
6.610600 1.002200
6.639600 1.007500
6.668600 1.015000
6.697700 1.029400
6.726700 1.050200
6.755700 1.076500
6.784700 1.102300
6.813700 1.116000
6.842800 1.127000
6.871800 1.136900
6.900800 1.144200
6.929800 1.150300
6.958800 1.159100
6.987900 1.172000
7.016900 1.213300
7.045900 1.166300
7.074900 1.140800
7.103900 1.137200
7.133000 1.134400
7.162000 1.133400
7.191000 1.136300
7.220000 1.139400
7.249000 1.138800
7.278100 1.139400
7.307100 1.141500
7.336100 1.144600
7.365100 1.146600
7.394100 1.147900
7.423200 1.148500
7.452200 1.148700
7.481200 1.149000
7.510200 1.158100
7.539200 1.177300
7.568300 1.177800
7.597300 1.171700
7.626300 1.159100
7.655300 1.140600
7.684300 1.118200
7.713400 1.106700
7.742400 1.103700
7.771400 1.100800
7.800400 1.096900
7.829400 1.091300
7.858500 1.081000
7.887500 1.068700
7.916500 1.057000
7.945500 1.048600
7.974500 1.042900
8.003600 1.039700
8.032600 1.038800
8.061600 1.059400
8.090600 1.087500
8.119600 1.092200
8.148700 1.114000
8.177700 1.135200
8.206700 1.154300
8.235700 1.174700
8.264700 1.196100
8.293800 1.216600
8.322800 1.238900
8.351800 1.259000
8.380800 1.278400
8.409900 1.301500
8.438900 1.320800
8.467900 1.337700
8.496900 1.386100
8.525900 1.418800
8.555000 1.380200
8.584000 1.380700
8.613000 1.387200
8.642000 1.397900
8.671000 1.412200
8.700100 1.424200
8.729100 1.422000
8.758100 1.425900
8.787100 1.433700
8.816100 1.443500
8.845200 1.454500
8.874200 1.472200
8.903200 1.494800
8.932200 1.528100
8.961200 1.563000
8.990300 1.593400
9.019300 1.616000
9.048300 1.637700
9.077300 1.668300
9.106300 1.680100
9.135400 1.683500
9.164400 1.690700
9.193400 1.705100
9.222400 1.695400
9.251400 1.629200
9.280500 1.632100
9.309500 1.636900
9.338500 1.654900
9.367500 1.662700
9.396500 1.659400
9.425600 1.647800
9.454600 1.626200
9.483600 1.590000
9.512600 1.556600
9.541600 1.524700
9.570700 1.499500
9.599700 1.481500
9.628700 1.453100
9.657700 1.421200
9.686700 1.390000
9.715800 1.365500
9.744800 1.344500
9.773800 1.328400
9.802800 1.321600
9.831800 1.365500
9.860900 1.417200
9.889900 1.436100
9.918900 1.325500
9.947900 1.314500
9.976900 1.301500
10.006000 1.288000
10.035000 1.284400
10.064000 1.292500
10.093000 1.284100
10.122100 1.278500
10.151100 1.280400
10.180100 1.281700
10.209100 1.294700
10.238100 1.302800
10.267200 1.297400
10.296200 1.260500
10.325200 1.367000
10.354200 1.222400
10.383200 1.220500
10.412300 1.225000
10.441300 1.235100
10.470300 1.250700
10.499300 1.270200
10.528300 1.294100
10.557400 1.325000
10.586400 1.348200
10.615400 1.357900
10.644400 1.358400
10.673400 1.356700
10.702500 1.346700
10.731500 1.327500
10.760500 1.319900
10.789500 1.328900
10.818500 1.356900
10.847600 1.376400
10.876600 1.385500
10.905600 1.358800
10.934600 1.328000
10.963600 1.305100
10.992700 1.298900
11.021700 1.300800
11.050700 1.307400
11.079700 1.312600
11.108700 1.317100
11.137800 1.320400
11.166800 1.322100
11.195800 1.322300
11.224800 1.321600
11.253800 1.319500
11.282900 1.311900
11.311900 1.302600
11.340900 1.290700
11.369900 1.274900
11.398900 1.257100
11.428000 1.239700
11.457000 1.224300
11.486000 1.206500
11.515000 1.190800
11.544000 1.178300
11.573100 1.169300
11.602100 1.162600
11.631100 1.159100
11.660100 1.154100
11.689100 1.150400
11.718200 1.149700
11.747200 1.152400
11.776200 1.157100
11.805200 1.168400
11.834300 1.181700
11.863300 1.192100
11.892300 1.200000
11.921300 1.205200
11.950300 1.200800
11.979400 1.188500
12.008400 1.171000
12.037400 1.151300
12.066400 1.130500
12.095400 1.107000
12.124500 1.084600
12.153500 1.067100
12.182500 1.053200
12.211500 1.041100
12.240500 1.029300
12.269600 1.013100
12.298600 1.007000
12.327600 0.999300
12.356600 0.987400
12.385600 0.983500
12.414700 0.984900
12.443700 0.972300
12.472700 0.943200
12.501700 0.927000
12.530700 0.916100
12.559800 0.904700
12.588800 0.895000
12.617800 0.897500
12.646800 0.877000
12.675800 0.862800
12.704900 0.854400
12.733900 0.853000
12.762900 0.859600
12.791900 1.012300
12.820900 1.002700
12.850000 0.987500
12.879000 0.978500
12.908000 0.975300
12.937000 0.976300
12.966000 0.980600
12.995100 0.987300
13.024100 1.006100
13.053100 1.049700
13.082100 1.002200
13.111100 1.007100
13.140200 1.022000
13.169200 1.040400
13.198200 1.058000
13.227200 1.071000
13.256200 1.072100
13.285300 1.075800
13.314300 1.082600
13.343300 1.091600
13.372300 1.101100
13.401300 1.108200
13.430400 1.112900
13.459400 1.115200
13.488400 1.120000
13.517400 1.135600
13.546500 1.153400
13.575500 1.170800
13.604500 1.185900
13.633500 1.199800
13.662500 1.219100
13.691600 1.290600
13.720600 1.271300
13.749600 1.292900
13.778600 1.312800
13.807600 1.330300
13.836700 1.343300
13.865700 1.348100
13.894700 1.349100
13.923700 1.351100
13.952700 1.355500
13.981800 1.349100
14.010800 1.347000
14.039800 1.357900
14.068800 1.378700
14.097800 1.402000
14.126900 1.422300
14.155900 1.438600
14.184900 1.450900
14.213900 1.467100
14.242900 1.491900
14.272000 1.549700
14.301000 1.632200
14.330000 1.634000
14.359000 1.659600
14.388000 1.658500
14.417100 1.657900
14.446100 1.659700
14.475100 1.664900
14.504100 1.687900
14.533100 1.636900
14.562200 1.624200
14.591200 1.612700
14.620200 1.598200
14.649200 1.577600
14.678200 1.561800
14.707300 1.551600
14.736300 1.542800
14.765300 1.541700
14.794300 1.548300
14.823300 1.556000
14.852400 1.558900
14.881400 1.555800
14.910400 1.567700
14.939400 1.583100
14.968400 1.624200
14.997500 1.671200
15.026500 1.685300
15.055500 1.671800
15.084500 1.645300
15.113500 1.677500
15.142600 1.682200
15.171600 1.632400
15.200600 1.652100
15.229600 1.722300
15.258600 1.762200
15.287700 1.791500
15.316700 1.820100
15.345700 1.849000
15.374700 1.878400
15.403800 1.909100
15.432800 1.934800
15.461800 1.961700
15.490800 1.984800
15.519800 1.997200
15.548900 2.001500
15.577900 2.006500
15.606900 2.025700
15.635900 2.047300
15.664900 2.066400
15.694000 2.081500
15.723000 2.144700
15.752000 2.095000
15.781000 1.961300
15.810000 1.824000
15.839100 1.793100
15.868100 1.804200
15.897100 1.808500
15.926100 1.812200
15.955100 1.756100
15.984200 1.698700
16.013200 1.710200
16.042200 1.750300
16.071200 1.783000
16.100200 1.807500
16.129300 1.816400
16.158300 1.814000
16.187300 1.778500
16.216300 1.740000
16.245300 1.703500
16.274400 1.612200
16.303400 1.519600
16.332400 1.541400
16.361400 1.445100
16.390400 1.236600
16.419500 1.131700
16.448500 1.073000
16.477500 1.019100
16.506500 0.977200
16.535500 0.937000
16.564600 0.900700
16.593600 0.870700
16.622600 0.847100
16.651600 0.826200
16.680600 0.808200
16.709700 0.793300
16.738700 0.795300
16.767700 0.772000
