set title 'mp-1183164 - Density of States'
set xlabel 'Energy (eV)'
set ylabel 'DOS (states/eV)'
set grid
set xrange [-10:10]
set yrange [0:13.061]
set xzeroaxis lt -1
set terminal png size 800,600
set output 'mp-1183164_dos_gnuplot.png'
plot '-' using 1:2 with lines title 'DOS'
-11.090000 0.000000
-11.063900 0.000000
-11.037800 0.000000
-11.011800 0.000000
-10.985700 0.000000
-10.959700 0.000000
-10.933600 0.000000
-10.907500 0.000000
-10.881500 0.000000
-10.855400 0.000000
-10.829300 0.000000
-10.803300 0.000000
-10.777200 0.000000
-10.751200 0.000000
-10.725100 0.000000
-10.699000 0.000000
-10.673000 0.000000
-10.646900 0.000000
-10.620800 0.000000
-10.594800 0.000000
-10.568700 0.000000
-10.542600 0.000000
-10.516600 0.000000
-10.490500 0.000000
-10.464500 0.000000
-10.438400 0.000000
-10.412300 0.000000
-10.386300 0.000000
-10.360200 0.000000
-10.334100 0.000000
-10.308100 0.000000
-10.282000 0.000000
-10.256000 0.000000
-10.229900 0.000000
-10.203800 0.000000
-10.177800 0.000000
-10.151700 0.000000
-10.125600 0.000000
-10.099600 0.000000
-10.073500 0.000000
-10.047500 0.000000
-10.021400 0.000000
-9.995300 0.000000
-9.969300 0.000000
-9.943200 0.000000
-9.917100 0.000000
-9.891100 0.000000
-9.865000 0.000000
-9.838900 0.000000
-9.812900 0.000000
-9.786800 0.000000
-9.760800 0.000000
-9.734700 0.000000
-9.708600 0.000000
-9.682600 0.000000
-9.656500 0.000000
-9.630400 0.000000
-9.604400 0.000000
-9.578300 0.000000
-9.552300 0.000000
-9.526200 0.000000
-9.500100 0.000000
-9.474100 0.000000
-9.448000 0.000000
-9.421900 0.000000
-9.395900 0.000000
-9.369800 0.000000
-9.343800 0.000000
-9.317700 0.000000
-9.291600 0.000000
-9.265600 0.000000
-9.239500 0.000000
-9.213400 0.000000
-9.187400 0.000000
-9.161300 0.000000
-9.135200 0.000000
-9.109200 0.000000
-9.083100 0.000000
-9.057100 0.000000
-9.031000 0.000000
-9.004900 0.000000
-8.978900 0.000000
-8.952800 0.000000
-8.926700 0.000000
-8.900700 0.000000
-8.874600 0.000000
-8.848600 0.000000
-8.822500 0.000000
-8.796400 0.000000
-8.770400 0.000000
-8.744300 0.000000
-8.718200 0.000300
-8.692200 0.040400
-8.666100 0.142000
-8.640000 0.184700
-8.614000 0.199000
-8.587900 0.237600
-8.561900 0.278300
-8.535800 0.312800
-8.509700 0.336100
-8.483700 0.354900
-8.457600 0.380400
-8.431500 0.407700
-8.405500 0.435300
-8.379400 0.463000
-8.353400 0.487700
-8.327300 0.513400
-8.301200 0.540700
-8.275200 0.565500
-8.249100 0.590400
-8.223000 0.616800
-8.197000 0.643800
-8.170900 0.673300
-8.144900 0.703600
-8.118800 0.734000
-8.092700 0.764800
-8.066700 0.796600
-8.040600 0.829000
-8.014500 0.861800
-7.988500 0.898400
-7.962400 0.936200
-7.936300 0.975000
-7.910300 1.014700
-7.884200 1.057200
-7.858200 1.103000
-7.832100 1.149700
-7.806000 1.198600
-7.780000 1.253600
-7.753900 1.314100
-7.727800 1.376400
-7.701800 1.440500
-7.675700 1.506900
-7.649700 1.576000
-7.623600 1.659200
-7.597500 1.752500
-7.571500 1.855500
-7.545400 1.972500
-7.519300 2.107800
-7.493300 2.247200
-7.467200 2.397800
-7.441200 2.560500
-7.415100 2.760700
-7.389000 3.155600
-7.363000 3.674900
-7.336900 4.128000
-7.310800 4.107900
-7.284800 4.279800
-7.258700 4.218200
-7.232600 4.399700
-7.206600 4.525400
-7.180500 4.594400
-7.154500 4.648000
-7.128400 4.737600
-7.102300 5.016700
-7.076300 5.145400
-7.050200 5.238600
-7.024100 5.486600
-6.998100 5.950200
-6.972000 6.782500
-6.946000 8.821000
-6.919900 10.377400
-6.893800 4.217000
-6.867800 0.000000
-6.841700 0.000000
-6.815600 0.000000
-6.789600 0.000000
-6.763500 0.000000
-6.737500 0.000000
-6.711400 0.000000
-6.685300 0.000000
-6.659300 0.000000
-6.633200 0.000000
-6.607100 0.000000
-6.581100 0.000000
-6.555000 0.000000
-6.528900 0.000000
-6.502900 0.000000
-6.476800 0.000000
-6.450800 0.000000
-6.424700 0.000000
-6.398600 0.000000
-6.372600 0.000000
-6.346500 0.000000
-6.320400 0.000000
-6.294400 0.000000
-6.268300 0.000000
-6.242300 0.000000
-6.216200 0.000000
-6.190100 0.000000
-6.164100 0.000000
-6.138000 0.000000
-6.111900 0.000000
-6.085900 0.000000
-6.059800 0.000000
-6.033800 0.000000
-6.007700 0.000000
-5.981600 0.000000
-5.955600 0.000000
-5.929500 0.000000
-5.903400 0.000000
-5.877400 0.000000
-5.851300 0.000000
-5.825200 0.000000
-5.799200 0.000000
-5.773100 0.000000
-5.747100 0.000000
-5.721000 0.000000
-5.694900 0.000000
-5.668900 0.000000
-5.642800 0.000000
-5.616700 0.000000
-5.590700 0.000000
-5.564600 0.000000
-5.538600 0.000000
-5.512500 0.000000
-5.486400 0.000000
-5.460400 0.000000
-5.434300 0.000000
-5.408200 0.000000
-5.382200 0.000000
-5.356100 0.000000
-5.330100 0.000000
-5.304000 0.000000
-5.277900 0.000000
-5.251900 0.000000
-5.225800 0.000000
-5.199700 0.000000
-5.173700 0.000000
-5.147600 0.000000
-5.121500 0.000000
-5.095500 0.000000
-5.069400 0.000000
-5.043400 0.000000
-5.017300 0.000000
-4.991200 0.000000
-4.965200 0.000000
-4.939100 0.000000
-4.913000 0.000000
-4.887000 0.000000
-4.860900 0.000000
-4.834900 0.000000
-4.808800 0.000000
-4.782700 0.000000
-4.756700 0.000000
-4.730600 0.000000
-4.704500 0.000000
-4.678500 0.000000
-4.652400 0.000000
-4.626400 0.000000
-4.600300 0.000000
-4.574200 0.000000
-4.548200 0.000000
-4.522100 0.000000
-4.496000 0.000000
-4.470000 0.000000
-4.443900 0.000000
-4.417800 0.000000
-4.391800 0.000000
-4.365700 0.000000
-4.339700 0.000000
-4.313600 0.000000
-4.287500 0.000000
-4.261500 0.000000
-4.235400 0.000000
-4.209300 0.000000
-4.183300 0.000000
-4.157200 0.000000
-4.131200 0.000000
-4.105100 0.000000
-4.079000 0.000000
-4.053000 0.000000
-4.026900 0.000000
-4.000800 0.000000
-3.974800 0.000000
-3.948700 0.000000
-3.922700 0.000000
-3.896600 0.000000
-3.870500 0.000000
-3.844500 0.000000
-3.818400 0.000000
-3.792300 0.000000
-3.766300 0.000000
-3.740200 0.000000
-3.714100 0.000000
-3.688100 0.000000
-3.662000 0.000000
-3.636000 0.000000
-3.609900 0.000000
-3.583800 0.000000
-3.557800 0.000000
-3.531700 0.000000
-3.505600 0.000000
-3.479600 0.000000
-3.453500 0.000000
-3.427500 0.000000
-3.401400 0.000000
-3.375300 0.000000
-3.349300 0.000000
-3.323200 0.000000
-3.297100 0.000000
-3.271100 0.000000
-3.245000 0.000000
-3.219000 0.000000
-3.192900 0.000000
-3.166800 0.000000
-3.140800 0.000000
-3.114700 0.000000
-3.088600 0.000000
-3.062600 0.000000
-3.036500 0.000000
-3.010400 0.000000
-2.984400 0.000000
-2.958300 0.000000
-2.932300 0.000000
-2.906200 0.000000
-2.880100 0.000000
-2.854100 0.609700
-2.828000 5.476400
-2.801900 7.564400
-2.775900 11.184200
-2.749800 11.873500
-2.723800 10.327900
-2.697700 9.414400
-2.671600 9.537400
-2.645600 10.576800
-2.619500 7.794500
-2.593400 6.504900
-2.567400 6.218300
-2.541300 4.880700
-2.515300 5.055400
-2.489200 6.562600
-2.463100 7.122000
-2.437100 5.502000
-2.411000 5.778000
-2.384900 6.429700
-2.358900 4.749400
-2.332800 5.702700
-2.306700 4.882500
-2.280700 5.126800
-2.254600 4.817800
-2.228600 4.986700
-2.202500 5.334500
-2.176400 5.922700
-2.150400 6.714100
-2.124300 10.624800
-2.098200 9.979900
-2.072200 9.101400
-2.046100 8.674800
-2.020100 8.305200
-1.994000 8.057200
-1.967900 8.131900
-1.941900 6.770800
-1.915800 6.419200
-1.889700 6.206400
-1.863700 6.048200
-1.837600 5.932800
-1.811500 5.874800
-1.785500 6.030600
-1.759400 6.340400
-1.733400 6.611300
-1.707300 6.979400
-1.681200 7.719200
-1.655200 8.141800
-1.629100 7.608900
-1.603000 7.211000
-1.577000 6.899800
-1.550900 6.578600
-1.524900 6.098400
-1.498800 5.496300
-1.472700 5.004600
-1.446700 5.047500
-1.420600 5.340000
-1.394500 5.552800
-1.368500 5.378400
-1.342400 5.372100
-1.316400 5.015500
-1.290300 4.833900
-1.264200 4.796600
-1.238200 4.672900
-1.212100 4.664300
-1.186000 4.761600
-1.160000 5.219600
-1.133900 3.751000
-1.107800 3.343300
-1.081800 3.103500
-1.055700 3.138900
-1.029700 2.933300
-1.003600 2.615400
-0.977500 2.989900
-0.951500 3.479200
-0.925400 3.489800
-0.899300 3.226100
-0.873300 3.243200
-0.847200 3.631400
-0.821200 3.702700
-0.795100 3.702000
-0.769000 3.896500
-0.743000 3.859200
-0.716900 3.671300
-0.690800 3.703000
-0.664800 4.200700
-0.638700 5.805000
-0.612700 5.058300
-0.586600 5.430500
-0.560500 5.823800
-0.534500 6.015700
-0.508400 6.057800
-0.482300 6.139900
-0.456300 6.270600
-0.430200 6.505200
-0.404100 6.694900
-0.378100 7.062400
-0.352000 6.126200
-0.326000 6.824000
-0.299900 7.052300
-0.273800 7.338300
-0.247800 7.649200
-0.221700 7.872400
-0.195600 6.866700
-0.169600 6.419800
-0.143500 6.703700
-0.117500 7.051700
-0.091400 8.640800
-0.065300 8.370400
-0.039300 6.921900
-0.013200 5.806100
0.012900 5.611000
0.038900 6.967500
0.065000 6.842200
0.091000 5.929700
0.117100 4.808100
0.143200 4.209000
0.169200 4.051000
0.195300 4.104500
0.221400 4.318900
0.247400 4.452500
0.273500 3.241300
0.299600 2.925800
0.325600 2.598600
0.351700 2.522200
0.377700 2.473700
0.403800 2.456700
0.429900 2.464100
0.455900 2.511300
0.482000 2.610600
0.508100 2.690100
0.534100 2.711600
0.560200 2.735600
0.586200 2.749700
0.612300 2.832800
0.638400 2.853600
0.664400 2.741600
0.690500 2.118900
0.716600 1.667500
0.742600 1.534800
0.768700 1.405000
0.794700 0.577200
0.820800 0.219600
0.846900 0.129500
0.872900 0.142900
0.899000 0.155800
0.925100 0.168400
0.951100 0.180900
0.977200 0.221100
1.003300 0.303600
1.029300 0.490100
1.055400 0.654700
1.081400 0.787600
1.107500 0.889800
1.133600 0.977400
1.159600 1.062800
1.185700 1.137200
1.211800 1.195900
1.237800 1.248300
1.263900 1.301500
1.289900 1.379800
1.316000 1.446100
1.342100 1.524900
1.368100 1.581800
1.394200 1.647600
1.420300 1.725300
1.446300 1.840500
1.472400 1.955700
1.498400 2.077200
1.524500 2.274200
1.550600 2.516100
1.576600 2.665700
1.602700 2.728200
1.628800 2.711400
1.654800 2.760400
1.680900 2.642200
1.707000 2.535100
1.733000 2.359400
1.759100 2.226200
1.785100 2.098800
1.811200 1.845100
1.837300 1.677600
1.863300 1.547200
1.889400 1.450900
1.915500 1.389200
1.941500 1.350000
1.967600 1.334900
1.993600 1.327800
2.019700 1.326800
2.045800 1.336000
2.071800 1.357400
2.097900 1.406700
2.124000 1.490000
2.150000 1.586300
2.176100 1.684600
2.202100 1.795400
2.228200 1.905500
2.254300 1.996000
2.280300 2.069500
2.306400 1.770900
2.332500 1.608600
2.358500 1.508200
2.384600 1.415700
2.410700 1.289100
2.436700 1.241400
2.462800 1.216500
2.488800 1.195400
2.514900 1.185900
2.541000 1.294100
2.567000 1.351100
2.593100 1.430200
2.619200 1.520900
2.645200 1.588100
2.671300 1.648100
2.697300 1.698800
2.723400 1.729700
2.749500 1.760400
2.775500 1.811800
2.801600 1.856100
2.827700 1.869200
2.853700 1.828200
2.879800 1.760900
2.905800 1.627400
2.931900 1.554200
2.958000 1.528100
2.984000 1.505700
3.010100 1.485000
3.036200 1.464700
3.062200 1.444700
3.088300 1.424800
3.114400 1.404400
3.140400 1.383800
3.166500 1.363600
3.192500 1.346600
3.218600 1.331900
3.244700 1.319600
3.270700 1.309900
3.296800 1.295300
3.322900 1.281600
3.348900 1.292300
3.375000 1.315500
3.401000 1.350200
3.427100 1.379400
3.453200 1.400300
3.479200 1.423300
3.505300 1.454600
3.531400 1.536200
3.557400 1.718700
3.583500 1.839700
3.609500 1.930400
3.635600 2.046200
3.661700 2.157700
3.687700 2.211500
3.713800 2.260600
3.739900 2.315000
3.765900 2.356700
3.792000 2.359700
3.818100 2.352900
3.844100 2.373500
3.870200 2.405200
3.896200 2.437000
3.922300 2.447800
3.948400 2.452100
3.974400 2.450000
4.000500 2.442600
4.026600 2.427300
4.052600 2.395400
4.078700 2.327400
4.104700 2.262600
4.130800 2.203800
4.156900 2.147900
4.182900 2.088200
4.209000 2.061700
4.235100 2.041000
4.261100 2.022800
4.287200 2.005600
4.313200 1.982600
4.339300 1.968100
4.365400 1.968100
4.391400 1.969000
4.417500 1.970000
4.443600 1.972300
4.469600 1.978300
4.495700 2.003000
4.521800 2.271900
4.547800 2.430100
4.573900 2.421300
4.599900 2.181200
4.626000 2.112900
4.652100 2.085100
4.678100 2.086300
4.704200 2.093300
4.730300 2.104300
4.756300 2.102100
4.782400 2.156200
4.808400 2.229900
4.834500 2.281900
4.860600 2.320400
4.886600 2.370500
4.912700 2.446500
4.938800 2.559600
4.964800 2.780400
4.990900 3.145500
5.016900 3.399800
5.043000 3.380200
5.069100 3.282800
5.095100 3.257900
5.121200 3.184500
5.147300 3.171800
5.173300 3.212600
5.199400 3.255600
5.225500 3.304600
5.251500 3.347200
5.277600 3.259700
5.303600 3.085700
5.329700 2.988000
5.355800 2.938500
5.381800 2.900000
5.407900 2.867400
5.434000 2.842700
5.460000 2.826600
5.486100 2.813400
5.512100 2.800700
5.538200 2.776300
5.564300 2.754000
5.590300 2.723400
5.616400 2.690900
5.642500 2.652100
5.668500 2.610900
5.694600 2.578300
5.720700 2.554200
5.746700 2.540700
5.772800 2.530300
5.798800 2.514400
5.824900 2.508500
5.851000 2.514100
5.877000 2.514000
5.903100 2.499800
5.929200 2.484600
5.955200 2.504600
5.981300 2.493300
6.007300 2.453200
6.033400 2.380000
6.059500 2.303800
6.085500 2.244200
6.111600 2.236100
6.137700 2.223400
6.163700 2.187100
6.189800 2.102000
6.215800 1.997500
6.241900 1.932500
6.268000 1.867100
6.294000 1.801600
6.320100 1.742700
6.346200 1.683900
6.372200 1.628400
6.398300 1.581400
6.424400 1.538100
6.450400 1.500700
6.476500 1.465900
6.502500 1.429100
6.528600 1.390700
6.554700 1.353000
6.580700 1.316300
6.606800 1.288200
6.632900 1.263500
6.658900 1.242200
6.685000 1.230900
6.711000 1.198400
6.737100 1.169100
6.763200 1.140000
6.789200 1.125400
6.815300 1.099900
6.841400 1.058900
6.867400 1.014700
6.893500 0.972100
6.919500 0.931300
6.945600 0.895300
6.971700 0.844700
6.997700 0.824100
7.023800 0.805400
7.049900 0.787900
7.075900 0.769100
7.102000 0.748800
7.128100 0.725200
7.154100 0.698900
7.180200 0.668400
7.206200 0.636600
7.232300 0.605100
7.258400 0.573100
7.284400 0.547400
7.310500 0.527000
7.336600 0.510200
7.362600 0.491700
7.388700 0.470700
7.414700 0.435700
7.440800 0.397600
7.466900 0.365800
7.492900 0.332400
7.519000 0.302900
7.545100 0.280900
7.571100 0.260500
7.597200 0.236700
7.623200 0.204100
7.649300 0.175800
7.675400 0.160100
7.701400 0.122400
7.727500 0.074400
7.753600 0.014400
7.779600 0.000300
7.805700 0.010100
7.831800 0.030500
7.857800 0.045900
7.883900 0.057000
7.909900 0.071600
7.936000 0.086000
7.962100 0.100300
7.988100 0.114400
8.014200 0.125400
8.040300 0.131200
8.066300 0.137100
8.092400 0.142200
8.118400 0.147400
8.144500 0.152600
8.170600 0.157900
8.196600 0.163400
8.222700 0.170000
8.248800 0.177900
8.274800 0.186500
8.300900 0.195100
8.326900 0.203700
8.353000 0.209600
8.379100 0.214700
8.405100 0.219400
8.431200 0.223700
8.457300 0.227500
8.483300 0.231000
8.509400 0.235700
8.535500 0.241000
8.561500 0.247000
8.587600 0.253600
8.613600 0.260700
8.639700 0.267900
8.665800 0.275000
8.691800 0.282100
8.717900 0.289300
8.744000 0.296700
8.770000 0.304200
8.796100 0.311700
8.822100 0.319400
8.848200 0.326100
8.874300 0.331700
8.900300 0.338500
8.926400 0.345800
8.952500 0.353800
8.978500 0.361700
9.004600 0.369400
9.030600 0.377100
9.056700 0.384700
9.082800 0.392300
9.108800 0.400100
9.134900 0.408300
9.161000 0.416600
9.187000 0.425100
9.213100 0.433800
9.239200 0.443000
9.265200 0.453300
9.291300 0.464200
9.317300 0.475600
9.343400 0.487500
9.369500 0.499800
9.395500 0.511900
9.421600 0.524200
9.447700 0.536500
9.473700 0.548100
9.499800 0.560100
9.525800 0.573400
9.551900 0.587200
9.578000 0.601400
9.604000 0.615900
9.630100 0.630700
9.656200 0.646000
9.682200 0.664800
9.708300 0.689400
9.734300 0.711400
9.760400 0.733700
9.786500 0.756400
9.812500 0.780200
9.838600 0.805200
9.864700 0.831300
9.890700 0.856900
9.916800 0.887200
9.942900 0.920600
9.968900 0.953000
9.995000 0.997400
10.021000 1.124800
10.047100 1.200300
10.073200 1.264700
10.099200 1.327800
10.125300 1.478300
10.151400 1.628500
10.177400 1.697500
10.203500 1.730700
10.229500 1.686800
10.255600 1.523700
10.281700 1.432700
10.307700 1.418400
10.333800 1.409500
10.359900 1.402200
10.385900 1.401700
10.412000 1.409000
10.438000 1.416300
10.464100 1.423400
10.490200 1.422200
10.516200 1.418300
10.542300 1.413400
10.568400 1.405900
10.594400 1.374300
10.620500 1.372000
10.646600 1.369800
10.672600 1.368600
10.698700 1.368500
10.724700 1.368900
10.750800 1.369700
10.776900 1.371400
10.802900 1.374700
10.829000 1.378600
10.855100 1.381600
10.881100 1.384200
10.907200 1.387200
10.933200 1.390600
10.959300 1.396300
10.985400 1.401600
11.011400 1.405200
11.037500 1.409900
11.063600 1.416500
11.089600 1.423300
11.115700 1.429700
11.141700 1.435800
11.167800 1.442000
11.193900 1.448800
11.219900 1.461100
11.246000 1.478700
11.272100 1.494000
11.298100 1.511400
11.324200 1.532300
11.350300 1.578300
11.376300 1.619900
11.402400 1.660400
11.428400 1.709400
11.454500 1.730200
11.480600 1.714200
11.506600 1.731900
11.532700 1.823700
11.558800 1.910200
11.584800 2.006300
11.610900 2.138000
11.636900 3.005600
11.663000 2.016800
11.689100 1.752900
11.715100 1.610900
11.741200 1.516800
11.767300 1.434900
11.793300 1.359300
11.819400 1.298900
11.845400 1.226600
11.871500 1.167800
11.897600 1.174600
11.923600 1.176400
11.949700 1.140300
11.975800 1.114800
12.001800 1.077000
12.027900 1.022600
12.054000 0.966000
12.080000 0.927200
12.106100 0.879600
12.132100 0.822600
12.158200 0.708100
12.184300 0.670600
12.210300 0.703800
12.236400 0.556500
12.262500 0.460200
12.288500 0.502600
12.314600 0.552600
12.340600 0.597600
12.366700 0.648500
12.392800 0.708200
12.418800 0.791800
12.444900 0.891500
12.471000 0.998500
12.497000 1.324400
12.523100 2.057900
12.549200 1.673600
12.575200 1.556800
12.601300 1.510100
12.627300 1.536500
12.653400 1.565500
12.679500 1.592200
12.705500 1.613400
12.731600 1.630100
12.757700 1.642700
12.783700 1.690200
12.809800 1.748100
12.835800 1.833300
12.861900 1.937600
12.888000 2.051200
12.914000 2.204700
12.940100 2.368200
12.966200 2.631800
12.992200 2.999800
13.018300 3.345400
13.044300 3.788000
13.070400 4.269300
13.096500 4.875700
13.122500 5.273700
13.148600 5.312100
13.174700 5.428000
13.200700 4.868400
13.226800 4.588100
13.252900 4.991800
13.278900 6.255300
13.305000 6.872900
13.331000 6.375800
13.357100 3.909400
13.383200 3.146700
13.409200 2.686600
13.435300 2.344700
13.461400 2.092900
13.487400 1.910800
13.513500 1.829900
13.539500 1.815900
13.565600 1.776900
13.591700 1.729800
13.617700 1.651900
13.643800 1.562300
13.669900 1.500600
13.695900 1.392000
13.722000 1.306000
13.748000 1.222100
13.774100 1.098400
13.800200 1.047300
13.826200 1.009100
13.852300 0.983800
13.878400 0.971800
13.904400 0.968900
13.930500 0.976600
13.956600 0.987000
13.982600 0.999500
14.008700 1.026000
14.034700 1.025400
14.060800 0.957600
14.086900 0.884200
14.112900 0.859600
14.139000 0.874700
14.165100 0.893100
14.191100 0.913500
14.217200 0.948500
14.243200 0.947900
14.269300 0.965600
14.295400 0.983300
14.321400 1.000500
14.347500 1.018000
14.373600 1.037300
14.399600 1.060100
14.425700 1.097900
14.451700 1.143300
14.477800 1.219000
14.503900 1.366200
14.529900 1.713900
14.556000 2.119000
14.582100 2.471400
14.608100 2.653000
14.634200 2.759900
14.660300 2.801800
14.686300 2.876900
14.712400 3.042500
14.738400 3.299800
14.764500 3.591500
14.790600 3.886200
14.816600 4.213300
14.842700 4.652200
14.868800 4.737500
14.894800 4.322700
14.920900 4.082000
14.946900 3.590700
14.973000 3.288200
14.999100 3.205600
15.025100 3.145000
15.051200 3.033800
15.077300 2.932200
15.103300 2.801300
15.129400 2.642300
15.155400 2.568200
15.181500 2.518600
15.207600 2.526100
15.233600 2.448100
15.259700 2.310900
15.285800 2.111100
15.311800 1.898100
15.337900 1.595700
15.364000 1.461500
15.390000 1.390200
15.416100 1.328400
15.442100 1.289700
15.468200 1.260400
15.494300 1.239400
15.520300 1.259700
15.546400 1.296500
15.572500 1.328300
15.598500 1.357200
15.624600 1.388300
15.650600 1.426400
15.676700 1.470800
15.702800 1.517500
15.728800 1.562800
15.754900 1.611500
15.781000 1.607900
15.807000 1.629000
15.833100 1.648200
15.859100 1.668100
15.885200 1.682100
15.911300 1.658300
15.937300 1.661000
15.963400 1.669000
15.989500 1.675400
16.015500 1.680500
16.041600 1.685000
16.067700 1.689600
16.093700 1.694700
16.119800 1.700800
16.145800 1.708700
16.171900 1.719600
16.198000 1.727900
16.224000 1.741400
16.250100 1.752000
16.276200 1.769300
16.302200 2.116500
16.328300 1.949400
16.354300 2.068500
16.380400 2.406400
