set title 'mp-22692 - Density of States'
set xlabel 'Energy (eV)'
set ylabel 'DOS (states/eV)'
set grid
set xrange [-10:10]
set yrange [0:1.129]
set xzeroaxis lt -1
set terminal png size 800,600
set output 'mp-22692_dos_gnuplot.png'
plot '-' using 1:2 with lines title 'DOS'
-12.561500 0.000000
-12.539000 0.000000
-12.516500 0.000000
-12.494000 0.000000
-12.471600 0.000000
-12.449100 0.000000
-12.426600 0.000000
-12.404100 0.000000
-12.381700 0.000000
-12.359200 0.000000
-12.336700 0.000000
-12.314200 0.000000
-12.291800 0.000000
-12.269300 0.000000
-12.246800 0.000000
-12.224300 0.000000
-12.201900 0.000000
-12.179400 0.000000
-12.156900 0.000000
-12.134400 0.000000
-12.112000 0.000000
-12.089500 0.000000
-12.067000 0.000000
-12.044500 0.000000
-12.022100 0.000000
-11.999600 0.000000
-11.977100 0.000000
-11.954600 0.000000
-11.932200 0.000000
-11.909700 0.000000
-11.887200 0.000000
-11.864700 0.000000
-11.842300 0.000000
-11.819800 0.000000
-11.797300 0.000000
-11.774800 0.000000
-11.752400 0.000000
-11.729900 0.000000
-11.707400 0.000000
-11.684900 0.000000
-11.662500 0.000000
-11.640000 0.000000
-11.617500 0.000000
-11.595000 0.000000
-11.572600 0.000000
-11.550100 0.000000
-11.527600 0.000000
-11.505100 0.000000
-11.482700 0.000000
-11.460200 0.000000
-11.437700 0.000000
-11.415300 0.000000
-11.392800 0.000000
-11.370300 0.000000
-11.347800 0.000000
-11.325400 0.000000
-11.302900 0.000000
-11.280400 0.000000
-11.257900 0.000000
-11.235500 0.000000
-11.213000 0.000000
-11.190500 0.000000
-11.168000 0.000000
-11.145600 0.000000
-11.123100 0.000000
-11.100600 0.000000
-11.078100 0.000000
-11.055700 0.000000
-11.033200 0.000000
-11.010700 0.000000
-10.988200 0.000000
-10.965800 0.000000
-10.943300 0.000000
-10.920800 0.000000
-10.898300 0.000000
-10.875900 0.000000
-10.853400 0.000000
-10.830900 0.000000
-10.808400 0.000000
-10.786000 0.000000
-10.763500 0.000000
-10.741000 0.000000
-10.718500 0.000000
-10.696100 0.000000
-10.673600 0.000000
-10.651100 0.000000
-10.628600 0.000000
-10.606200 0.000000
-10.583700 0.000000
-10.561200 0.000000
-10.538700 0.000000
-10.516300 1.113800
-10.493800 13.490300
-10.471300 32.372500
-10.448800 18.802600
-10.426400 37.059800
-10.403900 36.703400
-10.381400 29.192900
-10.358900 10.264600
-10.336500 11.065600
-10.314000 17.135400
-10.291500 26.216000
-10.269000 74.034500
-10.246600 51.460800
-10.224100 14.839500
-10.201600 17.818300
-10.179200 18.507000
-10.156700 20.607800
-10.134200 8.197000
-10.111700 0.000000
-10.089300 0.000000
-10.066800 0.000000
-10.044300 0.000000
-10.021800 0.000000
-9.999400 0.000000
-9.976900 0.000000
-9.954400 0.000000
-9.931900 0.000000
-9.909500 0.000000
-9.887000 0.000000
-9.864500 0.000000
-9.842000 0.000000
-9.819600 0.000000
-9.797100 0.000000
-9.774600 0.000000
-9.752100 0.000000
-9.729700 0.000000
-9.707200 0.000000
-9.684700 0.000000
-9.662200 0.000000
-9.639800 0.000000
-9.617300 0.000000
-9.594800 0.000000
-9.572300 0.000000
-9.549900 0.000000
-9.527400 0.000000
-9.504900 0.000000
-9.482400 0.000000
-9.460000 0.000000
-9.437500 0.000000
-9.415000 0.000000
-9.392500 0.000000
-9.370100 0.000000
-9.347600 0.000000
-9.325100 0.000000
-9.302600 0.000000
-9.280200 0.000000
-9.257700 0.000000
-9.235200 0.000000
-9.212700 0.000000
-9.190300 0.000000
-9.167800 0.000000
-9.145300 0.000000
-9.122800 0.000000
-9.100400 0.000000
-9.077900 0.000000
-9.055400 0.000000
-9.032900 0.000000
-9.010500 0.000000
-8.988000 0.000000
-8.965500 0.000000
-8.943100 0.000000
-8.920600 0.000000
-8.898100 0.000000
-8.875600 0.000000
-8.853200 0.000000
-8.830700 0.000000
-8.808200 0.000000
-8.785700 0.000000
-8.763300 0.000000
-8.740800 0.000000
-8.718300 0.000000
-8.695800 0.000000
-8.673400 0.000000
-8.650900 0.000000
-8.628400 0.000000
-8.605900 0.000000
-8.583500 0.000000
-8.561000 0.000000
-8.538500 0.000000
-8.516000 0.000000
-8.493600 0.000000
-8.471100 0.000000
-8.448600 0.000000
-8.426100 0.000000
-8.403700 0.000000
-8.381200 0.000000
-8.358700 0.000000
-8.336200 0.000000
-8.313800 0.000000
-8.291300 0.000000
-8.268800 0.000000
-8.246300 0.000000
-8.223900 0.000000
-8.201400 0.000000
-8.178900 0.000000
-8.156400 0.000000
-8.134000 0.000000
-8.111500 0.000000
-8.089000 0.000000
-8.066500 0.000000
-8.044100 0.000000
-8.021600 0.000000
-7.999100 0.000000
-7.976600 0.000000
-7.954200 0.000000
-7.931700 0.000000
-7.909200 0.000000
-7.886700 0.000000
-7.864300 0.000000
-7.841800 0.000000
-7.819300 0.000000
-7.796800 0.000000
-7.774400 0.000000
-7.751900 0.000000
-7.729400 0.000000
-7.707000 0.000000
-7.684500 0.000000
-7.662000 0.000000
-7.639500 0.000000
-7.617100 0.000000
-7.594600 0.000000
-7.572100 0.000000
-7.549600 0.000000
-7.527200 0.000000
-7.504700 0.000000
-7.482200 0.000000
-7.459700 0.000000
-7.437300 0.000000
-7.414800 0.000000
-7.392300 0.000000
-7.369800 0.000000
-7.347400 0.000000
-7.324900 0.000000
-7.302400 0.000000
-7.279900 0.000000
-7.257500 0.000000
-7.235000 0.000000
-7.212500 0.000000
-7.190000 0.000000
-7.167600 0.000000
-7.145100 0.000000
-7.122600 0.000000
-7.100100 0.000000
-7.077700 0.000000
-7.055200 0.000000
-7.032700 0.000000
-7.010200 0.000000
-6.987800 0.000000
-6.965300 0.000000
-6.942800 0.000000
-6.920300 0.000000
-6.897900 0.000000
-6.875400 0.000000
-6.852900 0.000000
-6.830400 0.000000
-6.808000 0.000000
-6.785500 0.000000
-6.763000 0.000000
-6.740500 0.000000
-6.718100 0.000000
-6.695600 0.000000
-6.673100 0.000000
-6.650600 0.000000
-6.628200 0.000000
-6.605700 0.000000
-6.583200 0.000000
-6.560700 0.000000
-6.538300 0.000000
-6.515800 0.000000
-6.493300 0.000000
-6.470900 0.000000
-6.448400 0.000000
-6.425900 0.000000
-6.403400 0.000000
-6.381000 0.000000
-6.358500 0.000000
-6.336000 0.000000
-6.313500 0.000000
-6.291100 0.000000
-6.268600 0.000000
-6.246100 0.000000
-6.223600 0.000000
-6.201200 0.000000
-6.178700 0.000000
-6.156200 0.000000
-6.133700 0.000000
-6.111300 0.000000
-6.088800 0.000000
-6.066300 0.000000
-6.043800 0.000000
-6.021400 0.000000
-5.998900 0.000000
-5.976400 0.000000
-5.953900 0.000000
-5.931500 0.000000
-5.909000 0.000000
-5.886500 0.000000
-5.864000 0.000000
-5.841600 0.000000
-5.819100 0.000000
-5.796600 0.000000
-5.774100 0.000000
-5.751700 0.000000
-5.729200 0.000000
-5.706700 0.000000
-5.684200 0.000000
-5.661800 0.000000
-5.639300 0.000000
-5.616800 0.000000
-5.594300 0.000000
-5.571900 0.000000
-5.549400 0.000000
-5.526900 0.000000
-5.504400 0.000000
-5.482000 0.000000
-5.459500 0.000000
-5.437000 0.000000
-5.414500 0.000000
-5.392100 0.000000
-5.369600 0.000000
-5.347100 0.000000
-5.324600 0.000000
-5.302200 0.000000
-5.279700 0.000000
-5.257200 0.000000
-5.234800 0.000000
-5.212300 0.000000
-5.189800 0.000000
-5.167300 0.000000
-5.144900 0.000000
-5.122400 0.000000
-5.099900 0.000000
-5.077400 0.000000
-5.055000 0.000000
-5.032500 0.000000
-5.010000 0.000000
-4.987500 0.000000
-4.965100 0.000000
-4.942600 0.000000
-4.920100 0.000000
-4.897600 0.000000
-4.875200 0.000000
-4.852700 0.000000
-4.830200 0.000000
-4.807700 0.000000
-4.785300 0.000000
-4.762800 0.000000
-4.740300 0.000000
-4.717800 0.000000
-4.695400 0.000000
-4.672900 0.000000
-4.650400 0.000700
-4.627900 0.012100
-4.605500 0.037200
-4.583000 0.045100
-4.560500 0.054600
-4.538000 0.065800
-4.515600 0.075100
-4.493100 0.083700
-4.470600 0.085700
-4.448100 0.089600
-4.425700 0.095100
-4.403200 0.101700
-4.380700 0.105800
-4.358200 0.112000
-4.335800 0.118200
-4.313300 0.122300
-4.290800 0.123100
-4.268300 0.127800
-4.245900 0.132100
-4.223400 0.136400
-4.200900 0.140100
-4.178400 0.142900
-4.156000 0.145600
-4.133500 0.149400
-4.111000 0.154100
-4.088500 0.159100
-4.066100 0.162600
-4.043600 0.165500
-4.021100 0.167900
-3.998600 0.170300
-3.976200 0.173000
-3.953700 0.176000
-3.931200 0.179000
-3.908800 0.181900
-3.886300 0.184800
-3.863800 0.187500
-3.841300 0.190600
-3.818900 0.193700
-3.796400 0.197100
-3.773900 0.200700
-3.751400 0.203900
-3.729000 0.206700
-3.706500 0.209600
-3.684000 0.212200
-3.661500 0.214200
-3.639100 0.216000
-3.616600 0.218100
-3.594100 0.220400
-3.571600 0.222800
-3.549200 0.225700
-3.526700 0.228500
-3.504200 0.231300
-3.481700 0.234100
-3.459300 0.237100
-3.436800 0.240300
-3.414300 0.243500
-3.391800 0.246700
-3.369400 0.249400
-3.346900 0.251500
-3.324400 0.253300
-3.301900 0.255500
-3.279500 0.257800
-3.257000 0.260100
-3.234500 0.262400
-3.212000 0.264800
-3.189600 0.267300
-3.167100 0.269800
-3.144600 0.272400
-3.122100 0.275000
-3.099700 0.277600
-3.077200 0.280200
-3.054700 0.282700
-3.032200 0.285900
-3.009800 0.288900
-2.987300 0.292000
-2.964800 0.295200
-2.942300 0.298200
-2.919900 0.300200
-2.897400 0.302500
-2.874900 0.304800
-2.852400 0.307200
-2.830000 0.309600
-2.807500 0.312000
-2.785000 0.314400
-2.762500 0.316800
-2.740100 0.319500
-2.717600 0.322500
-2.695100 0.325500
-2.672700 0.328500
-2.650200 0.331600
-2.627700 0.334600
-2.605200 0.337600
-2.582800 0.340700
-2.560300 0.343800
-2.537800 0.346900
-2.515300 0.349700
-2.492900 0.352600
-2.470400 0.355600
-2.447900 0.358700
-2.425400 0.361800
-2.403000 0.364900
-2.380500 0.368100
-2.358000 0.371400
-2.335500 0.374700
-2.313100 0.378000
-2.290600 0.381400
-2.268100 0.384800
-2.245600 0.388200
-2.223200 0.391600
-2.200700 0.395100
-2.178200 0.398700
-2.155700 0.402500
-2.133300 0.406500
-2.110800 0.410700
-2.088300 0.415100
-2.065800 0.419300
-2.043400 0.423400
-2.020900 0.427500
-1.998400 0.431800
-1.975900 0.436100
-1.953500 0.440500
-1.931000 0.444900
-1.908500 0.449700
-1.886000 0.454400
-1.863600 0.459300
-1.841100 0.464900
-1.818600 0.470500
-1.796100 0.476300
-1.773700 0.482200
-1.751200 0.488300
-1.728700 0.494500
-1.706200 0.500800
-1.683800 0.507400
-1.661300 0.514000
-1.638800 0.520900
-1.616300 0.527900
-1.593900 0.535000
-1.571400 0.542400
-1.548900 0.550600
-1.526400 0.559500
-1.504000 0.568800
-1.481500 0.578400
-1.459000 0.588600
-1.436600 0.599900
-1.414100 0.611900
-1.391600 0.624700
-1.369100 0.637800
-1.346700 0.651600
-1.324200 0.666100
-1.301700 0.685300
-1.279200 0.706100
-1.256800 0.729100
-1.234300 0.754700
-1.211800 0.782900
-1.189300 0.814800
-1.166900 0.856700
-1.144400 0.916700
-1.121900 0.970700
-1.099400 1.026800
-1.077000 1.001000
-1.054500 0.971200
-1.032000 0.963400
-1.009500 0.967100
-0.987100 0.960900
-0.964600 0.966900
-0.942100 1.008000
-0.919600 0.975800
-0.897200 0.968800
-0.874700 0.960300
-0.852200 0.949500
-0.829700 0.938800
-0.807300 0.936900
-0.784800 0.929600
-0.762300 0.916400
-0.739800 0.915200
-0.717400 0.931400
-0.694900 0.953400
-0.672400 0.951700
-0.649900 0.930300
-0.627500 0.938600
-0.605000 0.896500
-0.582500 0.848900
-0.560000 0.794900
-0.537600 0.717500
-0.515100 0.566500
-0.492600 0.487200
-0.470100 0.417000
-0.447700 0.402100
-0.425200 0.381600
-0.402700 0.362500
-0.380200 0.344700
-0.357800 0.328300
-0.335300 0.313300
-0.312800 0.299600
-0.290300 0.287200
-0.267900 0.276600
-0.245400 0.268600
-0.222900 0.261100
-0.200500 0.254000
-0.178000 0.246800
-0.155500 0.239300
-0.133000 0.228100
-0.110600 0.222500
-0.088100 0.218800
-0.065600 0.215100
-0.043100 0.209700
-0.020700 0.201400
0.001800 0.193500
0.024300 0.185800
0.046800 0.179300
0.069200 0.173200
0.091700 0.167800
0.114200 0.163000
0.136700 0.158700
0.159100 0.154500
0.181600 0.150500
0.204100 0.146700
0.226600 0.141500
0.249000 0.136600
0.271500 0.132300
0.294000 0.129000
0.316500 0.125900
0.338900 0.122900
0.361400 0.120200
0.383900 0.117200
0.406400 0.114100
0.428800 0.109800
0.451300 0.105700
0.473800 0.101800
0.496300 0.098000
0.518700 0.094800
0.541200 0.091900
0.563700 0.089200
0.586200 0.086700
0.608600 0.084100
0.631100 0.081000
0.653600 0.078000
0.676100 0.075200
0.698500 0.072600
0.721000 0.070500
0.743500 0.068900
0.766000 0.067500
0.788400 0.065400
0.810900 0.062700
0.833400 0.059600
0.855900 0.056500
0.878300 0.053500
0.900800 0.052100
0.923300 0.049600
0.945800 0.047200
0.968200 0.044900
0.990700 0.042600
1.013200 0.040400
1.035600 0.038300
1.058100 0.036200
1.080600 0.036500
1.103100 0.034400
1.125500 0.031900
1.148000 0.029000
1.170500 0.025600
1.193000 0.021900
1.215400 0.019800
1.237900 0.017700
1.260400 0.015200
1.282900 0.012200
1.305300 0.008700
1.327800 0.000000
1.350300 0.000000
1.372800 0.000000
1.395200 0.000000
1.417700 0.000000
1.440200 0.000000
1.462700 0.000000
1.485100 0.000000
1.507600 0.000000
1.530100 0.000000
1.552600 0.000000
1.575000 0.000000
1.597500 0.000000
1.620000 0.000000
1.642500 0.000000
1.664900 0.000000
1.687400 0.000000
1.709900 0.000000
1.732400 0.000000
1.754800 0.000000
1.777300 0.000000
1.799800 0.000000
1.822300 0.000000
1.844700 0.000000
1.867200 0.000000
1.889700 0.000000
1.912200 0.000000
1.934600 0.000000
1.957100 0.000000
1.979600 0.000000
2.002100 0.000000
2.024500 0.000000
2.047000 0.000000
2.069500 0.000000
2.092000 0.000000
2.114400 0.000000
2.136900 0.000000
2.159400 0.000000
2.181900 0.000000
2.204300 0.000000
2.226800 0.000000
2.249300 0.000000
2.271700 0.000000
2.294200 0.000000
2.316700 0.000000
2.339200 0.000000
2.361600 0.000000
2.384100 0.000000
2.406600 0.000000
2.429100 0.000000
2.451500 0.000000
2.474000 0.000000
2.496500 0.000000
2.519000 0.000000
2.541400 0.000000
2.563900 0.000000
2.586400 0.000000
2.608900 0.000000
2.631300 0.000000
2.653800 0.000000
2.676300 0.000000
2.698800 0.000000
2.721200 0.000000
2.743700 0.000000
2.766200 0.000000
2.788700 0.000000
2.811100 0.000000
2.833600 0.000000
2.856100 0.000000
2.878600 0.000000
2.901000 0.000000
2.923500 0.000000
2.946000 0.000000
2.968500 0.035400
2.990900 0.071600
3.013400 0.085200
3.035900 0.098600
3.058400 0.122200
3.080800 0.133300
3.103300 0.148400
3.125800 0.166300
3.148300 0.190000
3.170700 0.209900
3.193200 0.216000
3.215700 0.217100
3.238200 0.227600
3.260600 0.241100
3.283100 0.252300
3.305600 0.261600
3.328100 0.271000
3.350500 0.280200
3.373000 0.283000
3.395500 0.289300
3.418000 0.300400
3.440400 0.312400
3.462900 0.324600
3.485400 0.337100
3.507800 0.353400
3.530300 0.367800
3.552800 0.372500
3.575300 0.378400
3.597700 0.388100
3.620200 0.396800
3.642700 0.413500
3.665200 0.408900
3.687600 0.417600
3.710100 0.425500
3.732600 0.432700
3.755100 0.442000
3.777500 0.451800
3.800000 0.462100
3.822500 0.472700
3.845000 0.483700
3.867400 0.495200
3.889900 0.507700
3.912400 0.521200
3.934900 0.536900
3.957300 0.550800
3.979800 0.561900
4.002300 0.572300
4.024800 0.584400
4.047200 0.596800
4.069700 0.610300
4.092200 0.628700
4.114700 0.649600
4.137100 0.670000
4.159600 0.690900
4.182100 0.713300
4.204600 0.744300
4.227000 0.781000
4.249500 0.813900
4.272000 0.843600
4.294500 0.870300
4.316900 0.897800
4.339400 0.913800
4.361900 0.958900
4.384400 0.952500
4.406800 0.939900
4.429300 0.932900
4.451800 0.905300
4.474300 0.855200
4.496700 0.850700
4.519200 0.851900
4.541700 0.823300
4.564200 0.803900
4.586600 0.787600
4.609100 0.770800
4.631600 0.746400
4.654100 0.718500
4.676500 0.698900
4.699000 0.682800
4.721500 0.667200
4.743900 0.653500
4.766400 0.637200
4.788900 0.621200
4.811400 0.605200
4.833800 0.589100
4.856300 0.573700
4.878800 0.585700
4.901300 0.538800
4.923700 0.531900
4.946200 0.525900
4.968700 0.520600
4.991200 0.515700
5.013600 0.511100
5.036100 0.506800
5.058600 0.501300
5.081100 0.498900
5.103500 0.496900
5.126000 0.495100
5.148500 0.493500
5.171000 0.492100
5.193400 0.510500
5.215900 0.511900
5.238400 0.500000
5.260900 0.498600
5.283300 0.496800
5.305800 0.495700
5.328300 0.495100
5.350800 0.495000
5.373200 0.495500
5.395700 0.500300
5.418200 0.508000
5.440700 0.511300
5.463100 0.514500
5.485600 0.517100
5.508100 0.520200
5.530600 0.526000
5.553000 0.532000
5.575500 0.537600
5.598000 0.540300
5.620500 0.539200
5.642900 0.535500
5.665400 0.536900
5.687900 0.538200
5.710400 0.539400
5.732800 0.540400
5.755300 0.541400
5.777800 0.542400
5.800300 0.546000
5.822700 0.551900
5.845200 0.561000
5.867700 0.565000
5.890200 0.552200
5.912600 0.550800
5.935100 0.549100
5.957600 0.547200
5.980000 0.545700
6.002500 0.544800
6.025000 0.543800
6.047500 0.554000
6.069900 0.556000
6.092400 0.553500
6.114900 0.563100
6.137400 0.557100
6.159800 0.543400
6.182300 0.538200
6.204800 0.538100
6.227300 0.538500
6.249700 0.545000
6.272200 0.554600
6.294700 0.566000
6.317200 0.573500
6.339600 0.577100
6.362100 0.581400
6.384600 0.589100
6.407100 0.596300
6.429500 0.606400
6.452000 0.610500
6.474500 0.614000
6.497000 0.620500
6.519400 0.632200
6.541900 0.637600
6.564400 0.621500
6.586900 0.624500
6.609300 0.626900
6.631800 0.628400
6.654300 0.626700
6.676800 0.627800
6.699200 0.644600
6.721700 0.644900
6.744200 0.639300
6.766700 0.624400
6.789100 0.624000
6.811600 0.623700
6.834100 0.624000
6.856600 0.623900
6.879000 0.623400
6.901500 0.622600
6.924000 0.621300
6.946500 0.629600
6.968900 0.629900
6.991400 0.628600
7.013900 0.628100
7.036400 0.628500
7.058800 0.629200
7.081300 0.630100
7.103800 0.630400
7.126300 0.630300
7.148700 0.629900
7.171200 0.643200
7.193700 0.636500
7.216100 0.635400
7.238600 0.633800
7.261100 0.633200
7.283600 0.634000
7.306000 0.630700
7.328500 0.624100
7.351000 0.624300
7.373500 0.624600
7.395900 0.625000
7.418400 0.625500
7.440900 0.627300
7.463400 0.630300
7.485800 0.633000
7.508300 0.633500
7.530800 0.632400
7.553300 0.633300
7.575700 0.635400
7.598200 0.635500
7.620700 0.634200
7.643200 0.634500
7.665600 0.635100
7.688100 0.636000
7.710600 0.636500
7.733100 0.636500
7.755500 0.637300
7.778000 0.636000
7.800500 0.658300
7.823000 0.645400
7.845400 0.641800
7.867900 0.641000
7.890400 0.641400
7.912900 0.643000
7.935300 0.645100
7.957800 0.644600
7.980300 0.640000
8.002800 0.633500
8.025200 0.635000
8.047700 0.637000
8.070200 0.638500
8.092700 0.639500
8.115100 0.639800
8.137600 0.640100
8.160100 0.640500
8.182600 0.640300
8.205000 0.640500
8.227500 0.641100
8.250000 0.641700
8.272500 0.642300
8.294900 0.642600
8.317400 0.642400
8.339900 0.643000
8.362400 0.643800
8.384800 0.644600
8.407300 0.645300
8.429800 0.647100
8.452200 0.647600
8.474700 0.648100
8.497200 0.648500
8.519700 0.648900
8.542100 0.649300
8.564600 0.651500
8.587100 0.668900
8.609600 0.677600
8.632000 0.670400
8.654500 0.670800
8.677000 0.672400
8.699500 0.670200
8.721900 0.662800
8.744400 0.662100
8.766900 0.661400
8.789400 0.660700
8.811800 0.659700
8.834300 0.659800
8.856800 0.660100
8.879300 0.660300
8.901700 0.660600
8.924200 0.660300
8.946700 0.660400
8.969200 0.660700
8.991600 0.660900
9.014100 0.660600
9.036600 0.661200
9.059100 0.662000
9.081500 0.662700
9.104000 0.663300
9.126500 0.663900
9.149000 0.664500
9.171400 0.665700
9.193900 0.666800
9.216400 0.668000
9.238900 0.669000
9.261300 0.671800
9.283800 0.677300
9.306300 0.682900
9.328800 0.687200
9.351200 0.691200
9.373700 0.695600
9.396200 0.701500
9.418700 0.705900
9.441100 0.704100
9.463600 0.697400
9.486100 0.708800
9.508600 0.693100
9.531000 0.692900
9.553500 0.693200
9.576000 0.693600
9.598500 0.694000
9.620900 0.694400
9.643400 0.694900
9.665900 0.693300
9.688400 0.696300
9.710800 0.704300
9.733300 0.710400
9.755800 0.716200
9.778200 0.717800
9.800700 0.715500
9.823200 0.713800
9.845700 0.711300
9.868100 0.707600
9.890600 0.703300
9.913100 0.698600
9.935600 0.693500
9.958000 0.687800
9.980500 0.685800
10.003000 0.679500
10.025500 0.676200
10.047900 0.674800
10.070400 0.674800
10.092900 0.674200
10.115400 0.667700
10.137800 0.665900
10.160300 0.665100
10.182800 0.664400
10.205300 0.664500
10.227700 0.664700
10.250200 0.664500
10.272700 0.664800
10.295200 0.665200
10.317600 0.671700
10.340100 0.670300
10.362600 0.669200
10.385100 0.668600
10.407500 0.668700
10.430000 0.669600
10.452500 0.671300
10.475000 0.673900
10.497400 0.676900
10.519900 0.679800
10.542400 0.683100
10.564900 0.686000
10.587300 0.686800
10.609800 0.689600
10.632300 0.693500
10.654800 0.698200
10.677200 0.702500
10.699700 0.720600
10.722200 0.729700
10.744700 0.733400
10.767100 0.738900
10.789600 0.755100
10.812100 0.755400
10.834600 0.760400
10.857000 0.769700
10.879500 0.779900
10.902000 0.791300
10.924500 0.804200
10.946900 0.818400
10.969400 0.833700
10.991900 0.850200
11.014300 0.867500
11.036800 0.886300
11.059300 0.906400
11.081800 0.927600
11.104200 0.950800
