set title 'mp-8628 - Density of States'
set xlabel 'Energy (eV)'
set ylabel 'DOS (states/eV)'
set grid
set xrange [-10:10]
set yrange [0:17.468]
set xzeroaxis lt -1
set terminal png size 800,600
set output 'mp-8628_dos_gnuplot.png'
plot '-' using 1:2 with lines title 'DOS'
-8.185600 0.000000
-8.166000 0.000000
-8.146500 0.000000
-8.126900 0.000000
-8.107300 0.000000
-8.087800 0.000000
-8.068200 0.000000
-8.048600 0.000000
-8.029100 0.000000
-8.009500 0.000000
-7.989900 0.000000
-7.970400 0.000000
-7.950800 0.000000
-7.931200 0.000000
-7.911700 0.000000
-7.892100 0.000000
-7.872500 0.000000
-7.853000 0.000000
-7.833400 0.000000
-7.813800 0.000000
-7.794300 0.000000
-7.774700 0.000000
-7.755100 0.000000
-7.735600 0.000000
-7.716000 0.000000
-7.696400 0.000000
-7.676900 0.000000
-7.657300 0.000000
-7.637700 0.000000
-7.618200 0.000000
-7.598600 0.000000
-7.579000 0.000000
-7.559500 0.000000
-7.539900 0.000000
-7.520300 0.000000
-7.500800 0.000000
-7.481200 0.000000
-7.461600 0.000000
-7.442100 0.000000
-7.422500 0.000000
-7.402900 0.000000
-7.383400 0.000000
-7.363800 0.000000
-7.344200 0.000000
-7.324700 0.000000
-7.305100 0.000000
-7.285500 0.000000
-7.266000 0.000000
-7.246400 0.000000
-7.226800 0.000000
-7.207300 0.000000
-7.187700 0.000000
-7.168100 0.000000
-7.148600 0.000000
-7.129000 0.000000
-7.109400 0.000000
-7.089900 0.000000
-7.070300 0.000000
-7.050700 0.000000
-7.031200 0.000000
-7.011600 0.000000
-6.992000 0.000000
-6.972500 0.000000
-6.952900 0.000000
-6.933300 0.000000
-6.913800 0.000000
-6.894200 0.000000
-6.874600 0.000000
-6.855100 0.000000
-6.835500 0.000000
-6.815900 0.000000
-6.796400 0.000000
-6.776800 0.000000
-6.757200 0.000000
-6.737700 0.000000
-6.718100 0.000000
-6.698500 0.000000
-6.679000 0.000000
-6.659400 0.000000
-6.639800 0.000000
-6.620300 0.000000
-6.600700 0.000000
-6.581100 0.000000
-6.561600 0.000000
-6.542000 0.000000
-6.522400 0.000000
-6.502900 0.000000
-6.483300 0.000000
-6.463700 0.000000
-6.444200 0.000000
-6.424600 0.000000
-6.405000 0.001900
-6.385500 0.048400
-6.365900 0.128400
-6.346300 0.239700
-6.326800 0.386100
-6.307200 0.533200
-6.287600 0.680400
-6.268100 0.827500
-6.248500 0.915600
-6.228900 0.846000
-6.209400 0.811600
-6.189800 0.717500
-6.170200 0.667100
-6.150700 0.682100
-6.131100 0.697100
-6.111500 0.712100
-6.092000 0.727000
-6.072400 0.742000
-6.052800 0.757000
-6.033300 0.772000
-6.013700 0.787000
-5.994100 0.802000
-5.974600 0.817000
-5.955000 0.832000
-5.935400 0.842900
-5.915900 0.871800
-5.896300 0.920300
-5.876700 0.979500
-5.857200 1.052500
-5.837600 1.133800
-5.818000 1.222500
-5.798500 1.294700
-5.778900 1.294400
-5.759300 1.328500
-5.739800 1.376800
-5.720200 1.427100
-5.700600 1.478200
-5.681100 1.532000
-5.661500 1.590700
-5.641900 1.664700
-5.622400 1.733900
-5.602800 1.798300
-5.583200 1.855200
-5.563700 1.900700
-5.544100 1.930100
-5.524500 1.931700
-5.505000 1.916800
-5.485400 1.944400
-5.465800 1.971100
-5.446300 1.997200
-5.426700 2.031000
-5.407100 2.070300
-5.387600 2.109700
-5.368000 2.241800
-5.348400 2.368100
-5.328900 2.489700
-5.309300 2.588800
-5.289700 2.665500
-5.270200 2.752100
-5.250600 2.841800
-5.231000 2.932900
-5.211500 3.028800
-5.191900 3.130900
-5.172300 3.237700
-5.152800 3.363800
-5.133200 3.494900
-5.113600 3.640000
-5.094100 3.783400
-5.074500 3.937100
-5.054900 4.098200
-5.035400 4.311500
-5.015800 4.536100
-4.996200 4.726400
-4.976700 4.850100
-4.957100 4.865300
-4.937500 5.092100
-4.918000 5.437900
-4.898400 6.898600
-4.878800 7.691900
-4.859300 7.861500
-4.839700 7.739100
-4.820100 6.268900
-4.800600 6.477700
-4.781000 6.685300
-4.761400 6.827800
-4.741900 6.861900
-4.722300 6.803200
-4.702700 6.724400
-4.683200 6.754800
-4.663600 5.093500
-4.644000 4.881200
-4.624500 4.659400
-4.604900 4.672900
-4.585300 4.710100
-4.565800 5.384000
-4.546200 5.992500
-4.526600 7.146600
-4.507100 8.766200
-4.487500 6.195300
-4.467900 5.386400
-4.448400 7.850800
-4.428800 5.255300
-4.409200 0.253600
-4.389700 0.166800
-4.370100 0.626000
-4.350500 11.885100
-4.331000 10.319600
-4.311400 9.375200
-4.291800 6.533600
-4.272300 5.924300
-4.252700 5.733600
-4.233100 5.837100
-4.213600 6.982300
-4.194000 9.597500
-4.174400 6.796800
-4.154900 5.695700
-4.135300 4.891000
-4.115700 4.238900
-4.096200 3.618100
-4.076600 3.053400
-4.057000 1.842400
-4.037500 0.000000
-4.017900 0.000000
-3.998300 0.000000
-3.978800 0.000000
-3.959200 0.000000
-3.939600 0.000000
-3.920100 0.000000
-3.900500 0.000000
-3.880900 0.000000
-3.861400 0.000000
-3.841800 0.000000
-3.822200 0.000000
-3.802700 0.000000
-3.783100 0.000000
-3.763500 0.000000
-3.744000 0.000000
-3.724400 0.000000
-3.704800 0.000000
-3.685300 0.000000
-3.665700 0.000000
-3.646100 0.000000
-3.626600 0.000000
-3.607000 0.000000
-3.587400 0.000000
-3.567900 0.000000
-3.548300 0.000000
-3.528700 0.000000
-3.509200 0.000000
-3.489600 0.000000
-3.470000 0.000000
-3.450500 0.000000
-3.430900 0.000000
-3.411300 0.000000
-3.391800 0.000000
-3.372200 0.000000
-3.352600 0.000000
-3.333100 0.000000
-3.313500 0.000000
-3.293900 0.000000
-3.274400 0.000000
-3.254800 0.000000
-3.235200 0.000000
-3.215700 0.000000
-3.196100 0.000000
-3.176500 0.000000
-3.157000 0.000000
-3.137400 0.000000
-3.117800 0.000000
-3.098300 0.000000
-3.078700 0.000000
-3.059100 0.000000
-3.039600 0.000000
-3.020000 0.000000
-3.000400 0.000000
-2.980900 0.000000
-2.961300 0.000000
-2.941700 0.000000
-2.922200 0.000000
-2.902600 0.000000
-2.883000 0.000000
-2.863500 0.000000
-2.843900 0.000000
-2.824300 0.000000
-2.804800 0.000000
-2.785200 0.000000
-2.765600 0.000000
-2.746100 0.000000
-2.726500 0.000000
-2.706900 0.000000
-2.687400 0.000000
-2.667800 0.000000
-2.648200 0.000000
-2.628700 0.000000
-2.609100 0.000000
-2.589500 0.000000
-2.570000 0.000000
-2.550400 0.000000
-2.530800 0.000000
-2.511300 0.000000
-2.491700 0.000000
-2.472100 0.000000
-2.452600 0.000000
-2.433000 0.000000
-2.413400 0.000000
-2.393900 0.000000
-2.374300 0.000000
-2.354700 0.000000
-2.335200 0.000000
-2.315600 0.000000
-2.296000 0.000000
-2.276500 0.000000
-2.256900 0.000000
-2.237300 0.000000
-2.217800 0.000000
-2.198200 0.000000
-2.178600 0.000000
-2.159100 0.000000
-2.139500 0.000000
-2.119900 0.000000
-2.100400 0.000000
-2.080800 0.000000
-2.061200 0.000000
-2.041700 0.000000
-2.022100 0.000000
-2.002500 0.000000
-1.983000 0.000000
-1.963400 0.000000
-1.943800 0.000000
-1.924300 0.000000
-1.904700 0.000000
-1.885100 0.000000
-1.865600 0.000000
-1.846000 0.000000
-1.826400 0.000000
-1.806900 0.000000
-1.787300 0.000000
-1.767700 0.000000
-1.748200 0.000000
-1.728600 0.000000
-1.709000 0.000000
-1.689500 0.000000
-1.669900 0.000000
-1.650300 0.000000
-1.630800 0.000000
-1.611200 0.000000
-1.591600 0.000000
-1.572100 0.000000
-1.552500 0.000000
-1.532900 0.000000
-1.513400 0.000000
-1.493800 0.000000
-1.474200 0.000000
-1.454700 0.000000
-1.435100 0.000000
-1.415500 0.000000
-1.396000 0.000000
-1.376400 0.000000
-1.356800 0.000000
-1.337300 0.000000
-1.317700 0.000000
-1.298100 0.000000
-1.278600 0.000000
-1.259000 0.000000
-1.239400 0.000000
-1.219900 0.000000
-1.200300 0.000000
-1.180700 0.000000
-1.161200 0.000000
-1.141600 0.000000
-1.122000 0.000000
-1.102500 0.000000
-1.082900 0.000000
-1.063300 0.000000
-1.043800 0.000000
-1.024200 0.000000
-1.004600 0.000000
-0.985100 0.000000
-0.965500 0.000000
-0.945900 0.000000
-0.926400 0.000000
-0.906800 0.000000
-0.887200 0.000000
-0.867700 0.000000
-0.848100 0.000000
-0.828500 0.000000
-0.809000 0.000000
-0.789400 0.000000
-0.769800 0.000000
-0.750300 0.000000
-0.730700 0.000000
-0.711100 0.000000
-0.691600 0.000000
-0.672000 0.000000
-0.652400 0.000000
-0.632900 0.000000
-0.613300 0.000000
-0.593700 0.000000
-0.574200 0.000000
-0.554600 0.000000
-0.535000 0.000000
-0.515500 0.000000
-0.495900 0.000000
-0.476300 0.000000
-0.456800 0.000000
-0.437200 0.000000
-0.417600 0.000000
-0.398100 0.000000
-0.378500 0.000000
-0.358900 0.000000
-0.339400 0.000000
-0.319800 0.000000
-0.300200 0.000000
-0.280700 0.000000
-0.261100 0.000000
-0.241500 0.000000
-0.222000 0.000000
-0.202400 0.000000
-0.182800 0.000000
-0.163300 0.000000
-0.143700 0.000000
-0.124100 0.000000
-0.104600 0.000000
-0.085000 0.000000
-0.065400 0.000000
-0.045900 0.000000
-0.026300 0.000000
-0.006700 0.000000
0.012800 0.000000
0.032400 0.000000
0.052000 0.000000
0.071500 0.000000
0.091100 0.000000
0.110700 0.000000
0.130200 0.000000
0.149800 0.000000
0.169400 0.000000
0.188900 0.000000
0.208500 0.000000
0.228100 0.000000
0.247600 0.000000
0.267200 0.000000
0.286800 0.000000
0.306300 0.000000
0.325900 0.000000
0.345500 0.000000
0.365000 0.000000
0.384600 0.014300
0.404200 0.192200
0.423700 0.441800
0.443300 0.691100
0.462900 0.940200
0.482400 1.189000
0.502000 1.437500
0.521600 1.685800
0.541100 1.951100
0.560700 2.222800
0.580300 2.419500
0.599800 2.790300
0.619400 3.350800
0.639000 3.986800
0.658500 4.704500
0.678100 5.297600
0.697700 5.791300
0.717200 5.953300
0.736800 5.884000
0.756400 5.998800
0.775900 6.216600
0.795500 6.461900
0.815100 7.229100
0.834600 15.879600
0.854200 5.846100
0.873800 6.068900
0.893300 6.501600
0.912900 6.474800
0.932500 5.899500
0.952000 5.203400
0.971600 4.691500
0.991200 3.573100
1.010700 3.275800
1.030300 3.277000
1.049900 2.769400
1.069400 3.242100
1.089000 6.534200
1.108500 5.675200
1.128100 2.611700
1.147700 2.962900
1.167200 3.364400
1.186800 3.808400
1.206400 4.315300
1.225900 4.865100
1.245500 5.661600
1.265100 6.634000
1.284600 8.486400
1.304200 9.434400
1.323800 9.057100
1.343300 8.646000
1.362900 8.579700
1.382500 7.052800
1.402000 5.986200
1.421600 5.994100
1.441200 5.075500
1.460700 4.633400
1.480300 4.645600
1.499900 4.657100
1.519400 4.509700
1.539000 4.162100
1.558600 5.066500
1.578100 4.883400
1.597700 4.276500
1.617300 4.566100
1.636800 5.837100
1.656400 6.600300
1.676000 8.069400
1.695500 9.105400
1.715100 6.509300
1.734700 9.846000
1.754200 10.397600
1.773800 10.253100
1.793400 11.616900
1.812900 13.575400
1.832500 9.575800
1.852100 7.246200
1.871600 8.923100
1.891200 6.903400
1.910800 7.044600
1.930300 9.742100
1.949900 10.216700
1.969500 11.101400
1.989000 11.769500
2.008600 11.646700
2.028200 12.185000
2.047700 13.501100
2.067300 13.043800
2.086900 11.790400
2.106400 11.355000
2.126000 11.571700
2.145600 11.972200
2.165100 10.391900
2.184700 9.100900
2.204300 8.400600
2.223800 7.252800
2.243400 8.337900
2.263000 8.677700
2.282500 9.399100
2.302100 9.731400
2.321700 9.772300
2.341200 9.135600
2.360800 9.686400
2.380400 9.009300
2.399900 8.582300
2.419500 7.651200
2.439100 7.230500
2.458600 4.953800
2.478200 4.926400
2.497800 4.958500
2.517300 5.114100
2.536900 5.215000
2.556500 5.377900
2.576000 6.434500
2.595600 7.498100
2.615200 7.618800
2.634700 8.271200
2.654300 8.483400
2.673900 8.774000
2.693400 7.197000
2.713000 4.892500
2.732600 4.706200
2.752100 4.935500
2.771700 9.186200
2.791300 11.707100
2.810800 11.177700
2.830400 11.442500
2.850000 12.873100
2.869500 12.345800
2.889100 10.150900
2.908700 9.069500
2.928200 9.176000
2.947800 8.785900
2.967400 11.621200
2.986900 10.615800
3.006500 10.560800
3.026100 11.228300
3.045600 12.091500
3.065200 7.946800
3.084800 7.407000
3.104300 7.717600
3.123900 8.274200
3.143500 9.400200
3.163000 8.412400
3.182600 8.555100
3.202200 9.106900
3.221700 9.868900
3.241300 11.605800
3.260900 14.598400
3.280400 13.713300
3.300000 6.302800
3.319600 4.097700
3.339100 5.785400
3.358700 7.662700
3.378300 9.274900
3.397800 14.256900
3.417400 14.522000
3.437000 9.530600
3.456500 6.571200
3.476100 5.939600
3.495700 6.322100
3.515200 6.324300
3.534800 11.324700
3.554400 4.200400
3.573900 3.274000
3.593500 5.207800
3.613100 7.835600
3.632600 10.495000
3.652200 13.009800
3.671800 14.499700
3.691300 12.768700
3.710900 11.640400
3.730500 11.062900
3.750000 10.497000
3.769600 13.292200
3.789200 13.552600
3.808700 7.550500
3.828300 8.899000
3.847900 9.368000
3.867400 10.252600
3.887000 10.575100
3.906600 10.409500
3.926100 10.640000
3.945700 6.845600
3.965300 6.225200
3.984800 5.923800
4.004400 4.620000
4.024000 4.659900
4.043500 4.569000
4.063100 4.539800
4.082700 4.697000
4.102200 4.867400
4.121800 5.050800
4.141400 5.248500
4.160900 4.507900
4.180500 4.656800
4.200100 5.019600
4.219600 5.484800
4.239200 6.119500
4.258800 6.715800
4.278300 7.653000
4.297900 11.244700
4.317500 6.941500
4.337000 7.166100
4.356600 7.889100
4.376200 8.698700
4.395700 10.222800
4.415300 10.583900
4.434900 11.591600
4.454400 14.791500
4.474000 11.693300
4.493600 9.210100
4.513100 8.233900
4.532700 8.493500
4.552300 11.099200
4.571800 14.345400
4.591400 11.329200
4.611000 10.431500
4.630500 8.151500
4.650100 7.686400
4.669700 7.378300
4.689200 7.301300
4.708800 7.457500
4.728400 7.856000
4.747900 8.968900
4.767500 11.284200
4.787100 15.780300
4.806600 14.232700
4.826200 10.176800
4.845800 9.416400
4.865300 9.574000
4.884900 9.708700
4.904500 10.011900
4.924000 11.644500
4.943600 11.852700
4.963200 11.913700
4.982700 10.915300
5.002300 8.414100
5.021900 7.581000
5.041400 7.111000
5.061000 7.860100
5.080600 9.044800
5.100100 9.882200
5.119700 10.328600
5.139300 10.087700
5.158800 8.891600
5.178400 8.581000
5.198000 8.239400
5.217500 8.438900
5.237100 8.702900
5.256700 11.780200
5.276200 11.394500
5.295800 8.596000
5.315400 8.356900
5.334900 8.130400
5.354500 7.945100
5.374100 7.786000
5.393600 7.506700
5.413200 7.024400
5.432800 6.359400
5.452300 5.482800
5.471900 4.893800
5.491500 4.640500
5.511000 4.424500
5.530600 4.217700
5.550200 4.059700
5.569700 3.928200
5.589300 3.817900
5.608900 3.735600
5.628400 3.671300
5.648000 3.619300
5.667600 3.570000
5.687100 3.521500
5.706700 3.486700
5.726300 3.538000
5.745800 3.676900
5.765400 4.001000
5.785000 4.356100
5.804500 4.612500
5.824100 4.814000
5.843700 4.949600
5.863200 5.039800
5.882800 5.124400
5.902400 5.192900
5.921900 5.253100
5.941500 5.327200
5.961100 5.416000
5.980600 5.549500
6.000200 5.599900
6.019800 5.785100
6.039300 5.711900
6.058900 5.273900
6.078500 4.912100
6.098000 4.782100
6.117600 4.637400
6.137200 4.486800
6.156700 4.377500
6.176300 4.287700
6.195900 4.259500
6.215400 4.349700
6.235000 4.473200
6.254600 4.562000
6.274100 4.876200
6.293700 4.621200
6.313300 4.283000
6.332800 3.947100
6.352400 3.624000
6.372000 3.292000
6.391500 2.966400
6.411100 2.727500
6.430700 2.672600
6.450200 2.646600
6.469800 2.637000
6.489400 2.636900
6.508900 2.650500
6.528500 2.681600
6.548100 2.726100
6.567600 2.782800
6.587200 2.841100
6.606800 2.878900
6.626300 2.894800
6.645900 2.890000
6.665500 2.886300
6.685000 2.887300
6.704600 2.889500
6.724200 2.897200
6.743700 2.913900
6.763300 2.919800
6.782900 2.887700
6.802400 2.746700
6.822000 2.630500
6.841600 2.569800
6.861100 2.527100
6.880700 2.483600
6.900300 2.436900
6.919800 2.387200
6.939400 2.344400
6.959000 2.269800
6.978500 2.255700
6.998100 2.258900
7.017700 2.251400
7.037200 2.234600
7.056800 2.206800
7.076400 2.167300
7.095900 2.128300
7.115500 2.101800
7.135100 2.085100
7.154600 2.070600
7.174200 2.057800
7.193800 2.045100
7.213300 2.033700
7.232900 2.024200
7.252500 2.013400
7.272000 2.000200
7.291600 1.985800
7.311200 1.970900
7.330700 1.945900
7.350300 1.941200
7.369900 1.935500
7.389400 1.991900
7.409000 2.145900
7.428600 2.208000
7.448100 2.214500
7.467700 2.287500
7.487300 2.412900
7.506800 2.453200
7.526400 2.455400
7.546000 2.438800
7.565500 2.412600
7.585100 2.389500
7.604700 2.361200
7.624200 2.367100
7.643800 2.417300
7.663400 2.514100
7.682900 2.698300
7.702500 3.076300
7.722100 3.411700
7.741600 3.274100
7.761200 3.192100
7.780800 3.556900
7.800300 3.851200
7.819900 5.441000
7.839500 4.927100
7.859000 4.987300
7.878600 4.973400
7.898200 4.989100
7.917700 4.955400
7.937300 5.300200
7.956900 5.559300
7.976400 5.590000
7.996000 5.543100
8.015600 4.924100
8.035100 4.822100
8.054700 4.577800
8.074300 4.273400
8.093800 3.990900
8.113400 3.747600
8.133000 4.171900
8.152500 4.748000
8.172100 5.663000
8.191700 6.205600
8.211200 6.476600
8.230800 6.424700
8.250400 6.246800
8.269900 6.030600
8.289500 5.844500
8.309100 5.933400
8.328600 5.890400
8.348200 5.691300
8.367800 5.604600
8.387300 5.954900
8.406900 5.766600
8.426500 4.720500
8.446000 3.868900
8.465600 3.570700
8.485200 4.320600
8.504700 4.108800
8.524300 3.660300
8.543900 3.413000
8.563400 3.173500
8.583000 2.968500
8.602600 2.859800
8.622100 2.832400
8.641700 2.891300
8.661300 3.195700
8.680800 3.377700
8.700400 3.428100
8.720000 3.450300
8.739500 3.458800
8.759100 3.601800
8.778700 3.904700
8.798200 4.058000
8.817800 4.267700
8.837400 4.862900
8.856900 4.453400
8.876500 3.966300
8.896100 3.556900
8.915600 3.204800
8.935200 2.910200
8.954800 2.673100
8.974300 2.490700
8.993900 2.382700
9.013500 2.305400
9.033000 2.217500
9.052600 2.122000
9.072200 2.026700
9.091700 1.908300
9.111300 1.795500
9.130900 1.678500
9.150400 1.561400
9.170000 1.421900
9.189600 1.252500
9.209100 1.073400
9.228700 1.200100
9.248300 1.236900
9.267800 1.060900
9.287400 0.822500
9.307000 0.547300
9.326500 0.296100
9.346100 0.137800
9.365700 0.138200
9.385200 0.143800
9.404800 0.154600
9.424400 0.183900
9.443900 0.244100
9.463500 0.382800
9.483100 0.606000
9.502600 0.918600
9.522200 1.321000
9.541800 1.804100
9.561300 2.116600
9.580900 2.396700
9.600500 2.598000
9.620000 2.752700
9.639600 2.909700
9.659200 3.078500
9.678700 3.304500
9.698300 3.573300
9.717900 3.903400
9.737400 4.409100
9.757000 4.952600
9.776600 4.056200
9.796100 4.037100
9.815700 4.505800
9.835300 4.500300
9.854800 4.122400
9.874400 3.291100
9.894000 2.649600
9.913500 2.338700
9.933100 2.174200
9.952700 2.124900
9.972200 2.099900
9.991800 2.197900
10.011400 2.332300
10.030900 2.746200
10.050500 2.619000
10.070100 2.397800
10.089600 2.175600
10.109200 1.982600
10.128800 1.819400
10.148300 1.702500
10.167900 1.548600
10.187500 1.208800
10.207000 0.826000
10.226600 0.567600
10.246200 0.449900
10.265700 0.415300
10.285300 0.442800
10.304900 0.523700
10.324400 0.612900
10.344000 0.704300
10.363600 0.797500
10.383100 0.894600
10.402700 0.997100
10.422300 1.105000
10.441800 1.218300
10.461400 1.337000
10.481000 1.425000
10.500500 1.523000
10.520100 1.650300
10.539700 1.842300
10.559200 2.036800
10.578800 2.194900
10.598400 2.235000
10.617900 2.361900
10.637500 2.524100
10.657100 2.666600
10.676600 2.751000
10.696200 2.818100
10.715800 2.935300
10.735300 3.069900
10.754900 3.164800
10.774500 3.215800
10.794000 3.241700
10.813600 3.243600
10.833200 3.221700
10.852700 3.183200
10.872300 3.175900
10.891900 3.122100
10.911400 2.931000
10.931000 2.830600
10.950600 2.700400
10.970100 2.432700
10.989700 1.951000
11.009300 1.854900
11.028800 1.891900
11.048400 1.949500
11.068000 2.056500
11.087500 2.145500
11.107100 2.213100
11.126700 2.296900
11.146200 2.532100
11.165800 3.086200
11.185400 4.013500
11.204900 4.885200
11.224500 5.268400
11.244100 3.375100
11.263600 3.170700
11.283200 3.270500
11.302800 3.494800
11.322300 3.666600
11.341900 3.813100
11.361500 3.966100
11.381000 4.126500
11.400600 4.240100
11.420200 4.400200
11.439700 4.539400
11.459300 4.637900
11.478900 4.619200
11.498400 4.447400
11.518000 4.275600
11.537600 4.980800
11.557100 4.296800
11.576700 2.749800
11.596300 2.467500
11.615800 2.255800
11.635400 2.011700
11.655000 2.032200
11.674500 2.030800
11.694100 2.083800
11.713700 1.888100
11.733200 1.753600
11.752800 1.674700
11.772400 1.611700
11.791900 1.549100
11.811500 1.474000
11.831100 1.413900
11.850600 1.380500
11.870200 1.370000
11.889800 1.401300
11.909300 1.436600
11.928900 1.477200
11.948500 1.524800
11.968000 1.579000
11.987600 1.640400
12.007200 1.708800
12.026700 1.784400
12.046300 1.867100
12.065900 1.989900
12.085400 3.135800
12.105000 3.820500
12.124600 3.525000
12.144100 3.612000
12.163700 3.735500
12.183300 3.888000
12.202800 4.156300
12.222400 4.374900
12.242000 4.413100
12.261500 4.370900
12.281100 4.424600
12.300700 4.651100
12.320200 4.566500
12.339800 4.508800
12.359400 4.653900
12.378900 4.727000
12.398500 4.721400
12.418100 4.858200
12.437600 3.833700
12.457200 3.778400
12.476800 3.795100
12.496300 3.371600
12.515900 3.212300
12.535500 3.213900
12.555000 3.211500
