set title 'mp-937760 - Density of States'
set xlabel 'Energy (eV)'
set ylabel 'DOS (states/eV)'
set grid
set xrange [-10:10]
set yrange [0:1.199]
set xzeroaxis lt -1
set terminal png size 800,600
set output 'mp-937760_dos_gnuplot.png'
plot '-' using 1:2 with lines title 'DOS'
-21.859100 0.000000
-21.797500 0.000000
-21.735800 0.000000
-21.674100 0.000000
-21.612500 0.000000
-21.550800 0.000000
-21.489200 0.000000
-21.427500 0.000000
-21.365800 0.000000
-21.304200 0.000000
-21.242500 0.000000
-21.180800 0.000000
-21.119200 0.000000
-21.057500 0.000000
-20.995900 0.000000
-20.934200 0.000000
-20.872500 0.000000
-20.810900 0.000000
-20.749200 0.000000
-20.687600 0.000000
-20.625900 0.000000
-20.564200 0.000000
-20.502600 0.000000
-20.440900 0.000000
-20.379300 0.000000
-20.317600 0.000000
-20.255900 0.000000
-20.194300 0.000000
-20.132600 0.000000
-20.071000 0.000000
-20.009300 0.000000
-19.947600 0.000000
-19.886000 0.000000
-19.824300 0.000000
-19.762700 0.000000
-19.701000 0.000000
-19.639300 0.000000
-19.577700 0.000000
-19.516000 0.000000
-19.454400 0.000000
-19.392700 0.000000
-19.331000 0.000000
-19.269400 0.000000
-19.207700 0.000000
-19.146000 0.000000
-19.084400 0.000000
-19.022700 0.000000
-18.961100 0.000000
-18.899400 0.000000
-18.837700 0.000000
-18.776100 0.000000
-18.714400 0.000000
-18.652800 0.000000
-18.591100 0.000000
-18.529400 0.000000
-18.467800 0.000000
-18.406100 0.000000
-18.344500 0.000000
-18.282800 0.000000
-18.221100 0.000000
-18.159500 0.000000
-18.097800 0.000000
-18.036200 0.000000
-17.974500 0.000000
-17.912800 0.000000
-17.851200 0.000000
-17.789500 0.000000
-17.727900 0.000000
-17.666200 0.000000
-17.604500 0.000000
-17.542900 0.000000
-17.481200 0.000000
-17.419500 0.000000
-17.357900 0.000000
-17.296200 0.000000
-17.234600 0.000000
-17.172900 0.000000
-17.111200 0.000000
-17.049600 0.000000
-16.987900 0.000000
-16.926300 0.000000
-16.864600 0.000000
-16.802900 0.000000
-16.741300 0.000000
-16.679600 0.000000
-16.618000 0.000000
-16.556300 0.000000
-16.494600 0.000000
-16.433000 0.000000
-16.371300 0.000000
-16.309700 0.000000
-16.248000 0.003300
-16.186300 0.168300
-16.124700 0.309700
-16.063000 0.296400
-16.001400 0.316600
-15.939700 0.313600
-15.878000 0.302000
-15.816400 0.309000
-15.754700 0.309400
-15.693100 0.306300
-15.631400 0.311600
-15.569700 0.315600
-15.508100 0.309400
-15.446400 0.306900
-15.384700 0.308200
-15.323100 0.311100
-15.261400 0.312300
-15.199800 0.310500
-15.138100 0.310200
-15.076400 0.311500
-15.014800 0.313500
-14.953100 0.315100
-14.891500 0.312600
-14.829800 0.310700
-14.768100 0.311100
-14.706500 0.312100
-14.644800 0.313800
-14.583200 0.315800
-14.521500 0.315500
-14.459800 0.313800
-14.398200 0.314200
-14.336500 0.314800
-14.274900 0.315500
-14.213200 0.316500
-14.151500 0.317800
-14.089900 0.317100
-14.028200 0.316000
-13.966600 0.315900
-13.904900 0.316400
-13.843200 0.317300
-13.781600 0.318400
-13.719900 0.319700
-13.658200 0.321100
-13.596600 0.320300
-13.534900 0.319800
-13.473300 0.319900
-13.411600 0.320500
-13.349900 0.321200
-13.288300 0.322000
-13.226600 0.323000
-13.165000 0.324100
-13.103300 0.324800
-13.041600 0.323800
-12.980000 0.324100
-12.918300 0.324700
-12.856700 0.325500
-12.795000 0.326500
-12.733300 0.327700
-12.671700 0.329000
-12.610000 0.330400
-12.548400 0.331700
-12.486700 0.331400
-12.425000 0.332100
-12.363400 0.333000
-12.301700 0.334200
-12.240100 0.335700
-12.178400 0.337400
-12.116700 0.339400
-12.055100 0.341700
-11.993400 0.344300
-11.931800 0.347000
-11.870100 0.349200
-11.808400 0.352600
-11.746800 0.356900
-11.685100 0.362500
-11.623400 0.369600
-11.561800 0.378900
-11.500100 0.391800
-11.438500 0.411800
-11.376800 0.435700
-11.315100 0.457400
-11.253500 0.472100
-11.191800 0.490600
-11.130200 0.509100
-11.068500 0.495300
-11.006800 0.446700
-10.945200 0.390600
-10.883500 0.325100
-10.821900 0.296000
-10.760200 0.276100
-10.698500 0.258100
-10.636900 0.245700
-10.575200 0.239300
-10.513600 0.209000
-10.451900 0.189700
-10.390200 0.175000
-10.328600 0.164400
-10.266900 0.158700
-10.205300 0.145900
-10.143600 0.135200
-10.081900 0.126900
-10.020300 0.133900
-9.958600 0.112200
-9.897000 0.105900
-9.835300 0.138600
-9.773600 0.218600
-9.712000 0.254000
-9.650300 0.259300
-9.588600 0.283100
-9.527000 0.309000
-9.465300 0.322500
-9.403700 0.330000
-9.342000 0.338400
-9.280300 0.352200
-9.218700 0.386500
-9.157000 0.408300
-9.095400 0.469300
-9.033700 0.546100
-8.972000 0.555000
-8.910400 0.523900
-8.848700 0.495800
-8.787100 0.464500
-8.725400 0.440600
-8.663700 0.409600
-8.602100 0.387700
-8.540400 0.372700
-8.478800 0.360700
-8.417100 0.350500
-8.355400 0.342100
-8.293800 0.334900
-8.232100 0.328600
-8.170500 0.323000
-8.108800 0.317900
-8.047100 0.313200
-7.985500 0.308500
-7.923800 0.303600
-7.862100 0.299100
-7.800500 0.294900
-7.738800 0.290900
-7.677200 0.287200
-7.615500 0.283700
-7.553800 0.280300
-7.492200 0.277000
-7.430500 0.273700
-7.368900 0.270300
-7.307200 0.266900
-7.245500 0.263700
-7.183900 0.270500
-7.122200 0.299200
-7.060600 0.342600
-6.998900 0.361800
-6.937200 0.357400
-6.875600 0.361200
-6.813900 0.366800
-6.752300 0.371700
-6.690600 0.373500
-6.628900 0.369200
-6.567300 0.369100
-6.505600 0.370500
-6.444000 0.372800
-6.382300 0.374400
-6.320600 0.375300
-6.259000 0.377000
-6.197300 0.379300
-6.135700 0.382000
-6.074000 0.384200
-6.012300 0.384800
-5.950700 0.386500
-5.889000 0.387000
-5.827300 0.388400
-5.765700 0.390100
-5.704000 0.392300
-5.642400 0.394800
-5.580700 0.397400
-5.519000 0.400300
-5.457400 0.403100
-5.395700 0.404900
-5.334100 0.406900
-5.272400 0.409200
-5.210700 0.411800
-5.149100 0.414800
-5.087400 0.418100
-5.025800 0.421400
-4.964100 0.425100
-4.902400 0.428400
-4.840800 0.431500
-4.779100 0.435000
-4.717500 0.438700
-4.655800 0.444200
-4.594100 0.495000
-4.532500 0.518800
-4.470800 0.548200
-4.409200 0.570600
-4.347500 0.591700
-4.285800 0.609500
-4.224200 0.629600
-4.162500 0.654000
-4.100900 0.679600
-4.039200 0.712100
-3.977500 0.748400
-3.915900 0.801400
-3.854200 0.847100
-3.792500 0.863000
-3.730900 0.883500
-3.669200 0.906900
-3.607600 0.925300
-3.545900 0.955800
-3.484200 0.986300
-3.422600 0.990000
-3.360900 0.967800
-3.299300 0.968200
-3.237600 0.989500
-3.175900 1.090100
-3.114300 0.975400
-3.052600 0.881000
-2.991000 0.844400
-2.929300 0.820100
-2.867600 0.816900
-2.806000 0.814600
-2.744300 0.849100
-2.682700 0.906700
-2.621000 0.893400
-2.559300 0.862300
-2.497700 0.806000
-2.436000 0.740200
-2.374400 0.657600
-2.312700 0.579300
-2.251000 0.508300
-2.189400 0.487200
-2.127700 0.525200
-2.066000 0.601200
-2.004400 0.684500
-1.942700 0.807400
-1.881100 0.813600
-1.819400 0.788300
-1.757700 0.766200
-1.696100 0.725200
-1.634400 0.698500
-1.572800 0.672900
-1.511100 0.654100
-1.449400 0.636100
-1.387800 0.622500
-1.326100 0.613800
-1.264500 0.606900
-1.202800 0.601100
-1.141100 0.596700
-1.079500 0.594900
-1.017800 0.592200
-0.956200 0.586400
-0.894500 0.582100
-0.832800 0.579000
-0.771200 0.577600
-0.709500 0.576900
-0.647900 0.577700
-0.586200 0.575100
-0.524500 0.570200
-0.462900 0.566300
-0.401200 0.563600
-0.339600 0.563900
-0.277900 0.574000
-0.216200 0.567300
-0.154600 0.561000
-0.092900 0.558300
-0.031200 0.571100
0.030400 0.569600
0.092100 0.552400
0.153700 0.504300
0.215400 0.372600
0.277100 0.365600
0.338700 0.374400
0.400400 0.384600
0.462000 0.396800
0.523700 0.411700
0.585400 0.432500
0.647000 0.460900
0.708700 0.499700
0.770300 0.537800
0.832000 0.593600
0.893700 0.624900
0.955300 0.491200
1.017000 0.445200
1.078600 0.414100
1.140300 0.397800
1.202000 0.347200
1.263600 0.322000
1.325300 0.299700
1.386900 0.282500
1.448600 0.264900
1.510300 0.250700
1.571900 0.238300
1.633600 0.225600
1.695200 0.210700
1.756900 0.200300
1.818600 0.195200
1.880200 0.180600
1.941900 0.169000
2.003600 0.158100
2.065200 0.146900
2.126900 0.137300
2.188500 0.129300
2.250200 0.124700
2.311900 0.113400
2.373500 0.105200
2.435200 0.098500
2.496800 0.092600
2.558500 0.088700
2.620200 0.080400
2.681800 0.070000
2.743500 0.058800
2.805100 0.045500
2.866800 0.027400
2.928500 0.004400
2.990100 0.000700
3.051800 0.000000
3.113400 0.000000
3.175100 0.000000
3.236800 0.000000
3.298400 0.000000
3.360100 0.000000
3.421700 0.000000
3.483400 0.000300
3.545100 0.007500
3.606700 0.014400
3.668400 0.021800
3.730100 0.030600
3.791700 0.041500
3.853400 0.056800
3.915000 0.079800
3.976700 0.095800
4.038400 0.110300
4.100000 0.119600
4.161700 0.119400
4.223300 0.129500
4.285000 0.140000
4.346700 0.149900
4.408300 0.161600
4.470000 0.177200
4.531600 0.198900
4.593300 0.225800
4.655000 0.264500
4.716600 0.315300
4.778300 0.334100
4.839900 0.359500
4.901600 0.403400
4.963300 0.498200
5.024900 0.589200
5.086600 0.601400
5.148200 0.592000
5.209900 0.530800
5.271600 0.489600
5.333200 0.447400
5.394900 0.411100
5.456500 0.387700
5.518200 0.369700
5.579900 0.354600
5.641500 0.341700
5.703200 0.330400
5.764900 0.320700
5.826500 0.312100
5.888200 0.304400
5.949800 0.297400
6.011500 0.290900
6.073200 0.284700
6.134800 0.279400
6.196500 0.274400
6.258100 0.269700
6.319800 0.265300
6.381500 0.261200
6.443100 0.257200
6.504800 0.253400
6.566400 0.249700
6.628100 0.251400
6.689800 0.266500
6.751400 0.272300
6.813100 0.276100
6.874700 0.278400
6.936400 0.281900
6.998100 0.285400
7.059700 0.288300
7.121400 0.288800
7.183000 0.290000
7.244700 0.291100
7.306400 0.292500
7.368000 0.294200
7.429700 0.296600
7.491400 0.298000
7.553000 0.299400
7.614700 0.300700
7.676300 0.301600
7.738000 0.302500
7.799700 0.304100
7.861300 0.305800
7.923000 0.307400
7.984600 0.309000
8.046300 0.310700
8.108000 0.312500
8.169600 0.314900
8.231300 0.318000
8.292900 0.321800
8.354600 0.326700
8.416300 0.333600
8.477900 0.343300
8.539600 0.353300
8.601200 0.360500
8.662900 0.364700
8.724600 0.369900
8.786200 0.377800
8.847900 0.385500
8.909500 0.381600
8.971200 0.368700
9.032900 0.340800
9.094500 0.324200
9.156200 0.310700
9.217800 0.294700
9.279500 0.273300
9.341200 0.251500
9.402800 0.246000
9.464500 0.244100
9.526200 0.248000
9.587800 0.257800
9.649500 0.272300
9.711100 0.295000
9.772800 0.312000
9.834500 0.331900
9.896100 0.345900
9.957800 0.353500
10.019400 0.363700
10.081100 0.374600
10.142800 0.378200
10.204400 0.379400
10.266100 0.383700
10.327700 0.386000
10.389400 0.394900
10.451100 0.409300
10.512700 0.421500
10.574400 0.428500
10.636000 0.493700
10.697700 0.726900
10.759400 0.962300
10.821000 0.974500
10.882700 0.940100
10.944300 0.908500
11.006000 0.891700
11.067700 0.884100
11.129300 0.899100
11.191000 0.918400
11.252600 0.969600
11.314300 0.974400
11.376000 0.967500
11.437600 0.986100
11.499300 1.030500
11.561000 1.093100
11.622600 1.888700
11.684300 2.196500
11.745900 1.660700
11.807600 1.431800
11.869300 1.245900
11.930900 1.052300
11.992600 0.967000
12.054200 0.938500
12.115900 0.943400
12.177600 0.953200
12.239200 0.977100
12.300900 1.004900
12.362500 1.018700
12.424200 1.040200
12.485900 1.054100
12.547500 1.033700
12.609200 1.011800
12.670800 0.966900
12.732500 0.932600
12.794200 0.907100
12.855800 0.860600
12.917500 0.811100
12.979100 0.754000
13.040800 0.701000
13.102500 0.641100
13.164100 0.616000
13.225800 0.603600
13.287500 0.624400
13.349100 0.671100
13.410800 0.726400
13.472400 0.795400
13.534100 0.869700
13.595800 1.017700
13.657400 1.157500
13.719100 1.228000
13.780700 1.226400
13.842400 1.172200
13.904100 1.090400
13.965700 0.934900
14.027400 0.851900
14.089000 0.794300
14.150700 0.797200
14.212400 0.813700
14.274000 0.832600
14.335700 0.857300
14.397300 0.841000
14.459000 0.825300
14.520700 0.819000
14.582300 0.775800
14.644000 0.693500
14.705600 0.678700
14.767300 0.657800
14.829000 0.635400
14.890600 0.604300
14.952300 0.575700
15.013900 0.556400
15.075600 0.552200
15.137300 0.539700
15.198900 0.526500
15.260600 0.504900
15.322300 0.502600
15.383900 0.513700
15.445600 0.528000
15.507200 0.557300
15.568900 0.593600
15.630600 0.636100
15.692200 0.691900
15.753900 0.846600
15.815500 0.968500
15.877200 1.024800
15.938900 1.102100
16.000500 1.127500
16.062200 1.146200
16.123800 1.148900
16.185500 1.133800
16.247200 1.115300
16.308800 1.068800
16.370500 1.013500
16.432100 0.967400
16.493800 0.923400
16.555500 0.888200
16.617100 0.863700
16.678800 0.837600
16.740400 0.819900
16.802100 0.799100
16.863800 0.787100
16.925400 0.781300
16.987100 0.779000
17.048700 0.784200
17.110400 0.787000
17.172100 0.797000
17.233700 0.801800
17.295400 0.808600
17.357100 0.820900
17.418700 0.814500
17.480400 0.823100
17.542000 0.823200
17.603700 0.826800
17.665400 0.826000
17.727000 0.831100
17.788700 0.837300
17.850300 0.838000
17.912000 0.839200
17.973700 0.835400
18.035300 0.827200
18.097000 0.827300
18.158600 0.826800
18.220300 0.826200
18.282000 0.837100
18.343600 0.851500
18.405300 0.868700
18.466900 0.871800
18.528600 0.875500
18.590300 0.894700
18.651900 0.870000
18.713600 0.863000
18.775200 0.858500
18.836900 0.854700
18.898600 0.839900
18.960200 0.834500
19.021900 0.831800
19.083600 0.830600
19.145200 0.826800
19.206900 0.821000
19.268500 0.802500
19.330200 0.768100
19.391900 0.727500
19.453500 0.711300
19.515200 0.682900
19.576800 0.654200
19.638500 0.630400
19.700200 0.591500
19.761800 0.575200
19.823500 0.570900
19.885100 0.580800
19.946800 0.602300
20.008500 0.630100
20.070100 0.657800
20.131800 0.673100
20.193400 0.715800
20.255100 0.774600
20.316800 0.828900
20.378400 0.866500
20.440100 0.885800
20.501700 0.923200
20.563400 0.937600
20.625100 0.957800
20.686700 0.968500
20.748400 0.972000
20.810000 0.954300
20.871700 0.949600
20.933400 0.934200
20.995000 0.903700
21.056700 0.888500
21.118400 0.872000
21.180000 0.855600
21.241700 0.839800
21.303300 0.832100
21.365000 0.821100
21.426700 0.811900
21.488300 0.796900
21.550000 0.796300
21.611600 0.800100
21.673300 0.810900
21.735000 0.814300
21.796600 0.812500
21.858300 0.823900
21.919900 0.822100
21.981600 0.815100
22.043300 0.803500
22.104900 0.782000
22.166600 0.772300
22.228200 0.766900
22.289900 0.760100
22.351600 0.754300
22.413200 0.679300
22.474900 0.668800
22.536500 0.662300
22.598200 0.660100
22.659900 0.656700
22.721500 0.651300
22.783200 0.646700
22.844800 0.647900
22.906500 0.655000
22.968200 0.635900
23.029800 0.622200
23.091500 0.628500
23.153200 0.646300
23.214800 0.637300
23.276500 0.634900
23.338100 0.632400
23.399800 0.632300
23.461500 0.638100
23.523100 0.648100
23.584800 0.658400
23.646400 0.689300
23.708100 0.736300
23.769800 0.786400
23.831400 0.868700
23.893100 0.834900
23.954700 0.851900
24.016400 0.883200
24.078100 0.907200
24.139700 0.938800
24.201400 0.979100
24.263000 0.985400
24.324700 0.953300
24.386400 0.955000
24.448000 0.937500
24.509700 0.935400
24.571300 0.940600
24.633000 0.970900
24.694700 1.004100
24.756300 1.043800
24.818000 1.135800
24.879700 1.192600
24.941300 1.203200
25.003000 1.157000
25.064600 1.118400
25.126300 1.075700
25.188000 1.028300
25.249600 0.984600
25.311300 0.954400
25.372900 0.936800
25.434600 0.930100
25.496300 0.933200
25.557900 0.931000
25.619600 0.920100
25.681200 0.916200
25.742900 0.917800
25.804600 0.964200
25.866200 0.969200
25.927900 0.936900
25.989500 0.924600
26.051200 0.918600
26.112900 0.919500
26.174500 0.932900
26.236200 0.948800
26.297800 0.983400
26.359500 1.028000
26.421200 1.059800
26.482800 1.079900
26.544500 1.121300
26.606100 1.147600
26.667800 1.230300
26.729500 1.324000
26.791100 1.292900
26.852800 1.222500
26.914500 1.069600
26.976100 0.976500
27.037800 0.932900
27.099400 0.917000
27.161100 0.925000
27.222800 0.968400
27.284400 0.991600
27.346100 0.972900
27.407700 0.963500
27.469400 0.951800
27.531100 0.947200
27.592700 0.898400
27.654400 0.893200
27.716000 0.886300
27.777700 0.909100
27.839400 0.906000
27.901000 0.887200
27.962700 0.854600
28.024300 0.817700
28.086000 0.828400
28.147700 0.872700
28.209300 0.902700
28.271000 0.934900
28.332600 0.947500
28.394300 0.934500
28.456000 0.905000
28.517600 0.842600
28.579300 0.840900
28.641000 0.885600
28.702600 0.903100
28.764300 0.909200
28.825900 0.893200
28.887600 0.896000
28.949300 0.915700
29.010900 0.925400
29.072600 0.930300
29.134200 0.931400
29.195900 0.931400
29.257600 0.938000
29.319200 0.935300
29.380900 0.950700
29.442500 0.968600
29.504200 0.994800
29.565900 0.976100
29.627500 0.982100
29.689200 1.030200
29.750800 1.008800
29.812500 0.980900
29.874200 0.975600
29.935800 0.996000
29.997500 0.999000
30.059100 1.004300
30.120800 1.004200
30.182500 1.018600
30.244100 0.998600
30.305800 0.981200
30.367400 0.967400
30.429100 0.956100
30.490800 0.945800
30.552400 0.944000
30.614100 0.940500
30.675800 0.923100
30.737400 0.895600
30.799100 0.872200
30.860700 0.841200
30.922400 0.821800
30.984100 0.788000
31.045700 0.774300
31.107400 0.788800
31.169000 0.806500
31.230700 0.826500
31.292400 0.855600
31.354000 0.890300
31.415700 0.883600
31.477300 0.880000
31.539000 0.875300
31.600700 0.865200
31.662300 0.855400
31.724000 0.830000
31.785600 0.808700
31.847300 0.788600
31.909000 0.779600
31.970600 0.773000
32.032300 0.778700
32.093900 0.801800
32.155600 0.831400
32.217300 0.855000
32.278900 0.886600
32.340600 0.913400
32.402200 0.935700
32.463900 0.893800
32.525600 0.861600
32.587200 0.829600
32.648900 0.812100
32.710600 0.799800
32.772200 0.785200
32.833900 0.780300
32.895500 0.772200
32.957200 0.766600
33.018900 0.750700
33.080500 0.744200
33.142200 0.707800
33.203800 0.680300
33.265500 0.649400
33.327200 0.628300
33.388800 0.628700
33.450500 0.639500
33.512100 0.646300
33.573800 0.659600
33.635500 0.681600
33.697100 0.709200
33.758800 0.729800
33.820400 0.731600
33.882100 0.735900
33.943800 0.743400
34.005400 0.763000
34.067100 0.790900
34.128700 0.830600
34.190400 0.854800
34.252100 0.869400
34.313700 0.860400
34.375400 0.868100
34.437100 0.880700
34.498700 0.902400
34.560400 0.915400
34.622000 0.906600
34.683700 0.905700
34.745400 0.905300
34.807000 0.896400
34.868700 0.886700
34.930300 0.877500
34.992000 0.889400
35.053700 0.888200
35.115300 0.895500
35.177000 0.910100
35.238600 0.905800
35.300300 0.898900
35.362000 0.889200
35.423600 0.883300
35.485300 0.866700
35.546900 0.807000
35.608600 0.770100
35.670300 0.737100
35.731900 0.703400
35.793600 0.674500
35.855200 0.645600
35.916900 0.617400
35.978600 0.577500
36.040200 0.559800
36.101900 0.553700
36.163500 0.557000
36.225200 0.565600
36.286900 0.574000
36.348500 0.583800
36.410200 0.602600
36.471900 0.626000
36.533500 0.643000
36.595200 0.663200
36.656800 0.688100
36.718500 0.711300
36.780200 0.742100
36.841800 0.772400
36.903500 0.800500
36.965100 0.828900
37.026800 0.849800
37.088500 0.879200
37.150100 0.900200
37.211800 0.911500
37.273400 0.914400
37.335100 0.900100
37.396800 0.894800
37.458400 0.893200
37.520100 0.890300
37.581700 0.867000
37.643400 0.841200
37.705100 0.818100
37.766700 0.794800
37.828400 0.776000
37.890000 0.764100
37.951700 0.754400
38.013400 0.750100
38.075000 0.748300
38.136700 0.742200
38.198300 0.740000
38.260000 0.746100
38.321700 0.766300
38.383300 0.789600
38.445000 0.810100
38.506700 0.833000
38.568300 0.838100
38.630000 0.844300
38.691600 0.810500
38.753300 0.793900
38.815000 0.785000
38.876600 0.774800
38.938300 0.762300
38.999900 0.773200
39.061600 0.780500
39.123300 0.800200
39.184900 0.830700
39.246600 0.858700
39.308200 0.897600
39.369900 0.938100
39.431600 0.979200
39.493200 1.023200
39.554900 1.036600
39.616500 1.050300
39.678200 1.057300
39.739900 1.062000
39.801500 1.056500
39.863200 1.042700
39.924800 1.035300
39.986500 1.061000
40.048200 1.056500
40.109800 1.040500
40.171500 1.021900
40.233200 1.010300
40.294800 1.002400
40.356500 0.990300
40.418100 0.985400
40.479800 0.982300
40.541500 0.981800
40.603100 0.986000
40.664800 0.992900
40.726400 1.014100
40.788100 1.029900
40.849800 1.035800
40.911400 1.041800
40.973100 1.043400
41.034700 1.045100
41.096400 1.035200
41.158100 1.022300
41.219700 1.021200
41.281400 1.040000
41.343000 1.053800
41.404700 1.050800
41.466400 1.020400
41.528000 1.008900
41.589700 0.999900
41.651300 1.003300
41.713000 1.014100
41.774700 1.028100
41.836300 1.039800
41.898000 1.034200
41.959600 1.013500
