set title 'mp-1183645 - Density of States'
set xlabel 'Energy (eV)'
set ylabel 'DOS (states/eV)'
set grid
set xrange [-10:10]
set yrange [0:31.679]
set xzeroaxis lt -1
set terminal png size 800,600
set output 'mp-1183645_dos_gnuplot.png'
plot '-' using 1:2 with lines title 'DOS'
-7.556600 0.000000
-7.536500 0.000000
-7.516300 0.000000
-7.496200 0.000000
-7.476100 0.000000
-7.456000 0.000000
-7.435900 0.000000
-7.415800 0.000000
-7.395700 0.000000
-7.375600 0.000000
-7.355500 0.000000
-7.335400 0.000000
-7.315300 0.000000
-7.295200 0.000000
-7.275100 0.000000
-7.255000 0.000000
-7.234900 0.000000
-7.214800 0.000000
-7.194700 0.000000
-7.174600 0.000000
-7.154500 0.000000
-7.134300 0.000000
-7.114200 0.000000
-7.094100 0.000000
-7.074000 0.000000
-7.053900 0.000000
-7.033800 0.000000
-7.013700 0.000000
-6.993600 0.000000
-6.973500 0.000000
-6.953400 0.000000
-6.933300 0.000000
-6.913200 0.000000
-6.893100 0.000000
-6.873000 0.000000
-6.852900 0.000000
-6.832800 0.000000
-6.812700 0.000000
-6.792600 0.000000
-6.772500 0.000000
-6.752300 0.000000
-6.732200 0.000000
-6.712100 0.000000
-6.692000 0.000000
-6.671900 0.000000
-6.651800 0.000000
-6.631700 0.000000
-6.611600 0.000000
-6.591500 0.000000
-6.571400 0.000000
-6.551300 0.000000
-6.531200 0.000000
-6.511100 0.000000
-6.491000 0.000000
-6.470900 0.000000
-6.450800 0.000000
-6.430700 0.000000
-6.410600 0.000000
-6.390500 0.000000
-6.370400 0.000000
-6.350200 0.000000
-6.330100 0.000000
-6.310000 0.000000
-6.289900 0.000000
-6.269800 0.000000
-6.249700 0.000000
-6.229600 0.000000
-6.209500 0.000000
-6.189400 0.000000
-6.169300 0.000000
-6.149200 0.000000
-6.129100 0.000000
-6.109000 0.000000
-6.088900 0.000000
-6.068800 0.000000
-6.048700 0.000000
-6.028600 0.000000
-6.008500 0.000000
-5.988400 0.000000
-5.968200 0.000000
-5.948100 0.000000
-5.928000 0.000000
-5.907900 0.000000
-5.887800 0.000000
-5.867700 0.000000
-5.847600 0.000000
-5.827500 0.000000
-5.807400 0.000000
-5.787300 0.000000
-5.767200 0.000000
-5.747100 0.000000
-5.727000 0.015100
-5.706900 0.247000
-5.686800 0.523000
-5.666700 0.599200
-5.646600 0.967900
-5.626500 1.784100
-5.606400 2.040100
-5.586300 2.386400
-5.566100 3.312200
-5.546000 4.812600
-5.525900 4.905100
-5.505800 5.777400
-5.485700 7.138900
-5.465600 8.777000
-5.445500 10.842700
-5.425400 13.877800
-5.405300 14.445100
-5.385200 17.449700
-5.365100 15.209900
-5.345000 15.383200
-5.324900 17.431600
-5.304800 17.898200
-5.284700 17.726200
-5.264600 18.415500
-5.244500 20.850100
-5.224400 21.592100
-5.204300 17.996700
-5.184100 15.753200
-5.164000 15.520900
-5.143900 15.415400
-5.123800 15.445300
-5.103700 16.280000
-5.083600 17.078200
-5.063500 16.216400
-5.043400 18.832300
-5.023300 19.521800
-5.003200 15.952900
-4.983100 15.730900
-4.963000 22.696300
-4.942900 27.159100
-4.922800 18.734100
-4.902700 14.335300
-4.882600 15.102200
-4.862500 18.387900
-4.842400 16.354900
-4.822300 18.083900
-4.802100 15.004400
-4.782000 13.757100
-4.761900 27.594900
-4.741800 26.421700
-4.721700 12.218400
-4.701600 14.118600
-4.681500 19.258500
-4.661400 18.627400
-4.641300 18.779800
-4.621200 19.360500
-4.601100 22.711600
-4.581000 15.800700
-4.560900 19.657100
-4.540800 24.265500
-4.520700 28.349700
-4.500600 16.487200
-4.480500 19.317900
-4.460400 20.122000
-4.440300 27.858400
-4.420200 28.798800
-4.400000 24.730300
-4.379900 20.924800
-4.359800 22.409300
-4.339700 28.256300
-4.319600 21.833700
-4.299500 18.412600
-4.279400 18.026800
-4.259300 19.759500
-4.239200 19.794000
-4.219100 18.492000
-4.199000 17.551400
-4.178900 15.764700
-4.158800 14.608400
-4.138700 14.622200
-4.118600 15.309500
-4.098500 16.323700
-4.078400 16.538700
-4.058300 13.900200
-4.038200 13.684500
-4.018000 13.692200
-3.997900 12.411000
-3.977800 17.319400
-3.957700 19.482500
-3.937600 15.372800
-3.917500 14.846700
-3.897400 11.980100
-3.877300 10.318700
-3.857200 9.732000
-3.837100 8.513400
-3.817000 2.743500
-3.796900 2.266100
-3.776800 2.622900
-3.756700 2.382400
-3.736600 2.137100
-3.716500 1.903400
-3.696400 1.725900
-3.676300 1.718500
-3.656200 1.859800
-3.636100 1.428100
-3.615900 0.895500
-3.595800 0.560700
-3.575700 0.546000
-3.555600 0.535600
-3.535500 0.529800
-3.515400 0.527500
-3.495300 0.526100
-3.475200 0.525700
-3.455100 0.526100
-3.435000 0.521600
-3.414900 0.508900
-3.394800 0.506200
-3.374700 0.502700
-3.354600 0.499700
-3.334500 0.498100
-3.314400 0.497100
-3.294300 0.496200
-3.274200 0.495400
-3.254100 0.494800
-3.233900 0.494700
-3.213800 0.495300
-3.193700 0.496700
-3.173600 0.499100
-3.153500 0.501700
-3.133400 0.504600
-3.113300 0.507600
-3.093200 0.510700
-3.073100 0.513900
-3.053000 0.517300
-3.032900 0.520800
-3.012800 0.524300
-2.992700 0.528000
-2.972600 0.531700
-2.952500 0.535400
-2.932400 0.539300
-2.912300 0.544500
-2.892200 0.549500
-2.872100 0.554500
-2.851900 0.559200
-2.831800 0.563800
-2.811700 0.568100
-2.791600 0.572700
-2.771500 0.577300
-2.751400 0.581700
-2.731300 0.586000
-2.711200 0.593200
-2.691100 0.600200
-2.671000 0.606600
-2.650900 0.612200
-2.630800 0.617700
-2.610700 0.622100
-2.590600 0.625900
-2.570500 0.629200
-2.550400 0.632000
-2.530300 0.632000
-2.510200 0.631400
-2.490100 0.631400
-2.470000 0.631500
-2.449800 0.631800
-2.429700 0.632500
-2.409600 0.636000
-2.389500 0.640300
-2.369400 0.644900
-2.349300 0.649900
-2.329200 0.655100
-2.309100 0.660700
-2.289000 0.668900
-2.268900 0.683600
-2.248800 0.700500
-2.228700 0.710800
-2.208600 0.722300
-2.188500 0.753900
-2.168400 0.767500
-2.148300 0.765300
-2.128200 0.773200
-2.108100 0.779300
-2.088000 0.783300
-2.067800 0.784900
-2.047700 0.785700
-2.027600 0.786600
-2.007500 0.787100
-1.987400 0.787000
-1.967300 0.782700
-1.947200 0.783000
-1.927100 0.781800
-1.907000 0.779400
-1.886900 0.780800
-1.866800 0.782700
-1.846700 0.783600
-1.826600 0.786000
-1.806500 0.790300
-1.786400 0.796500
-1.766300 0.804500
-1.746200 0.814400
-1.726100 0.828000
-1.706000 0.849000
-1.685800 0.861600
-1.665700 0.865200
-1.645600 0.840700
-1.625500 0.756500
-1.605400 0.741000
-1.585300 0.727400
-1.565200 0.714600
-1.545100 0.702400
-1.525000 0.690800
-1.504900 0.679900
-1.484800 0.669600
-1.464700 0.660100
-1.444600 0.651500
-1.424500 0.645200
-1.404400 0.640900
-1.384300 0.652700
-1.364200 0.657700
-1.344100 0.642500
-1.324000 0.621700
-1.303900 0.605300
-1.283700 0.619500
-1.263600 0.647500
-1.243500 0.676400
-1.223400 0.705300
-1.203300 0.729300
-1.183200 0.757800
-1.163100 0.792500
-1.143000 0.838200
-1.122900 0.877600
-1.102800 0.902100
-1.082700 0.914800
-1.062600 0.926400
-1.042500 0.943100
-1.022400 0.960700
-1.002300 0.979400
-0.982200 0.999100
-0.962100 1.022200
-0.942000 1.096600
-0.921900 1.132800
-0.901700 1.163700
-0.881600 1.192300
-0.861500 1.219300
-0.841400 1.246200
-0.821300 1.266400
-0.801200 1.265600
-0.781100 1.285400
-0.761000 1.289200
-0.740900 1.299300
-0.720800 1.286600
-0.700700 1.262400
-0.680600 1.227600
-0.660500 1.198700
-0.640400 1.163100
-0.620300 1.127200
-0.600200 1.110100
-0.580100 1.097400
-0.560000 1.124700
-0.539900 1.107400
-0.519800 1.083800
-0.499600 1.064500
-0.479500 1.032400
-0.459400 1.034700
-0.439300 1.036200
-0.419200 1.033100
-0.399100 1.033200
-0.379000 1.038300
-0.358900 1.046300
-0.338800 1.051700
-0.318700 1.054500
-0.298600 1.042900
-0.278500 1.027700
-0.258400 1.048300
-0.238300 1.068200
-0.218200 1.086100
-0.198100 1.101400
-0.178000 1.115300
-0.157900 1.127300
-0.137800 1.136200
-0.117600 1.139700
-0.097500 1.137300
-0.077400 1.129000
-0.057300 1.114500
-0.037200 1.104700
-0.017100 1.099200
0.003000 1.095500
0.023100 1.093500
0.043200 1.094100
0.063300 1.096000
0.083400 1.098300
0.103500 1.101200
0.123600 1.104400
0.143700 1.108000
0.163800 1.111700
0.183900 1.115600
0.204000 1.119600
0.224100 1.124400
0.244200 1.130300
0.264400 1.136600
0.284500 1.143200
0.304600 1.173600
0.324700 1.177300
0.344800 1.181600
0.364900 1.186300
0.385000 1.191500
0.405100 1.197300
0.425200 1.204000
0.445300 1.212000
0.465400 1.221200
0.485500 1.231800
0.505600 1.244700
0.525700 1.251700
0.545800 1.259100
0.565900 1.269000
0.586000 1.282800
0.606100 1.298000
0.626200 1.315000
0.646300 1.333100
0.666500 1.388300
0.686600 1.411900
0.706700 1.412600
0.726800 1.421300
0.746900 1.428200
0.767000 1.448800
0.787100 1.469600
0.807200 1.517700
0.827300 1.552100
0.847400 1.569800
0.867500 1.586300
0.887600 1.599300
0.907700 1.667900
0.927800 1.716300
0.947900 1.716200
0.968000 1.786100
0.988100 1.827800
1.008200 1.823900
1.028300 1.905600
1.048500 1.997500
1.068600 2.111000
1.088700 2.339000
1.108800 2.413100
1.128900 2.428100
1.149000 2.414600
1.169100 2.510300
1.189200 2.456100
1.209300 2.388400
1.229400 2.378200
1.249500 2.393600
1.269600 2.118000
1.289700 1.988900
1.309800 1.944500
1.329900 1.933400
1.350000 1.948600
1.370100 2.061400
1.390200 1.950200
1.410300 1.800400
1.430500 1.756300
1.450600 1.795300
1.470700 2.082100
1.490800 1.886900
1.510900 1.623100
1.531000 1.685700
1.551100 1.706300
1.571200 1.732700
1.591300 1.791500
1.611400 1.907200
1.631500 2.103100
1.651600 2.441400
1.671700 2.728400
1.691800 2.982300
1.711900 3.221900
1.732000 3.437200
1.752100 3.684400
1.772200 3.929800
1.792300 4.137000
1.812400 4.332800
1.832600 4.278500
1.852700 4.194000
1.872800 4.249800
1.892900 3.610900
1.913000 3.233100
1.933100 3.132200
1.953200 3.261800
1.973300 3.495800
1.993400 3.954800
2.013500 4.524200
2.033600 4.435900
2.053700 4.467200
2.073800 3.751100
2.093900 3.560400
2.114000 3.674900
2.134100 3.828000
2.154200 4.337500
2.174300 4.602400
2.194400 5.144800
2.214600 5.448500
2.234700 5.516200
2.254800 5.521600
2.274900 4.718300
2.295000 4.637800
2.315100 4.662400
2.335200 5.192000
2.355300 8.596700
2.375400 8.779300
2.395500 7.976300
2.415600 7.789400
2.435700 7.851700
2.455800 8.044400
2.475900 8.701800
2.496000 8.946600
2.516100 9.745100
2.536200 9.842600
2.556300 10.575500
2.576400 9.497900
2.596500 6.464900
2.616700 5.751400
2.636800 5.222100
2.656900 4.911200
2.677000 5.012200
2.697100 4.606000
2.717200 4.343200
2.737300 4.048800
2.757400 3.820900
2.777500 2.939700
2.797600 2.313700
2.817700 1.983300
2.837800 1.697900
2.857900 1.521600
2.878000 1.567200
2.898100 1.714900
2.918200 1.831500
2.938300 2.013200
2.958400 2.509400
2.978500 2.720900
2.998700 3.262400
3.018800 4.143500
3.038900 3.888700
3.059000 3.991400
3.079100 4.088600
3.099200 3.811500
3.119300 4.341300
3.139400 4.403700
3.159500 3.962800
3.179600 3.987600
3.199700 3.914500
3.219800 4.206200
3.239900 3.755400
3.260000 3.802400
3.280100 4.286300
3.300200 4.752600
3.320300 4.311900
3.340400 3.780600
3.360500 3.122600
3.380700 3.001500
3.400800 2.886700
3.420900 2.776400
3.441000 2.710500
3.461100 2.650100
3.481200 2.566300
3.501300 2.479300
3.521400 2.356700
3.541500 2.289800
3.561600 2.223700
3.581700 2.197400
3.601800 2.199200
3.621900 2.168200
3.642000 2.109300
3.662100 2.072000
3.682200 2.045700
3.702300 2.020500
3.722400 1.994900
3.742500 1.974700
3.762600 1.951700
3.782800 1.944900
3.802900 1.887500
3.823000 1.858100
3.843100 1.826200
3.863200 1.790000
3.883300 1.792800
3.903400 1.754500
3.923500 1.712100
3.943600 1.696600
3.963700 1.714300
3.983800 1.740500
4.003900 2.007400
4.024000 1.681700
4.044100 1.633600
4.064200 1.621900
4.084300 1.608400
4.104400 1.601400
4.124500 1.595100
4.144600 1.589700
4.164800 1.594000
4.184900 1.682600
4.205000 1.596800
4.225100 1.411900
4.245200 1.378100
4.265300 1.376500
4.285400 1.367100
4.305500 1.360900
4.325600 1.395000
4.345700 1.358700
4.365800 1.286100
4.385900 1.254900
4.406000 1.255200
4.426100 1.250200
4.446200 1.241800
4.466300 1.241000
4.486400 1.244400
4.506500 1.203900
4.526600 1.192200
4.546700 1.186200
4.566900 1.186100
4.587000 1.150000
4.607100 1.132900
4.627200 1.123300
4.647300 1.113000
4.667400 1.102100
4.687500 1.086400
4.707600 1.077900
4.727700 1.072600
4.747800 1.059900
4.767900 1.044300
4.788000 1.028500
4.808100 1.012000
4.828200 1.001500
4.848300 0.991000
4.868400 0.980700
4.888500 0.970500
4.908600 0.960300
4.928700 0.947600
4.948900 0.933800
4.969000 0.925400
4.989100 0.916900
5.009200 0.908300
5.029300 0.899300
5.049400 0.891800
5.069500 0.887300
5.089600 0.883100
5.109700 0.878600
5.129800 0.873900
5.149900 0.869200
5.170000 0.866600
5.190100 0.863200
5.210200 0.859600
5.230300 0.877700
5.250400 0.855700
5.270500 0.839700
5.290600 0.829700
5.310700 0.824800
5.330900 0.820500
5.351000 0.816500
5.371100 0.812700
5.391200 0.808900
5.411300 0.805000
5.431400 0.801100
5.451500 0.797600
5.471600 0.794600
5.491700 0.791900
5.511800 0.789800
5.531900 0.788300
5.552000 0.787000
5.572100 0.785800
5.592200 0.784800
5.612300 0.783900
5.632400 0.783300
5.652500 0.783100
5.672600 0.785700
5.692700 0.830000
5.712800 0.921800
5.733000 1.044800
5.753100 1.221300
5.773200 1.360200
5.793300 1.452900
5.813400 1.517900
5.833500 1.550900
5.853600 1.555500
5.873700 1.554800
5.893800 1.531300
5.913900 1.505400
5.934000 1.484300
5.954100 1.615900
5.974200 1.501100
5.994300 1.374900
6.014400 1.246800
6.034500 1.200900
6.054600 1.159500
6.074700 1.122500
6.094800 1.089800
6.115000 1.064000
6.135100 1.096800
6.155200 1.213400
6.175300 1.434500
6.195400 1.888400
6.215500 2.347600
6.235600 2.450300
6.255700 2.396400
6.275800 2.254600
6.295900 2.244200
6.316000 1.988800
6.336100 1.987500
6.356200 1.848200
6.376300 1.749900
6.396400 1.698900
6.416500 1.695300
6.436600 1.698900
6.456700 1.710400
6.476800 1.729500
6.497000 1.752400
6.517100 1.739500
6.537200 1.729900
6.557300 1.717600
6.577400 1.663400
6.597500 1.661400
6.617600 1.652200
6.637700 1.638900
6.657800 1.642500
6.677900 1.640600
6.698000 1.627600
6.718100 1.613200
6.738200 1.602700
6.758300 1.590000
6.778400 1.584100
6.798500 1.559200
6.818600 1.514000
6.838700 1.500600
6.858800 1.487500
6.878900 1.474500
6.899100 1.462100
6.919200 1.450600
6.939300 1.441400
6.959400 1.432400
6.979500 1.425300
6.999600 1.420000
7.019700 1.418500
7.039800 1.425700
7.059900 1.437600
7.080000 1.452900
7.100100 1.464700
7.120200 1.506000
7.140300 1.504900
7.160400 1.506900
7.180500 1.514600
7.200600 1.521300
7.220700 1.501100
7.240800 1.521100
7.260900 1.458500
7.281100 1.452600
7.301200 1.452000
7.321300 1.451900
7.341400 1.455000
7.361500 1.461200
7.381600 1.475300
7.401700 1.482700
7.421800 1.481900
7.441900 1.487400
7.462000 1.492200
7.482100 1.496900
7.502200 1.501700
7.522300 1.508200
7.542400 1.515900
7.562500 1.526100
7.582600 1.540900
7.602700 1.559300
7.622800 1.580600
7.642900 1.603200
7.663000 1.626200
7.683200 1.649600
7.703300 1.636700
7.723400 1.651700
7.743500 1.667200
7.763600 1.661200
7.783700 1.598200
7.803800 1.603200
7.823900 1.609800
7.844000 1.599700
7.864100 1.601400
7.884200 1.603400
7.904300 1.620500
7.924400 1.609400
7.944500 1.591100
7.964600 1.579900
7.984700 1.574400
8.004800 1.567000
8.024900 1.559700
8.045000 1.531200
8.065200 1.516600
8.085300 1.504600
8.105400 1.493400
8.125500 1.470100
8.145600 1.446700
8.165700 1.436600
8.185800 1.423700
8.205900 1.414900
8.226000 1.410200
8.246100 1.408000
8.266200 1.406900
8.286300 1.406600
8.306400 1.407300
8.326500 1.408900
8.346600 1.395500
8.366700 1.391500
8.386800 1.389000
8.406900 1.389300
8.427000 1.400200
8.447200 1.411400
8.467300 1.421700
8.487400 1.431000
8.507500 1.439100
8.527600 1.436200
8.547700 1.441400
8.567800 1.456300
8.587900 1.473100
8.608000 1.521700
8.628100 1.555800
8.648200 1.587800
8.668300 1.608700
8.688400 1.637000
8.708500 1.664300
8.728600 1.685500
8.748700 1.668400
8.768800 1.664000
8.788900 1.666500
8.809000 1.641800
8.829100 1.637000
8.849300 1.631800
8.869400 1.622400
8.889500 1.616200
8.909600 1.609600
8.929700 1.604800
8.949800 1.601500
8.969900 1.599900
8.990000 1.598900
9.010100 1.607700
9.030200 1.619200
9.050300 1.628400
9.070400 1.637800
9.090500 1.645800
9.110600 1.651100
9.130700 1.656700
9.150800 1.660800
9.170900 1.663200
9.191000 1.667000
9.211100 1.657400
9.231300 1.656900
9.251400 1.676400
9.271500 1.696000
9.291600 1.712300
9.311700 1.731800
9.331800 1.763600
9.351900 1.726200
9.372000 1.707000
9.392100 1.674800
9.412200 1.636600
9.432300 1.618600
9.452400 1.601800
9.472500 1.585500
9.492600 1.570500
9.512700 1.559100
9.532800 1.554000
9.552900 1.554300
9.573000 1.559300
9.593100 1.564300
9.613300 1.569900
9.633400 1.577500
9.653500 1.578600
9.673600 1.576100
9.693700 1.569700
9.713800 1.571300
9.733900 1.787000
9.754000 1.686800
9.774100 1.695300
9.794200 1.701500
9.814300 1.705500
9.834400 1.707300
9.854500 1.706200
9.874600 1.704600
9.894700 1.706900
9.914800 1.709100
9.934900 1.711600
9.955000 1.727700
9.975100 1.763300
9.995200 1.820000
10.015400 1.802400
10.035500 1.783600
10.055600 1.783400
10.075700 1.785200
10.095800 1.788200
10.115900 1.792300
10.136000 1.866200
10.156100 1.866500
10.176200 1.875100
10.196300 1.878700
10.216400 1.873500
10.236500 1.869500
10.256600 1.867400
10.276700 1.862800
10.296800 1.858700
10.316900 1.850300
10.337000 1.840300
10.357100 1.831000
10.377200 1.819600
10.397400 1.800500
10.417500 1.776700
10.437600 1.748400
10.457700 1.716500
10.477800 1.720400
10.497900 1.749400
10.518000 1.744900
10.538100 1.680500
10.558200 1.656500
10.578300 1.631100
10.598400 1.604300
10.618500 1.588600
10.638600 1.575100
10.658700 1.554200
10.678800 1.531200
10.698900 1.509000
10.719000 1.487800
10.739100 1.466800
10.759200 1.455200
10.779300 1.452900
10.799500 1.433500
10.819600 1.416300
10.839700 1.401500
10.859800 1.389200
10.879900 1.382200
10.900000 1.379000
10.920100 1.380200
10.940200 1.383900
10.960300 1.392400
10.980400 1.411600
11.000500 1.434500
11.020600 1.453500
11.040700 1.467200
11.060800 1.474400
11.080900 1.476200
11.101000 1.471800
11.121100 1.462300
11.141200 1.448500
11.161300 1.433600
11.181500 1.417900
11.201600 1.405300
11.221700 1.423100
11.241800 1.481500
11.261900 1.522800
11.282000 1.472300
11.302100 1.444100
11.322200 1.420000
11.342300 1.430400
11.362400 1.456000
11.382500 1.485500
11.402600 1.516900
11.422700 1.549300
11.442800 1.580000
11.462900 1.616100
11.483000 1.661200
11.503100 1.695100
11.523200 1.736400
11.543300 1.778900
11.563500 1.819600
11.583600 1.898500
11.603700 1.983900
11.623800 2.042600
11.643900 2.075100
11.664000 2.100600
11.684100 2.123400
11.704200 2.092000
11.724300 2.091700
11.744400 2.056800
11.764500 2.020500
11.784600 2.018300
11.804700 2.015200
11.824800 2.014300
11.844900 1.986300
11.865000 1.982400
11.885100 1.980100
11.905200 1.996900
11.925300 2.022900
11.945400 2.047500
11.965600 2.082400
11.985700 2.120800
12.005800 2.159900
12.025900 2.201200
12.046000 2.241400
12.066100 2.259700
12.086200 2.260400
12.106300 2.236800
12.126400 2.201900
12.146500 2.205200
12.166600 2.234500
12.186700 2.265300
12.206800 2.290800
12.226900 2.311700
12.247000 2.328600
12.267100 2.359400
12.287200 2.365000
12.307300 2.384300
12.327400 2.407800
12.347600 2.427900
12.367700 2.456900
12.387800 2.466600
12.407900 2.380500
12.428000 2.349900
12.448100 2.316300
12.468200 2.262400
12.488300 2.170200
12.508400 2.130400
12.528500 2.106900
12.548600 2.107400
12.568700 2.165400
12.588800 2.248300
12.608900 2.344400
12.629000 2.361800
12.649100 2.282800
12.669200 2.303500
12.689300 2.326100
12.709400 2.350400
12.729500 2.367000
12.749700 2.379500
12.769800 2.386200
12.789900 2.387600
12.810000 2.395900
12.830100 2.404300
12.850200 2.413800
12.870300 2.410400
12.890400 2.380800
12.910500 2.339200
12.930600 2.297500
12.950700 2.279500
12.970800 2.278300
12.990900 2.278500
13.011000 2.278900
13.031100 2.255000
13.051200 2.174400
13.071300 2.065700
13.091400 1.989600
13.111500 1.934100
13.131700 1.821200
13.151800 1.806600
13.171900 1.798500
13.192000 1.798000
13.212100 1.855000
13.232200 1.984500
13.252300 2.030700
13.272400 1.967600
13.292500 1.944800
13.312600 1.934900
13.332700 1.934200
13.352800 1.927200
13.372900 1.919800
13.393000 1.914300
13.413100 1.914500
13.433200 1.919100
13.453300 1.953100
13.473400 1.972000
13.493500 2.001500
13.513700 2.040400
13.533800 2.080100
13.553900 2.116000
13.574000 2.138900
13.594100 2.152300
13.614200 2.167200
13.634300 2.184400
13.654400 2.184100
13.674500 2.176100
13.694600 2.175200
13.714700 2.193300
