set title 'mp-8 - Density of States'
set xlabel 'Energy (eV)'
set ylabel 'DOS (states/eV)'
set grid
set xrange [-10:10]
set yrange [0:3.843]
set xzeroaxis lt -1
set terminal png size 800,600
set output 'mp-8_dos_gnuplot.png'
plot '-' using 1:2 with lines title 'DOS'
-43.615400 0.000000
-43.520100 0.000000
-43.424800 0.000000
-43.329400 0.000000
-43.234100 0.000000
-43.138800 0.000000
-43.043500 0.000000
-42.948200 0.000000
-42.852900 0.000000
-42.757600 0.000000
-42.662300 0.000000
-42.566900 0.000000
-42.471600 0.000000
-42.376300 0.000000
-42.281000 0.000000
-42.185700 0.000000
-42.090400 0.000000
-41.995100 0.000000
-41.899800 0.000000
-41.804500 0.000000
-41.709100 0.000000
-41.613800 0.000000
-41.518500 0.000000
-41.423200 0.000000
-41.327900 0.000000
-41.232600 0.000000
-41.137300 0.000000
-41.042000 0.000000
-40.946600 0.000000
-40.851300 0.000000
-40.756000 0.000000
-40.660700 0.000000
-40.565400 0.000000
-40.470100 0.000000
-40.374800 0.000000
-40.279500 0.000000
-40.184200 0.000000
-40.088800 0.000000
-39.993500 0.000000
-39.898200 0.000000
-39.802900 0.000000
-39.707600 0.000000
-39.612300 0.000000
-39.517000 0.000000
-39.421700 0.000000
-39.326300 0.000000
-39.231000 0.000000
-39.135700 0.000000
-39.040400 0.000000
-38.945100 0.000000
-38.849800 0.000000
-38.754500 0.000000
-38.659200 0.000000
-38.563800 0.000000
-38.468500 0.000000
-38.373200 0.000000
-38.277900 0.000000
-38.182600 0.000000
-38.087300 0.000000
-37.992000 0.000000
-37.896700 0.000000
-37.801400 0.000000
-37.706000 0.000000
-37.610700 0.000000
-37.515400 0.000000
-37.420100 0.000000
-37.324800 0.000000
-37.229500 0.000000
-37.134200 0.000000
-37.038900 0.000000
-36.943500 0.000000
-36.848200 0.000000
-36.752900 0.000000
-36.657600 0.000000
-36.562300 0.000000
-36.467000 0.000000
-36.371700 0.000000
-36.276400 0.000000
-36.181100 0.000000
-36.085700 0.000000
-35.990400 0.000000
-35.895100 0.000000
-35.799800 0.000000
-35.704500 0.000000
-35.609200 0.000000
-35.513900 0.000000
-35.418600 0.000000
-35.323200 0.000000
-35.227900 0.000000
-35.132600 0.000000
-35.037300 0.000000
-34.942000 0.096000
-34.846700 5.255600
-34.751400 13.240500
-34.656100 9.707300
-34.560800 7.415000
-34.465400 6.057000
-34.370100 7.567200
-34.274800 10.296700
-34.179500 13.638800
-34.084200 15.968200
-33.988900 24.869600
-33.893600 9.595700
-33.798300 0.275700
-33.702900 0.000000
-33.607600 0.000000
-33.512300 0.000000
-33.417000 0.000000
-33.321700 0.000000
-33.226400 0.000000
-33.131100 0.000000
-33.035800 0.000000
-32.940400 0.000000
-32.845100 0.000000
-32.749800 0.000000
-32.654500 0.000000
-32.559200 0.000000
-32.463900 0.000000
-32.368600 0.000000
-32.273300 0.000000
-32.178000 0.000000
-32.082600 0.000000
-31.987300 0.000000
-31.892000 0.000000
-31.796700 0.000000
-31.701400 0.000000
-31.606100 0.000000
-31.510800 0.000000
-31.415500 0.000000
-31.320100 0.000000
-31.224800 0.000000
-31.129500 0.000000
-31.034200 0.000000
-30.938900 0.000000
-30.843600 0.000000
-30.748300 0.000000
-30.653000 0.000000
-30.557700 0.000000
-30.462300 0.000000
-30.367000 0.000000
-30.271700 0.000000
-30.176400 0.000000
-30.081100 0.000000
-29.985800 0.000000
-29.890500 0.000000
-29.795200 0.000000
-29.699800 0.000000
-29.604500 0.000000
-29.509200 0.000000
-29.413900 0.000000
-29.318600 0.000000
-29.223300 0.000000
-29.128000 0.000000
-29.032700 0.000000
-28.937300 0.000000
-28.842000 0.000000
-28.746700 0.000000
-28.651400 0.000000
-28.556100 0.000000
-28.460800 0.000000
-28.365500 0.000000
-28.270200 0.000000
-28.174900 0.000000
-28.079500 0.000000
-27.984200 0.000000
-27.888900 0.000000
-27.793600 0.000000
-27.698300 0.000000
-27.603000 0.000000
-27.507700 0.000000
-27.412400 0.000000
-27.317000 0.000000
-27.221700 0.000000
-27.126400 0.000000
-27.031100 0.000000
-26.935800 0.000000
-26.840500 0.000000
-26.745200 0.000000
-26.649900 0.000000
-26.554600 0.000000
-26.459200 0.000000
-26.363900 0.000000
-26.268600 0.000000
-26.173300 0.000000
-26.078000 0.000000
-25.982700 0.000000
-25.887400 0.000000
-25.792100 0.000000
-25.696700 0.000000
-25.601400 0.000000
-25.506100 0.000000
-25.410800 0.000000
-25.315500 0.000000
-25.220200 0.000000
-25.124900 0.000000
-25.029600 0.000000
-24.934300 0.000000
-24.838900 0.000000
-24.743600 0.000000
-24.648300 0.000000
-24.553000 0.000000
-24.457700 0.000000
-24.362400 0.000000
-24.267100 0.000000
-24.171800 0.000000
-24.076400 0.000000
-23.981100 0.000000
-23.885800 0.000000
-23.790500 0.000000
-23.695200 0.000000
-23.599900 0.000000
-23.504600 0.000000
-23.409300 0.000000
-23.313900 0.000000
-23.218600 0.000000
-23.123300 0.000000
-23.028000 0.000000
-22.932700 0.000000
-22.837400 0.000000
-22.742100 0.000000
-22.646800 0.000000
-22.551500 0.000000
-22.456100 0.000000
-22.360800 0.000000
-22.265500 0.000000
-22.170200 0.000000
-22.074900 0.000000
-21.979600 0.000000
-21.884300 0.000000
-21.789000 0.000000
-21.693600 0.000000
-21.598300 0.000000
-21.503000 0.000000
-21.407700 0.000000
-21.312400 0.000000
-21.217100 0.000000
-21.121800 0.000000
-21.026500 0.000000
-20.931200 0.000000
-20.835800 0.000000
-20.740500 0.000000
-20.645200 0.000000
-20.549900 0.000000
-20.454600 0.000000
-20.359300 0.000000
-20.264000 0.000000
-20.168700 0.000000
-20.073300 0.000000
-19.978000 0.000000
-19.882700 0.000000
-19.787400 0.000000
-19.692100 0.000000
-19.596800 0.000000
-19.501500 0.000000
-19.406200 0.000000
-19.310800 0.000000
-19.215500 0.000000
-19.120200 0.000000
-19.024900 0.000000
-18.929600 0.000000
-18.834300 0.000000
-18.739000 0.000000
-18.643700 0.000000
-18.548400 0.000000
-18.453000 0.000000
-18.357700 0.000000
-18.262400 0.000000
-18.167100 0.000000
-18.071800 0.000000
-17.976500 0.000000
-17.881200 0.000000
-17.785900 0.000000
-17.690500 0.000000
-17.595200 0.000000
-17.499900 0.000000
-17.404600 0.000000
-17.309300 0.000000
-17.214000 0.000000
-17.118700 0.000000
-17.023400 0.000000
-16.928100 0.000000
-16.832700 0.000000
-16.737400 0.000000
-16.642100 0.000000
-16.546800 0.000000
-16.451500 0.000000
-16.356200 0.000000
-16.260900 0.000000
-16.165600 0.000000
-16.070200 0.000000
-15.974900 0.000000
-15.879600 0.000000
-15.784300 0.000000
-15.689000 0.000000
-15.593700 0.000000
-15.498400 0.000000
-15.403100 0.000000
-15.307800 0.000000
-15.212400 0.000000
-15.117100 0.000000
-15.021800 0.000000
-14.926500 0.000000
-14.831200 0.000000
-14.735900 0.000000
-14.640600 0.000000
-14.545300 0.000000
-14.449900 0.000000
-14.354600 0.000000
-14.259300 0.000000
-14.164000 0.000000
-14.068700 0.000000
-13.973400 0.000000
-13.878100 0.000000
-13.782800 0.000000
-13.687400 0.000000
-13.592100 0.000000
-13.496800 0.000000
-13.401500 0.000000
-13.306200 0.000000
-13.210900 0.000000
-13.115600 0.000000
-13.020300 0.000000
-12.925000 0.000000
-12.829600 0.000000
-12.734300 0.000000
-12.639000 0.000000
-12.543700 0.000000
-12.448400 0.000000
-12.353100 0.000000
-12.257800 0.000000
-12.162500 0.000000
-12.067100 0.000000
-11.971800 0.000000
-11.876500 0.000000
-11.781200 0.000000
-11.685900 0.000000
-11.590600 0.000000
-11.495300 0.000000
-11.400000 0.000000
-11.304700 0.000000
-11.209300 0.000000
-11.114000 0.000000
-11.018700 0.000000
-10.923400 0.000000
-10.828100 0.000000
-10.732800 0.000000
-10.637500 0.000000
-10.542200 0.000000
-10.446800 0.000000
-10.351500 0.000000
-10.256200 0.000000
-10.160900 0.000000
-10.065600 0.000000
-9.970300 0.000000
-9.875000 0.000000
-9.779700 0.000000
-9.684400 0.000000
-9.589000 0.000000
-9.493700 0.000000
-9.398400 0.000000
-9.303100 0.000000
-9.207800 0.000000
-9.112500 0.000000
-9.017200 0.000000
-8.921900 0.000000
-8.826500 0.000000
-8.731200 0.000000
-8.635900 0.000000
-8.540600 0.000000
-8.445300 0.000000
-8.350000 0.000000
-8.254700 0.000000
-8.159400 0.000000
-8.064000 0.000000
-7.968700 0.000000
-7.873400 0.000000
-7.778100 0.000000
-7.682800 0.000000
-7.587500 0.000000
-7.492200 0.000000
-7.396900 0.000000
-7.301600 0.000000
-7.206200 0.000000
-7.110900 0.000000
-7.015600 0.000000
-6.920300 0.000000
-6.825000 0.000000
-6.729700 0.000000
-6.634400 0.000000
-6.539100 0.000000
-6.443700 0.000000
-6.348400 0.000000
-6.253100 0.000000
-6.157800 0.000000
-6.062500 0.000000
-5.967200 0.000000
-5.871900 0.000000
-5.776600 0.000000
-5.681300 0.000000
-5.585900 0.000000
-5.490600 0.000000
-5.395300 0.000000
-5.300000 0.000000
-5.204700 0.000000
-5.109400 0.000000
-5.014100 0.000000
-4.918800 0.000000
-4.823400 0.000000
-4.728100 0.000000
-4.632800 0.000000
-4.537500 0.000000
-4.442200 0.000000
-4.346900 0.000000
-4.251600 0.000000
-4.156300 0.000000
-4.060900 0.000000
-3.965600 0.000000
-3.870300 0.000000
-3.775000 0.000000
-3.679700 0.000000
-3.584400 0.000000
-3.489100 0.000000
-3.393800 0.000000
-3.298500 0.000000
-3.203100 0.000000
-3.107800 0.000000
-3.012500 0.000000
-2.917200 0.000000
-2.821900 0.000000
-2.726600 0.000000
-2.631300 0.000000
-2.536000 0.000000
-2.440600 0.000000
-2.345300 0.011400
-2.250000 0.040000
-2.154700 0.047100
-2.059400 0.061500
-1.964100 0.072800
-1.868800 0.078200
-1.773500 0.087000
-1.678200 0.096100
-1.582800 0.106000
-1.487500 0.113000
-1.392200 0.120300
-1.296900 0.127700
-1.201600 0.135900
-1.106300 0.144900
-1.011000 0.154300
-0.915700 0.162500
-0.820300 0.170700
-0.725000 0.179900
-0.629700 0.189700
-0.534400 0.200100
-0.439100 0.210900
-0.343800 0.235600
-0.248500 0.242900
-0.153200 0.252700
-0.057900 0.262700
0.037500 0.270100
0.132800 0.281500
0.228100 0.314700
0.323400 0.338200
0.418700 0.365600
0.514000 0.397500
0.609300 0.434500
0.704600 0.490300
0.800000 0.586100
0.895300 1.025400
0.990600 1.547600
1.085900 1.535700
1.181200 1.532000
1.276500 1.450200
1.371800 1.458500
1.467100 1.416300
1.562500 1.581900
1.657800 1.939700
1.753100 1.894000
1.848400 1.896500
1.943700 1.907200
2.039000 2.043600
2.134300 2.041100
2.229600 2.573300
2.324900 2.068700
2.420300 1.683200
2.515600 1.706800
2.610900 1.888400
2.706200 1.472800
2.801500 1.291800
2.896800 1.535900
2.992100 1.529500
3.087400 2.260900
3.182800 2.664400
3.278100 2.424400
3.373400 1.565800
3.468700 1.526200
3.564000 1.735300
3.659300 1.913200
3.754600 2.366200
3.849900 2.527300
3.945200 2.419900
4.040600 2.802400
4.135900 2.788500
4.231200 2.351800
4.326500 1.847300
4.421800 1.367300
4.517100 0.951600
4.612400 0.797500
4.707700 0.843900
4.803100 1.037100
4.898400 1.658800
4.993700 2.777500
5.089000 3.493300
5.184300 3.418300
5.279600 2.777400
5.374900 2.632100
5.470200 2.870300
5.565600 2.467300
5.660900 2.508800
5.756200 2.462800
5.851500 2.528100
5.946800 2.704500
6.042100 2.738600
6.137400 2.625900
6.232700 2.627500
6.328000 2.804400
6.423400 3.141400
6.518700 3.421900
6.614000 3.039900
6.709300 2.345900
6.804600 2.266900
6.899900 2.289300
6.995200 1.925600
7.090500 1.824400
7.185900 1.503400
7.281200 1.340700
7.376500 1.489700
7.471800 1.492100
7.567100 1.425700
7.662400 1.354400
7.757700 1.322700
7.853000 1.319900
7.948300 1.318200
8.043700 1.315900
8.139000 1.237700
8.234300 1.213000
8.329600 1.211700
8.424900 1.195100
8.520200 1.183100
8.615500 1.161400
8.710800 1.155800
8.806200 1.147500
8.901500 1.134800
8.996800 1.129700
9.092100 1.151000
9.187400 1.176300
9.282700 1.637600
9.378000 1.294200
9.473300 1.242000
9.568600 1.223500
9.664000 1.381800
9.759300 1.467000
9.854600 1.939200
9.949900 1.881700
10.045200 1.883100
10.140500 1.919500
10.235800 2.010500
10.331100 2.113700
10.426500 2.179400
10.521800 2.770100
10.617100 2.795600
10.712400 2.784200
10.807700 2.563800
10.903000 2.911800
10.998300 2.894400
11.093600 2.817600
11.189000 2.868100
11.284300 2.275500
11.379600 2.209400
11.474900 1.422000
11.570200 0.869600
11.665500 0.738300
11.760800 0.707400
11.856100 0.661900
11.951400 0.640600
12.046800 0.625300
12.142100 0.622500
12.237400 0.622200
12.332700 0.618400
12.428000 0.618100
12.523300 0.621900
12.618600 0.613200
12.713900 0.612200
12.809300 0.644100
12.904600 0.624600
12.999900 0.602600
13.095200 0.588300
13.190500 0.580400
13.285800 0.574400
13.381100 0.591900
13.476400 0.597400
13.571700 0.611200
13.667100 0.605400
13.762400 0.698000
13.857700 0.564500
13.953000 0.563400
14.048300 0.557100
14.143600 0.552600
14.238900 0.567700
14.334200 0.589600
14.429600 0.628100
14.524900 0.734900
14.620200 0.752700
14.715500 0.626600
14.810800 0.573000
14.906100 0.537800
15.001400 0.512500
15.096700 0.494300
15.192000 0.457900
15.287400 0.416700
15.382700 0.381100
15.478000 0.355600
15.573300 0.339700
15.668600 0.343700
15.763900 0.345100
15.859200 0.350600
15.954500 0.345800
16.049900 0.348300
16.145200 0.339600
16.240500 0.329200
16.335800 0.260600
16.431100 0.208000
16.526400 0.190900
16.621700 0.120600
16.717000 0.175200
16.812400 0.317500
16.907700 0.517900
17.003000 0.842500
17.098300 1.272300
17.193600 1.230000
17.288900 1.115500
17.384200 1.101700
17.479500 1.255800
17.574800 1.256600
17.670200 0.984100
17.765500 0.826400
17.860800 0.781400
17.956100 0.778800
18.051400 0.791800
18.146700 0.797300
18.242000 0.938500
18.337300 0.992300
18.432700 0.970000
18.528000 0.897300
18.623300 0.814300
18.718600 0.760100
18.813900 0.717500
18.909200 0.697400
19.004500 0.731000
19.099800 0.709600
19.195100 0.714000
19.290500 0.680100
19.385800 0.608400
19.481100 0.583600
19.576400 0.575900
19.671700 0.638700
19.767000 0.690600
19.862300 0.751100
19.957600 0.828900
20.053000 0.833700
20.148300 0.786800
20.243600 0.777600
20.338900 0.773200
20.434200 0.772100
20.529500 0.767100
20.624800 0.759300
20.720100 0.765900
20.815500 0.779900
20.910800 0.798000
21.006100 0.820100
21.101400 0.843200
21.196700 0.878900
21.292000 0.937600
21.387300 0.996000
21.482600 1.102900
21.577900 1.033600
21.673300 1.049700
21.768600 1.068800
21.863900 1.120700
21.959200 0.998100
22.054500 1.004500
22.149800 1.017900
22.245100 1.055200
22.340400 1.105400
22.435800 1.162400
22.531100 1.259900
22.626400 1.337300
22.721700 1.297000
22.817000 1.359500
22.912300 1.439300
23.007600 1.611800
23.102900 1.796000
23.198200 1.990700
23.293600 1.805200
23.388900 1.396600
23.484200 1.304200
23.579500 1.305400
23.674800 1.434700
23.770100 1.311500
23.865400 1.440700
23.960700 1.361700
24.056100 1.410900
24.151400 1.652800
24.246700 1.626700
24.342000 1.622500
24.437300 1.636900
24.532600 1.446800
24.627900 1.217700
24.723200 1.094500
24.818500 1.076300
24.913900 1.112400
25.009200 1.182000
25.104500 1.242500
25.199800 1.216500
25.295100 1.342200
25.390400 1.385300
25.485700 1.625700
25.581000 1.562000
25.676400 1.516800
25.771700 1.455200
25.867000 1.357600
25.962300 1.276800
26.057600 1.244100
26.152900 1.227300
26.248200 1.225700
26.343500 1.214500
26.438900 1.205500
26.534200 1.258600
26.629500 1.256500
26.724800 1.434800
26.820100 1.521500
26.915400 1.475600
27.010700 1.347200
27.106000 1.276100
27.201300 1.317800
27.296700 1.202800
27.392000 1.273900
27.487300 1.272500
27.582600 1.132200
27.677900 1.069500
27.773200 1.007400
27.868500 0.918600
27.963800 0.836100
28.059200 0.764800
28.154500 0.760900
28.249800 0.800100
28.345100 0.801400
28.440400 0.810200
28.535700 0.827300
28.631000 0.877000
28.726300 0.908300
28.821600 0.948000
28.917000 1.020900
29.012300 1.120100
29.107600 1.244500
29.202900 1.241000
29.298200 1.242600
29.393500 1.120100
29.488800 0.980500
29.584100 1.032400
29.679500 0.956300
29.774800 0.956100
29.870100 1.077700
29.965400 1.131300
30.060700 1.138900
30.156000 1.095200
30.251300 1.058800
30.346600 1.015000
30.442000 0.981400
30.537300 0.992400
30.632600 0.935400
30.727900 0.994100
30.823200 1.040400
30.918500 1.030400
31.013800 0.961100
31.109100 0.853300
31.204400 0.823700
31.299800 0.832000
31.395100 0.853000
31.490400 0.842100
31.585700 0.797700
31.681000 0.760600
31.776300 0.745000
31.871600 0.751800
31.966900 0.760900
32.062300 0.805900
32.157600 0.816400
32.252900 0.897300
32.348200 0.873200
32.443500 0.891300
32.538800 0.933700
32.634100 1.013000
32.729400 1.071200
32.824700 1.174100
32.920100 1.201600
33.015400 1.257200
33.110700 1.244600
33.206000 1.241600
33.301300 1.302700
33.396600 1.334000
33.491900 1.292100
33.587200 1.236000
33.682600 1.167000
33.777900 1.096100
33.873200 1.127000
33.968500 1.135600
34.063800 1.107400
34.159100 1.157600
34.254400 1.233000
34.349700 1.358700
34.445000 1.451300
34.540400 1.388900
34.635700 1.261200
34.731000 1.220300
34.826300 1.212200
34.921600 1.204400
35.016900 1.237000
35.112200 1.365800
35.207500 1.424200
35.302900 1.341300
35.398200 1.328900
35.493500 1.392700
35.588800 1.429200
35.684100 1.702700
35.779400 1.810600
35.874700 1.632700
35.970000 1.780800
36.065400 1.805800
36.160700 1.741200
36.256000 1.552300
36.351300 1.492800
36.446600 1.434800
36.541900 1.409200
36.637200 1.461000
36.732500 1.383600
36.827800 1.346700
36.923200 1.362400
37.018500 1.383900
37.113800 1.396800
37.209100 1.422500
37.304400 1.438500
37.399700 1.404600
37.495000 1.491200
37.590300 1.458000
37.685700 1.384000
37.781000 1.322300
37.876300 1.269300
37.971600 1.293300
38.066900 1.506900
38.162200 1.496600
38.257500 1.512300
38.352800 1.523400
38.448100 1.661000
38.543500 1.461300
38.638800 1.508700
38.734100 1.595700
38.829400 1.615700
38.924700 1.584500
39.020000 1.481500
39.115300 1.399900
39.210600 1.342400
39.306000 1.349800
39.401300 1.317700
39.496600 1.237900
39.591900 1.231000
39.687200 1.187700
39.782500 1.210000
39.877800 1.233500
39.973100 1.280900
40.068400 1.146900
40.163800 1.056200
40.259100 1.128300
40.354400 1.202000
40.449700 1.132300
40.545000 1.142300
40.640300 1.165600
40.735600 1.264200
40.830900 1.425100
40.926300 1.499400
41.021600 1.495600
41.116900 1.492800
41.212200 1.566300
41.307500 1.543600
41.402800 1.394300
41.498100 1.210700
41.593400 1.165100
41.688800 1.144000
41.784100 1.100900
41.879400 1.340100
41.974700 1.267100
42.070000 1.250400
42.165300 1.221700
42.260600 1.337800
42.355900 1.514900
42.451200 1.427200
42.546600 1.462200
42.641900 1.391300
42.737200 1.289000
42.832500 1.321400
42.927800 1.291500
43.023100 1.306500
43.118400 1.259200
43.213700 1.206700
43.309100 1.193200
43.404400 1.259600
43.499700 1.392600
43.595000 1.484100
43.690300 1.608400
43.785600 1.748300
43.880900 1.586800
43.976200 1.498500
44.071500 1.331400
44.166900 1.239800
44.262200 1.181400
44.357500 1.177000
44.452800 1.264600
44.548100 1.477000
44.643400 1.651300
44.738700 1.726800
44.834000 1.823200
44.929400 2.042300
45.024700 2.336800
45.120000 2.476000
45.215300 2.540100
45.310600 2.410800
45.405900 1.939400
45.501200 1.819800
45.596500 1.830700
45.691900 1.925800
45.787200 1.668100
45.882500 1.706000
45.977800 1.801100
46.073100 1.749600
46.168400 1.740500
46.263700 1.656000
46.359000 1.458200
46.454300 1.434000
46.549700 1.351100
46.645000 1.401100
46.740300 1.524000
46.835600 1.563900
46.930900 1.560700
47.026200 1.490500
47.121500 1.547800
47.216800 1.568100
47.312200 1.739400
47.407500 1.708000
47.502800 1.838000
47.598100 1.838200
47.693400 1.730300
47.788700 1.681600
47.884000 1.647500
47.979300 1.820600
48.074600 1.976200
48.170000 1.975000
48.265300 1.606300
48.360600 1.542800
48.455900 1.627100
48.551200 1.528300
48.646500 1.779700
48.741800 2.165700
48.837100 2.659700
48.932500 2.855300
49.027800 3.337000
49.123100 3.833700
49.218400 4.046300
49.313700 3.894200
49.409000 3.076900
49.504300 2.689600
49.599600 2.313000
49.694900 2.278400
49.790300 2.441200
49.885600 2.216200
49.980900 1.825800
50.076200 1.616700
50.171500 1.700700
50.266800 1.958600
50.362100 1.994500
50.457400 1.985100
50.552800 1.906300
50.648100 1.820600
50.743400 1.999200
50.838700 2.014300
50.934000 2.049500
51.029300 2.024600
51.124600 1.952500
51.219900 1.780800
51.315300 1.590400
51.410600 1.444800
51.505900 1.340100
51.601200 1.292800
51.696500 1.329200
51.791800 1.446500
51.887100 1.524200
51.982400 1.549300
52.077700 1.666300
52.173100 1.859500
52.268400 2.096400
52.363700 1.948600
52.459000 1.754800
52.554300 1.491800
52.649600 1.261300
52.744900 1.142800
52.840200 1.082100
52.935600 1.056200
53.030900 1.235400
53.126200 1.299000
53.221500 1.407200
53.316800 1.518300
53.412100 1.589900
53.507400 1.743400
53.602700 1.912100
53.698000 1.914600
53.793400 1.946400
53.888700 1.954900
53.984000 1.830100
