set title 'mp-721759 - Density of States'
set xlabel 'Energy (eV)'
set ylabel 'DOS (states/eV)'
set grid
set xrange [-10:10]
set yrange [0:1.002]
set xzeroaxis lt -1
set terminal png size 800,600
set output 'mp-721759_dos_gnuplot.png'
plot '-' using 1:2 with lines title 'DOS'
-23.068800 0.000000
-22.976200 0.000000
-22.883500 0.000000
-22.790900 0.000000
-22.698300 0.000000
-22.605600 0.000000
-22.513000 0.000000
-22.420300 0.000000
-22.327700 0.000000
-22.235100 0.000000
-22.142400 0.000000
-22.049800 0.000000
-21.957200 0.000000
-21.864500 0.000000
-21.771900 0.000000
-21.679300 0.000000
-21.586600 0.000000
-21.494000 0.000000
-21.401300 0.000000
-21.308700 0.000000
-21.216100 0.000000
-21.123400 0.000000
-21.030800 0.000000
-20.938200 0.000000
-20.845500 0.000000
-20.752900 0.000000
-20.660300 0.000000
-20.567600 0.000000
-20.475000 0.000000
-20.382300 0.000000
-20.289700 0.000000
-20.197100 0.000000
-20.104400 0.000000
-20.011800 0.000000
-19.919200 0.000000
-19.826500 0.000000
-19.733900 0.000000
-19.641200 0.000000
-19.548600 0.000000
-19.456000 0.000000
-19.363300 0.000000
-19.270700 0.000000
-19.178100 0.000000
-19.085400 0.000000
-18.992800 0.000000
-18.900200 0.000000
-18.807500 0.000000
-18.714900 0.000000
-18.622200 0.000000
-18.529600 0.000000
-18.437000 0.000000
-18.344300 0.000000
-18.251700 0.000000
-18.159100 0.000000
-18.066400 0.000000
-17.973800 0.000000
-17.881200 0.000000
-17.788500 0.000000
-17.695900 0.000000
-17.603200 0.000000
-17.510600 0.000000
-17.418000 0.000000
-17.325300 0.000000
-17.232700 0.000000
-17.140100 0.000000
-17.047400 0.000000
-16.954800 0.000000
-16.862200 0.000000
-16.769500 0.000000
-16.676900 0.000000
-16.584200 0.000000
-16.491600 0.000000
-16.399000 0.000000
-16.306300 0.000000
-16.213700 0.000000
-16.121100 0.000000
-16.028400 0.000000
-15.935800 0.000000
-15.843100 0.000000
-15.750500 0.000000
-15.657900 0.000000
-15.565200 0.000000
-15.472600 0.000000
-15.380000 0.000000
-15.287300 0.000000
-15.194700 0.000000
-15.102100 0.000000
-15.009400 0.000000
-14.916800 0.000000
-14.824100 0.000000
-14.731500 0.000000
-14.638900 0.000400
-14.546200 0.019000
-14.453600 0.030600
-14.361000 0.036000
-14.268300 0.043700
-14.175700 0.047600
-14.083100 0.052400
-13.990400 0.057800
-13.897800 0.061000
-13.805100 0.064700
-13.712500 0.068800
-13.619900 0.072800
-13.527200 0.075600
-13.434600 0.078800
-13.342000 0.082100
-13.249300 0.085500
-13.156700 0.088600
-13.064000 0.091200
-12.971400 0.093800
-12.878800 0.096800
-12.786100 0.099800
-12.693500 0.102900
-12.600900 0.105200
-12.508200 0.107600
-12.415600 0.110200
-12.323000 0.112800
-12.230300 0.115500
-12.137700 0.118300
-12.045000 0.120700
-11.952400 0.123000
-11.859800 0.125400
-11.767100 0.127800
-11.674500 0.130300
-11.581900 0.132900
-11.489200 0.135600
-11.396600 0.137900
-11.304000 0.140200
-11.211300 0.142500
-11.118700 0.145000
-11.026000 0.147500
-10.933400 0.150000
-10.840800 0.152500
-10.748100 0.155100
-10.655500 0.157500
-10.562900 0.159900
-10.470200 0.162400
-10.377600 0.165000
-10.285000 0.167600
-10.192300 0.170200
-10.099700 0.172900
-10.007000 0.175700
-9.914400 0.178400
-9.821800 0.181100
-9.729100 0.184000
-9.636500 0.186900
-9.543900 0.189800
-9.451200 0.192900
-9.358600 0.196000
-9.265900 0.199200
-9.173300 0.202500
-9.080700 0.205900
-8.988000 0.209500
-8.895400 0.213300
-8.802800 0.217200
-8.710100 0.221200
-8.617500 0.225500
-8.524900 0.229900
-8.432200 0.234700
-8.339600 0.239900
-8.246900 0.245600
-8.154300 0.251900
-8.061700 0.258900
-7.969000 0.266900
-7.876400 0.275900
-7.783800 0.286900
-7.691100 0.301400
-7.598500 0.329200
-7.505900 0.352300
-7.413200 0.339200
-7.320600 0.336700
-7.227900 0.340300
-7.135300 0.339100
-7.042700 0.329700
-6.950000 0.325900
-6.857400 0.323800
-6.764800 0.317200
-6.672100 0.321900
-6.579500 0.320700
-6.486800 0.315600
-6.394200 0.311300
-6.301600 0.309800
-6.208900 0.307500
-6.116300 0.305100
-6.023700 0.304700
-5.931000 0.304800
-5.838400 0.303700
-5.745800 0.301000
-5.653100 0.299500
-5.560500 0.299900
-5.467800 0.302900
-5.375200 0.305500
-5.282600 0.308600
-5.189900 0.313400
-5.097300 0.323400
-5.004700 0.344200
-4.912000 0.394900
-4.819400 0.395400
-4.726800 0.219200
-4.634100 0.137400
-4.541500 0.058000
-4.448800 0.000000
-4.356200 0.000000
-4.263600 0.000000
-4.170900 0.000000
-4.078300 0.000000
-3.985700 0.000000
-3.893000 0.000000
-3.800400 0.000000
-3.707800 0.000000
-3.615100 0.000000
-3.522500 0.000000
-3.429800 0.000000
-3.337200 0.000000
-3.244600 0.000000
-3.151900 0.000000
-3.059300 0.000000
-2.966700 0.000000
-2.874000 0.000000
-2.781400 0.000000
-2.688700 0.000000
-2.596100 0.000000
-2.503500 0.022400
-2.410800 0.033300
-2.318200 0.058700
-2.225600 0.061800
-2.132900 0.071600
-2.040300 0.084100
-1.947700 0.096000
-1.855000 0.100100
-1.762400 0.108000
-1.669700 0.115700
-1.577100 0.124400
-1.484500 0.134900
-1.391800 0.141300
-1.299200 0.148100
-1.206600 0.154400
-1.113900 0.162000
-1.021300 0.172500
-0.928700 0.199400
-0.836000 0.224300
-0.743400 0.238500
-0.650700 0.255400
-0.558100 0.277600
-0.465500 0.291700
-0.372800 0.308800
-0.280200 0.331400
-0.187600 0.354100
-0.094900 0.375600
-0.002300 0.403000
0.090400 0.439700
0.183000 0.491200
0.275600 0.541400
0.368300 0.568700
0.460900 0.544100
0.553500 0.533200
0.646200 0.525600
0.738800 0.513100
0.831400 0.506700
0.924100 0.498400
1.016700 0.490200
1.109400 0.485600
1.202000 0.471600
1.294600 0.410800
1.387300 0.331500
1.479900 0.302000
1.572500 0.278600
1.665200 0.267800
1.757800 0.277500
1.850400 0.293900
1.943100 0.313600
2.035700 0.354300
2.128400 0.344700
2.221000 0.348900
2.313600 0.356900
2.406300 0.362400
2.498900 0.367900
2.591500 0.368600
2.684200 0.366000
2.776800 0.367300
2.869400 0.373600
2.962100 0.379700
3.054700 0.382400
3.147400 0.384100
3.240000 0.386600
3.332600 0.383900
3.425300 0.383600
3.517900 0.387200
3.610500 0.389100
3.703200 0.392500
3.795800 0.394300
3.888500 0.395500
3.981100 0.396300
4.073700 0.394600
4.166400 0.395000
4.259000 0.398000
4.351600 0.398700
4.444300 0.399400
4.536900 0.400300
4.629500 0.431200
4.722200 0.437900
4.814800 0.452100
4.907500 0.475300
5.000100 0.475800
5.092700 0.486400
5.185400 0.497100
5.278000 0.509400
5.370600 0.525500
5.463300 0.550400
5.555900 0.558900
5.648500 0.578600
5.741200 0.602500
5.833800 0.624000
5.926500 0.672700
6.019100 0.737500
6.111700 0.789500
6.204400 0.780600
6.297000 0.786300
6.389600 0.785400
6.482300 0.785500
6.574900 0.788000
6.667500 0.785300
6.760200 0.787600
6.852800 0.790000
6.945500 0.791200
7.038100 0.795100
7.130700 0.795400
7.223400 0.802200
7.316000 0.801900
7.408600 0.801000
7.501300 0.804000
7.593900 0.811300
7.686600 0.819600
7.779200 0.822600
7.871800 0.826400
7.964500 0.829700
8.057100 0.836600
8.149700 0.843100
8.242400 0.850200
8.335000 0.856600
8.427600 0.865100
8.520300 0.872700
8.612900 0.882000
8.705600 0.886300
8.798200 0.910500
8.890800 0.886400
8.983500 0.727900
9.076100 0.659000
9.168700 0.611800
9.261400 0.565400
9.354000 0.527800
9.446600 0.488900
9.539300 0.457900
9.631900 0.424600
9.724600 0.387500
9.817200 0.356600
9.909800 0.309900
10.002500 0.262700
10.095100 0.120100
10.187700 0.000000
10.280400 0.000000
10.373000 0.000000
10.465700 0.000000
10.558300 0.000000
10.650900 0.000000
10.743600 0.000000
10.836200 0.000000
10.928800 0.000000
11.021500 0.000000
11.114100 0.000000
11.206700 0.000000
11.299400 0.000000
11.392000 0.000000
11.484700 0.000000
11.577300 0.000000
11.669900 0.000000
11.762600 0.000000
11.855200 0.000000
11.947800 0.000000
12.040500 0.000000
12.133100 0.000000
12.225700 0.000000
12.318400 0.000000
12.411000 0.000000
12.503700 0.000000
12.596300 0.000000
12.688900 0.000000
12.781600 0.000000
12.874200 0.000000
12.966800 0.000000
13.059500 0.000000
13.152100 0.000000
13.244700 0.000000
13.337400 0.000000
13.430000 0.000000
13.522700 0.000000
13.615300 0.000000
13.707900 0.000000
13.800600 0.000000
13.893200 0.000000
13.985800 0.000000
14.078500 0.000000
14.171100 0.000000
14.263800 0.000000
14.356400 0.000000
14.449000 0.000000
14.541700 0.000000
14.634300 0.000000
14.726900 0.000000
14.819600 0.000000
14.912200 0.000000
15.004800 0.000000
15.097500 0.000000
15.190100 0.000000
15.282800 0.000000
15.375400 0.000000
15.468000 0.000000
15.560700 0.000000
15.653300 0.000000
15.745900 0.000000
15.838600 0.000000
15.931200 0.000000
16.023800 0.000000
16.116500 0.000000
16.209100 0.000000
16.301800 0.000000
16.394400 0.000000
16.487000 0.000000
16.579700 0.000000
16.672300 0.000000
16.764900 0.000000
16.857600 0.000000
16.950200 0.000000
17.042900 0.000000
17.135500 0.000000
17.228100 0.000000
17.320800 0.000000
17.413400 0.000000
17.506000 0.000000
17.598700 0.000000
17.691300 0.000000
17.783900 0.000000
17.876600 0.000000
17.969200 0.000000
18.061900 0.000000
18.154500 0.000000
18.247100 0.000000
18.339800 0.000000
18.432400 0.000000
18.525000 0.000000
18.617700 0.000000
18.710300 0.000000
18.802900 0.000000
18.895600 0.000000
18.988200 0.000000
19.080900 0.000000
19.173500 0.000000
19.266100 0.000000
19.358800 0.000000
19.451400 0.000000
19.544000 0.000000
19.636700 0.000000
19.729300 0.000000
19.821900 0.000000
19.914600 0.000000
20.007200 0.000000
20.099900 0.000000
20.192500 0.000000
20.285100 0.000000
20.377800 0.000000
20.470400 0.000000
20.563000 0.000000
20.655700 0.000000
20.748300 0.000000
20.841000 0.000000
20.933600 0.000000
21.026200 0.000000
21.118900 0.000000
21.211500 0.000000
21.304100 0.013000
21.396800 0.022100
21.489400 0.027500
21.582000 0.032200
21.674700 0.037200
21.767300 0.042600
21.860000 0.047800
21.952600 0.051400
22.045200 0.055100
22.137900 0.059500
22.230500 0.064400
22.323100 0.069300
22.415800 0.074400
22.508400 0.077600
22.601000 0.081800
22.693700 0.086000
22.786300 0.090500
22.879000 0.095200
22.971600 0.099900
23.064200 0.104900
23.156900 0.109800
23.249500 0.114000
23.342100 0.118400
23.434800 0.123000
23.527400 0.127700
23.620000 0.132600
23.712700 0.138000
23.805300 0.143600
23.898000 0.149400
23.990600 0.154900
24.083200 0.160200
24.175900 0.165800
24.268500 0.171900
24.361100 0.178400
24.453800 0.185400
24.546400 0.193100
24.639100 0.201400
24.731700 0.210300
24.824300 0.226400
24.917000 0.250400
25.009600 0.271100
25.102200 0.295200
25.194900 0.345600
25.287500 0.344800
25.380100 0.340600
25.472800 0.341200
25.565400 0.332000
25.658100 0.334300
25.750700 0.322400
25.843300 0.320700
25.936000 0.321300
26.028600 0.319600
26.121200 0.317800
26.213900 0.312600
26.306500 0.311400
26.399100 0.310800
26.491800 0.311300
26.584400 0.312400
26.677100 0.309500
26.769700 0.307100
26.862300 0.306900
26.955000 0.307600
27.047600 0.309000
27.140200 0.310200
27.232900 0.310800
27.325500 0.310900
27.418200 0.310900
27.510800 0.310300
27.603400 0.311500
27.696100 0.313100
27.788700 0.314700
27.881300 0.317100
27.974000 0.319800
28.066600 0.322700
28.159200 0.325900
28.251900 0.328800
28.344500 0.330800
28.437200 0.334300
28.529800 0.338300
28.622400 0.343100
28.715100 0.373000
28.807700 0.416500
28.900300 0.452500
28.993000 0.493600
29.085600 0.542600
29.178200 0.616400
29.270900 0.609000
29.363500 0.666400
29.456200 0.533200
29.548800 0.510000
29.641400 0.495800
29.734100 0.489200
29.826700 0.484500
29.919300 0.507500
30.012000 0.541100
30.104600 0.601700
30.197200 0.698000
30.289900 0.815600
30.382500 1.033600
30.475200 0.947500
30.567800 0.957900
30.660400 1.016300
30.753100 0.981800
30.845700 1.023800
30.938300 0.801000
31.031000 0.696300
31.123600 0.641300
31.216300 0.567700
31.308900 0.535500
31.401500 0.529400
31.494200 0.530300
31.586800 0.525900
31.679400 0.497100
31.772100 0.456200
31.864700 0.435600
31.957300 0.419800
32.050000 0.400400
32.142600 0.380400
32.235300 0.363500
32.327900 0.343300
32.420500 0.329700
32.513200 0.289800
32.605800 0.222500
32.698400 0.183300
32.791100 0.141900
32.883700 0.110400
32.976300 0.079200
33.069000 0.059500
33.161600 0.045500
33.254300 0.045100
33.346900 0.093700
33.439500 0.183100
33.532200 0.211700
33.624800 0.231100
33.717400 0.255300
33.810100 0.257200
33.902700 0.271100
33.995400 0.287800
34.088000 0.304100
34.180600 0.319500
34.273300 0.337400
34.365900 0.353500
34.458500 0.369400
34.551200 0.384000
34.643800 0.399300
34.736400 0.418000
34.829100 0.440200
34.921700 0.461700
35.014400 0.479900
35.107000 0.496900
35.199600 0.517300
35.292300 0.544700
35.384900 0.584600
35.477500 0.612900
35.570200 0.647200
35.662800 0.698700
35.755400 0.845300
35.848100 0.770700
35.940700 0.756300
36.033400 0.795900
36.126000 0.878000
36.218600 0.671700
36.311300 0.473000
36.403900 0.446200
36.496500 0.436400
36.589200 0.431200
36.681800 0.420200
36.774400 0.411400
36.867100 0.406300
36.959700 0.407600
37.052400 0.406200
37.145000 0.403300
37.237600 0.400900
37.330300 0.405600
37.422900 0.399300
37.515500 0.381200
37.608200 0.373400
37.700800 0.371700
37.793500 0.369100
37.886100 0.366400
37.978700 0.363900
38.071400 0.361500
38.164000 0.360200
38.256600 0.359400
38.349300 0.372500
38.441900 0.406800
38.534500 0.436300
38.627200 0.455900
38.719800 0.507200
38.812500 0.496200
38.905100 0.451700
38.997700 0.417300
39.090400 0.441300
39.183000 0.414200
39.275600 0.424500
39.368300 0.410600
39.460900 0.400300
39.553500 0.388600
39.646200 0.388600
39.738800 0.382100
39.831500 0.381800
39.924100 0.378700
40.016700 0.376700
40.109400 0.372600
40.202000 0.373000
40.294600 0.368900
40.387300 0.363500
40.479900 0.369200
40.572500 0.371900
40.665200 0.364800
40.757800 0.359100
40.850500 0.376900
40.943100 0.410100
41.035700 0.488700
41.128400 0.455600
41.221000 0.387200
41.313600 0.356000
41.406300 0.347200
41.498900 0.333400
41.591600 0.326600
41.684200 0.322200
41.776800 0.311800
41.869500 0.307200
41.962100 0.303400
42.054700 0.298800
42.147400 0.290900
42.240000 0.283200
42.332600 0.276200
42.425300 0.272000
42.517900 0.268100
42.610600 0.265400
42.703200 0.262400
42.795800 0.259900
42.888500 0.258500
42.981100 0.256200
43.073700 0.253400
43.166400 0.250800
43.259000 0.251900
43.351600 0.255000
43.444300 0.259800
43.536900 0.265900
43.629600 0.267200
43.722200 0.264100
43.814800 0.263900
43.907500 0.264500
44.000100 0.265000
44.092700 0.265100
44.185400 0.265000
44.278000 0.265800
44.370700 0.266700
44.463300 0.268000
44.555900 0.269800
44.648600 0.271500
44.741200 0.274000
44.833800 0.278600
44.926500 0.282400
45.019100 0.284300
45.111700 0.284000
45.204400 0.283200
45.297000 0.281700
45.389700 0.278700
45.482300 0.275700
45.574900 0.290800
45.667600 0.277200
45.760200 0.271300
45.852800 0.273400
45.945500 0.277500
46.038100 0.289000
46.130700 0.289100
46.223400 0.286300
46.316000 0.283400
46.408700 0.286600
46.501300 0.294000
46.593900 0.302900
46.686600 0.310700
46.779200 0.316900
46.871800 0.319100
46.964500 0.329900
47.057100 0.339700
47.149700 0.349600
47.242400 0.358400
47.335000 0.366000
47.427700 0.373800
47.520300 0.380600
47.612900 0.385300
47.705600 0.400700
47.798200 0.424200
47.890800 0.465100
47.983500 0.449000
48.076100 0.427000
48.168800 0.415400
48.261400 0.408900
48.354000 0.406800
48.446700 0.402400
48.539300 0.396900
48.631900 0.393100
48.724600 0.387100
48.817200 0.382100
48.909800 0.379300
49.002500 0.374600
49.095100 0.370700
49.187800 0.368900
49.280400 0.367700
49.373000 0.365300
49.465700 0.363100
49.558300 0.362000
49.650900 0.360700
49.743600 0.359600
49.836200 0.361600
49.928800 0.361100
50.021500 0.358900
50.114100 0.356500
50.206800 0.355300
50.299400 0.356500
50.392000 0.359400
50.484700 0.365000
50.577300 0.377900
50.669900 0.394000
50.762600 0.383300
50.855200 0.360300
50.947900 0.336000
51.040500 0.301500
51.133100 0.274000
51.225800 0.260200
51.318400 0.282300
51.411000 0.253400
51.503700 0.255600
51.596300 0.266300
51.688900 0.280500
51.781600 0.292900
51.874200 0.299200
51.966900 0.301000
52.059500 0.340000
52.152100 0.356600
52.244800 0.367000
52.337400 0.379900
52.430000 0.387400
52.522700 0.402800
52.615300 0.412100
52.707900 0.405100
52.800600 0.397100
52.893200 0.388800
52.985900 0.381700
53.078500 0.376500
53.171100 0.373400
53.263800 0.371200
53.356400 0.370600
53.449000 0.368600
53.541700 0.366100
53.634300 0.362800
53.726900 0.358800
53.819600 0.357800
53.912200 0.355700
54.004900 0.335900
54.097500 0.330300
54.190100 0.327400
54.282800 0.327000
54.375400 0.322000
54.468000 0.315000
54.560700 0.306600
54.653300 0.308700
54.746000 0.299000
54.838600 0.296600
54.931200 0.295500
55.023900 0.294800
55.116500 0.294300
55.209100 0.294000
55.301800 0.296600
55.394400 0.293900
55.487000 0.296100
55.579700 0.298800
55.672300 0.301900
55.765000 0.306300
55.857600 0.312200
55.950200 0.321300
56.042900 0.336100
56.135500 0.350200
56.228100 0.360100
56.320800 0.372400
56.413400 0.380800
56.506000 0.394300
56.598700 0.410600
56.691300 0.418200
56.784000 0.410100
56.876600 0.406600
56.969200 0.402700
57.061900 0.399600
57.154500 0.398300
57.247100 0.401100
57.339800 0.411400
57.432400 0.405600
57.525000 0.408600
57.617700 0.387500
57.710300 0.367900
57.803000 0.354700
57.895600 0.345400
57.988200 0.340100
58.080900 0.337800
58.173500 0.337600
58.266100 0.328000
58.358800 0.322400
58.451400 0.318700
58.544100 0.316200
58.636700 0.313500
58.729300 0.308800
58.822000 0.304200
58.914600 0.300700
59.007200 0.298200
59.099900 0.294200
59.192500 0.292100
59.285100 0.290500
59.377800 0.286000
59.470400 0.282000
59.563100 0.278700
59.655700 0.275500
59.748300 0.272700
59.841000 0.272500
59.933600 0.273800
60.026200 0.274700
60.118900 0.271600
60.211500 0.267800
60.304100 0.264100
60.396800 0.261500
60.489400 0.259000
60.582100 0.256300
60.674700 0.255900
60.767300 0.255400
60.860000 0.254600
60.952600 0.252700
61.045200 0.250100
61.137900 0.249400
61.230500 0.247900
61.323200 0.245600
61.415800 0.244900
61.508400 0.242400
61.601100 0.242200
61.693700 0.238700
61.786300 0.277400
61.879000 0.277100
61.971600 0.277200
62.064200 0.292000
62.156900 0.286600
62.249500 0.291800
62.342200 0.302700
62.434800 0.313700
62.527400 0.319100
62.620100 0.322800
62.712700 0.336900
62.805300 0.345300
62.898000 0.351600
62.990600 0.364400
63.083200 0.381500
63.175900 0.401700
63.268500 0.395400
63.361200 0.400400
63.453800 0.418900
63.546400 0.444600
63.639100 0.475700
63.731700 0.497100
63.824300 0.512900
63.917000 0.526000
64.009600 0.531700
64.102200 0.541400
64.194900 0.558200
64.287500 0.582400
64.380200 0.644600
64.472800 0.627400
64.565400 0.600200
64.658100 0.639300
64.750700 0.673700
64.843300 0.708500
64.936000 0.649300
65.028600 0.647900
65.121300 0.654800
65.213900 0.657800
65.306500 0.653700
65.399200 0.641200
65.491800 0.643900
65.584400 0.655400
65.677100 0.653000
65.769700 0.658700
65.862300 0.712400
65.955000 0.773100
66.047600 0.758000
66.140300 0.749300
66.232900 0.760900
66.325500 0.762600
66.418200 0.785500
66.510800 0.764800
66.603400 0.827300
66.696100 0.684300
66.788700 0.696100
66.881300 0.685800
66.974000 0.735400
67.066600 0.759400
67.159300 0.765600
67.251900 0.807700
67.344500 0.861500
67.437200 0.873200
67.529800 0.837100
67.622400 0.787200
67.715100 0.686800
67.807700 0.625300
67.900400 0.572000
67.993000 0.532200
68.085600 0.503700
68.178300 0.486200
68.270900 0.439700
68.363500 0.420300
68.456200 0.401900
68.548800 0.391100
68.641400 0.371000
68.734100 0.359900
68.826700 0.352800
68.919400 0.356700
69.012000 0.353300
69.104600 0.349900
69.197300 0.345300
69.289900 0.343600
69.382500 0.342400
69.475200 0.347400
69.567800 0.353200
69.660400 0.366200
69.753100 0.376300
69.845700 0.402100
69.938400 0.428300
70.031000 0.405800
70.123600 0.412800
70.216300 0.410000
70.308900 0.370300
70.401500 0.333800
70.494200 0.305600
70.586800 0.288700
70.679400 0.292600
70.772100 0.293300
70.864700 0.313300
70.957400 0.323300
71.050000 0.359100
71.142600 0.390700
71.235300 0.441000
71.327900 0.454300
71.420500 0.474900
71.513200 0.482100
71.605800 0.523800
71.698500 0.563000
71.791100 0.665900
71.883700 0.803300
71.976400 0.727300
72.069000 0.640500
72.161600 0.599000
72.254300 0.576100
72.346900 0.557500
72.439500 0.562100
72.532200 0.557800
72.624800 0.530000
72.717500 0.495300
72.810100 0.471100
