set title 'mp-1206431 - Density of States'
set xlabel 'Energy (eV)'
set ylabel 'DOS (states/eV)'
set grid
set xrange [-10:10]
set yrange [0:270.604]
set xzeroaxis lt -1
set terminal png size 800,600
set output 'mp-1206431_dos_gnuplot.png'
plot '-' using 1:2 with lines title 'DOS'
-11.051000 0.000000
-11.029200 0.000000
-11.007400 0.000000
-10.985600 0.000000
-10.963800 0.000000
-10.942000 0.000000
-10.920200 0.000000
-10.898400 0.000000
-10.876600 0.000000
-10.854800 0.000000
-10.833000 0.000000
-10.811200 0.000000
-10.789400 0.000000
-10.767600 0.000000
-10.745800 0.000000
-10.724000 0.000000
-10.702200 0.000000
-10.680400 0.000000
-10.658600 0.000000
-10.636800 0.000000
-10.615000 0.000000
-10.593200 0.000000
-10.571400 0.000000
-10.549600 0.000000
-10.527800 0.000000
-10.506000 0.000000
-10.484200 0.000000
-10.462400 0.000000
-10.440600 0.000000
-10.418800 0.000000
-10.397000 0.000000
-10.375200 0.000000
-10.353400 0.000000
-10.331600 0.000000
-10.309800 0.000000
-10.288000 0.000000
-10.266200 0.000000
-10.244400 0.000000
-10.222600 0.000000
-10.200800 0.000000
-10.179000 0.000000
-10.157100 0.000000
-10.135300 0.000000
-10.113500 0.000000
-10.091700 0.000000
-10.069900 0.000000
-10.048100 0.000000
-10.026300 0.000000
-10.004500 0.000000
-9.982700 0.000000
-9.960900 0.000000
-9.939100 0.000000
-9.917300 0.000000
-9.895500 0.000000
-9.873700 0.000000
-9.851900 0.000000
-9.830100 0.000000
-9.808300 0.000000
-9.786500 0.000000
-9.764700 0.000000
-9.742900 0.000000
-9.721100 0.000000
-9.699300 0.000000
-9.677500 0.000000
-9.655700 0.000000
-9.633900 0.000000
-9.612100 0.000000
-9.590300 0.000000
-9.568500 0.000000
-9.546700 0.000000
-9.524900 0.000000
-9.503100 0.000000
-9.481300 0.000000
-9.459500 0.000000
-9.437700 0.000000
-9.415900 0.000000
-9.394100 0.000000
-9.372300 0.000000
-9.350500 0.000000
-9.328700 0.000000
-9.306900 0.000000
-9.285100 0.000000
-9.263300 0.000000
-9.241500 0.000000
-9.219700 0.000000
-9.197900 0.000000
-9.176100 0.000000
-9.154300 0.000000
-9.132500 0.000000
-9.110700 0.000000
-9.088900 0.000000
-9.067100 5.989200
-9.045300 80.164900
-9.023400 55.425700
-9.001600 182.762900
-8.979800 102.475300
-8.958000 114.115600
-8.936200 90.888900
-8.914400 246.003800
-8.892600 11.135200
-8.870800 28.818300
-8.849000 19.206000
-8.827200 15.283300
-8.805400 122.029900
-8.783600 0.000000
-8.761800 0.000000
-8.740000 0.000000
-8.718200 0.000000
-8.696400 0.000000
-8.674600 0.000000
-8.652800 0.000000
-8.631000 0.000000
-8.609200 0.000000
-8.587400 0.000000
-8.565600 0.000000
-8.543800 0.000000
-8.522000 0.000000
-8.500200 0.000000
-8.478400 0.000000
-8.456600 0.000000
-8.434800 0.000000
-8.413000 0.000000
-8.391200 0.000000
-8.369400 0.000000
-8.347600 0.000000
-8.325800 0.000000
-8.304000 0.000000
-8.282200 0.000000
-8.260400 0.000000
-8.238600 0.000000
-8.216800 0.000000
-8.195000 0.000000
-8.173200 0.000000
-8.151400 0.000000
-8.129600 0.000000
-8.107800 0.000000
-8.086000 0.000000
-8.064200 0.000000
-8.042400 0.000000
-8.020600 0.000000
-7.998800 0.000000
-7.977000 0.000000
-7.955200 0.000000
-7.933400 0.000000
-7.911500 0.000000
-7.889700 0.000000
-7.867900 0.000000
-7.846100 0.000000
-7.824300 0.000000
-7.802500 0.000000
-7.780700 0.000000
-7.758900 0.000000
-7.737100 0.000000
-7.715300 0.000000
-7.693500 0.000000
-7.671700 0.000000
-7.649900 0.000000
-7.628100 0.000000
-7.606300 0.000000
-7.584500 0.000000
-7.562700 0.000000
-7.540900 0.000000
-7.519100 0.000000
-7.497300 0.000000
-7.475500 0.000000
-7.453700 0.000000
-7.431900 0.000000
-7.410100 0.000000
-7.388300 0.000000
-7.366500 0.000000
-7.344700 0.000000
-7.322900 0.000000
-7.301100 0.000000
-7.279300 0.000000
-7.257500 0.000000
-7.235700 0.000000
-7.213900 0.000000
-7.192100 0.000000
-7.170300 0.000000
-7.148500 0.000000
-7.126700 0.000000
-7.104900 0.000000
-7.083100 0.000000
-7.061300 0.000000
-7.039500 0.000000
-7.017700 0.000000
-6.995900 0.000000
-6.974100 0.000000
-6.952300 0.000000
-6.930500 0.000000
-6.908700 0.000000
-6.886900 0.000000
-6.865100 0.000000
-6.843300 0.000000
-6.821500 0.000000
-6.799600 0.000000
-6.777800 0.000000
-6.756000 0.000000
-6.734200 0.000000
-6.712400 0.000000
-6.690600 0.000000
-6.668800 0.000000
-6.647000 0.000000
-6.625200 0.000000
-6.603400 0.000000
-6.581600 0.000000
-6.559800 0.000000
-6.538000 0.000000
-6.516200 0.000000
-6.494400 0.000000
-6.472600 0.000000
-6.450800 0.000000
-6.429000 0.000000
-6.407200 0.000000
-6.385400 0.000000
-6.363600 0.000000
-6.341800 0.000000
-6.320000 0.000000
-6.298200 0.000000
-6.276400 0.000000
-6.254600 0.000000
-6.232800 0.000000
-6.211000 0.000000
-6.189200 0.000000
-6.167400 0.000000
-6.145600 0.000000
-6.123800 0.000000
-6.102000 0.000000
-6.080200 0.000000
-6.058400 0.000000
-6.036600 0.000000
-6.014800 0.000000
-5.993000 0.000000
-5.971200 0.000000
-5.949400 0.000000
-5.927600 0.000000
-5.905800 0.000000
-5.884000 0.000000
-5.862200 0.000000
-5.840400 0.000000
-5.818600 0.000000
-5.796800 0.000000
-5.775000 0.000000
-5.753200 0.000000
-5.731400 0.000000
-5.709600 0.000000
-5.687800 0.000000
-5.665900 0.000000
-5.644100 0.000000
-5.622300 0.000000
-5.600500 0.000000
-5.578700 0.000000
-5.556900 0.000000
-5.535100 0.000000
-5.513300 0.000000
-5.491500 0.000000
-5.469700 0.000000
-5.447900 0.000000
-5.426100 0.000000
-5.404300 0.000000
-5.382500 0.000000
-5.360700 0.000000
-5.338900 0.000000
-5.317100 0.000000
-5.295300 0.000000
-5.273500 0.000000
-5.251700 0.000000
-5.229900 0.000000
-5.208100 0.000000
-5.186300 0.000000
-5.164500 0.000000
-5.142700 0.000000
-5.120900 0.000000
-5.099100 0.000000
-5.077300 0.000000
-5.055500 0.000000
-5.033700 0.000000
-5.011900 0.000000
-4.990100 0.000000
-4.968300 0.000000
-4.946500 0.000000
-4.924700 0.000000
-4.902900 0.000000
-4.881100 0.000000
-4.859300 0.000000
-4.837500 0.000000
-4.815700 0.000000
-4.793900 0.000000
-4.772100 0.000000
-4.750300 0.000000
-4.728500 0.000000
-4.706700 0.000000
-4.684900 0.000000
-4.663100 0.000000
-4.641300 0.000000
-4.619500 0.000000
-4.597700 0.000000
-4.575900 0.000000
-4.554000 0.000000
-4.532200 0.000000
-4.510400 0.000000
-4.488600 0.000000
-4.466800 0.000000
-4.445000 0.000000
-4.423200 0.000000
-4.401400 0.000000
-4.379600 0.000000
-4.357800 0.000000
-4.336000 0.000000
-4.314200 0.000000
-4.292400 0.000000
-4.270600 0.000000
-4.248800 0.000000
-4.227000 0.000000
-4.205200 0.000000
-4.183400 0.000000
-4.161600 0.000000
-4.139800 0.000000
-4.118000 0.000000
-4.096200 0.000000
-4.074400 0.000000
-4.052600 0.000000
-4.030800 0.000000
-4.009000 0.000000
-3.987200 0.000000
-3.965400 0.000000
-3.943600 0.000000
-3.921800 0.000000
-3.900000 0.000000
-3.878200 0.000000
-3.856400 0.000000
-3.834600 0.000000
-3.812800 0.000000
-3.791000 0.010300
-3.769200 0.044900
-3.747400 0.103900
-3.725600 0.180600
-3.703800 0.209400
-3.682000 0.222600
-3.660200 0.222000
-3.638400 0.245700
-3.616600 0.270400
-3.594800 0.295800
-3.573000 0.322000
-3.551200 0.348700
-3.529400 0.371300
-3.507600 0.387800
-3.485800 0.398300
-3.464000 0.407700
-3.442200 0.420200
-3.420300 0.434800
-3.398500 0.451400
-3.376700 0.468600
-3.354900 0.485900
-3.333100 0.503200
-3.311300 0.520700
-3.289500 0.539900
-3.267700 0.564300
-3.245900 0.593900
-3.224100 0.628800
-3.202300 0.654600
-3.180500 0.679000
-3.158700 0.703200
-3.136900 0.723800
-3.115100 0.733900
-3.093300 0.733200
-3.071500 0.725200
-3.049700 0.731000
-3.027900 0.736000
-3.006100 0.740100
-2.984300 0.743200
-2.962500 0.745300
-2.940700 0.746700
-2.918900 0.747600
-2.897100 0.748100
-2.875300 0.749700
-2.853500 0.752700
-2.831700 0.757100
-2.809900 0.762500
-2.788100 0.767100
-2.766300 0.770800
-2.744500 0.773700
-2.722700 0.776300
-2.700900 0.778600
-2.679100 0.781100
-2.657300 0.783400
-2.635500 0.785500
-2.613700 0.787300
-2.591900 0.788900
-2.570100 0.791200
-2.548300 0.794600
-2.526500 0.798200
-2.504700 0.802100
-2.482900 0.806300
-2.461100 0.810800
-2.439300 0.815600
-2.417500 0.820700
-2.395700 0.825700
-2.373900 0.830800
-2.352100 0.835900
-2.330300 0.841000
-2.308400 0.846000
-2.286600 0.852000
-2.264800 0.858300
-2.243000 0.864800
-2.221200 0.871100
-2.199400 0.877500
-2.177600 0.884200
-2.155800 0.891800
-2.134000 0.900800
-2.112200 0.911000
-2.090400 0.921800
-2.068600 0.932900
-2.046800 0.944400
-2.025000 0.956300
-2.003200 0.968600
-1.981400 0.981300
-1.959600 0.994500
-1.937800 1.017500
-1.916000 1.068900
-1.894200 1.108400
-1.872400 1.124800
-1.850600 1.128300
-1.828800 1.128900
-1.807000 1.129300
-1.785200 1.137100
-1.763400 1.265100
-1.741600 1.369100
-1.719800 1.364600
-1.698000 1.246100
-1.676200 1.174900
-1.654400 1.166400
-1.632600 1.177100
-1.610800 1.179200
-1.589000 1.181500
-1.567200 1.182500
-1.545400 1.176600
-1.523600 1.169900
-1.501800 1.172000
-1.480000 1.179600
-1.458200 1.247900
-1.436400 1.295700
-1.414600 1.341600
-1.392800 1.459600
-1.371000 1.584000
-1.349200 1.657900
-1.327400 1.701800
-1.305600 1.940700
-1.283800 2.263700
-1.262000 2.553500
-1.240200 2.584700
-1.218400 2.624800
-1.196600 2.625900
-1.174700 2.711100
-1.152900 2.840600
-1.131100 3.075900
-1.109300 3.344600
-1.087500 3.666300
-1.065700 4.124800
-1.043900 4.201100
-1.022100 4.300800
-1.000300 4.403300
-0.978500 4.595600
-0.956700 4.504600
-0.934900 4.657600
-0.913100 4.781300
-0.891300 4.474800
-0.869500 2.866700
-0.847700 2.446000
-0.825900 2.261600
-0.804100 1.916400
-0.782300 1.605300
-0.760500 1.365400
-0.738700 1.168700
-0.716900 1.015800
-0.695100 0.935700
-0.673300 0.827200
-0.651500 0.727100
-0.629700 0.644800
-0.607900 0.618600
-0.586100 0.592000
-0.564300 0.508200
-0.542500 0.528800
-0.520700 0.459800
-0.498900 0.409300
-0.477100 0.378000
-0.455300 0.350700
-0.433500 0.358400
-0.411700 0.413800
-0.389900 0.483500
-0.368100 0.561300
-0.346300 0.644300
-0.324500 0.664600
-0.302700 0.698600
-0.280900 0.756000
-0.259100 0.823200
-0.237300 0.895600
-0.215500 0.971200
-0.193700 1.049800
-0.171900 1.134000
-0.150100 1.246600
-0.128300 1.391100
-0.106500 1.562200
-0.084700 1.770400
-0.062800 2.113600
-0.041000 2.355900
-0.019200 2.515500
0.002600 2.709300
0.024400 2.847000
0.046200 2.795700
0.068000 2.758400
0.089800 2.834300
0.111600 2.910200
0.133400 2.980500
0.155200 3.126300
0.177000 3.242400
0.198800 3.418700
0.220600 3.372500
0.242400 3.283000
0.264200 3.420900
0.286000 4.059600
0.307800 4.629600
0.329600 4.793700
0.351400 4.911400
0.373200 5.281700
0.395000 6.055200
0.416800 6.617000
0.438600 7.085300
0.460400 7.259600
0.482200 7.528900
0.504000 7.389900
0.525800 7.468600
0.547600 7.484500
0.569400 7.545700
0.591200 7.743900
0.613000 8.090700
0.634800 8.079600
0.656600 8.048300
0.678400 8.527300
0.700200 9.206200
0.722000 13.565500
0.743800 13.084700
0.765600 15.770100
0.787400 21.434700
0.809200 14.854100
0.831000 13.132600
0.852800 12.783900
0.874600 13.589000
0.896400 14.858100
0.918200 16.798200
0.940000 17.981600
0.961800 13.171500
0.983600 11.304600
1.005400 10.246600
1.027200 9.576700
1.049000 9.070800
1.070900 8.625300
1.092700 10.600400
1.114500 17.612900
1.136300 12.965400
1.158100 17.563600
1.179900 12.764300
1.201700 11.973200
1.223500 11.562600
1.245300 13.751900
1.267100 16.135700
1.288900 17.583300
1.310700 17.770200
1.332500 17.088700
1.354300 17.212400
1.376100 15.656400
1.397900 12.322300
1.419700 11.615800
1.441500 12.686400
1.463300 14.207000
1.485100 12.387100
1.506900 11.249600
1.528700 10.744000
1.550500 13.072200
1.572300 13.009100
1.594100 12.239800
1.615900 11.790300
1.637700 12.708700
1.659500 17.874500
1.681300 17.409100
1.703100 18.089700
1.724900 16.934100
1.746700 17.165300
1.768500 17.155200
1.790300 17.637900
1.812100 18.595100
1.833900 21.708100
1.855700 19.268400
1.877500 15.479000
1.899300 15.134600
1.921100 16.157000
1.942900 14.453800
1.964700 14.630400
1.986500 18.466400
2.008300 16.261100
2.030100 21.203500
2.051900 18.117100
2.073700 19.390900
2.095500 17.525900
2.117300 14.943200
2.139100 14.747800
2.160900 12.420100
2.182800 11.829600
2.204600 12.716100
2.226400 10.500000
2.248200 8.358900
2.270000 6.006900
2.291800 6.164200
2.313600 6.427600
2.335400 6.532900
2.357200 6.622800
2.379000 6.679900
2.400800 6.573200
2.422600 6.174200
2.444400 5.892000
2.466200 5.689500
2.488000 5.509200
2.509800 5.394400
2.531600 5.274700
2.553400 5.174200
2.575200 5.075000
2.597000 4.959100
2.618800 4.698300
2.640600 4.483100
2.662400 4.496900
2.684200 4.378000
2.706000 3.932500
2.727800 3.330700
2.749600 2.251200
2.771400 1.977000
2.793200 1.931200
2.815000 1.872700
2.836800 1.773100
2.858600 1.635200
2.880400 1.496600
2.902200 1.451000
2.924000 1.421100
2.945800 1.396000
2.967600 1.372400
2.989400 1.345400
3.011200 1.334600
3.033000 1.351600
3.054800 1.372000
3.076600 1.396300
3.098400 1.422300
3.120200 1.445200
3.142000 1.464300
3.163800 1.479100
3.185600 1.489100
3.207400 1.494400
3.229200 1.504800
3.251000 1.521000
3.272800 1.539800
3.294600 1.561200
3.316500 1.586100
3.338300 1.616800
3.360100 1.653800
3.381900 1.702800
3.403700 1.761100
3.425500 1.864200
3.447300 1.956900
3.469100 2.056900
3.490900 2.008700
3.512700 2.038700
3.534500 1.949700
3.556300 1.946300
3.578100 2.013500
3.599900 2.119500
3.621700 2.402100
3.643500 2.273000
3.665300 2.319600
3.687100 2.364900
3.708900 2.410500
3.730700 2.423800
3.752500 2.465400
3.774300 2.447300
3.796100 2.435100
3.817900 2.431900
3.839700 2.365600
3.861500 2.286200
3.883300 2.181600
3.905100 2.118400
3.926900 2.074400
3.948700 2.039400
3.970500 2.014700
3.992300 1.979200
4.014100 1.935200
4.035900 1.921100
4.057700 1.911000
4.079500 1.900200
4.101300 1.897500
4.123100 1.897800
4.144900 1.891800
4.166700 1.887100
4.188500 1.883500
4.210300 1.886500
4.232100 1.910400
4.253900 1.954000
4.275700 2.005500
4.297500 2.062100
4.319300 2.105800
4.341100 2.107700
4.362900 2.096300
4.384700 2.077800
4.406500 2.054600
4.428400 2.025800
4.450200 1.993200
4.472000 1.961100
4.493800 1.931400
4.515600 1.903600
4.537400 1.879800
4.559200 1.857000
4.581000 1.834600
4.602800 1.816000
4.624600 1.801900
4.646400 1.790200
4.668200 1.750400
4.690000 1.727800
4.711800 1.710100
4.733600 1.703300
4.755400 1.701900
4.777200 1.706100
4.799000 1.714000
4.820800 1.749500
4.842600 1.799400
4.864400 1.847700
4.886200 1.906900
4.908000 1.951000
4.929800 1.978000
4.951600 1.983500
4.973400 1.998000
4.995200 2.024100
5.017000 2.025500
5.038800 2.022000
5.060600 2.018000
5.082400 2.026100
5.104200 2.031500
5.126000 2.030100
5.147800 2.026100
5.169600 2.020200
5.191400 2.012600
5.213200 2.005100
5.235000 1.997700
5.256800 2.001700
5.278600 1.986100
5.300400 1.932400
5.322200 1.890300
5.344000 1.851300
5.365800 1.806800
5.387600 1.764900
5.409400 1.724700
5.431200 1.686200
5.453000 1.649000
5.474800 1.615500
5.496600 1.579400
5.518400 1.542100
5.540300 1.505300
5.562100 1.468900
5.583900 1.432800
5.605700 1.396900
5.627500 1.364700
5.649300 1.336200
5.671100 1.322600
5.692900 1.312000
5.714700 1.304400
5.736500 1.295900
5.758300 1.289600
5.780100 1.289300
5.801900 1.295400
5.823700 1.303000
5.845500 1.304000
5.867300 1.304700
5.889100 1.306500
5.910900 1.310300
5.932700 1.316300
5.954500 1.324400
5.976300 1.334200
5.998100 1.345500
6.019900 1.361800
6.041700 1.398900
6.063500 1.455200
6.085300 1.446300
6.107100 1.463600
6.128900 1.488700
6.150700 1.522600
6.172500 1.600100
6.194300 1.668600
6.216100 1.742600
6.237900 1.811900
6.259700 1.873600
6.281500 1.929600
6.303300 1.989300
6.325100 2.023400
6.346900 2.041400
6.368700 2.048100
6.390500 2.057100
6.412300 2.066700
6.434100 2.079900
6.455900 2.093900
6.477700 2.084900
6.499500 2.089100
6.521300 2.107900
6.543100 2.125100
6.564900 2.142000
6.586700 2.150600
6.608500 2.143400
6.630300 2.126300
6.652100 2.101600
6.674000 2.074600
6.695800 2.044400
6.717600 2.015400
6.739400 1.989000
6.761200 1.970900
6.783000 1.974000
6.804800 2.094900
6.826600 2.103900
6.848400 2.082700
6.870200 2.058700
6.892000 2.043700
6.913800 2.031700
6.935600 2.017400
6.957400 1.999900
6.979200 1.978900
7.001000 1.952800
7.022800 1.919700
7.044600 1.881200
7.066400 1.839600
7.088200 1.794800
7.110000 1.747000
7.131800 1.684900
7.153600 1.606800
7.175400 1.544300
7.197200 1.489600
7.219000 1.443200
7.240800 1.404400
7.262600 1.369100
7.284400 1.343100
7.306200 1.349700
7.328000 1.365800
7.349800 1.383300
7.371600 1.437600
7.393400 1.472000
7.415200 1.512100
7.437000 1.555700
7.458800 1.597500
7.480600 1.639000
7.502400 1.645600
7.524200 1.668100
7.546000 1.687500
7.567800 1.704400
7.589600 1.723200
7.611400 1.744600
7.633200 1.768700
7.655000 1.794300
7.676800 1.831700
7.698600 1.886700
7.720400 1.937500
7.742200 1.980400
7.764000 2.021900
7.785900 2.045400
7.807700 2.066200
7.829500 2.110200
7.851300 2.165000
7.873100 2.224000
7.894900 2.286900
7.916700 2.342200
7.938500 2.355700
7.960300 2.495100
7.982100 2.667500
8.003900 2.571800
8.025700 2.378000
8.047500 2.282800
8.069300 2.252200
8.091100 2.238200
8.112900 2.239000
8.134700 2.254700
8.156500 2.325000
8.178300 2.362400
8.200100 2.254200
8.221900 2.167700
8.243700 2.089100
8.265500 2.024400
8.287300 1.971500
8.309100 1.920400
8.330900 1.901100
8.352700 1.897500
8.374500 1.898100
8.396300 1.902400
8.418100 1.916100
8.439900 1.948100
8.461700 1.877700
8.483500 1.530200
8.505300 1.516000
8.527100 1.505600
8.548900 1.498000
8.570700 1.492800
8.592500 1.490800
8.614300 1.491600
8.636100 1.495600
8.657900 1.507700
8.679700 1.538000
8.701500 1.592900
8.723300 1.671600
8.745100 1.754100
8.766900 1.807100
8.788700 1.852600
8.810500 1.904000
8.832300 1.937200
8.854100 1.975400
8.875900 2.027600
8.897700 2.071700
8.919600 2.105200
8.941400 2.128300
8.963200 2.148900
8.985000 2.160000
9.006800 2.156200
9.028600 2.138600
9.050400 2.122200
9.072200 2.111000
9.094000 2.048300
9.115800 2.032500
9.137600 2.018400
9.159400 2.000200
9.181200 1.963200
9.203000 1.956700
9.224800 1.954100
9.246600 1.974300
9.268400 2.022800
9.290200 2.050900
9.312000 2.053900
9.333800 2.053500
9.355600 2.050400
9.377400 2.043600
9.399200 2.085300
9.421000 2.034900
9.442800 1.986600
9.464600 1.967500
9.486400 1.946600
9.508200 1.924000
9.530000 1.904100
9.551800 1.895200
9.573600 1.898400
9.595400 1.910300
9.617200 1.921800
9.639000 1.941800
9.660800 1.948200
9.682600 1.909000
9.704400 1.900600
9.726200 1.899200
9.748000 1.898600
9.769800 1.897900
9.791600 1.899800
9.813400 1.908400
9.835200 1.923600
9.857000 1.945100
9.878800 1.968000
9.900600 1.984900
9.922400 1.993000
9.944200 1.993800
9.966000 1.993100
9.987800 1.999600
10.009600 2.012000
10.031500 2.020300
10.053300 2.036000
10.075100 2.058300
10.096900 2.086300
10.118700 2.118700
10.140500 2.155400
10.162300 2.196400
10.184100 2.224600
10.205900 2.229600
10.227700 2.224300
10.249500 2.198800
10.271300 2.177200
10.293100 2.193900
10.314900 2.223200
10.336700 2.266400
10.358500 2.328000
10.380300 2.392500
10.402100 2.435500
10.423900 2.476900
10.445700 2.520000
10.467500 2.539000
10.489300 2.550500
10.511100 2.548400
10.532900 2.535400
10.554700 2.537900
10.576500 2.556300
10.598300 2.596400
10.620100 2.659600
10.641900 2.691100
10.663700 2.745600
10.685500 2.794500
10.707300 2.914200
10.729100 3.224600
10.750900 3.253000
10.772700 3.217800
10.794500 3.161300
10.816300 3.060100
10.838100 2.931200
10.859900 2.792900
10.881700 2.664000
10.903500 2.526600
10.925300 2.414700
10.947100 2.238800
10.968900 2.239200
10.990700 2.163100
11.012500 2.091900
11.034300 2.023500
11.056100 1.958900
11.077900 1.783700
11.099700 1.642900
11.121500 1.561100
11.143300 1.521500
11.165200 1.500600
11.187000 1.496500
11.208800 1.504800
11.230600 1.516100
11.252400 1.538000
11.274200 1.574700
11.296000 1.652100
11.317800 1.625500
11.339600 1.534600
11.361400 1.521400
11.383200 1.507300
11.405000 1.486400
11.426800 1.491200
11.448600 1.488200
11.470400 1.462900
11.492200 1.473200
11.514000 1.481000
11.535800 1.478300
11.557600 1.499300
11.579400 1.525900
11.601200 1.556000
11.623000 1.614700
11.644800 1.682200
11.666600 1.725900
11.688400 1.742100
11.710200 1.760300
11.732000 1.803900
11.753800 1.876900
11.775600 1.929800
11.797400 1.973400
11.819200 2.017700
11.841000 2.093600
11.862800 2.307800
11.884600 2.413000
11.906400 2.537500
11.928200 2.598900
