set title 'mp-101 - Density of States'
set xlabel 'Energy (eV)'
set ylabel 'DOS (states/eV)'
set grid
set xrange [-10:10]
set yrange [0:2.644]
set xzeroaxis lt -1
set terminal png size 800,600
set output 'mp-101_dos_gnuplot.png'
plot '-' using 1:2 with lines title 'DOS'
-2.946200 0.000000
-2.922900 0.000000
-2.899600 0.000000
-2.876300 0.000000
-2.853000 0.000000
-2.829700 0.000000
-2.806400 0.000000
-2.783100 0.000000
-2.759800 0.000000
-2.736500 0.000000
-2.713200 0.000000
-2.689900 0.000000
-2.666600 0.000000
-2.643400 0.000000
-2.620100 0.000000
-2.596800 0.000000
-2.573500 0.000000
-2.550200 0.000000
-2.526900 0.000000
-2.503600 0.000000
-2.480300 0.000000
-2.457000 0.000000
-2.433700 0.000000
-2.410400 0.000000
-2.387100 0.000000
-2.363800 0.000000
-2.340500 0.000000
-2.317300 0.000000
-2.294000 0.000000
-2.270700 0.000000
-2.247400 0.000000
-2.224100 0.000000
-2.200800 0.000000
-2.177500 0.000000
-2.154200 0.000000
-2.130900 0.000000
-2.107600 0.000000
-2.084300 0.000000
-2.061000 0.000000
-2.037700 0.000000
-2.014400 0.000000
-1.991100 0.000000
-1.967900 0.000000
-1.944600 0.000000
-1.921300 0.000000
-1.898000 0.000000
-1.874700 0.000000
-1.851400 0.000000
-1.828100 0.000000
-1.804800 0.000000
-1.781500 0.000000
-1.758200 0.000000
-1.734900 0.000000
-1.711600 0.000000
-1.688300 0.000000
-1.665000 0.000000
-1.641800 0.000000
-1.618500 0.000000
-1.595200 0.000000
-1.571900 0.000000
-1.548600 0.000000
-1.525300 0.000000
-1.502000 0.000000
-1.478700 0.000000
-1.455400 0.000000
-1.432100 0.000000
-1.408800 0.000000
-1.385500 0.000000
-1.362200 0.000000
-1.338900 0.000000
-1.315600 0.000000
-1.292400 0.000000
-1.269100 0.000000
-1.245800 0.000000
-1.222500 0.000000
-1.199200 0.000000
-1.175900 0.000000
-1.152600 0.000000
-1.129300 0.000000
-1.106000 0.000000
-1.082700 0.000000
-1.059400 0.000000
-1.036100 0.000000
-1.012800 0.000000
-0.989500 0.000000
-0.966200 0.000000
-0.943000 0.000000
-0.919700 0.000000
-0.896400 0.000000
-0.873100 0.000000
-0.849800 0.000000
-0.826500 0.000000
-0.803200 0.002200
-0.779900 0.008100
-0.756600 0.015900
-0.733300 0.014700
-0.710000 0.016900
-0.686700 0.019300
-0.663400 0.021700
-0.640100 0.024300
-0.616900 0.026400
-0.593600 0.027600
-0.570300 0.028100
-0.547000 0.029300
-0.523700 0.030800
-0.500400 0.032300
-0.477100 0.033900
-0.453800 0.035400
-0.430500 0.037000
-0.407200 0.038700
-0.383900 0.039600
-0.360600 0.040500
-0.337300 0.041600
-0.314000 0.042600
-0.290700 0.043600
-0.267500 0.044600
-0.244200 0.045700
-0.220900 0.046900
-0.197600 0.048100
-0.174300 0.049400
-0.151000 0.050600
-0.127700 0.051900
-0.104400 0.053200
-0.081100 0.054300
-0.057800 0.055100
-0.034500 0.055900
-0.011200 0.056900
0.012100 0.057900
0.035400 0.058900
0.058700 0.059900
0.081900 0.060900
0.105200 0.061900
0.128500 0.063000
0.151800 0.064100
0.175100 0.065200
0.198400 0.066400
0.221700 0.067600
0.245000 0.068700
0.268300 0.069900
0.291600 0.071000
0.314900 0.071900
0.338200 0.072900
0.361500 0.073900
0.384800 0.074900
0.408000 0.075900
0.431300 0.076900
0.454600 0.078000
0.477900 0.079200
0.501200 0.080300
0.524500 0.081400
0.547800 0.082600
0.571100 0.083700
0.594400 0.084900
0.617700 0.086100
0.641000 0.087400
0.664300 0.088600
0.687600 0.089900
0.710900 0.091100
0.734200 0.092300
0.757400 0.093400
0.780700 0.094600
0.804000 0.095800
0.827300 0.097100
0.850600 0.098300
0.873900 0.099600
0.897200 0.100900
0.920500 0.102200
0.943800 0.103600
0.967100 0.105000
0.990400 0.106500
1.013700 0.107900
1.037000 0.109400
1.060300 0.110900
1.083500 0.112400
1.106800 0.114000
1.130100 0.115600
1.153400 0.117200
1.176700 0.118800
1.200000 0.120500
1.223300 0.122100
1.246600 0.123700
1.269900 0.125400
1.293200 0.127200
1.316500 0.129000
1.339800 0.130900
1.363100 0.132800
1.386400 0.134800
1.409700 0.136900
1.432900 0.139000
1.456200 0.141300
1.479500 0.143600
1.502800 0.145900
1.526100 0.148300
1.549400 0.150800
1.572700 0.153300
1.596000 0.155900
1.619300 0.158600
1.642600 0.161400
1.665900 0.164300
1.689200 0.167200
1.712500 0.170200
1.735800 0.173200
1.759100 0.176700
1.782300 0.180500
1.805600 0.184600
1.828900 0.189000
1.852200 0.193700
1.875500 0.198800
1.898800 0.204100
1.922100 0.209700
1.945400 0.215700
1.968700 0.222000
1.992000 0.228500
2.015300 0.235400
2.038600 0.242500
2.061900 0.250100
2.085200 0.264700
2.108400 0.286500
2.131700 0.308100
2.155000 0.386200
2.178300 0.505500
2.201600 0.520800
2.224900 0.477600
2.248200 0.491000
2.271500 0.503100
2.294800 0.512800
2.318100 0.518300
2.341400 0.527800
2.364700 0.553600
2.388000 0.584500
2.411300 0.599700
2.434600 0.623400
2.457800 0.647300
2.481100 0.669100
2.504400 0.687300
2.527700 0.702700
2.551000 0.708000
2.574300 0.726700
2.597600 0.746600
2.620900 0.767600
2.644200 0.791500
2.667500 0.823200
2.690800 0.868100
2.714100 0.899800
2.737400 0.935600
2.760700 0.909900
2.783900 0.935200
2.807200 0.947700
2.830500 0.941200
2.853800 0.940000
2.877100 0.946600
2.900400 0.967900
2.923700 1.023900
2.947000 1.063800
2.970300 1.082000
2.993600 1.106600
3.016900 1.141500
3.040200 1.173900
3.063500 1.195000
3.086800 1.211200
3.110100 1.229400
3.133300 1.246700
3.156600 1.266400
3.179900 1.290700
3.203200 1.305600
3.226500 1.311300
3.249800 1.312500
3.273100 1.308600
3.296400 1.310200
3.319700 1.306600
3.343000 1.293300
3.366300 1.286100
3.389600 1.280800
3.412900 1.273300
3.436200 1.265000
3.459500 1.250100
3.482700 1.239500
3.506000 1.228600
3.529300 1.218700
3.552600 1.210100
3.575900 1.202400
3.599200 1.194200
3.622500 1.182400
3.645800 1.175400
3.669100 1.170000
3.692400 1.165700
3.715700 1.160900
3.739000 1.156400
3.762300 1.153300
3.785600 1.146800
3.808800 1.141500
3.832100 1.141200
3.855400 1.146200
3.878700 1.159000
3.902000 1.180900
3.925300 1.193100
3.948600 1.186800
3.971900 1.146900
3.995200 1.124200
4.018500 1.105700
4.041800 1.090900
4.065100 1.083400
4.088400 1.080300
4.111700 0.971500
4.135000 0.959000
4.158200 0.946600
4.181500 0.934500
4.204800 0.918100
4.228100 0.834800
4.251400 0.797000
4.274700 0.780400
4.298000 0.777200
4.321300 0.744000
4.344600 0.698600
4.367900 0.691400
4.391200 0.683500
4.414500 0.685200
4.437800 0.687900
4.461100 0.700100
4.484400 0.724100
4.507600 0.783000
4.530900 0.865500
4.554200 1.011800
4.577500 1.248900
4.600800 1.224400
4.624100 1.182600
4.647400 1.188000
4.670700 1.202700
4.694000 1.264400
4.717300 1.325800
4.740600 1.286300
4.763900 1.228100
4.787200 1.173100
4.810500 1.144400
4.833700 1.117200
4.857000 1.092000
4.880300 1.079000
4.903600 1.086000
4.926900 1.097200
4.950200 1.089800
4.973500 1.068100
4.996800 1.044400
5.020100 1.049400
5.043400 1.079300
5.066700 1.079200
5.090000 1.073000
5.113300 1.164500
5.136600 1.189700
5.159900 1.211000
5.183100 1.164600
5.206400 1.157100
5.229700 1.147700
5.253000 1.131100
5.276300 1.104600
5.299600 1.095800
5.322900 1.107100
5.346200 1.119900
5.369500 1.132900
5.392800 1.153300
5.416100 1.187200
5.439400 1.249600
5.462700 1.326200
5.486000 1.283800
5.509200 1.292000
5.532500 1.298100
5.555800 1.306200
5.579100 1.315600
5.602400 1.340000
5.625700 1.360600
5.649000 1.347500
5.672300 1.311800
5.695600 1.292700
5.718900 1.284800
5.742200 1.284500
5.765500 1.284800
5.788800 1.300400
5.812100 1.320200
5.835400 1.334400
5.858600 1.348400
5.881900 1.361500
5.905200 1.379700
5.928500 1.406800
5.951800 1.455300
5.975100 1.517800
5.998400 1.535600
6.021700 1.559500
6.045000 1.594300
6.068300 1.566700
6.091600 1.523400
6.114900 1.535800
6.138200 1.571500
6.161500 1.544000
6.184800 1.522900
6.208000 1.526200
6.231300 1.580800
6.254600 1.611900
6.277900 1.646400
6.301200 1.682400
6.324500 1.708100
6.347800 1.724500
6.371100 1.762800
6.394400 1.873200
6.417700 1.946500
6.441000 1.901800
6.464300 1.781500
6.487600 1.743600
6.510900 1.764300
6.534100 1.810200
6.557400 1.827800
6.580700 1.851500
6.604000 1.907400
6.627300 2.015200
6.650600 2.403800
6.673900 2.385900
6.697200 2.013500
6.720500 1.866800
6.743800 1.675000
6.767100 1.589500
6.790400 1.476000
6.813700 1.365100
6.837000 1.260500
6.860300 1.185300
6.883500 1.149400
6.906800 1.099900
6.930100 1.057700
6.953400 1.034300
6.976700 1.013700
7.000000 1.012600
7.023300 1.035700
7.046600 1.100400
7.069900 1.221000
7.093200 1.290300
7.116500 1.347200
7.139800 1.229200
7.163100 1.173000
7.186400 1.128200
7.209700 1.083700
7.232900 1.051300
7.256200 1.028000
7.279500 1.003500
7.302800 0.987800
7.326100 0.975600
7.349400 0.968300
7.372700 0.962700
7.396000 0.958000
7.419300 0.954600
7.442600 0.959600
7.465900 0.961900
7.489200 0.969600
7.512500 0.978700
7.535800 0.968700
7.559000 0.981200
7.582300 0.954800
7.605600 0.920600
7.628900 0.909500
7.652200 0.901800
7.675500 0.895900
7.698800 0.896500
7.722100 0.908800
7.745400 0.933000
7.768700 0.944200
7.792000 0.966500
7.815300 0.997900
7.838600 1.017900
7.861900 1.092300
7.885200 1.116700
7.908400 1.176200
7.931700 1.159100
7.955000 1.150500
7.978300 1.153500
8.001600 1.167400
8.024900 1.177100
8.048200 1.179800
8.071500 1.228700
8.094800 1.252000
8.118100 1.258800
8.141400 1.258600
8.164700 1.242300
8.188000 1.215000
8.211300 1.197600
8.234500 1.349100
8.257800 1.523900
8.281100 1.642800
8.304400 1.560300
8.327700 1.421200
8.351000 1.328100
8.374300 1.282200
8.397600 1.234800
8.420900 1.191300
8.444200 1.153900
8.467500 1.124300
8.490800 1.097600
8.514100 1.073400
8.537400 1.052400
8.560700 1.040400
8.583900 0.992300
8.607200 0.969300
8.630500 0.959400
8.653800 0.939400
8.677100 0.921100
8.700400 0.928100
8.723700 0.982200
8.747000 1.028700
8.770300 1.063700
8.793600 1.021600
8.816900 1.003800
8.840200 0.988600
8.863500 0.978900
8.886800 0.972400
8.910100 0.968100
8.933300 0.955000
8.956600 0.942600
8.979900 0.938900
9.003200 0.936800
9.026500 0.934600
9.049800 0.932200
9.073100 0.931600
9.096400 0.930600
9.119700 0.925400
9.143000 0.918800
9.166300 0.908200
9.189600 0.899300
9.212900 0.887900
9.236200 0.903200
9.259400 0.888300
9.282700 0.876000
9.306000 0.872900
9.329300 0.872400
9.352600 0.872500
9.375900 0.872900
9.399200 0.873000
9.422500 0.873100
9.445800 0.874100
9.469100 0.874300
9.492400 0.873600
9.515700 0.874200
9.539000 0.877600
9.562300 0.883000
9.585600 0.885700
9.608800 0.887900
9.632100 0.891800
9.655400 0.897000
9.678700 0.902900
9.702000 0.909300
9.725300 0.915900
9.748600 0.923500
9.771900 0.936600
9.795200 0.942800
9.818500 0.944000
9.841800 0.957400
9.865100 0.952300
9.888400 0.953400
9.911700 0.972700
9.934900 0.944100
9.958200 0.940900
9.981500 0.948900
10.004800 0.961400
10.028100 0.978700
10.051400 0.994900
10.074700 1.011700
10.098000 1.031900
10.121300 1.051500
10.144600 1.071500
10.167900 1.092500
10.191200 1.105000
10.214500 1.119900
10.237800 1.137200
10.261100 1.154000
10.284300 1.184800
10.307600 1.219400
10.330900 1.253300
10.354200 1.295800
10.377500 1.347400
10.400800 1.392600
10.424100 1.433300
10.447400 1.628000
10.470700 1.661400
10.494000 1.664000
10.517300 1.683800
10.540600 1.690100
10.563900 1.712600
10.587200 1.695000
10.610500 1.717600
10.633700 1.710500
10.657000 1.689800
10.680300 1.698600
10.703600 1.690500
10.726900 1.694700
10.750200 1.506400
10.773500 1.397300
10.796800 1.324600
10.820100 1.263800
10.843400 1.216100
10.866700 1.180300
10.890000 1.140000
10.913300 1.082600
10.936600 1.025200
10.959800 0.969000
10.983100 0.908400
11.006400 0.882100
11.029700 0.844500
11.053000 0.809000
11.076300 0.787900
11.099600 0.756300
11.122900 0.743400
11.146200 0.774700
11.169500 0.749100
11.192800 0.710500
11.216100 0.675700
11.239400 0.642900
11.262700 0.605600
11.286000 2.869500
11.309200 0.271000
11.332500 0.271700
11.355800 0.272100
11.379100 0.272500
11.402400 0.272800
11.425700 0.273100
11.449000 0.273300
11.472300 0.273400
11.495600 0.273400
11.518900 0.273300
11.542200 0.272900
11.565500 0.272400
11.588800 0.271300
11.612100 0.270200
11.635400 0.269700
11.658600 0.269200
11.681900 0.268800
11.705200 0.268600
11.728500 0.268500
11.751800 0.268900
11.775100 0.269400
11.798400 0.269800
11.821700 0.270200
11.845000 0.270700
11.868300 0.271100
11.891600 0.271500
11.914900 0.271800
11.938200 0.272200
11.961500 0.272500
11.984700 0.272800
12.008000 0.273100
12.031300 0.273400
12.054600 0.274800
12.077900 0.275000
12.101200 0.275100
12.124500 0.275300
12.147800 0.275400
12.171100 0.275500
12.194400 0.275600
12.217700 0.275700
12.241000 0.275700
12.264300 0.275700
12.287600 0.275700
12.310900 0.275800
12.334100 0.275700
12.357400 0.275500
12.380700 0.275300
12.404000 0.274600
12.427300 0.274600
12.450600 0.274800
12.473900 0.275000
12.497200 0.275200
12.520500 0.275300
12.543800 0.275300
12.567100 0.275200
12.590400 0.275100
12.613700 0.275000
12.637000 0.274800
12.660200 0.274700
12.683500 0.274700
12.706800 0.274700
12.730100 0.274700
12.753400 0.274700
12.776700 0.274600
12.800000 0.274600
12.823300 0.274500
12.846600 0.274400
12.869900 0.274400
12.893200 0.274300
12.916500 0.274200
12.939800 0.274200
12.963100 0.274300
12.986400 0.274900
13.009600 0.275100
13.032900 0.275100
13.056200 0.275200
13.079500 0.275200
13.102800 0.275200
13.126100 0.275200
13.149400 0.275100
13.172700 0.274800
13.196000 0.274400
13.219300 0.274000
13.242600 0.273700
13.265900 0.273400
13.289200 0.273200
13.312500 0.273000
13.335800 0.272900
13.359000 0.272700
13.382300 0.272400
13.405600 0.272200
13.428900 0.271900
13.452200 0.271600
13.475500 0.271300
13.498800 0.270900
13.522100 0.270500
13.545400 0.270900
13.568700 0.270800
13.592000 0.270700
13.615300 0.270600
13.638600 0.270400
13.661900 0.270200
13.685100 0.269900
13.708400 0.269600
13.731700 0.269300
13.755000 0.268900
13.778300 0.268600
13.801600 0.268200
13.824900 0.267700
13.848200 0.267300
13.871500 0.266900
13.894800 0.266400
13.918100 0.266000
13.941400 0.265500
13.964700 0.265100
13.988000 0.264600
14.011300 0.264000
14.034500 0.263400
14.057800 0.263000
14.081100 0.262700
14.104400 0.262100
14.127700 0.261300
14.151000 0.260600
14.174300 0.260100
14.197600 0.259600
14.220900 0.258600
14.244200 0.258200
14.267500 0.257800
14.290800 0.257300
14.314100 0.256800
14.337400 0.256200
14.360700 0.255700
14.383900 0.255200
14.407200 0.254600
14.430500 0.254000
14.453800 0.253400
14.477100 0.252800
14.500400 0.252200
14.523700 0.251500
14.547000 0.250800
14.570300 0.250100
14.593600 0.249400
14.616900 0.248700
14.640200 0.247900
14.663500 0.247000
14.686800 0.246200
14.710000 0.245400
14.733300 0.244500
14.756600 0.243600
14.779900 0.242700
14.803200 0.241500
14.826500 0.240200
14.849800 0.239200
14.873100 0.238300
14.896400 0.237400
14.919700 0.236500
14.943000 0.235600
14.966300 0.234700
14.989600 0.233800
15.012900 0.232900
15.036200 0.232000
15.059400 0.231000
15.082700 0.230000
15.106000 0.229100
15.129300 0.228300
15.152600 0.227400
15.175900 0.226700
15.199200 0.225900
15.222500 0.225200
15.245800 0.224400
15.269100 0.223800
15.292400 0.223000
15.315700 0.222300
15.339000 0.221400
15.362300 0.220400
15.385500 0.219400
15.408800 0.218400
15.432100 0.217400
15.455400 0.216300
15.478700 0.215200
15.502000 0.214200
15.525300 0.213200
15.548600 0.212200
15.571900 0.211400
15.595200 0.210900
15.618500 0.210200
15.641800 0.209200
15.665100 0.208000
15.688400 0.206500
15.711700 0.205000
15.734900 0.203600
15.758200 0.202300
15.781500 0.201000
15.804800 0.200000
15.828100 0.200000
15.851400 0.201500
15.874700 0.203500
15.898000 0.202800
15.921300 0.201800
15.944600 0.201300
15.967900 0.202300
15.991200 0.203200
16.014500 0.203500
16.037800 0.203300
16.061100 0.202600
16.084300 0.202200
16.107600 0.201100
16.130900 0.199100
16.154200 0.196500
16.177500 0.193100
16.200800 0.189800
16.224100 0.186900
16.247400 0.184200
16.270700 0.181400
16.294000 0.178500
16.317300 0.175400
16.340600 0.172200
16.363900 0.168900
16.387200 0.166200
16.410400 0.164200
16.433700 0.164900
16.457000 0.168000
16.480300 0.177500
16.503600 0.202600
16.526900 0.236200
16.550200 0.277100
16.573500 0.319900
16.596800 0.374800
16.620100 0.414700
16.643400 0.404000
16.666700 0.383400
16.690000 0.385500
16.713300 0.386000
16.736600 0.386200
16.759800 0.387500
16.783100 0.389800
16.806400 0.382000
16.829700 0.396800
16.853000 0.403300
16.876300 0.389900
16.899600 0.392700
16.922900 0.398500
16.946200 0.405300
16.969500 0.442200
16.992800 0.395800
17.016100 0.391000
17.039400 0.384600
17.062700 0.378300
17.086000 0.374600
17.109200 0.370500
17.132500 0.365500
17.155800 0.360000
17.179100 0.358700
17.202400 0.360200
17.225700 0.360200
17.249000 0.358800
17.272300 0.355900
17.295600 0.351400
17.318900 0.345100
17.342200 0.339400
17.365500 0.334500
17.388800 0.330200
17.412100 0.326600
17.435300 0.324300
17.458600 0.322900
17.481900 0.322200
17.505200 0.321700
17.528500 0.321200
17.551800 0.320800
17.575100 0.320600
17.598400 0.320400
17.621700 0.328300
17.645000 0.325700
17.668300 0.323500
17.691600 0.321500
17.714900 0.319700
17.738200 0.318300
17.761500 0.317000
17.784700 0.316700
17.808000 0.317900
17.831300 0.319000
17.854600 0.319800
17.877900 0.320000
17.901200 0.320400
17.924500 0.321000
17.947800 0.321700
17.971100 0.322500
17.994400 0.323900
18.017700 0.325700
18.041000 0.327200
18.064300 0.328500
18.087600 0.329900
18.110800 0.331100
18.134100 0.332300
18.157400 0.333800
18.180700 0.335200
18.204000 0.336400
18.227300 0.337400
18.250600 0.338500
18.273900 0.339500
18.297200 0.340800
18.320500 0.342900
18.343800 0.343800
18.367100 0.343600
18.390400 0.342300
18.413700 0.340800
18.437000 0.340100
18.460200 0.341300
18.483500 0.341800
18.506800 0.340600
18.530100 0.337500
18.553400 0.336200
18.576700 0.336000
18.600000 0.335600
18.623300 0.334900
18.646600 0.333100
18.669900 0.330600
18.693200 0.328100
18.716500 0.325400
18.739800 0.320400
18.763100 0.341300
18.786400 0.315300
18.809600 0.314500
18.832900 0.313700
18.856200 0.312300
18.879500 0.310200
18.902800 0.306400
18.926100 0.304900
18.949400 0.303400
18.972700 0.301900
18.996000 0.300400
19.019300 0.298900
19.042600 0.297400
19.065900 0.295800
19.089200 0.294300
19.112500 0.292800
19.135700 0.294300
19.159000 0.294400
19.182300 0.294500
19.205600 0.294200
19.228900 0.307100
19.252200 0.292200
19.275500 0.290400
19.298800 0.291300
19.322100 0.292400
19.345400 0.288800
19.368700 0.286200
19.392000 0.286400
19.415300 0.287400
19.438600 0.289000
19.461900 0.289100
19.485100 0.289500
19.508400 0.289600
19.531700 0.286600
19.555000 0.286400
19.578300 0.285900
19.601600 0.285400
19.624900 0.284900
19.648200 0.284400
19.671500 0.284100
19.694800 0.284400
19.718100 0.286100
19.741400 0.287300
19.764700 0.288300
19.788000 0.288700
19.811200 0.288300
19.834500 0.287800
19.857800 0.287200
19.881100 0.286600
19.904400 0.292600
19.927700 0.292900
19.951000 0.299600
19.974300 0.293900
19.997600 0.289900
20.020900 0.289000
20.044200 0.289800
20.067500 0.289100
20.090800 0.289800
20.114100 0.290200
20.137400 0.289200
20.160600 0.288100
20.183900 0.287000
20.207200 0.285700
20.230500 0.284300
20.253800 0.287600
20.277100 0.290700
20.300400 0.288800
20.323700 0.284600
20.347000 0.282100
20.370300 0.281900
20.393600 0.287800
20.416900 0.294000
20.440200 0.295800
20.463500 0.295100
20.486800 0.293900
20.510000 0.292600
20.533300 0.291700
20.556600 0.291200
20.579900 0.291200
20.603200 0.291600
20.626500 0.292700
20.649800 0.296300
20.673100 0.301100
20.696400 0.305600
20.719700 0.311800
20.743000 0.320000
20.766300 0.329300
20.789600 0.333100
20.812900 0.331200
20.836100 0.332600
20.859400 0.336500
20.882700 0.339300
20.906000 0.341300
20.929300 0.346200
20.952600 0.347600
20.975900 0.348300
20.999200 0.349200
21.022500 0.352100
21.045800 0.355400
21.069100 0.358900
21.092400 0.362900
21.115700 0.368500
21.139000 0.383000
21.162300 0.364900
21.185500 0.364500
21.208800 0.366700
21.232100 0.369600
21.255400 0.373200
21.278700 0.377000
21.302000 0.382700
21.325300 0.390900
21.348600 0.400100
21.371900 0.396900
21.395200 0.399100
21.418500 0.404400
21.441800 0.411700
21.465100 0.422200
21.488400 0.406500
21.511700 0.414100
21.534900 0.426900
21.558200 0.445500
21.581500 0.470600
21.604800 0.459900
21.628100 0.463000
21.651400 0.444300
21.674700 0.431200
21.698000 0.424800
21.721300 0.417000
