set title 'mp-567144 - Density of States'
set xlabel 'Energy (eV)'
set ylabel 'DOS (states/eV)'
set grid
set xrange [-10:10]
set yrange [0:5.638]
set xzeroaxis lt -1
set terminal png size 800,600
set output 'mp-567144_dos_gnuplot.png'
plot '-' using 1:2 with lines title 'DOS'
-7.544700 0.000000
-7.533300 0.000000
-7.522000 0.000000
-7.510600 0.000000
-7.499200 0.000000
-7.487900 0.000000
-7.476500 0.000000
-7.465200 0.000000
-7.453800 0.000000
-7.442400 0.000000
-7.431100 0.000000
-7.419700 0.000000
-7.408300 0.000000
-7.397000 0.000000
-7.385600 0.000000
-7.374300 0.000000
-7.362900 0.000000
-7.351500 0.000000
-7.340200 0.000000
-7.328800 0.000000
-7.317400 0.000000
-7.306100 0.000000
-7.294700 0.000000
-7.283400 0.000000
-7.272000 0.000000
-7.260600 0.000000
-7.249300 0.000000
-7.237900 0.000000
-7.226600 0.000000
-7.215200 0.000000
-7.203800 0.000000
-7.192500 0.000000
-7.181100 0.000000
-7.169700 0.000000
-7.158400 0.000000
-7.147000 0.000000
-7.135700 0.000000
-7.124300 0.000000
-7.112900 0.000000
-7.101600 0.000000
-7.090200 0.000000
-7.078800 0.000000
-7.067500 0.000000
-7.056100 0.000000
-7.044800 0.000000
-7.033400 0.000000
-7.022000 0.000000
-7.010700 0.000000
-6.999300 0.000000
-6.988000 0.000000
-6.976600 0.000000
-6.965200 0.000000
-6.953900 0.000000
-6.942500 0.000000
-6.931100 0.000000
-6.919800 0.000000
-6.908400 0.000000
-6.897100 0.000000
-6.885700 0.000000
-6.874300 0.000000
-6.863000 0.000000
-6.851600 0.000000
-6.840200 0.000000
-6.828900 0.000000
-6.817500 0.000000
-6.806200 0.000000
-6.794800 0.000000
-6.783400 0.000000
-6.772100 0.000000
-6.760700 0.000000
-6.749400 0.000000
-6.738000 0.000000
-6.726600 0.000000
-6.715300 0.000000
-6.703900 0.000000
-6.692500 0.000000
-6.681200 0.000000
-6.669800 0.000000
-6.658500 0.000000
-6.647100 0.000000
-6.635700 0.000000
-6.624400 0.000000
-6.613000 0.000000
-6.601600 0.000000
-6.590300 0.000000
-6.578900 0.000000
-6.567600 0.000000
-6.556200 0.000000
-6.544800 0.000000
-6.533500 0.000000
-6.522100 0.000000
-6.510800 0.043400
-6.499400 0.158200
-6.488000 0.184500
-6.476700 0.225600
-6.465300 0.269200
-6.453900 0.315200
-6.442600 0.350100
-6.431200 0.376000
-6.419900 0.396600
-6.408500 0.409000
-6.397100 0.426600
-6.385800 0.447200
-6.374400 0.470100
-6.363000 0.494500
-6.351700 0.519400
-6.340300 0.544700
-6.329000 0.567900
-6.317600 0.587500
-6.306200 0.606200
-6.294900 0.622900
-6.283500 0.636900
-6.272200 0.653700
-6.260800 0.671500
-6.249400 0.689300
-6.238100 0.706600
-6.226700 0.725000
-6.215300 0.743700
-6.204000 0.762500
-6.192600 0.781900
-6.181300 0.801800
-6.169900 0.823000
-6.158500 0.845300
-6.147200 0.867900
-6.135800 0.891000
-6.124400 0.915200
-6.113100 0.940900
-6.101700 0.967100
-6.090400 0.993000
-6.079000 1.018600
-6.067600 1.043800
-6.056300 1.070100
-6.044900 1.096500
-6.033600 1.150500
-6.022200 1.300400
-6.010800 1.325400
-5.999500 1.303300
-5.988100 1.314800
-5.976700 1.319000
-5.965400 1.315400
-5.954000 1.305000
-5.942700 1.288900
-5.931300 1.268600
-5.919900 1.248900
-5.908600 1.237300
-5.897200 1.233100
-5.885800 1.232000
-5.874500 1.230300
-5.863100 1.228000
-5.851800 1.225400
-5.840400 1.222100
-5.829000 1.215900
-5.817700 1.205500
-5.806300 1.192600
-5.795000 1.179600
-5.783600 1.168800
-5.772200 1.158900
-5.760900 1.149900
-5.749500 1.141600
-5.738100 1.134400
-5.726800 1.127800
-5.715400 1.122600
-5.704100 1.117400
-5.692700 1.112200
-5.681300 1.107100
-5.670000 1.101900
-5.658600 1.096900
-5.647200 1.091700
-5.635900 1.086100
-5.624500 1.080100
-5.613200 1.072800
-5.601800 1.060300
-5.590400 1.051300
-5.579100 1.043800
-5.567700 1.036500
-5.556400 1.029300
-5.545000 1.021800
-5.533600 1.013900
-5.522300 1.005900
-5.510900 1.000100
-5.499500 0.995100
-5.488200 0.990500
-5.476800 0.986200
-5.465500 0.982000
-5.454100 0.977600
-5.442700 0.972700
-5.431400 0.967600
-5.420000 0.962500
-5.408600 0.957100
-5.397300 0.951600
-5.385900 0.945800
-5.374600 0.939700
-5.363200 0.933100
-5.351800 0.926100
-5.340500 0.919400
-5.329100 0.913300
-5.317800 0.907900
-5.306400 0.903800
-5.295000 0.898300
-5.283700 0.894600
-5.272300 0.889700
-5.260900 0.881000
-5.249600 0.868400
-5.238200 0.852200
-5.226900 0.832600
-5.215500 0.821700
-5.204100 0.813200
-5.192800 0.805100
-5.181400 0.797500
-5.170000 0.790400
-5.158700 0.783900
-5.147300 0.778100
-5.136000 0.772900
-5.124600 0.768400
-5.113200 0.764900
-5.101900 0.762600
-5.090500 0.756700
-5.079200 0.748400
-5.067800 0.740700
-5.056400 0.733600
-5.045100 0.727300
-5.033700 0.721600
-5.022300 0.715800
-5.011000 0.710600
-4.999600 0.705600
-4.988300 0.700500
-4.976900 0.695600
-4.965500 0.691400
-4.954200 0.687800
-4.942800 0.684600
-4.931400 0.681600
-4.920100 0.678800
-4.908700 0.674500
-4.897400 0.668800
-4.886000 0.661800
-4.874600 0.655900
-4.863300 0.651600
-4.851900 0.648900
-4.840500 0.646900
-4.829200 0.644900
-4.817800 0.642900
-4.806500 0.640900
-4.795100 0.638700
-4.783700 0.636500
-4.772400 0.634200
-4.761000 0.631800
-4.749700 0.629400
-4.738300 0.626800
-4.726900 0.624200
-4.715600 0.621600
-4.704200 0.619000
-4.692800 0.939000
-4.681500 1.163800
-4.670100 1.395200
-4.658800 1.999000
-4.647400 1.938100
-4.636000 1.852200
-4.624700 1.749400
-4.613300 1.674700
-4.601900 1.651100
-4.590600 1.675100
-4.579200 1.710000
-4.567900 1.743300
-4.556500 1.775100
-4.545100 1.805100
-4.533800 1.833500
-4.522400 1.859100
-4.511100 1.864200
-4.499700 1.830700
-4.488300 1.785400
-4.477000 1.768900
-4.465600 1.758600
-4.454200 1.749900
-4.442900 1.744600
-4.431500 1.742500
-4.420200 1.741100
-4.408800 1.738100
-4.397400 1.736700
-4.386100 1.740600
-4.374700 1.746700
-4.363300 1.755700
-4.352000 1.765600
-4.340600 1.776500
-4.329300 1.788900
-4.317900 1.805900
-4.306500 1.830100
-4.295200 1.840300
-4.283800 1.853000
-4.272500 1.867900
-4.261100 1.882500
-4.249700 1.911600
-4.238400 1.943200
-4.227000 1.977500
-4.215600 2.006700
-4.204300 2.025700
-4.192900 2.052100
-4.181600 2.086600
-4.170200 2.161400
-4.158800 2.211400
-4.147500 2.209100
-4.136100 2.117200
-4.124700 2.004400
-4.113400 1.868000
-4.102000 1.809500
-4.090700 1.771900
-4.079300 1.741500
-4.067900 1.714800
-4.056600 1.691700
-4.045200 1.671000
-4.033900 1.654000
-4.022500 1.639500
-4.011100 1.649800
-3.999800 1.721100
-3.988400 1.751500
-3.977000 1.680700
-3.965700 1.495300
-3.954300 1.395100
-3.943000 1.355100
-3.931600 1.321000
-3.920200 1.294000
-3.908900 1.286500
-3.897500 1.290000
-3.886100 1.295100
-3.874800 1.305400
-3.863400 1.321400
-3.852100 1.349300
-3.840700 1.385600
-3.829300 1.426700
-3.818000 1.472400
-3.806600 1.530400
-3.795300 1.573800
-3.783900 1.622400
-3.772500 1.677100
-3.761200 1.738500
-3.749800 1.804900
-3.738400 1.882100
-3.727100 1.961600
-3.715700 2.042700
-3.704400 2.122600
-3.693000 2.198500
-3.681600 2.281200
-3.670300 2.421300
-3.658900 2.530200
-3.647500 2.524300
-3.636200 2.411400
-3.624800 2.254200
-3.613500 2.200700
-3.602100 2.183100
-3.590700 2.172600
-3.579400 2.168000
-3.568000 2.167000
-3.556700 2.169700
-3.545300 2.176800
-3.533900 2.184400
-3.522600 2.192800
-3.511200 2.202400
-3.499800 2.212700
-3.488500 2.224000
-3.477100 2.236900
-3.465800 2.252300
-3.454400 2.269400
-3.443000 2.287700
-3.431700 2.307400
-3.420300 2.199900
-3.408900 1.981900
-3.397600 1.935800
-3.386200 1.914400
-3.374900 1.911400
-3.363500 1.892800
-3.352100 1.851600
-3.340800 1.804300
-3.329400 1.798000
-3.318100 1.792100
-3.306700 1.789200
-3.295300 1.771300
-3.284000 1.752600
-3.272600 1.738100
-3.261200 1.725700
-3.249900 1.719700
-3.238500 1.716000
-3.227200 1.715000
-3.215800 1.717100
-3.204400 1.721800
-3.193100 1.730500
-3.181700 1.751500
-3.170300 1.781800
-3.159000 1.816800
-3.147600 1.852800
-3.136300 1.897500
-3.124900 2.033500
-3.113500 2.105900
-3.102200 2.130900
-3.090800 2.143100
-3.079500 2.158000
-3.068100 2.285400
-3.056700 2.338300
-3.045400 2.362900
-3.034000 2.353400
-3.022600 2.468000
-3.011300 2.252800
-2.999900 2.215300
-2.988600 2.146900
-2.977200 2.116400
-2.965800 2.054200
-2.954500 2.040000
-2.943100 2.029700
-2.931700 2.002100
-2.920400 1.970500
-2.909000 1.973600
-2.897700 1.993000
-2.886300 2.017800
-2.874900 2.061500
-2.863600 2.121500
-2.852200 2.140200
-2.840900 2.121200
-2.829500 2.104800
-2.818100 2.123400
-2.806800 2.095900
-2.795400 2.061000
-2.784000 2.033400
-2.772700 2.046600
-2.761300 2.083500
-2.750000 2.179800
-2.738600 2.381900
-2.727200 2.600000
-2.715900 3.280300
-2.704500 4.273700
-2.693100 5.125500
-2.681800 4.760100
-2.670400 2.800200
-2.659100 2.623700
-2.647700 2.554100
-2.636300 2.517100
-2.625000 2.486200
-2.613600 2.455200
-2.602300 2.422900
-2.590900 2.389800
-2.579500 2.358200
-2.568200 2.330500
-2.556800 2.305600
-2.545400 2.284200
-2.534100 2.267300
-2.522700 2.243700
-2.511400 2.224300
-2.500000 2.210000
-2.488600 2.201900
-2.477300 2.191600
-2.465900 2.179500
-2.454500 2.170100
-2.443200 2.162700
-2.431800 2.156800
-2.420500 2.153600
-2.409100 2.178800
-2.397700 2.200300
-2.386400 2.199000
-2.375000 2.207100
-2.363700 2.220300
-2.352300 2.239600
-2.340900 2.259600
-2.329600 2.279600
-2.318200 2.303900
-2.306800 2.337400
-2.295500 2.373900
-2.284100 2.414000
-2.272800 2.459800
-2.261400 2.441500
-2.250000 2.453000
-2.238700 2.459000
-2.227300 2.458300
-2.215900 2.524100
-2.204600 2.611500
-2.193200 2.720400
-2.181900 2.774300
-2.170500 2.601700
-2.159100 2.028000
-2.147800 1.695500
-2.136400 1.450300
-2.125100 1.271900
-2.113700 1.172000
-2.102300 1.001500
-2.091000 0.987100
-2.079600 1.018300
-2.068200 1.039900
-2.056900 1.069700
-2.045500 1.094600
-2.034200 1.096200
-2.022800 1.069800
-2.011400 1.038200
-2.000100 1.017800
-1.988700 1.004900
-1.977300 0.994000
-1.966000 0.989900
-1.954600 0.986900
-1.943300 0.983100
-1.931900 0.979400
-1.920500 0.977900
-1.909200 0.978400
-1.897800 0.982000
-1.886500 0.985700
-1.875100 0.981600
-1.863700 0.978200
-1.852400 0.974500
-1.841000 0.971600
-1.829600 0.970300
-1.818300 0.972600
-1.806900 0.983500
-1.795600 1.002400
-1.784200 1.029900
-1.772800 1.050800
-1.761500 1.067700
-1.750100 1.080800
-1.738700 1.083000
-1.727400 1.068200
-1.716000 1.059100
-1.704700 1.060700
-1.693300 1.060800
-1.681900 1.053300
-1.670600 1.045200
-1.659200 1.036600
-1.647900 1.028400
-1.636500 1.021600
-1.625100 1.015400
-1.613800 1.009100
-1.602400 1.002400
-1.591000 1.009700
-1.579700 0.983100
-1.568300 0.957100
-1.557000 0.931700
-1.545600 0.907000
-1.534200 0.881700
-1.522900 0.855400
-1.511500 0.830600
-1.500100 0.808700
-1.488800 0.790200
-1.477400 0.775600
-1.466100 0.761800
-1.454700 0.748700
-1.443300 0.736600
-1.432000 0.725200
-1.420600 0.714400
-1.409300 0.704400
-1.397900 0.696000
-1.386500 0.687900
-1.375200 0.679600
-1.363800 0.671800
-1.352400 0.662400
-1.341100 0.652800
-1.329700 0.643500
-1.318400 0.634200
-1.307000 0.625000
-1.295600 0.615900
-1.284300 0.606800
-1.272900 0.597900
-1.261500 0.588800
-1.250200 0.579900
-1.238800 0.570900
-1.227500 0.563400
-1.216100 0.556100
-1.204700 0.548800
-1.193400 0.541600
-1.182000 0.534500
-1.170700 0.527300
-1.159300 0.520100
-1.147900 0.512800
-1.136600 0.505500
-1.125200 0.498300
-1.113800 0.491600
-1.102500 0.485600
-1.091100 0.480300
-1.079800 0.475200
-1.068400 0.470600
-1.057000 0.466200
-1.045700 0.461800
-1.034300 0.457500
-1.022900 0.453100
-1.011600 0.448700
-1.000200 0.444300
-0.988900 0.439900
-0.977500 0.435500
-0.966100 0.431000
-0.954800 0.426500
-0.943400 0.421900
-0.932100 0.417300
-0.920700 0.412700
-0.909300 0.408100
-0.898000 0.403400
-0.886600 0.398700
-0.875200 0.393800
-0.863900 0.388800
-0.852500 0.383700
-0.841200 0.378700
-0.829800 0.373700
-0.818400 0.368600
-0.807100 0.363500
-0.795700 0.358500
-0.784300 0.353600
-0.773000 0.348800
-0.761600 0.344000
-0.750300 0.339200
-0.738900 0.334500
-0.727500 0.329900
-0.716200 0.325500
-0.704800 0.321500
-0.693500 0.317800
-0.682100 0.314300
-0.670700 0.311000
-0.659400 0.307400
-0.648000 0.303600
-0.636600 0.299900
-0.625300 0.296300
-0.613900 0.292600
-0.602600 0.288900
-0.591200 0.285300
-0.579800 0.281600
-0.568500 0.278000
-0.557100 0.274400
-0.545700 0.270800
-0.534400 0.267200
-0.523000 0.263600
-0.511700 0.260000
-0.500300 0.256300
-0.488900 0.252700
-0.477600 0.249000
-0.466200 0.245300
-0.454900 0.241700
-0.443500 0.238000
-0.432100 0.234300
-0.420800 0.230600
-0.409400 0.227000
-0.398000 0.223300
-0.386700 0.219900
-0.375300 0.216700
-0.364000 0.213400
-0.352600 0.209800
-0.341200 0.206300
-0.329900 0.203000
-0.318500 0.199900
-0.307100 0.197200
-0.295800 0.194600
-0.284400 0.192200
-0.273100 0.189700
-0.261700 0.187200
-0.250300 0.184600
-0.239000 0.182000
-0.227600 0.179300
-0.216300 0.176600
-0.204900 0.173700
-0.193500 0.170700
-0.182200 0.167800
-0.170800 0.164800
-0.159400 0.161900
-0.148100 0.159000
-0.136700 0.156100
-0.125400 0.153400
-0.114000 0.150700
-0.102600 0.148200
-0.091300 0.145600
-0.079900 0.142800
-0.068500 0.139900
-0.057200 0.137100
-0.045800 0.134100
-0.034500 0.130800
-0.023100 0.127600
-0.011700 0.124400
-0.000400 0.121300
0.011000 0.118100
0.022400 0.115000
0.033700 0.112000
0.045100 0.109100
0.056400 0.106200
0.067800 0.103500
0.079200 0.101000
0.090500 0.098500
0.101900 0.096000
0.113200 0.093300
0.124600 0.090500
0.136000 0.087700
0.147300 0.084800
0.158700 0.082200
0.170100 0.079100
0.181400 0.075700
0.192800 0.072300
0.204100 0.068900
0.215500 0.065500
0.226900 0.062200
0.238200 0.058900
0.249600 0.055600
0.261000 0.052400
0.272300 0.049100
0.283700 0.045900
0.295000 0.043900
0.306400 0.044600
0.317800 0.051200
0.329100 0.053800
0.340500 0.028300
0.351800 0.000000
0.363200 0.000000
0.374600 0.000000
0.385900 0.000000
0.397300 0.000000
0.408700 0.000000
0.420000 0.000000
0.431400 0.000000
0.442700 0.000000
0.454100 0.000000
0.465500 0.000000
0.476800 0.000000
0.488200 0.000000
0.499600 0.000000
0.510900 0.000000
0.522300 0.000000
0.533600 0.000000
0.545000 0.056500
0.556400 0.176300
0.567700 0.201800
0.579100 0.184600
0.590400 0.170600
0.601800 0.175400
0.613200 0.193000
0.624500 0.218600
0.635900 0.247400
0.647300 0.278400
0.658600 0.311100
0.670000 0.345500
0.681300 0.381700
0.692700 0.421000
0.704100 0.464800
0.715400 0.515500
0.726800 0.578400
0.738200 0.660500
0.749500 0.758100
0.760900 0.731000
0.772200 0.713600
0.783600 0.716600
0.795000 0.724400
0.806300 0.753000
0.817700 0.777700
0.829000 0.811600
0.840400 0.855600
0.851800 0.909900
0.863100 0.973600
0.874500 1.040200
0.885900 1.101300
0.897200 1.160800
0.908600 1.232300
0.919900 1.350300
0.931300 1.479400
0.942700 1.372300
0.954000 1.250100
0.965400 1.205600
0.976800 1.177300
0.988100 1.195300
0.999500 1.284500
1.010800 1.433900
1.022200 1.626900
1.033600 1.821600
1.044900 2.068200
1.056300 2.404800
1.067600 2.510500
1.079000 2.388900
1.090400 2.300400
1.101700 2.238300
1.113100 2.177000
1.124500 2.055800
1.135800 1.914600
1.147200 1.818200
1.158500 1.731100
1.169900 1.654900
1.181300 1.622500
1.192600 1.567800
1.204000 1.543500
1.215400 1.513600
1.226700 1.484400
1.238100 1.478300
1.249400 1.483000
1.260800 1.491500
1.272200 1.499400
1.283500 1.518700
1.294900 1.532200
1.306200 1.544100
1.317600 1.544700
1.329000 1.555800
1.340300 1.578900
1.351700 1.601300
1.363100 1.621900
1.374400 1.641600
1.385800 1.663200
1.397100 1.685500
1.408500 1.710400
1.419900 1.734300
1.431200 1.754300
1.442600 1.770200
1.454000 1.799300
1.465300 1.813900
1.476700 1.793500
1.488000 1.830800
1.499400 1.862100
1.510800 1.881700
1.522100 1.884200
1.533500 1.863400
1.544800 1.809300
1.556200 1.707800
1.567600 1.653900
1.578900 1.628800
1.590300 1.614800
1.601700 1.603800
1.613000 1.666200
1.624400 1.840300
1.635700 1.843200
1.647100 1.857000
1.658500 1.982900
1.669800 2.019100
1.681200 2.066000
1.692600 2.100400
1.703900 2.117800
1.715300 2.186300
1.726600 2.202000
1.738000 2.220700
1.749400 2.246200
1.760700 2.284700
1.772100 2.328200
1.783400 2.375900
1.794800 2.429200
1.806200 2.474100
1.817500 2.593500
1.828900 2.464800
1.840300 2.462100
1.851600 2.451200
1.863000 2.398600
1.874300 2.349100
1.885700 2.324500
1.897100 2.316800
1.908400 2.315500
1.919800 2.314300
1.931200 2.317300
1.942500 2.320600
1.953900 2.323700
1.965200 2.326900
1.976600 2.331400
1.988000 2.336200
1.999300 2.341900
2.010700 2.351500
2.022000 2.364000
2.033400 2.380900
2.044800 2.402100
2.056100 2.430500
2.067500 2.464600
2.078900 2.503000
2.090200 2.545600
2.101600 2.590000
2.112900 2.635700
2.124300 2.679800
2.135700 2.724900
2.147000 2.774600
2.158400 2.825500
2.169800 2.876200
2.181100 2.926700
2.192500 2.974000
2.203800 3.001500
2.215200 2.984800
2.226600 2.966000
2.237900 2.938700
2.249300 2.904800
2.260600 2.835900
2.272000 2.724300
2.283400 2.662700
2.294700 2.612700
2.306100 2.577100
2.317500 2.434200
2.328800 2.220300
2.340200 2.114300
2.351500 2.043800
2.362900 2.006500
2.374300 1.978800
2.385600 1.953300
2.397000 1.930900
2.408400 1.916600
2.419700 1.913400
2.431100 1.918700
2.442400 1.932600
2.453800 1.964900
2.465200 2.007900
2.476500 2.058200
2.487900 2.105800
2.499200 2.290400
2.510600 2.431800
2.522000 2.594600
2.533300 2.776100
2.544700 2.904500
2.556100 2.957800
2.567400 2.954700
2.578800 2.961500
2.590100 2.945100
2.601500 2.925900
2.612900 2.905500
2.624200 2.891600
2.635600 2.892300
2.647000 2.891100
2.658300 2.869000
2.669700 2.815600
2.681000 2.747600
2.692400 2.680000
2.703800 2.582700
2.715100 2.596800
2.726500 2.635200
2.737800 2.682500
2.749200 2.740500
2.760600 2.824400
2.771900 2.911600
2.783300 2.957700
2.794700 2.994500
2.806000 3.047300
2.817400 3.110000
2.828700 3.187100
2.840100 3.236000
2.851500 3.248600
2.862800 3.273500
2.874200 3.278400
2.885600 3.227200
2.896900 3.182800
2.908300 3.140300
2.919600 3.107400
2.931000 3.091800
2.942400 3.086900
2.953700 3.090100
2.965100 3.058900
2.976400 3.049200
2.987800 3.027500
2.999200 2.993600
3.010500 2.991500
3.021900 2.988300
3.033300 2.968800
3.044600 2.939600
3.056000 2.913400
3.067300 2.888400
3.078700 2.848600
3.090100 2.807600
3.101400 2.767300
3.112800 2.766400
3.124200 2.787700
3.135500 3.152300
3.146900 3.289800
3.158200 3.167100
3.169600 2.942700
3.181000 2.827500
3.192300 2.678000
3.203700 2.544000
3.215000 2.451200
3.226400 2.357100
3.237800 2.465300
3.249100 2.296700
3.260500 2.270800
3.271900 2.235000
3.283200 2.250500
3.294600 2.275600
3.305900 2.314100
3.317300 2.366700
3.328700 2.438900
3.340000 2.492800
3.351400 2.532700
3.362800 2.565900
3.374100 2.587700
3.385500 2.605100
3.396800 2.644800
3.408200 2.623800
3.419600 2.653700
3.430900 2.693600
3.442300 2.675900
3.453600 2.713900
3.465000 2.744300
3.476400 2.784500
3.487700 2.835100
3.499100 3.081000
3.510500 3.183400
3.521800 3.198600
3.533200 3.146100
3.544500 3.002300
3.555900 2.894900
3.567300 2.756200
3.578600 2.680600
3.590000 2.633600
3.601400 2.605200
3.612700 2.588900
3.624100 2.574500
3.635400 2.564400
3.646800 2.553600
3.658200 2.513800
3.669500 2.458000
3.680900 2.447300
3.692200 2.476500
3.703600 2.536500
3.715000 2.591200
3.726300 2.642500
3.737700 2.682000
3.749100 2.696200
3.760400 2.708700
3.771800 2.719300
3.783100 2.791900
3.794500 2.787700
3.805900 2.766400
3.817200 2.700500
3.828600 2.633500
3.840000 2.621600
3.851300 2.632400
3.862700 2.633200
3.874000 2.625600
3.885400 2.634600
3.896800 2.709400
3.908100 2.876000
3.919500 2.890700
3.930800 2.862900
3.942200 2.846800
3.953600 2.836700
3.964900 2.830600
3.976300 2.839900
3.987700 2.858700
3.999000 2.878700
4.010400 2.894500
4.021700 2.895000
4.033100 2.873900
4.044500 2.888400
4.055800 2.906800
4.067200 2.928500
4.078600 2.953100
4.089900 2.978600
4.101300 3.010500
4.112600 3.045700
4.124000 3.106100
4.135400 3.163900
4.146700 3.186700
4.158100 3.188100
4.169400 3.178400
4.180800 3.149300
4.192200 3.106200
4.203500 3.016800
4.214900 2.905400
4.226300 2.853400
4.237600 2.824500
4.249000 2.804400
4.260300 2.794500
4.271700 2.782200
4.283100 2.775300
4.294400 2.793700
4.305800 2.844300
4.317200 2.913300
4.328500 2.927800
4.339900 2.753100
4.351200 2.709500
4.362600 2.654800
4.374000 2.594900
4.385300 2.545500
4.396700 2.516000
4.408000 2.503900
4.419400 2.465500
4.430800 2.412800
4.442100 2.393100
4.453500 2.371200
4.464900 2.345900
