set title 'mp-1184857 - Density of States'
set xlabel 'Energy (eV)'
set ylabel 'DOS (states/eV)'
set grid
set xrange [-10:10]
set yrange [0:96.243]
set xzeroaxis lt -1
set terminal png size 800,600
set output 'mp-1184857_dos_gnuplot.png'
plot '-' using 1:2 with lines title 'DOS'
-8.700200 0.000000
-8.679600 0.000000
-8.658900 0.000000
-8.638200 0.000000
-8.617600 0.000000
-8.596900 0.000000
-8.576200 0.000000
-8.555600 0.000000
-8.534900 0.000000
-8.514200 0.000000
-8.493600 0.000000
-8.472900 0.000000
-8.452200 0.000000
-8.431600 0.000000
-8.410900 0.000000
-8.390200 0.000000
-8.369600 0.000000
-8.348900 0.000000
-8.328200 0.000000
-8.307500 0.000000
-8.286900 0.000000
-8.266200 0.000000
-8.245500 0.000000
-8.224900 0.000000
-8.204200 0.000000
-8.183500 0.000000
-8.162900 0.000000
-8.142200 0.000000
-8.121500 0.000000
-8.100900 0.000000
-8.080200 0.000000
-8.059500 0.000000
-8.038900 0.000000
-8.018200 0.000000
-7.997500 0.000000
-7.976900 0.000000
-7.956200 0.000000
-7.935500 0.000000
-7.914900 0.000000
-7.894200 0.000000
-7.873500 0.000000
-7.852800 0.000000
-7.832200 0.000000
-7.811500 0.000000
-7.790800 0.000000
-7.770200 0.000000
-7.749500 0.000000
-7.728800 0.000000
-7.708200 0.000000
-7.687500 0.000000
-7.666800 0.000000
-7.646200 0.000000
-7.625500 0.000000
-7.604800 0.000000
-7.584200 0.000000
-7.563500 0.000000
-7.542800 0.000000
-7.522200 0.000000
-7.501500 0.000000
-7.480800 0.000000
-7.460200 0.000000
-7.439500 0.000000
-7.418800 0.000000
-7.398100 0.000000
-7.377500 0.000000
-7.356800 0.000000
-7.336100 0.000000
-7.315500 0.000000
-7.294800 0.000000
-7.274100 0.000000
-7.253500 0.000000
-7.232800 0.000000
-7.212100 0.000000
-7.191500 0.000000
-7.170800 0.000000
-7.150100 0.000000
-7.129500 0.000000
-7.108800 0.000000
-7.088100 0.000000
-7.067500 0.000000
-7.046800 0.000000
-7.026100 0.000000
-7.005400 0.000000
-6.984800 0.000000
-6.964100 0.000000
-6.943400 0.000000
-6.922800 0.000000
-6.902100 0.000000
-6.881400 0.000000
-6.860800 0.000000
-6.840100 0.000000
-6.819400 0.048300
-6.798800 2.392900
-6.778100 4.556200
-6.757400 5.710700
-6.736800 7.975300
-6.716100 13.737900
-6.695400 18.672300
-6.674800 23.710300
-6.654100 30.863400
-6.633400 52.106500
-6.612800 42.594400
-6.592100 42.001600
-6.571400 34.263800
-6.550700 41.212400
-6.530100 35.322100
-6.509400 41.552400
-6.488700 51.364900
-6.468100 42.042000
-6.447400 41.224300
-6.426700 49.941800
-6.406100 69.155100
-6.385400 45.946600
-6.364700 38.398700
-6.344100 36.105200
-6.323400 41.597100
-6.302700 64.741700
-6.282100 87.493600
-6.261400 55.780900
-6.240700 58.500500
-6.220100 75.472500
-6.199400 39.035000
-6.178700 35.971000
-6.158100 40.943600
-6.137400 35.200900
-6.116700 44.229200
-6.096000 33.002600
-6.075400 67.295400
-6.054700 32.288600
-6.034000 11.019300
-6.013400 4.791300
-5.992700 3.570000
-5.972000 1.598200
-5.951400 0.000000
-5.930700 0.000000
-5.910000 0.000000
-5.889400 0.000000
-5.868700 0.000000
-5.848000 0.000000
-5.827400 0.000000
-5.806700 0.000000
-5.786000 0.000000
-5.765400 0.000000
-5.744700 0.000000
-5.724000 0.000000
-5.703400 0.000000
-5.682700 0.000000
-5.662000 0.000000
-5.641300 0.000000
-5.620700 0.000000
-5.600000 0.000000
-5.579300 0.000000
-5.558700 0.000000
-5.538000 0.000000
-5.517300 0.000000
-5.496700 0.000000
-5.476000 0.000000
-5.455300 0.000000
-5.434700 0.000000
-5.414000 0.000000
-5.393300 0.000000
-5.372700 0.000000
-5.352000 0.000000
-5.331300 0.000000
-5.310700 0.000000
-5.290000 0.000000
-5.269300 0.000000
-5.248700 0.000000
-5.228000 0.000000
-5.207300 0.000000
-5.186600 0.000000
-5.166000 0.000000
-5.145300 0.000000
-5.124600 0.000000
-5.104000 0.000000
-5.083300 0.000000
-5.062600 0.000000
-5.042000 0.000000
-5.021300 0.000000
-5.000600 0.000000
-4.980000 0.000000
-4.959300 0.000000
-4.938600 0.000000
-4.918000 0.000000
-4.897300 0.000000
-4.876600 0.000000
-4.856000 0.000000
-4.835300 0.000000
-4.814600 0.000000
-4.794000 0.000000
-4.773300 0.000000
-4.752600 0.000000
-4.731900 0.000000
-4.711300 0.000000
-4.690600 0.000000
-4.669900 0.000000
-4.649300 0.000000
-4.628600 0.000000
-4.607900 0.000000
-4.587300 0.000000
-4.566600 0.000000
-4.545900 0.000000
-4.525300 0.000000
-4.504600 0.000000
-4.483900 0.000000
-4.463300 0.000000
-4.442600 0.000000
-4.421900 0.000000
-4.401300 0.000000
-4.380600 0.000000
-4.359900 0.000000
-4.339300 0.000000
-4.318600 0.000000
-4.297900 0.000000
-4.277200 0.000000
-4.256600 0.000000
-4.235900 0.000000
-4.215200 0.000000
-4.194600 0.000000
-4.173900 0.000000
-4.153200 0.000000
-4.132600 0.000000
-4.111900 0.000000
-4.091200 0.000000
-4.070600 0.000000
-4.049900 0.000000
-4.029200 0.000000
-4.008600 0.000000
-3.987900 0.000000
-3.967200 0.000000
-3.946600 0.000000
-3.925900 0.000000
-3.905200 0.000000
-3.884600 0.000000
-3.863900 0.000000
-3.843200 0.000000
-3.822500 0.000000
-3.801900 0.000000
-3.781200 0.000000
-3.760500 0.000000
-3.739900 0.000000
-3.719200 0.000000
-3.698500 0.000000
-3.677900 0.000000
-3.657200 0.000000
-3.636500 0.000000
-3.615900 0.000000
-3.595200 0.000000
-3.574500 0.000000
-3.553900 0.000000
-3.533200 0.000000
-3.512500 0.000000
-3.491900 0.000000
-3.471200 0.000000
-3.450500 0.000000
-3.429900 0.000000
-3.409200 0.000000
-3.388500 0.000000
-3.367800 0.000000
-3.347200 0.000000
-3.326500 0.000000
-3.305800 0.000000
-3.285200 0.000000
-3.264500 0.000000
-3.243800 0.000000
-3.223200 0.000000
-3.202500 0.000000
-3.181800 0.000000
-3.161200 0.000000
-3.140500 0.000000
-3.119800 0.000000
-3.099200 0.000000
-3.078500 0.000000
-3.057800 0.000000
-3.037200 0.000000
-3.016500 0.000000
-2.995800 0.000000
-2.975200 0.000000
-2.954500 0.000000
-2.933800 0.000000
-2.913100 0.000000
-2.892500 0.000000
-2.871800 0.000000
-2.851100 0.000000
-2.830500 0.000000
-2.809800 0.000000
-2.789100 0.000000
-2.768500 0.000000
-2.747800 0.000000
-2.727100 0.000000
-2.706500 0.000000
-2.685800 0.000000
-2.665100 0.000000
-2.644500 0.000000
-2.623800 0.000000
-2.603100 0.000000
-2.582500 0.000000
-2.561800 0.000000
-2.541100 0.000000
-2.520400 0.000000
-2.499800 0.000000
-2.479100 0.000000
-2.458400 0.000000
-2.437800 0.000000
-2.417100 0.000000
-2.396400 0.000000
-2.375800 0.000000
-2.355100 0.000000
-2.334400 0.000000
-2.313800 0.000000
-2.293100 0.000000
-2.272400 0.000000
-2.251800 0.000000
-2.231100 0.000000
-2.210400 0.000000
-2.189800 0.000000
-2.169100 0.000000
-2.148400 0.000000
-2.127800 0.000000
-2.107100 0.000000
-2.086400 0.000000
-2.065700 0.000000
-2.045100 0.000000
-2.024400 0.000000
-2.003700 0.000000
-1.983100 0.000000
-1.962400 0.000000
-1.941700 0.000000
-1.921100 0.000000
-1.900400 0.000000
-1.879700 0.000000
-1.859100 0.000000
-1.838400 0.000000
-1.817700 0.000000
-1.797100 0.000100
-1.776400 0.009700
-1.755700 0.035800
-1.735100 0.078500
-1.714400 0.119900
-1.693700 0.148000
-1.673100 0.155000
-1.652400 0.165200
-1.631700 0.177900
-1.611000 0.192400
-1.590400 0.208700
-1.569700 0.216900
-1.549000 0.230500
-1.528400 0.245100
-1.507700 0.260400
-1.487000 0.273400
-1.466400 0.282200
-1.445700 0.286800
-1.425000 0.289700
-1.404400 0.300000
-1.383700 0.309500
-1.363000 0.318500
-1.342400 0.326500
-1.321700 0.333500
-1.301000 0.339700
-1.280400 0.345900
-1.259700 0.352600
-1.239000 0.360100
-1.218400 0.368200
-1.197700 0.376600
-1.177000 0.385500
-1.156300 0.394900
-1.135700 0.404700
-1.115000 0.412000
-1.094300 0.418200
-1.073700 0.424200
-1.053000 0.430100
-1.032300 0.435500
-1.011700 0.439300
-0.991000 0.443600
-0.970300 0.448500
-0.949700 0.453700
-0.929000 0.458900
-0.908300 0.464000
-0.887700 0.469300
-0.867000 0.474800
-0.846300 0.480100
-0.825700 0.486800
-0.805000 0.492800
-0.784300 0.499000
-0.763700 0.505400
-0.743000 0.512000
-0.722300 0.518900
-0.701600 0.526000
-0.681000 0.533000
-0.660300 0.540200
-0.639600 0.547400
-0.619000 0.554100
-0.598300 0.558100
-0.577600 0.562100
-0.557000 0.565600
-0.536300 0.570000
-0.515600 0.574500
-0.495000 0.578900
-0.474300 0.583400
-0.453600 0.588000
-0.433000 0.592900
-0.412300 0.597900
-0.391600 0.603000
-0.371000 0.608700
-0.350300 0.614700
-0.329600 0.620900
-0.309000 0.627200
-0.288300 0.633600
-0.267600 0.640200
-0.246900 0.646800
-0.226300 0.653500
-0.205600 0.660300
-0.184900 0.667200
-0.164300 0.675600
-0.143600 0.686800
-0.122900 0.697100
-0.102300 0.706500
-0.081600 0.716000
-0.060900 0.724400
-0.040300 0.731800
-0.019600 0.747700
0.001100 0.760300
0.021700 0.767300
0.042400 0.766900
0.063100 0.760400
0.083700 0.757500
0.104400 0.751800
0.125100 0.751200
0.145700 0.750900
0.166400 0.751300
0.187100 0.752000
0.207800 0.753000
0.228400 0.754300
0.249100 0.756200
0.269800 0.758500
0.290400 0.761300
0.311100 0.764500
0.331800 0.781100
0.352400 0.791000
0.373100 0.796500
0.393800 0.810100
0.414400 0.824400
0.435100 0.834800
0.455800 0.843900
0.476400 0.851100
0.497100 0.856100
0.517800 0.859500
0.538400 0.863500
0.559100 0.867900
0.579800 0.872300
0.600400 0.875900
0.621100 0.878500
0.641800 0.887100
0.662500 0.878100
0.683100 0.885600
0.703800 0.889100
0.724500 0.898000
0.745100 0.916400
0.765800 0.941300
0.786500 0.970800
0.807100 1.003300
0.827800 1.036400
0.848500 1.025000
0.869100 0.954200
0.889800 0.891100
0.910500 0.881300
0.931100 0.845600
0.951800 0.825300
0.972500 0.803500
0.993100 0.780100
1.013800 0.755200
1.034500 0.731700
1.055100 0.726400
1.075800 0.727600
1.096500 0.713300
1.117200 0.698700
1.137800 0.685400
1.158500 0.699600
1.179200 0.718200
1.199800 0.739200
1.220500 0.762500
1.241200 0.788400
1.261800 0.821500
1.282500 0.853000
1.303200 0.876600
1.323800 0.893000
1.344500 0.908500
1.365200 0.927500
1.385800 0.948000
1.406500 0.970200
1.427200 0.994200
1.447800 1.025900
1.468500 1.085600
1.489200 1.116200
1.509800 1.190900
1.530500 1.386700
1.551200 1.215700
1.571900 1.217900
1.592500 1.219100
1.613200 1.205300
1.633900 1.202500
1.654500 1.204500
1.675200 1.204500
1.695900 1.202300
1.716500 1.194300
1.737200 1.223800
1.757900 1.237000
1.778500 1.216200
1.799200 1.197100
1.819900 1.181300
1.840500 1.168200
1.861200 1.157700
1.881900 1.151600
1.902500 1.145000
1.923200 1.137800
1.943900 1.115100
1.964600 1.086900
1.985200 1.017100
2.005900 0.971500
2.026600 0.935000
2.047200 0.919800
2.067900 0.913800
2.088600 0.908500
2.109200 0.903800
2.129900 0.898800
2.150600 0.895300
2.171200 0.894000
2.191900 0.894700
2.212600 0.897300
2.233200 0.935700
2.253900 0.955600
2.274600 0.975000
2.295200 0.993900
2.315900 1.012100
2.336600 1.029800
2.357200 1.039400
2.377900 1.037600
2.398600 1.034100
2.419300 1.026600
2.439900 1.021500
2.460600 1.019200
2.481300 1.020100
2.501900 1.025100
2.522600 1.032300
2.543300 1.040800
2.563900 1.049900
2.584600 1.059000
2.605300 1.067700
2.625900 1.076100
2.646600 1.084200
2.667300 1.091800
2.687900 1.099100
2.708600 1.121100
2.729300 1.138100
2.749900 1.160400
2.770600 1.207000
2.791300 1.256700
2.811900 1.229800
2.832600 1.239400
2.853300 1.260400
2.874000 1.290300
2.894600 1.367200
2.915300 1.430900
2.936000 1.511000
2.956600 1.581700
2.977300 1.621200
2.998000 1.681400
3.018600 1.584500
3.039300 1.580000
3.060000 1.577200
3.080600 1.569000
3.101300 1.554500
3.122000 1.555000
3.142600 1.568900
3.163300 1.584100
3.184000 1.590200
3.204600 1.585200
3.225300 1.579800
3.246000 1.573400
3.266600 1.562600
3.287300 1.548000
3.308000 1.565500
3.328700 1.545800
3.349300 1.520400
3.370000 1.492900
3.390700 1.501800
3.411300 1.489300
3.432000 1.469700
3.452700 1.433200
3.473300 1.407700
3.494000 1.397700
3.514700 1.395500
3.535300 1.390700
3.556000 1.386800
3.576700 1.382800
3.597300 1.377100
3.618000 1.372800
3.638700 1.368100
3.659300 1.361800
3.680000 1.357500
3.700700 1.352200
3.721300 1.349700
3.742000 1.349500
3.762700 1.363500
3.783400 1.406300
3.804000 1.341000
3.824700 1.364600
3.845400 1.358100
3.866000 1.362700
3.886700 1.440900
3.907400 1.452600
3.928000 1.426700
3.948700 1.438400
3.969400 1.447200
3.990000 1.511400
4.010700 1.537100
4.031400 1.579100
4.052000 1.585700
4.072700 1.605900
4.093400 1.617600
4.114000 1.613700
4.134700 1.594800
4.155400 1.540300
4.176000 1.530000
4.196700 1.525700
4.217400 1.524800
4.238100 1.529200
4.258700 1.537900
4.279400 1.544300
4.300100 1.532500
4.320700 1.533000
4.341400 1.505300
4.362100 1.514500
4.382700 1.502000
4.403400 1.485700
4.424100 1.496200
4.444700 1.518000
4.465400 1.544800
4.486100 1.574000
4.506700 1.628100
4.527400 1.700800
4.548100 1.807600
4.568700 1.898400
4.589400 2.131900
4.610100 2.316700
4.630700 2.420900
4.651400 2.532200
4.672100 2.668000
4.692800 2.843600
4.713400 2.733900
4.734100 2.643700
4.754800 2.745200
4.775400 2.993800
4.796100 2.909700
4.816800 2.637700
4.837400 2.429400
4.858100 2.256000
4.878800 2.211800
4.899400 2.256000
4.920100 2.222600
4.940800 2.180900
4.961400 2.146300
4.982100 2.091600
5.002800 2.178300
5.023400 2.442100
5.044100 2.909600
5.064800 3.251000
5.085400 3.873800
5.106100 4.147600
5.126800 4.238200
5.147500 4.443100
5.168100 6.504100
5.188800 5.398600
5.209500 5.196500
5.230100 5.045800
5.250800 4.869000
5.271500 4.489600
5.292100 4.310100
5.312800 4.668000
5.333500 4.476200
5.354100 5.265400
5.374800 6.114000
5.395500 9.465800
5.416100 9.537000
5.436800 8.683300
5.457500 9.003400
5.478100 9.620600
5.498800 9.438400
5.519500 8.467100
5.540100 8.101500
5.560800 8.595900
5.581500 9.323300
5.602200 8.403600
5.622800 6.741400
5.643500 6.717000
5.664200 7.191300
5.684800 6.386400
5.705500 4.987000
5.726200 4.243900
5.746800 3.743000
5.767500 3.655000
5.788200 4.234300
5.808800 4.293000
5.829500 4.427400
5.850200 4.735000
5.870800 5.070800
5.891500 6.474000
5.912200 7.265700
5.932800 8.331200
5.953500 8.476100
5.974200 5.459700
5.994800 4.719700
6.015500 4.155000
6.036200 3.658500
6.056900 3.419500
6.077500 3.263400
6.098200 3.064300
6.118900 2.557000
6.139500 2.218000
6.160200 3.479000
6.180900 5.624200
6.201500 5.289100
6.222200 5.156600
6.242900 5.730900
6.263500 6.542600
6.284200 6.249000
6.304900 5.330700
6.325500 4.530400
6.346200 4.142600
6.366900 3.774000
6.387500 3.471400
6.408200 3.259200
6.428900 3.149000
6.449600 3.433200
6.470200 3.128000
6.490900 2.980400
6.511600 2.832000
6.532200 2.557600
6.552900 2.425500
6.573600 2.306700
6.594200 2.206000
6.614900 2.131000
6.635600 2.067500
6.656200 2.014600
6.676900 2.020200
6.697600 2.064500
6.718200 2.122900
6.738900 2.331000
6.759600 2.352300
6.780200 2.355200
6.800900 2.226100
6.821600 2.180400
6.842200 2.119200
6.862900 2.031300
6.883600 1.967000
6.904300 1.924200
6.924900 1.878900
6.945600 1.820100
6.966300 1.764200
6.986900 1.709900
7.007600 1.656600
7.028300 1.607800
7.048900 1.573000
7.069600 1.543600
7.090300 1.517300
7.110900 1.492800
7.131600 1.470100
7.152300 1.448200
7.172900 1.432200
7.193600 1.401100
7.214300 1.377700
7.234900 1.355800
7.255600 1.335300
7.276300 1.314700
7.296900 1.294000
7.317600 1.274000
7.338300 1.255400
7.359000 1.235600
7.379600 1.218700
7.400300 1.205500
7.421000 1.221800
7.441600 1.206400
7.462300 1.192600
7.483000 1.190900
7.503600 1.196700
7.524300 1.209800
7.545000 1.229300
7.565600 1.458600
7.586300 1.252200
7.607000 1.274400
7.627600 1.416600
7.648300 2.087400
7.669000 3.177300
7.689600 3.927600
7.710300 3.519900
7.731000 3.602900
7.751600 4.450700
7.772300 4.947000
7.793000 4.238100
7.813700 3.994900
7.834300 3.544200
7.855000 3.182400
7.875700 2.950100
7.896300 2.734600
7.917000 2.660100
7.937700 2.389200
7.958300 2.292200
7.979000 2.143400
7.999700 2.144300
8.020300 2.142600
8.041000 2.094900
8.061700 2.022600
8.082300 1.973500
8.103000 1.917300
8.123700 1.860500
8.144300 1.851000
8.165000 1.827900
8.185700 1.703000
8.206300 1.666500
8.227000 1.632000
8.247700 1.600100
8.268400 1.571100
8.289000 1.543800
8.309700 1.528900
8.330400 1.505300
8.351000 1.448100
8.371700 1.439900
8.392400 1.441800
8.413000 1.449100
8.433700 1.460300
8.454400 1.460500
8.475000 1.478200
8.495700 1.506500
8.516400 1.539100
8.537000 1.540600
8.557700 1.571800
8.578400 1.613800
8.599000 1.665200
8.619700 1.710100
8.640400 1.793400
8.661000 1.882700
8.681700 1.966800
8.702400 2.014800
8.723100 2.063500
8.743700 2.114400
8.764400 2.163700
8.785100 2.205700
8.805700 2.223000
8.826400 2.215900
8.847100 2.202300
8.867700 2.195700
8.888400 2.175400
8.909100 2.173700
8.929700 2.177800
8.950400 2.207900
8.971100 2.200300
8.991700 2.061800
9.012400 2.044600
9.033100 2.070200
9.053700 2.068600
9.074400 1.984900
9.095100 1.960800
9.115700 1.937900
9.136400 1.903300
9.157100 1.879800
9.177800 1.860000
9.198400 1.844600
9.219100 1.833400
9.239800 1.826700
9.260400 1.825600
9.281100 1.834700
9.301800 1.839800
9.322400 1.831300
9.343100 1.821600
9.363800 1.815300
9.384400 1.812500
9.405100 1.809600
9.425800 1.801600
9.446400 1.790400
9.467100 1.782200
9.487800 1.752700
9.508400 1.707700
9.529100 1.678200
9.549800 1.651900
9.570400 1.631700
9.591100 1.621400
9.611800 1.617100
9.632500 1.652700
9.653100 1.645400
9.673800 1.622400
9.694500 1.611000
9.715100 1.626900
9.735800 1.609600
9.756500 1.613700
9.777100 1.605500
9.797800 1.585000
9.818500 1.607400
9.839100 1.669900
9.859800 1.667100
9.880500 1.663100
9.901100 1.653800
9.921800 1.648700
9.942500 1.651600
9.963100 1.657400
9.983800 1.667200
10.004500 1.684800
10.025100 1.709700
10.045800 1.715500
10.066500 1.733400
10.087200 1.796100
10.107800 1.781600
10.128500 1.697300
10.149200 1.664200
10.169800 1.637600
10.190500 1.617400
10.211200 1.603700
10.231800 1.600500
10.252500 1.608900
10.273200 1.618800
10.293800 1.622300
10.314500 1.618500
10.335200 1.585800
10.355800 1.574400
10.376500 1.576800
10.397200 1.579500
10.417800 1.581500
10.438500 1.584000
10.459200 1.587400
10.479800 1.591300
10.500500 1.593900
10.521200 1.593600
10.541900 1.601400
10.562500 1.610800
10.583200 1.618900
10.603900 1.627400
10.624500 1.612200
10.645200 1.603200
10.665900 1.606900
10.686500 1.615000
10.707200 1.624600
10.727900 1.635900
10.748500 1.647500
10.769200 1.656900
10.789900 1.667200
10.810500 1.685300
10.831200 1.705200
10.851900 1.726900
10.872500 1.751200
10.893200 1.779700
10.913900 1.812700
10.934600 1.851600
10.955200 1.877600
10.975900 1.904100
10.996600 1.928900
11.017200 1.951600
11.037900 1.976500
11.058600 1.998500
11.079200 2.113500
11.099900 2.236900
11.120600 2.338300
11.141200 2.425400
11.161900 2.498800
11.182600 2.561800
11.203200 2.448800
11.223900 2.356900
11.244600 2.260400
11.265200 2.209900
11.285900 2.144300
11.306600 2.069900
11.327200 2.057600
11.347900 2.021900
11.368600 1.906700
11.389300 1.839900
11.409900 1.782400
11.430600 1.746700
11.451300 1.714200
11.471900 1.684800
11.492600 1.656100
11.513300 1.628200
11.533900 1.604400
11.554600 1.599000
11.575300 1.551900
11.595900 1.513400
11.616600 1.511200
11.637300 1.512500
11.657900 1.520800
11.678600 1.535000
11.699300 1.547200
11.719900 1.557500
11.740600 1.577100
11.761300 1.604500
11.781900 1.661500
11.802600 1.668400
11.823300 1.655100
11.844000 1.646600
11.864600 1.638100
11.885300 1.629900
11.906000 1.622100
11.926600 1.621000
11.947300 1.624100
11.968000 1.647100
11.988600 1.625800
12.009300 1.608500
12.030000 1.609400
12.050600 1.615000
12.071300 1.624800
12.092000 1.638900
12.112600 1.671800
12.133300 1.705200
12.154000 1.732300
12.174600 1.793100
12.195300 1.910600
12.216000 1.859000
12.236600 1.841700
12.257300 1.869700
12.278000 1.888900
12.298700 1.899500
12.319300 1.901900
12.340000 1.829300
12.360700 1.787200
12.381300 1.771500
12.402000 1.789600
12.422700 1.817200
12.443300 1.851300
12.464000 1.859100
12.484700 1.862800
12.505300 1.861000
12.526000 1.825800
12.546700 1.801900
12.567300 1.772100
12.588000 1.748800
12.608700 1.716900
12.629300 1.696700
12.650000 1.698900
12.670700 1.722600
12.691300 1.760200
12.712000 1.818800
12.732700 1.896500
12.753400 2.004800
12.774000 2.101700
12.794700 2.185900
12.815400 2.246300
12.836000 2.274900
12.856700 2.311300
12.877400 2.347600
12.898000 2.384600
12.918700 2.422800
12.939400 2.456400
12.960000 2.489800
12.980700 2.515700
13.001400 2.531400
13.022000 2.540500
13.042700 2.534500
13.063400 2.512800
13.084000 2.494000
13.104700 2.474100
13.125400 2.371100
13.146000 2.318400
13.166700 2.293300
13.187400 2.286700
13.208100 2.290300
