set title 'mp-1229101 - Density of States'
set xlabel 'Energy (eV)'
set ylabel 'DOS (states/eV)'
set grid
set xrange [-10:10]
set yrange [0:24.915]
set xzeroaxis lt -1
set terminal png size 800,600
set output 'mp-1229101_dos_gnuplot.png'
plot '-' using 1:2 with lines title 'DOS'
-10.272500 0.000000
-10.249700 0.000000
-10.226900 0.000000
-10.204100 0.000000
-10.181300 0.000000
-10.158500 0.000000
-10.135800 0.000000
-10.113000 0.000000
-10.090200 0.000000
-10.067400 0.000000
-10.044600 0.000000
-10.021800 0.000000
-9.999000 0.000000
-9.976200 0.000000
-9.953400 0.000000
-9.930700 0.000000
-9.907900 0.000000
-9.885100 0.000000
-9.862300 0.000000
-9.839500 0.000000
-9.816700 0.000000
-9.793900 0.000000
-9.771100 0.000000
-9.748300 0.000000
-9.725500 0.000000
-9.702800 0.000000
-9.680000 0.000000
-9.657200 0.000000
-9.634400 0.000000
-9.611600 0.000000
-9.588800 0.000000
-9.566000 0.000000
-9.543200 0.000000
-9.520400 0.000000
-9.497700 0.000000
-9.474900 0.000000
-9.452100 0.000000
-9.429300 0.000000
-9.406500 0.000000
-9.383700 0.000000
-9.360900 0.000000
-9.338100 0.000000
-9.315300 0.000000
-9.292600 0.000000
-9.269800 0.000000
-9.247000 0.000000
-9.224200 0.000000
-9.201400 0.000000
-9.178600 0.000000
-9.155800 0.000000
-9.133000 0.000000
-9.110200 0.000000
-9.087500 0.000000
-9.064700 0.000000
-9.041900 0.000000
-9.019100 0.000000
-8.996300 0.000000
-8.973500 0.000000
-8.950700 0.000000
-8.927900 0.000000
-8.905100 0.000000
-8.882300 0.000000
-8.859600 0.000000
-8.836800 0.000000
-8.814000 0.000000
-8.791200 0.000000
-8.768400 0.000000
-8.745600 0.000000
-8.722800 0.000000
-8.700000 0.000000
-8.677200 0.000000
-8.654500 0.000000
-8.631700 0.000000
-8.608900 0.000000
-8.586100 0.000000
-8.563300 0.000000
-8.540500 0.000000
-8.517700 0.000000
-8.494900 0.000000
-8.472100 0.000000
-8.449400 0.000000
-8.426600 0.000000
-8.403800 0.000000
-8.381000 0.000000
-8.358200 0.000000
-8.335400 0.000000
-8.312600 0.000000
-8.289800 0.000000
-8.267000 0.000000
-8.244200 0.000000
-8.221500 0.000000
-8.198700 0.001400
-8.175900 0.201000
-8.153100 0.401500
-8.130300 0.547300
-8.107500 0.726500
-8.084700 0.814500
-8.061900 0.935100
-8.039100 1.070700
-8.016400 1.223600
-7.993600 1.373700
-7.970800 1.521600
-7.948000 1.705600
-7.925200 1.906100
-7.902400 2.135500
-7.879600 2.430100
-7.856800 2.776700
-7.834000 3.167100
-7.811300 3.629400
-7.788500 4.533200
-7.765700 6.306000
-7.742900 6.869300
-7.720100 7.681500
-7.697300 8.031000
-7.674500 8.517300
-7.651700 9.739800
-7.628900 5.141800
-7.606200 2.233500
-7.583400 0.000000
-7.560600 0.000000
-7.537800 0.000000
-7.515000 0.000000
-7.492200 0.000000
-7.469400 0.000000
-7.446600 0.000000
-7.423800 0.000000
-7.401000 0.000000
-7.378300 0.000000
-7.355500 0.000000
-7.332700 0.000000
-7.309900 0.000000
-7.287100 0.000000
-7.264300 0.000000
-7.241500 0.000000
-7.218700 0.000000
-7.195900 0.000000
-7.173200 0.000000
-7.150400 0.000000
-7.127600 0.000000
-7.104800 0.000000
-7.082000 0.000000
-7.059200 0.000000
-7.036400 0.000000
-7.013600 0.000000
-6.990800 0.000000
-6.968100 0.000000
-6.945300 0.000000
-6.922500 0.000000
-6.899700 0.000000
-6.876900 0.000000
-6.854100 0.000000
-6.831300 0.000000
-6.808500 0.000000
-6.785700 0.000000
-6.763000 0.000000
-6.740200 0.000000
-6.717400 0.000000
-6.694600 0.000000
-6.671800 0.000000
-6.649000 0.000000
-6.626200 0.000000
-6.603400 0.000000
-6.580600 0.000000
-6.557800 0.000000
-6.535100 0.000000
-6.512300 0.000000
-6.489500 0.000000
-6.466700 0.000000
-6.443900 0.000000
-6.421100 0.000000
-6.398300 0.000000
-6.375500 0.000000
-6.352700 0.000000
-6.330000 0.000000
-6.307200 0.000000
-6.284400 0.000000
-6.261600 0.000000
-6.238800 0.000000
-6.216000 0.000000
-6.193200 0.000000
-6.170400 0.000000
-6.147600 0.000000
-6.124900 0.000000
-6.102100 0.000000
-6.079300 0.000000
-6.056500 0.000000
-6.033700 0.000000
-6.010900 0.000000
-5.988100 0.000000
-5.965300 0.000000
-5.942500 0.000000
-5.919800 0.000000
-5.897000 0.000000
-5.874200 0.000000
-5.851400 0.000000
-5.828600 0.000000
-5.805800 0.000000
-5.783000 0.000000
-5.760200 0.000000
-5.737400 0.000000
-5.714600 0.000000
-5.691900 0.000000
-5.669100 0.000000
-5.646300 0.000000
-5.623500 0.000000
-5.600700 0.000000
-5.577900 0.000000
-5.555100 0.000000
-5.532300 0.000000
-5.509500 0.000000
-5.486800 0.000000
-5.464000 0.000000
-5.441200 0.000000
-5.418400 0.000000
-5.395600 0.000000
-5.372800 0.000000
-5.350000 0.000000
-5.327200 0.000000
-5.304400 0.000000
-5.281700 0.000000
-5.258900 0.000000
-5.236100 0.000000
-5.213300 0.000000
-5.190500 0.000000
-5.167700 0.000000
-5.144900 0.000000
-5.122100 0.000000
-5.099300 0.000000
-5.076500 0.000000
-5.053800 0.000000
-5.031000 0.000000
-5.008200 0.000000
-4.985400 0.000000
-4.962600 0.000000
-4.939800 0.000000
-4.917000 0.000000
-4.894200 0.000000
-4.871400 0.000000
-4.848700 0.000000
-4.825900 0.000000
-4.803100 0.000000
-4.780300 0.000000
-4.757500 0.000000
-4.734700 0.000000
-4.711900 0.000000
-4.689100 0.000000
-4.666300 0.000000
-4.643600 0.000000
-4.620800 0.000000
-4.598000 0.000000
-4.575200 0.000000
-4.552400 0.000000
-4.529600 0.000000
-4.506800 0.000000
-4.484000 0.000000
-4.461200 0.000000
-4.438500 0.000000
-4.415700 0.000000
-4.392900 0.000000
-4.370100 0.000000
-4.347300 0.000000
-4.324500 0.000000
-4.301700 0.000000
-4.278900 0.000000
-4.256100 0.000000
-4.233300 0.000000
-4.210600 0.000000
-4.187800 0.000000
-4.165000 0.000000
-4.142200 0.000000
-4.119400 0.000000
-4.096600 0.000000
-4.073800 0.000000
-4.051000 0.000000
-4.028200 0.000000
-4.005500 0.000000
-3.982700 0.000000
-3.959900 0.000000
-3.937100 0.000000
-3.914300 0.000000
-3.891500 0.000000
-3.868700 0.000000
-3.845900 0.000000
-3.823100 0.000000
-3.800400 0.000000
-3.777600 0.000000
-3.754800 0.000000
-3.732000 0.000000
-3.709200 0.000000
-3.686400 0.000000
-3.663600 0.000000
-3.640800 0.000000
-3.618000 0.000000
-3.595300 0.000000
-3.572500 0.000000
-3.549700 0.000000
-3.526900 0.000000
-3.504100 0.000000
-3.481300 0.000000
-3.458500 0.000000
-3.435700 0.000000
-3.412900 0.000000
-3.390100 0.000000
-3.367400 0.000000
-3.344600 0.000000
-3.321800 0.000000
-3.299000 0.000000
-3.276200 0.000000
-3.253400 0.000000
-3.230600 0.000000
-3.207800 0.000000
-3.185000 0.000000
-3.162300 0.000000
-3.139500 0.000000
-3.116700 0.000000
-3.093900 0.000000
-3.071100 0.000000
-3.048300 0.000000
-3.025500 0.000000
-3.002700 0.000000
-2.979900 0.000000
-2.957200 0.000000
-2.934400 0.000000
-2.911600 0.000000
-2.888800 0.000000
-2.866000 0.000000
-2.843200 0.000000
-2.820400 0.000000
-2.797600 0.000000
-2.774800 0.000000
-2.752100 0.000000
-2.729300 0.000000
-2.706500 0.000000
-2.683700 0.000000
-2.660900 0.000000
-2.638100 0.000000
-2.615300 0.000000
-2.592500 0.000000
-2.569700 0.000000
-2.546900 0.000000
-2.524200 0.000000
-2.501400 0.000000
-2.478600 0.000000
-2.455800 0.000000
-2.433000 0.000000
-2.410200 0.000000
-2.387400 0.000000
-2.364600 0.000000
-2.341800 0.000000
-2.319100 0.000000
-2.296300 0.000000
-2.273500 0.000000
-2.250700 0.000000
-2.227900 0.000000
-2.205100 0.000000
-2.182300 0.122400
-2.159500 0.437100
-2.136700 0.657700
-2.114000 0.729300
-2.091200 0.868600
-2.068400 1.083100
-2.045600 1.148900
-2.022800 1.294300
-2.000000 1.433600
-1.977200 1.577400
-1.954400 1.727600
-1.931600 1.941800
-1.908800 2.429500
-1.886100 2.880100
-1.863300 3.139900
-1.840500 3.603100
-1.817700 4.109100
-1.794900 4.544600
-1.772100 4.857200
-1.749300 5.430400
-1.726500 5.356700
-1.703700 4.875700
-1.681000 4.944000
-1.658200 5.130400
-1.635400 5.571900
-1.612600 5.852400
-1.589800 6.780800
-1.567000 7.567500
-1.544200 6.852800
-1.521400 6.114400
-1.498600 5.757300
-1.475900 5.633300
-1.453100 5.538600
-1.430300 11.861400
-1.407500 11.580600
-1.384700 10.403700
-1.361900 9.825900
-1.339100 8.767700
-1.316300 8.381400
-1.293500 8.627200
-1.270800 9.352500
-1.248000 8.835200
-1.225200 8.682200
-1.202400 8.299700
-1.179600 6.776900
-1.156800 5.763000
-1.134000 5.296100
-1.111200 4.504200
-1.088400 4.416700
-1.065600 4.362900
-1.042900 4.980700
-1.020100 5.695500
-0.997300 5.842400
-0.974500 5.104100
-0.951700 6.248400
-0.928900 6.678800
-0.906100 7.434900
-0.883300 8.294900
-0.860500 8.418400
-0.837800 8.695500
-0.815000 8.860500
-0.792200 8.102600
-0.769400 7.791000
-0.746600 7.673500
-0.723800 7.842000
-0.701000 12.148500
-0.678200 15.056100
-0.655400 18.069100
-0.632700 14.817700
-0.609900 9.831700
-0.587100 5.330800
-0.564300 4.851500
-0.541500 10.335000
-0.518700 15.702700
-0.495900 15.430000
-0.473100 12.627800
-0.450300 17.392700
-0.427600 19.175000
-0.404800 17.682000
-0.382000 17.273400
-0.359200 17.949200
-0.336400 19.460800
-0.313600 20.040400
-0.290800 21.006100
-0.268000 22.650000
-0.245200 19.170800
-0.222400 17.982800
-0.199700 17.535500
-0.176900 18.090800
-0.154100 17.859800
-0.131300 16.787600
-0.108500 14.840400
-0.085700 14.828900
-0.062900 11.783700
-0.040100 9.697900
-0.017300 6.034300
0.005400 5.153900
0.028200 4.923500
0.051000 4.814000
0.073800 4.734600
0.096600 4.657700
0.119400 4.632400
0.142200 4.751600
0.165000 4.797800
0.187800 4.390900
0.210500 3.904800
0.233300 3.765500
0.256100 3.716500
0.278900 3.647300
0.301700 3.474800
0.324500 2.863400
0.347300 2.251600
0.370100 1.903800
0.392900 1.736200
0.415700 1.734100
0.438400 1.762500
0.461200 1.733800
0.484000 1.706100
0.506800 1.680200
0.529600 1.652800
0.552400 1.624500
0.575200 1.609000
0.598000 1.601900
0.620800 1.704900
0.643500 1.814800
0.666300 1.945100
0.689100 2.058700
0.711900 2.530700
0.734700 1.619100
0.757500 1.392300
0.780300 1.259300
0.803100 1.212100
0.825900 1.242100
0.848600 1.317800
0.871400 1.477800
0.894200 1.590800
0.917000 1.631100
0.939800 1.653600
0.962600 1.693200
0.985400 1.725900
1.008200 1.747300
1.031000 1.771400
1.053700 1.775300
1.076500 1.755900
1.099300 1.781300
1.122100 1.803000
1.144900 1.820800
1.167700 1.835800
1.190500 1.879300
1.213300 1.935600
1.236100 1.915700
1.258900 1.946100
1.281600 1.947500
1.304400 1.940000
1.327200 2.037100
1.350000 2.126300
1.372800 2.175400
1.395600 2.234800
1.418400 2.115300
1.441200 2.153600
1.464000 2.198800
1.486700 2.233700
1.509500 2.259800
1.532300 2.295700
1.555100 2.401300
1.577900 2.323600
1.600700 2.315200
1.623500 2.287800
1.646300 2.235100
1.669100 2.214500
1.691800 2.200400
1.714600 2.197600
1.737400 2.169100
1.760200 2.169600
1.783000 2.174300
1.805800 2.168500
1.828600 2.146000
1.851400 2.109100
1.874200 2.075000
1.896900 2.063200
1.919700 2.053600
1.942500 2.042600
1.965300 2.022800
1.988100 2.011300
2.010900 1.998800
2.033700 1.981000
2.056500 1.961100
2.079300 1.929400
2.102100 1.918100
2.124800 1.907800
2.147600 1.898900
2.170400 1.891300
2.193200 1.891800
2.216000 1.892400
2.238800 1.886100
2.261600 1.877100
2.284400 1.871800
2.307200 1.869100
2.329900 1.863800
2.352700 1.853700
2.375500 1.840200
2.398300 1.827100
2.421100 1.813800
2.443900 1.806200
2.466700 1.806200
2.489500 1.805200
2.512300 1.801500
2.535000 1.795600
2.557800 1.788500
2.580600 1.784500
2.603400 1.789000
2.626200 1.798200
2.649000 1.775700
2.671800 1.783200
2.694600 1.794400
2.717400 1.789300
2.740100 1.768900
2.762900 1.741700
2.785700 1.712900
2.808500 1.684700
2.831300 1.658100
2.854100 1.633800
2.876900 1.608200
2.899700 1.578600
2.922500 1.546700
2.945300 1.515900
2.968000 1.487700
2.990800 1.454500
3.013600 1.405900
3.036400 1.347900
3.059200 1.289200
3.082000 1.229700
3.104800 1.169400
3.127600 1.097500
3.150400 1.025400
3.173100 0.956600
3.195900 0.900200
3.218700 0.857700
3.241500 0.821400
3.264300 0.785100
3.287100 0.747700
3.309900 0.705900
3.332700 0.660500
3.355500 0.618400
3.378200 0.587400
3.401000 0.550400
3.423800 0.512700
3.446600 0.474600
3.469400 0.437200
3.492200 0.400900
3.515000 0.365500
3.537800 0.331200
3.560600 0.300300
3.583400 0.274200
3.606100 0.224100
3.628900 0.187800
3.651700 0.165200
3.674500 0.165400
3.697300 0.170100
3.720100 0.131000
3.742900 0.091500
3.765700 0.000000
3.788500 0.000000
3.811200 0.000000
3.834000 0.000000
3.856800 0.000000
3.879600 0.000200
3.902400 0.003300
3.925200 0.007700
3.948000 0.013400
3.970800 0.020400
3.993600 0.029200
4.016300 0.042500
4.039100 0.060700
4.061900 0.083800
4.084700 0.111800
4.107500 0.123400
4.130300 0.140100
4.153100 0.159600
4.175900 0.181700
4.198700 0.206700
4.221400 0.234400
4.244200 0.263900
4.267000 0.289500
4.289800 0.314900
4.312600 0.341400
4.335400 0.371800
4.358200 0.403300
4.381000 0.436000
4.403800 0.472700
4.426600 0.517600
4.449300 0.577700
4.472100 0.593300
4.494900 0.601700
4.517700 0.631400
4.540500 0.666800
4.563300 0.693100
4.586100 0.712900
4.608900 0.739000
4.631700 0.761100
4.654400 0.793600
4.677200 0.799100
4.700000 0.794200
4.722800 0.795100
4.745600 0.812300
4.768400 0.829100
4.791200 0.846000
4.814000 0.867200
4.836800 0.889800
4.859500 0.913700
4.882300 0.938800
4.905100 0.965200
4.927900 0.992800
4.950700 1.046000
4.973500 1.120100
4.996300 1.217200
5.019100 1.271800
5.041900 1.302200
5.064600 1.333400
5.087400 1.360300
5.110200 1.382300
5.133000 1.451000
5.155800 1.449000
5.178600 1.575100
5.201400 1.418800
5.224200 1.325200
5.247000 1.291600
5.269800 1.276400
5.292500 1.222900
5.315300 1.217700
5.338100 1.216500
5.360900 1.215800
5.383700 1.269700
5.406500 1.275900
5.429300 1.322100
5.452100 1.378200
5.474900 1.440600
5.497600 1.514300
5.520400 1.626900
5.543200 1.773200
5.566000 1.762600
5.588800 1.815000
5.611600 1.814600
5.634400 1.767300
5.657200 1.691000
5.680000 1.614400
5.702700 1.587100
5.725500 1.458900
5.748300 1.381000
5.771100 1.298300
5.793900 1.234200
5.816700 1.219700
5.839500 1.232200
5.862300 1.247900
5.885100 1.241400
5.907800 1.215800
5.930600 1.193700
5.953400 1.189100
5.976200 1.235500
5.999000 1.291400
6.021800 1.120400
6.044600 1.048700
6.067400 1.016300
6.090200 1.002900
6.113000 0.996100
6.135700 0.996800
6.158500 1.000900
6.181300 1.013800
6.204100 1.060900
6.226900 1.071300
6.249700 1.087600
6.272500 1.104900
6.295300 1.086900
6.318100 1.086500
6.340800 1.096400
6.363600 1.113700
6.386400 1.024900
6.409200 1.024700
6.432000 1.024500
6.454800 1.024400
6.477600 1.024700
6.500400 1.024500
6.523200 1.024600
6.545900 1.022500
6.568700 1.040500
6.591500 1.007900
6.614300 0.977100
6.637100 0.953000
6.659900 0.977700
6.682700 0.980400
6.705500 0.989000
6.728300 1.002800
6.751100 1.019200
6.773800 1.065200
6.796600 1.103000
6.819400 1.106300
6.842200 1.113100
6.865000 1.123100
6.887800 1.140100
6.910600 1.150300
6.933400 1.183400
6.956200 1.224900
6.978900 1.269300
7.001700 1.327800
7.024500 1.400000
7.047300 1.454100
7.070100 1.535300
7.092900 1.613500
7.115700 1.631300
7.138500 1.672200
7.161300 1.721200
7.184000 1.779800
7.206800 1.845500
7.229600 1.968100
7.252400 2.076500
7.275200 2.030100
7.298000 2.065800
7.320800 2.329700
7.343600 2.256700
7.366400 2.134700
7.389100 2.123400
7.411900 1.966100
7.434700 1.819400
7.457500 1.787000
7.480300 1.778700
7.503100 1.916200
7.525900 1.763400
7.548700 1.739500
7.571500 1.734600
7.594300 1.723400
7.617000 1.699400
7.639800 1.682600
7.662600 1.688300
7.685400 1.716900
7.708200 1.761200
7.731000 1.828900
7.753800 1.877500
7.776600 1.975800
7.799400 2.100100
7.822100 2.290700
7.844900 2.458900
7.867700 2.656700
7.890500 2.800500
7.913300 2.907200
7.936100 2.931100
7.958900 2.823700
7.981700 2.738800
8.004500 2.647800
8.027200 2.542400
8.050000 2.390800
8.072800 2.320700
8.095600 2.400400
8.118400 2.684400
8.141200 2.500200
8.164000 2.433800
8.186800 2.363000
8.209600 2.303200
8.232300 2.252800
8.255100 2.211900
8.277900 2.223000
8.300700 2.138200
8.323500 2.036000
8.346300 1.941700
8.369100 1.892900
8.391900 1.874700
8.414700 1.895800
8.437500 1.906100
8.460200 1.873400
8.483000 1.791900
8.505800 1.636100
8.528600 1.579800
8.551400 1.545700
8.574200 1.517100
8.597000 1.493500
8.619800 1.475900
8.642600 1.459500
8.665300 1.443500
8.688100 1.422500
8.710900 1.411900
8.733700 1.394900
8.756500 1.378900
8.779300 1.374100
8.802100 1.373300
8.824900 1.343800
8.847700 1.357200
8.870400 1.376900
8.893200 1.399200
8.916000 1.459200
8.938800 1.478900
8.961600 1.510400
8.984400 1.547000
9.007200 1.578500
9.030000 1.605600
9.052800 1.626800
9.075500 1.611100
9.098300 1.595400
9.121100 1.579900
9.143900 1.564200
9.166700 1.556200
9.189500 1.537600
9.212300 1.517500
9.235100 1.523900
9.257900 1.567100
9.280700 1.551100
9.303400 1.607500
9.326200 1.405100
9.349000 1.378500
9.371800 1.524200
9.394600 1.391600
9.417400 1.344400
9.440200 1.312500
9.463000 1.304400
9.485800 1.306900
9.508500 1.315100
9.531300 1.322000
9.554100 1.326800
9.576900 1.325100
9.599700 1.312500
9.622500 1.215700
9.645300 1.170300
9.668100 1.144500
9.690900 1.142600
9.713600 1.154000
9.736400 1.166400
9.759200 1.180200
9.782000 1.199500
9.804800 1.214500
9.827600 1.262200
9.850400 1.343400
9.873200 1.465000
9.896000 1.557100
9.918800 1.618500
9.941500 1.671800
9.964300 1.739300
9.987100 1.868700
10.009900 1.839600
10.032700 1.716500
10.055500 1.735400
10.078300 1.746800
10.101100 1.758300
10.123900 1.761300
10.146600 1.769200
10.169400 1.776600
10.192200 1.789700
10.215000 1.799300
10.237800 2.043400
10.260600 1.912100
10.283400 1.943200
10.306200 1.991900
10.329000 2.025900
10.351700 2.062500
10.374500 2.143300
10.397300 2.235600
10.420100 2.321600
10.442900 2.368000
10.465700 2.341000
10.488500 2.545700
10.511300 2.251400
10.534100 2.247500
10.556800 2.236500
10.579600 2.251600
10.602400 2.417500
10.625200 2.334900
10.648000 2.173200
10.670800 2.103100
10.693600 2.031400
10.716400 1.874900
10.739200 1.737200
10.762000 1.618800
10.784700 1.497500
10.807500 1.379700
10.830300 1.279800
10.853100 1.215900
10.875900 1.196400
10.898700 1.179300
10.921500 1.176100
10.944300 1.187000
10.967100 1.207400
10.989800 1.223900
11.012600 1.232100
11.035400 1.244000
11.058200 1.264800
11.081000 1.297100
11.103800 1.338300
11.126600 1.380600
11.149400 1.466200
11.172200 1.553600
11.194900 1.634200
11.217700 1.742200
11.240500 1.759100
11.263300 1.792300
11.286100 1.804800
11.308900 1.849000
11.331700 1.896600
11.354500 1.938400
11.377300 1.955600
11.400000 1.949400
11.422800 1.938600
11.445600 1.902100
11.468400 1.847000
11.491200 1.789800
11.514000 1.797600
11.536800 1.712500
11.559600 1.712200
11.582400 1.652900
11.605200 1.609600
11.627900 1.586600
11.650700 1.689700
11.673500 1.739600
11.696300 1.549400
11.719100 1.538700
11.741900 1.596700
11.764700 1.617800
11.787500 1.626900
11.810300 1.668800
11.833000 1.660500
11.855800 1.700900
11.878600 1.706000
11.901400 1.725300
11.924200 2.103800
11.947000 2.351100
11.969800 1.935200
11.992600 1.652000
12.015400 1.695100
12.038100 1.790500
12.060900 1.862200
12.083700 1.877400
12.106500 1.877300
12.129300 1.883000
12.152100 1.912100
12.174900 1.945000
12.197700 1.980000
12.220500 2.013400
12.243300 2.073600
12.266000 2.083300
12.288800 2.027500
12.311600 2.024700
12.334400 2.023600
12.357200 2.036700
12.380000 2.055600
12.402800 2.043600
12.425600 2.013400
12.448400 1.974800
12.471100 1.934400
12.493900 1.938900
12.516700 2.019400
12.539500 1.783600
12.562300 1.728500
12.585100 1.686000
12.607900 1.644000
12.630700 1.587000
12.653500 1.546000
12.676200 1.503700
12.699000 1.492800
12.721800 1.493000
12.744600 1.508300
12.767400 1.547800
12.790200 1.611400
12.813000 1.672500
12.835800 1.750300
12.858600 1.848500
12.881300 1.919800
12.904100 1.979800
12.926900 1.996900
12.949700 1.995500
12.972500 2.008600
12.995300 2.027400
13.018100 2.061400
13.040900 2.087200
13.063700 2.092200
13.086500 2.137200
13.109200 2.197600
13.132000 2.290500
13.154800 2.413500
13.177600 2.521200
13.200400 2.654500
13.223200 2.768900
13.246000 2.777700
13.268800 2.821000
13.291600 2.826600
13.314300 2.715700
13.337100 2.640000
13.359900 2.607100
13.382700 2.552100
13.405500 2.523800
13.428300 2.530700
13.451100 2.516700
13.473900 2.502000
13.496700 2.497900
13.519400 2.534200
13.542200 2.548300
13.565000 2.577700
13.587800 2.606200
13.610600 2.574000
13.633400 2.441000
13.656200 2.298700
13.679000 2.235100
13.701800 2.196600
13.724500 2.173600
13.747300 2.168400
13.770100 2.156600
13.792900 2.034900
13.815700 1.924500
