set title 'mp-1077536 - Density of States'
set xlabel 'Energy (eV)'
set ylabel 'DOS (states/eV)'
set grid
set xrange [-10:10]
set yrange [0:151.623]
set xzeroaxis lt -1
set terminal png size 800,600
set output 'mp-1077536_dos_gnuplot.png'
plot '-' using 1:2 with lines title 'DOS'
-7.203100 0.000000
-7.188800 0.000000
-7.174600 0.000000
-7.160400 0.000000
-7.146100 0.000000
-7.131900 0.000000
-7.117700 0.000000
-7.103400 0.000000
-7.089200 0.000000
-7.075000 0.000000
-7.060800 0.000000
-7.046500 0.000000
-7.032300 0.000000
-7.018100 0.000000
-7.003800 0.000000
-6.989600 0.000000
-6.975400 0.000000
-6.961100 0.000000
-6.946900 0.000000
-6.932700 0.000000
-6.918400 0.000000
-6.904200 0.000000
-6.890000 0.000000
-6.875800 0.000000
-6.861500 0.000000
-6.847300 0.000000
-6.833100 0.000000
-6.818800 0.000000
-6.804600 0.000000
-6.790400 0.000000
-6.776100 0.000000
-6.761900 0.000000
-6.747700 0.000000
-6.733500 0.000000
-6.719200 0.000000
-6.705000 0.000000
-6.690800 0.000000
-6.676500 0.000000
-6.662300 0.000000
-6.648100 0.000000
-6.633800 0.000000
-6.619600 0.000000
-6.605400 0.000000
-6.591200 0.000000
-6.576900 0.000000
-6.562700 0.000000
-6.548500 0.000000
-6.534200 0.000000
-6.520000 0.000000
-6.505800 0.000000
-6.491500 0.000000
-6.477300 0.000000
-6.463100 0.000000
-6.448900 0.000000
-6.434600 0.000000
-6.420400 0.000000
-6.406200 0.000000
-6.391900 0.000000
-6.377700 0.000000
-6.363500 0.000000
-6.349200 0.000000
-6.335000 0.000000
-6.320800 0.000000
-6.306600 0.000000
-6.292300 0.000000
-6.278100 0.000000
-6.263900 0.000000
-6.249600 0.000000
-6.235400 0.000000
-6.221200 0.000000
-6.206900 0.000000
-6.192700 0.000000
-6.178500 0.000000
-6.164200 0.000000
-6.150000 0.000000
-6.135800 0.000000
-6.121600 0.000000
-6.107300 0.000000
-6.093100 0.000000
-6.078900 0.000000
-6.064600 0.000000
-6.050400 0.000000
-6.036200 0.000000
-6.021900 0.000000
-6.007700 0.000000
-5.993500 0.000000
-5.979300 0.000000
-5.965000 0.000000
-5.950800 0.000000
-5.936600 0.000000
-5.922300 0.000000
-5.908100 0.000100
-5.893900 0.015400
-5.879600 0.056400
-5.865400 0.123300
-5.851200 0.214200
-5.837000 0.298400
-5.822700 0.357100
-5.808500 0.390000
-5.794300 0.399600
-5.780000 0.407900
-5.765800 0.425000
-5.751600 0.451200
-5.737300 0.485500
-5.723100 0.522300
-5.708900 0.560100
-5.694700 0.598600
-5.680400 0.632600
-5.666200 0.660600
-5.652000 0.680100
-5.637700 0.692600
-5.623500 0.703600
-5.609300 0.715200
-5.595000 0.730900
-5.580800 0.750100
-5.566600 0.770600
-5.552300 0.792000
-5.538100 0.813300
-5.523900 0.834400
-5.509700 0.855400
-5.495400 0.876500
-5.481200 0.898400
-5.467000 0.921300
-5.452700 0.945200
-5.438500 1.059700
-5.424300 1.189300
-5.410000 1.306300
-5.395800 1.357600
-5.381600 1.333700
-5.367400 1.281800
-5.353100 1.232800
-5.338900 1.214700
-5.324700 1.216800
-5.310400 1.216500
-5.296200 1.215100
-5.282000 1.211600
-5.267700 1.203000
-5.253500 1.194000
-5.239300 1.184500
-5.225100 1.174700
-5.210800 1.164100
-5.196600 1.141300
-5.182400 1.119000
-5.168100 1.099600
-5.153900 1.087900
-5.139700 1.076000
-5.125400 1.130600
-5.111200 1.378400
-5.097000 1.518100
-5.082800 1.602400
-5.068500 1.663300
-5.054300 1.598400
-5.040100 1.614800
-5.025800 1.945200
-5.011600 2.223100
-4.997400 2.233000
-4.983100 2.232700
-4.968900 2.050900
-4.954700 1.891600
-4.940500 1.904400
-4.926200 1.915300
-4.912000 1.918400
-4.897800 1.916800
-4.883500 1.885600
-4.869300 1.871200
-4.855100 1.864900
-4.840800 1.861200
-4.826600 1.864400
-4.812400 1.874400
-4.798100 1.854100
-4.783900 1.827500
-4.769700 1.825000
-4.755500 1.817300
-4.741200 1.804100
-4.727000 1.803300
-4.712800 1.801100
-4.698500 1.798700
-4.684300 1.796200
-4.670100 1.793400
-4.655800 1.790600
-4.641600 1.787500
-4.627400 1.784200
-4.613200 1.770500
-4.598900 1.756400
-4.584700 1.744300
-4.570500 1.741200
-4.556200 1.746900
-4.542000 1.760500
-4.527800 1.770500
-4.513500 1.757500
-4.499300 1.747400
-4.485100 1.726000
-4.470900 1.691700
-4.456600 1.659900
-4.442400 1.625300
-4.428200 1.587700
-4.413900 1.550300
-4.399700 1.519600
-4.385500 1.496000
-4.371200 1.479700
-4.357000 1.466300
-4.342800 1.451900
-4.328600 1.436400
-4.314300 1.419800
-4.300100 1.406300
-4.285900 1.393600
-4.271600 1.382500
-4.257400 1.373000
-4.243200 1.362200
-4.228900 1.351400
-4.214700 1.342400
-4.200500 1.334800
-4.186200 1.327100
-4.172000 1.319200
-4.157800 1.305100
-4.143600 1.292800
-4.129300 1.286100
-4.115100 1.279700
-4.100900 1.273200
-4.086600 1.266400
-4.072400 1.259500
-4.058200 1.251700
-4.043900 1.245300
-4.029700 1.239800
-4.015500 1.235500
-4.001300 1.231900
-3.987000 1.228900
-3.972800 1.325400
-3.958600 1.362000
-3.944300 1.403800
-3.930100 1.450600
-3.915900 1.439700
-3.901600 1.567900
-3.887400 1.628200
-3.873200 1.692100
-3.859000 1.759500
-3.844700 1.767700
-3.830500 1.825000
-3.816300 1.949200
-3.802000 2.005000
-3.787800 2.049500
-3.773600 2.094000
-3.759300 2.098900
-3.745100 2.148400
-3.730900 2.193400
-3.716700 2.249900
-3.702400 2.307000
-3.688200 2.365200
-3.674000 2.429300
-3.659700 2.481000
-3.645500 2.546700
-3.631300 2.614100
-3.617000 2.699900
-3.602800 2.800100
-3.588600 2.901900
-3.574400 3.038900
-3.560100 3.170800
-3.545900 3.296800
-3.531700 3.424400
-3.517400 3.545900
-3.503200 3.674700
-3.489000 3.824900
-3.474700 4.059200
-3.460500 4.341800
-3.446300 4.569500
-3.432000 4.756100
-3.417800 4.914900
-3.403600 5.563000
-3.389400 5.832900
-3.375100 5.728000
-3.360900 5.395800
-3.346700 4.871000
-3.332400 4.556500
-3.318200 4.436100
-3.304000 4.401300
-3.289700 4.347400
-3.275500 4.309900
-3.261300 4.254500
-3.247100 4.190000
-3.232800 4.136600
-3.218600 4.100900
-3.204400 4.548800
-3.190100 4.347900
-3.175900 3.960700
-3.161700 3.922700
-3.147400 3.911300
-3.133200 3.948100
-3.119000 5.194400
-3.104800 5.608100
-3.090500 7.295000
-3.076300 4.022800
-3.062100 2.919100
-3.047800 1.799900
-3.033600 1.781300
-3.019400 1.757700
-3.005100 1.731200
-2.990900 1.704600
-2.976700 1.682700
-2.962500 1.660500
-2.948200 1.638900
-2.934000 1.600200
-2.919800 1.573100
-2.905500 1.562900
-2.891300 1.560700
-2.877100 1.558200
-2.862800 1.555600
-2.848600 1.552700
-2.834400 1.549800
-2.820100 1.546800
-2.805900 1.543600
-2.791700 1.540200
-2.777500 1.536400
-2.763200 1.532300
-2.749000 1.528000
-2.734800 1.523600
-2.720500 1.519000
-2.706300 1.514100
-2.692100 1.508700
-2.677800 1.503100
-2.663600 1.500600
-2.649400 1.498000
-2.635200 1.496600
-2.620900 1.494900
-2.606700 1.494900
-2.592500 1.492400
-2.578200 1.495100
-2.564000 1.498600
-2.549800 1.503000
-2.535500 1.507100
-2.521300 1.511200
-2.507100 1.515400
-2.492900 1.519800
-2.478600 1.524900
-2.464400 1.530600
-2.450200 1.536800
-2.435900 1.543400
-2.421700 1.550400
-2.407500 1.562700
-2.393200 1.577400
-2.379000 1.593000
-2.364800 1.610100
-2.350600 1.634300
-2.336300 1.656100
-2.322100 1.679500
-2.307900 1.699100
-2.293600 1.719500
-2.279400 1.741200
-2.265200 1.776300
-2.250900 1.808300
-2.236700 1.854800
-2.222500 1.882000
-2.208200 1.912900
-2.194000 1.951600
-2.179800 1.993100
-2.165600 2.038100
-2.151300 2.092100
-2.137100 2.151700
-2.122900 2.221400
-2.108600 2.327300
-2.094400 2.458200
-2.080200 2.617100
-2.065900 2.776000
-2.051700 2.890300
-2.037500 3.000900
-2.023300 3.869200
-2.009000 4.145700
-1.994800 4.226300
-1.980600 4.288200
-1.966300 4.676200
-1.952100 4.599100
-1.937900 3.292800
-1.923600 2.730500
-1.909400 2.253900
-1.895200 1.861400
-1.881000 1.523600
-1.866700 1.269500
-1.852500 1.167600
-1.838300 0.658700
-1.824000 0.040000
-1.809800 0.000000
-1.795600 0.000000
-1.781300 0.000000
-1.767100 0.000000
-1.752900 0.000000
-1.738700 0.000000
-1.724400 0.000000
-1.710200 0.000000
-1.696000 0.000000
-1.681700 0.000000
-1.667500 0.000000
-1.653300 0.000000
-1.639000 0.000000
-1.624800 0.000000
-1.610600 0.000000
-1.596400 0.000000
-1.582100 0.000000
-1.567900 0.000000
-1.553700 0.000000
-1.539400 0.000000
-1.525200 0.000000
-1.511000 0.000000
-1.496700 0.000000
-1.482500 0.000000
-1.468300 0.000000
-1.454000 0.000000
-1.439800 0.832900
-1.425600 33.336600
-1.411400 80.687100
-1.397100 91.133900
-1.382900 52.036800
-1.368700 52.495800
-1.354400 57.935600
-1.340200 63.964600
-1.326000 59.662400
-1.311700 78.023700
-1.297500 14.758800
-1.283300 88.993900
-1.269100 137.839000
-1.254800 34.925200
-1.240600 40.181900
-1.226400 46.387900
-1.212100 52.384300
-1.197900 48.948600
-1.183700 58.317000
-1.169400 40.803400
-1.155200 27.339000
-1.141000 21.161700
-1.126800 18.312000
-1.112500 21.704500
-1.098300 14.037500
-1.084100 11.289700
-1.069800 9.275200
-1.055600 7.589800
-1.041400 6.678700
-1.027100 5.301600
-1.012900 4.376800
-0.998700 4.198800
-0.984500 4.107100
-0.970200 3.982100
-0.956000 3.854800
-0.941800 3.741900
-0.927500 3.610200
-0.913300 3.299500
-0.899100 3.258200
-0.884800 3.264000
-0.870600 3.275900
-0.856400 3.286700
-0.842100 3.302100
-0.827900 3.325900
-0.813700 3.347600
-0.799500 3.365500
-0.785200 3.394100
-0.771000 3.518200
-0.756800 3.574800
-0.742500 3.573700
-0.728300 4.550200
-0.714100 4.795400
-0.699800 5.131600
-0.685600 4.418100
-0.671400 3.961300
-0.657200 5.311300
-0.642900 3.855600
-0.628700 1.903000
-0.614500 0.894600
-0.600200 0.728200
-0.586000 0.537100
-0.571800 0.430900
-0.557500 0.333200
-0.543300 0.243900
-0.529100 0.000000
-0.514900 0.000000
-0.500600 0.000000
-0.486400 0.000000
-0.472200 0.000000
-0.457900 0.000000
-0.443700 0.000000
-0.429500 0.001000
-0.415200 0.004700
-0.401000 0.011300
-0.386800 0.020700
-0.372600 0.032800
-0.358300 0.046100
-0.344100 0.060400
-0.329900 0.075700
-0.315600 0.091800
-0.301400 0.109000
-0.287200 0.127000
-0.272900 0.143800
-0.258700 0.158900
-0.244500 0.172500
-0.230300 0.184600
-0.216000 0.195800
-0.201800 0.207300
-0.187600 0.219000
-0.173300 0.230600
-0.159100 0.242000
-0.144900 0.253100
-0.130600 0.264000
-0.116400 0.274600
-0.102200 0.284900
-0.087900 0.295100
-0.073700 0.305100
-0.059500 0.314800
-0.045300 0.324400
-0.031000 0.333700
-0.016800 0.343200
-0.002600 0.352800
0.011700 0.364200
0.025900 0.378200
0.040100 0.394800
0.054400 0.413900
0.068600 0.435000
0.082800 0.457100
0.097000 0.480100
0.111300 0.504100
0.125500 0.529000
0.139700 0.554800
0.154000 0.597500
0.168200 0.639400
0.182400 0.677100
0.196700 0.710600
0.210900 0.732300
0.225100 0.743400
0.239300 0.753400
0.253600 0.762100
0.267800 0.770100
0.282000 0.778100
0.296300 0.784800
0.310500 0.790400
0.324700 0.814700
0.339000 0.842800
0.353200 0.872000
0.367400 0.902300
0.381600 0.921500
0.395900 0.926000
0.410100 0.931500
0.424300 0.939200
0.438600 0.951100
0.452800 0.970200
0.467000 0.990400
0.481300 1.011700
0.495500 1.034000
0.509700 1.057400
0.524000 1.081900
0.538200 1.107500
0.552400 1.127300
0.566600 1.145200
0.580900 1.166400
0.595100 1.191900
0.609300 1.224200
0.623600 1.266500
0.637800 1.310100
0.652000 1.355100
0.666300 1.395000
0.680500 1.432200
0.694700 1.481600
0.708900 1.522900
0.723200 1.559900
0.737400 1.598400
0.751600 1.620700
0.765900 1.642500
0.780100 1.663500
0.794300 1.684600
0.808600 1.702700
0.822800 1.716100
0.837000 1.724600
0.851200 1.728300
0.865500 1.727300
0.879700 1.723400
0.893900 1.717900
0.908200 1.715100
0.922400 1.713300
0.936600 1.712800
0.950900 1.714900
0.965100 1.711500
0.979300 1.707000
0.993500 1.701900
1.007800 1.698700
1.022000 1.697100
1.036200 1.695000
1.050500 1.692400
1.064700 1.689100
1.078900 1.681500
1.093200 1.674500
1.107400 1.675600
1.121600 1.864100
1.135800 2.072300
1.150100 2.870800
1.164300 2.726100
1.178500 2.229000
1.192800 2.274500
1.207000 2.322300
1.221200 2.428200
1.235500 2.460000
1.249700 2.496300
1.263900 2.537200
1.278200 2.586700
1.292400 2.695300
1.306600 2.813300
1.320800 2.941400
1.335100 3.079200
1.349300 3.326800
1.363500 3.066600
1.377800 3.073300
1.392000 3.080400
1.406200 3.094600
1.420500 3.112600
1.434700 3.055700
1.448900 3.070600
1.463100 4.537200
1.477400 4.545700
1.491600 3.774600
1.505800 3.713500
1.520100 3.680900
1.534300 3.822200
1.548500 3.769300
1.562800 3.667300
1.577000 3.308700
1.591200 3.116600
1.605400 3.145500
1.619700 3.070700
1.633900 2.925800
1.648100 2.784400
1.662400 2.633000
1.676600 2.729300
1.690800 2.471300
1.705100 2.182300
1.719300 2.141500
1.733500 2.167600
1.747700 2.186900
1.762000 2.207000
1.776200 2.224700
1.790400 2.250900
1.804700 2.267000
1.818900 2.274400
1.833100 2.369700
1.847400 2.475500
1.861600 2.336100
1.875800 2.355700
1.890100 2.400200
1.904300 2.466900
1.918500 2.456800
1.932700 2.361700
1.947000 2.327200
1.961200 2.320300
1.975400 2.335200
1.989700 2.375900
2.003900 2.421600
2.018100 2.458700
2.032400 2.404800
2.046600 2.353100
2.060800 2.201400
2.075000 2.215800
2.089300 2.202900
2.103500 2.161200
2.117700 2.082800
2.132000 2.078800
2.146200 2.041700
2.160400 2.010900
2.174700 1.991100
2.188900 1.977400
2.203100 1.975600
2.217300 2.022400
2.231600 2.132100
2.245800 2.193200
2.260000 2.267500
2.274300 2.322200
2.288500 2.375100
2.302700 2.452700
2.317000 2.550100
2.331200 2.630200
2.345400 2.706400
2.359600 2.764600
2.373900 2.782000
2.388100 2.784800
2.402300 2.779600
2.416600 2.766600
2.430800 2.745600
2.445000 2.717200
2.459300 2.670900
2.473500 2.652900
2.487700 2.640000
2.502000 2.571200
2.516200 2.549600
2.530400 2.553000
2.544600 2.600400
2.558900 2.973200
2.573100 3.266500
2.587300 3.577300
2.601600 3.232400
2.615800 3.231000
2.630000 3.392100
2.644300 3.287000
2.658500 3.277500
2.672700 3.236200
2.686900 3.199500
2.701200 3.130200
2.715400 3.103700
2.729600 3.076600
2.743900 3.040200
2.758100 2.992400
2.772300 2.974200
2.786600 2.913000
2.800800 2.838000
2.815000 2.752000
2.829200 2.671500
2.843500 2.592500
2.857700 2.544500
2.871900 2.528300
2.886200 2.518000
2.900400 2.518900
2.914600 2.525000
2.928900 2.534100
2.943100 2.545300
2.957300 2.564400
2.971500 2.577800
2.985800 2.593800
3.000000 2.741100
3.014200 2.791300
3.028500 2.848300
3.042700 2.829800
3.056900 2.870900
3.071200 2.910100
3.085400 2.942100
3.099600 2.957300
3.113800 2.951800
3.128100 2.926500
3.142300 2.903800
3.156500 3.016400
3.170800 3.186600
3.185000 3.043200
3.199200 2.618900
3.213500 2.540300
3.227700 2.458100
3.241900 2.465600
3.256200 2.509000
3.270400 2.814100
3.284600 2.738900
3.298800 2.671400
3.313100 2.585400
3.327300 2.377300
3.341500 2.395100
3.355800 2.413400
3.370000 2.533000
3.384200 2.596800
3.398500 2.638300
3.412700 2.680400
3.426900 2.921800
3.441100 3.591100
3.455400 3.770200
3.469600 3.893200
3.483800 4.176900
3.498100 4.114900
3.512300 4.147600
3.526500 3.947000
3.540800 3.728500
3.555000 3.265800
3.569200 3.084500
3.583400 3.030800
3.597700 3.499200
3.611900 3.573700
3.626100 3.668200
3.640400 3.811900
3.654600 3.956500
3.668800 4.090600
3.683100 4.146000
3.697300 4.106800
3.711500 4.034300
3.725700 4.114900
3.740000 4.152800
3.754200 4.142400
3.768400 4.031400
3.782700 3.933800
3.796900 3.841900
3.811100 4.143800
3.825400 3.835000
3.839600 3.492200
3.853800 3.090600
3.868100 2.807800
3.882300 2.687400
3.896500 2.683900
3.910700 2.694100
3.925000 2.709000
3.939200 2.756100
3.953400 2.787700
3.967700 2.847400
3.981900 2.909100
3.996100 3.086300
4.010400 3.121400
4.024600 3.156300
4.038800 3.108500
4.053000 3.183500
4.067300 3.291900
4.081500 3.455300
4.095700 3.622600
4.110000 3.709900
4.124200 3.786000
4.138400 3.847100
4.152700 3.869600
4.166900 3.587800
4.181100 3.462400
4.195300 3.336500
4.209600 3.341000
4.223800 3.470600
4.238000 3.698000
4.252300 3.781000
4.266500 3.723700
4.280700 3.710700
4.295000 3.693100
4.309200 3.704900
4.323400 3.691800
4.337600 3.751700
4.351900 3.664300
4.366100 3.662000
4.380300 3.684100
4.394600 3.728900
4.408800 3.781600
4.423000 3.970200
4.437300 4.436600
4.451500 4.447300
4.465700 4.327800
4.479900 4.232700
4.494200 4.164900
4.508400 3.991800
4.522600 3.782000
4.536900 4.255400
4.551100 3.362400
4.565300 3.234300
4.579600 3.158300
4.593800 3.097200
4.608000 3.047300
4.622300 2.964700
4.636500 2.899300
4.650700 2.831600
4.664900 2.823000
4.679200 2.836200
4.693400 2.922600
4.707600 3.017600
4.721900 3.126200
4.736100 3.275900
4.750300 3.515300
4.764600 3.808400
4.778800 4.168700
4.793000 4.410700
4.807200 4.963900
4.821500 5.487500
4.835700 5.376800
4.849900 4.913700
4.864200 4.387500
4.878400 4.240500
4.892600 3.850100
4.906900 3.740700
4.921100 3.689500
4.935300 3.651800
4.949500 3.685700
4.963800 3.556700
4.978000 3.507300
4.992200 3.549200
5.006500 3.675600
5.020700 3.800500
5.034900 4.087400
5.049200 4.055000
5.063400 3.997600
5.077600 3.747200
5.091800 3.696600
5.106100 3.586300
5.120300 3.580400
5.134500 3.569400
5.148800 3.562200
5.163000 3.570500
5.177200 3.629000
5.191500 3.691400
5.205700 3.749900
5.219900 3.770900
5.234200 3.751000
5.248400 3.744800
5.262600 3.643500
5.276800 3.552100
5.291100 3.472700
5.305300 3.405400
5.319500 3.224500
5.333800 3.146200
5.348000 3.201000
5.362200 3.198200
5.376500 3.163100
5.390700 3.019700
5.404900 2.873400
5.419100 2.734900
5.433400 2.626100
5.447600 2.594900
5.461800 2.535200
5.476100 2.506300
5.490300 2.496400
5.504500 2.502600
5.518800 2.506600
5.533000 2.511200
5.547200 2.513300
5.561400 2.491400
5.575700 2.428500
5.589900 2.451300
5.604100 2.475700
5.618400 2.501700
5.632600 2.529300
5.646800 2.558500
5.661100 2.741100
5.675300 2.917700
5.689500 2.806200
5.703700 2.451600
5.718000 2.277700
5.732200 2.176700
5.746400 2.135200
5.760700 2.096000
5.774900 2.055800
5.789100 2.017900
5.803400 1.982100
5.817600 1.948800
5.831800 1.851500
5.846000 1.838400
5.860300 1.825200
5.874500 1.811400
5.888700 1.799500
5.903000 1.786500
5.917200 1.774200
5.931400 1.764600
5.945700 1.754400
5.959900 1.743900
5.974100 1.736800
5.988400 1.797400
6.002600 1.895400
6.016800 1.942200
6.031000 1.985800
6.045300 2.018000
6.059500 2.054600
6.073700 2.095500
6.088000 2.140800
6.102200 2.190300
6.116400 2.235800
6.130700 2.297100
6.144900 2.413600
6.159100 2.513500
6.173300 2.533500
6.187600 2.509900
6.201800 2.485500
6.216000 2.464500
6.230300 2.386700
6.244500 2.311800
6.258700 2.241700
6.273000 2.199600
6.287200 2.116200
6.301400 2.034500
6.315600 1.963300
6.329900 1.895900
6.344100 1.832300
6.358300 1.799500
6.372600 1.782600
6.386800 1.766100
6.401000 1.749800
6.415300 1.733800
6.429500 1.744600
6.443700 1.729500
6.457900 1.714700
6.472200 1.704000
6.486400 1.809200
6.500600 1.816500
6.514900 1.824300
6.529100 1.830100
6.543300 1.767900
6.557600 1.769700
6.571800 1.881700
6.586000 1.898400
6.600300 1.916200
6.614500 1.935000
6.628700 1.879400
6.642900 1.885600
6.657200 1.888800
6.671400 1.843600
6.685600 1.838400
6.699900 1.833300
6.714100 1.832900
6.728300 1.832100
6.742600 1.832800
6.756800 1.840100
6.771000 1.802900
6.785200 1.807900
6.799500 1.810100
6.813700 1.817900
6.827900 1.837800
6.842200 1.864500
6.856400 1.897900
6.870600 1.938100
6.884900 1.985000
6.899100 2.038600
6.913300 2.099000
6.927500 2.163200
6.941800 2.234100
6.956000 2.331600
6.970200 2.447200
6.984500 2.526800
6.998700 2.612400
7.012900 2.709900
7.027200 2.821200
7.041400 2.905500
7.055600 2.946900
7.069800 3.082300
7.084100 3.235800
7.098300 3.454800
7.112500 3.676700
7.126800 3.786900
7.141000 3.795600
7.155200 3.631800
7.169500 3.429000
7.183700 3.299300
7.197900 3.324300
7.212200 3.374700
7.226400 3.448800
7.240600 3.475600
7.254800 3.478600
7.269100 3.554000
7.283300 3.715400
7.297500 3.676500
7.311800 3.556500
7.326000 3.487800
7.340200 3.463400
7.354500 3.455000
7.368700 3.453600
7.382900 3.462500
7.397100 3.498700
7.411400 3.517100
7.425600 3.468000
7.439800 3.444500
7.454100 3.614800
7.468300 3.838200
7.482500 3.937500
7.496800 3.854900
7.511000 3.726000
7.525200 3.545800
7.539400 3.434500
7.553700 3.140700
7.567900 3.046400
7.582100 2.907800
7.596400 2.793300
7.610600 2.822600
7.624800 2.836000
7.639100 2.858800
7.653300 2.961300
7.667500 3.071300
7.681700 3.127400
7.696000 3.123200
7.710200 3.143800
7.724400 3.196500
7.738700 3.252900
7.752900 3.311900
7.767100 3.373700
7.781400 3.438400
7.795600 3.506300
7.809800 3.593400
7.824000 3.664000
7.838300 3.674900
7.852500 3.726000
7.866700 3.777800
7.881000 3.825800
7.895200 3.870400
7.909400 3.933200
7.923700 3.995900
7.937900 4.078000
