set title 'mp-1187503 - Density of States'
set xlabel 'Energy (eV)'
set ylabel 'DOS (states/eV)'
set grid
set xrange [-10:10]
set yrange [0:146.319]
set xzeroaxis lt -1
set terminal png size 800,600
set output 'mp-1187503_dos_gnuplot.png'
plot '-' using 1:2 with lines title 'DOS'
-9.415100 0.000000
-9.396800 0.000000
-9.378500 0.000000
-9.360100 0.000000
-9.341800 0.000000
-9.323500 0.000000
-9.305200 0.000000
-9.286900 0.000000
-9.268500 0.000000
-9.250200 0.000000
-9.231900 0.000000
-9.213600 0.000000
-9.195200 0.000000
-9.176900 0.000000
-9.158600 0.000000
-9.140300 0.000000
-9.122000 0.000000
-9.103600 0.000000
-9.085300 0.000000
-9.067000 0.000000
-9.048700 0.000000
-9.030300 0.000000
-9.012000 0.000000
-8.993700 0.000000
-8.975400 0.000000
-8.957100 0.000000
-8.938700 0.000000
-8.920400 0.000000
-8.902100 0.000000
-8.883800 0.000000
-8.865400 0.000000
-8.847100 0.000000
-8.828800 0.000000
-8.810500 0.000000
-8.792200 0.000000
-8.773800 0.000000
-8.755500 0.000000
-8.737200 0.000000
-8.718900 0.000000
-8.700500 0.000000
-8.682200 0.000000
-8.663900 0.000000
-8.645600 0.000000
-8.627300 0.000000
-8.608900 0.000000
-8.590600 0.000000
-8.572300 0.000000
-8.554000 0.000000
-8.535600 0.000000
-8.517300 0.000000
-8.499000 0.000000
-8.480700 0.000000
-8.462400 0.000000
-8.444000 0.000000
-8.425700 0.000000
-8.407400 0.000000
-8.389100 0.000000
-8.370800 0.000000
-8.352400 0.000000
-8.334100 0.000000
-8.315800 0.000000
-8.297500 0.000000
-8.279100 0.000000
-8.260800 0.000000
-8.242500 0.000000
-8.224200 0.000000
-8.205900 0.000000
-8.187500 0.000000
-8.169200 0.000000
-8.150900 0.000000
-8.132600 0.000000
-8.114200 0.000000
-8.095900 0.000000
-8.077600 0.000000
-8.059300 0.000000
-8.041000 0.000000
-8.022600 0.000000
-8.004300 0.000000
-7.986000 0.000000
-7.967700 0.000000
-7.949300 0.000000
-7.931000 0.000000
-7.912700 0.000000
-7.894400 0.000000
-7.876100 0.000000
-7.857700 0.000000
-7.839400 0.000000
-7.821100 0.000000
-7.802800 0.000000
-7.784400 0.000000
-7.766100 0.000000
-7.747800 3.081400
-7.729500 43.563600
-7.711200 54.034700
-7.692800 31.469500
-7.674500 19.257800
-7.656200 12.845600
-7.637900 9.764900
-7.619500 6.018100
-7.601200 5.173200
-7.582900 4.403200
-7.564600 3.818500
-7.546300 2.507900
-7.527900 2.046100
-7.509600 1.602500
-7.491300 1.141800
-7.473000 0.898200
-7.454700 0.703200
-7.436300 0.529700
-7.418000 0.404900
-7.399700 0.271000
-7.381400 0.127500
-7.363000 0.083300
-7.344700 0.048600
-7.326400 0.023200
-7.308100 0.007100
-7.289800 0.000300
-7.271400 0.000000
-7.253100 0.000000
-7.234800 0.000000
-7.216500 0.000000
-7.198100 0.006300
-7.179800 15.489100
-7.161500 33.311900
-7.143200 83.964600
-7.124900 87.287600
-7.106500 68.987800
-7.088200 60.261700
-7.069900 59.281000
-7.051600 12.903400
-7.033200 0.215800
-7.014900 24.545200
-6.996600 82.786700
-6.978300 91.677800
-6.960000 133.017600
-6.941600 69.369900
-6.923300 38.838200
-6.905000 0.267000
-6.886700 0.283100
-6.868300 0.300700
-6.850000 0.319700
-6.831700 0.340200
-6.813400 0.361700
-6.795100 0.379000
-6.776700 0.390000
-6.758400 0.394600
-6.740100 0.396900
-6.721800 0.403600
-6.703400 0.415500
-6.685100 0.429600
-6.666800 0.445300
-6.648500 0.461200
-6.630200 0.477100
-6.611800 0.493000
-6.593500 0.508900
-6.575200 0.524800
-6.556900 0.541100
-6.538500 0.558400
-6.520200 0.576600
-6.501900 0.594500
-6.483600 0.643000
-6.465300 0.696700
-6.446900 0.745400
-6.428600 0.789100
-6.410300 0.721300
-6.392000 0.730400
-6.373700 0.739000
-6.355300 0.747100
-6.337000 0.754900
-6.318700 0.762300
-6.300400 0.769200
-6.282000 0.774200
-6.263700 0.775100
-6.245400 0.776400
-6.227100 0.778100
-6.208800 0.785500
-6.190400 0.792800
-6.172100 0.800100
-6.153800 0.806800
-6.135500 0.812800
-6.117100 0.818200
-6.098800 0.882100
-6.080500 0.951500
-6.062200 1.026100
-6.043900 0.975100
-6.025500 0.988600
-6.007200 1.009200
-5.988900 1.030400
-5.970600 1.052200
-5.952200 1.074600
-5.933900 1.097600
-5.915600 1.111100
-5.897300 1.124700
-5.879000 1.138200
-5.860600 1.156900
-5.842300 1.177600
-5.824000 1.198500
-5.805700 1.219700
-5.787300 1.241100
-5.769000 1.262800
-5.750700 1.285300
-5.732400 1.307900
-5.714100 1.331100
-5.695700 1.347200
-5.677400 1.371400
-5.659100 1.397300
-5.640800 1.424400
-5.622400 1.452000
-5.604100 1.480500
-5.585800 1.510200
-5.567500 1.541100
-5.549200 1.572600
-5.530800 1.605000
-5.512500 1.638100
-5.494200 1.671700
-5.475900 1.707300
-5.457600 1.745800
-5.439200 1.786400
-5.420900 1.828000
-5.402600 1.871100
-5.384300 1.916100
-5.365900 1.967400
-5.347600 2.019600
-5.329300 2.083600
-5.311000 2.173000
-5.292700 2.286400
-5.274300 2.636500
-5.256000 2.866700
-5.237700 2.683000
-5.219400 2.651400
-5.201000 2.687400
-5.182700 2.716400
-5.164400 2.722500
-5.146100 2.677300
-5.127800 2.632300
-5.109400 2.611100
-5.091100 2.597000
-5.072800 2.586100
-5.054500 2.589400
-5.036100 2.607000
-5.017800 2.657200
-4.999500 3.474900
-4.981200 2.543200
-4.962900 2.444300
-4.944500 2.391900
-4.926200 2.354500
-4.907900 2.323400
-4.889600 2.296200
-4.871200 2.288800
-4.852900 2.293100
-4.834600 2.322700
-4.816300 2.490400
-4.798000 2.569400
-4.779600 2.566900
-4.761300 2.513900
-4.743000 2.474100
-4.724700 2.424500
-4.706300 2.375100
-4.688000 2.379300
-4.669700 2.402200
-4.651400 3.285600
-4.633100 2.776400
-4.614700 2.694100
-4.596400 2.781600
-4.578100 2.825300
-4.559800 2.841300
-4.541400 2.835900
-4.523100 2.824700
-4.504800 2.918900
-4.486500 3.397500
-4.468200 4.585400
-4.449800 3.706200
-4.431500 1.963200
-4.413200 0.946800
-4.394900 0.342100
-4.376600 0.036700
-4.358200 0.000000
-4.339900 0.000000
-4.321600 0.000000
-4.303300 0.000000
-4.284900 0.000000
-4.266600 0.000000
-4.248300 0.000000
-4.230000 0.000000
-4.211700 0.000000
-4.193300 0.000000
-4.175000 0.000000
-4.156700 0.000000
-4.138400 0.000000
-4.120000 0.000000
-4.101700 0.000000
-4.083400 0.000000
-4.065100 0.000000
-4.046800 0.000000
-4.028400 0.000000
-4.010100 0.000000
-3.991800 0.000000
-3.973500 0.000000
-3.955100 0.000000
-3.936800 0.000000
-3.918500 0.000000
-3.900200 0.000000
-3.881900 0.000000
-3.863500 0.000000
-3.845200 0.000000
-3.826900 0.000000
-3.808600 0.000000
-3.790200 0.000000
-3.771900 0.000000
-3.753600 0.000000
-3.735300 0.000000
-3.717000 0.000000
-3.698600 0.000000
-3.680300 0.000000
-3.662000 0.000000
-3.643700 0.000000
-3.625300 0.000000
-3.607000 0.000000
-3.588700 0.000000
-3.570400 0.000000
-3.552100 0.000000
-3.533700 0.000000
-3.515400 0.000000
-3.497100 0.000000
-3.478800 0.000000
-3.460400 0.000000
-3.442100 0.000000
-3.423800 0.000000
-3.405500 0.000000
-3.387200 0.000000
-3.368800 0.000000
-3.350500 0.000000
-3.332200 0.000000
-3.313900 0.000000
-3.295600 0.000000
-3.277200 0.000000
-3.258900 0.000000
-3.240600 0.000000
-3.222300 0.000000
-3.203900 0.000000
-3.185600 0.000000
-3.167300 0.000000
-3.149000 0.000000
-3.130700 0.000000
-3.112300 0.000000
-3.094000 0.000000
-3.075700 0.000000
-3.057400 0.000000
-3.039000 0.000000
-3.020700 0.000000
-3.002400 0.000000
-2.984100 0.000000
-2.965800 0.000000
-2.947400 0.000000
-2.929100 0.000000
-2.910800 0.000000
-2.892500 0.000000
-2.874100 0.000000
-2.855800 0.000000
-2.837500 0.000000
-2.819200 0.000000
-2.800900 0.000000
-2.782500 0.000000
-2.764200 0.000000
-2.745900 0.000000
-2.727600 0.000000
-2.709200 0.000000
-2.690900 0.000000
-2.672600 0.000000
-2.654300 0.000000
-2.636000 0.000000
-2.617600 0.000000
-2.599300 0.000000
-2.581000 0.000000
-2.562700 0.000000
-2.544300 0.000000
-2.526000 0.000000
-2.507700 0.000000
-2.489400 0.000000
-2.471100 0.000000
-2.452700 0.000000
-2.434400 0.000000
-2.416100 0.000000
-2.397800 0.000000
-2.379500 0.000000
-2.361100 0.000000
-2.342800 0.000000
-2.324500 1.308300
-2.306200 2.001900
-2.287800 2.432300
-2.269500 3.071900
-2.251200 3.541300
-2.232900 3.597000
-2.214600 3.847800
-2.196200 4.160000
-2.177900 4.232100
-2.159600 3.765500
-2.141300 3.198300
-2.122900 2.948900
-2.104600 2.938000
-2.086300 2.935900
-2.068000 2.385200
-2.049700 2.273200
-2.031300 2.179800
-2.013000 2.095500
-1.994700 2.205900
-1.976400 2.045000
-1.958000 1.899200
-1.939700 1.880100
-1.921400 1.886100
-1.903100 1.932400
-1.884800 2.096600
-1.866400 2.322600
-1.848100 2.654900
-1.829800 2.347800
-1.811500 2.314400
-1.793100 2.278200
-1.774800 2.242500
-1.756500 2.203700
-1.738200 2.159500
-1.719900 2.111900
-1.701500 2.061200
-1.683200 2.009800
-1.664900 1.958200
-1.646600 1.911600
-1.628200 1.823500
-1.609900 1.771000
-1.591600 1.765000
-1.573300 1.779200
-1.555000 1.783300
-1.536600 1.789000
-1.518300 1.790900
-1.500000 1.782000
-1.481700 1.744200
-1.463300 1.715600
-1.445000 1.696200
-1.426700 1.686000
-1.408400 1.684400
-1.390100 1.683700
-1.371700 1.690200
-1.353400 1.709700
-1.335100 1.741800
-1.316800 1.756200
-1.298500 1.742300
-1.280100 1.714900
-1.261800 1.657000
-1.243500 1.568100
-1.225200 1.456500
-1.206800 1.413400
-1.188500 1.366700
-1.170200 1.327700
-1.151900 1.290600
-1.133600 1.255500
-1.115200 1.222400
-1.096900 1.191400
-1.078600 1.162300
-1.060300 1.135000
-1.041900 1.110100
-1.023600 1.086800
-1.005300 1.065400
-0.987000 1.048500
-0.968700 1.032400
-0.950300 1.016800
-0.932000 1.001600
-0.913700 0.986600
-0.895400 0.971800
-0.877000 0.957100
-0.858700 0.942700
-0.840400 0.928500
-0.822100 0.914900
-0.803800 0.901600
-0.785400 0.888500
-0.767100 0.875500
-0.748800 0.862800
-0.730500 0.850300
-0.712100 0.837700
-0.693800 0.825100
-0.675500 0.812900
-0.657200 0.809600
-0.638900 0.796600
-0.620500 0.783700
-0.602200 0.771100
-0.583900 0.759200
-0.565600 0.747500
-0.547200 0.735800
-0.528900 0.723700
-0.510600 0.711900
-0.492300 0.700500
-0.474000 0.689400
-0.455600 0.678600
-0.437300 0.668100
-0.419000 0.664100
-0.400700 0.665100
-0.382400 0.665700
-0.364000 0.666000
-0.345700 0.658300
-0.327400 0.645200
-0.309100 0.632400
-0.290700 0.619900
-0.272400 0.607500
-0.254100 0.595300
-0.235800 0.728000
-0.217500 0.621300
-0.199100 0.519000
-0.180800 0.459400
-0.162500 0.456000
-0.144200 0.452600
-0.125800 0.449200
-0.107500 0.445900
-0.089200 0.442500
-0.070900 0.441900
-0.052600 0.439000
-0.034200 0.436200
-0.015900 0.433400
0.002400 0.430500
0.020700 0.427700
0.039100 0.424800
0.057400 0.421800
0.075700 0.418700
0.094000 0.415500
0.112300 0.412300
0.130700 0.408900
0.149000 0.405400
0.167300 0.401900
0.185600 0.398400
0.204000 0.395100
0.222300 0.392000
0.240600 0.389000
0.258900 0.386200
0.277200 0.383500
0.295600 0.382900
0.313900 0.383000
0.332200 0.383200
0.350500 0.383400
0.368900 0.383600
0.387200 0.383800
0.405500 0.383500
0.423800 0.380400
0.442100 0.377100
0.460500 0.373700
0.478800 0.371200
0.497100 0.368900
0.515400 0.366400
0.533800 0.363900
0.552100 0.361300
0.570400 0.358600
0.588700 0.355800
0.607000 0.352900
0.625400 0.415100
0.643700 0.393100
0.662000 0.370200
0.680300 0.346300
0.698600 0.325000
0.717000 0.318000
0.735300 0.341600
0.753600 0.386400
0.771900 0.436600
0.790300 0.491500
0.808600 0.550900
0.826900 0.598900
0.845200 0.627600
0.863500 0.651300
0.881900 0.671400
0.900200 0.702400
0.918500 0.735700
0.936800 0.772100
0.955200 1.048200
0.973500 1.384600
0.991800 1.844000
1.010100 2.043900
1.028400 2.149700
1.046800 2.255800
1.065100 2.372600
1.083400 2.505300
1.101700 2.608600
1.120100 2.450500
1.138400 2.197100
1.156700 2.075200
1.175000 2.037100
1.193300 1.989400
1.211700 1.945900
1.230000 1.900800
1.248300 1.845200
1.266600 1.799100
1.285000 1.768300
1.303300 1.752600
1.321600 1.670200
1.339900 1.664800
1.358200 1.666400
1.376600 1.674600
1.394900 1.689500
1.413200 1.710300
1.431500 1.735800
1.449900 1.766000
1.468200 1.803800
1.486500 1.854200
1.504800 1.906500
1.523100 1.959600
1.541500 2.021500
1.559800 2.104900
1.578100 2.211500
1.596400 2.371700
1.614700 2.455300
1.633100 2.392800
1.651400 2.405700
1.669700 2.430700
1.688000 2.456500
1.706400 2.479000
1.724700 2.497300
1.743000 2.498200
1.761300 2.590000
1.779600 2.660300
1.798000 2.714600
1.816300 2.763600
1.834600 2.809600
1.852900 2.912200
1.871300 3.016800
1.889600 3.092300
1.907900 3.086900
1.926200 2.972500
1.944500 2.965600
1.962900 2.912900
1.981200 2.872400
1.999500 2.928400
2.017800 3.053300
2.036200 3.147400
2.054500 4.081900
2.072800 3.576600
2.091100 3.145500
2.109400 2.884400
2.127800 2.725900
2.146100 2.758500
2.164400 3.011800
2.182700 2.942200
2.201100 2.922900
2.219400 2.916000
2.237700 2.929000
2.256000 2.852800
2.274300 2.880400
2.292700 2.913000
2.311000 2.941900
2.329300 3.122800
2.347600 3.231200
2.366000 3.342100
2.384300 3.647900
2.402600 3.789600
2.420900 3.922500
2.439200 3.887100
2.457600 4.490900
2.475900 4.266500
2.494200 4.044200
2.512500 4.003500
2.530900 3.930000
2.549200 3.932800
2.567500 3.926400
2.585800 3.925700
2.604100 3.955100
2.622500 3.980000
2.640800 4.041900
2.659100 4.088000
2.677400 3.932700
2.695700 3.711300
2.714100 3.712300
2.732400 3.789400
2.750700 3.903400
2.769000 4.095400
2.787400 4.551100
2.805700 5.273400
2.824000 7.667900
2.842300 8.759700
2.860600 5.589900
2.879000 4.859900
2.897300 4.358800
2.915600 4.153000
2.933900 4.016500
2.952300 3.893300
2.970600 3.777600
2.988900 3.687300
3.007200 3.603700
3.025500 3.527100
3.043900 3.452900
3.062200 3.383200
3.080500 3.337600
3.098800 3.302400
3.117200 3.232700
3.135500 3.152800
3.153800 3.096700
3.172100 3.039300
3.190400 2.960700
3.208800 2.853700
3.227100 2.735700
3.245400 2.610200
3.263700 2.498000
3.282100 2.412800
3.300400 2.337500
3.318700 2.270500
3.337000 2.199500
3.355300 2.130900
3.373700 2.067500
3.392000 2.005800
3.410300 1.932300
3.428600 1.875200
3.447000 1.797000
3.465300 1.728400
3.483600 1.667000
3.501900 1.601400
3.520200 1.551900
3.538600 1.496300
3.556900 1.443200
3.575200 1.392600
3.593500 1.345700
3.611800 1.313900
3.630200 1.283900
3.648500 1.258200
3.666800 1.230900
3.685100 1.200000
3.703500 1.169200
3.721800 1.196500
3.740100 1.148600
3.758400 1.097100
3.776700 1.041200
3.795100 0.980500
3.813400 0.927200
3.831700 0.889200
3.850000 0.851900
3.868400 0.815000
3.886700 0.777700
3.905000 0.741700
3.923300 0.714500
3.941600 0.691000
3.960000 0.667300
3.978300 0.639100
3.996600 0.596900
4.014900 0.549000
4.033300 0.499200
4.051600 0.450500
4.069900 0.402900
4.088200 0.355200
4.106500 0.318100
4.124900 0.288700
4.143200 0.247200
4.161500 0.195700
4.179800 0.110900
4.198200 0.050000
4.216500 0.013100
4.234800 0.000000
4.253100 0.000100
4.271400 0.000500
4.289800 0.001200
4.308100 0.002100
4.326400 0.003300
4.344700 0.004800
4.363100 0.006600
4.381400 0.008600
4.399700 0.010900
4.418000 0.013500
4.436300 0.016600
4.454700 0.020300
4.473000 0.024500
4.491300 0.029200
4.509600 0.034400
4.528000 0.040100
4.546300 0.046200
4.564600 0.052700
4.582900 0.059400
4.601200 0.066600
4.619600 0.074100
4.637900 0.081800
4.656200 0.089700
4.674500 0.097700
4.692800 0.106000
4.711200 0.114500
4.729500 0.123200
4.747800 0.132100
4.766100 0.141200
4.784500 0.150500
4.802800 0.160300
4.821100 0.170900
4.839400 0.181600
4.857700 0.193100
4.876100 0.205700
4.894400 0.218600
4.912700 0.231800
4.931000 0.245600
4.949400 0.261200
4.967700 0.278200
4.986000 0.296900
5.004300 0.316100
5.022600 0.335100
5.041000 0.354300
5.059300 0.373800
5.077600 0.393500
5.095900 0.413800
5.114300 0.433600
5.132600 0.452900
5.150900 0.472800
5.169200 0.493600
5.187500 0.516400
5.205900 0.691900
5.224200 0.855500
5.242500 1.015500
5.260800 1.170700
5.279200 1.287000
5.297500 1.402300
5.315800 1.526900
5.334100 1.660800
5.352400 1.806000
5.370800 1.969800
5.389100 2.153800
5.407400 2.300300
5.425700 2.366000
5.444100 2.432500
5.462400 2.486200
5.480700 2.520900
5.499000 2.539700
5.517300 2.544300
5.535700 2.581900
5.554000 2.645600
5.572300 2.718600
5.590600 2.795700
5.609000 2.863200
5.627300 2.910100
5.645600 2.951500
5.663900 2.980200
5.682200 2.997400
5.700600 3.004700
5.718900 3.025500
5.737200 3.171300
5.755500 3.436300
5.773800 3.601800
5.792200 3.710100
5.810500 3.800900
5.828800 3.886800
5.847100 3.954200
5.865500 4.041300
5.883800 4.120900
5.902100 4.731300
5.920400 4.123400
5.938700 4.059100
5.957100 4.023600
5.975400 3.913100
5.993700 3.782500
6.012000 3.632600
6.030400 3.450000
6.048700 3.373200
6.067000 3.292400
6.085300 3.291900
6.103600 3.241800
6.122000 3.079000
6.140300 3.016000
6.158600 2.658500
6.176900 2.523000
6.195300 2.412700
6.213600 2.331900
6.231900 2.263500
6.250200 2.194100
6.268500 2.123200
6.286900 2.332500
6.305200 2.082800
6.323500 1.946000
6.341800 1.793100
6.360200 1.664000
6.378500 1.601200
6.396800 1.541100
6.415100 1.483600
6.433400 1.429700
6.451800 1.380600
6.470100 1.338800
6.488400 1.313900
6.506700 1.290300
6.525100 1.268000
6.543400 1.247100
6.561700 1.227600
6.580000 1.209300
6.598300 1.192300
6.616700 1.166400
6.635000 1.130700
6.653300 1.107800
6.671600 1.011300
6.689900 0.939800
6.708300 0.882100
6.726600 0.835800
6.744900 0.791400
6.763200 0.747900
6.781600 0.705400
6.799900 0.663900
6.818200 0.623400
6.836500 0.583800
6.854800 0.545500
6.873200 0.508500
6.891500 0.472700
6.909800 0.438200
6.928100 0.404900
6.946500 0.374200
6.964800 0.376500
6.983100 0.499000
7.001400 0.462500
7.019700 0.413600
7.038100 0.372500
7.056400 0.324800
7.074700 0.263300
7.093000 0.188100
7.111400 0.013200
7.129700 0.000000
7.148000 0.000000
7.166300 0.000000
7.184600 0.000100
7.203000 0.003500
7.221300 0.011600
7.239600 0.024500
7.257900 0.042200
7.276300 0.064700
7.294600 0.092000
7.312900 0.124100
7.331200 0.147200
7.349500 0.168400
7.367900 0.190300
7.386200 0.210700
7.404500 0.229000
7.422800 0.245300
7.441200 0.259600
7.459500 0.271800
7.477800 0.282000
7.496100 0.290200
7.514400 0.328700
7.532800 0.511000
7.551100 0.602200
7.569400 0.677600
7.587700 0.759200
7.606100 0.869900
7.624400 0.997400
7.642700 1.061100
7.661000 1.178800
7.679300 1.317500
7.697700 1.714400
7.716000 2.652500
7.734300 5.088800
7.752600 4.929500
7.770900 6.978700
7.789300 5.441400
7.807600 4.205900
7.825900 4.117700
7.844200 4.066300
7.862600 4.030100
7.880900 4.040200
7.899200 4.288100
7.917500 4.572600
7.935800 4.828400
7.954200 5.051700
7.972500 5.278900
7.990800 5.499200
8.009100 5.667200
8.027500 6.769700
8.045800 5.475900
8.064100 5.184600
8.082400 4.748900
8.100700 3.519200
8.119100 2.921500
8.137400 2.495700
8.155700 2.390100
8.174000 2.391400
8.192400 2.362800
8.210700 2.404700
8.229000 2.465100
8.247300 2.545900
8.265600 2.741900
8.284000 2.981800
8.302300 3.441000
8.320600 3.671700
8.338900 3.826000
8.357300 3.756200
8.375600 3.667100
8.393900 3.654800
8.412200 3.662600
8.430500 3.677700
8.448900 3.773000
8.467200 3.909500
8.485500 4.108900
8.503800 4.347700
8.522200 4.057400
8.540500 1.996400
8.558800 1.656000
8.577100 1.603200
8.595400 1.637600
8.613800 1.670900
8.632100 1.713400
8.650400 1.747100
8.668700 1.771300
8.687000 1.736800
8.705400 1.736600
8.723700 1.734200
8.742000 1.709400
8.760300 1.692800
8.778700 1.727700
8.797000 1.821900
8.815300 1.918000
8.833600 1.941100
8.851900 1.941700
8.870300 2.270800
8.888600 2.374400
8.906900 2.487500
8.925200 2.604800
8.943600 2.765800
8.961900 2.920700
8.980200 3.111300
8.998500 3.382200
9.016800 3.744800
9.035200 4.590600
9.053500 5.481000
9.071800 5.686800
9.090100 5.974200
9.108500 5.449900
9.126800 5.154300
9.145100 4.759900
9.163400 4.243500
9.181700 3.835500
9.200100 3.606100
9.218400 3.474200
9.236700 3.392500
9.255000 3.214200
9.273400 3.194600
9.291700 3.179600
9.310000 3.125500
9.328300 3.064500
9.346600 2.906300
9.365000 2.857300
9.383300 2.793300
9.401600 2.714200
9.419900 2.633500
9.438300 2.558900
9.456600 2.533300
9.474900 2.469600
9.493200 2.500500
9.511500 2.500400
9.529900 2.478000
9.548200 2.464000
9.566500 2.447800
9.584800 2.398800
9.603200 2.703300
9.621500 2.287100
9.639800 2.253500
9.658100 2.226900
9.676400 2.196800
9.694800 2.161100
9.713100 2.138100
9.731400 2.110600
9.749700 2.083600
9.768000 2.083800
9.786400 2.081700
9.804700 2.077200
9.823000 2.092700
9.841300 2.091800
9.859700 2.095300
9.878000 2.100100
9.896300 2.106300
9.914600 2.113700
9.932900 2.122500
9.951300 2.131500
9.969600 2.145600
9.987900 2.171800
10.006200 2.207600
10.024600 2.258600
10.042900 2.369300
10.061200 2.566700
10.079500 2.791400
