set title 'mp-1186368 - Density of States'
set xlabel 'Energy (eV)'
set ylabel 'DOS (states/eV)'
set grid
set xrange [-10:10]
set yrange [0:10.588]
set xzeroaxis lt -1
set terminal png size 800,600
set output 'mp-1186368_dos_gnuplot.png'
plot '-' using 1:2 with lines title 'DOS'
-7.133900 0.000000
-7.110000 0.000000
-7.086100 0.000000
-7.062300 0.000000
-7.038400 0.000000
-7.014600 0.000000
-6.990700 0.000000
-6.966800 0.000000
-6.943000 0.000000
-6.919100 0.000000
-6.895300 0.000000
-6.871400 0.000000
-6.847500 0.000000
-6.823700 0.000000
-6.799800 0.000000
-6.776000 0.000000
-6.752100 0.000000
-6.728200 0.000000
-6.704400 0.000000
-6.680500 0.000000
-6.656700 0.000000
-6.632800 0.000000
-6.608900 0.000000
-6.585100 0.000000
-6.561200 0.000000
-6.537400 0.000000
-6.513500 0.000000
-6.489600 0.000000
-6.465800 0.000000
-6.441900 0.000000
-6.418100 0.000000
-6.394200 0.000000
-6.370300 0.000000
-6.346500 0.000000
-6.322600 0.000000
-6.298800 0.000000
-6.274900 0.000000
-6.251000 0.000000
-6.227200 0.000000
-6.203300 0.000000
-6.179500 0.000000
-6.155600 0.000000
-6.131700 0.000000
-6.107900 0.000000
-6.084000 0.000000
-6.060200 0.000000
-6.036300 0.000000
-6.012400 0.000000
-5.988600 0.000000
-5.964700 0.000000
-5.940900 0.000000
-5.917000 0.000000
-5.893100 0.000000
-5.869300 0.000000
-5.845400 0.000000
-5.821600 0.000000
-5.797700 0.000000
-5.773800 0.000000
-5.750000 0.000000
-5.726100 0.000000
-5.702300 0.000000
-5.678400 0.000000
-5.654500 0.000000
-5.630700 0.000000
-5.606800 0.000000
-5.583000 0.000000
-5.559100 0.000000
-5.535200 0.000000
-5.511400 0.000000
-5.487500 0.000000
-5.463700 0.000000
-5.439800 0.000000
-5.415900 0.000000
-5.392100 0.000000
-5.368200 0.000000
-5.344400 0.000000
-5.320500 0.000000
-5.296600 0.000000
-5.272800 0.000000
-5.248900 0.000000
-5.225100 0.000000
-5.201200 0.000000
-5.177300 0.000000
-5.153500 0.000000
-5.129600 0.000000
-5.105800 0.000000
-5.081900 0.000000
-5.058000 0.000400
-5.034200 0.002100
-5.010300 0.007800
-4.986500 0.020300
-4.962600 0.039400
-4.938700 0.063900
-4.914900 0.098500
-4.891000 0.151000
-4.867200 0.210600
-4.843300 0.233800
-4.819400 0.193100
-4.795600 0.135900
-4.771700 0.141000
-4.747900 0.226300
-4.724000 0.325500
-4.700100 0.368700
-4.676300 0.370600
-4.652400 0.385700
-4.628600 0.401500
-4.604700 0.360800
-4.580800 0.280300
-4.557000 0.244500
-4.533100 0.304300
-4.509300 0.429800
-4.485400 0.522100
-4.461500 0.526500
-4.437700 0.506000
-4.413800 0.512400
-4.390000 0.501900
-4.366100 0.455300
-4.342200 0.465400
-4.318400 0.595900
-4.294500 0.755400
-4.270700 0.824300
-4.246800 0.786900
-4.222900 0.677700
-4.199100 0.543400
-4.175200 0.462000
-4.151400 0.493800
-4.127500 0.639800
-4.103600 0.844500
-4.079800 1.017300
-4.055900 1.099700
-4.032100 1.096800
-4.008200 1.071300
-3.984300 1.118400
-3.960500 1.237000
-3.936600 1.311100
-3.912800 1.289100
-3.888900 1.188300
-3.865000 1.036900
-3.841200 0.982600
-3.817300 1.171400
-3.793500 1.455500
-3.769600 1.573800
-3.745700 1.540600
-3.721900 1.556600
-3.698000 1.720200
-3.674200 1.952500
-3.650300 2.094800
-3.626400 2.103900
-3.602600 2.094600
-3.578700 2.211700
-3.554900 2.528500
-3.531000 3.046700
-3.507100 3.774600
-3.483300 4.605400
-3.459400 5.239700
-3.435600 5.419400
-3.411700 4.955300
-3.387800 3.759100
-3.364000 2.194400
-3.340100 0.929000
-3.316300 0.274200
-3.292400 0.055000
-3.268500 0.007400
-3.244700 0.000700
-3.220800 0.000000
-3.197000 0.000000
-3.173100 0.000000
-3.149200 0.000000
-3.125400 0.000000
-3.101500 0.000000
-3.077700 0.000000
-3.053800 0.000000
-3.029900 0.000000
-3.006100 0.000000
-2.982200 0.000000
-2.958400 0.000000
-2.934500 0.000000
-2.910600 0.000000
-2.886800 0.000000
-2.862900 0.000000
-2.839100 0.000000
-2.815200 0.000000
-2.791300 0.000000
-2.767500 0.000000
-2.743600 0.000000
-2.719800 0.000000
-2.695900 0.000000
-2.672000 0.000000
-2.648200 0.000000
-2.624300 0.000000
-2.600500 0.000000
-2.576600 0.000000
-2.552700 0.000000
-2.528900 0.000000
-2.505000 0.000000
-2.481200 0.000000
-2.457300 0.000000
-2.433400 0.000000
-2.409600 0.000000
-2.385700 0.000000
-2.361900 0.000000
-2.338000 0.000000
-2.314100 0.000000
-2.290300 0.000000
-2.266400 0.000000
-2.242600 0.000000
-2.218700 0.000000
-2.194800 0.000000
-2.171000 0.000000
-2.147100 0.000000
-2.123300 0.000000
-2.099400 0.000000
-2.075500 0.000000
-2.051700 0.000000
-2.027800 0.000000
-2.004000 0.000000
-1.980100 0.000000
-1.956200 0.000000
-1.932400 0.000000
-1.908500 0.000000
-1.884700 0.000000
-1.860800 0.000000
-1.836900 0.000000
-1.813100 0.000000
-1.789200 0.000000
-1.765400 0.000000
-1.741500 0.000000
-1.717600 0.000000
-1.693800 0.000000
-1.669900 0.000000
-1.646100 0.000000
-1.622200 0.000000
-1.598300 0.000000
-1.574500 0.000000
-1.550600 0.000000
-1.526800 0.000000
-1.502900 0.000000
-1.479000 0.000000
-1.455200 0.000000
-1.431300 0.000000
-1.407500 0.000000
-1.383600 0.000000
-1.359700 0.000000
-1.335900 0.000000
-1.312000 0.000000
-1.288200 0.000000
-1.264300 0.000000
-1.240400 0.000000
-1.216600 0.000000
-1.192700 0.000000
-1.168900 0.000000
-1.145000 0.000000
-1.121100 0.000000
-1.097300 0.000000
-1.073400 0.000000
-1.049600 0.000000
-1.025700 0.000000
-1.001800 0.000000
-0.978000 0.000000
-0.954100 0.000000
-0.930300 0.000000
-0.906400 0.000000
-0.882500 0.000000
-0.858700 0.000000
-0.834800 0.000000
-0.811000 0.000000
-0.787100 0.000000
-0.763200 0.000000
-0.739400 0.000000
-0.715500 0.000000
-0.691700 0.000000
-0.667800 0.000000
-0.643900 0.000000
-0.620100 0.000000
-0.596200 0.000000
-0.572400 0.000000
-0.548500 0.000000
-0.524600 0.000000
-0.500800 0.000100
-0.476900 0.000800
-0.453100 0.003800
-0.429200 0.012100
-0.405300 0.027000
-0.381500 0.045800
-0.357600 0.063400
-0.333800 0.079900
-0.309900 0.109700
-0.286000 0.168900
-0.262200 0.225200
-0.238300 0.214800
-0.214500 0.140100
-0.190600 0.076300
-0.166700 0.083700
-0.142900 0.167000
-0.119000 0.277400
-0.095200 0.347800
-0.071300 0.362000
-0.047400 0.363700
-0.023600 0.386600
0.000300 0.403500
0.024100 0.379200
0.048000 0.344700
0.071900 0.372400
0.095700 0.491600
0.119600 0.657800
0.143400 0.814400
0.167300 0.986600
0.191200 1.264400
0.215000 1.604100
0.238900 1.785600
0.262700 1.807100
0.286600 2.017200
0.310500 2.510700
0.334300 2.850400
0.358200 2.680100
0.382000 2.207700
0.405900 1.927500
0.429800 2.076100
0.453600 2.458800
0.477500 2.788300
0.501300 2.966400
0.525200 3.000200
0.549100 2.890300
0.572900 2.654000
0.596800 2.421200
0.620600 2.359100
0.644500 2.398800
0.668400 2.300300
0.692200 2.046500
0.716100 1.841500
0.739900 1.767200
0.763800 1.713700
0.787700 1.545300
0.811500 1.274200
0.835400 1.088200
0.859200 1.117400
0.883100 1.262500
0.907000 1.330400
0.930800 1.259000
0.954700 1.157300
0.978500 1.136000
1.002400 1.175500
1.026300 1.221400
1.050100 1.304900
1.074000 1.460600
1.097800 1.597600
1.121700 1.570800
1.145600 1.397400
1.169400 1.237400
1.193300 1.133100
1.217100 1.017100
1.241000 0.930600
1.264900 0.967800
1.288700 1.092200
1.312600 1.182300
1.336400 1.188100
1.360300 1.160400
1.384200 1.181300
1.408000 1.318400
1.431900 1.578100
1.455700 1.847900
1.479600 2.024900
1.503500 2.190500
1.527300 2.427600
1.551200 2.629200
1.575000 2.716600
1.598900 2.808800
1.622800 2.978900
1.646600 3.048000
1.670500 2.913300
1.694300 2.861800
1.718200 3.157200
1.742100 3.516600
1.765900 3.491100
1.789800 3.258000
1.813600 3.341400
1.837500 3.720100
1.861400 3.972100
1.885200 3.981200
1.909100 3.873500
1.932900 3.616600
1.956800 3.113400
1.980700 2.463200
2.004500 2.003700
2.028400 2.054800
2.052200 2.515500
2.076100 2.974700
2.100000 3.279000
2.123800 3.654300
2.147700 4.286200
2.171500 5.041600
2.195400 5.598700
2.219300 5.626900
2.243100 4.990600
2.267000 4.112500
2.290800 3.749700
2.314700 4.112400
2.338600 4.658300
2.362400 4.897800
2.386300 4.878300
2.410100 4.817700
2.434000 4.762900
2.457900 4.676900
2.481700 4.664300
2.505600 4.927200
2.529400 5.352300
2.553300 5.490100
2.577200 5.144000
2.601000 4.596400
2.624900 4.251100
2.648700 4.382100
2.672600 5.038000
2.696500 5.856600
2.720300 6.308600
2.744200 6.311200
2.768000 6.204800
2.791900 6.147700
2.815800 5.915300
2.839600 5.403900
2.863500 4.980300
2.887300 4.901900
2.911200 4.855000
2.935100 4.567600
2.958900 4.290200
2.982800 4.361700
3.006600 4.730200
3.030500 5.085000
3.054400 5.282600
3.078200 5.431900
3.102100 5.617700
3.125900 5.719300
3.149800 5.556800
3.173700 5.167300
3.197500 4.835100
3.221400 4.892100
3.245200 5.434700
3.269100 6.061700
3.293000 6.223400
3.316800 5.986400
3.340700 5.835800
3.364500 5.829800
3.388400 5.679700
3.412300 5.393300
3.436100 5.142400
3.460000 4.845900
3.483800 4.382500
3.507700 3.860700
3.531600 3.424800
3.555400 3.063400
3.579300 2.833300
3.603100 2.884000
3.627000 3.089300
3.650900 3.105300
3.674700 2.848000
3.698600 2.548200
3.722400 2.385500
3.746300 2.342800
3.770200 2.272700
3.794000 2.092300
3.817900 1.968700
3.841700 2.081500
3.865600 2.369400
3.889500 2.744500
3.913300 3.231900
3.937200 3.768900
3.961000 4.235500
3.984900 4.672600
4.008800 5.173500
4.032600 5.641900
4.056500 5.845400
4.080300 5.756600
4.104200 5.689100
4.128100 5.942500
4.151900 6.349700
4.175800 6.399800
4.199600 5.960400
4.223500 5.518100
4.247400 5.520600
4.271200 5.914700
4.295100 6.423600
4.318900 6.915400
4.342800 7.382800
4.366700 7.723500
4.390500 7.805500
4.414400 7.643900
4.438200 7.351100
4.462100 6.959600
4.486000 6.428500
4.509800 6.039100
4.533700 6.305600
4.557500 7.033300
4.581400 7.287800
4.605300 6.738900
4.629100 5.963500
4.653000 5.323900
4.676800 4.702200
4.700700 4.163500
4.724600 3.922600
4.748400 3.911600
4.772300 3.904700
4.796100 3.799900
4.820000 3.658100
4.843900 3.644600
4.867700 3.840000
4.891600 4.135100
4.915400 4.468300
4.939300 4.875500
4.963200 5.184700
4.987000 5.165700
5.010900 4.936800
5.034700 4.733300
5.058600 4.523600
5.082500 4.193000
5.106300 3.839300
5.130200 3.578100
5.154000 3.261300
5.177900 2.798100
5.201800 2.526700
5.225600 2.776900
5.249500 3.356000
5.273300 3.854600
5.297200 4.105800
5.321100 4.210100
5.344900 4.362400
5.368800 4.619500
5.392600 4.897600
5.416500 5.164600
5.440400 5.338200
5.464200 5.260300
5.488100 5.047500
5.511900 4.976000
5.535800 4.940200
5.559700 4.632000
5.583500 4.204000
5.607400 4.176100
5.631200 4.747700
5.655100 5.515000
5.679000 5.852600
5.702800 5.620300
5.726700 5.301600
5.750500 5.359800
5.774400 5.957500
5.798300 7.112200
5.822100 8.535700
5.846000 9.553800
5.869800 9.625000
5.893700 8.915700
5.917600 8.016900
5.941400 7.300100
5.965300 6.905500
5.989100 6.794800
6.013000 6.798700
6.036900 6.921400
6.060700 7.079300
6.084600 6.850900
6.108400 6.088600
6.132300 5.291100
6.156200 5.084900
6.180000 5.577000
6.203900 6.125500
6.227700 5.961700
6.251600 5.155500
6.275500 4.377000
6.299300 3.988900
6.323200 4.027200
6.347000 4.490500
6.370900 5.141200
6.394800 5.553200
6.418600 5.590400
6.442500 5.403100
6.466300 5.079400
6.490200 4.650200
6.514100 4.202900
6.537900 3.835200
6.561800 3.626300
6.585600 3.512100
6.609500 3.268900
6.633400 2.876500
6.657200 2.604300
6.681100 2.624900
6.704900 2.814600
6.728800 2.994200
6.752700 3.173200
6.776500 3.355700
6.800400 3.386700
6.824200 3.291000
6.848100 3.359600
6.872000 3.681400
6.895800 3.961600
6.919700 3.974600
6.943500 3.927700
6.967400 4.104100
6.991300 4.388700
7.015100 4.429900
7.039000 4.139600
7.062800 3.890500
7.086700 4.080200
7.110600 4.548400
7.134400 4.822100
7.158300 4.891200
7.182100 5.136100
7.206000 5.534800
7.229900 5.740500
7.253700 5.799300
7.277600 5.949000
7.301400 6.096700
7.325300 6.058800
7.349200 5.868700
7.373000 5.705400
7.396900 5.816000
7.420700 6.314200
7.444600 6.927000
7.468500 7.221600
7.492300 7.105300
7.516200 6.805800
7.540000 6.400800
7.563900 5.808300
7.587800 5.228400
7.611600 5.080000
7.635500 5.416400
7.659300 5.799400
7.683200 5.801800
7.707100 5.432800
7.730900 5.030400
7.754800 4.817200
7.778600 4.734000
7.802500 4.574900
7.826400 4.139900
7.850200 3.435700
7.874100 2.723700
7.897900 2.280000
7.921800 2.161800
7.945700 2.262400
7.969500 2.457700
7.993400 2.592600
8.017200 2.522600
8.041100 2.242400
8.065000 1.887500
8.088800 1.643900
8.112700 1.620400
8.136500 1.765700
8.160400 1.942200
8.184300 2.039100
8.208100 2.039600
8.232000 1.991900
8.255800 1.934200
8.279700 1.931700
8.303600 2.042700
8.327400 2.173900
8.351300 2.179900
8.375100 2.145600
8.399000 2.290000
8.422900 2.637800
8.446700 3.019100
8.470600 3.228500
8.494400 3.155700
8.518300 2.870300
8.542200 2.566800
8.566000 2.438800
8.589900 2.530500
8.613700 2.705100
8.637600 2.797900
8.661500 2.707300
8.685300 2.436000
8.709200 2.133300
8.733000 1.896700
8.756900 1.703300
8.780800 1.671400
8.804600 1.951000
8.828500 2.379500
8.852300 2.677900
8.876200 2.822600
8.900100 2.941500
8.923900 3.064500
8.947800 3.118600
8.971600 2.991300
8.995500 2.643200
9.019400 2.221600
9.043200 1.915500
9.067100 1.767100
9.090900 1.743100
9.114800 1.872300
9.138700 2.138500
9.162500 2.374600
9.186400 2.466900
9.210200 2.453000
9.234100 2.386300
9.258000 2.344000
9.281800 2.418600
9.305700 2.587500
9.329500 2.702000
9.353400 2.651800
9.377300 2.514900
9.401100 2.360900
9.425000 2.066800
9.448800 1.629700
9.472700 1.369700
9.496600 1.475200
9.520400 1.669400
9.544300 1.614800
9.568100 1.335400
9.592000 1.088800
9.615900 1.040800
9.639700 1.120600
9.663600 1.168900
9.687400 1.206200
9.711300 1.371600
9.735200 1.583100
9.759000 1.602900
9.782900 1.425200
9.806700 1.277100
9.830600 1.304400
9.854500 1.440000
9.878300 1.553300
9.902200 1.648200
9.926000 1.790400
9.949900 1.882600
9.973800 1.740800
9.997600 1.389400
10.021500 1.049900
10.045300 0.897900
10.069200 0.974300
10.093100 1.181300
10.116900 1.312200
10.140800 1.217600
10.164600 0.951100
10.188500 0.684700
10.212400 0.506800
10.236200 0.377600
10.260100 0.271400
10.283900 0.242900
10.307800 0.323100
10.331700 0.465600
10.355500 0.606000
10.379400 0.696800
10.403200 0.706600
10.427100 0.650000
10.451000 0.600000
10.474800 0.623700
10.498700 0.689000
10.522500 0.692300
10.546400 0.615200
10.570300 0.533900
10.594100 0.486000
10.618000 0.466200
10.641800 0.466400
10.665700 0.472000
10.689600 0.505900
10.713400 0.603600
10.737300 0.714800
10.761100 0.725100
10.785000 0.603600
10.808900 0.434000
10.832700 0.282700
10.856600 0.170400
10.880400 0.134500
10.904300 0.205300
10.928200 0.357800
10.952000 0.532200
10.975900 0.672100
10.999700 0.754200
11.023600 0.846000
11.047500 1.055700
11.071300 1.353900
11.095200 1.549200
11.119000 1.494700
11.142900 1.285200
11.166800 1.153900
11.190600 1.182800
11.214500 1.269600
11.238300 1.307500
11.262200 1.288600
11.286100 1.273500
11.309900 1.295600
11.333800 1.360700
11.357600 1.503600
11.381500 1.707100
11.405400 1.799400
11.429200 1.606600
11.453100 1.219100
11.476900 0.931200
11.500800 0.904500
11.524700 1.065300
11.548500 1.285100
11.572400 1.470900
11.596200 1.551100
11.620100 1.518700
11.644000 1.408000
11.667800 1.287200
11.691700 1.277000
11.715500 1.392600
11.739400 1.521500
11.763300 1.596000
11.787100 1.582600
11.811000 1.502300
11.834800 1.512500
11.858700 1.717300
11.882600 1.981900
11.906400 2.076400
11.930300 1.923800
11.954100 1.626100
11.978000 1.311100
12.001900 1.065700
12.025700 0.954000
12.049600 0.991800
12.073400 1.154300
12.097300 1.384300
12.121200 1.551300
12.145000 1.505300
12.168900 1.254100
12.192700 0.970800
12.216600 0.773700
12.240500 0.671400
12.264300 0.720200
12.288200 1.017000
12.312000 1.474800
12.335900 1.771500
12.359800 1.698000
12.383600 1.467300
12.407500 1.470700
12.431300 1.803000
12.455200 2.211900
12.479100 2.453900
12.502900 2.546900
12.526800 2.597900
12.550600 2.537900
12.574500 2.294000
12.598400 2.056200
12.622200 2.049400
12.646100 2.206900
12.669900 2.253700
12.693800 2.052700
12.717700 1.811200
12.741500 1.814300
12.765400 2.009700
12.789200 2.139700
12.813100 2.145100
12.837000 2.172900
12.860800 2.308600
12.884700 2.449100
12.908500 2.435500
12.932400 2.279800
12.956300 2.121900
12.980100 1.985800
13.004000 1.861500
13.027800 1.893600
13.051700 2.178300
13.075600 2.545100
13.099400 2.695800
13.123300 2.442800
13.147100 1.903400
13.171000 1.475600
13.194900 1.414000
13.218700 1.585800
13.242600 1.738600
13.266400 1.734500
13.290300 1.561900
13.314200 1.329700
13.338000 1.175500
13.361900 1.152000
13.385700 1.222700
13.409600 1.282600
13.433500 1.229200
13.457300 1.071200
13.481200 0.892600
13.505000 0.766400
13.528900 0.764000
13.552800 0.943100
13.576600 1.297600
13.600500 1.698300
13.624300 1.883100
13.648200 1.691100
13.672100 1.290500
13.695900 0.984800
13.719800 0.926600
13.743600 1.091000
13.767500 1.325300
13.791400 1.455200
13.815200 1.449500
13.839100 1.421700
13.862900 1.469900
13.886800 1.604800
13.910700 1.785500
13.934500 1.887000
13.958400 1.736700
13.982200 1.354600
14.006100 1.003900
14.030000 0.897400
14.053800 1.039700
14.077700 1.332000
14.101500 1.634400
14.125400 1.812700
14.149300 1.833100
14.173100 1.784000
14.197000 1.724100
14.220800 1.553600
14.244700 1.221900
14.268600 0.902100
14.292400 0.779000
14.316300 0.842700
14.340100 0.954400
14.364000 1.000900
14.387900 0.996600
14.411700 1.060000
14.435600 1.263800
14.459400 1.552300
14.483300 1.858500
14.507200 2.153100
14.531000 2.292300
14.554900 2.101800
14.578700 1.707700
14.602600 1.462800
14.626500 1.518000
14.650300 1.756600
14.674200 2.005300
14.698000 2.060900
14.721900 1.784700
14.745800 1.351000
14.769600 1.117300
14.793500 1.183600
14.817300 1.317600
14.841200 1.331100
14.865100 1.290500
14.888900 1.306800
14.912800 1.355100
14.936600 1.369600
14.960500 1.329000
14.984400 1.243300
15.008200 1.187500
15.032100 1.277600
15.055900 1.533400
15.079800 1.827300
15.103700 1.999400
15.127500 1.927000
15.151400 1.601700
15.175200 1.238400
15.199100 1.072300
15.223000 1.104700
15.246800 1.202500
15.270700 1.284500
15.294500 1.325900
15.318400 1.305300
15.342300 1.226400
15.366100 1.138700
15.390000 1.101600
15.413800 1.172600
15.437700 1.394100
15.461600 1.688600
15.485400 1.855300
15.509300 1.788400
15.533100 1.630600
15.557000 1.611400
15.580900 1.740700
15.604700 1.804800
15.628600 1.685900
15.652400 1.519800
15.676300 1.469300
15.700200 1.541200
15.724000 1.739000
15.747900 2.067800
15.771700 2.357600
15.795600 2.435000
15.819500 2.363900
15.843300 2.264400
15.867200 2.054700
15.891000 1.648200
15.914900 1.237500
15.938800 1.049500
15.962600 1.081500
15.986500 1.279700
16.010300 1.605500
16.034200 1.923000
16.058100 2.156800
16.081900 2.431300
16.105800 2.870200
16.129600 3.331000
16.153500 3.486100
16.177400 3.225700
16.201200 2.698500
16.225100 2.044000
16.248900 1.480500
16.272800 1.261300
16.296700 1.336900
16.320500 1.528200
16.344400 1.853700
16.368200 2.281200
16.392100 2.554400
16.416000 2.526800
16.439800 2.318500
16.463700 2.099200
16.487500 1.900300
16.511400 1.645300
16.535300 1.345300
16.559100 1.180800
16.583000 1.299400
16.606800 1.602200
16.630700 1.860500
16.654600 1.986000
16.678400 2.045100
16.702300 2.163100
16.726100 2.413900
16.750000 2.626600
16.773900 2.589800
16.797700 2.409500
16.821600 2.310500
16.845400 2.314000
16.869300 2.293600
16.893200 2.147200
16.917000 1.904800
16.940900 1.715800
16.964700 1.656400
16.988600 1.686600
17.012500 1.780700
17.036300 1.908800
17.060200 2.002300
17.084000 1.988100
17.107900 1.817400
17.131800 1.520800
17.155600 1.266100
17.179500 1.277100
17.203300 1.589100
17.227200 1.971600
17.251100 2.175800
17.274900 2.190700
17.298800 2.167800
17.322600 2.210600
17.346500 2.361800
17.370400 2.611600
17.394200 2.871700
17.418100 2.965700
17.441900 2.728600
17.465800 2.299900
17.489700 1.998700
17.513500 1.848700
17.537400 1.671600
17.561200 1.462700
17.585100 1.405000
17.609000 1.619100
17.632800 1.987100
17.656700 2.275500
17.680500 2.322700
17.704400 2.123500
17.728300 1.815200
17.752100 1.474300
17.776000 1.108700
17.799800 0.867500
17.823700 0.924100
17.847600 1.214400
17.871400 1.490900
17.895300 1.580100
17.919100 1.486500
17.943000 1.293300
17.966900 1.064200
17.990700 0.847400
18.014600 0.681400
18.038400 0.579600
18.062300 0.537900
18.086200 0.545600
18.110000 0.593400
18.133900 0.672800
