set title 'mp-571655 - Density of States'
set xlabel 'Energy (eV)'
set ylabel 'DOS (states/eV)'
set grid
set xrange [-10:10]
set yrange [0:15.445]
set xzeroaxis lt -1
set terminal png size 800,600
set output 'mp-571655_dos_gnuplot.png'
plot '-' using 1:2 with lines title 'DOS'
-14.925500 0.000000
-14.906400 0.000000
-14.887300 0.000000
-14.868300 0.000000
-14.849200 0.000000
-14.830100 0.000000
-14.811100 0.000000
-14.792000 0.000000
-14.773000 0.000000
-14.753900 0.000000
-14.734800 0.000000
-14.715800 0.000000
-14.696700 0.000000
-14.677600 0.000000
-14.658600 0.000000
-14.639500 0.000000
-14.620400 0.000000
-14.601400 0.000000
-14.582300 0.000000
-14.563300 0.000000
-14.544200 0.000000
-14.525100 0.000000
-14.506100 0.000000
-14.487000 0.000000
-14.467900 0.000000
-14.448900 0.000000
-14.429800 0.000000
-14.410800 0.000000
-14.391700 0.000000
-14.372600 0.000000
-14.353600 0.000000
-14.334500 0.000000
-14.315400 0.000000
-14.296400 0.000000
-14.277300 0.000000
-14.258300 0.000000
-14.239200 0.000000
-14.220100 0.000000
-14.201100 0.000000
-14.182000 0.000000
-14.162900 0.000000
-14.143900 0.000000
-14.124800 0.000000
-14.105800 0.000000
-14.086700 0.000000
-14.067600 0.000000
-14.048600 0.000000
-14.029500 0.000000
-14.010400 0.000000
-13.991400 0.000000
-13.972300 0.000000
-13.953200 0.000000
-13.934200 0.000000
-13.915100 0.000000
-13.896100 0.000000
-13.877000 0.000000
-13.857900 0.000000
-13.838900 0.000000
-13.819800 0.000000
-13.800700 0.000000
-13.781700 0.000000
-13.762600 0.000000
-13.743600 0.000000
-13.724500 0.000000
-13.705400 0.000000
-13.686400 0.000000
-13.667300 0.000000
-13.648200 0.000000
-13.629200 0.000000
-13.610100 0.000000
-13.591100 0.000000
-13.572000 0.000000
-13.552900 0.000000
-13.533900 0.000000
-13.514800 0.000000
-13.495700 0.000000
-13.476700 0.000000
-13.457600 0.000000
-13.438600 0.000000
-13.419500 0.000000
-13.400400 0.000000
-13.381400 0.000000
-13.362300 0.000000
-13.343200 0.000000
-13.324200 0.000000
-13.305100 0.000000
-13.286000 0.000000
-13.267000 0.000000
-13.247900 0.000000
-13.228900 0.000000
-13.209800 0.000000
-13.190700 0.032200
-13.171700 2.361300
-13.152600 4.122900
-13.133500 6.116400
-13.114500 9.259800
-13.095400 17.766200
-13.076400 18.988000
-13.057300 19.574100
-13.038200 15.345800
-13.019200 7.773800
-13.000100 4.206300
-12.981000 0.000000
-12.962000 0.000000
-12.942900 0.000000
-12.923900 0.000000
-12.904800 0.000000
-12.885700 0.000000
-12.866700 0.000000
-12.847600 0.000000
-12.828500 0.000000
-12.809500 0.000000
-12.790400 0.000000
-12.771300 0.000000
-12.752300 0.000000
-12.733200 0.000000
-12.714200 0.000000
-12.695100 0.000000
-12.676000 0.000000
-12.657000 0.000000
-12.637900 0.000000
-12.618800 0.000000
-12.599800 0.000000
-12.580700 0.000000
-12.561700 0.000000
-12.542600 0.000000
-12.523500 0.000000
-12.504500 0.000000
-12.485400 0.000000
-12.466300 0.000000
-12.447300 0.000000
-12.428200 0.000000
-12.409200 0.000000
-12.390100 0.000000
-12.371000 0.000000
-12.352000 0.000000
-12.332900 0.000000
-12.313800 0.000000
-12.294800 0.000000
-12.275700 0.000000
-12.256700 0.000000
-12.237600 0.000000
-12.218500 0.000000
-12.199500 0.000000
-12.180400 0.000000
-12.161300 0.000000
-12.142300 0.000000
-12.123200 0.000000
-12.104100 0.000000
-12.085100 0.000000
-12.066000 0.000000
-12.047000 0.000000
-12.027900 0.000000
-12.008800 0.000000
-11.989800 0.000000
-11.970700 0.000000
-11.951600 0.000000
-11.932600 0.000000
-11.913500 0.000000
-11.894500 0.000000
-11.875400 0.000000
-11.856300 0.000000
-11.837300 0.000000
-11.818200 0.000000
-11.799100 0.000000
-11.780100 0.000000
-11.761000 0.000000
-11.742000 0.000000
-11.722900 0.000000
-11.703800 0.000000
-11.684800 0.000000
-11.665700 0.000000
-11.646600 0.000000
-11.627600 0.000000
-11.608500 0.000000
-11.589500 0.000000
-11.570400 0.000000
-11.551300 0.000000
-11.532300 0.000000
-11.513200 0.000000
-11.494100 0.000000
-11.475100 0.000000
-11.456000 0.000000
-11.436900 0.000000
-11.417900 0.000000
-11.398800 0.000000
-11.379800 0.000000
-11.360700 0.000000
-11.341600 0.000000
-11.322600 0.000000
-11.303500 0.000000
-11.284400 0.000000
-11.265400 0.000000
-11.246300 0.000000
-11.227300 0.000000
-11.208200 0.000000
-11.189100 0.000000
-11.170100 0.000000
-11.151000 0.000000
-11.131900 0.000000
-11.112900 0.000000
-11.093800 0.000000
-11.074800 10.331800
-11.055700 12.440000
-11.036600 15.597600
-11.017600 10.777300
-10.998500 10.005900
-10.979400 11.161900
-10.960400 12.027300
-10.941300 6.788300
-10.922300 4.799100
-10.903200 3.605800
-10.884100 2.681900
-10.865100 2.040500
-10.846000 1.706400
-10.826900 1.042300
-10.807900 0.666400
-10.788800 0.049300
-10.769700 0.000000
-10.750700 0.000000
-10.731600 0.000000
-10.712600 0.000000
-10.693500 0.000000
-10.674400 0.000000
-10.655400 0.000000
-10.636300 0.000000
-10.617200 0.000000
-10.598200 0.000000
-10.579100 0.000000
-10.560100 0.000000
-10.541000 0.000000
-10.521900 0.000000
-10.502900 0.000000
-10.483800 0.000000
-10.464700 0.000000
-10.445700 0.000000
-10.426600 0.000000
-10.407600 0.000000
-10.388500 0.000000
-10.369400 0.000000
-10.350400 0.000000
-10.331300 0.000000
-10.312200 0.000000
-10.293200 0.000000
-10.274100 0.000000
-10.255100 0.000000
-10.236000 0.000000
-10.216900 0.000000
-10.197900 0.000000
-10.178800 0.000000
-10.159700 0.000000
-10.140700 0.000000
-10.121600 0.000000
-10.102500 0.000000
-10.083500 0.000000
-10.064400 0.000000
-10.045400 0.000000
-10.026300 0.000000
-10.007200 0.000000
-9.988200 0.000000
-9.969100 0.000000
-9.950000 0.040800
-9.931000 0.775200
-9.911900 1.917800
-9.892900 2.640200
-9.873800 3.194700
-9.854700 4.300000
-9.835700 6.050700
-9.816600 6.842200
-9.797500 5.653000
-9.778500 4.797200
-9.759400 4.338900
-9.740400 4.078800
-9.721300 3.938200
-9.702200 3.870200
-9.683200 3.855500
-9.664100 3.892100
-9.645000 3.980100
-9.626000 4.127100
-9.606900 4.459000
-9.587900 5.085300
-9.568800 6.086900
-9.549700 7.614100
-9.530700 6.419100
-9.511600 5.245800
-9.492500 1.256500
-9.473500 0.000000
-9.454400 0.000000
-9.435300 0.000000
-9.416300 0.000000
-9.397200 0.000000
-9.378200 0.000000
-9.359100 0.000000
-9.340000 0.000000
-9.321000 0.000000
-9.301900 0.000000
-9.282800 0.000000
-9.263800 0.000000
-9.244700 0.000000
-9.225700 0.000000
-9.206600 0.000000
-9.187500 0.000000
-9.168500 0.000000
-9.149400 0.000000
-9.130300 0.000000
-9.111300 0.000000
-9.092200 0.000000
-9.073200 0.000000
-9.054100 0.000000
-9.035000 0.000000
-9.016000 0.000000
-8.996900 0.000000
-8.977800 0.000000
-8.958800 0.000000
-8.939700 0.000000
-8.920600 0.000000
-8.901600 0.000000
-8.882500 0.000000
-8.863500 0.000000
-8.844400 0.000000
-8.825300 0.000000
-8.806300 0.000000
-8.787200 0.000000
-8.768100 0.000000
-8.749100 0.000000
-8.730000 0.000000
-8.711000 0.000000
-8.691900 0.000000
-8.672800 0.000000
-8.653800 0.000000
-8.634700 0.000000
-8.615600 0.000000
-8.596600 0.000000
-8.577500 0.000000
-8.558500 0.000000
-8.539400 0.000000
-8.520300 0.000000
-8.501300 0.000000
-8.482200 0.000000
-8.463100 0.000000
-8.444100 0.000000
-8.425000 0.000000
-8.406000 0.000000
-8.386900 0.000000
-8.367800 0.000000
-8.348800 0.000000
-8.329700 0.000000
-8.310600 0.000000
-8.291600 0.000000
-8.272500 0.000000
-8.253400 0.000000
-8.234400 0.000000
-8.215300 0.000000
-8.196300 0.000000
-8.177200 0.000000
-8.158100 0.000000
-8.139100 0.000000
-8.120000 0.000000
-8.100900 0.000000
-8.081900 0.000000
-8.062800 0.000000
-8.043800 0.000000
-8.024700 0.000000
-8.005600 0.000000
-7.986600 0.000000
-7.967500 0.000000
-7.948400 0.000000
-7.929400 0.000000
-7.910300 0.000000
-7.891300 0.000000
-7.872200 0.000000
-7.853100 0.000000
-7.834100 0.000000
-7.815000 0.000000
-7.795900 0.000000
-7.776900 0.000000
-7.757800 0.000000
-7.738800 0.000000
-7.719700 0.000000
-7.700600 0.000000
-7.681600 0.000000
-7.662500 0.000000
-7.643400 0.000000
-7.624400 0.000000
-7.605300 0.000000
-7.586200 0.000000
-7.567200 0.000000
-7.548100 0.000000
-7.529100 0.000000
-7.510000 0.000000
-7.490900 0.358500
-7.471900 0.731400
-7.452800 1.160600
-7.433700 1.480500
-7.414700 1.839000
-7.395600 2.126400
-7.376600 2.900500
-7.357500 3.460900
-7.338400 3.677000
-7.319400 3.699800
-7.300300 3.406300
-7.281200 2.954600
-7.262200 2.641000
-7.243100 2.391800
-7.224100 2.198500
-7.205000 2.060400
-7.185900 1.963200
-7.166900 1.892100
-7.147800 1.831800
-7.128700 1.780400
-7.109700 1.733100
-7.090600 1.688500
-7.071600 1.646500
-7.052500 1.607200
-7.033400 1.570700
-7.014400 1.537800
-6.995300 1.508300
-6.976200 1.481900
-6.957200 1.458900
-6.938100 1.439300
-6.919000 1.422900
-6.900000 1.408800
-6.880900 1.396500
-6.861900 1.385800
-6.842800 1.376800
-6.823700 1.369300
-6.804700 1.363100
-6.785600 1.358400
-6.766500 1.355100
-6.747500 1.353300
-6.728400 1.352900
-6.709400 1.353900
-6.690300 1.356400
-6.671200 1.360600
-6.652200 1.377600
-6.633100 1.436100
-6.614000 1.524700
-6.595000 1.627700
-6.575900 1.718300
-6.556900 1.793100
-6.537800 1.846200
-6.518700 1.872600
-6.499700 1.865500
-6.480600 1.820800
-6.461500 1.738500
-6.442500 1.618600
-6.423400 1.461100
-6.404400 1.265900
-6.385300 1.033100
-6.366200 0.762700
-6.347200 0.463600
-6.328100 0.255400
-6.309000 0.114900
-6.290000 0.025100
-6.270900 0.001100
-6.251800 0.000000
-6.232800 0.000000
-6.213700 0.085500
-6.194700 0.297000
-6.175600 0.604300
-6.156500 0.903800
-6.137500 1.183100
-6.118400 1.426300
-6.099300 1.634700
-6.080300 1.836000
-6.061200 2.043700
-6.042200 2.277900
-6.023100 2.488400
-6.004000 2.675200
-5.985000 2.890200
-5.965900 3.026400
-5.946800 3.129300
-5.927800 3.221600
-5.908700 3.343200
-5.889700 3.450800
-5.870600 3.555600
-5.851500 3.760400
-5.832500 4.258600
-5.813400 4.263700
-5.794300 4.484200
-5.775300 4.675100
-5.756200 4.749600
-5.737100 4.762000
-5.718100 4.698500
-5.699000 4.529700
-5.680000 4.363700
-5.660900 4.063400
-5.641800 3.869900
-5.622800 3.782400
-5.603700 3.761900
-5.584600 3.793600
-5.565600 3.904500
-5.546500 4.131500
-5.527500 4.244900
-5.508400 4.143800
-5.489300 4.389700
-5.470300 4.080700
-5.451200 3.918800
-5.432100 3.637100
-5.413100 3.471400
-5.394000 3.233300
-5.375000 3.007500
-5.355900 3.036600
-5.336800 3.067600
-5.317800 3.167000
-5.298700 2.962300
-5.279600 2.838600
-5.260600 2.887800
-5.241500 2.960600
-5.222500 3.068600
-5.203400 3.170000
-5.184300 3.196000
-5.165300 3.246300
-5.146200 3.314500
-5.127100 3.342400
-5.108100 3.453700
-5.089000 3.626500
-5.069900 3.847300
-5.050900 4.147800
-5.031800 4.458200
-5.012800 4.802200
-4.993700 5.123700
-4.974600 5.248400
-4.955600 5.219100
-4.936500 5.920000
-4.917400 4.678300
-4.898400 4.158600
-4.879300 3.739300
-4.860300 3.245400
-4.841200 3.073400
-4.822100 2.919400
-4.803100 2.799800
-4.784000 2.660100
-4.764900 2.527000
-4.745900 2.501000
-4.726800 2.497100
-4.707800 2.484800
-4.688700 2.512600
-4.669600 2.626300
-4.650600 2.784200
-4.631500 3.055900
-4.612400 3.335300
-4.593400 3.388100
-4.574300 4.589800
-4.555300 3.967500
-4.536200 4.000100
-4.517100 3.759800
-4.498100 3.160900
-4.479000 2.590800
-4.459900 1.932600
-4.440900 1.127700
-4.421800 0.782300
-4.402700 0.683600
-4.383700 0.629000
-4.364600 1.024000
-4.345600 1.604100
-4.326500 2.220200
-4.307400 2.030900
-4.288400 2.136500
-4.269300 2.172800
-4.250200 2.340600
-4.231200 2.527100
-4.212100 2.573300
-4.193100 2.646100
-4.174000 2.716700
-4.154900 2.785100
-4.135900 2.856700
-4.116800 2.973200
-4.097700 3.150000
-4.078700 3.280000
-4.059600 3.363500
-4.040600 3.408700
-4.021500 3.488000
-4.002400 3.694500
-3.983400 3.890500
-3.964300 4.059900
-3.945200 4.206200
-3.926200 4.305600
-3.907100 4.350000
-3.888100 4.440500
-3.869000 3.943400
-3.849900 3.617800
-3.830900 3.142600
-3.811800 2.793200
-3.792700 2.582800
-3.773700 2.395100
-3.754600 2.222000
-3.735500 2.092900
-3.716500 1.972300
-3.697400 1.980900
-3.678400 1.576800
-3.659300 1.437900
-3.640200 1.397200
-3.621200 1.755900
-3.602100 2.246300
-3.583000 2.701700
-3.564000 3.256400
-3.544900 3.869500
-3.525900 4.543600
-3.506800 4.938600
-3.487700 6.043800
-3.468700 6.385100
-3.449600 6.720500
-3.430500 6.493200
-3.411500 5.303700
-3.392400 4.959300
-3.373400 4.582400
-3.354300 4.200400
-3.335200 3.928900
-3.316200 3.772000
-3.297100 3.551900
-3.278000 3.271200
-3.259000 3.110300
-3.239900 3.325500
-3.220900 3.080000
-3.201800 2.696700
-3.182700 2.149900
-3.163700 1.960800
-3.144600 2.129200
-3.125500 1.979800
-3.106500 1.788300
-3.087400 1.766800
-3.068300 1.743100
-3.049300 1.710600
-3.030200 1.706500
-3.011200 1.860500
-2.992100 1.982400
-2.973000 2.170800
-2.954000 2.413800
-2.934900 2.736900
-2.915800 3.536700
-2.896800 4.701800
-2.877700 5.990300
-2.858700 7.058400
-2.839600 8.184400
-2.820500 10.871300
-2.801500 9.713100
-2.782400 6.526800
-2.763300 5.618100
-2.744300 4.711700
-2.725200 3.862900
-2.706200 3.131100
-2.687100 2.513000
-2.668000 2.014200
-2.649000 1.573600
-2.629900 1.399800
-2.610800 1.414000
-2.591800 1.490600
-2.572700 1.490600
-2.553600 1.610400
-2.534600 1.535000
-2.515500 1.572300
-2.496500 1.650200
-2.477400 1.740600
-2.458300 1.841800
-2.439300 2.050500
-2.420200 2.293800
-2.401100 2.645500
-2.382100 2.685500
-2.363000 2.774700
-2.344000 2.812000
-2.324900 2.842900
-2.305800 2.852100
-2.286800 2.760300
-2.267700 2.601400
-2.248600 2.487700
-2.229600 2.478000
-2.210500 2.512800
-2.191500 2.580300
-2.172400 2.712300
-2.153300 2.823800
-2.134300 3.863400
-2.115200 5.341400
-2.096100 5.461700
-2.077100 5.409400
-2.058000 4.935400
-2.039000 4.440500
-2.019900 4.018400
-2.000800 3.709600
-1.981800 3.656200
-1.962700 3.668800
-1.943600 3.142800
-1.924600 2.698500
-1.905500 2.674100
-1.886400 2.644500
-1.867400 2.609200
-1.848300 2.674500
-1.829300 2.753600
-1.810200 2.877000
-1.791100 3.182200
-1.772100 3.695700
-1.753000 4.209700
-1.733900 3.784900
-1.714900 3.299600
-1.695800 3.155300
-1.676800 3.208500
-1.657700 3.351700
-1.638600 3.387500
-1.619600 3.399200
-1.600500 3.518600
-1.581400 3.689100
-1.562400 3.814800
-1.543300 3.823700
-1.524300 3.788300
-1.505200 3.750300
-1.486100 3.705100
-1.467100 3.652200
-1.448000 3.592600
-1.428900 3.528300
-1.409900 3.515700
-1.390800 3.788200
-1.371800 3.924800
-1.352700 4.164100
-1.333600 4.319000
-1.314600 4.316500
-1.295500 4.189700
-1.276400 3.893900
-1.257400 3.559700
-1.238300 3.392100
-1.219200 3.115600
-1.200200 2.864100
-1.181100 2.600300
-1.162100 2.451900
-1.143000 2.281500
-1.123900 2.425400
-1.104900 2.737400
-1.085800 3.033700
-1.066700 3.300300
-1.047700 3.558000
-1.028600 3.741000
-1.009600 3.945500
-0.990500 4.222000
-0.971400 4.378800
-0.952400 4.503700
-0.933300 4.430200
-0.914200 4.278600
-0.895200 4.044100
-0.876100 3.687300
-0.857100 3.633700
-0.838000 3.600700
-0.818900 3.584300
-0.799900 3.587200
-0.780800 3.614000
-0.761700 3.699000
-0.742700 4.399200
-0.723600 4.855400
-0.704600 5.076200
-0.685500 5.252800
-0.666400 5.344200
-0.647400 5.267600
-0.628300 5.138300
-0.609200 5.158100
-0.590200 4.873600
-0.571100 4.719300
-0.552000 4.575700
-0.533000 4.492200
-0.513900 4.430800
-0.494900 4.355900
-0.475800 4.185300
-0.456700 4.016500
-0.437700 3.929100
-0.418600 3.957300
-0.399500 3.925300
-0.380500 3.932300
-0.361400 3.872900
-0.342400 3.563500
-0.323300 3.680200
-0.304200 4.473900
-0.285200 4.749000
-0.266100 5.120500
-0.247000 5.500300
-0.228000 5.662200
-0.208900 6.318100
-0.189900 6.017400
-0.170800 5.823900
-0.151700 5.661400
-0.132700 5.760400
-0.113600 5.830900
-0.094500 6.013800
-0.075500 5.850900
-0.056400 5.537000
-0.037400 5.124800
-0.018300 5.152400
0.000800 5.268200
0.019800 5.439800
0.038900 5.744600
0.058000 5.756000
0.077000 5.687400
0.096100 5.623100
0.115200 5.418500
0.134200 5.063800
0.153300 5.230200
0.172300 4.614800
0.191400 4.490300
0.210500 4.237700
0.229500 4.188300
0.248600 4.409100
0.267700 4.381800
0.286700 4.680400
0.305800 5.189400
0.324800 5.975400
0.343900 6.355700
0.363000 6.143300
0.382000 6.269100
0.401100 7.301900
0.420200 8.458600
0.439200 8.759000
0.458300 8.177500
0.477300 8.087800
0.496400 7.847500
0.515500 9.182300
0.534500 8.877000
0.553600 7.866700
0.572700 6.050600
0.591700 4.872900
0.610800 4.790200
0.629900 4.719800
0.648900 4.840900
0.668000 6.052900
0.687000 7.831300
0.706100 8.748900
0.725200 9.986000
0.744200 11.403400
0.763300 13.592600
0.782400 14.041000
0.801400 8.876400
0.820500 7.012700
0.839500 5.739300
0.858600 4.623300
0.877700 3.324900
0.896700 2.907100
0.915800 2.692800
0.934900 2.503500
0.953900 2.312300
0.973000 2.225200
0.992000 2.219900
1.011100 2.284000
1.030200 2.415600
1.049200 2.738200
1.068300 3.099200
1.087400 3.602800
1.106400 4.104200
1.125500 4.709100
1.144500 4.807700
1.163600 5.033400
1.182700 5.002000
1.201700 4.918200
1.220800 4.882900
1.239900 4.882600
1.258900 5.477200
1.278000 5.034800
1.297100 4.843200
1.316100 4.844700
1.335200 4.841000
1.354200 5.086700
1.373300 4.632600
1.392400 4.410400
1.411400 4.223100
1.430500 3.982000
1.449600 3.725200
1.468600 3.581400
1.487700 3.349800
1.506700 3.163800
1.525800 3.029600
1.544900 2.932600
1.563900 2.901200
1.583000 2.947700
1.602100 3.217700
1.621100 3.245900
1.640200 3.258700
1.659200 3.443300
1.678300 3.691900
1.697400 3.896600
1.716400 4.118700
1.735500 4.299000
1.754600 4.847800
1.773600 5.031200
1.792700 5.437500
1.811700 5.786700
1.830800 6.590200
1.849900 6.389600
1.868900 5.629600
1.888000 5.296300
1.907100 4.929100
1.926100 4.588500
1.945200 4.432200
1.964300 4.422400
1.983300 4.656900
2.002400 5.079800
2.021400 5.091900
2.040500 5.310800
2.059600 5.853900
2.078600 5.902100
2.097700 6.091200
2.116800 6.494700
2.135800 7.157900
2.154900 7.788500
2.173900 9.433700
2.193000 9.603700
2.212100 9.210900
2.231100 8.407100
2.250200 7.726900
2.269300 7.572700
2.288300 8.946200
2.307400 7.460600
2.326400 6.163200
2.345500 5.980800
2.364600 6.026100
2.383600 6.121500
2.402700 6.261500
2.421800 6.260100
2.440800 6.148100
2.459900 5.910400
2.478900 6.040900
2.498000 6.860300
2.517100 7.347500
2.536100 7.611300
2.555200 6.983600
2.574300 6.797200
2.593300 6.940000
2.612400 7.596400
2.631500 6.898900
2.650500 6.200500
2.669600 6.217400
2.688600 6.399400
2.707700 6.164200
2.726800 5.924200
2.745800 5.571300
2.764900 5.446900
2.784000 5.626700
2.803000 4.617600
2.822100 3.427500
2.841100 2.475600
2.860200 1.860900
2.879300 1.579000
2.898300 1.646200
2.917400 1.908800
2.936500 1.815800
2.955500 1.261100
2.974600 1.132500
2.993600 0.841000
3.012700 0.782700
3.031800 0.745900
3.050800 0.714100
3.069900 0.687200
3.089000 0.665100
3.108000 0.648000
3.127100 0.635600
3.146100 0.599700
3.165200 0.616000
3.184300 0.627200
3.203300 0.631800
3.222400 0.649700
3.241500 0.672000
3.260500 0.696000
3.279600 0.722000
3.298700 0.749900
3.317700 0.779800
3.336800 0.811500
3.355800 0.844800
3.374900 0.880000
3.394000 0.932600
3.413000 1.033000
3.432100 1.140300
3.451200 1.270600
3.470200 1.579500
3.489300 1.736500
3.508300 1.977300
3.527400 2.259800
3.546500 2.623100
3.565500 3.465000
3.584600 6.851000
3.603700 7.014400
3.622700 5.387800
3.641800 4.918800
3.660800 4.580400
3.679900 4.322600
3.699000 3.964600
3.718000 3.593900
3.737100 3.328300
3.756200 3.071200
3.775200 2.904800
3.794300 2.804700
3.813400 2.614900
3.832400 2.584000
3.851500 2.524700
3.870500 2.474900
3.889600 2.467900
3.908700 2.439000
3.927700 2.179300
3.946800 1.996100
3.965900 1.887100
3.984900 1.847500
4.004000 1.824800
4.023000 1.792700
4.042100 1.751300
4.061200 1.730200
4.080200 1.742600
4.099300 1.796500
4.118400 1.944400
4.137400 2.295600
4.156500 2.301900
4.175500 2.417600
4.194600 2.771300
4.213700 3.248500
4.232700 3.795300
4.251800 4.229900
4.270900 4.246800
4.289900 4.260800
4.309000 4.765000
4.328000 4.399800
4.347100 3.931100
4.366200 3.683600
4.385200 3.614300
4.404300 3.519000
4.423400 3.615600
4.442400 4.317000
4.461500 5.308900
4.480600 5.305700
4.499600 5.877400
4.518700 6.367200
4.537700 6.351500
4.556800 6.112900
4.575900 6.162600
4.594900 5.779700
4.614000 5.719100
4.633100 5.718700
4.652100 5.618000
4.671200 5.462200
4.690200 5.280400
4.709300 5.109500
4.728400 5.133300
4.747400 5.251900
4.766500 5.405400
4.785600 5.260000
4.804600 5.149900
