set title 'mp-1423059 - Density of States'
set xlabel 'Energy (eV)'
set ylabel 'DOS (states/eV)'
set grid
set xrange [-10:10]
set yrange [0:5.493]
set xzeroaxis lt -1
set terminal png size 800,600
set output 'mp-1423059_dos_gnuplot.png'
plot '-' using 1:2 with lines title 'DOS'
-13.115800 0.000000
-13.091200 0.000000
-13.066500 0.000000
-13.041800 0.000000
-13.017100 0.000000
-12.992500 0.000000
-12.967800 0.000000
-12.943100 0.000000
-12.918400 0.000000
-12.893700 0.000000
-12.869100 0.000000
-12.844400 0.000000
-12.819700 0.000000
-12.795000 0.000000
-12.770400 0.000000
-12.745700 0.000000
-12.721000 0.000000
-12.696300 0.000000
-12.671700 0.000000
-12.647000 0.000000
-12.622300 0.000000
-12.597600 0.000000
-12.573000 0.000000
-12.548300 0.000000
-12.523600 0.000000
-12.498900 0.000000
-12.474300 0.000000
-12.449600 0.000000
-12.424900 0.000000
-12.400200 0.000000
-12.375500 0.000000
-12.350900 0.000000
-12.326200 0.000000
-12.301500 0.000000
-12.276800 0.000000
-12.252200 0.000000
-12.227500 0.000000
-12.202800 0.000000
-12.178100 0.000000
-12.153500 0.000000
-12.128800 0.000000
-12.104100 0.000000
-12.079400 0.000000
-12.054800 0.000000
-12.030100 0.000000
-12.005400 0.000000
-11.980700 0.000000
-11.956100 0.000000
-11.931400 0.000000
-11.906700 0.000000
-11.882000 0.000000
-11.857300 0.000000
-11.832700 0.000000
-11.808000 0.000000
-11.783300 0.000000
-11.758600 0.000000
-11.734000 0.000000
-11.709300 0.000000
-11.684600 0.000000
-11.659900 0.000000
-11.635300 0.000000
-11.610600 0.000000
-11.585900 0.000000
-11.561200 0.000000
-11.536600 0.000000
-11.511900 0.000000
-11.487200 0.000000
-11.462500 0.000000
-11.437900 0.000000
-11.413200 0.000000
-11.388500 0.000000
-11.363800 0.000000
-11.339100 0.000000
-11.314500 0.000000
-11.289800 0.000000
-11.265100 0.000000
-11.240400 0.000000
-11.215800 0.000000
-11.191100 0.000000
-11.166400 0.000000
-11.141700 0.000000
-11.117100 0.000000
-11.092400 0.000000
-11.067700 0.000000
-11.043000 0.000000
-11.018400 0.000000
-10.993700 0.000000
-10.969000 0.000000
-10.944300 0.000000
-10.919600 0.000000
-10.895000 0.000000
-10.870300 0.000500
-10.845600 0.073500
-10.820900 0.234400
-10.796300 0.399200
-10.771600 0.564100
-10.746900 0.728900
-10.722200 0.869200
-10.697600 0.936200
-10.672900 0.919900
-10.648200 0.866600
-10.623500 0.813200
-10.598900 0.759900
-10.574200 0.707700
-10.549500 0.695800
-10.524800 0.716700
-10.500200 0.737900
-10.475500 0.759100
-10.450800 0.780200
-10.426100 0.801400
-10.401400 0.822600
-10.376800 0.843700
-10.352100 0.862200
-10.327400 0.865300
-10.302700 0.865100
-10.278100 0.864800
-10.253400 0.864500
-10.228700 0.864300
-10.204000 0.856600
-10.179400 0.846500
-10.154700 0.841500
-10.130000 0.836500
-10.105300 0.831500
-10.080700 0.832100
-10.056000 0.838800
-10.031300 0.845600
-10.006600 0.852400
-9.982000 0.859200
-9.957300 0.866000
-9.932600 0.872800
-9.907900 0.879600
-9.883200 0.886400
-9.858600 0.893200
-9.833900 0.900000
-9.809200 0.906800
-9.784500 1.162500
-9.759900 1.387900
-9.735200 1.351900
-9.710500 1.317900
-9.685800 1.283900
-9.661200 1.249900
-9.636500 0.960300
-9.611800 0.906100
-9.587100 0.900400
-9.562500 0.894800
-9.537800 0.889100
-9.513100 0.883400
-9.488400 0.877800
-9.463800 0.869400
-9.439100 0.858300
-9.414400 0.847200
-9.389700 0.836100
-9.365000 0.826400
-9.340400 0.818800
-9.315700 0.811100
-9.291000 0.803500
-9.266300 0.795900
-9.241700 0.754400
-9.217000 0.750300
-9.192300 0.752400
-9.167600 0.754500
-9.143000 0.756600
-9.118300 1.355600
-9.093600 1.413000
-9.068900 1.470200
-9.044300 1.527700
-9.019600 1.585200
-8.994900 1.245200
-8.970200 1.267300
-8.945600 1.289400
-8.920900 1.311500
-8.896200 1.333600
-8.871500 1.355700
-8.846800 1.377800
-8.822200 1.399900
-8.797500 1.422100
-8.772800 1.444200
-8.748100 1.466300
-8.723500 1.501400
-8.698800 1.568000
-8.674100 1.582200
-8.649400 1.615700
-8.624800 1.603300
-8.600100 1.627400
-8.575400 1.700300
-8.550700 1.786600
-8.526100 1.870800
-8.501400 1.963300
-8.476700 2.055800
-8.452000 2.144800
-8.427400 2.188200
-8.402700 2.433300
-8.378000 2.720200
-8.353300 3.745500
-8.328600 4.209400
-8.304000 2.698700
-8.279300 2.430000
-8.254600 2.374800
-8.229900 2.319400
-8.205300 2.273800
-8.180600 2.353400
-8.155900 2.539300
-8.131200 2.770100
-8.106600 3.014600
-8.081900 3.035300
-8.057200 2.870600
-8.032500 2.575100
-8.007900 2.338000
-7.983200 3.162300
-7.958500 2.616400
-7.933800 2.076000
-7.909200 1.446200
-7.884500 0.809800
-7.859800 0.236900
-7.835100 0.003600
-7.810400 0.000000
-7.785800 0.000000
-7.761100 0.000000
-7.736400 0.000000
-7.711700 0.000000
-7.687100 0.000000
-7.662400 0.000000
-7.637700 0.000000
-7.613000 0.000000
-7.588400 0.000000
-7.563700 0.000000
-7.539000 0.000000
-7.514300 0.000000
-7.489700 0.000000
-7.465000 0.000000
-7.440300 0.000000
-7.415600 0.000000
-7.390900 0.000000
-7.366300 0.000000
-7.341600 0.000000
-7.316900 0.000000
-7.292200 0.000000
-7.267600 0.000000
-7.242900 0.000000
-7.218200 0.000000
-7.193500 0.000000
-7.168900 0.000000
-7.144200 0.000000
-7.119500 0.000000
-7.094800 0.000000
-7.070200 0.000000
-7.045500 0.000000
-7.020800 0.000000
-6.996100 0.000000
-6.971500 0.000000
-6.946800 0.000000
-6.922100 0.000000
-6.897400 0.000000
-6.872700 0.000000
-6.848100 0.000000
-6.823400 0.000000
-6.798700 0.000000
-6.774000 0.000000
-6.749400 0.000000
-6.724700 0.000000
-6.700000 0.000000
-6.675300 0.000000
-6.650700 0.000000
-6.626000 0.000000
-6.601300 0.000000
-6.576600 0.000000
-6.552000 0.000000
-6.527300 0.000000
-6.502600 0.000000
-6.477900 0.000000
-6.453300 0.000000
-6.428600 0.000000
-6.403900 0.000000
-6.379200 0.000000
-6.354500 0.000000
-6.329900 0.000000
-6.305200 0.000000
-6.280500 0.000000
-6.255800 0.000000
-6.231200 0.000000
-6.206500 0.000000
-6.181800 0.000000
-6.157100 0.000000
-6.132500 0.000000
-6.107800 0.000000
-6.083100 0.000000
-6.058400 0.000000
-6.033800 0.000000
-6.009100 0.000000
-5.984400 0.000000
-5.959700 0.000000
-5.935100 0.000000
-5.910400 0.000000
-5.885700 0.000000
-5.861000 0.000000
-5.836300 0.000000
-5.811700 0.000000
-5.787000 0.000000
-5.762300 0.000000
-5.737600 0.000000
-5.713000 0.000000
-5.688300 0.000000
-5.663600 0.000000
-5.638900 0.000000
-5.614300 0.000000
-5.589600 0.000000
-5.564900 0.000000
-5.540200 0.000000
-5.515600 0.000000
-5.490900 0.000000
-5.466200 0.000000
-5.441500 0.000000
-5.416900 0.000000
-5.392200 0.000000
-5.367500 0.000000
-5.342800 0.000000
-5.318100 0.000000
-5.293500 0.000000
-5.268800 0.000000
-5.244100 0.000000
-5.219400 0.000000
-5.194800 0.000000
-5.170100 0.000000
-5.145400 0.000000
-5.120700 0.000000
-5.096100 0.000000
-5.071400 0.000000
-5.046700 0.000000
-5.022000 0.000000
-4.997400 0.000000
-4.972700 0.000000
-4.948000 0.000000
-4.923300 0.000000
-4.898700 0.000000
-4.874000 0.000000
-4.849300 0.000000
-4.824600 0.000000
-4.799900 0.000000
-4.775300 0.000000
-4.750600 0.000000
-4.725900 0.000000
-4.701200 0.000000
-4.676600 0.000000
-4.651900 0.000000
-4.627200 0.000000
-4.602500 0.000000
-4.577900 0.000000
-4.553200 0.000000
-4.528500 0.000000
-4.503800 0.000000
-4.479200 0.000000
-4.454500 0.000000
-4.429800 0.000000
-4.405100 0.000000
-4.380400 0.000000
-4.355800 0.000000
-4.331100 0.000000
-4.306400 0.000000
-4.281700 0.000000
-4.257100 0.000000
-4.232400 0.000000
-4.207700 0.000000
-4.183000 0.000000
-4.158400 0.000000
-4.133700 0.000000
-4.109000 0.000000
-4.084300 0.000000
-4.059700 0.000000
-4.035000 0.000000
-4.010300 0.000000
-3.985600 0.000000
-3.961000 0.000000
-3.936300 0.000000
-3.911600 0.000000
-3.886900 0.000000
-3.862200 0.000000
-3.837600 0.000000
-3.812900 0.003000
-3.788200 0.048000
-3.763500 0.146700
-3.738900 0.293600
-3.714200 0.476000
-3.689500 0.684700
-3.664800 0.886000
-3.640200 1.075100
-3.615500 1.228200
-3.590800 1.334600
-3.566100 1.406300
-3.541500 1.461000
-3.516800 1.520400
-3.492100 1.580500
-3.467400 1.638800
-3.442800 1.706100
-3.418100 1.784100
-3.393400 1.873600
-3.368700 2.004700
-3.344000 2.347500
-3.319400 2.791300
-3.294700 3.239600
-3.270000 3.338200
-3.245300 3.348900
-3.220700 3.331400
-3.196000 3.268000
-3.171300 3.192900
-3.146600 3.111900
-3.122000 3.069800
-3.097300 3.758100
-3.072600 3.563500
-3.047900 3.157000
-3.023300 2.506200
-2.998600 2.076200
-2.973900 1.859000
-2.949200 1.821400
-2.924600 1.824400
-2.899900 1.881800
-2.875200 1.933300
-2.850500 1.987800
-2.825800 2.053500
-2.801200 2.105000
-2.776500 2.049300
-2.751800 1.928500
-2.727100 1.754000
-2.702500 1.560800
-2.677800 1.328000
-2.653100 1.060000
-2.628400 0.613500
-2.603800 0.612100
-2.579100 0.609300
-2.554400 0.608000
-2.529700 0.609800
-2.505100 0.611600
-2.480400 0.613400
-2.455700 0.615200
-2.431000 0.617000
-2.406400 0.618800
-2.381700 0.620600
-2.357000 0.622400
-2.332300 0.624300
-2.307600 0.626100
-2.283000 0.627900
-2.258300 0.629700
-2.233600 0.631500
-2.208900 0.631700
-2.184300 0.624700
-2.159600 0.617400
-2.134900 0.635600
-2.110200 0.876300
-2.085600 1.058300
-2.060900 1.815600
-2.036200 1.547100
-2.011500 1.767700
-1.986900 1.657200
-1.962200 1.336300
-1.937500 0.735900
-1.912800 0.728500
-1.888200 0.721400
-1.863500 0.714400
-1.838800 0.707300
-1.814100 0.700200
-1.789400 0.693200
-1.764800 0.686100
-1.740100 0.679100
-1.715400 0.672000
-1.690700 0.665000
-1.666100 0.657900
-1.641400 0.650900
-1.616700 0.643800
-1.592000 0.636800
-1.567400 0.629700
-1.542700 0.622700
-1.518000 0.615600
-1.493300 0.608600
-1.468700 0.601500
-1.444000 0.594500
-1.419300 0.587400
-1.394600 0.580400
-1.369900 0.573300
-1.345300 0.566900
-1.320600 0.563700
-1.295900 0.563200
-1.271200 0.563100
-1.246600 0.563000
-1.221900 0.562800
-1.197200 0.562600
-1.172500 0.562500
-1.147900 0.562200
-1.123200 0.562000
-1.098500 0.584500
-1.073800 0.585300
-1.049200 0.581600
-1.024500 0.570000
-0.999800 0.560700
-0.975100 0.551500
-0.950500 0.542300
-0.925800 0.533000
-0.901100 0.523700
-0.876400 0.514500
-0.851700 0.506700
-0.827100 0.503000
-0.802400 0.503300
-0.777700 0.506300
-0.753000 0.511200
-0.728400 0.518100
-0.703700 0.526500
-0.679000 0.533800
-0.654300 0.537700
-0.629700 0.538200
-0.605000 0.535200
-0.580300 0.529500
-0.555600 0.521800
-0.531000 0.519100
-0.506300 0.538900
-0.481600 0.558400
-0.456900 0.575400
-0.432300 0.589100
-0.407600 0.588500
-0.382900 0.570900
-0.358200 0.539100
-0.333500 0.507300
-0.308900 0.477100
-0.284200 0.448500
-0.259500 0.422000
-0.234800 0.399700
-0.210200 0.385800
-0.185500 0.372200
-0.160800 0.357800
-0.136100 0.343500
-0.111500 0.329700
-0.086800 0.316500
-0.062100 0.303900
-0.037400 0.291900
-0.012800 0.280400
0.011900 0.268200
0.036600 0.250000
0.061300 0.225000
0.085900 0.195800
0.110600 0.169500
0.135300 0.158100
0.160000 0.149400
0.184700 0.140900
0.209300 0.132500
0.234000 0.124300
0.258700 0.116300
0.283400 0.108500
0.308000 0.100900
0.332700 0.839600
0.357400 1.287700
0.382100 1.527500
0.406700 1.836100
0.431400 2.085600
0.456100 2.033600
0.480800 1.828500
0.505400 1.655800
0.530100 1.414600
0.554800 1.227500
0.579500 1.101500
0.604100 1.092100
0.628800 1.110700
0.653500 1.129500
0.678200 1.149200
0.702900 1.169800
0.727500 1.192000
0.752200 1.254800
0.776900 1.386200
0.801600 1.503400
0.826200 1.583000
0.850900 1.637000
0.875600 1.662200
0.900300 1.680100
0.924900 1.823600
0.949600 2.055500
0.974300 2.308600
0.999000 2.564400
1.023600 2.644100
1.048300 2.789200
1.073000 3.079700
1.097700 3.167000
1.122300 2.992700
1.147000 3.039000
1.171700 3.161800
1.196400 3.402300
1.221100 3.724600
1.245700 3.950600
1.270400 4.219200
1.295100 4.300800
1.319800 4.437100
1.344400 4.476800
1.369100 4.491300
1.393800 4.347900
1.418500 4.207800
1.443100 4.067800
1.467800 4.024900
1.492500 3.966000
1.517200 3.483900
1.541800 2.931300
1.566500 2.590400
1.591200 2.292900
1.615900 2.029500
1.640600 1.788500
1.665200 1.640900
1.689900 1.537000
1.714600 1.396100
1.739300 1.336300
1.763900 1.328000
1.788600 1.325700
1.813300 1.327400
1.838000 1.330600
1.862600 1.333600
1.887300 1.322000
1.912000 1.344300
1.936700 1.343400
1.961300 1.321900
1.986000 1.294900
2.010700 1.265900
2.035400 1.246000
2.060000 1.242200
2.084700 1.255700
2.109400 1.265000
2.134100 1.289000
2.158800 1.308300
2.183400 1.323900
2.208100 1.344400
2.232800 1.363400
2.257500 1.377000
2.282100 1.385800
2.306800 1.444700
2.331500 1.479000
2.356200 1.528500
2.380800 1.586900
2.405500 1.658300
2.430200 1.731900
2.454900 1.797200
2.479500 1.825300
2.504200 1.847200
2.528900 1.941900
2.553600 2.007200
2.578200 2.010200
2.602900 2.034000
2.627600 2.076300
2.652300 2.133200
2.677000 2.202000
2.701600 2.283100
2.726300 2.374500
2.751000 2.462700
2.775700 2.540500
2.800300 2.609800
2.825000 2.636900
2.849700 2.709700
2.874400 2.798400
2.899000 2.865700
2.923700 2.915700
2.948400 2.992800
2.973100 2.984300
2.997700 2.734200
3.022400 2.504500
3.047100 2.307500
3.071800 2.141300
3.096400 1.972700
3.121100 1.869200
3.145800 1.802800
3.170500 1.826600
3.195200 1.874200
3.219800 1.982500
3.244500 1.969400
3.269200 1.832400
3.293900 1.864900
3.318500 1.884100
3.343200 1.877000
3.367900 1.863400
3.392600 2.029400
3.417200 2.382100
3.441900 3.777800
3.466600 3.990900
3.491300 3.884100
3.515900 3.913000
3.540600 3.960900
3.565300 4.018300
3.590000 4.072100
3.614600 3.960500
3.639300 3.828600
3.664000 3.694200
3.688700 3.558700
3.713400 3.365600
3.738000 3.295800
3.762700 2.889300
3.787400 1.959800
3.812100 1.360000
3.836700 1.072900
3.861400 0.766900
3.886100 0.532200
3.910800 0.432100
3.935400 0.397100
3.960100 0.393100
3.984800 0.409800
4.009500 0.443900
4.034100 0.496000
4.058800 0.569400
4.083500 0.689900
4.108200 0.855900
4.132800 1.038600
4.157500 1.261000
4.182200 1.463700
4.206900 1.631300
4.231600 1.797300
4.256200 1.972300
4.280900 2.159500
4.305600 2.353200
4.330300 2.556300
4.354900 2.812600
4.379600 3.106100
4.404300 3.426700
4.429000 3.801700
4.453600 4.134500
4.478300 4.413100
4.503000 4.719700
4.527700 4.993200
4.552300 4.900200
4.577000 4.679100
4.601700 4.502000
4.626400 4.173300
4.651100 3.873700
4.675700 3.682500
4.700400 3.730600
4.725100 3.868500
4.749800 4.350700
4.774400 4.517300
4.799100 4.842900
4.823800 4.760000
4.848500 4.589600
4.873100 4.193200
4.897800 3.746200
4.922500 3.392700
4.947200 3.088400
4.971800 2.868000
4.996500 2.862800
5.021200 2.632300
5.045900 2.670200
5.070500 2.326900
5.095200 2.325100
5.119900 1.823400
5.144600 1.817300
5.169300 1.812000
5.193900 1.787600
5.218600 1.750400
5.243300 1.708000
5.268000 1.660100
5.292600 1.598500
5.317300 1.513900
5.342000 1.501900
5.366700 1.577700
5.391300 1.055500
5.416000 0.762600
5.440700 0.533100
5.465400 0.471800
5.490000 0.432800
5.514700 0.395400
5.539400 0.359500
5.564100 0.325300
5.588700 0.292600
5.613400 0.260500
5.638100 0.228600
5.662800 0.196000
5.687500 0.162100
5.712100 0.128900
5.736800 0.098300
5.761500 0.070200
5.786200 0.045400
5.810800 0.026000
5.835500 0.011900
5.860200 0.003300
5.884900 0.000000
5.909500 0.000000
5.934200 0.000000
5.958900 0.000000
5.983600 0.000000
6.008200 0.000000
6.032900 0.000000
6.057600 0.000000
6.082300 0.000000
6.106900 0.000000
6.131600 0.000000
6.156300 0.000000
6.181000 0.000000
6.205700 0.000000
6.230300 0.000000
6.255000 0.000000
6.279700 0.000000
6.304400 0.000000
6.329000 0.000000
6.353700 0.000000
6.378400 0.000000
6.403100 0.000000
6.427700 0.000000
6.452400 0.000000
6.477100 0.000000
6.501800 0.000000
6.526400 0.000000
6.551100 0.000000
6.575800 0.000000
6.600500 0.000000
6.625100 0.000000
6.649800 0.000000
6.674500 0.000000
6.699200 0.000000
6.723900 0.000000
6.748500 0.000000
6.773200 0.000000
6.797900 0.000000
6.822600 0.000000
6.847200 0.000000
6.871900 0.000000
6.896600 0.000000
6.921300 0.000000
6.945900 0.000000
6.970600 0.000000
6.995300 0.000800
7.020000 0.003400
7.044600 0.007900
7.069300 0.014200
7.094000 0.022300
7.118700 0.032300
7.143300 0.044100
7.168000 0.057700
7.192700 0.073200
7.217400 0.090500
7.242100 0.109600
7.266700 0.130700
7.291400 0.156600
7.316100 0.188700
7.340800 0.227600
7.365400 0.273800
7.390100 0.323400
7.414800 0.366700
7.439500 0.403400
7.464100 0.434300
7.488800 0.454400
7.513500 0.465800
7.538200 0.486200
7.562800 0.516000
7.587500 0.565700
7.612200 0.631800
7.636900 0.710600
7.661600 0.802600
7.686200 0.907500
7.710900 1.021600
7.735600 1.134700
7.760300 1.244100
7.784900 1.385700
7.809600 1.568800
7.834300 1.692300
7.859000 1.803400
7.883600 1.909800
7.908300 2.008600
7.933000 2.101700
7.957700 2.187000
7.982300 2.362500
8.007000 2.439800
8.031700 2.514100
8.056400 2.586200
8.081000 2.656500
8.105700 2.726100
8.130400 2.801700
8.155100 2.920200
8.179800 3.109600
8.204400 3.253900
8.229100 3.423500
8.253800 3.617400
8.278500 3.615100
8.303100 3.529900
8.327800 3.452500
8.352500 3.389100
8.377200 3.330500
8.401800 3.260100
8.426500 3.161800
8.451200 3.002700
8.475900 2.818900
8.500500 2.718700
8.525200 2.653300
8.549900 2.603200
8.574600 2.568500
8.599200 2.546100
8.623900 2.536500
8.648600 2.532200
8.673300 2.580500
8.698000 2.632100
8.722600 2.644600
8.747300 2.618600
8.772000 2.616400
8.796700 2.701700
8.821300 2.695900
8.846000 2.615700
8.870700 2.411800
8.895400 2.135700
8.920000 1.920300
8.944700 1.755600
8.969400 1.604200
8.994100 1.544600
9.018700 1.495700
9.043400 1.445900
9.068100 1.398400
9.092800 1.347200
9.117400 1.292000
9.142100 1.239600
9.166800 1.189300
9.191500 1.138000
9.216200 1.085600
9.240800 1.036300
9.265500 1.002400
9.290200 0.974200
9.314900 0.947500
9.339500 0.904800
9.364200 0.875800
9.388900 0.864400
9.413600 0.838100
9.438200 0.806000
9.462900 0.766800
9.487600 0.728100
9.512300 0.707300
9.536900 0.713700
9.561600 0.790100
9.586300 1.031900
9.611000 1.372900
9.635600 1.798300
9.660300 2.188000
9.685000 2.439600
9.709700 2.634900
9.734400 2.761700
9.759000 2.825200
9.783700 2.875500
9.808400 3.016200
9.833100 3.193600
9.857700 3.381300
9.882400 3.545400
9.907100 3.659200
9.931800 3.654400
9.956400 3.575200
9.981100 3.450700
10.005800 3.364800
10.030500 3.239600
10.055100 3.121700
10.079800 3.037300
10.104500 2.973500
10.129200 2.954300
10.153800 2.988500
10.178500 3.173700
10.203200 3.438400
10.227900 3.709400
10.252600 3.885400
10.277200 3.953200
10.301900 3.573500
10.326600 3.337200
10.351300 3.064400
10.375900 2.777100
10.400600 2.678900
10.425300 2.579800
10.450000 2.462300
10.474600 2.459400
10.499300 2.506000
10.524000 2.546100
10.548700 2.540200
10.573300 2.537100
10.598000 2.489900
10.622700 2.437900
10.647400 2.340100
10.672100 2.246800
10.696700 2.178000
10.721400 2.103800
10.746100 2.102000
10.770800 2.070700
10.795400 1.999600
10.820100 1.925900
10.844800 1.866500
10.869500 1.816900
10.894100 1.766200
10.918800 1.651200
10.943500 1.519600
10.968200 1.415300
10.992800 1.205700
11.017500 1.033400
11.042200 0.892100
11.066900 0.783200
11.091500 0.752600
11.116200 0.794800
11.140900 0.867500
11.165600 0.962600
11.190300 1.059300
11.214900 1.148200
11.239600 1.232300
11.264300 1.309900
11.289000 1.397500
11.313600 1.501200
11.338300 1.620000
11.363000 1.720400
11.387700 1.816000
11.412300 1.923300
11.437000 2.034900
11.461700 2.192200
11.486400 2.342000
11.511000 2.402100
11.535700 2.478000
11.560400 2.494600
11.585100 2.477100
11.609700 2.470000
11.634400 2.545600
11.659100 2.652500
11.683800 2.721300
11.708500 2.750500
11.733100 2.794900
11.757800 2.901500
11.782500 2.977800
11.807200 3.005700
11.831800 3.033200
11.856500 3.046100
11.881200 3.063100
11.905900 3.103800
11.930500 3.122200
11.955200 3.097300
11.979900 3.030200
12.004600 2.953100
12.029200 2.883700
12.053900 2.760700
12.078600 2.639500
12.103300 2.695400
12.127900 2.841400
12.152600 2.998500
12.177300 3.112800
12.202000 3.313100
12.226700 3.420900
12.251300 2.947700
12.276000 2.716800
12.300700 2.748900
12.325400 2.915000
12.350000 3.154400
12.374700 3.721000
12.399400 3.872900
12.424100 3.813600
12.448700 3.068800
12.473400 2.840100
12.498100 2.507400
12.522800 2.211500
12.547400 1.984600
12.572100 1.790300
12.596800 1.608900
12.621500 1.439900
12.646100 1.283200
12.670800 1.133500
12.695500 1.015500
12.720200 0.905800
12.744900 0.698200
12.769500 0.394900
12.794200 0.331200
12.818900 0.314700
