set title 'mp-568390 - Density of States'
set xlabel 'Energy (eV)'
set ylabel 'DOS (states/eV)'
set grid
set xrange [-10:10]
set yrange [0:8.336]
set xzeroaxis lt -1
set terminal png size 800,600
set output 'mp-568390_dos_gnuplot.png'
plot '-' using 1:2 with lines title 'DOS'
-9.032400 0.000000
-9.015700 0.000000
-8.999000 0.000000
-8.982300 0.000000
-8.965600 0.000000
-8.948900 0.000000
-8.932200 0.000000
-8.915500 0.000000
-8.898800 0.000000
-8.882100 0.000000
-8.865400 0.000000
-8.848700 0.000000
-8.832000 0.000000
-8.815300 0.000000
-8.798600 0.000000
-8.781900 0.000000
-8.765200 0.000000
-8.748500 0.000000
-8.731800 0.000000
-8.715100 0.000000
-8.698400 0.000000
-8.681700 0.000000
-8.665000 0.000000
-8.648300 0.000000
-8.631600 0.000000
-8.614900 0.000000
-8.598200 0.000000
-8.581500 0.000000
-8.564800 0.000000
-8.548100 0.000000
-8.531400 0.000000
-8.514700 0.000000
-8.498000 0.000000
-8.481300 0.000000
-8.464600 0.000000
-8.447900 0.000000
-8.431200 0.000000
-8.414500 0.000000
-8.397800 0.000000
-8.381100 0.000000
-8.364400 0.000000
-8.347700 0.000000
-8.331000 0.000000
-8.314300 0.000000
-8.297600 0.000000
-8.280900 0.000000
-8.264200 0.000000
-8.247600 0.000000
-8.230900 0.000000
-8.214200 0.000000
-8.197500 0.000000
-8.180800 0.000000
-8.164100 0.000000
-8.147400 0.000000
-8.130700 0.000000
-8.114000 0.000000
-8.097300 0.000000
-8.080600 0.000000
-8.063900 0.000000
-8.047200 0.000000
-8.030500 0.000000
-8.013800 0.000000
-7.997100 0.000000
-7.980400 0.000000
-7.963700 0.000000
-7.947000 0.000000
-7.930300 0.000000
-7.913600 0.000000
-7.896900 0.000000
-7.880200 0.000000
-7.863500 0.000000
-7.846800 0.000000
-7.830100 0.000000
-7.813400 0.000000
-7.796700 0.000000
-7.780000 0.000000
-7.763300 0.000000
-7.746600 0.000000
-7.729900 0.000000
-7.713200 0.000000
-7.696500 0.000000
-7.679800 0.000000
-7.663100 0.000000
-7.646400 0.000000
-7.629700 0.000000
-7.613000 0.000000
-7.596300 0.000000
-7.579600 0.000000
-7.562900 0.000000
-7.546200 0.000000
-7.529500 0.000000
-7.512800 0.002400
-7.496100 0.041500
-7.479400 0.102800
-7.462700 0.181800
-7.446000 0.270700
-7.429300 0.369500
-7.412600 0.478100
-7.395900 0.596100
-7.379200 0.581000
-7.362500 0.590300
-7.345800 0.618100
-7.329100 0.644400
-7.312400 0.674900
-7.295700 0.713400
-7.279000 0.763500
-7.262300 0.807800
-7.245600 0.846100
-7.228900 0.879700
-7.212200 0.909700
-7.195500 0.932700
-7.178800 0.945600
-7.162100 0.948400
-7.145400 0.949200
-7.128700 1.009100
-7.112000 1.072600
-7.095300 1.120500
-7.078600 1.154300
-7.061900 1.175700
-7.045200 1.195100
-7.028500 1.213900
-7.011800 1.233300
-6.995100 1.257000
-6.978400 1.282900
-6.961700 1.309400
-6.945000 1.336800
-6.928300 1.363300
-6.911600 1.387400
-6.894900 1.412700
-6.878200 1.439100
-6.861500 1.466500
-6.844800 1.495100
-6.828100 1.525200
-6.811400 1.559600
-6.794700 1.602600
-6.778000 1.646000
-6.761300 1.689200
-6.744600 1.732100
-6.727900 1.775100
-6.711200 1.818100
-6.694500 1.861400
-6.677800 1.923300
-6.661100 1.998000
-6.644400 2.067100
-6.627700 2.122600
-6.611000 2.156300
-6.594300 2.162200
-6.577600 2.138100
-6.560900 2.110200
-6.544200 2.129100
-6.527500 2.147700
-6.510800 2.166400
-6.494100 2.184600
-6.477400 2.202100
-6.460700 2.218800
-6.444000 2.234700
-6.427300 2.251800
-6.410600 2.269700
-6.393900 2.287700
-6.377200 2.303400
-6.360500 2.315800
-6.343800 2.330000
-6.327100 2.346100
-6.310400 2.364100
-6.293700 2.385300
-6.277000 2.412800
-6.260300 2.442700
-6.243600 2.473500
-6.226900 2.504800
-6.210200 2.536900
-6.193500 2.570300
-6.176800 2.605100
-6.160100 2.641600
-6.143400 2.680100
-6.126700 2.720300
-6.110000 2.763500
-6.093300 2.815600
-6.076600 2.875400
-6.060000 2.941100
-6.043300 3.016100
-6.026600 3.223700
-6.009900 3.699000
-5.993200 4.032800
-5.976500 4.378000
-5.959800 4.534100
-5.943100 4.536100
-5.926400 4.364700
-5.909700 4.093200
-5.893000 3.848000
-5.876300 3.660100
-5.859600 3.914500
-5.842900 4.615000
-5.826200 4.559100
-5.809500 3.889000
-5.792800 3.560700
-5.776100 3.273000
-5.759400 3.025600
-5.742700 2.753800
-5.726000 2.657500
-5.709300 2.567700
-5.692600 2.515600
-5.675900 2.447800
-5.659200 2.361400
-5.642500 2.256500
-5.625800 2.140700
-5.609100 2.026400
-5.592400 1.913500
-5.575700 1.428100
-5.559000 1.354500
-5.542300 0.473700
-5.525600 0.501700
-5.508900 0.530500
-5.492200 0.563800
-5.475500 0.597600
-5.458800 0.632200
-5.442100 0.670900
-5.425400 0.711300
-5.408700 0.753600
-5.392000 0.797200
-5.375300 0.840100
-5.358600 0.884000
-5.341900 0.929300
-5.325200 0.975900
-5.308500 1.023900
-5.291800 1.074700
-5.275100 1.143800
-5.258400 1.226600
-5.241700 1.324300
-5.225000 1.448500
-5.208300 1.638200
-5.191600 1.883900
-5.174900 2.214500
-5.158200 2.713100
-5.141500 3.617600
-5.124800 4.957700
-5.108100 5.575000
-5.091400 5.535800
-5.074700 5.186200
-5.058000 6.801400
-5.041300 7.511200
-5.024600 7.578500
-5.007900 6.996500
-4.991200 5.687800
-4.974500 4.266300
-4.957800 3.401100
-4.941100 2.873500
-4.924400 2.543800
-4.907700 2.361200
-4.891000 2.233400
-4.874300 2.189400
-4.857600 2.312900
-4.840900 2.577500
-4.824200 2.824100
-4.807500 3.788500
-4.790800 4.069800
-4.774100 3.643700
-4.757400 2.993800
-4.740700 2.372600
-4.724000 2.661700
-4.707300 2.765400
-4.690600 2.819200
-4.673900 3.502900
-4.657200 4.340900
-4.640500 3.683000
-4.623800 3.541300
-4.607100 3.508900
-4.590400 3.569100
-4.573700 3.764400
-4.557000 3.916800
-4.540300 3.831300
-4.523600 3.614300
-4.506900 3.501400
-4.490200 3.522800
-4.473500 3.533700
-4.456800 3.595900
-4.440100 3.998300
-4.423400 4.104100
-4.406700 3.918600
-4.390000 3.043100
-4.373300 2.957600
-4.356600 2.892100
-4.339900 2.835500
-4.323200 2.781200
-4.306500 2.697000
-4.289800 2.633000
-4.273100 2.609800
-4.256400 2.799400
-4.239700 3.090300
-4.223000 3.256700
-4.206300 3.265800
-4.189600 3.088100
-4.172900 3.030400
-4.156200 3.009300
-4.139500 2.971900
-4.122800 2.899100
-4.106100 2.878600
-4.089400 2.866300
-4.072700 2.859400
-4.056000 2.853400
-4.039300 2.830500
-4.022600 2.743000
-4.005900 2.624700
-3.989200 2.420600
-3.972500 2.294400
-3.955800 2.218400
-3.939100 2.148200
-3.922400 2.082500
-3.905700 2.016800
-3.889000 1.950600
-3.872300 1.884000
-3.855700 1.818300
-3.839000 1.762800
-3.822300 1.716000
-3.805600 1.676300
-3.788900 1.641900
-3.772200 1.607200
-3.755500 1.578300
-3.738800 1.549000
-3.722100 1.517600
-3.705400 1.483200
-3.688700 1.445000
-3.672000 1.404400
-3.655300 1.365600
-3.638600 1.330100
-3.621900 1.297000
-3.605200 1.263200
-3.588500 1.229800
-3.571800 1.197300
-3.555100 1.166300
-3.538400 1.136900
-3.521700 1.109200
-3.505000 1.082700
-3.488300 1.056600
-3.471600 1.030900
-3.454900 1.006500
-3.438200 0.983700
-3.421500 0.962300
-3.404800 0.942300
-3.388100 0.923800
-3.371400 0.906700
-3.354700 0.891800
-3.338000 0.881000
-3.321300 0.874300
-3.304600 1.035000
-3.287900 0.759600
-3.271200 0.751900
-3.254500 0.744200
-3.237800 0.736200
-3.221100 0.728100
-3.204400 0.719700
-3.187700 0.711200
-3.171000 0.702400
-3.154300 0.693400
-3.137600 0.683800
-3.120900 0.674000
-3.104200 0.664100
-3.087500 0.654500
-3.070800 0.660100
-3.054100 0.662800
-3.037400 0.662400
-3.020700 0.659000
-3.004000 0.652600
-2.987300 0.643300
-2.970600 0.631100
-2.953900 0.615800
-2.937200 0.597800
-2.920500 0.576900
-2.903800 0.551000
-2.887100 0.515900
-2.870400 0.484100
-2.853700 0.471600
-2.837000 0.459200
-2.820300 0.446900
-2.803600 0.434600
-2.786900 0.422300
-2.770200 0.410100
-2.753500 0.397900
-2.736800 0.385800
-2.720100 0.373800
-2.703400 0.361800
-2.686700 0.349900
-2.670000 0.338400
-2.653300 0.327000
-2.636600 0.315900
-2.619900 0.305000
-2.603200 0.294200
-2.586500 0.283700
-2.569800 0.273200
-2.553100 0.262700
-2.536400 0.258000
-2.519700 0.258700
-2.503000 0.259400
-2.486300 0.243800
-2.469600 0.219200
-2.452900 0.195500
-2.436200 0.172700
-2.419500 0.150900
-2.402800 0.129900
-2.386100 0.109800
-2.369400 0.090700
-2.352700 0.072800
-2.336000 0.056600
-2.319300 0.042200
-2.302600 0.029400
-2.285900 0.018400
-2.269200 0.009100
-2.252500 0.001500
-2.235800 0.000000
-2.219100 0.000000
-2.202400 0.000000
-2.185700 0.000000
-2.169000 0.000000
-2.152300 0.000000
-2.135600 0.000000
-2.118900 0.000000
-2.102200 0.000000
-2.085500 0.000000
-2.068800 0.000000
-2.052100 0.000000
-2.035400 0.000000
-2.018700 0.000000
-2.002000 0.000000
-1.985300 0.000000
-1.968600 0.000000
-1.951900 0.000000
-1.935200 0.000000
-1.918500 0.000000
-1.901800 0.000000
-1.885100 0.000000
-1.868400 0.000000
-1.851700 0.000000
-1.835000 0.000000
-1.818300 0.000000
-1.801600 0.000000
-1.784900 0.000000
-1.768200 0.000000
-1.751500 0.000000
-1.734800 0.000000
-1.718100 0.000000
-1.701400 0.000000
-1.684700 0.000000
-1.668100 0.000000
-1.651400 0.000000
-1.634700 0.000000
-1.618000 0.000000
-1.601300 0.000000
-1.584600 0.000000
-1.567900 0.000000
-1.551200 0.000000
-1.534500 0.000000
-1.517800 0.000000
-1.501100 0.000000
-1.484400 0.000000
-1.467700 0.000000
-1.451000 0.000000
-1.434300 0.000000
-1.417600 0.000000
-1.400900 0.000000
-1.384200 0.000000
-1.367500 0.000000
-1.350800 0.000000
-1.334100 0.000000
-1.317400 0.000000
-1.300700 0.000000
-1.284000 0.000000
-1.267300 0.000000
-1.250600 0.000000
-1.233900 0.000000
-1.217200 0.000000
-1.200500 0.000000
-1.183800 0.000000
-1.167100 0.000000
-1.150400 0.000000
-1.133700 0.000000
-1.117000 0.000000
-1.100300 0.000000
-1.083600 0.000000
-1.066900 0.000000
-1.050200 0.000000
-1.033500 0.000000
-1.016800 0.000000
-1.000100 0.000000
-0.983400 0.000000
-0.966700 0.000000
-0.950000 0.000000
-0.933300 0.000000
-0.916600 0.000000
-0.899900 0.000000
-0.883200 0.000000
-0.866500 0.000000
-0.849800 0.000000
-0.833100 0.000000
-0.816400 0.000000
-0.799700 0.000000
-0.783000 0.000000
-0.766300 0.000000
-0.749600 0.000000
-0.732900 0.000000
-0.716200 0.000000
-0.699500 0.000000
-0.682800 0.000000
-0.666100 0.000000
-0.649400 0.000000
-0.632700 0.000000
-0.616000 0.000000
-0.599300 0.000000
-0.582600 0.000000
-0.565900 0.000000
-0.549200 0.000000
-0.532500 0.000000
-0.515800 0.000000
-0.499100 0.000000
-0.482400 0.000000
-0.465700 0.000000
-0.449000 0.000000
-0.432300 0.000000
-0.415600 0.000000
-0.398900 0.000000
-0.382200 0.000000
-0.365500 0.000000
-0.348800 0.000000
-0.332100 0.000000
-0.315400 0.000000
-0.298700 0.000000
-0.282000 0.000000
-0.265300 0.000000
-0.248600 0.000000
-0.231900 0.000000
-0.215200 0.000000
-0.198500 0.000000
-0.181800 0.000000
-0.165100 0.000000
-0.148400 0.000000
-0.131700 0.000000
-0.115000 0.000000
-0.098300 0.000000
-0.081600 0.000000
-0.064900 0.000000
-0.048200 0.000000
-0.031500 0.000000
-0.014800 0.000000
0.001900 0.000000
0.018600 0.000000
0.035300 0.000000
0.052000 0.000000
0.068700 0.000000
0.085400 0.000000
0.102100 0.000000
0.118800 0.000000
0.135500 0.000000
0.152200 0.000000
0.168900 0.000000
0.185600 0.000000
0.202300 0.000000
0.219000 0.000000
0.235700 0.000000
0.252400 0.000000
0.269100 0.000000
0.285800 0.000000
0.302500 0.000000
0.319200 0.000000
0.335900 0.000000
0.352600 0.000000
0.369300 0.000000
0.386000 0.000000
0.402700 0.011900
0.419400 0.045200
0.436100 0.089100
0.452800 0.143700
0.469500 0.208900
0.486200 0.285400
0.502900 0.378700
0.519500 0.489800
0.536200 0.619000
0.552900 0.743900
0.569600 0.838500
0.586300 0.929900
0.603000 1.019400
0.619700 1.160300
0.636400 1.353300
0.653100 1.289900
0.669800 1.228300
0.686500 1.242000
0.703200 1.278900
0.719900 1.341400
0.736600 1.420500
0.753300 1.509600
0.770000 1.601000
0.786700 1.715900
0.803400 1.860900
0.820100 1.998400
0.836800 2.111700
0.853500 2.233800
0.870200 2.363000
0.886900 2.436500
0.903600 2.433200
0.920300 2.353100
0.937000 2.276900
0.953700 2.261400
0.970400 2.219500
0.987100 2.129800
1.003800 2.163100
1.020500 2.185000
1.037200 2.197900
1.053900 2.229100
1.070600 2.251100
1.087300 2.257000
1.104000 2.240500
1.120700 2.189300
1.137400 2.098600
1.154100 1.987200
1.170800 1.957400
1.187500 1.996100
1.204200 2.111800
1.220900 2.386600
1.237600 3.248200
1.254300 2.304500
1.271000 2.297400
1.287700 2.310600
1.304400 2.334400
1.321100 2.368400
1.337800 2.356200
1.354500 2.376200
1.371200 2.387700
1.387900 2.391100
1.404600 2.400500
1.421300 2.458500
1.438000 2.524200
1.454700 2.597900
1.471400 2.679100
1.488100 2.766100
1.504800 2.858700
1.521500 2.952200
1.538200 3.050100
1.554900 3.153400
1.571600 3.332300
1.588300 3.784100
1.605000 3.625200
1.621700 3.554200
1.638400 3.623500
1.655100 4.111100
1.671800 4.428000
1.688500 4.222600
1.705200 4.040000
1.721900 3.871000
1.738600 3.909300
1.755300 4.231600
1.772000 4.220000
1.788700 4.215200
1.805400 4.219900
1.822100 4.398200
1.838800 4.520100
1.855500 4.628200
1.872200 4.834100
1.888900 4.865400
1.905600 4.593000
1.922300 4.440900
1.939000 4.269400
1.955700 4.247500
1.972400 4.232100
1.989100 4.211900
2.005800 4.185200
2.022500 4.149900
2.039200 4.107500
2.055900 4.071200
2.072600 4.107200
2.089300 4.401400
2.106000 4.249800
2.122700 4.318200
2.139400 4.452200
2.156100 4.661000
2.172800 5.004100
2.189500 5.245100
2.206200 5.393000
2.222900 5.539400
2.239600 5.242900
2.256300 5.239400
2.273000 5.246100
2.289700 5.271600
2.306400 5.313000
2.323100 5.334300
2.339800 5.329600
2.356500 5.486200
2.373200 5.528000
2.389900 5.464700
2.406600 5.348500
2.423300 5.419200
2.440000 5.844300
2.456700 5.811600
2.473400 5.262400
2.490100 5.112400
2.506800 5.147600
2.523500 4.987300
2.540200 4.721200
2.556900 4.374400
2.573600 4.175200
2.590300 4.038000
2.607000 3.999100
2.623700 4.253300
2.640400 4.455800
2.657100 4.518700
2.673800 4.391400
2.690500 4.296600
2.707100 4.124100
2.723800 4.150800
2.740500 4.182500
2.757200 4.211600
2.773900 4.271500
2.790600 4.336000
2.807300 4.402400
2.824000 4.469500
2.840700 4.532600
2.857400 4.592300
2.874100 4.660600
2.890800 4.733300
2.907500 4.807900
2.924200 4.885700
2.940900 4.970900
2.957600 5.930600
2.974300 5.786700
2.991000 5.381700
3.007700 5.416700
3.024400 5.453100
3.041100 5.477100
3.057800 5.498100
3.074500 5.509700
3.091200 5.521900
3.107900 5.538100
3.124600 5.534300
3.141300 5.518400
3.158000 5.478800
3.174700 5.595400
3.191400 5.567200
3.208100 5.340900
3.224800 5.108400
3.241500 4.976400
3.258200 4.891300
3.274900 4.767900
3.291600 4.628800
3.308300 4.433400
3.325000 4.189300
3.341700 4.033700
3.358400 3.891400
3.375100 3.760400
3.391800 3.644200
3.408500 3.542400
3.425200 3.462000
3.441900 3.418000
3.458600 3.195200
3.475300 3.107800
3.492000 3.033200
3.508700 2.963900
3.525400 2.912800
3.542100 2.834300
3.558800 2.707200
3.575500 2.547400
3.592200 2.389600
3.608900 2.260400
3.625600 2.168600
3.642300 2.109600
3.659000 2.112900
3.675700 2.190000
3.692400 2.260200
3.709100 2.408900
3.725800 2.499000
3.742500 2.555000
3.759200 2.546600
3.775900 2.636300
3.792600 3.254600
3.809300 2.057400
3.826000 1.851600
3.842700 1.733500
3.859400 1.633100
3.876100 1.572600
3.892800 1.544000
3.909500 1.547300
3.926200 1.577700
3.942900 1.635900
3.959600 1.730000
3.976300 1.846600
3.993000 1.921900
4.009700 1.897600
4.026400 1.853200
4.043100 1.796100
4.059800 1.731900
4.076500 1.665000
4.093200 1.633900
4.109900 1.618100
4.126600 1.583200
4.143300 1.541800
4.160000 1.515100
4.176700 1.498100
4.193400 1.477900
4.210100 1.469600
4.226800 1.514500
4.243500 1.584200
4.260200 1.693500
4.276900 2.096100
4.293600 3.013300
4.310300 3.738300
4.327000 3.469500
4.343700 3.252900
4.360400 3.137800
4.377100 3.053200
4.393800 2.999300
4.410500 2.976200
4.427200 2.956700
4.443900 2.920000
4.460600 2.866100
4.477300 2.806800
4.494000 2.709300
4.510700 2.610500
4.527400 2.532800
4.544100 2.497500
4.560800 2.469300
4.577500 2.447800
4.594200 2.433500
4.610900 2.440100
4.627600 2.476600
4.644300 2.583800
4.661000 2.684200
4.677700 2.780400
4.694400 2.862300
4.711100 2.930300
4.727800 3.037200
4.744500 3.216800
4.761200 3.456600
4.777900 3.691900
4.794600 3.920000
4.811300 4.141400
4.828000 4.294500
4.844700 4.410900
4.861400 4.506000
4.878100 4.587900
4.894700 4.671600
4.911400 4.742500
4.928100 4.812800
4.944800 4.924100
4.961500 5.055300
4.978200 5.250900
4.994900 5.498800
5.011600 5.632500
5.028300 5.718600
5.045000 5.753500
5.061700 5.773500
5.078400 5.971100
5.095100 5.791500
5.111800 5.767000
5.128500 5.725700
5.145200 5.684600
5.161900 5.637000
5.178600 5.558900
5.195300 5.457100
5.212000 5.335000
5.228700 5.196900
5.245400 5.056400
5.262100 4.906400
5.278800 4.801800
5.295500 4.686700
5.312200 4.486400
5.328900 4.231200
5.345600 4.087400
5.362300 3.904200
5.379000 3.754200
5.395700 3.658300
5.412400 3.592000
5.429100 3.542300
5.445800 3.499200
5.462500 3.469900
5.479200 3.472700
5.495900 3.479000
5.512600 3.523100
5.529300 3.599500
5.546000 3.710500
5.562700 3.777100
5.579400 2.923500
5.596100 2.471500
5.612800 1.679000
5.629500 1.338500
5.646200 1.048800
5.662900 0.766200
5.679600 0.525000
5.696300 0.338300
5.713000 0.202700
5.729700 0.099000
5.746400 0.036000
5.763100 0.000000
5.779800 0.000000
5.796500 0.001300
5.813200 0.005200
5.829900 0.011600
5.846600 0.020400
5.863300 0.030800
5.880000 0.042700
5.896700 0.062800
5.913400 0.092900
5.930100 0.126600
5.946800 0.172900
5.963500 0.242700
5.980200 0.308800
5.996900 0.381700
6.013600 0.476700
6.030300 0.650800
6.047000 0.855700
6.063700 1.070600
6.080400 1.364700
6.097100 1.831800
6.113800 2.506800
6.130500 2.874400
6.147200 3.266500
6.163900 4.271400
6.180600 4.129400
6.197300 4.350400
6.214000 4.457500
6.230700 4.455100
6.247400 4.417400
6.264100 4.423600
6.280800 4.427200
6.297500 4.441200
6.314200 4.465500
6.330900 4.500200
6.347600 4.549200
6.364300 4.654800
6.381000 4.750900
6.397700 4.815300
6.414400 4.849300
6.431100 4.850100
6.447800 4.826600
6.464500 4.811000
6.481200 4.780000
6.497900 4.726300
6.514600 4.660000
6.531300 4.605600
6.548000 4.568900
6.564700 4.549000
6.581400 4.539400
6.598100 4.541600
6.614800 4.453500
6.631500 4.304700
6.648200 4.258200
6.664900 4.206300
6.681600 4.149700
6.698300 4.095200
6.715000 4.063400
6.731700 4.079800
6.748400 4.115800
6.765100 4.144500
6.781800 4.166900
6.798500 4.162000
6.815200 4.135700
6.831900 4.088700
6.848600 4.027300
6.865300 3.963100
6.882000 3.893500
6.898700 3.839200
6.915400 3.774200
6.932100 3.697700
6.948800 3.622900
6.965500 3.577900
6.982200 3.501000
6.998900 3.415900
7.015600 3.331000
7.032300 3.248200
7.049000 3.171200
7.065700 3.086800
7.082300 3.001500
7.099000 2.917600
7.115700 2.829000
7.132400 2.736500
7.149100 2.639600
7.165800 2.540400
7.182500 2.458300
7.199200 2.377400
7.215900 2.307700
7.232600 2.259600
7.249300 2.219700
7.266000 2.190500
7.282700 2.178400
7.299400 2.186200
7.316100 2.213900
7.332800 2.249700
7.349500 2.303800
7.366200 2.378700
7.382900 2.496700
7.399600 2.787700
7.416300 3.112900
7.433000 3.392200
7.449700 3.399900
7.466400 3.384900
7.483100 3.473500
7.499800 2.976400
7.516500 2.675100
7.533200 2.387700
7.549900 2.114100
7.566600 1.869100
7.583300 1.756000
7.600000 1.718300
7.616700 1.705300
7.633400 1.715900
7.650100 1.754400
7.666800 1.802200
7.683500 1.851400
7.700200 1.902500
7.716900 1.966400
7.733600 2.054200
7.750300 2.160700
7.767000 2.299200
7.783700 2.446600
7.800400 2.557500
7.817100 2.616300
7.833800 2.503800
7.850500 2.464700
7.867200 2.409400
7.883900 2.244800
7.900600 2.210800
7.917300 2.165500
7.934000 2.148000
7.950700 2.163800
7.967400 2.692000
7.984100 2.085400
8.000800 2.205500
8.017500 2.385000
8.034200 2.492500
8.050900 2.445600
8.067600 2.380000
8.084300 2.419400
8.101000 2.467400
8.117700 2.491600
8.134400 2.508700
8.151100 2.587600
8.167800 2.689000
8.184500 2.811600
8.201200 2.924600
8.217900 2.957000
8.234600 2.894200
8.251300 2.924800
8.268000 3.027600
8.284700 3.130700
8.301400 3.234100
8.318100 3.337500
8.334800 3.440600
8.351500 3.540700
8.368200 3.586400
8.384900 3.629000
8.401600 3.709700
8.418300 3.852900
8.435000 3.993500
8.451700 4.133500
8.468400 4.471600
8.485100 4.716700
8.501800 4.770600
8.518500 4.597900
8.535200 4.181500
8.551900 3.955300
8.568600 3.863400
8.585300 3.756900
8.602000 3.673000
8.618700 3.575700
8.635400 3.465600
8.652100 3.341500
8.668800 3.200900
8.685500 3.078300
8.702200 2.994300
8.718900 2.933500
8.735600 2.862300
