set title 'mp-1184511 - Density of States'
set xlabel 'Energy (eV)'
set ylabel 'DOS (states/eV)'
set grid
set xrange [-10:10]
set yrange [0:161.476]
set xzeroaxis lt -1
set terminal png size 800,600
set output 'mp-1184511_dos_gnuplot.png'
plot '-' using 1:2 with lines title 'DOS'
-9.352500 0.000000
-9.334600 0.000000
-9.316600 0.000000
-9.298700 0.000000
-9.280700 0.000000
-9.262800 0.000000
-9.244900 0.000000
-9.226900 0.000000
-9.209000 0.000000
-9.191000 0.000000
-9.173100 0.000000
-9.155200 0.000000
-9.137200 0.000000
-9.119300 0.000000
-9.101300 0.000000
-9.083400 0.000000
-9.065400 0.000000
-9.047500 0.000000
-9.029600 0.000000
-9.011600 0.000000
-8.993700 0.000000
-8.975700 0.000000
-8.957800 0.000000
-8.939800 0.000000
-8.921900 0.000000
-8.904000 0.000000
-8.886000 0.000000
-8.868100 0.000000
-8.850100 0.000000
-8.832200 0.000000
-8.814200 0.000000
-8.796300 0.000000
-8.778400 0.000000
-8.760400 0.000000
-8.742500 0.000000
-8.724500 0.000000
-8.706600 0.000000
-8.688700 0.000000
-8.670700 0.000000
-8.652800 0.000000
-8.634800 0.000000
-8.616900 0.000000
-8.598900 0.000000
-8.581000 0.000000
-8.563100 0.000000
-8.545100 0.000000
-8.527200 0.000000
-8.509200 0.000000
-8.491300 0.000000
-8.473300 0.000000
-8.455400 0.000000
-8.437500 0.000000
-8.419500 0.000000
-8.401600 0.000000
-8.383600 0.000000
-8.365700 0.000000
-8.347700 0.000000
-8.329800 0.000000
-8.311900 0.000000
-8.293900 0.000000
-8.276000 0.000000
-8.258000 0.000000
-8.240100 0.000000
-8.222200 0.000000
-8.204200 0.000000
-8.186300 0.000000
-8.168300 0.000000
-8.150400 0.000000
-8.132400 0.000000
-8.114500 0.000000
-8.096600 0.000000
-8.078600 0.000000
-8.060700 0.000000
-8.042700 0.000000
-8.024800 0.000000
-8.006800 0.000000
-7.988900 0.000000
-7.971000 0.000000
-7.953000 0.000000
-7.935100 0.000000
-7.917100 0.000000
-7.899200 0.000000
-7.881200 0.000000
-7.863300 0.000000
-7.845400 0.000000
-7.827400 0.000000
-7.809500 0.000000
-7.791500 0.000000
-7.773600 0.000000
-7.755700 0.000000
-7.737700 0.000000
-7.719800 0.719300
-7.701800 9.021600
-7.683900 18.069000
-7.665900 35.003800
-7.648000 67.733700
-7.630100 55.001800
-7.612100 56.585400
-7.594200 117.569900
-7.576200 86.703900
-7.558300 122.185400
-7.540300 88.268100
-7.522400 146.796500
-7.504500 122.562200
-7.486500 85.405300
-7.468600 70.958900
-7.450600 83.672200
-7.432700 49.283200
-7.414700 59.069800
-7.396800 80.318600
-7.378900 114.951100
-7.360900 88.177000
-7.343000 106.568900
-7.325000 132.871100
-7.307100 92.319500
-7.289200 103.602400
-7.271200 105.903600
-7.253300 138.111000
-7.235300 40.107300
-7.217400 0.000000
-7.199400 0.000000
-7.181500 0.000000
-7.163600 0.000000
-7.145600 0.000000
-7.127700 0.000000
-7.109700 0.000000
-7.091800 0.000000
-7.073800 0.000000
-7.055900 0.000000
-7.038000 0.000000
-7.020000 0.000000
-7.002100 0.000000
-6.984100 0.000000
-6.966200 0.000000
-6.948200 0.000000
-6.930300 0.000000
-6.912400 0.000000
-6.894400 0.000000
-6.876500 0.000000
-6.858500 0.000000
-6.840600 0.000000
-6.822700 0.000000
-6.804700 0.000000
-6.786800 0.000000
-6.768800 0.000000
-6.750900 0.000000
-6.732900 0.000000
-6.715000 0.000000
-6.697100 0.000000
-6.679100 0.000000
-6.661200 0.000000
-6.643200 0.000000
-6.625300 0.000000
-6.607300 0.000000
-6.589400 0.000000
-6.571500 0.000000
-6.553500 0.000000
-6.535600 0.000000
-6.517600 0.000000
-6.499700 0.000000
-6.481800 0.000000
-6.463800 0.000000
-6.445900 0.000000
-6.427900 0.000000
-6.410000 0.000000
-6.392000 0.000000
-6.374100 0.000000
-6.356200 0.000000
-6.338200 0.000000
-6.320300 0.000000
-6.302300 0.000000
-6.284400 0.000000
-6.266400 0.000000
-6.248500 0.000000
-6.230600 0.000000
-6.212600 0.000000
-6.194700 0.000000
-6.176700 0.000000
-6.158800 0.000000
-6.140800 0.000000
-6.122900 0.000000
-6.105000 0.000000
-6.087000 0.000000
-6.069100 0.000000
-6.051100 0.000000
-6.033200 0.000000
-6.015300 0.000000
-5.997300 0.000000
-5.979400 0.000000
-5.961400 0.000000
-5.943500 0.000000
-5.925500 0.000000
-5.907600 0.000000
-5.889700 0.000000
-5.871700 0.000000
-5.853800 0.000000
-5.835800 0.000000
-5.817900 0.000000
-5.799900 0.000000
-5.782000 0.000000
-5.764100 0.000000
-5.746100 0.000000
-5.728200 0.000000
-5.710200 0.000000
-5.692300 0.000000
-5.674300 0.000000
-5.656400 0.000000
-5.638500 0.000000
-5.620500 0.000000
-5.602600 0.000000
-5.584600 0.000000
-5.566700 0.000000
-5.548800 0.000000
-5.530800 0.000000
-5.512900 0.000000
-5.494900 0.000000
-5.477000 0.000000
-5.459000 0.000000
-5.441100 0.000000
-5.423200 0.000000
-5.405200 0.000000
-5.387300 0.000000
-5.369300 0.000000
-5.351400 0.000000
-5.333400 0.000000
-5.315500 0.000000
-5.297600 0.000000
-5.279600 0.000000
-5.261700 0.000000
-5.243700 0.000000
-5.225800 0.000000
-5.207800 0.000000
-5.189900 0.000000
-5.172000 0.000000
-5.154000 0.000000
-5.136100 0.000000
-5.118100 0.000000
-5.100200 0.000000
-5.082300 0.000000
-5.064300 0.000000
-5.046400 0.000000
-5.028400 0.000000
-5.010500 0.000000
-4.992500 0.000000
-4.974600 0.000000
-4.956700 0.000000
-4.938700 0.000000
-4.920800 0.000000
-4.902800 0.000000
-4.884900 0.000000
-4.866900 0.000000
-4.849000 0.000000
-4.831100 0.000000
-4.813100 0.000000
-4.795200 0.000000
-4.777200 0.000000
-4.759300 0.000000
-4.741300 0.000000
-4.723400 0.000000
-4.705500 0.000000
-4.687500 0.000000
-4.669600 0.000000
-4.651600 0.000000
-4.633700 0.000000
-4.615800 0.000000
-4.597800 0.000000
-4.579900 0.000000
-4.561900 0.000000
-4.544000 0.000000
-4.526000 0.000000
-4.508100 0.000000
-4.490200 0.000000
-4.472200 0.000000
-4.454300 0.000000
-4.436300 0.000000
-4.418400 0.000000
-4.400400 0.000000
-4.382500 0.000000
-4.364600 0.000000
-4.346600 0.000000
-4.328700 0.000000
-4.310700 0.000000
-4.292800 0.000000
-4.274800 0.000000
-4.256900 0.000000
-4.239000 0.000000
-4.221000 0.000000
-4.203100 0.000000
-4.185100 0.000000
-4.167200 0.000000
-4.149300 0.000000
-4.131300 0.000000
-4.113400 0.000000
-4.095400 0.000000
-4.077500 0.000000
-4.059500 0.000000
-4.041600 0.000000
-4.023700 0.000000
-4.005700 0.000000
-3.987800 0.000000
-3.969800 0.000000
-3.951900 0.000000
-3.933900 0.000000
-3.916000 0.000000
-3.898100 0.000000
-3.880100 0.000000
-3.862200 0.000000
-3.844200 0.000000
-3.826300 0.000000
-3.808300 0.000000
-3.790400 0.000000
-3.772500 0.000000
-3.754500 0.000000
-3.736600 0.000000
-3.718600 0.000000
-3.700700 0.000000
-3.682800 0.000000
-3.664800 0.000000
-3.646900 0.000000
-3.628900 0.000000
-3.611000 0.000000
-3.593000 0.000000
-3.575100 0.000000
-3.557200 0.000000
-3.539200 0.000000
-3.521300 0.000000
-3.503300 0.000000
-3.485400 0.000000
-3.467400 0.000000
-3.449500 0.000000
-3.431600 0.000000
-3.413600 0.000000
-3.395700 0.000000
-3.377700 0.000000
-3.359800 0.000000
-3.341900 0.000000
-3.323900 0.000000
-3.306000 0.000000
-3.288000 0.000000
-3.270100 0.000000
-3.252100 0.000000
-3.234200 0.000000
-3.216300 0.000000
-3.198300 0.000000
-3.180400 0.000000
-3.162400 0.000000
-3.144500 0.000000
-3.126500 0.000000
-3.108600 0.000000
-3.090700 0.000000
-3.072700 0.000000
-3.054800 0.000000
-3.036800 0.000000
-3.018900 0.000000
-3.000900 0.000000
-2.983000 0.000000
-2.965100 0.000000
-2.947100 0.000000
-2.929200 0.000000
-2.911200 0.000000
-2.893300 0.000000
-2.875400 0.000000
-2.857400 0.000000
-2.839500 0.000000
-2.821500 0.000000
-2.803600 0.000000
-2.785600 0.000000
-2.767700 0.000000
-2.749800 0.000000
-2.731800 0.000000
-2.713900 0.000000
-2.695900 0.000000
-2.678000 0.000000
-2.660000 0.000000
-2.642100 0.000000
-2.624200 0.000000
-2.606200 0.000000
-2.588300 0.000000
-2.570300 0.000000
-2.552400 0.000000
-2.534400 0.000000
-2.516500 0.000000
-2.498600 0.000000
-2.480600 0.000000
-2.462700 0.000000
-2.444700 0.000000
-2.426800 0.000000
-2.408900 0.000000
-2.390900 0.000000
-2.373000 0.000000
-2.355000 0.000000
-2.337100 0.000000
-2.319100 0.000000
-2.301200 0.000000
-2.283300 0.000000
-2.265300 0.000000
-2.247400 0.000000
-2.229400 0.000000
-2.211500 0.000000
-2.193500 0.000000
-2.175600 0.000000
-2.157700 0.003900
-2.139700 0.022100
-2.121800 0.055200
-2.103800 0.103100
-2.085900 0.159100
-2.067900 0.189700
-2.050000 0.211700
-2.032100 0.225100
-2.014100 0.229800
-1.996200 0.233600
-1.978200 0.250900
-1.960300 0.268700
-1.942400 0.286800
-1.924400 0.305300
-1.906500 0.322700
-1.888500 0.337600
-1.870600 0.350200
-1.852600 0.360500
-1.834700 0.368600
-1.816800 0.377400
-1.798800 0.386200
-1.780900 0.394500
-1.762900 0.402200
-1.745000 0.409200
-1.727000 0.417800
-1.709100 0.427800
-1.691200 0.437800
-1.673200 0.447800
-1.655300 0.457800
-1.637300 0.467700
-1.619400 0.477600
-1.601400 0.487500
-1.583500 0.494700
-1.565600 0.500600
-1.547600 0.506200
-1.529700 0.511600
-1.511700 0.516700
-1.493800 0.523800
-1.475900 0.531300
-1.457900 0.538700
-1.440000 0.546100
-1.422000 0.553400
-1.404100 0.560900
-1.386100 0.568600
-1.368200 0.576400
-1.350300 0.583700
-1.332300 0.590300
-1.314400 0.596200
-1.296400 0.601200
-1.278500 0.607600
-1.260500 0.614000
-1.242600 0.620400
-1.224700 0.627200
-1.206700 0.634000
-1.188800 0.640800
-1.170800 0.647400
-1.152900 0.653200
-1.134900 0.658300
-1.117000 0.662700
-1.099100 0.666500
-1.081100 0.670200
-1.063200 0.674400
-1.045200 0.679100
-1.027300 0.684100
-1.009400 0.689600
-0.991400 0.695100
-0.973500 0.700600
-0.955500 0.706100
-0.937600 0.711500
-0.919600 0.716900
-0.901700 0.722300
-0.883800 0.727600
-0.865800 0.732900
-0.847900 0.738100
-0.829900 0.743400
-0.812000 0.748700
-0.794000 0.754200
-0.776100 0.760100
-0.758200 0.766100
-0.740200 0.772100
-0.722300 0.777600
-0.704300 0.782800
-0.686400 0.787500
-0.668400 0.792200
-0.650500 0.797600
-0.632600 0.803000
-0.614600 0.808300
-0.596700 0.813200
-0.578700 0.817200
-0.560800 0.821000
-0.542900 0.824500
-0.524900 0.827800
-0.507000 0.831100
-0.489000 0.834900
-0.471100 0.838600
-0.453100 0.842400
-0.435200 0.846100
-0.417300 0.849900
-0.399300 0.853800
-0.381400 0.857700
-0.363400 0.861800
-0.345500 0.865900
-0.327500 0.870200
-0.309600 0.874400
-0.291700 0.878700
-0.273700 0.883000
-0.255800 0.887200
-0.237800 0.891500
-0.219900 0.895900
-0.202000 0.900300
-0.184000 0.904800
-0.166100 0.909300
-0.148100 0.913900
-0.130200 0.918500
-0.112200 0.923200
-0.094300 0.927900
-0.076400 0.932600
-0.058400 0.937400
-0.040500 0.942300
-0.022500 0.947200
-0.004600 0.952100
0.013400 0.957100
0.031300 0.962100
0.049200 0.967000
0.067200 0.971900
0.085100 0.976400
0.103100 0.980200
0.121000 0.983500
0.139000 0.986200
0.156900 0.989000
0.174800 0.991900
0.192800 0.995000
0.210700 0.998200
0.228700 1.001600
0.246600 1.005000
0.264500 1.008500
0.282500 1.011900
0.300400 1.015400
0.318400 1.018800
0.336300 1.022300
0.354300 1.025800
0.372200 1.029300
0.390100 1.032800
0.408100 1.036300
0.426000 1.039900
0.444000 1.043500
0.461900 1.047200
0.479900 1.051000
0.497800 1.054900
0.515700 1.058800
0.533700 1.062700
0.551600 1.066600
0.569600 1.070500
0.587500 1.074400
0.605500 1.078300
0.623400 1.082200
0.641300 1.086200
0.659300 1.090200
0.677200 1.094200
0.695200 1.098200
0.713100 1.102200
0.731000 1.106300
0.749000 1.110400
0.766900 1.114400
0.784900 1.118500
0.802800 1.122600
0.820800 1.126700
0.838700 1.130900
0.856600 1.135200
0.874600 1.139400
0.892500 1.143500
0.910500 1.147300
0.928400 1.151000
0.946400 1.154700
0.964300 1.158300
0.982200 1.162000
1.000200 1.165800
1.018100 1.169600
1.036100 1.173400
1.054000 1.177100
1.072000 1.180800
1.089900 1.184400
1.107800 1.187800
1.125800 1.191200
1.143700 1.194700
1.161700 1.198300
1.179600 1.202000
1.197500 1.205600
1.215500 1.209200
1.233400 1.212900
1.251400 1.216500
1.269300 1.220200
1.287300 1.223900
1.305200 1.227600
1.323100 1.231400
1.341100 1.235200
1.359000 1.239000
1.377000 1.242900
1.394900 1.246800
1.412900 1.250900
1.430800 1.255200
1.448700 1.259600
1.466700 1.264100
1.484600 1.268700
1.502600 1.273300
1.520500 1.278100
1.538500 1.282900
1.556400 1.287800
1.574300 1.292800
1.592300 1.297900
1.610200 1.303000
1.628200 1.308200
1.646100 1.313600
1.664000 1.319000
1.682000 1.324500
1.699900 1.330000
1.717900 1.335700
1.735800 1.341500
1.753800 1.347300
1.771700 1.353300
1.789600 1.359400
1.807600 1.365400
1.825500 1.371500
1.843500 1.378800
1.861400 1.396700
1.879400 1.414000
1.897300 1.430500
1.915200 1.446400
1.933200 1.458500
1.951100 1.465400
1.969100 1.472100
1.987000 1.478500
2.005000 1.484700
2.022900 1.490700
2.040800 1.496500
2.058800 1.502100
2.076700 1.508300
2.094700 1.545500
2.112600 1.578800
2.130500 1.608200
2.148500 1.633600
2.166400 1.648400
2.184400 1.646500
2.202300 1.643000
2.220300 1.637900
2.238200 1.631300
2.256100 1.623300
2.274100 1.613800
2.292000 1.602800
2.310000 1.591000
2.327900 1.581800
2.345900 1.575900
2.363800 1.573100
2.381700 1.573600
2.399700 1.576600
2.417600 1.577000
2.435600 1.573800
2.453500 1.571100
2.471500 1.569000
2.489400 1.567300
2.507300 1.566100
2.525300 1.565500
2.543200 1.565400
2.561200 1.595400
2.579100 1.601500
2.597000 1.601900
2.615000 1.600800
2.632900 1.598200
2.650900 1.598300
2.668800 1.627300
2.686800 1.646700
2.704700 1.620900
2.722600 1.581000
2.740600 1.541500
2.758500 1.529300
2.776500 1.624900
2.794400 1.589800
2.812400 1.565000
2.830300 1.539300
2.848200 1.453500
2.866200 1.429500
2.884100 1.425900
2.902100 1.422400
2.920000 1.418900
2.937900 1.415600
2.955900 1.412300
2.973800 1.409000
2.991800 1.405900
3.009700 1.402800
3.027700 1.400300
3.045600 1.399200
3.063500 1.404900
3.081500 1.421600
3.099400 1.398700
3.117400 1.345100
3.135300 1.300200
3.153300 1.281600
3.171200 1.285400
3.189100 1.291800
3.207100 1.298600
3.225000 1.345300
3.243000 1.412700
3.260900 1.482300
3.278900 1.731600
3.296800 1.584700
3.314700 1.595800
3.332700 1.608500
3.350600 1.621900
3.368600 1.636000
3.386500 1.650800
3.404400 1.666400
3.422400 1.681200
3.440300 1.677600
3.458300 1.674600
3.476200 1.661300
3.494200 1.633400
3.512100 1.571000
3.530000 1.505700
3.548000 1.476200
3.565900 1.476700
3.583900 1.480700
3.601800 1.484700
3.619800 1.488800
3.637700 1.492800
3.655600 1.497200
3.673600 1.505800
3.691500 1.519300
3.709500 1.545900
3.727400 1.614800
3.745400 1.618200
3.763300 1.576200
3.781200 1.573700
3.799200 1.571700
3.817100 1.570300
3.835100 1.569400
3.853000 1.569100
3.870900 1.573200
3.888900 1.591100
3.906800 1.640400
3.924800 1.702900
3.942700 1.766300
3.960700 1.827200
3.978600 1.917600
3.996500 2.014000
4.014500 2.111400
4.032400 2.209800
4.050400 2.309500
4.068300 2.181900
4.086300 1.903900
4.104200 1.701900
4.122100 1.623200
4.140100 1.566800
4.158000 1.533300
4.176000 1.521700
4.193900 1.515700
4.211900 1.510200
4.229800 1.505900
4.247700 1.509500
4.265700 1.541400
4.283600 1.578700
4.301600 1.619700
4.319500 1.670600
4.337400 1.740200
4.355400 1.794500
4.373300 1.820700
4.391300 1.818500
4.409200 1.757000
4.427200 1.611500
4.445100 1.495900
4.463000 1.405300
4.481000 1.344900
4.498900 1.312700
4.516900 1.289400
4.534800 1.256600
4.552800 1.233900
4.570700 1.221600
4.588600 1.217200
4.606600 1.213000
4.624500 1.208500
4.642500 1.203700
4.660400 1.198400
4.678400 1.191000
4.696300 1.181600
4.714200 1.222400
4.732200 1.254800
4.750100 1.273100
4.768100 1.272400
4.786000 1.255600
4.803900 1.229300
4.821900 1.202200
4.839800 1.174300
4.857800 1.145600
4.875700 1.116200
4.893700 1.117900
4.911600 1.105800
4.929500 1.064700
4.947500 1.038400
4.965400 1.030200
4.983400 1.024800
5.001300 1.021500
5.019300 1.028700
5.037200 1.042700
5.055100 1.052900
5.073100 1.062200
5.091000 1.073800
5.109000 1.087900
5.126900 1.104500
5.144900 1.123500
5.162800 1.144900
5.180700 1.167500
5.198700 1.178800
5.216600 1.174800
5.234600 1.184200
5.252500 1.200600
5.270400 1.226000
5.288400 1.264300
5.306300 1.308600
5.324300 1.351300
5.342200 1.392500
5.360200 1.431900
5.378100 1.493500
5.396000 1.554400
5.414000 1.614900
5.431900 1.681300
5.449900 1.785200
5.467800 1.861100
5.485800 1.846600
5.503700 1.896100
5.521600 1.916300
5.539600 1.927600
5.557500 1.932200
5.575500 1.933500
5.593400 1.931500
5.611400 1.929100
5.629300 1.932500
5.647200 1.941700
5.665200 1.954600
5.683100 1.970200
5.701100 1.987200
5.719000 2.012400
5.736900 2.056000
5.754900 2.099000
5.772800 2.109200
5.790800 2.093300
5.808700 2.048600
5.826700 1.995100
5.844600 1.957700
5.862500 1.890500
5.880500 1.824700
5.898400 1.758400
5.916400 1.691500
5.934300 1.650200
5.952300 1.628800
5.970200 1.608100
5.988100 1.588200
6.006100 1.569100
6.024000 1.550800
6.042000 1.533600
6.059900 1.517600
6.077800 1.503300
6.095800 1.491600
6.113700 1.485100
6.131700 1.491500
6.149600 1.500800
6.167600 1.513300
6.185500 1.524100
6.203400 1.538500
6.221400 1.557700
6.239300 1.581700
6.257300 1.610700
6.275200 1.644500
6.293200 1.681700
6.311100 1.724600
6.329000 1.768800
6.347000 1.812100
6.364900 1.851700
6.382900 1.896500
6.400800 1.949500
6.418800 2.158900
6.436700 2.272300
6.454600 2.329800
6.472600 2.318700
6.490500 2.311800
6.508500 2.314000
6.526400 2.318900
6.544300 2.321600
6.562300 2.343600
6.580200 2.370300
6.598200 2.387200
6.616100 2.394300
6.634100 2.390700
6.652000 2.375900
6.669900 2.364300
6.687900 2.355300
6.705800 2.344900
6.723800 2.332400
6.741700 2.318800
6.759700 2.303200
6.777600 2.285700
6.795500 2.267900
6.813500 2.268600
6.831400 2.256600
6.849400 2.221900
6.867300 2.181300
6.885300 2.142000
6.903200 2.104500
6.921100 2.069500
6.939100 2.037500
6.957000 2.010800
6.975000 1.986800
6.992900 1.964700
7.010800 1.943100
7.028800 1.918700
7.046700 1.889800
7.064700 1.860800
7.082600 1.835400
7.100600 1.814500
7.118500 1.811900
7.136400 1.795100
7.154400 1.767300
7.172300 1.742000
7.190300 1.719500
7.208200 1.699500
7.226200 1.682200
7.244100 1.667600
7.262000 1.655800
7.280000 1.648700
7.297900 1.643800
7.315900 1.642800
7.333800 1.645400
7.351800 1.652300
7.369700 1.663400
7.387600 1.678500
7.405600 1.697000
7.423500 1.716400
7.441500 1.736200
7.459400 1.756100
7.477300 1.775500
7.495300 1.797400
7.513200 1.834300
7.531200 1.870500
7.549100 1.905600
7.567100 1.940000
7.585000 1.974000
7.602900 2.007600
7.620900 2.040600
7.638800 2.072100
7.656800 2.102300
7.674700 2.131200
7.692700 2.162100
7.710600 2.192600
7.728500 2.213700
7.746500 2.225200
7.764400 2.232700
7.782400 2.241700
7.800300 2.251600
7.818300 2.260000
7.836200 2.265300
7.854100 2.268300
7.872100 2.271200
7.890000 2.268900
7.908000 2.270900
7.925900 2.278300
7.943800 2.291300
7.961800 2.293500
7.979700 2.275700
7.997700 2.254800
8.015600 2.244200
8.033600 2.233600
8.051500 2.222800
8.069400 2.211900
8.087400 2.200900
8.105300 2.189700
8.123300 2.178500
8.141200 2.166700
8.159200 2.147600
8.177100 2.117500
8.195000 2.085400
8.213000 2.053400
8.230900 2.025700
8.248900 1.995600
8.266800 1.971200
8.284800 1.949800
8.302700 1.939700
8.320600 1.931300
8.338600 1.920900
8.356500 1.913300
8.374500 1.909000
8.392400 1.905300
8.410300 1.902200
8.428300 1.899500
8.446200 1.898400
8.464200 1.899100
8.482100 1.899900
8.500100 1.901500
8.518000 1.905300
8.535900 1.912900
8.553900 1.922000
8.571800 1.933100
8.589800 1.946300
8.607700 1.961100
8.625700 1.977300
8.643600 2.007300
8.661500 2.109700
8.679500 2.155000
8.697400 2.168500
8.715400 2.203700
8.733300 2.229500
8.751300 2.220800
8.769200 2.204600
8.787100 2.179600
8.805100 2.128900
8.823000 2.095400
8.841000 2.096700
8.858900 2.118500
8.876800 2.145800
8.894800 2.167600
8.912700 2.187100
8.930700 2.205000
8.948600 2.221500
8.966600 2.236400
8.984500 2.249800
9.002400 2.261800
9.020400 2.273800
9.038300 2.285800
9.056300 2.299100
9.074200 2.312700
9.092200 2.326100
9.110100 2.335500
9.128000 2.338000
9.146000 2.333200
9.163900 2.320500
9.181900 2.274300
9.199800 2.294700
9.217700 2.301400
9.235700 2.274100
9.253600 2.233100
9.271600 2.198200
9.289500 2.170100
9.307500 2.148500
9.325400 2.133300
9.343300 2.120700
9.361300 2.113800
9.379200 2.110500
9.397200 2.109000
9.415100 2.109100
9.433100 2.110400
9.451000 2.134700
9.468900 2.144700
9.486900 2.142500
9.504800 2.142000
9.522800 2.151500
9.540700 2.169000
9.558700 2.184800
9.576600 2.197500
9.594500 2.207400
9.612500 2.215900
9.630400 2.224700
9.648400 2.233800
9.666300 2.243200
9.684200 2.252900
9.702200 2.262400
9.720100 2.270100
