set title 'mp-758933 - Density of States'
set xlabel 'Energy (eV)'
set ylabel 'DOS (states/eV)'
set grid
set xrange [-10:10]
set yrange [0:168.273]
set xzeroaxis lt -1
set terminal png size 800,600
set output 'mp-758933_dos_gnuplot.png'
plot '-' using 1:2 with lines title 'DOS'
-18.795200 0.000000
-18.775500 0.000000
-18.755900 0.000000
-18.736300 0.000000
-18.716700 0.000000
-18.697000 0.000000
-18.677400 0.000000
-18.657800 0.000000
-18.638200 0.000000
-18.618500 0.000000
-18.598900 0.000000
-18.579300 0.000000
-18.559700 0.000000
-18.540000 0.000000
-18.520400 0.000000
-18.500800 0.000000
-18.481200 0.000000
-18.461500 0.000000
-18.441900 0.000000
-18.422300 0.000000
-18.402600 0.000000
-18.383000 0.000000
-18.363400 0.000000
-18.343800 0.000000
-18.324100 0.000000
-18.304500 0.000000
-18.284900 0.000000
-18.265300 0.000000
-18.245600 0.000000
-18.226000 0.000000
-18.206400 0.000000
-18.186800 0.000000
-18.167100 0.000000
-18.147500 0.000000
-18.127900 0.000000
-18.108300 0.000000
-18.088600 0.000000
-18.069000 0.000000
-18.049400 0.000000
-18.029800 0.000000
-18.010100 0.000000
-17.990500 0.000000
-17.970900 0.000000
-17.951300 0.000000
-17.931600 0.000000
-17.912000 0.000000
-17.892400 0.000000
-17.872700 0.000000
-17.853100 0.000000
-17.833500 0.000000
-17.813900 0.000000
-17.794200 0.000000
-17.774600 0.000000
-17.755000 0.000000
-17.735400 0.000000
-17.715700 0.000000
-17.696100 0.000000
-17.676500 0.000000
-17.656900 0.000000
-17.637200 0.000000
-17.617600 0.000000
-17.598000 0.000000
-17.578400 0.000000
-17.558700 0.000000
-17.539100 0.000000
-17.519500 0.000000
-17.499900 0.000000
-17.480200 0.000000
-17.460600 0.000000
-17.441000 0.000000
-17.421400 0.000000
-17.401700 0.000000
-17.382100 0.000000
-17.362500 0.000000
-17.342800 0.000000
-17.323200 0.000000
-17.303600 0.000000
-17.284000 0.000000
-17.264300 0.000000
-17.244700 0.000000
-17.225100 0.000000
-17.205500 0.000000
-17.185800 0.000000
-17.166200 0.000000
-17.146600 0.000000
-17.127000 0.000000
-17.107300 0.000000
-17.087700 0.000000
-17.068100 0.000000
-17.048500 0.000000
-17.028800 0.000000
-17.009200 1.262800
-16.989600 42.549700
-16.970000 20.153900
-16.950300 20.178200
-16.930700 36.054600
-16.911100 32.289800
-16.891500 0.000000
-16.871800 98.952200
-16.852200 0.000000
-16.832600 0.000000
-16.812900 0.000000
-16.793300 0.000000
-16.773700 499.559500
-16.754100 27.595800
-16.734400 0.000000
-16.714800 38.586800
-16.695200 0.000000
-16.675600 25.175000
-16.655900 25.147600
-16.636300 35.861300
-16.616700 0.000000
-16.597100 0.000000
-16.577400 0.000000
-16.557800 0.000000
-16.538200 0.000000
-16.518600 0.000000
-16.498900 0.000000
-16.479300 0.000000
-16.459700 0.000000
-16.440100 0.000000
-16.420400 0.000000
-16.400800 0.000000
-16.381200 0.000000
-16.361600 0.000000
-16.341900 0.000000
-16.322300 0.000000
-16.302700 0.000000
-16.283000 0.000000
-16.263400 0.000000
-16.243800 0.000000
-16.224200 0.000000
-16.204500 0.000000
-16.184900 0.000000
-16.165300 0.000000
-16.145700 0.000000
-16.126000 0.000000
-16.106400 0.000000
-16.086800 0.000000
-16.067200 0.000000
-16.047500 0.000000
-16.027900 0.000000
-16.008300 0.000000
-15.988700 0.000000
-15.969000 0.000000
-15.949400 0.000000
-15.929800 0.000000
-15.910200 0.000000
-15.890500 0.000000
-15.870900 0.000000
-15.851300 0.000000
-15.831700 0.000000
-15.812000 0.000000
-15.792400 0.000000
-15.772800 0.000000
-15.753100 0.000000
-15.733500 0.000000
-15.713900 0.000000
-15.694300 0.000000
-15.674600 0.000000
-15.655000 0.000000
-15.635400 0.000000
-15.615800 0.000000
-15.596100 0.000000
-15.576500 0.000000
-15.556900 0.000000
-15.537300 0.000000
-15.517600 0.000000
-15.498000 0.000000
-15.478400 0.000000
-15.458800 0.000000
-15.439100 0.000000
-15.419500 0.000000
-15.399900 0.000000
-15.380300 0.000000
-15.360600 0.000000
-15.341000 0.000000
-15.321400 0.000000
-15.301800 0.000000
-15.282100 0.000000
-15.262500 0.000000
-15.242900 0.000000
-15.223200 0.000000
-15.203600 0.000000
-15.184000 0.000000
-15.164400 0.000000
-15.144700 0.000000
-15.125100 0.000000
-15.105500 0.000000
-15.085900 0.000000
-15.066200 0.000000
-15.046600 0.000000
-15.027000 0.000000
-15.007400 0.000000
-14.987700 0.000000
-14.968100 0.000000
-14.948500 0.000000
-14.928900 0.000000
-14.909200 0.000000
-14.889600 0.000000
-14.870000 0.000000
-14.850400 0.000000
-14.830700 0.000000
-14.811100 0.000000
-14.791500 0.000000
-14.771900 0.000000
-14.752200 0.000000
-14.732600 0.000000
-14.713000 0.000000
-14.693300 0.000000
-14.673700 0.000000
-14.654100 0.000000
-14.634500 0.000000
-14.614800 0.000000
-14.595200 0.000000
-14.575600 0.000000
-14.556000 0.000000
-14.536300 0.000000
-14.516700 0.000000
-14.497100 0.000000
-14.477500 0.000000
-14.457800 0.000000
-14.438200 0.000000
-14.418600 0.000000
-14.399000 0.000000
-14.379300 0.000000
-14.359700 0.000000
-14.340100 0.000000
-14.320500 0.000000
-14.300800 0.000000
-14.281200 0.000000
-14.261600 0.000000
-14.242000 0.000000
-14.222300 0.000000
-14.202700 0.000000
-14.183100 0.000000
-14.163400 0.000000
-14.143800 0.000000
-14.124200 0.000000
-14.104600 0.000000
-14.084900 0.000000
-14.065300 0.000000
-14.045700 0.000000
-14.026100 0.000000
-14.006400 0.000000
-13.986800 0.000000
-13.967200 0.000000
-13.947600 0.000000
-13.927900 0.000000
-13.908300 0.000000
-13.888700 0.000000
-13.869100 0.000000
-13.849400 0.000000
-13.829800 0.000000
-13.810200 0.000000
-13.790600 0.000000
-13.770900 0.000000
-13.751300 0.000000
-13.731700 0.000000
-13.712100 0.000000
-13.692400 0.000000
-13.672800 0.000000
-13.653200 0.000000
-13.633500 0.000000
-13.613900 0.000000
-13.594300 0.000000
-13.574700 0.000000
-13.555000 0.000000
-13.535400 0.000000
-13.515800 0.000000
-13.496200 0.000000
-13.476500 0.000000
-13.456900 0.000000
-13.437300 0.000000
-13.417700 0.000000
-13.398000 0.000000
-13.378400 0.000000
-13.358800 0.000000
-13.339200 0.000000
-13.319500 0.000000
-13.299900 0.000000
-13.280300 0.000000
-13.260700 0.000000
-13.241000 0.000000
-13.221400 0.000000
-13.201800 0.000000
-13.182200 0.000000
-13.162500 0.000000
-13.142900 0.000000
-13.123300 0.000000
-13.103600 0.000000
-13.084000 0.000000
-13.064400 0.000000
-13.044800 0.000000
-13.025100 0.000000
-13.005500 0.000000
-12.985900 0.000000
-12.966300 0.000000
-12.946600 0.000000
-12.927000 0.000000
-12.907400 0.000000
-12.887800 0.000000
-12.868100 0.000000
-12.848500 0.000000
-12.828900 0.000000
-12.809300 0.000000
-12.789600 0.000000
-12.770000 0.000000
-12.750400 0.000000
-12.730800 0.000000
-12.711100 0.000000
-12.691500 0.000000
-12.671900 0.000000
-12.652300 0.000000
-12.632600 0.000000
-12.613000 0.000000
-12.593400 0.000000
-12.573700 0.000000
-12.554100 0.000000
-12.534500 0.000000
-12.514900 0.000000
-12.495200 0.000000
-12.475600 0.000000
-12.456000 0.000000
-12.436400 0.000000
-12.416700 0.000000
-12.397100 0.000000
-12.377500 0.000000
-12.357900 0.000000
-12.338200 0.000000
-12.318600 0.000000
-12.299000 0.000000
-12.279400 0.000000
-12.259700 0.000000
-12.240100 0.000000
-12.220500 0.000000
-12.200900 0.000000
-12.181200 0.000000
-12.161600 0.000000
-12.142000 0.000000
-12.122400 0.000000
-12.102700 0.000000
-12.083100 0.000000
-12.063500 0.000000
-12.043800 0.000000
-12.024200 0.000000
-12.004600 0.000000
-11.985000 0.000000
-11.965300 0.000000
-11.945700 0.000000
-11.926100 0.000000
-11.906500 0.000000
-11.886800 0.000000
-11.867200 0.000000
-11.847600 0.000000
-11.828000 0.000000
-11.808300 0.000000
-11.788700 0.000000
-11.769100 0.000000
-11.749500 0.000000
-11.729800 0.000000
-11.710200 0.000000
-11.690600 0.000000
-11.671000 0.000000
-11.651300 0.000000
-11.631700 0.000000
-11.612100 0.000000
-11.592500 0.000000
-11.572800 0.000000
-11.553200 0.000000
-11.533600 0.000000
-11.513900 0.000000
-11.494300 0.000000
-11.474700 0.000000
-11.455100 0.000000
-11.435400 0.000000
-11.415800 0.000000
-11.396200 0.000000
-11.376600 0.000000
-11.356900 0.000000
-11.337300 0.000000
-11.317700 0.000000
-11.298100 0.000000
-11.278400 0.000000
-11.258800 0.000000
-11.239200 0.000000
-11.219600 0.000000
-11.199900 0.000000
-11.180300 0.000000
-11.160700 0.000000
-11.141100 0.000000
-11.121400 0.000000
-11.101800 0.000000
-11.082200 0.000000
-11.062600 0.000000
-11.042900 0.000000
-11.023300 0.000000
-11.003700 0.000000
-10.984000 0.000000
-10.964400 0.000000
-10.944800 0.000000
-10.925200 0.000000
-10.905500 0.000000
-10.885900 0.000000
-10.866300 0.000000
-10.846700 0.000000
-10.827000 0.000000
-10.807400 0.000000
-10.787800 0.000000
-10.768200 0.000000
-10.748500 0.000000
-10.728900 0.000000
-10.709300 0.000000
-10.689700 0.000000
-10.670000 0.000000
-10.650400 0.000000
-10.630800 0.000000
-10.611200 0.000000
-10.591500 0.000000
-10.571900 0.000000
-10.552300 0.000000
-10.532700 0.000000
-10.513000 0.000000
-10.493400 0.000000
-10.473800 0.000000
-10.454100 0.000000
-10.434500 0.000000
-10.414900 0.000000
-10.395300 0.000000
-10.375600 0.000000
-10.356000 0.000000
-10.336400 0.000000
-10.316800 0.000000
-10.297100 0.000000
-10.277500 0.000000
-10.257900 0.000000
-10.238300 0.000000
-10.218600 0.000000
-10.199000 0.000000
-10.179400 0.000000
-10.159800 0.000000
-10.140100 0.000000
-10.120500 0.000000
-10.100900 0.000000
-10.081300 0.000000
-10.061600 0.000000
-10.042000 0.000000
-10.022400 0.000000
-10.002800 0.000000
-9.983100 0.000000
-9.963500 0.000000
-9.943900 0.000000
-9.924200 0.000000
-9.904600 0.000000
-9.885000 0.000000
-9.865400 0.000000
-9.845700 0.000000
-9.826100 0.000000
-9.806500 0.000000
-9.786900 0.001100
-9.767200 3.221500
-9.747600 16.128500
-9.728000 24.356000
-9.708400 152.975700
-9.688700 16.493000
-9.669100 10.449400
-9.649500 2.687700
-9.629900 9.452400
-9.610200 14.459900
-9.590600 11.905500
-9.571000 10.145400
-9.551400 18.476400
-9.531700 22.315100
-9.512100 22.194800
-9.492500 27.632100
-9.472900 31.085100
-9.453200 18.467000
-9.433600 19.308200
-9.414000 19.759300
-9.394300 22.361300
-9.374700 8.219600
-9.355100 9.925700
-9.335500 9.661400
-9.315800 9.283900
-9.296200 5.922700
-9.276600 3.802100
-9.257000 1.989600
-9.237300 0.000000
-9.217700 0.000000
-9.198100 0.000000
-9.178500 0.000000
-9.158800 0.000000
-9.139200 0.000000
-9.119600 0.000000
-9.100000 0.000000
-9.080300 0.000000
-9.060700 0.000000
-9.041100 0.000000
-9.021500 0.000000
-9.001800 0.000000
-8.982200 0.000000
-8.962600 0.000000
-8.943000 0.000000
-8.923300 0.000000
-8.903700 0.000000
-8.884100 0.000000
-8.864400 0.000000
-8.844800 0.000000
-8.825200 0.000000
-8.805600 0.000000
-8.785900 0.000000
-8.766300 0.000000
-8.746700 0.000000
-8.727100 0.000000
-8.707400 0.000000
-8.687800 0.000000
-8.668200 0.000000
-8.648600 0.000000
-8.628900 0.000000
-8.609300 0.000000
-8.589700 0.000000
-8.570100 0.000000
-8.550400 0.000000
-8.530800 0.000000
-8.511200 0.000000
-8.491600 0.000000
-8.471900 0.000000
-8.452300 0.000000
-8.432700 0.000000
-8.413100 0.000000
-8.393400 0.000000
-8.373800 0.000000
-8.354200 0.000000
-8.334500 0.000000
-8.314900 0.000000
-8.295300 0.000000
-8.275700 0.000000
-8.256000 0.000000
-8.236400 0.000000
-8.216800 0.000000
-8.197200 0.000000
-8.177500 0.000000
-8.157900 0.000000
-8.138300 0.000000
-8.118700 0.000000
-8.099000 0.000000
-8.079400 0.000000
-8.059800 0.000000
-8.040200 0.000000
-8.020500 0.000000
-8.000900 0.000000
-7.981300 0.000000
-7.961700 0.000000
-7.942000 0.000000
-7.922400 0.000000
-7.902800 0.000000
-7.883200 0.000000
-7.863500 0.000000
-7.843900 0.000000
-7.824300 0.000000
-7.804600 0.000000
-7.785000 0.000000
-7.765400 0.000000
-7.745800 0.000000
-7.726100 0.000000
-7.706500 0.000000
-7.686900 0.000000
-7.667300 0.000000
-7.647600 0.000000
-7.628000 0.000000
-7.608400 0.000000
-7.588800 0.000000
-7.569100 0.000000
-7.549500 0.000000
-7.529900 0.000000
-7.510300 0.000000
-7.490600 0.000000
-7.471000 0.000000
-7.451400 0.000000
-7.431800 0.000000
-7.412100 0.000000
-7.392500 0.000000
-7.372900 0.000000
-7.353200 0.000000
-7.333600 0.000000
-7.314000 0.000000
-7.294400 0.000000
-7.274700 0.000000
-7.255100 0.000000
-7.235500 0.000000
-7.215900 0.000000
-7.196200 0.000000
-7.176600 0.000000
-7.157000 0.000000
-7.137400 0.000000
-7.117700 0.000000
-7.098100 0.000000
-7.078500 0.000000
-7.058900 0.000000
-7.039200 0.000000
-7.019600 0.000000
-7.000000 0.000000
-6.980400 0.000000
-6.960700 0.000000
-6.941100 0.000000
-6.921500 0.000000
-6.901900 0.000000
-6.882200 0.000000
-6.862600 0.000000
-6.843000 1.892600
-6.823300 2.599000
-6.803700 3.562200
-6.784100 5.281900
-6.764500 7.614700
-6.744800 10.221100
-6.725200 14.877300
-6.705600 10.334500
-6.686000 12.075700
-6.666300 12.083900
-6.646700 16.168900
-6.627100 16.082000
-6.607500 17.573600
-6.587800 19.105500
-6.568200 19.682100
-6.548600 22.877300
-6.529000 28.207500
-6.509300 17.015000
-6.489700 13.137300
-6.470100 12.555800
-6.450500 15.577000
-6.430800 20.898200
-6.411200 23.930300
-6.391600 21.786100
-6.372000 21.871600
-6.352300 19.065200
-6.332700 16.980600
-6.313100 23.210600
-6.293400 11.847800
-6.273800 10.881000
-6.254200 9.155400
-6.234600 7.919200
-6.214900 7.956300
-6.195300 8.977200
-6.175700 11.572200
-6.156100 15.039800
-6.136400 16.687000
-6.116800 17.007800
-6.097200 17.149700
-6.077600 19.977900
-6.057900 15.605400
-6.038300 13.288800
-6.018700 12.568400
-5.999100 11.528800
-5.979400 10.744900
-5.959800 9.303400
-5.940200 10.768500
-5.920600 12.508300
-5.900900 13.699200
-5.881300 14.848700
-5.861700 16.855300
-5.842100 19.034100
-5.822400 18.088800
-5.802800 16.339700
-5.783200 14.206800
-5.763500 13.505000
-5.743900 16.218900
-5.724300 14.333500
-5.704700 11.708900
-5.685000 11.017000
-5.665400 10.187700
-5.645800 10.262900
-5.626200 11.904300
-5.606500 12.823600
-5.586900 13.102100
-5.567300 12.916200
-5.547700 12.123400
-5.528000 11.398800
-5.508400 11.075800
-5.488800 11.149000
-5.469200 11.585400
-5.449500 12.245100
-5.429900 12.771700
-5.410300 13.165400
-5.390700 13.191200
-5.371000 12.671200
-5.351400 13.205200
-5.331800 14.389400
-5.312200 15.499500
-5.292500 15.628100
-5.272900 15.254100
-5.253300 13.533300
-5.233600 12.059500
-5.214000 10.288200
-5.194400 9.777400
-5.174800 9.304800
-5.155100 7.713000
-5.135500 6.957000
-5.115900 5.127300
-5.096300 4.885200
-5.076600 4.337800
-5.057000 4.178500
-5.037400 4.203700
-5.017800 3.647500
-4.998100 2.412600
-4.978500 0.980400
-4.958900 1.258300
-4.939300 1.585600
-4.919600 1.940900
-4.900000 2.327600
-4.880400 2.747700
-4.860800 3.431300
-4.841100 3.810400
-4.821500 3.954800
-4.801900 4.573300
-4.782300 5.259300
-4.762600 5.967200
-4.743000 6.708200
-4.723400 7.482400
-4.703700 8.277800
-4.684100 9.033500
-4.664500 9.709800
-4.644900 10.662300
-4.625200 11.227600
-4.605600 11.246200
-4.586000 10.689800
-4.566400 9.935900
-4.546700 9.236200
-4.527100 8.953700
-4.507500 8.830700
-4.487900 8.471400
-4.468200 8.583800
-4.448600 8.869600
-4.429000 9.440700
-4.409400 10.009600
-4.389700 10.550500
-4.370100 11.684800
-4.350500 12.629200
-4.330900 13.008400
-4.311200 12.584400
-4.291600 12.385300
-4.272000 11.939900
-4.252400 11.239100
-4.232700 11.604000
-4.213100 13.121700
-4.193500 13.994500
-4.173800 14.892000
-4.154200 15.717200
-4.134600 15.012500
-4.115000 9.243400
-4.095300 5.878100
-4.075700 4.734200
-4.056100 5.217600
-4.036500 7.755800
-4.016800 10.847500
-3.997200 12.641600
-3.977600 12.043900
-3.958000 11.314800
-3.938300 10.801800
-3.918700 10.438600
-3.899100 10.185100
-3.879500 8.522800
-3.859800 6.696100
-3.840200 5.029300
-3.820600 5.955000
-3.801000 9.246500
-3.781300 11.403200
-3.761700 13.204700
-3.742100 13.933900
-3.722500 13.696100
-3.702800 15.757400
-3.683200 8.104900
-3.663600 5.783600
-3.643900 3.268500
-3.624300 3.386400
-3.604700 4.453800
-3.585100 5.691700
-3.565400 7.093200
-3.545800 8.814100
-3.526200 8.103800
-3.506600 7.453400
-3.486900 7.085600
-3.467300 7.030100
-3.447700 7.158800
-3.428100 8.328700
-3.408400 9.511000
-3.388800 12.254200
-3.369200 12.375200
-3.349600 12.287300
-3.329900 11.910200
-3.310300 11.204300
-3.290700 10.621900
-3.271100 8.988400
-3.251400 8.547000
-3.231800 9.697900
-3.212200 13.164000
-3.192600 18.354400
-3.172900 16.382200
-3.153300 15.117500
-3.133700 14.609800
-3.114000 13.876700
-3.094400 14.930300
-3.074800 17.573900
-3.055200 21.432900
-3.035500 24.738800
-3.015900 27.762100
-2.996300 27.999100
-2.976700 23.063300
-2.957000 18.936600
-2.937400 17.255900
-2.917800 14.652600
-2.898200 13.328000
-2.878500 13.541200
-2.858900 23.886600
-2.839300 23.140100
-2.819700 24.213000
-2.800000 20.646900
-2.780400 16.562800
-2.760800 16.698900
-2.741200 15.527700
-2.721500 13.557300
-2.701900 12.185700
-2.682300 9.263700
-2.662700 7.182800
-2.643000 5.497100
-2.623400 4.401200
-2.603800 5.137900
-2.584100 6.874600
-2.564500 11.624800
-2.544900 15.702200
-2.525300 15.981300
-2.505600 17.754800
-2.486000 19.304300
-2.466400 17.915500
-2.446800 15.048900
-2.427100 12.794600
-2.407500 11.204500
-2.387900 10.757100
-2.368300 10.633000
-2.348600 10.420800
-2.329000 10.108700
-2.309400 10.237800
-2.289800 9.522600
-2.270100 10.646400
-2.250500 10.693400
-2.230900 9.326800
-2.211300 8.853900
-2.191600 8.281500
-2.172000 8.096500
-2.152400 8.128900
-2.132800 9.207100
-2.113100 12.013500
-2.093500 13.619600
-2.073900 14.552900
-2.054200 15.418100
-2.034600 15.773000
-2.015000 13.028400
-1.995400 8.832300
-1.975700 8.488400
-1.956100 8.404900
-1.936500 9.011100
-1.916900 9.916000
-1.897200 10.100400
-1.877600 9.662700
-1.858000 9.983200
-1.838400 10.184500
-1.818700 11.222700
-1.799100 11.475000
-1.779500 10.905200
-1.759900 11.146500
-1.740200 12.189500
-1.720600 12.442600
-1.701000 11.046500
-1.681400 11.224100
-1.661700 11.338000
-1.642100 11.390000
-1.622500 11.386000
-1.602900 11.254900
-1.583200 11.079500
-1.563600 11.177600
-1.544000 11.494200
-1.524300 11.720400
-1.504700 11.953700
-1.485100 12.189000
-1.465500 12.345700
-1.445800 12.148100
-1.426200 11.696200
-1.406600 10.763300
-1.387000 10.379700
-1.367300 11.769800
-1.347700 13.520700
-1.328100 14.439700
-1.308500 15.209800
-1.288800 11.108100
-1.269200 10.102800
-1.249600 9.488400
-1.230000 9.313200
-1.210300 9.613200
-1.190700 10.237800
-1.171100 10.872400
-1.151500 11.365200
-1.131800 11.494300
-1.112200 11.508400
-1.092600 11.168100
-1.073000 10.376000
-1.053300 8.470200
-1.033700 7.906300
-1.014100 7.991500
-0.994400 8.264900
-0.974800 8.717700
-0.955200 10.305300
-0.935600 9.904100
-0.915900 16.198400
-0.896300 16.106200
-0.876700 12.020500
-0.857100 12.202700
-0.837400 13.750500
-0.817800 16.937800
-0.798200 17.652600
-0.778600 19.959900
-0.758900 18.687000
-0.739300 16.523100
-0.719700 18.793400
-0.700100 17.012100
-0.680400 14.626300
-0.660800 13.099100
-0.641200 12.584900
-0.621600 12.954600
-0.601900 15.307000
-0.582300 14.249300
-0.562700 13.212900
-0.543100 13.648600
-0.523400 17.073500
-0.503800 19.420500
-0.484200 16.120600
-0.464500 14.558700
-0.444900 18.396400
-0.425300 19.252900
-0.405700 21.645300
-0.386000 17.623900
-0.366400 15.030100
-0.346800 15.736800
-0.327200 16.177600
-0.307500 17.297100
-0.287900 19.394500
-0.268300 19.212400
-0.248700 19.886600
-0.229000 14.446700
-0.209400 16.792500
-0.189800 16.775200
-0.170200 14.831500
-0.150500 15.039700
-0.130900 21.027400
-0.111300 20.914200
-0.091700 16.730900
-0.072000 14.234700
-0.052400 12.715300
-0.032800 11.219000
-0.013200 12.280300
0.006500 13.282100
0.026100 12.555700
0.045700 13.733100
0.065400 14.983400
0.085000 15.509200
0.104600 15.232100
0.124200 14.523500
0.143900 13.301200
0.163500 13.253000
0.183100 14.831000
0.202700 15.668100
0.222400 15.771500
0.242000 13.850400
0.261600 15.662400
0.281200 19.440300
0.300900 13.262800
0.320500 5.317900
0.340100 4.402800
0.359700 4.700500
0.379400 5.089400
0.399000 5.790500
0.418600 6.457900
0.438200 6.870500
0.457900 6.643500
0.477500 5.977100
0.497100 6.678500
0.516700 5.416900
0.536400 4.668500
0.556000 5.077400
0.575600 6.422000
0.595300 7.920400
0.614900 9.466900
0.634500 10.891600
0.654100 16.040800
0.673800 15.157800
0.693400 14.082000
0.713000 14.087400
0.732600 23.002000
0.752300 19.515000
0.771900 19.102600
0.791500 22.244200
0.811100 24.260200
