set title 'mp-24504 - Density of States'
set xlabel 'Energy (eV)'
set ylabel 'DOS (states/eV)'
set grid
set xrange [-10:10]
set yrange [0:5.710]
set xzeroaxis lt -1
set terminal png size 800,600
set output 'mp-24504_dos_gnuplot.png'
plot '-' using 1:2 with lines title 'DOS'
-13.492600 0.000000
-13.459000 0.000000
-13.425500 0.000000
-13.391900 0.000000
-13.358400 0.000000
-13.324800 0.000000
-13.291300 0.000000
-13.257700 0.000000
-13.224100 0.000000
-13.190600 0.000000
-13.157000 0.000000
-13.123500 0.000000
-13.089900 0.000000
-13.056400 0.000000
-13.022800 0.000000
-12.989300 0.000000
-12.955700 0.000000
-12.922200 0.000000
-12.888600 0.000000
-12.855100 0.000000
-12.821500 0.000000
-12.787900 0.000000
-12.754400 0.000000
-12.720800 0.000000
-12.687300 0.000000
-12.653700 0.000000
-12.620200 0.000000
-12.586600 0.000000
-12.553100 0.000000
-12.519500 0.000000
-12.486000 0.000000
-12.452400 0.000000
-12.418800 0.000000
-12.385300 0.000000
-12.351700 0.000000
-12.318200 0.000000
-12.284600 0.000000
-12.251100 0.000000
-12.217500 0.000000
-12.184000 0.000000
-12.150400 0.000000
-12.116900 0.000000
-12.083300 0.000000
-12.049800 0.000000
-12.016200 0.000000
-11.982600 0.000000
-11.949100 0.000000
-11.915500 0.000000
-11.882000 0.000000
-11.848400 0.000000
-11.814900 0.000000
-11.781300 0.000000
-11.747800 0.000000
-11.714200 0.000000
-11.680700 0.000000
-11.647100 0.000000
-11.613600 0.000000
-11.580000 0.000000
-11.546400 0.000000
-11.512900 0.000000
-11.479300 0.000000
-11.445800 0.000000
-11.412200 0.000000
-11.378700 0.000000
-11.345100 0.000000
-11.311600 0.000000
-11.278000 0.000000
-11.244500 0.000000
-11.210900 0.000000
-11.177400 0.000000
-11.143800 0.000000
-11.110200 0.000000
-11.076700 0.000000
-11.043100 0.000000
-11.009600 0.000000
-10.976000 0.000000
-10.942500 0.000000
-10.908900 0.000000
-10.875400 0.000000
-10.841800 0.000000
-10.808300 0.000000
-10.774700 0.000000
-10.741200 0.000000
-10.707600 0.000000
-10.674000 0.000000
-10.640500 0.000000
-10.606900 0.000000
-10.573400 0.000000
-10.539800 0.000000
-10.506300 0.000000
-10.472700 0.000000
-10.439200 0.000300
-10.405600 0.039400
-10.372100 0.144800
-10.338500 0.302200
-10.305000 0.402700
-10.271400 0.463400
-10.237800 0.483900
-10.204300 0.546200
-10.170700 0.615600
-10.137200 0.685300
-10.103600 0.747600
-10.070100 0.801900
-10.036500 0.855600
-10.003000 0.920800
-9.969400 0.990500
-9.935900 1.053400
-9.902300 1.117800
-9.868800 1.185700
-9.835200 1.254800
-9.801600 1.328100
-9.768100 1.413100
-9.734500 1.524500
-9.701000 1.637100
-9.667400 1.763100
-9.633900 1.904000
-9.600300 2.057800
-9.566800 2.224000
-9.533200 2.405100
-9.499700 3.175000
-9.466100 3.353100
-9.432600 3.044500
-9.399000 3.088400
-9.365400 3.099700
-9.331900 3.076300
-9.298300 3.035600
-9.264800 3.275700
-9.231200 2.977900
-9.197700 2.908300
-9.164100 2.860900
-9.130600 3.037900
-9.097000 3.201300
-9.063500 3.271700
-9.029900 3.283100
-8.996300 4.242000
-8.962800 4.351700
-8.929200 4.813800
-8.895700 4.295800
-8.862100 4.978500
-8.828600 3.323000
-8.795000 2.810100
-8.761500 2.388200
-8.727900 2.096800
-8.694400 1.942100
-8.660800 1.784500
-8.627300 1.545700
-8.593700 1.505900
-8.560100 1.268700
-8.526600 0.936200
-8.493000 0.609100
-8.459500 0.321900
-8.425900 0.029300
-8.392400 0.000000
-8.358800 0.000000
-8.325300 0.000000
-8.291700 0.000000
-8.258200 0.000000
-8.224600 0.000000
-8.191100 0.000000
-8.157500 0.000000
-8.123900 0.000000
-8.090400 0.000000
-8.056800 0.000000
-8.023300 0.000000
-7.989700 0.000000
-7.956200 0.000000
-7.922600 0.000000
-7.889100 0.000000
-7.855500 0.000000
-7.822000 0.000000
-7.788400 0.000000
-7.754900 0.000000
-7.721300 0.000000
-7.687700 0.000000
-7.654200 0.000000
-7.620600 0.000000
-7.587100 0.000000
-7.553500 0.000000
-7.520000 0.000000
-7.486400 0.000000
-7.452900 0.000000
-7.419300 0.000000
-7.385800 0.000000
-7.352200 0.000000
-7.318700 0.000000
-7.285100 0.000000
-7.251500 0.000000
-7.218000 0.000000
-7.184400 0.000000
-7.150900 0.000000
-7.117300 0.000000
-7.083800 0.000000
-7.050200 0.000000
-7.016700 0.000000
-6.983100 0.000000
-6.949600 0.000000
-6.916000 0.000000
-6.882500 0.000000
-6.848900 0.000000
-6.815300 0.000000
-6.781800 0.000000
-6.748200 0.000000
-6.714700 0.000000
-6.681100 0.000000
-6.647600 0.000000
-6.614000 0.000000
-6.580500 0.000000
-6.546900 0.000000
-6.513400 0.000000
-6.479800 0.000000
-6.446300 0.000000
-6.412700 0.000000
-6.379100 0.000000
-6.345600 0.000000
-6.312000 0.000000
-6.278500 0.000000
-6.244900 0.000000
-6.211400 0.000000
-6.177800 0.000000
-6.144300 0.000000
-6.110700 0.000000
-6.077200 0.000000
-6.043600 0.000000
-6.010100 0.000000
-5.976500 0.000000
-5.942900 0.000000
-5.909400 0.000000
-5.875800 0.000000
-5.842300 0.000000
-5.808700 0.000000
-5.775200 0.000000
-5.741600 0.000000
-5.708100 0.000000
-5.674500 0.000000
-5.641000 0.000000
-5.607400 0.000000
-5.573800 0.000000
-5.540300 0.000000
-5.506700 0.000000
-5.473200 0.000000
-5.439600 0.000000
-5.406100 0.000000
-5.372500 0.000000
-5.339000 0.000000
-5.305400 0.000000
-5.271900 0.000000
-5.238300 0.000000
-5.204800 0.000000
-5.171200 0.000000
-5.137600 0.000000
-5.104100 0.000000
-5.070500 0.000000
-5.037000 0.000000
-5.003400 0.000000
-4.969900 0.000000
-4.936300 0.000000
-4.902800 0.000000
-4.869200 0.000000
-4.835700 0.000000
-4.802100 0.000000
-4.768600 0.000000
-4.735000 0.000000
-4.701400 0.000000
-4.667900 0.000000
-4.634300 0.000000
-4.600800 0.000000
-4.567200 0.000000
-4.533700 0.000000
-4.500100 0.000000
-4.466600 0.000000
-4.433000 0.000000
-4.399500 0.000000
-4.365900 0.000000
-4.332400 0.000000
-4.298800 0.000000
-4.265200 0.000000
-4.231700 0.000000
-4.198100 0.000000
-4.164600 0.000000
-4.131000 0.000000
-4.097500 0.000000
-4.063900 0.000000
-4.030400 0.000000
-3.996800 0.000000
-3.963300 0.000000
-3.929700 0.000000
-3.896200 0.000000
-3.862600 0.000000
-3.829000 0.000000
-3.795500 0.000000
-3.761900 0.000000
-3.728400 0.000000
-3.694800 0.000000
-3.661300 0.000000
-3.627700 0.000000
-3.594200 0.000000
-3.560600 0.000000
-3.527100 0.000000
-3.493500 0.000000
-3.460000 0.000000
-3.426400 0.000000
-3.392800 0.000000
-3.359300 0.000000
-3.325700 0.000000
-3.292200 0.000000
-3.258600 0.000000
-3.225100 0.000000
-3.191500 0.000000
-3.158000 0.000000
-3.124400 0.000000
-3.090900 0.000000
-3.057300 0.000000
-3.023800 0.000000
-2.990200 0.000000
-2.956600 0.000000
-2.923100 0.000000
-2.889500 0.000000
-2.856000 0.000000
-2.822400 0.000000
-2.788900 0.000000
-2.755300 0.000000
-2.721800 0.000000
-2.688200 0.000000
-2.654700 0.000000
-2.621100 0.000000
-2.587600 0.000000
-2.554000 0.000000
-2.520400 0.000000
-2.486900 0.000000
-2.453300 0.000000
-2.419800 0.000000
-2.386200 0.000000
-2.352700 0.000000
-2.319100 0.000000
-2.285600 0.000000
-2.252000 0.000000
-2.218500 0.000000
-2.184900 0.000000
-2.151300 0.000000
-2.117800 0.000000
-2.084200 0.000000
-2.050700 0.000000
-2.017100 0.000000
-1.983600 0.000000
-1.950000 0.000000
-1.916500 0.000000
-1.882900 0.000000
-1.849400 0.000000
-1.815800 0.000000
-1.782300 0.000000
-1.748700 0.000000
-1.715100 0.000000
-1.681600 0.000000
-1.648000 0.000000
-1.614500 0.000000
-1.580900 0.000000
-1.547400 0.000000
-1.513800 0.000000
-1.480300 0.000000
-1.446700 0.000000
-1.413200 0.000000
-1.379600 0.000000
-1.346100 0.000000
-1.312500 0.000000
-1.278900 0.000000
-1.245400 0.000000
-1.211800 0.000000
-1.178300 0.000000
-1.144700 0.000000
-1.111200 0.000000
-1.077600 0.000000
-1.044100 0.000000
-1.010500 0.000000
-0.977000 0.000000
-0.943400 0.000000
-0.909900 0.000000
-0.876300 0.000000
-0.842700 0.000000
-0.809200 0.000000
-0.775600 0.000000
-0.742100 0.000000
-0.708500 0.000000
-0.675000 0.000000
-0.641400 0.000000
-0.607900 0.000000
-0.574300 0.000000
-0.540800 0.000000
-0.507200 0.000000
-0.473700 0.000000
-0.440100 0.000000
-0.406500 0.000000
-0.373000 0.000000
-0.339400 0.000000
-0.305900 0.000000
-0.272300 0.000000
-0.238800 0.000000
-0.205200 0.000000
-0.171700 0.000000
-0.138100 0.000000
-0.104600 0.000000
-0.071000 0.000000
-0.037500 0.000000
-0.003900 0.000000
0.029700 0.000000
0.063200 0.000000
0.096800 0.000000
0.130300 0.000000
0.163900 0.000000
0.197400 0.000000
0.231000 0.000000
0.264500 0.000000
0.298100 0.000000
0.331600 0.000000
0.365200 0.000000
0.398700 0.000000
0.432300 0.000000
0.465900 0.000000
0.499400 0.000000
0.533000 0.000000
0.566500 0.000000
0.600100 0.000000
0.633600 0.000000
0.667200 0.000000
0.700700 0.000000
0.734300 0.000000
0.767800 0.000000
0.801400 0.000000
0.834900 0.000000
0.868500 0.000000
0.902100 0.000000
0.935600 0.000000
0.969200 0.000000
1.002700 0.032900
1.036300 0.167200
1.069800 0.405400
1.103400 0.761700
1.136900 1.227600
1.170500 1.646900
1.204000 1.893800
1.237600 2.316500
1.271200 2.542700
1.304700 3.013600
1.338300 4.376300
1.371800 5.190700
1.405400 4.991900
1.438900 4.519200
1.472500 4.012600
1.506000 3.695700
1.539600 3.467700
1.573100 3.315400
1.606700 3.253500
1.640200 3.208100
1.673800 3.172800
1.707400 3.109700
1.740900 3.296300
1.774500 3.267900
1.808000 2.706400
1.841600 2.320600
1.875100 1.954500
1.908700 1.607600
1.942200 1.504400
1.975800 1.425700
2.009300 1.353000
2.042900 1.287300
2.076400 1.227200
2.110000 1.172500
2.143600 1.123200
2.177100 1.079000
2.210700 1.039800
2.244200 1.013700
2.277800 1.060600
2.311300 1.192600
2.344900 1.144200
2.378400 1.200800
2.412000 1.250300
2.445500 1.292500
2.479100 1.327600
2.512600 1.355500
2.546200 1.376200
2.579800 1.375900
2.613300 1.321400
2.646900 1.219600
2.680400 1.123800
2.714000 1.043100
2.747500 0.988900
2.781100 0.955500
2.814600 0.925300
2.848200 1.008800
2.881700 1.004900
2.915300 0.999200
2.948800 0.900500
2.982400 0.869100
3.016000 0.837200
3.049500 0.805600
3.083100 0.774600
3.116600 0.743900
3.150200 0.714000
3.183700 0.686400
3.217300 0.620700
3.250800 0.566100
3.284400 0.545700
3.317900 0.538700
3.351500 0.538200
3.385000 0.538300
3.418600 0.538100
3.452200 0.537700
3.485700 0.537000
3.519300 0.536000
3.552800 0.534700
3.586400 0.533000
3.619900 0.529800
3.653500 0.521600
3.687000 0.514700
3.720600 0.569900
3.754100 0.658800
3.787700 0.661800
3.821200 0.672100
3.854800 0.677700
3.888400 0.696400
3.921900 0.716600
3.955500 0.738200
3.989000 0.763000
4.022600 0.792000
4.056100 0.821000
4.089700 0.850000
4.123200 0.879000
4.156800 0.907900
4.190300 0.936800
4.223900 0.963700
4.257400 0.981600
4.291000 0.989600
4.324600 0.987900
4.358100 0.976500
4.391700 0.962600
4.425200 0.984600
4.458800 1.028000
4.492300 0.996800
4.525900 0.934100
4.559400 0.879100
4.593000 0.854200
4.626500 0.846600
4.660100 0.846600
4.693700 0.843400
4.727200 0.841800
4.760800 0.841700
4.794300 0.843200
4.827900 0.846300
4.861400 0.850800
4.895000 0.857100
4.928500 0.865900
4.962100 0.874000
4.995600 0.880400
5.029200 0.890400
5.062700 0.904200
5.096300 0.921900
5.129900 0.943400
5.163400 0.978300
5.197000 1.004400
5.230500 1.028300
5.264100 1.054400
5.297600 1.082500
5.331200 1.112400
5.364700 1.144200
5.398300 1.177300
5.431800 1.211700
5.465400 1.247300
5.498900 1.284300
5.532500 1.322500
5.566100 1.365900
5.599600 1.444500
5.633200 1.565000
5.666700 1.677600
5.700300 1.652600
5.733800 1.655000
5.767400 1.652100
5.800900 1.644000
5.834500 1.600000
5.868000 1.546900
5.901600 1.499500
5.935100 1.458000
5.968700 1.421500
6.002300 1.412700
6.035800 1.404600
6.069400 1.395700
6.102900 1.386600
6.136500 1.377500
6.170000 1.368400
6.203600 1.358800
6.237100 1.339800
6.270700 1.328600
6.304200 1.317900
6.337800 1.307800
6.371300 1.298200
6.404900 1.288400
6.438500 1.278000
6.472000 1.266300
6.505600 1.253000
6.539100 1.236900
6.572700 1.223800
6.606200 1.211500
6.639800 1.199000
6.673300 1.186200
6.706900 1.173200
6.740400 1.159900
6.774000 1.146400
6.807500 1.132900
6.841100 1.121700
6.874700 1.114200
6.908200 1.158000
6.941800 1.309600
6.975300 1.390900
7.008900 1.416000
7.042400 1.447600
7.076000 1.488800
7.109500 1.529800
7.143100 1.563700
7.176600 1.592100
7.210200 1.616700
7.243700 1.639600
7.277300 1.632000
7.310900 1.611900
7.344400 1.596600
7.378000 1.572700
7.411500 1.536100
7.445100 1.496100
7.478600 1.455600
7.512200 1.414600
7.545700 1.374000
7.579300 1.334300
7.612800 1.296100
7.646400 1.261300
7.679900 1.230600
7.713500 1.203600
7.747100 1.195400
7.780600 1.191000
7.814200 1.189200
7.847700 1.189000
7.881300 1.189600
7.914800 1.190900
7.948400 1.195800
7.981900 1.234400
8.015500 1.251100
8.049000 1.271600
8.082600 1.292500
8.116200 1.313700
8.149700 1.335200
8.183300 1.449400
8.216800 1.577100
8.250400 1.630900
8.283900 1.623600
8.317500 1.612000
8.351000 1.596200
8.384600 1.585200
8.418100 1.582700
8.451700 1.588700
8.485200 1.597000
8.518800 1.604200
8.552400 1.620900
8.585900 1.647000
8.619500 1.678000
8.653000 1.712000
8.686600 1.753600
8.720100 1.819200
8.753700 1.908000
8.787200 1.993200
8.820800 2.072500
8.854300 2.174800
8.887900 2.268000
8.921400 2.354500
8.955000 2.417700
8.988600 2.470500
9.022100 2.500700
9.055700 2.504100
9.089200 2.478700
9.122800 2.425500
9.156300 2.390100
9.189900 2.262900
9.223400 2.000800
9.257000 1.710300
9.290500 1.494100
9.324100 1.351900
9.357600 1.249300
9.391200 1.164400
9.424800 1.080100
9.458300 1.043700
9.491900 0.973500
9.525400 0.914500
9.559000 0.866600
9.592500 0.830000
9.626100 0.804700
9.659600 0.781800
9.693200 0.767800
9.726700 0.762700
9.760300 0.764900
9.793800 0.773100
9.827400 0.776200
9.861000 0.729100
9.894500 0.710700
9.928100 0.696600
9.961600 0.693400
9.995200 0.693400
10.028700 0.696600
10.062300 0.703000
10.095800 0.712800
10.129400 0.719700
10.162900 0.749000
10.196500 0.784300
10.230000 0.825700
10.263600 0.873900
10.297200 0.929100
10.330700 0.991400
10.364300 1.061400
10.397800 1.138000
10.431400 1.231100
10.464900 1.351000
10.498500 1.479100
10.532000 1.577800
10.565600 1.573900
10.599100 1.654000
10.632700 1.720500
10.666200 1.802000
10.699800 1.911400
10.733400 1.907600
10.766900 1.876600
10.800500 1.855900
10.834000 1.851200
10.867600 1.856200
10.901100 1.867000
10.934700 1.881800
10.968200 1.900700
11.001800 1.923700
11.035300 1.948100
11.068900 1.981200
11.102400 2.036000
11.136000 2.110400
11.169600 2.192700
11.203100 2.380600
11.236700 2.527100
11.270200 2.587600
11.303800 2.560300
11.337300 2.456000
11.370900 2.381600
11.404400 2.320200
11.438000 2.250700
11.471500 2.163400
11.505100 2.047600
11.538700 1.896700
11.572200 1.717300
11.605800 1.597000
11.639300 1.506700
11.672900 1.437100
11.706400 1.384900
11.740000 1.351800
11.773500 1.382000
11.807100 1.362500
11.840600 1.323100
11.874200 1.284500
11.907700 1.243800
11.941300 1.200800
11.974900 1.155700
12.008400 1.159500
12.042000 1.149400
12.075500 1.130600
12.109100 1.103100
12.142600 1.067000
12.176200 0.991600
12.209700 0.969900
12.243300 0.921400
12.276800 0.893600
12.310400 0.950800
12.343900 0.988000
12.377500 1.005300
12.411100 1.005900
12.444600 0.991500
12.478200 0.957300
12.511700 0.915200
12.545300 0.896600
12.578800 0.901600
12.612400 0.929500
12.645900 0.976600
12.679500 1.055300
12.713000 1.181500
12.746600 1.325300
12.780100 1.502400
12.813700 1.617600
12.847300 1.656300
12.880800 1.945600
12.914400 1.783400
12.947900 1.800200
12.981500 1.797500
13.015000 1.745700
13.048600 1.661600
13.082100 1.545700
13.115700 1.430200
13.149200 1.351500
13.182800 1.282100
13.216300 1.231600
13.249900 1.301800
13.283500 1.311000
13.317000 1.280000
13.350600 1.299400
13.384100 1.320900
13.417700 1.353900
13.451200 1.410300
13.484800 1.464000
13.518300 1.490300
13.551900 1.519300
13.585400 1.549200
13.619000 1.570800
13.652500 1.582800
13.686100 1.584900
13.719700 1.593600
13.753200 1.618900
13.786800 1.653300
13.820300 1.690800
13.853900 1.731600
13.887400 2.030400
13.921000 2.190000
13.954500 2.266300
13.988100 2.312600
14.021600 2.408200
14.055200 2.384100
14.088700 2.247300
14.122300 2.040100
14.155900 1.962400
14.189400 1.891700
14.223000 1.830300
14.256500 1.778700
14.290100 1.736800
14.323600 1.680100
14.357200 1.652000
14.390700 1.624500
14.424300 1.597400
14.457800 1.570900
14.491400 1.544900
14.524900 1.519000
14.558500 1.492300
14.592100 1.465100
14.625600 1.442200
14.659200 1.421800
14.692700 1.389700
14.726300 1.415700
14.759800 1.402200
14.793400 1.387600
14.826900 1.372100
14.860500 1.356300
14.894000 1.340100
14.927600 1.323300
14.961200 1.306000
14.994700 1.288200
15.028300 1.270000
15.061800 1.251200
15.095400 1.231900
15.128900 1.212200
15.162500 1.167500
15.196000 1.166400
15.229600 1.164400
15.263100 1.161400
15.296700 1.315800
15.330200 1.405600
15.363800 1.568800
15.397400 1.467300
15.430900 1.447800
15.464500 1.443500
15.498000 1.448300
15.531600 1.457200
15.565100 1.491900
15.598700 1.534700
15.632200 1.583200
15.665800 1.634000
15.699300 1.722300
15.732900 1.837600
15.766400 2.024900
15.800000 2.081000
15.833600 1.992500
15.867100 1.900300
15.900700 1.844400
15.934200 1.810700
15.967800 1.788300
16.001300 1.779400
16.034900 1.786200
16.068400 1.807700
16.102000 1.843600
16.135500 1.826700
16.169100 1.824400
16.202600 1.832000
16.236200 1.837800
16.269800 1.841800
16.303300 1.855500
16.336900 1.869000
16.370400 1.869000
16.404000 1.880400
16.437500 1.895800
16.471100 1.917900
16.504600 2.076400
16.538200 2.104900
16.571700 2.110700
16.605300 2.093200
16.638800 2.080200
16.672400 2.069100
16.706000 2.010000
16.739500 1.989500
16.773100 1.971400
16.806600 1.955700
16.840200 1.940200
16.873700 1.923700
16.907300 1.910200
16.940800 1.902800
16.974400 1.922400
17.007900 1.944500
17.041500 1.953900
17.075000 1.964300
17.108600 1.984900
17.142200 1.997200
17.175700 1.997000
17.209300 1.991900
17.242800 2.004200
17.276400 2.009700
17.309900 2.011100
17.343500 2.011000
17.377000 1.980100
17.410600 2.048300
17.444100 2.252900
17.477700 2.108000
17.511200 1.829900
17.544800 1.696700
17.578400 1.660500
17.611900 1.628400
17.645500 1.600300
17.679000 1.576000
17.712600 1.555400
17.746100 1.538600
17.779700 1.525600
17.813200 1.488800
17.846800 1.476600
17.880300 1.476700
17.913900 1.496700
17.947500 1.536600
17.981000 1.550700
18.014600 1.542800
18.048100 1.532400
18.081700 1.520700
18.115200 1.509400
18.148800 1.495700
18.182300 1.487900
18.215900 1.482300
18.249400 1.478500
18.283000 1.476600
18.316500 1.476700
18.350100 1.480200
18.383700 1.500500
18.417200 1.525700
18.450800 1.552400
18.484300 1.598900
18.517900 1.636500
18.551400 1.673100
18.585000 1.700700
18.618500 1.658100
18.652100 1.696200
18.685600 1.735500
18.719200 1.776500
18.752700 1.818700
18.786300 1.860400
18.819900 1.906100
18.853400 1.953700
18.887000 1.998400
18.920500 2.002500
18.954100 1.983100
18.987600 1.990100
19.021200 2.018300
19.054700 2.045400
19.088300 2.071400
19.121800 2.096300
19.155400 2.120100
19.188900 2.120100
19.222500 2.195700
19.256100 2.397900
19.289600 2.458400
19.323200 2.346100
19.356700 2.204200
19.390300 2.133900
19.423800 2.058400
19.457400 2.002000
19.490900 1.969900
19.524500 1.981600
19.558000 2.100500
19.591600 2.136600
19.625100 2.205800
19.658700 2.275200
19.692300 2.168700
19.725800 2.121200
19.759400 2.124700
19.792900 2.133000
19.826500 2.148900
19.860000 2.163400
19.893600 2.172800
19.927100 2.176900
19.960700 2.106900
19.994200 2.045500
20.027800 2.002300
20.061300 1.968800
20.094900 2.006000
20.128500 2.052400
20.162000 2.208500
20.195600 2.080600
20.229100 1.964000
20.262700 1.858800
20.296200 1.780700
20.329800 1.725400
20.363300 1.682400
20.396900 1.651600
20.430400 1.629800
20.464000 1.616900
20.497500 1.612600
20.531100 1.613100
20.564700 1.603700
20.598200 1.599300
20.631800 1.604500
20.665300 1.617200
20.698900 1.631400
20.732400 1.650300
20.766000 1.671800
20.799500 1.694000
20.833100 1.727300
20.866600 1.823400
20.900200 1.951400
20.933700 2.033600
20.967300 2.096100
21.000900 2.147900
21.034400 2.189800
21.068000 2.255700
21.101500 2.307800
21.135100 2.114100
21.168600 2.003900
21.202200 1.860400
21.235700 1.748700
21.269300 1.568100
21.302800 1.500000
21.336400 1.455800
21.370000 1.420800
21.403500 1.392600
21.437100 1.471900
21.470600 1.642200
21.504200 1.777800
21.537700 1.870200
21.571300 1.597300
21.604800 1.592900
21.638400 1.591900
