set title 'mp-1184767 - Density of States'
set xlabel 'Energy (eV)'
set ylabel 'DOS (states/eV)'
set grid
set xrange [-10:10]
set yrange [0:116.683]
set xzeroaxis lt -1
set terminal png size 800,600
set output 'mp-1184767_dos_gnuplot.png'
plot '-' using 1:2 with lines title 'DOS'
-11.764400 0.000000
-11.738100 0.000000
-11.711800 0.000000
-11.685600 0.000000
-11.659300 0.000000
-11.633000 0.000000
-11.606800 0.000000
-11.580500 0.000000
-11.554200 0.000000
-11.528000 0.000000
-11.501700 0.000000
-11.475400 0.000000
-11.449200 0.000000
-11.422900 0.000000
-11.396700 0.000000
-11.370400 0.000000
-11.344100 0.000000
-11.317900 0.000000
-11.291600 0.000000
-11.265300 0.000000
-11.239100 0.000000
-11.212800 0.000000
-11.186500 0.000000
-11.160300 0.000000
-11.134000 0.000000
-11.107700 0.000000
-11.081500 0.000000
-11.055200 0.000000
-11.029000 0.000000
-11.002700 0.000000
-10.976400 0.000000
-10.950200 0.000000
-10.923900 0.000000
-10.897600 0.000000
-10.871400 0.000000
-10.845100 0.000000
-10.818800 0.000000
-10.792600 0.000000
-10.766300 0.000000
-10.740000 0.000000
-10.713800 0.000000
-10.687500 0.000000
-10.661200 0.000000
-10.635000 0.000000
-10.608700 0.000000
-10.582500 0.000000
-10.556200 0.000000
-10.529900 0.000000
-10.503700 0.000000
-10.477400 0.000000
-10.451100 0.000000
-10.424900 0.000000
-10.398600 0.000000
-10.372300 0.000000
-10.346100 0.000000
-10.319800 0.000000
-10.293500 0.000000
-10.267300 0.000000
-10.241000 0.000000
-10.214800 0.000000
-10.188500 0.000000
-10.162200 0.000000
-10.136000 0.000000
-10.109700 0.000000
-10.083400 0.000000
-10.057200 0.000000
-10.030900 0.000000
-10.004600 0.000000
-9.978400 0.000000
-9.952100 0.000000
-9.925800 0.000000
-9.899600 0.000000
-9.873300 0.000000
-9.847000 0.000000
-9.820800 0.000000
-9.794500 0.000000
-9.768300 0.000000
-9.742000 0.000000
-9.715700 0.000000
-9.689500 0.000000
-9.663200 0.000000
-9.636900 0.000000
-9.610700 0.000000
-9.584400 0.000000
-9.558100 0.000000
-9.531900 0.000000
-9.505600 0.000000
-9.479300 0.000000
-9.453100 0.000000
-9.426800 0.000000
-9.400600 0.000000
-9.374300 1.878500
-9.348000 12.519000
-9.321800 25.671400
-9.295500 33.734700
-9.269200 70.615900
-9.243000 40.999100
-9.216700 87.846100
-9.190400 48.672000
-9.164200 52.233800
-9.137900 57.736700
-9.111600 106.075100
-9.085400 98.229200
-9.059100 102.237900
-9.032900 41.856800
-9.006600 22.773800
-8.980300 0.000000
-8.954100 0.000000
-8.927800 0.000000
-8.901500 0.000000
-8.875300 0.000000
-8.849000 0.000000
-8.822700 0.000000
-8.796500 0.000000
-8.770200 0.000000
-8.743900 0.000000
-8.717700 0.000000
-8.691400 0.000000
-8.665100 0.000000
-8.638900 0.000000
-8.612600 0.000000
-8.586400 0.000000
-8.560100 0.000000
-8.533800 0.000000
-8.507600 0.000000
-8.481300 0.000000
-8.455000 0.000000
-8.428800 0.000000
-8.402500 0.000000
-8.376200 0.000000
-8.350000 0.000000
-8.323700 0.000000
-8.297400 0.000000
-8.271200 0.000000
-8.244900 0.000000
-8.218700 0.000000
-8.192400 0.000000
-8.166100 0.000000
-8.139900 0.000000
-8.113600 0.000000
-8.087300 0.000000
-8.061100 0.000000
-8.034800 0.000000
-8.008500 0.000000
-7.982300 0.000000
-7.956000 0.000000
-7.929700 0.000000
-7.903500 0.000000
-7.877200 0.000000
-7.850900 0.000000
-7.824700 0.000000
-7.798400 0.000000
-7.772200 0.000000
-7.745900 0.000000
-7.719600 0.000000
-7.693400 0.000000
-7.667100 0.000000
-7.640800 0.000000
-7.614600 0.000000
-7.588300 0.000000
-7.562000 0.000000
-7.535800 0.000000
-7.509500 0.000000
-7.483200 0.000000
-7.457000 0.000000
-7.430700 0.000000
-7.404500 0.000000
-7.378200 0.000000
-7.351900 0.000000
-7.325700 0.000000
-7.299400 0.000000
-7.273100 0.000000
-7.246900 0.000000
-7.220600 0.000000
-7.194300 0.000000
-7.168100 0.000000
-7.141800 0.000000
-7.115500 0.000000
-7.089300 0.000000
-7.063000 0.000000
-7.036700 0.000000
-7.010500 0.000000
-6.984200 0.000000
-6.958000 0.000000
-6.931700 0.000000
-6.905400 0.000000
-6.879200 0.000000
-6.852900 0.000000
-6.826600 0.000000
-6.800400 0.000000
-6.774100 0.000000
-6.747800 0.000000
-6.721600 0.000000
-6.695300 0.000000
-6.669000 0.000000
-6.642800 0.000000
-6.616500 0.000000
-6.590300 0.000000
-6.564000 0.000000
-6.537700 0.000000
-6.511500 0.000000
-6.485200 0.000000
-6.458900 0.000000
-6.432700 0.000000
-6.406400 0.000000
-6.380100 0.000000
-6.353900 0.000000
-6.327600 0.000000
-6.301300 0.000000
-6.275100 0.000000
-6.248800 0.000000
-6.222500 0.000000
-6.196300 0.000000
-6.170000 0.000000
-6.143800 0.000000
-6.117500 0.000000
-6.091200 0.000000
-6.065000 0.000000
-6.038700 0.000000
-6.012400 0.000000
-5.986200 0.000000
-5.959900 0.000000
-5.933600 0.000000
-5.907400 0.000000
-5.881100 0.000000
-5.854800 0.000000
-5.828600 0.000000
-5.802300 0.000000
-5.776100 0.000000
-5.749800 0.000000
-5.723500 0.000000
-5.697300 0.000000
-5.671000 0.000000
-5.644700 0.000000
-5.618500 0.000000
-5.592200 0.000000
-5.565900 0.000000
-5.539700 0.000000
-5.513400 0.000000
-5.487100 0.000000
-5.460900 0.000000
-5.434600 0.000000
-5.408300 0.000000
-5.382100 0.000000
-5.355800 0.000000
-5.329600 0.000000
-5.303300 0.000000
-5.277000 0.000000
-5.250800 0.000000
-5.224500 0.000000
-5.198200 0.000000
-5.172000 0.000000
-5.145700 0.000000
-5.119400 0.000000
-5.093200 0.000000
-5.066900 0.000000
-5.040600 0.000000
-5.014400 0.000000
-4.988100 0.000000
-4.961900 0.000000
-4.935600 0.000000
-4.909300 0.000000
-4.883100 0.000000
-4.856800 0.000000
-4.830500 0.000000
-4.804300 0.000000
-4.778000 0.000000
-4.751700 0.000000
-4.725500 0.000000
-4.699200 0.000000
-4.672900 0.000000
-4.646700 0.000000
-4.620400 0.000000
-4.594200 0.000000
-4.567900 0.000000
-4.541600 0.000000
-4.515400 0.000000
-4.489100 0.000000
-4.462800 0.000000
-4.436600 0.000000
-4.410300 0.000000
-4.384000 0.000000
-4.357800 0.000000
-4.331500 0.000000
-4.305200 0.000000
-4.279000 0.000000
-4.252700 0.000000
-4.226400 0.000000
-4.200200 0.000000
-4.173900 0.000000
-4.147700 0.000000
-4.121400 0.000500
-4.095100 0.018700
-4.068900 0.063600
-4.042600 0.119700
-4.016300 0.140800
-3.990100 0.146300
-3.963800 0.157800
-3.937500 0.177200
-3.911300 0.197400
-3.885000 0.217700
-3.858700 0.234300
-3.832500 0.245700
-3.806200 0.251500
-3.780000 0.256200
-3.753700 0.265300
-3.727400 0.276400
-3.701200 0.287400
-3.674900 0.298400
-3.648600 0.309300
-3.622400 0.320200
-3.596100 0.331500
-3.569800 0.339400
-3.543600 0.346700
-3.517300 0.354400
-3.491000 0.384500
-3.464800 0.422200
-3.438500 0.454400
-3.412200 0.414300
-3.386000 0.418300
-3.359700 0.422200
-3.333500 0.425700
-3.307200 0.429100
-3.280900 0.432500
-3.254700 0.429600
-3.228400 0.427300
-3.202100 0.426100
-3.175900 0.428100
-3.149600 0.428600
-3.123300 0.428300
-3.097100 0.428500
-3.070800 0.429200
-3.044500 0.430000
-3.018300 0.444100
-2.992000 0.482500
-2.965800 0.518700
-2.939500 0.493200
-2.913200 0.500900
-2.887000 0.509100
-2.860700 0.517900
-2.834400 0.527200
-2.808200 0.537400
-2.781900 0.542700
-2.755600 0.546300
-2.729400 0.549500
-2.703100 0.556900
-2.676800 0.564100
-2.650600 0.570500
-2.624300 0.576500
-2.598000 0.582700
-2.571800 0.587700
-2.545500 0.592900
-2.519300 0.599000
-2.493000 0.600700
-2.466700 0.606500
-2.440500 0.612200
-2.414200 0.618000
-2.387900 0.623600
-2.361700 0.629000
-2.335400 0.634800
-2.309100 0.641200
-2.282900 0.647700
-2.256600 0.654400
-2.230300 0.661000
-2.204100 0.667700
-2.177800 0.674500
-2.151600 0.681400
-2.125300 0.688000
-2.099000 0.693100
-2.072800 0.696300
-2.046500 0.701000
-2.020200 0.706100
-1.994000 0.711400
-1.967700 0.717000
-1.941400 0.722800
-1.915200 0.729000
-1.888900 0.735100
-1.862600 0.741300
-1.836400 0.747500
-1.810100 0.754000
-1.783800 0.760600
-1.757600 0.767400
-1.731300 0.774600
-1.705100 0.783400
-1.678800 0.793800
-1.652500 0.803800
-1.626300 0.813500
-1.600000 0.821600
-1.573700 0.831200
-1.547500 0.840900
-1.521200 0.850800
-1.494900 0.860400
-1.468700 0.869800
-1.442400 0.879500
-1.416100 0.889800
-1.389900 0.900200
-1.363600 0.910600
-1.337400 0.921200
-1.311100 0.932000
-1.284800 0.940100
-1.258600 0.943800
-1.232300 0.945800
-1.206000 0.950800
-1.179800 0.955700
-1.153500 0.960300
-1.127200 0.964800
-1.101000 0.968900
-1.074700 0.973100
-1.048400 0.977800
-1.022200 0.983300
-0.995900 0.989700
-0.969600 0.997400
-0.943400 1.005700
-0.917100 1.014400
-0.890900 1.023500
-0.864600 1.033100
-0.838300 1.042900
-0.812100 1.053500
-0.785800 1.064700
-0.759500 1.076500
-0.733300 1.091800
-0.707000 1.134200
-0.680700 1.168500
-0.654500 1.175000
-0.628200 1.180100
-0.601900 1.184600
-0.575700 1.188400
-0.549400 1.190800
-0.523200 1.336700
-0.496900 1.320200
-0.470600 1.208100
-0.444400 1.201500
-0.418100 1.195200
-0.391800 1.190300
-0.365600 1.184400
-0.339300 1.177900
-0.313000 1.153400
-0.286800 1.146900
-0.260500 1.180300
-0.234200 1.150100
-0.208000 1.122000
-0.181700 1.096000
-0.155400 1.074700
-0.129200 1.059600
-0.102900 1.056800
-0.076700 1.024200
-0.050400 1.035300
-0.024100 1.049900
0.002100 1.068000
0.028400 1.058100
0.054700 1.098900
0.080900 1.083900
0.107200 1.065100
0.133500 1.044100
0.159700 1.020600
0.186000 1.029000
0.212300 1.142900
0.238500 1.073800
0.264800 1.088200
0.291000 1.098100
0.317300 1.105900
0.343600 1.115300
0.369800 1.132900
0.396100 1.129200
0.422400 1.126700
0.448600 1.124800
0.474900 1.125000
0.501200 1.143200
0.527400 1.190800
0.553700 1.379100
0.580000 1.446800
0.606200 1.611400
0.632500 1.577000
0.658700 1.512200
0.685000 1.523200
0.711300 1.603700
0.737500 1.632000
0.763800 1.364400
0.790100 1.256400
0.816300 1.124300
0.842600 1.027600
0.868900 0.858400
0.895100 0.734300
0.921400 0.640900
0.947700 0.564800
0.973900 0.488000
1.000200 0.382900
1.026500 0.304300
1.052700 0.249000
1.079000 0.213200
1.105200 0.196900
1.131500 0.198400
1.157800 0.203100
1.184000 0.207800
1.210300 0.212600
1.236600 0.217500
1.262800 0.222500
1.289100 0.227700
1.315400 0.233000
1.341600 0.238300
1.367900 0.243700
1.394200 0.249400
1.420400 0.255200
1.446700 0.261300
1.472900 0.267600
1.499200 0.274000
1.525500 0.280700
1.551700 0.287500
1.578000 0.294600
1.604300 0.301900
1.630500 0.309300
1.656800 0.317000
1.683100 0.324800
1.709300 0.333000
1.735600 0.341300
1.761900 0.349900
1.788100 0.358900
1.814400 0.368900
1.840700 0.379700
1.866900 0.391000
1.893200 0.402700
1.919400 0.415100
1.945700 0.428000
1.972000 0.441300
1.998200 0.455200
2.024500 0.469400
2.050800 0.484100
2.077000 0.499800
2.103300 0.516400
2.129600 0.533800
2.155800 0.551200
2.182100 0.568400
2.208400 0.589400
2.234600 0.620800
2.260900 0.665000
2.287100 0.826700
2.313400 1.045200
2.339700 1.166700
2.365900 1.261900
2.392200 1.418300
2.418500 1.351800
2.444700 1.375900
2.471000 1.390700
2.497300 1.375200
2.523500 1.354900
2.549800 1.327900
2.576100 1.311100
2.602300 1.302400
2.628600 1.315100
2.654900 1.302000
2.681100 1.302100
2.707400 1.327300
2.733600 1.321400
2.759900 1.295000
2.786200 1.211700
2.812400 1.223600
2.838700 1.238900
2.865000 1.252900
2.891200 1.265500
2.917500 1.275800
2.943800 1.283100
2.970000 1.349000
2.996300 1.331700
3.022600 1.366400
3.048800 1.489100
3.075100 1.396500
3.101300 1.344600
3.127600 1.321500
3.153900 1.230200
3.180100 1.174900
3.206400 1.167000
3.232700 1.199000
3.258900 1.240700
3.285200 1.109900
3.311500 1.083400
3.337700 1.062900
3.364000 1.045000
3.390300 1.032600
3.416500 1.024400
3.442800 1.016200
3.469100 1.009000
3.495300 1.001400
3.521600 0.996700
3.547800 0.991700
3.574100 0.986600
3.600400 0.981800
3.626600 0.979000
3.652900 0.977400
3.679200 0.982800
3.705400 0.994500
3.731700 1.037300
3.758000 1.103800
3.784200 1.171100
3.810500 1.256900
3.836800 1.202900
3.863000 1.135200
3.889300 1.000000
3.915500 0.773000
3.941800 0.810600
3.968100 0.829900
3.994300 0.840400
4.020600 0.841200
4.046900 0.832200
4.073100 0.831400
4.099400 0.836500
4.125700 0.842900
4.151900 0.837800
4.178200 0.837600
4.204500 0.838600
4.230700 0.831700
4.257000 0.808700
4.283300 0.769800
4.309500 0.750700
4.335800 0.723300
4.362000 0.697000
4.388300 0.680100
4.414600 0.671400
4.440800 0.672000
4.467100 0.747200
4.493400 0.763800
4.519600 0.796700
4.545900 0.825600
4.572200 0.856400
4.598400 0.888100
4.624700 0.971700
4.651000 1.053000
4.677200 1.051800
4.703500 1.086100
4.729700 1.121300
4.756000 1.169100
4.782300 1.249700
4.808500 1.323600
4.834800 1.427800
4.861100 1.574500
4.887300 1.448800
4.913600 1.107800
4.939900 1.037000
4.966100 1.026300
4.992400 1.028000
5.018700 1.028600
5.044900 1.028100
5.071200 1.026300
5.097400 1.023200
5.123700 1.020200
5.150000 1.024100
5.176200 1.028300
5.202500 1.019200
5.228800 1.023700
5.255000 1.031500
5.281300 1.041200
5.307600 1.052100
5.333800 1.064000
5.360100 1.075700
5.386400 1.088600
5.412600 1.103900
5.438900 1.122200
5.465200 1.141400
5.491400 1.159800
5.517700 1.177300
5.543900 1.194100
5.570200 1.208100
5.596500 1.212800
5.622700 1.194500
5.649000 1.176900
5.675300 1.178000
5.701500 1.189700
5.727800 1.202600
5.754100 1.216900
5.780300 1.233600
5.806600 1.252500
5.832900 1.282500
5.859100 1.315000
5.885400 1.350300
5.911600 1.387700
5.937900 1.422200
5.964200 1.454000
5.990400 1.484300
6.016700 1.622600
6.043000 1.604000
6.069200 1.497600
6.095500 1.449300
6.121800 1.421100
6.148000 1.406000
6.174300 1.399500
6.200600 1.392800
6.226800 1.389000
6.253100 1.422700
6.279400 1.455300
6.305600 1.466900
6.331900 1.593000
6.358100 1.848600
6.384400 1.767200
6.410700 1.764200
6.436900 1.746800
6.463200 1.640500
6.489500 1.550400
6.515700 1.523300
6.542000 1.513500
6.568300 1.518300
6.594500 1.496100
6.620800 1.480000
6.647100 1.613100
6.673300 1.339100
6.699600 1.291300
6.725800 1.255800
6.752100 1.233400
6.778400 1.222700
6.804600 1.217500
6.830900 1.213900
6.857200 1.212400
6.883400 1.212000
6.909700 1.213600
6.936000 1.216400
6.962200 1.220600
6.988500 1.226000
7.014800 1.232700
7.041000 1.288300
7.067300 1.339000
7.093600 1.383300
7.119800 1.395500
7.146100 1.409500
7.172300 1.432200
7.198600 1.472500
7.224900 1.495200
7.251100 1.509800
7.277400 1.518400
7.303700 1.804800
7.329900 1.792500
7.356200 1.792500
7.382500 1.801300
7.408700 1.811600
7.435000 1.699600
7.461300 1.561700
7.487500 1.406000
7.513800 1.272700
7.540000 1.249200
7.566300 1.225600
7.592600 1.202000
7.618800 1.171500
7.645100 1.129500
7.671400 1.122800
7.697600 1.117100
7.723900 1.112400
7.750200 1.258900
7.776400 1.240600
7.802700 1.214300
7.829000 1.180600
7.855200 1.161500
7.881500 1.146600
7.907800 1.136400
7.934000 1.140900
7.960300 1.145000
7.986500 1.148700
8.012800 1.152000
8.039100 1.155000
8.065300 1.157700
8.091600 1.160000
8.117900 1.156100
8.144100 1.155800
8.170400 1.180500
8.196700 1.318700
8.222900 1.114400
8.249200 1.113600
8.275500 1.112200
8.301700 1.110100
8.328000 1.107300
8.354200 1.113200
8.380500 1.119600
8.406800 1.126200
8.433000 1.117900
8.459300 1.134200
8.485600 1.126500
8.511800 1.137000
8.538100 1.149300
8.564400 1.163500
8.590600 1.179100
8.616900 1.195300
8.643200 1.214800
8.669400 1.241000
8.695700 1.272300
8.722000 1.305800
8.748200 1.340700
8.774500 1.377000
8.800700 1.441800
8.827000 1.502800
8.853300 1.548000
8.879500 1.581100
8.905800 1.619500
8.932100 1.637100
8.958300 1.571200
8.984600 1.399000
9.010900 1.401900
9.037100 1.403500
9.063400 1.405000
9.089700 1.408300
9.115900 1.406700
9.142200 1.406600
9.168400 1.404300
9.194700 1.417000
9.221000 1.432200
9.247200 1.448800
9.273500 1.527700
9.299800 1.532800
9.326000 1.534600
9.352300 1.544100
9.378600 1.554200
9.404800 1.559400
9.431100 1.562600
9.457400 1.515300
9.483600 1.512500
9.509900 1.509700
9.536100 1.509700
9.562400 1.510300
9.588700 1.509400
9.614900 1.502500
9.641200 1.492700
9.667500 1.474000
9.693700 1.452800
9.720000 1.429400
9.746300 1.403000
9.772500 1.381800
9.798800 1.376000
9.825100 1.380400
9.851300 1.390400
9.877600 1.599300
9.903900 1.556300
9.930100 1.548800
9.956400 1.589800
9.982600 1.612600
10.008900 1.635900
10.035200 1.659800
10.061400 1.685300
10.087700 1.706100
10.114000 1.760100
10.140200 1.780800
10.166500 1.808900
10.192800 1.943700
10.219000 2.034100
10.245300 2.050900
10.271600 2.094200
10.297800 2.145300
10.324100 2.178200
10.350300 2.204900
10.376600 2.226700
10.402900 2.249300
10.429100 2.364300
10.455400 2.224100
10.481700 2.134900
10.507900 2.122000
10.534200 2.146700
10.560500 2.188000
10.586700 2.214400
10.613000 2.236200
10.639300 2.259100
10.665500 2.284600
10.691800 2.283900
10.718100 2.234000
10.744300 2.236400
10.770600 2.386300
10.796800 2.208600
10.823100 2.230000
10.849400 2.134700
10.875600 2.070600
10.901900 2.065700
10.928200 2.055900
10.954400 2.033500
10.980700 2.011000
11.007000 1.990500
11.033200 1.959200
11.059500 1.934400
11.085800 1.921200
11.112000 1.920000
11.138300 1.906500
11.164500 1.871900
11.190800 1.856000
11.217100 1.858200
11.243300 1.842200
11.269600 1.813100
11.295900 1.775000
11.322100 1.792400
11.348400 1.748700
11.374700 1.699900
11.400900 1.656700
11.427200 1.616600
11.453500 1.575600
11.479700 1.531800
11.506000 1.499500
11.532300 1.438300
11.558500 1.379600
11.584800 1.326700
11.611000 1.295400
11.637300 1.302600
11.663600 1.356400
11.689800 1.403500
11.716100 1.452700
11.742400 1.504900
11.768600 1.563200
11.794900 1.626700
11.821200 1.630200
11.847400 1.650900
11.873700 1.656900
11.900000 1.666400
11.926200 1.706400
11.952500 1.743900
11.978700 1.748000
12.005000 1.764200
12.031300 1.780200
12.057500 1.785000
12.083800 1.796400
12.110100 1.805200
12.136300 1.809900
12.162600 1.813000
12.188900 2.016100
12.215100 1.882400
12.241400 1.804200
12.267700 1.753900
12.293900 1.702000
12.320200 1.654000
12.346500 1.610100
12.372700 1.572000
12.399000 1.541200
12.425200 1.521800
12.451500 1.504200
12.477800 1.483500
12.504000 1.462500
12.530300 1.441200
12.556600 1.402300
12.582800 1.388300
12.609100 1.377300
12.635400 1.368200
12.661600 1.360900
12.687900 1.357000
12.714200 1.352900
12.740400 1.344900
12.766700 1.334800
12.792900 1.326300
12.819200 1.319400
12.845500 1.312300
12.871700 1.303800
12.898000 1.316400
12.924300 1.318400
12.950500 1.314200
12.976800 1.292400
13.003100 1.314300
13.029300 1.340100
13.055600 1.384900
13.081900 1.409700
13.108100 1.423200
13.134400 1.445000
13.160700 1.488900
13.186900 1.531100
13.213200 1.628200
13.239400 1.957900
13.265700 1.814100
13.292000 1.746200
13.318200 1.771500
13.344500 1.800500
13.370800 1.885500
13.397000 2.178300
13.423300 2.498900
13.449600 2.673200
13.475800 2.602800
13.502100 2.305800
13.528400 2.038900
13.554600 1.899200
13.580900 1.775000
13.607100 1.698900
13.633400 1.624100
13.659700 1.562200
13.685900 1.512900
13.712200 1.475300
13.738500 1.442800
13.764700 1.413400
13.791000 1.388600
13.817300 1.335400
13.843500 1.309600
13.869800 1.253500
13.896100 1.233900
13.922300 1.213500
13.948600 1.190700
13.974800 1.169200
14.001100 1.155200
14.027400 1.147200
14.053600 1.142200
14.079900 1.140900
14.106200 1.148200
14.132400 1.155600
14.158700 1.165900
14.185000 1.168400
14.211200 1.168500
14.237500 1.166600
14.263800 1.171400
14.290000 1.182900
14.316300 1.179800
14.342600 1.181100
14.368800 1.193400
14.395100 1.209800
14.421300 1.227200
14.447600 1.245300
14.473900 1.263900
14.500100 1.165600
14.526400 1.149300
14.552700 1.115500
14.578900 1.072200
14.605200 1.033600
14.631500 0.996300
14.657700 1.000000
14.684000 1.086000
14.710300 1.133200
14.736500 1.178200
14.762800 1.203500
14.789000 1.207000
14.815300 1.171400
14.841600 1.189500
14.867800 1.211400
14.894100 1.236900
14.920400 1.266800
14.946600 1.320100
14.972900 1.378800
14.999200 1.431100
15.025400 1.476900
15.051700 1.514400
15.078000 1.509800
15.104200 1.491000
15.130500 1.470100
15.156800 1.447800
15.183000 1.428800
15.209300 1.413000
15.235500 1.392800
15.261800 1.367600
15.288100 1.346200
15.314300 1.330200
15.340600 1.313500
15.366900 1.296100
15.393100 1.276800
15.419400 1.248500
15.445700 1.220100
15.471900 1.191800
15.498200 1.167500
15.524500 1.150600
15.550700 1.134700
15.577000 1.119600
15.603200 1.108500
15.629500 1.105900
15.655800 1.116800
15.682000 1.134300
15.708300 1.151100
15.734600 1.167400
15.760800 1.184700
15.787100 1.205100
15.813400 1.234700
15.839600 1.276200
15.865900 1.334400
