set title 'mp-1096986 - Density of States'
set xlabel 'Energy (eV)'
set ylabel 'DOS (states/eV)'
set grid
set xrange [-10:10]
set yrange [0:4.078]
set xzeroaxis lt -1
set terminal png size 800,600
set output 'mp-1096986_dos_gnuplot.png'
plot '-' using 1:2 with lines title 'DOS'
-20.968600 0.000000
-20.919900 0.000000
-20.871200 0.000000
-20.822500 0.000000
-20.773800 0.000000
-20.725100 0.000000
-20.676400 0.000000
-20.627700 0.000000
-20.579000 0.000000
-20.530300 0.000000
-20.481600 0.000000
-20.432900 0.000000
-20.384200 0.000000
-20.335500 0.000000
-20.286800 0.000000
-20.238100 0.000000
-20.189400 0.000000
-20.140700 0.000000
-20.092000 0.000000
-20.043300 0.000000
-19.994600 0.000000
-19.945900 0.000000
-19.897200 0.000000
-19.848500 0.000000
-19.799800 0.000000
-19.751100 0.000000
-19.702400 0.000000
-19.653800 0.000000
-19.605100 0.000000
-19.556400 0.000000
-19.507700 0.000000
-19.459000 0.000000
-19.410300 0.000000
-19.361600 0.000000
-19.312900 0.000000
-19.264200 0.000000
-19.215500 0.000000
-19.166800 0.000000
-19.118100 0.000000
-19.069400 0.000000
-19.020700 0.000000
-18.972000 0.000000
-18.923300 0.000000
-18.874600 0.000000
-18.825900 0.000000
-18.777200 0.000000
-18.728500 0.000000
-18.679800 0.000000
-18.631100 0.000000
-18.582400 0.000000
-18.533700 0.000000
-18.485000 0.000000
-18.436300 0.000000
-18.387600 0.000000
-18.338900 0.000000
-18.290200 0.000000
-18.241500 0.000000
-18.192800 0.000000
-18.144100 0.000000
-18.095400 0.000000
-18.046700 0.000000
-17.998000 0.000000
-17.949300 0.000000
-17.900600 0.000000
-17.851900 0.000000
-17.803200 0.000000
-17.754500 0.000000
-17.705800 0.000000
-17.657100 0.000000
-17.608400 0.000000
-17.559700 0.000000
-17.511000 0.000000
-17.462300 0.000000
-17.413600 0.000000
-17.364900 0.000000
-17.316200 0.000000
-17.267500 0.000000
-17.218800 0.000000
-17.170100 0.000000
-17.121400 0.000000
-17.072700 0.000000
-17.024000 0.000000
-16.975300 0.000000
-16.926600 0.000000
-16.877900 0.000000
-16.829200 0.000000
-16.780500 0.000000
-16.731800 0.000000
-16.683100 0.000000
-16.634400 0.000000
-16.585700 0.000000
-16.537000 0.003400
-16.488300 0.151300
-16.439600 0.305300
-16.390900 0.459200
-16.342200 0.266000
-16.293500 0.279000
-16.244800 0.292000
-16.196100 0.305000
-16.147400 0.318000
-16.098700 0.330900
-16.050100 0.343000
-16.001400 0.328100
-15.952700 0.312500
-15.904000 0.296900
-15.855300 0.295400
-15.806600 0.300100
-15.757900 0.304700
-15.709200 0.309400
-15.660500 0.314100
-15.611800 0.318800
-15.563100 0.323500
-15.514400 0.328100
-15.465700 0.332800
-15.417000 0.337500
-15.368300 0.313200
-15.319600 0.312600
-15.270900 0.311900
-15.222200 0.311200
-15.173500 0.310500
-15.124800 0.309900
-15.076100 0.310100
-15.027400 0.312600
-14.978700 0.315200
-14.930000 0.317700
-14.881300 0.320200
-14.832600 0.322700
-14.783900 0.325300
-14.735200 0.327800
-14.686500 0.330300
-14.637800 0.332800
-14.589100 0.331100
-14.540400 0.326000
-14.491700 0.320800
-14.443000 0.317800
-14.394300 0.318700
-14.345600 0.319600
-14.296900 0.320500
-14.248200 0.321300
-14.199500 0.322200
-14.150800 0.323100
-14.102100 0.324000
-14.053400 0.324900
-14.004700 0.325800
-13.956000 0.327400
-13.907300 0.329300
-13.858600 0.331100
-13.809900 0.333000
-13.761200 0.334900
-13.712500 0.336700
-13.663800 0.338600
-13.615100 0.340400
-13.566400 0.342300
-13.517700 0.336900
-13.469000 0.337000
-13.420300 0.337200
-13.371600 0.337300
-13.322900 0.337500
-13.274200 0.337600
-13.225500 0.338300
-13.176800 0.340500
-13.128100 0.342600
-13.079400 0.344800
-13.030700 0.346900
-12.982000 0.349000
-12.933300 0.351200
-12.884600 0.353300
-12.835900 0.355500
-12.787200 0.357600
-12.738500 0.359800
-12.689800 0.361900
-12.641100 0.365700
-12.592400 0.370600
-12.543700 0.375400
-12.495100 0.380300
-12.446400 0.385100
-12.397700 0.390000
-12.349000 0.394800
-12.300300 0.399800
-12.251600 0.404900
-12.202900 0.413600
-12.154200 0.426500
-12.105500 0.439400
-12.056800 0.452300
-12.008100 0.465100
-11.959400 0.478000
-11.910700 0.490900
-11.862000 0.859400
-11.813300 0.736000
-11.764600 0.612500
-11.715900 0.489100
-11.667200 0.368900
-11.618500 0.350800
-11.569800 0.334100
-11.521100 0.317400
-11.472400 0.300700
-11.423700 0.284000
-11.375000 0.267300
-11.326300 0.250600
-11.277600 0.233900
-11.228900 0.217200
-11.180200 0.292100
-11.131500 0.377100
-11.082800 0.462100
-11.034100 0.146200
-10.985400 0.139900
-10.936700 0.133500
-10.888000 0.127100
-10.839300 0.120800
-10.790600 0.114400
-10.741900 0.108000
-10.693200 0.101700
-10.644500 0.095300
-10.595800 0.088900
-10.547100 0.082600
-10.498400 0.076200
-10.449700 0.069800
-10.401000 0.063500
-10.352300 0.057100
-10.303600 0.050700
-10.254900 0.044400
-10.206200 0.038000
-10.157500 0.031600
-10.108800 0.025300
-10.060100 0.018900
-10.011400 0.012500
-9.962700 0.006200
-9.914000 0.000400
-9.865300 0.012900
-9.816600 0.057200
-9.767900 0.102700
-9.719200 0.148200
-9.670500 0.193700
-9.621800 0.239200
-9.573100 0.362900
-9.524400 0.575500
-9.475700 0.788100
-9.427000 1.000700
-9.378300 0.568800
-9.329600 0.608600
-9.280900 0.648300
-9.232200 0.688100
-9.183500 0.727800
-9.134800 0.767600
-9.086100 0.475800
-9.037400 0.467500
-8.988700 0.459200
-8.940000 0.450900
-8.891400 0.442600
-8.842700 0.453600
-8.794000 0.517800
-8.745300 0.622900
-8.696600 0.691800
-8.647900 0.751100
-8.599200 0.758700
-8.550500 0.718600
-8.501800 0.731000
-8.453100 0.745000
-8.404400 0.757900
-8.355700 0.761700
-8.307000 0.758200
-8.258300 0.748800
-8.209600 0.743900
-8.160900 0.744800
-8.112200 0.752000
-8.063500 0.759600
-8.014800 0.767300
-7.966100 0.775000
-7.917400 0.782800
-7.868700 0.792600
-7.820000 0.804700
-7.771300 0.837300
-7.722600 0.882200
-7.673900 0.927600
-7.625200 0.977700
-7.576500 1.037000
-7.527800 1.108000
-7.479100 1.186600
-7.430400 1.265600
-7.381700 1.344900
-7.333000 1.454000
-7.284300 1.666800
-7.235600 1.693900
-7.186900 0.961000
-7.138200 0.000000
-7.089500 0.000000
-7.040800 0.000000
-6.992100 0.000000
-6.943400 0.000000
-6.894700 0.000000
-6.846000 0.000000
-6.797300 0.000000
-6.748600 0.000000
-6.699900 0.000000
-6.651200 0.000000
-6.602500 0.000000
-6.553800 0.000000
-6.505100 0.000000
-6.456400 0.000000
-6.407700 0.000000
-6.359000 0.000000
-6.310300 0.004900
-6.261600 0.026100
-6.212900 0.047300
-6.164200 0.068500
-6.115500 0.089700
-6.066800 0.110900
-6.018100 0.132100
-5.969400 0.153300
-5.920700 0.174500
-5.872000 0.195700
-5.823300 0.216900
-5.774600 0.238100
-5.725900 0.259300
-5.677200 0.216700
-5.628500 0.231300
-5.579800 0.245800
-5.531100 0.260400
-5.482400 0.384600
-5.433700 0.889900
-5.385000 1.193100
-5.336400 1.271300
-5.287700 1.327200
-5.239000 1.396500
-5.190300 1.513600
-5.141600 1.848600
-5.092900 2.353100
-5.044200 2.419300
-4.995500 2.486200
-4.946800 1.619900
-4.898100 1.870800
-4.849400 2.492400
-4.800700 0.586100
-4.752000 0.317000
-4.703300 0.306200
-4.654600 0.295300
-4.605900 0.293700
-4.557200 0.311200
-4.508500 0.336900
-4.459800 0.362500
-4.411100 0.388200
-4.362400 0.413800
-4.313700 0.439500
-4.265000 0.465200
-4.216300 0.490900
-4.167600 0.516500
-4.118900 0.544300
-4.070200 0.579300
-4.021500 0.614200
-3.972800 0.649200
-3.924100 0.684200
-3.875400 1.187700
-3.826700 1.918000
-3.778000 1.378200
-3.729300 0.767700
-3.680600 0.716600
-3.631900 0.701100
-3.583200 0.685600
-3.534500 0.676600
-3.485800 0.663700
-3.437100 0.649700
-3.388400 0.635600
-3.339700 0.621600
-3.291000 0.607500
-3.242300 0.593500
-3.193600 0.579400
-3.144900 0.567100
-3.096200 0.582600
-3.047500 0.604800
-2.998800 0.627000
-2.950100 0.649300
-2.901400 0.671500
-2.852700 0.709700
-2.804000 0.732700
-2.755300 0.855800
-2.706600 0.909300
-2.657900 0.962800
-2.609200 1.016400
-2.560500 1.071900
-2.511800 1.119500
-2.463100 1.690500
-2.414400 1.434700
-2.365700 1.604300
-2.317000 1.813600
-2.268300 2.008900
-2.219600 3.707600
-2.170900 2.444300
-2.122200 2.344300
-2.073500 2.189400
-2.024800 2.054000
-1.976100 2.025500
-1.927400 2.022800
-1.878700 2.019900
-1.830000 2.036400
-1.781400 2.063400
-1.732700 2.105500
-1.684000 2.127000
-1.635300 2.120100
-1.586600 2.088200
-1.537900 2.324200
-1.489200 1.793700
-1.440500 1.555300
-1.391800 1.435500
-1.343100 1.356900
-1.294400 1.035600
-1.245700 0.948300
-1.197000 0.867300
-1.148300 0.828200
-1.099600 0.789200
-1.050900 0.750300
-1.002200 0.735100
-0.953500 0.565400
-0.904800 0.440500
-0.856100 0.385900
-0.807400 0.378500
-0.758700 0.371000
-0.710000 0.363600
-0.661300 0.356100
-0.612600 0.348700
-0.563900 0.341200
-0.515200 0.333800
-0.466500 0.326300
-0.417800 0.318900
-0.369100 0.311400
-0.320400 0.304000
-0.271700 0.296600
-0.223000 0.289100
-0.174300 0.281700
-0.125600 0.286800
-0.076900 0.297500
-0.028200 0.295400
0.020500 0.286900
0.069200 0.278400
0.117900 0.269800
0.166600 0.294600
0.215300 0.280600
0.264000 0.266600
0.312700 0.252500
0.361400 0.238500
0.410100 0.224500
0.458800 0.210400
0.507500 0.196400
0.556200 0.182400
0.604900 0.284900
0.653600 0.238500
0.702300 0.192000
0.751000 0.145600
0.799700 0.099200
0.848400 0.052700
0.897100 0.006300
0.945800 0.000000
0.994500 0.000000
1.043200 0.000000
1.091900 0.000000
1.140600 0.000000
1.189300 0.000000
1.238000 0.000000
1.286700 0.000000
1.335400 0.000000
1.384100 0.000000
1.432800 0.000000
1.481500 0.000000
1.530200 0.000000
1.578900 0.000000
1.627600 0.000000
1.676300 0.000000
1.725000 0.000000
1.773700 0.000000
1.822300 0.000000
1.871000 0.000000
1.919700 0.000000
1.968400 0.000000
2.017100 0.000000
2.065800 0.000000
2.114500 0.000000
2.163200 0.000000
2.211900 0.000000
2.260600 0.000000
2.309300 0.000000
2.358000 0.000000
2.406700 0.000000
2.455400 0.000000
2.504100 0.000000
2.552800 0.000000
2.601500 0.000000
2.650200 0.000000
2.698900 0.000000
2.747600 0.000000
2.796300 0.000000
2.845000 0.000000
2.893700 0.000000
2.942400 0.000000
2.991100 0.000000
3.039800 0.000000
3.088500 0.000000
3.137200 0.000000
3.185900 0.000000
3.234600 0.000000
3.283300 0.000000
3.332000 0.000000
3.380700 0.000000
3.429400 0.000000
3.478100 0.000000
3.526800 0.000000
3.575500 0.000000
3.624200 0.000000
3.672900 0.000000
3.721600 0.000000
3.770300 0.000000
3.819000 0.000000
3.867700 0.000000
3.916400 0.000000
3.965100 0.000000
4.013800 0.000000
4.062500 0.000000
4.111200 0.000000
4.159900 0.000000
4.208600 0.004700
4.257300 0.028400
4.306000 0.053900
4.354700 0.081100
4.403400 0.060100
4.452100 0.066100
4.500800 0.072300
4.549500 0.078800
4.598200 0.085400
4.646900 0.092300
4.695600 0.099300
4.744300 0.106600
4.793000 0.111000
4.841700 0.114400
4.890400 0.117800
4.939100 0.121500
4.987800 0.128200
5.036500 0.135100
5.085200 0.142300
5.133900 0.149600
5.182600 0.157200
5.231300 0.164900
5.280000 0.172800
5.328700 0.181000
5.377300 0.189300
5.426000 0.197900
5.474700 0.204800
5.523400 0.213200
5.572100 0.224300
5.620800 0.236600
5.669500 0.250200
5.718200 0.265000
5.766900 0.280900
5.815600 0.298600
5.864300 0.318700
5.913000 0.341100
5.961700 0.364300
6.010400 0.388200
6.059100 0.412900
6.107800 0.441300
6.156500 0.488300
6.205200 0.547600
6.253900 0.618500
6.302600 0.701400
6.351300 0.795500
6.400000 0.918400
6.448700 1.000200
6.497400 1.024600
6.546100 0.795400
6.594800 0.619700
6.643500 0.583600
6.692200 0.560700
6.740900 0.542600
6.789600 0.530500
6.838300 0.531300
6.887000 0.528500
6.935700 0.498900
6.984400 0.472800
7.033100 0.460700
7.081800 0.451000
7.130500 0.444100
7.179200 0.441600
7.227900 0.440600
7.276600 0.440700
7.325300 0.441700
7.374000 0.443300
7.422700 0.445700
7.471400 0.449000
7.520100 0.452900
7.568800 0.457100
7.617500 0.460900
7.666200 0.464900
7.714900 0.469000
7.763600 0.470900
7.812300 0.530900
7.861000 0.533800
7.909700 0.534300
7.958400 0.532500
8.007100 0.528500
8.055800 0.522400
8.104500 0.514500
8.153200 0.504700
8.201900 0.493200
8.250600 0.485000
8.299300 0.484300
8.348000 0.485900
8.396700 0.487600
8.445400 0.491800
8.494100 0.504000
8.542800 0.513100
8.591500 0.561400
8.640200 0.635300
8.688900 0.707700
8.737600 0.810500
8.786300 1.000300
8.835000 1.176500
8.883700 1.290000
8.932400 1.357500
8.981000 1.249600
9.029700 1.164500
9.078400 1.130300
9.127100 1.150300
9.175800 1.177600
9.224500 1.215500
9.273200 1.259200
9.321900 1.373100
9.370600 1.520100
9.419300 1.624200
9.468000 1.655900
9.516700 1.675200
9.565400 1.672800
9.614100 1.629400
9.662800 2.023600
9.711500 1.658300
9.760200 1.539500
9.808900 1.448600
9.857600 1.384900
9.906300 1.395200
9.955000 1.414100
10.003700 1.408300
10.052400 1.391700
10.101100 1.400600
10.149800 1.409100
10.198500 1.423500
10.247200 1.459000
10.295900 1.510000
10.344600 1.556700
10.393300 1.628400
10.442000 1.621700
10.490700 1.585600
10.539400 1.522400
10.588100 1.466000
10.636800 1.421400
10.685500 1.374300
10.734200 1.324500
10.782900 1.218600
10.831600 1.207400
10.880300 1.201600
10.929000 1.217700
10.977700 1.367500
11.026400 1.540800
11.075100 1.765300
11.123800 2.041600
11.172500 2.244800
11.221200 2.208900
11.269900 2.175000
11.318600 2.047600
11.367300 2.059400
11.416000 2.016100
11.464700 1.961200
11.513400 1.828100
11.562100 1.658500
11.610800 1.516800
11.659500 1.442800
11.708200 1.411300
11.756900 1.304500
11.805600 1.070800
11.854300 1.054000
11.903000 0.959000
11.951700 0.958000
12.000400 0.987800
12.049100 1.019600
12.097800 1.039600
12.146500 1.056600
12.195200 1.165000
12.243900 1.191300
12.292600 1.224100
12.341300 1.266900
12.390000 1.299900
12.438700 1.342100
12.487400 1.402200
12.536000 1.450600
12.584700 1.515600
12.633400 1.555700
12.682100 1.577000
12.730800 1.540800
12.779500 1.434500
12.828200 1.324700
12.876900 1.185200
12.925600 1.011400
12.974300 0.860400
13.023000 0.839400
13.071700 0.848400
13.120400 0.866600
13.169100 0.867500
13.217800 0.870700
13.266500 0.873900
13.315200 0.873900
13.363900 0.819800
13.412600 0.772500
13.461300 0.735100
13.510000 0.704900
13.558700 0.681200
13.607400 0.672600
13.656100 0.662300
13.704800 0.649500
13.753500 0.650800
13.802200 0.688200
13.850900 0.743900
13.899600 0.819700
13.948300 0.920400
13.997000 0.940400
14.045700 1.090400
14.094400 1.231900
14.143100 1.363900
14.191800 1.489000
14.240500 1.610500
14.289200 1.695300
14.337900 1.781400
14.386600 1.922600
14.435300 2.133200
14.484000 2.360600
14.532700 2.472000
14.581400 2.493900
14.630100 2.314200
14.678800 1.871100
14.727500 1.769600
14.776200 1.662000
14.824900 1.510000
14.873600 1.296700
14.922300 1.115100
14.971000 0.995600
15.019700 0.948900
15.068400 0.901100
15.117100 0.920200
15.165800 0.946500
15.214500 1.034800
15.263200 1.157200
15.311900 1.227600
15.360600 1.240200
15.409300 1.234600
15.458000 1.210200
15.506700 1.145800
15.555400 1.136800
15.604100 1.117800
15.652800 1.089400
15.701500 1.053100
15.750200 1.029200
15.798900 1.018000
15.847600 0.998400
15.896300 0.969500
15.945000 0.928400
15.993700 0.877500
16.042400 0.913000
16.091000 0.881700
16.139700 0.881800
16.188400 0.889500
16.237100 0.903000
16.285800 0.925500
16.334500 0.910400
16.383200 0.827400
16.431900 0.723200
16.480600 0.699700
16.529300 0.698900
16.578000 0.694000
16.626700 0.689300
16.675400 0.691000
16.724100 0.703400
16.772800 0.725900
16.821500 0.752500
16.870200 0.793500
16.918900 0.852800
16.967600 0.886000
17.016300 0.889000
17.065000 0.896700
17.113700 0.923700
17.162400 0.964500
17.211100 1.005800
17.259800 1.050200
17.308500 1.127600
17.357200 1.163600
17.405900 1.224100
17.454600 1.266900
17.503300 1.319200
17.552000 1.373500
17.600700 1.313200
17.649400 1.257900
17.698100 1.196000
17.746800 1.029500
17.795500 1.006100
17.844200 1.006200
17.892900 1.024200
17.941600 1.048000
17.990300 1.074300
18.039000 1.097200
18.087700 1.118800
18.136400 1.139500
18.185100 1.159100
18.233800 1.154300
18.282500 1.137300
18.331200 1.181500
18.379900 1.149300
18.428600 1.136900
18.477300 1.087300
18.526000 1.008100
18.574700 0.984700
18.623400 0.980700
18.672100 0.993000
18.720800 1.007200
18.769500 0.992700
18.818200 0.971700
18.866900 0.950700
18.915600 0.925400
18.964300 0.887100
19.013000 0.852000
19.061700 0.834500
19.110400 0.827900
19.159100 0.833100
19.207800 0.847500
19.256500 0.859300
19.305200 0.863700
19.353900 0.859200
19.402600 0.912900
19.451300 0.773700
19.500000 0.779600
19.548700 0.786600
19.597400 0.794000
19.646100 0.801800
19.694700 0.814400
19.743400 0.841900
19.792100 0.865000
19.840800 0.881400
19.889500 0.914600
19.938200 0.987500
19.986900 1.040900
20.035600 1.050900
20.084300 1.007500
20.133000 0.969400
20.181700 0.962200
20.230400 0.952000
20.279100 0.958000
20.327800 0.948000
20.376500 0.957300
20.425200 0.973900
20.473900 0.994500
20.522600 1.019600
20.571300 1.049400
20.620000 1.081700
20.668700 1.199800
20.717400 1.043300
20.766100 1.028900
20.814800 1.023200
20.863500 1.025600
20.912200 1.035000
20.960900 1.054500
21.009600 1.095900
21.058300 1.146200
21.107000 1.201400
21.155700 1.235100
21.204400 1.248500
21.253100 1.258900
21.301800 1.259000
21.350500 1.267000
21.399200 1.301300
21.447900 1.350200
21.496600 1.409100
21.545300 1.495900
21.594000 1.603500
21.642700 1.689000
21.691400 1.807000
21.740100 1.847800
21.788800 2.042600
21.837500 2.140600
21.886200 1.705400
21.934900 1.545300
21.983600 1.499500
22.032300 1.491400
22.081000 1.477400
22.129700 1.445800
22.178400 1.387200
22.227100 1.372400
22.275800 1.366900
22.324500 1.367200
22.373200 1.370500
22.421900 1.376300
22.470600 1.384900
22.519300 1.394200
22.568000 1.403700
22.616700 1.416000
22.665400 1.429700
22.714100 1.438100
22.762800 1.442800
22.811500 1.448700
22.860200 1.467700
22.908900 1.490300
22.957600 1.551500
23.006300 1.594700
23.055000 1.607400
23.103700 1.613700
23.152400 1.651300
23.201100 1.614200
23.249700 1.613700
23.298400 1.599500
23.347100 1.563200
23.395800 1.507900
23.444500 1.465800
23.493200 1.515500
23.541900 1.468100
23.590600 1.391700
23.639300 1.313900
23.688000 1.236700
23.736700 1.205500
23.785400 1.197600
23.834100 1.329900
23.882800 1.492200
23.931500 1.327800
23.980200 1.270300
24.028900 1.203000
24.077600 1.175800
24.126300 1.140600
24.175000 1.091800
24.223700 1.107000
24.272400 1.104500
24.321100 1.097100
24.369800 1.086700
24.418500 1.076000
24.467200 1.070100
24.515900 1.059400
24.564600 1.037500
24.613300 1.015200
24.662000 0.992600
24.710700 0.969600
24.759400 0.951800
24.808100 0.917200
24.856800 0.906400
24.905500 0.902800
24.954200 0.906600
25.002900 0.915000
25.051600 0.926800
25.100300 0.938300
25.149000 0.950100
25.197700 0.966500
25.246400 0.996300
25.295100 0.994500
25.343800 1.009100
25.392500 1.020200
25.441200 1.037000
25.489900 1.051400
25.538600 1.058900
25.587300 1.057200
25.636000 1.045800
25.684700 1.031700
25.733400 1.014100
25.782100 1.000400
25.830800 0.979200
25.879500 0.972800
25.928200 0.971100
25.976900 0.972700
26.025600 0.981600
26.074300 1.026900
26.123000 1.077600
26.171700 1.115700
26.220400 1.123300
26.269100 1.147000
26.317800 1.162500
26.366500 1.171400
26.415200 1.180800
26.463900 1.229800
26.512600 1.195600
26.561300 1.156200
26.610000 1.129500
26.658700 1.127200
26.707400 1.217700
26.756100 1.188100
26.804800 1.183600
26.853400 1.182800
26.902100 1.185300
26.950800 1.193500
26.999500 1.198400
27.048200 1.217300
27.096900 1.232500
27.145600 1.244000
27.194300 1.245400
27.243000 1.220700
27.291700 1.299900
27.340400 1.200300
27.389100 1.124900
27.437800 1.086000
27.486500 1.080100
27.535200 1.066200
27.583900 1.041000
27.632600 1.007600
27.681300 1.001700
27.730000 1.002600
27.778700 1.003500
27.827400 1.004800
27.876100 1.007200
27.924800 1.010300
27.973500 1.012500
28.022200 1.048300
28.070900 1.078200
28.119600 1.014500
28.168300 0.967300
28.217000 0.971300
28.265700 0.983600
28.314400 1.003800
28.363100 1.026800
28.411800 1.041500
28.460500 1.048600
28.509200 1.057500
28.557900 1.071900
28.606600 1.092100
28.655300 1.119700
28.704000 1.146000
28.752700 1.165600
28.801400 1.176700
28.850100 1.215200
28.898800 1.257600
28.947500 1.315200
28.996200 1.312600
29.044900 1.369800
29.093600 1.383400
29.142300 1.369500
29.191000 1.350500
29.239700 1.317000
29.288400 1.297200
29.337100 1.279100
29.385800 1.262300
29.434500 1.237700
