set title 'mp-672684 - Density of States'
set xlabel 'Energy (eV)'
set ylabel 'DOS (states/eV)'
set grid
set xrange [-10:10]
set yrange [0:517.941]
set xzeroaxis lt -1
set terminal png size 800,600
set output 'mp-672684_dos_gnuplot.png'
plot '-' using 1:2 with lines title 'DOS'
-8.063800 0.000000
-8.052100 0.000000
-8.040300 0.000000
-8.028500 0.000000
-8.016700 0.000000
-8.004900 0.000000
-7.993100 0.000000
-7.981400 0.000000
-7.969600 0.000000
-7.957800 0.000000
-7.946000 0.000000
-7.934200 0.000000
-7.922400 0.000000
-7.910700 0.000000
-7.898900 0.000000
-7.887100 0.000000
-7.875300 0.000000
-7.863500 0.000000
-7.851700 0.000000
-7.840000 0.000000
-7.828200 0.000000
-7.816400 0.000000
-7.804600 0.000000
-7.792800 0.000000
-7.781000 0.000000
-7.769300 0.000000
-7.757500 0.000000
-7.745700 0.000000
-7.733900 0.000000
-7.722100 0.000000
-7.710300 0.000000
-7.698600 0.000000
-7.686800 0.000000
-7.675000 0.000000
-7.663200 0.000000
-7.651400 0.000000
-7.639600 0.000000
-7.627900 0.000000
-7.616100 0.000000
-7.604300 0.000000
-7.592500 0.000000
-7.580700 0.000000
-7.568900 0.000000
-7.557200 0.000000
-7.545400 0.000000
-7.533600 0.000000
-7.521800 0.000000
-7.510000 0.000000
-7.498200 0.000000
-7.486400 0.000000
-7.474700 0.000000
-7.462900 0.000000
-7.451100 0.000000
-7.439300 0.000000
-7.427500 0.000000
-7.415700 0.000000
-7.404000 0.000000
-7.392200 0.000000
-7.380400 0.000000
-7.368600 0.000000
-7.356800 0.000000
-7.345000 0.000000
-7.333300 0.000000
-7.321500 0.000000
-7.309700 0.000000
-7.297900 0.000000
-7.286100 0.000000
-7.274300 0.000000
-7.262600 0.000000
-7.250800 0.000000
-7.239000 0.000000
-7.227200 0.000000
-7.215400 0.000000
-7.203600 0.000000
-7.191900 0.000000
-7.180100 0.000000
-7.168300 0.000000
-7.156500 0.000000
-7.144700 0.000000
-7.132900 0.000000
-7.121200 0.000000
-7.109400 0.000000
-7.097600 0.000000
-7.085800 0.000000
-7.074000 0.000000
-7.062200 0.000000
-7.050500 0.000000
-7.038700 0.000000
-7.026900 0.000000
-7.015100 0.000000
-7.003300 0.000000
-6.991500 1.641300
-6.979800 0.751600
-6.968000 0.917600
-6.956200 1.094700
-6.944400 1.282900
-6.932600 1.482100
-6.920800 1.692500
-6.909100 1.914000
-6.897300 2.038300
-6.885500 2.058200
-6.873700 2.127800
-6.861900 2.218100
-6.850100 2.302100
-6.838400 2.380000
-6.826600 2.452500
-6.814800 2.556500
-6.803000 2.661400
-6.791200 2.767300
-6.779400 2.878600
-6.767700 2.997400
-6.755900 3.123500
-6.744100 3.255100
-6.732300 3.423400
-6.720500 4.240900
-6.708700 5.120100
-6.697000 5.241100
-6.685200 5.015200
-6.673400 4.882700
-6.661600 4.849500
-6.649800 4.837200
-6.638000 4.793200
-6.626300 4.716900
-6.614500 4.608400
-6.602700 4.485400
-6.590900 4.377400
-6.579100 4.268900
-6.567300 4.151600
-6.555600 4.071700
-6.543800 4.005600
-6.532000 4.316900
-6.520200 4.253800
-6.508400 4.168800
-6.496600 4.061900
-6.484900 4.256100
-6.473100 5.201000
-6.461300 6.819600
-6.449500 8.193500
-6.437700 8.560300
-6.425900 8.297200
-6.414200 8.432800
-6.402400 8.598300
-6.390600 8.599300
-6.378800 8.562800
-6.367000 8.453200
-6.355200 8.508900
-6.343500 9.041900
-6.331700 9.784200
-6.319900 7.985600
-6.308100 7.956000
-6.296300 7.509900
-6.284500 7.365600
-6.272800 7.140600
-6.261000 6.841400
-6.249200 6.044800
-6.237400 5.561500
-6.225600 5.065800
-6.213800 3.244100
-6.202100 2.926600
-6.190300 2.690700
-6.178500 2.925300
-6.166700 2.555000
-6.154900 1.905200
-6.143100 1.423800
-6.131300 1.302000
-6.119600 1.185200
-6.107800 1.073600
-6.096000 1.226000
-6.084200 1.451700
-6.072400 1.744600
-6.060600 2.116800
-6.048900 2.568400
-6.037100 3.099300
-6.025300 3.871600
-6.013500 4.254700
-6.001700 4.406500
-5.989900 4.995200
-5.978200 5.477600
-5.966400 5.853700
-5.954600 8.137300
-5.942800 8.192800
-5.931000 7.560600
-5.919200 7.688100
-5.907500 7.829700
-5.895700 8.063200
-5.883900 7.521200
-5.872100 7.470000
-5.860300 6.928700
-5.848500 7.877800
-5.836800 9.026800
-5.825000 10.230200
-5.813200 10.888100
-5.801400 11.557500
-5.789600 12.420000
-5.777800 13.436000
-5.766100 13.846800
-5.754300 12.353000
-5.742500 11.861800
-5.730700 12.615700
-5.718900 13.632100
-5.707100 11.863900
-5.695400 12.244800
-5.683600 12.963800
-5.671800 13.830600
-5.660000 14.328300
-5.648200 17.855400
-5.636400 17.286800
-5.624700 16.305500
-5.612900 15.280000
-5.601100 18.455100
-5.589300 20.533200
-5.577500 22.426300
-5.565700 19.138200
-5.554000 17.417700
-5.542200 16.029000
-5.530400 15.628000
-5.518600 15.012700
-5.506800 19.530500
-5.495000 23.079600
-5.483300 24.424500
-5.471500 26.013900
-5.459700 30.778400
-5.447900 41.612200
-5.436100 30.968700
-5.424300 33.225300
-5.412600 28.218900
-5.400800 22.241100
-5.389000 19.927600
-5.377200 19.952300
-5.365400 21.904900
-5.353600 26.821200
-5.341900 21.121400
-5.330100 20.736500
-5.318300 20.985500
-5.306500 21.032200
-5.294700 14.462300
-5.282900 12.792600
-5.271200 4.353100
-5.259400 2.446100
-5.247600 0.000000
-5.235800 0.000000
-5.224000 0.000000
-5.212200 0.000000
-5.200500 0.000000
-5.188700 0.000000
-5.176900 0.000000
-5.165100 0.000000
-5.153300 0.000000
-5.141500 0.000000
-5.129800 0.000000
-5.118000 0.000000
-5.106200 0.000000
-5.094400 0.000000
-5.082600 0.000000
-5.070800 0.000000
-5.059100 0.000000
-5.047300 0.000000
-5.035500 0.000000
-5.023700 0.000000
-5.011900 0.000000
-5.000100 0.000000
-4.988400 0.265900
-4.976600 0.705200
-4.964800 0.980500
-4.953000 1.117200
-4.941200 1.495800
-4.929400 1.936600
-4.917700 2.439700
-4.905900 4.043900
-4.894100 6.079200
-4.882300 7.984500
-4.870500 8.968900
-4.858700 8.036700
-4.846900 7.168300
-4.835200 6.199200
-4.823400 5.403700
-4.811600 4.966100
-4.799800 4.737300
-4.788000 4.553400
-4.776200 4.414300
-4.764500 4.319900
-4.752700 4.266200
-4.740900 4.249800
-4.729100 4.264700
-4.717300 4.310200
-4.705500 4.386200
-4.693800 4.492800
-4.682000 4.633200
-4.670200 4.809400
-4.658400 5.021700
-4.646600 5.270700
-4.634800 6.587100
-4.623100 6.032100
-4.611300 5.801400
-4.599500 4.301400
-4.587700 3.241700
-4.575900 2.931400
-4.564100 2.568100
-4.552400 2.152000
-4.540600 1.883200
-4.528800 1.443300
-4.517000 1.109900
-4.505200 0.536800
-4.493400 0.000000
-4.481700 0.000000
-4.469900 0.000000
-4.458100 0.000000
-4.446300 0.000000
-4.434500 0.000000
-4.422700 0.000000
-4.411000 2.796800
-4.399200 4.797600
-4.387400 4.727600
-4.375600 5.397100
-4.363800 5.613400
-4.352000 6.133000
-4.340300 6.366000
-4.328500 5.984100
-4.316700 5.847800
-4.304900 5.563400
-4.293100 5.333500
-4.281300 5.157900
-4.269600 5.036700
-4.257800 4.970000
-4.246000 4.957600
-4.234200 4.999600
-4.222400 5.165100
-4.210600 5.504000
-4.198900 6.022900
-4.187100 6.735600
-4.175300 7.688600
-4.163500 8.849000
-4.151700 10.214800
-4.139900 11.785800
-4.128200 16.018300
-4.116400 9.794200
-4.104600 0.000000
-4.092800 0.000000
-4.081000 0.000000
-4.069200 0.000000
-4.057500 0.000000
-4.045700 0.000000
-4.033900 0.000000
-4.022100 0.000000
-4.010300 0.000000
-3.998500 0.000000
-3.986800 0.000000
-3.975000 0.000000
-3.963200 0.000000
-3.951400 0.000000
-3.939600 0.000000
-3.927800 0.000000
-3.916100 0.000000
-3.904300 0.000000
-3.892500 0.000000
-3.880700 0.000000
-3.868900 0.000000
-3.857100 0.000000
-3.845400 0.000000
-3.833600 0.000000
-3.821800 0.000000
-3.810000 0.000000
-3.798200 0.000000
-3.786400 0.000000
-3.774700 0.000000
-3.762900 0.000000
-3.751100 0.183100
-3.739300 56.641000
-3.727500 110.704300
-3.715700 49.137500
-3.704000 64.733900
-3.692200 166.247400
-3.680400 361.165100
-3.668600 108.329600
-3.656800 88.809600
-3.645000 79.375700
-3.633300 38.035600
-3.621500 15.818400
-3.609700 57.713900
-3.597900 140.090100
-3.586100 68.794000
-3.574300 113.112800
-3.562600 129.367200
-3.550800 94.423600
-3.539000 72.112500
-3.527200 149.200300
-3.515400 193.681000
-3.503600 200.828400
-3.491800 54.456400
-3.480100 80.991200
-3.468300 68.391900
-3.456500 108.382000
-3.444700 144.001300
-3.432900 103.868800
-3.421100 96.013200
-3.409400 136.756000
-3.397600 144.285600
-3.385800 101.287100
-3.374000 201.863100
-3.362200 117.547200
-3.350400 154.145500
-3.338700 65.948100
-3.326900 103.402100
-3.315100 45.884400
-3.303300 95.193900
-3.291500 153.831700
-3.279700 120.432600
-3.268000 80.408600
-3.256200 154.380100
-3.244400 129.619800
-3.232600 161.335400
-3.220800 213.483000
-3.209000 203.079700
-3.197300 162.257100
-3.185500 209.868500
-3.173700 68.730900
-3.161900 155.945800
-3.150100 130.134200
-3.138300 201.345700
-3.126600 115.929100
-3.114800 166.787900
-3.103000 199.414000
-3.091200 140.420200
-3.079400 470.855500
-3.067600 403.730800
-3.055900 281.449700
-3.044100 79.801500
-3.032300 51.199200
-3.020500 237.736000
-3.008700 161.837900
-2.996900 141.815300
-2.985200 143.121200
-2.973400 88.864600
-2.961600 124.244500
-2.949800 103.179900
-2.938000 99.387800
-2.926200 70.848400
-2.914500 53.362400
-2.902700 41.099100
-2.890900 25.008300
-2.879100 8.574600
-2.867300 15.365200
-2.855500 24.442900
-2.843800 25.027700
-2.832000 24.702500
-2.820200 20.979100
-2.808400 15.966200
-2.796600 15.298800
-2.784800 17.578300
-2.773100 16.452000
-2.761300 15.985100
-2.749500 16.250700
-2.737700 17.260300
-2.725900 18.742900
-2.714100 23.397200
-2.702400 20.215000
-2.690600 12.340000
-2.678800 9.179800
-2.667000 7.048800
-2.655200 2.773500
-2.643400 0.118500
-2.631700 0.000000
-2.619900 0.000000
-2.608100 0.000000
-2.596300 0.000000
-2.584500 0.000000
-2.572700 0.000000
-2.561000 0.000000
-2.549200 0.000000
-2.537400 0.000000
-2.525600 0.000000
-2.513800 0.000000
-2.502000 0.000000
-2.490300 0.000000
-2.478500 0.000000
-2.466700 0.000000
-2.454900 0.000000
-2.443100 0.000000
-2.431300 0.000000
-2.419600 0.000000
-2.407800 0.000000
-2.396000 0.000000
-2.384200 0.000000
-2.372400 0.000000
-2.360600 0.000000
-2.348900 0.000000
-2.337100 0.000000
-2.325300 0.000000
-2.313500 0.000000
-2.301700 0.000000
-2.289900 0.000000
-2.278200 0.000000
-2.266400 0.000000
-2.254600 0.000000
-2.242800 0.000000
-2.231000 0.000000
-2.219200 0.000000
-2.207400 0.000000
-2.195700 0.000000
-2.183900 0.000000
-2.172100 0.000000
-2.160300 0.000000
-2.148500 0.000000
-2.136700 0.000000
-2.125000 0.000000
-2.113200 0.000000
-2.101400 0.000000
-2.089600 0.000000
-2.077800 0.000000
-2.066000 0.000000
-2.054300 0.000000
-2.042500 0.000000
-2.030700 0.000000
-2.018900 0.000000
-2.007100 0.000000
-1.995300 0.000000
-1.983600 0.000000
-1.971800 0.000000
-1.960000 0.000000
-1.948200 0.000000
-1.936400 0.066700
-1.924600 0.552200
-1.912900 1.508000
-1.901100 3.070000
-1.889300 5.835400
-1.877500 6.301600
-1.865700 6.809500
-1.853900 8.729100
-1.842200 9.772600
-1.830400 10.648800
-1.818600 11.543900
-1.806800 13.449800
-1.795000 12.113600
-1.783200 9.165900
-1.771500 6.986900
-1.759700 7.585400
-1.747900 7.501600
-1.736100 7.271700
-1.724300 6.829700
-1.712500 7.507500
-1.700800 7.418000
-1.689000 7.724500
-1.677200 8.109500
-1.665400 8.696200
-1.653600 8.388700
-1.641800 7.288900
-1.630100 6.700100
-1.618300 6.129400
-1.606500 6.143500
-1.594700 6.299300
-1.582900 6.450400
-1.571100 6.638600
-1.559400 7.017500
-1.547600 7.249000
-1.535800 7.384300
-1.524000 6.837900
-1.512200 6.312500
-1.500400 6.246500
-1.488700 6.213600
-1.476900 6.028700
-1.465100 5.701100
-1.453300 5.231000
-1.441500 4.708500
-1.429700 4.376600
-1.418000 4.895700
-1.406200 4.857500
-1.394400 4.605400
-1.382600 4.155000
-1.370800 4.935300
-1.359000 6.238200
-1.347300 8.598800
-1.335500 7.448600
-1.323700 6.434700
-1.311900 5.693600
-1.300100 6.094900
-1.288300 8.017800
-1.276600 9.028000
-1.264800 9.596700
-1.253000 10.474100
-1.241200 10.717800
-1.229400 10.722000
-1.217600 10.379600
-1.205900 9.724500
-1.194100 9.108400
-1.182300 8.923600
-1.170500 8.883900
-1.158700 8.924100
-1.146900 8.838900
-1.135200 9.190000
-1.123400 10.214100
-1.111600 8.284800
-1.099800 7.638300
-1.088000 7.174500
-1.076200 6.766200
-1.064500 6.391200
-1.052700 6.049500
-1.040900 5.744900
-1.029100 5.401100
-1.017300 5.072800
-1.005500 4.865300
-0.993800 4.708100
-0.982000 4.708300
-0.970200 3.910900
-0.958400 3.952800
-0.946600 4.226500
-0.934800 4.293400
-0.923100 4.336100
-0.911300 4.640100
-0.899500 5.208700
-0.887700 5.260800
-0.875900 5.012600
-0.864100 4.904000
-0.852300 4.885500
-0.840600 4.837100
-0.828800 4.803600
-0.817000 4.785200
-0.805200 4.626700
-0.793400 4.611700
-0.781600 4.777600
-0.769900 4.840800
-0.758100 4.991200
-0.746300 5.128000
-0.734500 5.177000
-0.722700 5.138200
-0.710900 5.011700
-0.699200 4.864900
-0.687400 4.613300
-0.675600 4.080100
-0.663800 3.657100
-0.652000 3.911700
-0.640200 4.328200
-0.628500 7.397800
-0.616700 8.557300
-0.604900 8.058800
-0.593100 7.815600
-0.581300 7.252300
-0.569500 6.849200
-0.557800 6.820100
-0.546000 6.919200
-0.534200 8.582700
-0.522400 8.652100
-0.510600 8.849100
-0.498800 9.181900
-0.487100 9.717400
-0.475300 10.826200
-0.463500 10.717200
-0.451700 11.029500
-0.439900 10.998600
-0.428100 8.360600
-0.416400 8.511400
-0.404600 8.732000
-0.392800 9.597400
-0.381000 10.948600
-0.369200 11.260800
-0.357400 12.374000
-0.345700 14.199100
-0.333900 14.908100
-0.322100 13.164900
-0.310300 11.341300
-0.298500 10.477800
-0.286700 9.815400
-0.275000 9.478700
-0.263200 9.019500
-0.251400 8.582000
-0.239600 8.556100
-0.227800 8.882200
-0.216000 10.752500
-0.204300 11.488000
-0.192500 10.407300
-0.180700 8.240600
-0.168900 6.149200
-0.157100 5.796800
-0.145300 5.579600
-0.133600 5.697700
-0.121800 5.175500
-0.110000 4.836900
-0.098200 4.655100
-0.086400 4.507700
-0.074600 4.386600
-0.062900 4.309700
-0.051100 4.244500
-0.039300 4.189200
-0.027500 4.145500
-0.015700 4.120400
-0.003900 4.113900
0.007800 4.125600
0.019600 4.141700
0.031400 4.177400
0.043200 4.311500
0.055000 4.383000
0.066800 4.391000
0.078500 4.537000
0.090300 4.816500
0.102100 3.733200
0.113900 3.586100
0.125700 3.432600
0.137500 3.315600
0.149200 3.496900
0.161000 3.783100
0.172800 4.118900
0.184600 5.154000
0.196400 5.641300
0.208200 6.018200
0.219900 6.381000
0.231700 6.895500
0.243500 7.520500
0.255300 8.016200
0.267100 8.315500
0.278900 8.617000
0.290600 8.922400
0.302400 8.685600
0.314200 8.251500
0.326000 7.681700
0.337800 7.567500
0.349600 7.974300
0.361300 7.309200
0.373100 6.450900
0.384900 6.050300
0.396700 5.406300
0.408500 5.245000
0.420300 5.106700
0.432100 5.359600
0.443800 5.563600
0.455600 5.884700
0.467400 5.977700
0.479200 6.096300
0.491000 6.237300
0.502800 6.413700
0.514500 6.634100
0.526300 6.874900
0.538100 7.100900
0.549900 8.323600
0.561700 8.350300
0.573500 7.821300
0.585200 7.856100
0.597000 8.335700
0.608800 14.473900
0.620600 8.498600
0.632400 7.197700
0.644200 5.840000
0.655900 4.849200
0.667700 3.886300
0.679500 3.283400
0.691300 2.925900
0.703100 2.840900
0.714900 3.204600
0.726600 3.487500
0.738400 3.665300
0.750200 3.509500
0.762000 3.443000
0.773800 3.518000
0.785600 3.711800
0.797300 4.095500
0.809100 4.577400
0.820900 5.302600
0.832700 6.917200
0.844500 8.402100
0.856300 9.487200
0.868000 10.227200
0.879800 11.484900
0.891600 11.448800
0.903400 11.364900
0.915200 11.618400
0.927000 12.619900
0.938700 12.873100
0.950500 13.163200
0.962300 13.421700
0.974100 11.595100
0.985900 10.838900
0.997700 11.224900
1.009400 11.848300
1.021200 12.768500
1.033000 13.404000
1.044800 13.707700
1.056600 12.178700
1.068400 11.306800
1.080100 15.948700
1.091900 10.688200
1.103700 9.557400
1.115500 9.780500
1.127300 9.953400
1.139100 10.159500
1.150800 10.398700
1.162600 10.515800
1.174400 10.733100
1.186200 10.812000
1.198000 10.701600
1.209800 10.775900
1.221500 11.169400
1.233300 12.632700
1.245100 14.909800
1.256900 15.660600
1.268700 14.747400
1.280500 11.993800
1.292200 9.674000
1.304000 8.426100
1.315800 7.525000
1.327600 8.590000
1.339400 9.022100
1.351200 9.453600
1.362900 9.971600
1.374700 10.722900
1.386500 11.756900
1.398300 13.617000
1.410100 16.454300
1.421900 9.347200
1.433600 7.843800
1.445400 6.793500
1.457200 5.915200
1.469000 5.241200
1.480800 5.151000
1.492600 6.559700
1.504300 8.856800
1.516100 10.551400
1.527900 9.463400
1.539700 10.011800
1.551500 10.392900
1.563300 10.625900
1.575000 9.492000
1.586800 9.422200
1.598600 9.094900
1.610400 9.105700
1.622200 9.481000
1.634000 10.004700
1.645700 10.312500
1.657500 10.900600
1.669300 10.437100
1.681100 9.977800
1.692900 9.217500
1.704700 8.754600
1.716400 8.536000
1.728200 8.875200
1.740000 9.496200
1.751800 10.313000
1.763600 12.750300
1.775400 13.378700
1.787200 12.436400
1.798900 11.940400
1.810700 11.774700
1.822500 11.575200
1.834300 12.818800
1.846100 9.541200
1.857900 8.618500
1.869600 7.670800
1.881400 7.111700
1.893200 7.641000
1.905000 6.710200
1.916800 7.306300
1.928600 7.917200
1.940300 8.472300
1.952100 8.998900
1.963900 9.081700
1.975700 9.115300
1.987500 8.692300
1.999300 9.627700
2.011000 10.915500
2.022800 11.056200
2.034600 11.434300
2.046400 12.185300
2.058200 10.738700
2.070000 10.324200
2.081700 13.027200
2.093500 12.577000
2.105300 13.795100
2.117100 12.029000
2.128900 10.985600
2.140700 10.586200
2.152400 10.413600
2.164200 10.432600
2.176000 9.886200
2.187800 9.607500
2.199600 9.991800
2.211400 10.994900
2.223100 12.159800
2.234900 13.552500
2.246700 14.144000
2.258500 15.017200
2.270300 15.934300
2.282100 17.012600
2.293800 14.023000
2.305600 9.894500
2.317400 8.613700
2.329200 7.934500
2.341000 7.568700
2.352800 7.486700
2.364500 7.707200
2.376300 8.296800
2.388100 8.856500
2.399900 10.118900
2.411700 10.683100
2.423500 11.924400
2.435200 14.199700
2.447000 17.199000
2.458800 19.016800
2.470600 17.452800
2.482400 18.592100
2.494200 15.159800
2.505900 12.412600
2.517700 11.211500
2.529500 10.127100
2.541300 9.913300
2.553100 10.728500
2.564900 11.805000
2.576600 13.570700
2.588400 14.352600
2.600200 13.389600
2.612000 12.032400
2.623800 10.106600
2.635600 9.223500
2.647300 8.104000
2.659100 8.243100
2.670900 8.769300
2.682700 9.219100
2.694500 9.653300
2.706300 10.105900
2.718000 10.609700
2.729800 11.790700
2.741600 12.789500
2.753400 20.151700
2.765200 13.997400
2.777000 13.752000
2.788700 13.343000
2.800500 12.730500
2.812300 11.781500
2.824100 10.922800
2.835900 9.820300
2.847700 8.900200
2.859400 8.060400
2.871200 7.323200
2.883000 6.843600
2.894800 6.769100
2.906600 7.230000
2.918400 7.717300
2.930100 7.905000
2.941900 8.307300
2.953700 8.677900
2.965500 7.844300
2.977300 7.465300
2.989100 7.444500
3.000800 7.807000
3.012600 8.447000
3.024400 11.545900
3.036200 11.540800
3.048000 11.526000
3.059800 11.159300
3.071600 10.813400
3.083300 10.416900
3.095100 10.117300
3.106900 10.732400
3.118700 9.760300
3.130500 7.717700
3.142300 8.017800
3.154000 8.263200
3.165800 8.401200
3.177600 8.439900
3.189400 8.495600
3.201200 8.226900
3.213000 9.505000
3.224700 9.352100
3.236500 9.782900
3.248300 10.136700
3.260100 12.131900
3.271900 13.684100
3.283700 14.453000
3.295400 15.257400
3.307200 15.043900
3.319000 13.767300
3.330800 11.234000
3.342600 9.613000
3.354400 8.904400
3.366100 8.538100
3.377900 8.207900
3.389700 8.087000
3.401500 8.490000
3.413300 10.178500
3.425100 10.745100
3.436800 16.997900
3.448600 14.800600
3.460400 13.276700
3.472200 13.668300
3.484000 16.486800
3.495800 17.475600
3.507500 17.128400
3.519300 13.096400
3.531100 10.579600
3.542900 8.531500
3.554700 7.258800
3.566500 7.809900
3.578200 8.965100
3.590000 9.329200
3.601800 10.164700
3.613600 11.065700
3.625400 11.834000
3.637200 12.516400
3.648900 13.164700
3.660700 14.138100
3.672500 13.059000
3.684300 10.950400
3.696100 9.969800
3.707900 10.845200
3.719600 10.650500
3.731400 10.771300
3.743200 10.678100
3.755000 10.216700
3.766800 10.108600
3.778600 10.131200
3.790300 10.699300
3.802100 10.105800
3.813900 11.110600
3.825700 11.947200
3.837500 12.322400
3.849300 12.390400
3.861000 12.260200
3.872800 12.042300
3.884600 11.537800
3.896400 11.254600
3.908200 10.970400
3.920000 10.656300
3.931700 10.409000
3.943500 10.538900
3.955300 12.854500
3.967100 10.797300
3.978900 10.627900
3.990700 10.268200
4.002400 10.149200
4.014200 10.747900
4.026000 9.604600
4.037800 8.842400
4.049600 8.801500
4.061400 8.890800
4.073100 9.285200
4.084900 9.598300
4.096700 9.794000
4.108500 9.901400
4.120300 10.199200
4.132100 10.414100
