set title 'mp-624 - Density of States'
set xlabel 'Energy (eV)'
set ylabel 'DOS (states/eV)'
set grid
set xrange [-10:10]
set yrange [0:22.364]
set xzeroaxis lt -1
set terminal png size 800,600
set output 'mp-624_dos_gnuplot.png'
plot '-' using 1:2 with lines title 'DOS'
-12.112600 0.000000
-12.090500 0.000000
-12.068500 0.000000
-12.046400 0.000000
-12.024300 0.000000
-12.002200 0.000000
-11.980100 0.000000
-11.958000 0.000000
-11.935900 0.000000
-11.913900 0.000000
-11.891800 0.000000
-11.869700 0.000000
-11.847600 0.000000
-11.825500 0.000000
-11.803400 0.000000
-11.781400 0.000000
-11.759300 0.000000
-11.737200 0.000000
-11.715100 0.000000
-11.693000 0.000000
-11.670900 0.000000
-11.648900 0.000000
-11.626800 0.000000
-11.604700 0.000000
-11.582600 0.000000
-11.560500 0.000000
-11.538400 0.000000
-11.516400 0.000000
-11.494300 0.000000
-11.472200 0.000000
-11.450100 0.000000
-11.428000 0.000000
-11.405900 0.000000
-11.383900 0.000000
-11.361800 0.000000
-11.339700 0.000000
-11.317600 0.000000
-11.295500 0.000000
-11.273400 0.000000
-11.251300 0.000000
-11.229300 0.000000
-11.207200 0.000000
-11.185100 0.000000
-11.163000 0.000000
-11.140900 0.000000
-11.118800 0.000000
-11.096800 0.000000
-11.074700 0.000000
-11.052600 0.000000
-11.030500 0.000000
-11.008400 0.000000
-10.986300 0.000000
-10.964300 0.000000
-10.942200 0.000000
-10.920100 0.000000
-10.898000 0.000000
-10.875900 0.000000
-10.853800 0.000000
-10.831800 0.000000
-10.809700 0.000000
-10.787600 0.000000
-10.765500 0.000000
-10.743400 0.000000
-10.721300 0.000000
-10.699300 0.000000
-10.677200 0.000000
-10.655100 0.000000
-10.633000 0.000000
-10.610900 0.000000
-10.588800 0.000000
-10.566700 0.000000
-10.544700 0.000000
-10.522600 0.000000
-10.500500 0.000000
-10.478400 0.000000
-10.456300 0.000000
-10.434200 0.000000
-10.412200 0.000000
-10.390100 0.000000
-10.368000 0.000000
-10.345900 0.000000
-10.323800 0.000000
-10.301700 0.000000
-10.279700 0.000000
-10.257600 0.000000
-10.235500 0.000000
-10.213400 0.000000
-10.191300 0.000000
-10.169200 0.000000
-10.147200 0.000000
-10.125100 0.000000
-10.103000 0.000200
-10.080900 0.022400
-10.058800 0.082200
-10.036700 0.179600
-10.014700 0.314600
-9.992600 0.487200
-9.970500 0.697400
-9.948400 0.870900
-9.926300 0.918700
-9.904200 0.930900
-9.882100 1.014700
-9.860100 1.104700
-9.838000 1.197500
-9.815900 1.293200
-9.793800 1.391800
-9.771700 1.493100
-9.749600 1.597400
-9.727600 1.714800
-9.705500 1.851900
-9.683400 2.009200
-9.661300 2.217600
-9.639200 2.494900
-9.617100 2.844400
-9.595100 3.448800
-9.573000 4.069200
-9.550900 4.568300
-9.528800 4.972100
-9.506700 5.343600
-9.484600 5.573500
-9.462600 5.902000
-9.440500 7.360600
-9.418400 7.975300
-9.396300 9.003800
-9.374200 4.471000
-9.352100 0.000000
-9.330000 0.000000
-9.308000 0.000000
-9.285900 0.000000
-9.263800 0.000000
-9.241700 0.000000
-9.219600 0.000000
-9.197500 0.000000
-9.175500 0.000000
-9.153400 0.000000
-9.131300 0.000000
-9.109200 0.000000
-9.087100 0.000000
-9.065000 0.000000
-9.043000 0.000000
-9.020900 0.000000
-8.998800 0.000000
-8.976700 0.000000
-8.954600 0.000000
-8.932500 0.000000
-8.910500 0.000000
-8.888400 0.000000
-8.866300 0.000000
-8.844200 0.000000
-8.822100 0.000000
-8.800000 0.000000
-8.778000 0.000000
-8.755900 0.000000
-8.733800 0.000000
-8.711700 0.000000
-8.689600 0.000000
-8.667500 0.000000
-8.645400 0.000000
-8.623400 0.000000
-8.601300 0.000000
-8.579200 0.000000
-8.557100 0.000000
-8.535000 0.000000
-8.512900 0.000000
-8.490900 0.000000
-8.468800 0.000000
-8.446700 0.000000
-8.424600 0.000000
-8.402500 0.000000
-8.380400 0.000000
-8.358400 0.000000
-8.336300 0.000000
-8.314200 0.000000
-8.292100 0.000000
-8.270000 0.000000
-8.247900 1.690800
-8.225900 1.543000
-8.203800 1.587000
-8.181700 1.807000
-8.159600 2.038000
-8.137500 2.236300
-8.115400 2.401900
-8.093400 2.534800
-8.071300 2.635000
-8.049200 2.702500
-8.027100 2.737700
-8.005000 2.919500
-7.982900 3.236200
-7.960800 3.687800
-7.938800 3.170200
-7.916700 2.909400
-7.894600 2.901700
-7.872500 2.901700
-7.850400 2.904300
-7.828300 2.909800
-7.806300 2.946500
-7.784200 3.036600
-7.762100 3.076300
-7.740000 3.065700
-7.717900 3.004800
-7.695800 2.780000
-7.673800 2.356100
-7.651700 2.232300
-7.629600 2.120200
-7.607500 2.157100
-7.585400 2.290100
-7.563300 2.122700
-7.541300 1.638000
-7.519200 1.036800
-7.497100 0.800500
-7.475000 0.707100
-7.452900 0.620400
-7.430800 0.539300
-7.408800 0.464000
-7.386700 0.394300
-7.364600 0.330300
-7.342500 0.272100
-7.320400 0.219500
-7.298300 0.172600
-7.276200 0.131400
-7.254200 0.095900
-7.232100 0.066000
-7.210000 0.041600
-7.187900 0.022900
-7.165800 0.009700
-7.143700 0.002100
-7.121700 0.000000
-7.099600 0.000000
-7.077500 0.000000
-7.055400 0.000000
-7.033300 0.000100
-7.011200 0.051000
-6.989200 0.193700
-6.967100 0.428300
-6.945000 0.754700
-6.922900 1.163900
-6.900800 1.538100
-6.878700 1.841100
-6.856700 2.072900
-6.834600 2.233500
-6.812500 2.480100
-6.790400 2.567000
-6.768300 1.612800
-6.746200 1.642000
-6.724200 1.669500
-6.702100 1.695300
-6.680000 1.719500
-6.657900 1.742000
-6.635800 1.762800
-6.613700 1.782000
-6.591600 1.799500
-6.569600 1.815400
-6.547500 1.810700
-6.525400 1.807200
-6.503300 1.806700
-6.481200 1.802700
-6.459100 1.759400
-6.437100 1.719200
-6.415000 1.682200
-6.392900 1.648500
-6.370800 1.617900
-6.348700 1.588900
-6.326600 1.560400
-6.304600 1.532400
-6.282500 1.504900
-6.260400 1.479400
-6.238300 1.470400
-6.216200 1.473000
-6.194100 1.469700
-6.172100 1.459700
-6.150000 1.443100
-6.127900 1.421100
-6.105800 1.400400
-6.083700 1.378600
-6.061600 1.403000
-6.039600 1.721800
-6.017500 2.233000
-5.995400 3.277500
-5.973300 3.863200
-5.951200 3.987100
-5.929100 4.118100
-5.907000 4.238400
-5.885000 4.301100
-5.862900 4.300800
-5.840800 4.252300
-5.818700 4.394400
-5.796600 4.939100
-5.774500 5.003200
-5.752500 4.653700
-5.730400 4.625600
-5.708300 4.730400
-5.686200 4.881700
-5.664100 5.082600
-5.642000 5.333000
-5.620000 5.621200
-5.597900 5.957500
-5.575800 6.076900
-5.553700 6.065300
-5.531600 6.213800
-5.509500 6.284800
-5.487500 5.856600
-5.465400 5.186800
-5.443300 5.262700
-5.421200 5.327400
-5.399100 5.293500
-5.377000 5.146600
-5.355000 4.871000
-5.332900 4.461300
-5.310800 4.157400
-5.288700 3.854200
-5.266600 3.718800
-5.244500 3.664300
-5.222400 3.625600
-5.200400 3.563900
-5.178300 3.479200
-5.156200 3.369500
-5.134100 3.179300
-5.112000 2.986500
-5.089900 2.792400
-5.067900 2.602900
-5.045800 2.724100
-5.023700 2.162700
-5.001600 1.324900
-4.979500 1.066400
-4.957400 0.866500
-4.935400 0.725300
-4.913300 0.642700
-4.891200 0.618700
-4.869100 0.666200
-4.847000 0.747700
-4.824900 0.823000
-4.802900 0.902000
-4.780800 1.012100
-4.758700 1.155100
-4.736600 1.330700
-4.714500 1.539100
-4.692400 1.780200
-4.670400 2.054100
-4.648300 2.526900
-4.626200 2.920500
-4.604100 3.148100
-4.582000 3.203800
-4.559900 3.145300
-4.537800 3.002000
-4.515800 2.829800
-4.493700 2.710200
-4.471600 2.645900
-4.449500 2.636800
-4.427400 2.682800
-4.405300 2.632200
-4.383300 1.987000
-4.361200 1.975400
-4.339100 1.963200
-4.317000 1.950400
-4.294900 1.935700
-4.272800 1.914700
-4.250800 1.887000
-4.228700 1.852400
-4.206600 1.811100
-4.184500 1.763000
-4.162400 1.708200
-4.140300 1.646600
-4.118300 1.578300
-4.096200 1.475000
-4.074100 1.364800
-4.052000 1.263100
-4.029900 1.167200
-4.007800 1.077200
-3.985800 0.992900
-3.963700 0.914400
-3.941600 0.841800
-3.919500 0.775000
-3.897400 0.714000
-3.875300 0.658800
-3.853200 0.612000
-3.831200 0.575700
-3.809100 0.532500
-3.787000 0.479900
-3.764900 0.417900
-3.742800 0.346500
-3.720700 0.265700
-3.698700 0.175600
-3.676600 0.076000
-3.654500 0.000000
-3.632400 0.000000
-3.610300 0.000000
-3.588200 0.000000
-3.566200 0.000000
-3.544100 0.000000
-3.522000 0.000000
-3.499900 0.000000
-3.477800 0.000000
-3.455700 0.000000
-3.433700 0.000000
-3.411600 0.000000
-3.389500 0.000000
-3.367400 0.000000
-3.345300 0.000000
-3.323200 0.000000
-3.301200 0.000000
-3.279100 0.000000
-3.257000 0.000000
-3.234900 0.000000
-3.212800 0.000000
-3.190700 0.000000
-3.168600 0.000000
-3.146600 0.000000
-3.124500 0.000000
-3.102400 0.000000
-3.080300 0.000000
-3.058200 0.000000
-3.036100 0.000000
-3.014100 0.000000
-2.992000 0.013600
-2.969900 0.056700
-2.947800 0.099000
-2.925700 0.140500
-2.903600 0.269600
-2.881600 0.416400
-2.859500 0.545600
-2.837400 0.682500
-2.815300 0.835100
-2.793200 1.029900
-2.771100 1.300000
-2.749100 1.659100
-2.727000 2.100700
-2.704900 2.621000
-2.682800 11.363700
-2.660700 7.714500
-2.638600 5.937400
-2.616600 5.481500
-2.594500 5.021400
-2.572400 4.738800
-2.550300 4.499600
-2.528200 4.282700
-2.506100 4.088100
-2.484000 3.915700
-2.462000 3.765700
-2.439900 3.638000
-2.417800 3.525900
-2.395700 3.446000
-2.373600 3.425500
-2.351500 3.424900
-2.329500 3.431900
-2.307400 3.376500
-2.285300 3.933000
-2.263200 7.358400
-2.241100 1.999300
-2.219000 2.084600
-2.197000 2.167600
-2.174900 2.237200
-2.152800 2.294200
-2.130700 2.365700
-2.108600 2.479900
-2.086500 2.616000
-2.064500 2.748800
-2.042400 2.903100
-2.020300 3.103900
-1.998200 3.344400
-1.976100 3.708000
-1.954000 4.306700
-1.932000 5.108600
-1.909900 5.685100
-1.887800 5.430800
-1.865700 5.529600
-1.843600 5.211000
-1.821500 4.845200
-1.799400 4.558800
-1.777400 4.351600
-1.755300 4.233400
-1.733200 4.159200
-1.711100 4.073300
-1.689000 3.979000
-1.666900 3.887100
-1.644900 3.798600
-1.622800 3.713400
-1.600700 3.631500
-1.578600 3.553000
-1.556500 3.476700
-1.534400 3.392400
-1.512400 3.297800
-1.490300 4.345200
-1.468200 3.704300
-1.446100 3.073700
-1.424000 2.633500
-1.401900 2.383300
-1.379900 2.489900
-1.357800 2.918400
-1.335700 2.936200
-1.313600 2.808200
-1.291500 2.873600
-1.269400 2.918500
-1.247300 2.945900
-1.225300 2.955900
-1.203200 2.948400
-1.181100 3.103600
-1.159000 3.681600
-1.136900 4.385800
-1.114800 5.338500
-1.092800 6.289500
-1.070700 7.236300
-1.048600 7.686800
-1.026500 7.243500
-1.004400 7.501600
-0.982300 7.449900
-0.960300 7.905300
-0.938200 8.410000
-0.916100 7.134800
-0.894000 4.690400
-0.871900 3.635200
-0.849800 2.565700
-0.827800 1.522500
-0.805700 2.711300
-0.783600 4.656900
-0.761500 5.461700
-0.739400 5.516600
-0.717300 5.554300
-0.695300 5.924500
-0.673200 6.403700
-0.651100 6.087400
-0.629000 4.610600
-0.606900 3.055600
-0.584800 2.899100
-0.562700 2.757900
-0.540700 2.631900
-0.518600 2.521200
-0.496500 2.425700
-0.474400 2.361900
-0.452300 2.324400
-0.430200 2.284300
-0.408200 2.241500
-0.386100 2.195900
-0.364000 2.147600
-0.341900 2.096700
-0.319800 2.044200
-0.297700 1.993100
-0.275700 1.944500
-0.253600 1.898500
-0.231500 1.855000
-0.209400 1.814100
-0.187300 1.775700
-0.165200 1.739800
-0.143200 1.706500
-0.121100 1.675800
-0.099000 1.667500
-0.076900 1.716100
-0.054800 1.380100
-0.032700 1.629500
-0.010700 2.065100
0.011400 2.462600
0.033500 2.822100
0.055600 3.143400
0.077700 3.761500
0.099800 4.472000
0.121900 4.958300
0.143900 5.220300
0.166000 5.662400
0.188100 5.390100
0.210200 3.296100
0.232300 2.538100
0.254400 1.942900
0.276400 1.472200
0.298500 1.122200
0.320600 0.893000
0.342700 0.834500
0.364800 0.846800
0.386900 0.903200
0.408900 0.998600
0.431000 1.117700
0.453100 1.254100
0.475200 1.407700
0.497300 1.812400
0.519400 2.479000
0.541400 2.996300
0.563500 3.363900
0.585600 3.581900
0.607700 3.684700
0.629800 3.818100
0.651900 3.933300
0.673900 3.886500
0.696000 3.808000
0.718100 3.726400
0.740200 3.624200
0.762300 3.497700
0.784400 3.346900
0.806500 3.261500
0.828500 3.253900
0.850600 3.250000
0.872700 3.249800
0.894800 3.253300
0.916900 3.260700
0.939000 3.272600
0.961000 3.319800
0.983100 3.421600
1.005200 3.575900
1.027300 3.782900
1.049400 4.076000
1.071500 4.963500
1.093500 6.366700
1.115600 7.115000
1.137700 7.348100
1.159800 6.592200
1.181900 5.473400
1.204000 4.117500
1.226000 3.819500
1.248100 3.559700
1.270200 3.338100
1.292300 3.154600
1.314400 3.009200
1.336500 2.921200
1.358500 2.871400
1.380600 2.759600
1.402700 2.622000
1.424800 2.520000
1.446900 2.442000
1.469000 2.381800
1.491100 2.334400
1.513100 2.283000
1.535200 2.226500
1.557300 2.200100
1.579400 4.087100
1.601500 5.861100
1.623600 7.335200
1.645600 6.580500
1.667700 6.117800
1.689800 6.008500
1.711900 5.966800
1.734000 6.408200
1.756100 7.862100
1.778100 6.786300
1.800200 6.551400
1.822300 6.168300
1.844400 5.698600
1.866500 5.224400
1.888600 5.083900
1.910600 5.058000
1.932700 5.283400
1.954800 5.593200
1.976900 5.932200
1.999000 6.285300
2.021100 7.956300
2.043100 7.641700
2.065200 9.723800
2.087300 16.833800
2.109400 20.331100
2.131500 16.583800
2.153600 5.570900
2.175700 6.197500
2.197700 7.606100
2.219800 8.557400
2.241900 7.949400
2.264000 7.884400
2.286100 7.164800
2.308200 7.355800
2.330200 7.891900
2.352300 7.582600
2.374400 6.387600
2.396500 5.345900
2.418600 6.495500
2.440700 6.794300
2.462700 6.846900
2.484800 8.080300
2.506900 8.228100
2.529000 7.809700
2.551100 7.933000
2.573200 5.732500
2.595200 5.455100
2.617300 5.214300
2.639400 5.010200
2.661500 4.842800
2.683600 4.755500
2.705700 6.041100
2.727700 5.399800
2.749800 5.489300
2.771900 5.763200
2.794000 6.023300
2.816100 6.334900
2.838200 6.312100
2.860300 5.781700
2.882300 4.891900
2.904400 4.304700
2.926500 3.913600
2.948600 3.586300
2.970700 3.720600
2.992800 4.257800
3.014800 6.168900
3.036900 8.233900
3.059000 8.203400
3.081100 7.832000
3.103200 7.606900
3.125300 7.148900
3.147300 6.686800
3.169400 6.177600
3.191500 5.653900
3.213600 5.160900
3.235700 4.762700
3.257800 4.534300
3.279800 4.614000
3.301900 5.477300
3.324000 7.410300
3.346100 11.029800
3.368200 8.709200
3.390300 8.349700
3.412300 7.920000
3.434400 7.421500
3.456500 7.250600
3.478600 6.617200
3.500700 6.867900
3.522800 6.747200
3.544900 7.306800
3.566900 7.797000
3.589000 8.089800
3.611100 10.302700
3.633200 11.722800
3.655300 12.788100
3.677400 11.555000
3.699400 9.146200
3.721500 8.940200
3.743600 8.632800
3.765700 8.734400
3.787800 6.709500
3.809900 5.480100
3.831900 4.974300
3.854000 4.664600
3.876100 4.480500
3.898200 4.405400
3.920300 4.367200
3.942400 4.347000
3.964400 4.341500
3.986500 4.350700
4.008600 4.374500
4.030700 4.407000
4.052800 4.451800
4.074900 4.495500
4.096900 4.532700
4.119000 4.578200
4.141100 4.632400
4.163200 4.522900
4.185300 4.420100
4.207400 4.331600
4.229500 4.257300
4.251500 4.066000
4.273600 3.086800
4.295700 2.501900
4.317800 2.449700
4.339900 2.407700
4.362000 2.246200
4.384000 1.960100
4.406100 1.548500
4.428200 1.028400
4.450300 0.332500
4.472400 0.000000
4.494500 0.000000
4.516500 0.000000
4.538600 0.000000
4.560700 0.000000
4.582800 0.000000
4.604900 0.000000
4.627000 0.000000
4.649000 0.000000
4.671100 0.000000
4.693200 0.000000
4.715300 0.000000
4.737400 0.000000
4.759500 0.000000
4.781500 0.000000
4.803600 0.000000
4.825700 0.000000
4.847800 0.000000
4.869900 0.000000
4.892000 0.000000
4.914100 0.000000
4.936100 0.000000
4.958200 0.000000
4.980300 0.000000
5.002400 0.000000
5.024500 0.000000
5.046600 0.000000
5.068600 0.000000
5.090700 0.000000
5.112800 0.000000
5.134900 0.000000
5.157000 0.000000
5.179100 0.000000
5.201100 0.000000
5.223200 0.000000
5.245300 0.000000
5.267400 0.000000
5.289500 0.000000
5.311600 0.000000
5.333600 0.000000
5.355700 0.000000
5.377800 0.000000
5.399900 0.000000
5.422000 0.000000
5.444100 0.000000
5.466100 0.000000
5.488200 0.000000
5.510300 0.000000
5.532400 0.000000
5.554500 0.000000
5.576600 0.000000
5.598700 0.000000
5.620700 0.000000
5.642800 0.000000
5.664900 0.000000
5.687000 0.000000
5.709100 0.000000
5.731200 0.000000
5.753200 0.000000
5.775300 0.000000
5.797400 0.000000
5.819500 0.000000
5.841600 0.000000
5.863700 0.000000
5.885700 0.000000
5.907800 0.000000
5.929900 0.000000
5.952000 0.000000
5.974100 0.000000
5.996200 0.000000
6.018200 0.000000
6.040300 0.000000
6.062400 0.000000
6.084500 0.000000
6.106600 0.000000
6.128700 0.000000
6.150700 0.000000
6.172800 0.000000
6.194900 0.000000
6.217000 0.000000
6.239100 0.000000
6.261200 0.000000
6.283300 0.000000
6.305300 0.000000
6.327400 0.000000
6.349500 0.000000
6.371600 0.000000
6.393700 0.000000
6.415800 0.000000
6.437800 0.000000
6.459900 0.000000
6.482000 0.000000
6.504100 0.000000
6.526200 0.000000
6.548300 0.000000
6.570300 0.000000
6.592400 0.000000
6.614500 0.000000
6.636600 0.000000
6.658700 0.000000
6.680800 0.000000
6.702800 0.000000
6.724900 0.000000
6.747000 0.000000
6.769100 0.000000
6.791200 0.000000
6.813300 0.000000
6.835400 0.000000
6.857400 0.000000
6.879500 0.000000
6.901600 0.000000
6.923700 0.000000
6.945800 0.000000
6.967900 0.000000
6.989900 0.000000
7.012000 0.000000
7.034100 0.000000
7.056200 0.000000
7.078300 0.000000
7.100400 0.000000
7.122400 0.000000
7.144500 0.000000
7.166600 0.000000
7.188700 0.000000
7.210800 0.000000
7.232900 0.000000
7.254900 0.000000
7.277000 0.000000
7.299100 0.000000
7.321200 0.000000
7.343300 0.000000
7.365400 0.000000
7.387400 0.000000
7.409500 0.000000
7.431600 0.016500
7.453700 0.080900
7.475800 0.170700
7.497900 0.279300
7.520000 0.406700
7.542000 0.553000
7.564100 0.718200
7.586200 0.902200
7.608300 1.095500
7.630400 1.266400
7.652500 1.415800
7.674500 1.558000
7.696600 1.683200
7.718700 1.787200
7.740800 1.869800
7.762900 1.931300
7.785000 2.044500
7.807000 2.193100
7.829100 2.351000
7.851200 2.483800
7.873300 2.591900
7.895400 2.675900
7.917500 2.735700
7.939500 2.773700
7.961600 2.798900
7.983700 2.812100
8.005800 2.831500
8.027900 2.888800
8.050000 2.973600
8.072000 3.085900
8.094100 3.225600
8.116200 3.392800
8.138300 3.587400
8.160400 3.809500
8.182500 4.375200
8.204600 2.872300
8.226600 2.066100
8.248700 1.593800
8.270800 1.986900
8.292900 2.287300
8.315000 2.185100
8.337100 2.081200
8.359100 2.694000
8.381200 2.935600
8.403300 3.129700
8.425400 3.320200
8.447500 3.527200
8.469600 3.806300
8.491600 4.140900
8.513700 4.373900
8.535800 4.505200
8.557900 4.535000
8.580000 4.369500
8.602100 4.128300
8.624100 4.029800
8.646200 4.363600
8.668300 4.862700
8.690400 4.083500
8.712500 3.136200
8.734600 3.055500
8.756600 2.962500
8.778700 2.864900
8.800800 2.762400
8.822900 2.654800
8.845000 2.542300
8.867100 2.424800
8.889200 2.302300
8.911200 2.182900
8.933300 2.152200
8.955400 2.137400
8.977500 2.138500
8.999600 2.155500
9.021700 2.188400
9.043700 2.237900
9.065800 2.518700
9.087900 2.865300
9.110000 3.278900
9.132100 4.970000
9.154200 5.270200
9.176200 6.142400
9.198300 6.458200
9.220400 6.455700
9.242500 6.815100
9.264600 7.510700
9.286700 8.652600
9.308700 8.609500
9.330800 8.115600
9.352900 7.278400
9.375000 6.186600
9.397100 5.311800
9.419200 5.256200
9.441200 5.315800
9.463300 5.419300
9.485400 5.610100
9.507500 5.839000
9.529600 6.045700
9.551700 6.257300
9.573800 6.622200
9.595800 7.054700
9.617900 7.781600
9.640000 7.497700
9.662100 6.513800
9.684200 6.176400
9.706300 5.809400
9.728300 4.877900
9.750400 3.292500
9.772500 2.818500
9.794600 2.564000
9.816700 2.359900
9.838800 2.207100
9.860800 2.108200
9.882900 2.063500
9.905000 2.072900
9.927100 2.154400
9.949200 2.570900
9.971300 3.318300
9.993300 3.956900
10.015400 4.360200
10.037500 4.318000
10.059600 3.845100
10.081700 3.377600
10.103800 3.236100
10.125800 3.375000
10.147900 3.132000
10.170000 2.988400
10.192100 2.930100
10.214200 2.957300
10.236300 3.069800
10.258400 3.267800
10.280400 3.498200
10.302500 3.727600
10.324600 4.001900
10.346700 4.220600
10.368800 4.396500
10.390900 4.512000
10.412900 4.691800
10.435000 5.100000
10.457100 5.160800
10.479200 5.021200
10.501300 4.866600
10.523400 4.663000
10.545400 4.438900
10.567500 4.523300
10.589600 4.491400
10.611700 4.309300
10.633800 4.552900
10.655900 4.892700
10.677900 5.018100
10.700000 5.422600
10.722100 5.776900
10.744200 5.832100
10.766300 4.853400
10.788400 4.461700
10.810400 5.275600
10.832500 3.331400
10.854600 3.558500
10.876700 3.752900
10.898800 3.914700
10.920900 4.043700
10.943000 4.137700
10.965000 4.187300
10.987100 4.210000
11.009200 4.861600
11.031300 7.630000
11.053400 8.465300
11.075500 8.245100
11.097500 8.003500
11.119600 7.925100
11.141700 7.627300
11.163800 6.348000
11.185900 5.976100
