set title 'mp-1186443 - Density of States'
set xlabel 'Energy (eV)'
set ylabel 'DOS (states/eV)'
set grid
set xrange [-10:10]
set yrange [0:83.215]
set xzeroaxis lt -1
set terminal png size 800,600
set output 'mp-1186443_dos_gnuplot.png'
plot '-' using 1:2 with lines title 'DOS'
-12.175700 0.000000
-12.155700 0.000000
-12.135800 0.000000
-12.115800 0.000000
-12.095900 0.000000
-12.076000 0.000000
-12.056000 0.000000
-12.036100 0.000000
-12.016100 0.000000
-11.996200 0.000000
-11.976300 0.000000
-11.956300 0.000000
-11.936400 0.000000
-11.916400 0.000000
-11.896500 0.000000
-11.876500 0.000000
-11.856600 0.000000
-11.836700 0.000000
-11.816700 0.000000
-11.796800 0.000000
-11.776800 0.000000
-11.756900 0.000000
-11.736900 0.000000
-11.717000 0.000000
-11.697100 0.000000
-11.677100 0.000000
-11.657200 0.000000
-11.637200 0.000000
-11.617300 0.000000
-11.597300 0.000000
-11.577400 0.000000
-11.557500 0.000000
-11.537500 0.000000
-11.517600 0.000000
-11.497600 0.000000
-11.477700 0.000000
-11.457800 0.000000
-11.437800 0.000000
-11.417900 0.000000
-11.397900 0.000000
-11.378000 0.000000
-11.358000 0.000000
-11.338100 0.000000
-11.318200 0.000000
-11.298200 0.000000
-11.278300 0.000000
-11.258300 0.000000
-11.238400 0.000000
-11.218400 0.000000
-11.198500 0.000000
-11.178600 0.000000
-11.158600 0.000000
-11.138700 0.000000
-11.118700 0.000000
-11.098800 0.000000
-11.078800 0.000000
-11.058900 0.000000
-11.039000 0.000000
-11.019000 0.000000
-10.999100 0.000000
-10.979100 0.000000
-10.959200 0.000000
-10.939300 0.000000
-10.919300 0.000000
-10.899400 0.000000
-10.879400 0.000000
-10.859500 0.000000
-10.839500 0.000000
-10.819600 0.000000
-10.799700 0.000000
-10.779700 0.000000
-10.759800 0.000000
-10.739800 0.000000
-10.719900 0.000000
-10.699900 0.000000
-10.680000 0.000000
-10.660100 0.000000
-10.640100 0.000000
-10.620200 0.000000
-10.600200 0.000000
-10.580300 0.000000
-10.560300 0.000000
-10.540400 0.000000
-10.520500 0.000000
-10.500500 0.000200
-10.480600 0.001600
-10.460600 0.012600
-10.440700 0.073900
-10.420800 0.333400
-10.400800 1.171200
-10.380900 3.263200
-10.360900 7.383400
-10.341000 13.932900
-10.321000 22.545300
-10.301100 32.126500
-10.281200 41.330600
-10.261200 49.168200
-10.241300 55.332100
-10.221300 59.869500
-10.201400 62.387600
-10.181400 62.035100
-10.161500 58.893500
-10.141600 54.859300
-10.121600 52.408100
-10.101700 52.969200
-10.081700 56.761200
-10.061800 63.208900
-10.041900 70.756700
-10.021900 76.788400
-10.002000 78.727000
-9.982000 75.649800
-9.962100 69.051300
-9.942100 62.244900
-9.922200 58.268600
-9.902300 57.394800
-9.882300 56.691300
-9.862400 52.244700
-9.842400 42.237800
-9.822500 28.618000
-9.802500 15.716800
-9.782600 6.831400
-9.762700 2.311600
-9.742700 0.602200
-9.722800 0.119900
-9.702800 0.018200
-9.682900 0.002100
-9.662900 0.000200
-9.643000 0.000000
-9.623100 0.000000
-9.603100 0.000000
-9.583200 0.000000
-9.563200 0.000000
-9.543300 0.000000
-9.523400 0.000000
-9.503400 0.000000
-9.483500 0.000000
-9.463500 0.000000
-9.443600 0.000000
-9.423600 0.000000
-9.403700 0.000000
-9.383800 0.000000
-9.363800 0.000000
-9.343900 0.000000
-9.323900 0.000000
-9.304000 0.000000
-9.284000 0.000000
-9.264100 0.000000
-9.244200 0.000000
-9.224200 0.000000
-9.204300 0.000000
-9.184300 0.000000
-9.164400 0.000000
-9.144400 0.000000
-9.124500 0.000000
-9.104600 0.000000
-9.084600 0.000000
-9.064700 0.000000
-9.044700 0.000000
-9.024800 0.000000
-9.004900 0.000000
-8.984900 0.000000
-8.965000 0.000000
-8.945000 0.000000
-8.925100 0.000000
-8.905100 0.000000
-8.885200 0.000000
-8.865300 0.000000
-8.845300 0.000000
-8.825400 0.000000
-8.805400 0.000000
-8.785500 0.000000
-8.765500 0.000000
-8.745600 0.000000
-8.725700 0.000000
-8.705700 0.000000
-8.685800 0.000000
-8.665800 0.000000
-8.645900 0.000000
-8.626000 0.000000
-8.606000 0.000000
-8.586100 0.000000
-8.566100 0.000000
-8.546200 0.000000
-8.526200 0.000000
-8.506300 0.000000
-8.486400 0.000000
-8.466400 0.000000
-8.446500 0.000000
-8.426500 0.000000
-8.406600 0.000000
-8.386600 0.000000
-8.366700 0.000000
-8.346800 0.000000
-8.326800 0.000000
-8.306900 0.000000
-8.286900 0.000000
-8.267000 0.000000
-8.247000 0.000000
-8.227100 0.000000
-8.207200 0.000000
-8.187200 0.000000
-8.167300 0.000000
-8.147300 0.000000
-8.127400 0.000000
-8.107500 0.000000
-8.087500 0.000000
-8.067600 0.000000
-8.047600 0.000000
-8.027700 0.000000
-8.007700 0.000000
-7.987800 0.000000
-7.967900 0.000000
-7.947900 0.000000
-7.928000 0.000000
-7.908000 0.000000
-7.888100 0.000000
-7.868100 0.000000
-7.848200 0.000000
-7.828300 0.000000
-7.808300 0.000000
-7.788400 0.000000
-7.768400 0.000000
-7.748500 0.000000
-7.728500 0.000000
-7.708600 0.000000
-7.688700 0.000000
-7.668700 0.000000
-7.648800 0.000000
-7.628800 0.000000
-7.608900 0.000000
-7.589000 0.000000
-7.569000 0.000000
-7.549100 0.000000
-7.529100 0.000000
-7.509200 0.000000
-7.489200 0.000000
-7.469300 0.000000
-7.449400 0.000000
-7.429400 0.000000
-7.409500 0.000000
-7.389500 0.000000
-7.369600 0.000000
-7.349600 0.000000
-7.329700 0.000000
-7.309800 0.000000
-7.289800 0.000000
-7.269900 0.000000
-7.249900 0.000000
-7.230000 0.000000
-7.210100 0.000000
-7.190100 0.000000
-7.170200 0.000000
-7.150200 0.000000
-7.130300 0.000000
-7.110300 0.000000
-7.090400 0.000000
-7.070500 0.000000
-7.050500 0.000000
-7.030600 0.000000
-7.010600 0.000000
-6.990700 0.000000
-6.970700 0.000000
-6.950800 0.000000
-6.930900 0.000000
-6.910900 0.000000
-6.891000 0.000000
-6.871000 0.000000
-6.851100 0.000000
-6.831100 0.000000
-6.811200 0.000000
-6.791300 0.000000
-6.771300 0.000000
-6.751400 0.000000
-6.731400 0.000000
-6.711500 0.000000
-6.691600 0.000000
-6.671600 0.000000
-6.651700 0.000000
-6.631700 0.000000
-6.611800 0.000000
-6.591800 0.000000
-6.571900 0.000000
-6.552000 0.000000
-6.532000 0.000000
-6.512100 0.000000
-6.492100 0.000000
-6.472200 0.000000
-6.452200 0.000000
-6.432300 0.000000
-6.412400 0.000000
-6.392400 0.000000
-6.372500 0.000000
-6.352500 0.000000
-6.332600 0.000000
-6.312600 0.000000
-6.292700 0.000000
-6.272800 0.000000
-6.252800 0.000000
-6.232900 0.000000
-6.212900 0.000000
-6.193000 0.000000
-6.173100 0.000000
-6.153100 0.000000
-6.133200 0.000000
-6.113200 0.000000
-6.093300 0.000000
-6.073300 0.000000
-6.053400 0.000000
-6.033500 0.000000
-6.013500 0.000000
-5.993600 0.000000
-5.973600 0.000000
-5.953700 0.000000
-5.933700 0.000000
-5.913800 0.000000
-5.893900 0.000000
-5.873900 0.000000
-5.854000 0.000000
-5.834000 0.000000
-5.814100 0.000000
-5.794100 0.000000
-5.774200 0.000000
-5.754300 0.000000
-5.734300 0.000000
-5.714400 0.000000
-5.694400 0.000000
-5.674500 0.000000
-5.654600 0.000000
-5.634600 0.000000
-5.614700 0.000000
-5.594700 0.000000
-5.574800 0.000000
-5.554800 0.000000
-5.534900 0.000000
-5.515000 0.000000
-5.495000 0.000000
-5.475100 0.000000
-5.455100 0.000000
-5.435200 0.000000
-5.415200 0.000000
-5.395300 0.000000
-5.375400 0.000000
-5.355400 0.000000
-5.335500 0.000000
-5.315500 0.000000
-5.295600 0.000000
-5.275700 0.000000
-5.255700 0.000000
-5.235800 0.000000
-5.215800 0.000000
-5.195900 0.000000
-5.175900 0.000000
-5.156000 0.000000
-5.136100 0.000000
-5.116100 0.000000
-5.096200 0.000000
-5.076200 0.000000
-5.056300 0.000000
-5.036300 0.000000
-5.016400 0.000000
-4.996500 0.000000
-4.976500 0.000000
-4.956600 0.000000
-4.936600 0.000000
-4.916700 0.000000
-4.896700 0.000000
-4.876800 0.000000
-4.856900 0.000000
-4.836900 0.000000
-4.817000 0.000000
-4.797000 0.000000
-4.777100 0.000000
-4.757200 0.000000
-4.737200 0.000200
-4.717300 0.001300
-4.697300 0.005000
-4.677400 0.014600
-4.657400 0.032900
-4.637500 0.059200
-4.617600 0.088500
-4.597600 0.115300
-4.577700 0.140400
-4.557700 0.179800
-4.537800 0.254300
-4.517800 0.349200
-4.497900 0.399700
-4.478000 0.354900
-4.458000 0.242700
-4.438100 0.145000
-4.418100 0.126500
-4.398200 0.201900
-4.378200 0.336700
-4.358300 0.466500
-4.338400 0.541900
-4.318400 0.563100
-4.298500 0.567200
-4.278500 0.588600
-4.258600 0.622500
-4.238700 0.616700
-4.218700 0.524400
-4.198800 0.366900
-4.178800 0.220300
-4.158900 0.150600
-4.138900 0.178400
-4.119000 0.283800
-4.099100 0.427400
-4.079100 0.570100
-4.059200 0.685500
-4.039200 0.771600
-4.019300 0.858100
-3.999300 0.964800
-3.979400 1.039600
-3.959500 0.986200
-3.939500 0.778800
-3.919600 0.514200
-3.899600 0.333600
-3.879700 0.312200
-3.859800 0.416900
-3.839800 0.551000
-3.819900 0.634100
-3.799900 0.649700
-3.780000 0.639300
-3.760000 0.664200
-3.740100 0.752000
-3.720200 0.860100
-3.700200 0.899500
-3.680300 0.811800
-3.660300 0.641300
-3.640400 0.515700
-3.620400 0.539900
-3.600500 0.719000
-3.580600 0.971100
-3.560600 1.192500
-3.540700 1.322500
-3.520700 1.357100
-3.500800 1.297500
-3.480800 1.123900
-3.460900 0.847000
-3.441000 0.553000
-3.421000 0.365100
-3.401100 0.362700
-3.381100 0.528800
-3.361200 0.760900
-3.341300 0.944500
-3.321300 1.037800
-3.301400 1.094000
-3.281400 1.203000
-3.261500 1.387000
-3.241500 1.547300
-3.221600 1.540500
-3.201700 1.312600
-3.181700 0.954300
-3.161800 0.641300
-3.141800 0.509100
-3.121900 0.575200
-3.101900 0.778800
-3.082000 1.068000
-3.062100 1.412600
-3.042100 1.741100
-3.022200 1.929300
-3.002200 1.895900
-2.982300 1.678100
-2.962300 1.383000
-2.942400 1.101700
-2.922500 0.890400
-2.902500 0.789800
-2.882600 0.823800
-2.862600 0.974200
-2.842700 1.164900
-2.822800 1.298200
-2.802800 1.336700
-2.782900 1.331400
-2.762900 1.345900
-2.743000 1.377600
-2.723000 1.366400
-2.703100 1.254400
-2.683200 1.043900
-2.663200 0.813000
-2.643300 0.648500
-2.623300 0.588100
-2.603400 0.642300
-2.583400 0.795600
-2.563500 0.966800
-2.543600 1.059600
-2.523600 1.061500
-2.503700 1.015700
-2.483700 0.930600
-2.463800 0.799600
-2.443900 0.662200
-2.423900 0.573500
-2.404000 0.535500
-2.384000 0.509000
-2.364100 0.478800
-2.344100 0.461900
-2.324200 0.470300
-2.304300 0.515600
-2.284300 0.618100
-2.264400 0.752200
-2.244400 0.829100
-2.224500 0.796400
-2.204500 0.717700
-2.184600 0.714200
-2.164700 0.862500
-2.144700 1.154200
-2.124800 1.505100
-2.104800 1.801700
-2.084900 1.976300
-2.064900 2.033600
-2.045000 1.992700
-2.025100 1.841000
-2.005100 1.577300
-1.985200 1.265500
-1.965200 1.017100
-1.945300 0.926000
-1.925400 1.005300
-1.905400 1.171300
-1.885500 1.311000
-1.865500 1.366000
-1.845600 1.350200
-1.825600 1.311600
-1.805700 1.290500
-1.785800 1.314600
-1.765800 1.418300
-1.745900 1.614200
-1.725900 1.822400
-1.706000 1.892600
-1.686000 1.774300
-1.666100 1.611800
-1.646200 1.581000
-1.626200 1.686000
-1.606300 1.785900
-1.586300 1.766000
-1.566400 1.633700
-1.546400 1.473200
-1.526500 1.348300
-1.506600 1.272300
-1.486600 1.247600
-1.466700 1.271100
-1.446700 1.309400
-1.426800 1.320000
-1.406900 1.286000
-1.386900 1.226700
-1.367000 1.202700
-1.347000 1.272700
-1.327100 1.399800
-1.307100 1.457700
-1.287200 1.389800
-1.267300 1.314900
-1.247300 1.397800
-1.227400 1.625500
-1.207400 1.817200
-1.187500 1.869400
-1.167500 1.864200
-1.147600 1.906100
-1.127700 1.969600
-1.107700 1.960900
-1.087800 1.876000
-1.067800 1.825100
-1.047900 1.868600
-1.028000 1.886900
-1.008000 1.694900
-0.988100 1.275200
-0.968100 0.819200
-0.948200 0.539700
-0.928200 0.503300
-0.908300 0.635900
-0.888400 0.828900
-0.868400 1.027300
-0.848500 1.239000
-0.828500 1.474200
-0.808600 1.689500
-0.788600 1.803200
-0.768700 1.772600
-0.748800 1.654100
-0.728800 1.564200
-0.708900 1.571500
-0.688900 1.644500
-0.669000 1.705800
-0.649000 1.724400
-0.629100 1.764500
-0.609200 1.927600
-0.589200 2.214000
-0.569300 2.468000
-0.549300 2.512100
-0.529400 2.304300
-0.509500 1.935500
-0.489500 1.530200
-0.469600 1.196800
-0.449600 1.032500
-0.429700 1.096000
-0.409700 1.333200
-0.389800 1.568300
-0.369900 1.648000
-0.349900 1.590300
-0.330000 1.514700
-0.310000 1.464400
-0.290100 1.406400
-0.270100 1.371700
-0.250200 1.477600
-0.230300 1.779400
-0.210300 2.131900
-0.190400 2.269300
-0.170400 2.081400
-0.150500 1.750700
-0.130500 1.558200
-0.110600 1.619000
-0.090700 1.809900
-0.070700 1.883700
-0.050800 1.687400
-0.030800 1.318000
-0.010900 1.041700
0.009000 1.051400
0.029000 1.305000
0.048900 1.585900
0.068900 1.731200
0.088800 1.783400
0.108800 1.871800
0.128700 1.982600
0.148600 1.969100
0.168600 1.779400
0.188500 1.520000
0.208500 1.299000
0.228400 1.144000
0.248400 1.044400
0.268300 0.967400
0.288200 0.868300
0.308200 0.736800
0.328100 0.610400
0.348100 0.540100
0.368000 0.564700
0.388000 0.705700
0.407900 0.943800
0.427800 1.195200
0.447800 1.350000
0.467700 1.340400
0.487700 1.156200
0.507600 0.847700
0.527500 0.532400
0.547500 0.329400
0.567400 0.267100
0.587400 0.281700
0.607300 0.291200
0.627300 0.269100
0.647200 0.258200
0.667100 0.308400
0.687100 0.403700
0.707000 0.473100
0.727000 0.470000
0.746900 0.407000
0.766900 0.317600
0.786800 0.226600
0.806700 0.154800
0.826700 0.115700
0.846600 0.105900
0.866600 0.107100
0.886500 0.098500
0.906400 0.073100
0.926400 0.041300
0.946300 0.017400
0.966300 0.005400
0.986200 0.001200
1.006200 0.000200
1.026100 0.000000
1.046000 0.000000
1.066000 0.000000
1.085900 0.000000
1.105900 0.000000
1.125800 0.000000
1.145800 0.000000
1.165700 0.000000
1.185600 0.000000
1.205600 0.000000
1.225500 0.000000
1.245500 0.000000
1.265400 0.000000
1.285400 0.000000
1.305300 0.000000
1.325200 0.000000
1.345200 0.000000
1.365100 0.000000
1.385100 0.000000
1.405000 0.000000
1.424900 0.000000
1.444900 0.000000
1.464800 0.000000
1.484800 0.000000
1.504700 0.000000
1.524700 0.000000
1.544600 0.000000
1.564500 0.000000
1.584500 0.000000
1.604400 0.000000
1.624400 0.000000
1.644300 0.000000
1.664300 0.000000
1.684200 0.000000
1.704100 0.000000
1.724100 0.000000
1.744000 0.000000
1.764000 0.000000
1.783900 0.000000
1.803900 0.000000
1.823800 0.000000
1.843700 0.000000
1.863700 0.000000
1.883600 0.000000
1.903600 0.000000
1.923500 0.000000
1.943400 0.000000
1.963400 0.000000
1.983300 0.000000
2.003300 0.000000
2.023200 0.000000
2.043200 0.000000
2.063100 0.000000
2.083000 0.000000
2.103000 0.000000
2.122900 0.000000
2.142900 0.000000
2.162800 0.000000
2.182800 0.000000
2.202700 0.000000
2.222600 0.000000
2.242600 0.000000
2.262500 0.000000
2.282500 0.000100
2.302400 0.000800
2.322300 0.003300
2.342300 0.010100
2.362200 0.022600
2.382200 0.037100
2.402100 0.044800
2.422100 0.041200
2.442000 0.033200
2.461900 0.035000
2.481900 0.053400
2.501800 0.078600
2.521800 0.091000
2.541700 0.084600
2.561700 0.083200
2.581600 0.128300
2.601500 0.241600
2.621500 0.388300
2.641400 0.484700
2.661400 0.467600
2.681300 0.357300
2.701300 0.242500
2.721200 0.218500
2.741100 0.335200
2.761100 0.569600
2.781000 0.832200
2.801000 1.022400
2.820900 1.092600
2.840800 1.063800
2.860800 0.987800
2.880700 0.899500
2.900700 0.819300
2.920600 0.796300
2.940600 0.878900
2.960500 1.028700
2.980400 1.141100
3.000400 1.158400
3.020300 1.107000
3.040300 1.051100
3.060200 1.040300
3.080200 1.054900
3.100100 1.021000
3.120000 0.934900
3.140000 0.934600
3.159900 1.172900
3.179900 1.626100
3.199800 2.096500
3.219800 2.417500
3.239700 2.601500
3.259600 2.789800
3.279600 3.110800
3.299500 3.550700
3.319500 3.921100
3.339400 4.019300
3.359300 3.847300
3.379300 3.579500
3.399200 3.351800
3.419200 3.198500
3.439100 3.119500
3.459100 3.096900
3.479000 3.097400
3.498900 3.101500
3.518900 3.099200
3.538800 3.072900
3.558800 3.012800
3.578700 2.932000
3.598700 2.868500
3.618600 2.867800
3.638500 2.910000
3.658500 2.895200
3.678400 2.811100
3.698400 2.882800
3.718300 3.416400
3.738200 4.441400
3.758200 5.605700
3.778100 6.531000
3.798100 7.159900
3.818000 7.587400
3.838000 7.725500
3.857900 7.393700
3.877800 6.634300
3.897800 5.769700
3.917700 5.207300
3.937700 5.217900
3.957600 5.802300
3.977600 6.707600
3.997500 7.584200
4.017400 8.149800
4.037400 8.276700
4.057300 8.009100
4.077300 7.491700
4.097200 6.890700
4.117200 6.424000
4.137100 6.357100
4.157000 6.854700
4.177000 7.897200
4.196900 9.358100
4.216900 11.028000
4.236800 12.535000
4.256700 13.426900
4.276700 13.492600
4.296600 12.955800
4.316600 12.199500
4.336500 11.309700
4.356500 10.089800
4.376400 8.548200
4.396300 7.149600
4.416300 6.509600
4.436200 6.948700
4.456200 8.381000
4.476100 10.516600
4.496100 12.892000
4.516000 14.664500
4.535900 14.902200
4.555900 13.439400
4.575800 11.108000
4.595800 8.945200
4.615700 7.525600
4.635700 7.016500
4.655600 7.338300
4.675500 8.110300
4.695500 8.751200
4.715400 8.826700
4.735400 8.261600
4.755300 7.236200
4.775200 5.991500
4.795200 4.761200
4.815100 3.817100
4.835100 3.417400
4.855000 3.563000
4.875000 3.883100
4.894900 3.945500
4.914800 3.645500
4.934800 3.178800
4.954700 2.745600
4.974700 2.394000
4.994600 2.058600
5.014600 1.688300
5.034500 1.381500
5.054400 1.353900
5.074400 1.706200
5.094300 2.295000
5.114300 2.873200
5.134200 3.262500
5.154100 3.358800
5.174100 3.124400
5.194000 2.675400
5.214000 2.272800
5.233900 2.114500
5.253900 2.169500
5.273800 2.248700
5.293700 2.197500
5.313700 2.008000
5.333600 1.777200
5.353600 1.609000
5.373500 1.567300
5.393500 1.657900
5.413400 1.831600
5.433300 2.041600
5.453300 2.288700
5.473200 2.566900
5.493200 2.787900
5.513100 2.856600
5.533100 2.844600
5.553000 2.911900
5.572900 3.009900
5.592900 2.916700
5.612800 2.622000
5.632800 2.405900
5.652700 2.508200
5.672600 2.907200
5.692600 3.395200
5.712500 3.769900
5.732500 3.963600
5.752400 3.989600
5.772400 3.826000
5.792300 3.452200
5.812200 2.935600
5.832200 2.406500
5.852100 2.009200
5.872100 1.858500
5.892000 1.944400
5.912000 2.095200
5.931900 2.112100
5.951800 1.933700
5.971800 1.664000
5.991700 1.479600
6.011700 1.513200
6.031600 1.769400
6.051600 2.103700
6.071500 2.319400
6.091400 2.326500
6.111400 2.183900
6.131300 1.989500
6.151300 1.802800
6.171200 1.681200
6.191100 1.688200
6.211100 1.805700
6.231000 1.936100
6.251000 2.048000
6.270900 2.200100
6.290900 2.405600
6.310800 2.621200
6.330700 2.854600
6.350700 3.121300
6.370600 3.309600
6.390600 3.243800
6.410500 2.890500
6.430500 2.391900
6.450400 1.908800
6.470300 1.517600
6.490300 1.238900
6.510200 1.090500
6.530200 1.079300
6.550100 1.160700
6.570100 1.269700
6.590000 1.408700
6.609900 1.634300
6.629900 1.942400
6.649800 2.237000
6.669800 2.423400
6.689700 2.476200
6.709600 2.426400
6.729600 2.307400
6.749500 2.108000
6.769500 1.804500
6.789400 1.449200
6.809400 1.177100
6.829300 1.096000
6.849200 1.173800
6.869200 1.271700
6.889100 1.313200
6.909100 1.351100
6.929000 1.424600
6.949000 1.470500
6.968900 1.435400
6.988800 1.358200
7.008800 1.280600
7.028700 1.158300
7.048700 0.939000
7.068600 0.691600
7.088500 0.574000
7.108500 0.676000
7.128400 0.943900
7.148400 1.257700
7.168300 1.527200
7.188300 1.697800
7.208200 1.738500
7.228100 1.685700
7.248100 1.645400
7.268000 1.693900
7.288000 1.795000
7.307900 1.828700
7.327900 1.690100
7.347800 1.380800
7.367700 1.024200
7.387700 0.777400
7.407600 0.722000
7.427600 0.834600
7.447500 1.032700
7.467500 1.232800
7.487400 1.381600
7.507300 1.453200
7.527300 1.460400
7.547200 1.491400
7.567200 1.683000
7.587100 2.101300
7.607000 2.634300
7.627000 3.028100
7.646900 3.083200
7.666900 2.838400
7.686800 2.537800
7.706800 2.413000
7.726700 2.515000
7.746600 2.725200
7.766600 2.866400
7.786500 2.806900
7.806500 2.528300
7.826400 2.141100
7.846400 1.825600
7.866300 1.704700
7.886200 1.755400
7.906200 1.855900
7.926100 1.876700
7.946100 1.725700
7.966000 1.413400
7.986000 1.099000
8.005900 0.985900
8.025800 1.145400
8.045800 1.468900
8.065700 1.799200
8.085700 2.066100
8.105600 2.253200
8.125500 2.303000
8.145500 2.163500
8.165400 1.902000
8.185400 1.690600
8.205300 1.661900
8.225300 1.801300
8.245200 1.987600
8.265100 2.109700
8.285100 2.110700
8.305000 1.981500
8.325000 1.787800
8.344900 1.639600
8.364900 1.569000
8.384800 1.527800
8.404700 1.549700
8.424700 1.775900
8.444600 2.241900
8.464600 2.737200
8.484500 2.977500
8.504400 2.895500
8.524400 2.679400
8.544300 2.546200
8.564300 2.559500
8.584200 2.621500
8.604200 2.573500
8.624100 2.343800
8.644000 2.019100
8.664000 1.748400
8.683900 1.598900
8.703900 1.544200
8.723800 1.569900
8.743800 1.736000
8.763700 2.096400
8.783600 2.562900
8.803600 2.898900
