set title 'mp-1008910 - Density of States'
set xlabel 'Energy (eV)'
set ylabel 'DOS (states/eV)'
set grid
set xrange [-10:10]
set yrange [0:43.835]
set xzeroaxis lt -1
set terminal png size 800,600
set output 'mp-1008910_dos_gnuplot.png'
plot '-' using 1:2 with lines title 'DOS'
-28.915200 0.000000
-28.875600 0.000000
-28.836100 0.000000
-28.796500 0.000000
-28.757000 0.000000
-28.717400 0.000000
-28.677900 0.000000
-28.638300 0.000000
-28.598800 0.000000
-28.559200 0.000000
-28.519600 0.000000
-28.480100 0.000000
-28.440500 0.000000
-28.401000 0.000000
-28.361400 0.000000
-28.321900 0.000000
-28.282300 0.000000
-28.242800 0.000000
-28.203200 0.000000
-28.163600 0.000000
-28.124100 0.000000
-28.084500 0.000000
-28.045000 0.000000
-28.005400 0.000000
-27.965900 0.000000
-27.926300 0.000000
-27.886800 0.000000
-27.847200 0.000000
-27.807700 0.000000
-27.768100 0.000000
-27.728500 0.000000
-27.689000 0.000000
-27.649400 0.000000
-27.609900 0.000000
-27.570300 0.000000
-27.530800 0.000000
-27.491200 0.000000
-27.451700 0.000000
-27.412100 0.000000
-27.372500 0.000000
-27.333000 0.000000
-27.293400 0.000000
-27.253900 0.000000
-27.214300 0.000000
-27.174800 0.000000
-27.135200 0.000000
-27.095700 0.000000
-27.056100 0.000000
-27.016600 0.000000
-26.977000 0.000000
-26.937400 0.000000
-26.897900 0.000000
-26.858300 0.000000
-26.818800 0.000000
-26.779200 0.000000
-26.739700 0.000000
-26.700100 0.000000
-26.660600 0.000000
-26.621000 0.000000
-26.581400 0.000000
-26.541900 0.000000
-26.502300 0.000000
-26.462800 0.000000
-26.423200 0.000000
-26.383700 0.000000
-26.344100 0.000000
-26.304600 0.000000
-26.265000 0.000000
-26.225500 0.000000
-26.185900 0.000000
-26.146300 0.000000
-26.106800 0.000000
-26.067200 0.000000
-26.027700 0.000000
-25.988100 0.000000
-25.948600 0.000000
-25.909000 0.000000
-25.869500 0.000000
-25.829900 0.000000
-25.790300 0.000000
-25.750800 0.000000
-25.711200 0.000000
-25.671700 0.000000
-25.632100 0.000000
-25.592600 0.000000
-25.553000 0.000000
-25.513500 0.000000
-25.473900 0.000000
-25.434400 0.000000
-25.394800 0.000000
-25.355200 0.000000
-25.315700 13.670700
-25.276100 4.771800
-25.236600 3.152900
-25.197000 3.152900
-25.157500 3.152800
-25.117900 25.564800
-25.078400 31.366400
-25.038800 2.589700
-24.999300 2.589700
-24.959700 3.006900
-24.920100 3.006900
-24.880600 4.445000
-24.841000 4.445000
-24.801500 0.000000
-24.761900 0.000000
-24.722400 0.000000
-24.682800 0.000000
-24.643300 0.000000
-24.603700 0.000000
-24.564100 0.000000
-24.524600 0.000000
-24.485000 0.000000
-24.445500 0.000000
-24.405900 0.000000
-24.366400 0.000000
-24.326800 0.000000
-24.287300 0.000000
-24.247700 0.000000
-24.208200 0.000000
-24.168600 0.000000
-24.129000 0.000000
-24.089500 0.000000
-24.049900 0.000000
-24.010400 0.000000
-23.970800 0.000000
-23.931300 0.000000
-23.891700 0.000000
-23.852200 0.000000
-23.812600 0.000000
-23.773000 0.000000
-23.733500 0.000000
-23.693900 0.000000
-23.654400 0.000000
-23.614800 0.000000
-23.575300 0.000000
-23.535700 0.000000
-23.496200 0.000000
-23.456600 0.000000
-23.417100 0.000000
-23.377500 0.000000
-23.337900 0.000000
-23.298400 0.000000
-23.258800 0.000000
-23.219300 0.000000
-23.179700 0.000000
-23.140200 0.000000
-23.100600 0.000000
-23.061100 0.000000
-23.021500 0.000000
-22.981900 0.000000
-22.942400 0.000000
-22.902800 0.000000
-22.863300 0.000000
-22.823700 0.000000
-22.784200 0.000000
-22.744600 0.000000
-22.705100 0.000000
-22.665500 0.000000
-22.626000 0.000000
-22.586400 0.000000
-22.546800 0.000000
-22.507300 0.000000
-22.467700 0.000000
-22.428200 0.000000
-22.388600 0.000000
-22.349100 0.000000
-22.309500 0.000000
-22.270000 0.000000
-22.230400 0.000000
-22.190900 0.000000
-22.151300 0.000000
-22.111700 0.000000
-22.072200 0.000000
-22.032600 0.000000
-21.993100 0.000000
-21.953500 0.000000
-21.914000 0.000000
-21.874400 0.000000
-21.834900 0.000000
-21.795300 0.000000
-21.755700 0.000000
-21.716200 0.000000
-21.676600 0.000000
-21.637100 0.000000
-21.597500 0.000000
-21.558000 0.000000
-21.518400 0.000000
-21.478900 0.000000
-21.439300 0.000000
-21.399800 0.000000
-21.360200 0.000000
-21.320600 0.000000
-21.281100 0.000000
-21.241500 0.000000
-21.202000 0.000000
-21.162400 0.000000
-21.122900 0.000000
-21.083300 0.000000
-21.043800 0.000000
-21.004200 0.000000
-20.964600 0.000000
-20.925100 0.000000
-20.885500 0.000000
-20.846000 0.000000
-20.806400 0.000000
-20.766900 0.000000
-20.727300 0.000000
-20.687800 0.000000
-20.648200 0.000000
-20.608700 0.000000
-20.569100 0.000000
-20.529500 0.000000
-20.490000 0.000000
-20.450400 0.000000
-20.410900 0.000000
-20.371300 0.000000
-20.331800 0.000000
-20.292200 0.000000
-20.252700 0.000000
-20.213100 0.000000
-20.173500 0.000000
-20.134000 0.000000
-20.094400 0.000000
-20.054900 0.000000
-20.015300 0.000000
-19.975800 0.000000
-19.936200 0.000000
-19.896700 0.000000
-19.857100 0.000000
-19.817600 0.000000
-19.778000 0.000000
-19.738400 0.000000
-19.698900 0.000000
-19.659300 0.000000
-19.619800 0.000000
-19.580200 0.000000
-19.540700 0.000000
-19.501100 0.000000
-19.461600 0.000000
-19.422000 0.000000
-19.382500 0.000000
-19.342900 0.000000
-19.303300 0.000000
-19.263800 0.000000
-19.224200 0.000000
-19.184700 0.000000
-19.145100 0.000000
-19.105600 0.000000
-19.066000 0.000000
-19.026500 0.000000
-18.986900 0.000000
-18.947300 0.000000
-18.907800 0.000000
-18.868200 0.000000
-18.828700 0.000000
-18.789100 0.000000
-18.749600 0.000000
-18.710000 0.000000
-18.670500 0.000000
-18.630900 0.000000
-18.591400 0.000000
-18.551800 0.000000
-18.512200 0.000000
-18.472700 0.000000
-18.433100 0.000000
-18.393600 0.000000
-18.354000 0.000000
-18.314500 0.000000
-18.274900 0.000000
-18.235400 0.000000
-18.195800 0.000000
-18.156200 0.000000
-18.116700 0.000000
-18.077100 0.000000
-18.037600 0.000000
-17.998000 0.000000
-17.958500 0.000000
-17.918900 0.000000
-17.879400 0.000000
-17.839800 0.000000
-17.800300 0.000000
-17.760700 0.000000
-17.721100 0.000000
-17.681600 0.000000
-17.642000 0.000000
-17.602500 0.000000
-17.562900 0.000000
-17.523400 0.000000
-17.483800 0.000000
-17.444300 0.000000
-17.404700 0.000000
-17.365100 0.000000
-17.325600 0.000000
-17.286000 0.000000
-17.246500 0.000000
-17.206900 0.000000
-17.167400 0.000000
-17.127800 0.000000
-17.088300 0.000000
-17.048700 0.000000
-17.009200 0.000000
-16.969600 0.000000
-16.930000 0.000000
-16.890500 0.000000
-16.850900 0.000000
-16.811400 0.000000
-16.771800 0.000000
-16.732300 0.000000
-16.692700 0.000000
-16.653200 0.000000
-16.613600 0.000000
-16.574000 0.000000
-16.534500 0.000000
-16.494900 0.000000
-16.455400 0.000000
-16.415800 0.000000
-16.376300 0.000000
-16.336700 0.000000
-16.297200 0.000000
-16.257600 0.000000
-16.218100 0.000000
-16.178500 0.000000
-16.138900 0.000000
-16.099400 0.000000
-16.059800 0.000000
-16.020300 0.000000
-15.980700 0.000000
-15.941200 0.000000
-15.901600 0.000000
-15.862100 0.000000
-15.822500 0.000000
-15.783000 0.000000
-15.743400 0.000000
-15.703800 0.000000
-15.664300 0.000000
-15.624700 0.000000
-15.585200 0.000000
-15.545600 0.000000
-15.506100 0.000000
-15.466500 0.000000
-15.427000 0.000000
-15.387400 0.000000
-15.347800 0.000000
-15.308300 0.000000
-15.268700 0.000000
-15.229200 0.000000
-15.189600 0.000000
-15.150100 0.000000
-15.110500 0.000000
-15.071000 0.000000
-15.031400 0.000000
-14.991900 0.000000
-14.952300 0.000000
-14.912700 0.000000
-14.873200 0.000000
-14.833600 0.000000
-14.794100 0.000000
-14.754500 0.000000
-14.715000 0.000000
-14.675400 0.000000
-14.635900 0.000000
-14.596300 0.000000
-14.556700 0.000000
-14.517200 0.000000
-14.477600 0.000000
-14.438100 0.000000
-14.398500 0.000000
-14.359000 0.000000
-14.319400 0.000000
-14.279900 0.000000
-14.240300 0.000000
-14.200800 0.000000
-14.161200 0.000000
-14.121600 0.000000
-14.082100 0.000000
-14.042500 0.000000
-14.003000 0.000000
-13.963400 0.000000
-13.923900 0.000000
-13.884300 0.000000
-13.844800 0.000000
-13.805200 0.000000
-13.765600 0.000000
-13.726100 0.000000
-13.686500 0.000000
-13.647000 0.000000
-13.607400 0.000000
-13.567900 0.000000
-13.528300 0.000000
-13.488800 0.000000
-13.449200 0.000000
-13.409700 0.000000
-13.370100 0.000000
-13.330500 0.000000
-13.291000 0.000000
-13.251400 0.000000
-13.211900 0.000000
-13.172300 0.000000
-13.132800 0.000000
-13.093200 0.000000
-13.053700 0.000000
-13.014100 0.000000
-12.974600 0.000000
-12.935000 0.000000
-12.895400 0.000000
-12.855900 0.000000
-12.816300 0.000000
-12.776800 0.000000
-12.737200 0.000000
-12.697700 0.000000
-12.658100 0.000000
-12.618600 0.000000
-12.579000 0.000000
-12.539400 0.000000
-12.499900 0.000000
-12.460300 0.000000
-12.420800 0.000000
-12.381200 0.000000
-12.341700 0.000000
-12.302100 0.000000
-12.262600 0.000000
-12.223000 0.000000
-12.183500 0.000000
-12.143900 0.000000
-12.104300 0.000000
-12.064800 0.000000
-12.025200 0.000000
-11.985700 0.000000
-11.946100 0.000000
-11.906600 0.000000
-11.867000 0.000000
-11.827500 0.000000
-11.787900 0.000000
-11.748300 0.000000
-11.708800 0.000000
-11.669200 0.000000
-11.629700 0.000000
-11.590100 0.000000
-11.550600 0.000000
-11.511000 0.000000
-11.471500 0.000000
-11.431900 0.000000
-11.392400 0.000000
-11.352800 0.000000
-11.313200 0.000000
-11.273700 0.000000
-11.234100 0.000000
-11.194600 0.000000
-11.155000 0.000000
-11.115500 0.000000
-11.075900 0.000000
-11.036400 0.000000
-10.996800 0.000000
-10.957200 0.000000
-10.917700 0.000000
-10.878100 0.000000
-10.838600 0.000000
-10.799000 0.000000
-10.759500 0.000000
-10.719900 0.000000
-10.680400 0.000000
-10.640800 0.000000
-10.601300 0.000000
-10.561700 0.000000
-10.522100 0.000000
-10.482600 0.000000
-10.443000 0.000000
-10.403500 0.000000
-10.363900 0.000000
-10.324400 0.000000
-10.284800 0.000000
-10.245300 0.000000
-10.205700 0.000000
-10.166100 0.000000
-10.126600 0.000000
-10.087000 0.000000
-10.047500 0.000000
-10.007900 0.000000
-9.968400 0.000000
-9.928800 0.000000
-9.889300 0.000000
-9.849700 0.000000
-9.810200 0.000000
-9.770600 0.000000
-9.731000 0.000000
-9.691500 0.000000
-9.651900 0.000000
-9.612400 0.000000
-9.572800 0.000000
-9.533300 0.000000
-9.493700 0.000000
-9.454200 0.000000
-9.414600 0.000000
-9.375100 0.000000
-9.335500 0.000000
-9.295900 0.000000
-9.256400 0.000000
-9.216800 0.000000
-9.177300 0.000000
-9.137700 0.000000
-9.098200 0.000000
-9.058600 0.000000
-9.019100 0.000000
-8.979500 0.000000
-8.939900 0.000000
-8.900400 0.000000
-8.860800 0.000000
-8.821300 0.000000
-8.781700 0.000000
-8.742200 0.000000
-8.702600 0.000000
-8.663100 0.000000
-8.623500 0.000000
-8.584000 0.000000
-8.544400 0.000000
-8.504800 0.000000
-8.465300 0.000000
-8.425700 0.000000
-8.386200 0.000000
-8.346600 0.000000
-8.307100 0.000000
-8.267500 0.000000
-8.228000 0.000000
-8.188400 0.000000
-8.148800 0.000000
-8.109300 0.000000
-8.069700 0.000000
-8.030200 0.000000
-7.990600 0.000000
-7.951100 0.000000
-7.911500 0.000000
-7.872000 0.000000
-7.832400 0.000000
-7.792900 0.000000
-7.753300 0.000000
-7.713700 0.000000
-7.674200 0.000000
-7.634600 0.000000
-7.595100 0.000000
-7.555500 0.000000
-7.516000 0.000000
-7.476400 0.000000
-7.436900 0.000000
-7.397300 0.000000
-7.357700 0.000000
-7.318200 0.000000
-7.278600 0.000000
-7.239100 0.000000
-7.199500 0.000000
-7.160000 0.000000
-7.120400 0.000000
-7.080900 0.000000
-7.041300 0.000000
-7.001800 0.000000
-6.962200 0.000000
-6.922600 8.093200
-6.883100 12.191400
-6.843500 20.108500
-6.804000 17.498500
-6.764400 20.727100
-6.724900 33.139900
-6.685300 24.474200
-6.645800 33.740100
-6.606200 17.050900
-6.566700 11.502700
-6.527100 23.292800
-6.487500 16.945900
-6.448000 19.869400
-6.408400 35.311100
-6.368900 18.677800
-6.329300 22.149100
-6.289800 39.849800
-6.250200 23.868900
-6.210700 32.704700
-6.171100 28.763500
-6.131500 30.934700
-6.092000 7.793400
-6.052400 5.833700
-6.012900 5.767500
-5.973300 3.499700
-5.933800 1.696900
-5.894200 0.000000
-5.854700 0.000000
-5.815100 0.000000
-5.775600 0.000000
-5.736000 0.000000
-5.696400 0.000000
-5.656900 0.000000
-5.617300 0.000000
-5.577800 0.000000
-5.538200 0.000000
-5.498700 0.000000
-5.459100 0.000000
-5.419600 0.000000
-5.380000 0.000000
-5.340400 0.000000
-5.300900 0.000000
-5.261300 0.000000
-5.221800 0.000000
-5.182200 0.000000
-5.142700 0.000000
-5.103100 0.000000
-5.063600 0.000000
-5.024000 0.000000
-4.984500 0.017000
-4.944900 0.075400
-4.905300 0.136000
-4.865800 0.144400
-4.826200 0.156800
-4.786700 0.181800
-4.747100 0.207900
-4.707600 0.231800
-4.668000 0.245900
-4.628500 0.253100
-4.588900 0.261300
-4.549300 0.272800
-4.509800 0.286500
-4.470200 0.300100
-4.430700 0.313800
-4.391100 0.328100
-4.351600 0.341400
-4.312000 0.353100
-4.272500 0.362700
-4.232900 0.369500
-4.193400 0.378700
-4.153800 0.387500
-4.114200 0.395900
-4.074700 0.404400
-4.035100 0.414200
-3.995600 0.425200
-3.956000 0.436400
-3.916500 0.447400
-3.876900 0.457200
-3.837400 0.466400
-3.797800 0.476500
-3.758200 0.486200
-3.718700 0.494100
-3.679100 0.501700
-3.639600 0.510100
-3.600000 0.519900
-3.560500 0.530200
-3.520900 0.540800
-3.481400 0.551800
-3.441800 0.563100
-3.402300 0.574700
-3.362700 0.608000
-3.323100 0.636100
-3.283600 0.646200
-3.244000 0.654600
-3.204500 0.661500
-3.164900 0.666500
-3.125400 0.667500
-3.085800 0.715100
-3.046300 0.795100
-3.006700 0.761700
-2.967200 0.703100
-2.927600 0.669900
-2.888000 0.658000
-2.848500 0.636400
-2.808900 0.612900
-2.769400 0.610400
-2.729800 0.621700
-2.690300 0.637400
-2.650700 0.657200
-2.611200 0.681000
-2.571600 0.707200
-2.532000 0.717100
-2.492500 0.712600
-2.452900 0.746400
-2.413400 0.792000
-2.373800 0.843300
-2.334300 0.901100
-2.294700 0.948800
-2.255200 0.894700
-2.215600 0.878000
-2.176100 0.882300
-2.136500 0.878800
-2.096900 0.876600
-2.057400 0.875300
-2.017800 0.881500
-1.978300 0.885800
-1.938700 0.889300
-1.899200 0.893600
-1.859600 0.899200
-1.820100 0.901300
-1.780500 0.903900
-1.740900 0.910300
-1.701400 0.916300
-1.661800 0.921900
-1.622300 0.923300
-1.582700 0.928500
-1.543200 0.935100
-1.503600 0.941000
-1.464100 0.939200
-1.424500 0.935200
-1.385000 0.935400
-1.345400 0.938100
-1.305800 0.940500
-1.266300 0.942700
-1.226700 0.946000
-1.187200 0.950900
-1.147600 0.950200
-1.108100 0.946900
-1.068500 0.948800
-1.029000 0.950100
-0.989400 0.951100
-0.949800 0.950400
-0.910300 0.949400
-0.870700 0.950200
-0.831200 0.951800
-0.791600 0.953400
-0.752100 0.955300
-0.712500 0.957100
-0.673000 0.958900
-0.633400 0.959900
-0.593900 0.961200
-0.554300 0.962400
-0.514700 0.962900
-0.475200 0.963200
-0.435600 0.963000
-0.396100 0.962200
-0.356500 0.961400
-0.317000 0.965700
-0.277400 0.967200
-0.237900 0.967500
-0.198300 0.968000
-0.158800 0.967700
-0.119200 0.966500
-0.079600 0.970000
-0.040100 0.977400
-0.000500 0.985700
0.039000 0.994600
0.078600 1.005400
0.118100 1.017200
0.157700 1.019300
0.197200 1.032300
0.236800 1.091500
0.276400 1.167200
0.315900 1.238500
0.355500 1.317800
0.395000 1.422500
0.434600 1.557300
0.474100 1.661700
0.513700 1.614600
0.553200 1.548000
0.592800 1.479400
0.632300 1.438400
0.671900 1.403500
0.711500 1.390000
0.751000 1.381700
0.790600 1.235300
0.830100 1.144100
0.869700 1.149900
0.909200 1.200800
0.948800 1.431300
0.988300 1.332500
1.027900 1.263500
1.067500 1.315500
1.107000 1.417600
1.146600 1.523700
1.186100 1.720000
1.225700 2.018200
1.265200 2.113700
1.304800 1.955800
1.344300 1.777300
1.383900 1.763400
1.423400 1.792800
1.463000 1.827800
1.502600 1.850400
1.542100 1.854600
1.581700 1.870500
1.621200 1.925500
1.660800 1.938300
1.700300 1.952000
1.739900 1.961800
1.779400 1.938400
1.819000 1.835800
1.858600 1.783900
1.898100 1.741200
1.937700 1.745100
1.977200 1.688200
2.016800 1.591800
2.056300 1.486400
2.095900 1.339700
2.135400 1.228800
2.175000 1.173900
2.214500 1.179600
2.254100 1.220400
2.293700 1.309900
2.333200 1.481000
2.372800 1.871700
2.412300 2.323400
2.451900 2.382400
2.491400 2.531700
2.531000 2.843400
2.570500 2.846500
2.610100 2.755800
2.649700 2.231900
2.689200 1.820400
2.728800 1.317900
2.768300 1.128400
2.807900 1.115100
2.847400 1.159100
2.887000 1.907300
2.926500 2.270800
2.966100 2.663300
3.005600 2.774800
3.045200 3.049700
3.084800 3.926900
3.124300 3.718800
3.163900 3.433200
3.203400 3.378000
3.243000 3.170200
3.282500 3.069500
3.322100 3.242900
3.361600 4.003800
3.401200 3.905600
3.440700 3.835300
3.480300 3.579700
3.519900 3.412500
3.559400 3.464800
3.599000 3.629700
3.638500 3.011800
3.678100 3.418300
3.717600 3.537400
3.757200 4.038800
3.796700 4.591300
3.836300 4.746400
3.875900 3.771900
3.915400 3.268600
3.955000 2.784200
3.994500 1.854300
4.034100 1.563900
4.073600 1.455900
4.113200 1.492900
4.152700 1.550600
4.192300 1.714100
4.231800 2.054100
4.271400 2.537800
4.311000 2.520900
4.350500 3.228300
4.390100 1.784100
4.429600 1.629800
4.469200 1.558200
4.508700 1.499400
4.548300 1.526100
4.587800 1.527200
4.627400 1.447700
4.667000 1.628400
4.706500 1.902300
4.746100 2.185400
4.785600 2.341000
4.825200 2.431300
4.864700 2.507700
4.904300 2.554400
4.943800 2.597900
4.983400 2.011600
5.022900 1.629700
5.062500 1.471900
5.102100 1.409600
5.141600 1.468700
5.181200 1.514400
5.220700 1.545700
5.260300 1.576200
5.299800 1.677000
5.339400 2.145200
5.378900 2.519100
5.418500 2.670700
5.458100 2.750100
5.497600 2.771300
5.537200 2.943500
5.576700 2.911300
5.616300 2.262800
5.655800 2.005000
5.695400 1.904800
5.734900 1.920100
5.774500 1.945000
5.814000 1.985400
5.853600 2.021100
5.893200 2.269400
5.932700 2.396800
5.972300 2.411700
6.011800 2.405700
6.051400 2.405700
6.090900 2.420000
6.130500 2.384800
6.170000 2.454100
6.209600 2.574700
6.249100 2.727500
6.288700 2.968300
6.328300 3.376900
6.367800 3.692200
6.407400 3.801900
6.446900 3.740700
6.486500 3.703600
6.526000 3.793200
6.565600 3.428600
6.605100 3.513700
6.644700 3.275500
6.684300 3.266700
6.723800 3.297500
6.763400 2.277000
6.802900 1.627200
6.842500 1.555600
6.882000 1.541200
6.921600 1.549500
6.961100 1.495200
7.000700 1.418700
7.040200 1.253000
7.079800 1.038300
7.119400 0.958200
7.158900 0.889900
7.198500 0.849400
7.238000 0.813800
7.277600 0.805300
7.317100 0.857100
7.356700 0.913300
7.396200 0.958200
7.435800 0.996900
7.475400 0.992300
7.514900 0.983400
7.554500 0.968100
7.594000 0.951600
7.633600 0.933100
7.673100 0.942200
7.712700 0.949100
7.752200 0.954400
7.791800 0.970000
7.831300 0.995900
7.870900 1.033300
7.910500 1.391600
7.950000 1.735400
7.989600 1.478300
8.029100 1.378400
8.068700 1.347400
8.108200 1.343700
8.147800 1.336000
8.187300 1.225700
8.226900 1.147100
8.266500 1.308000
8.306000 1.130300
8.345600 1.081500
8.385100 1.039400
8.424700 1.004900
8.464200 0.986500
8.503800 1.004900
8.543300 1.055100
8.582900 1.089400
8.622400 1.260800
8.662000 1.469600
8.701600 1.583900
8.741100 1.995800
8.780700 1.797700
8.820200 2.015400
8.859800 2.119600
8.899300 2.062100
8.938900 2.069000
8.978400 2.039500
9.018000 2.249500
9.057600 2.551500
9.097100 2.686900
9.136700 2.582000
9.176200 2.452500
9.215800 2.412300
9.255300 2.403000
9.294900 2.419900
9.334400 2.438500
9.374000 2.463100
9.413500 2.513500
9.453100 2.474500
9.492700 2.374800
9.532200 2.297700
9.571800 2.217600
9.611300 2.200100
9.650900 2.215500
9.690400 2.248700
9.730000 2.344800
9.769500 2.458700
9.809100 2.524800
9.848600 2.549400
9.888200 2.487100
9.927800 2.562800
9.967300 2.507200
10.006900 2.367800
10.046400 2.275500
10.086000 2.237500
10.125500 2.199900
10.165100 2.095200
10.204600 2.031700
10.244200 2.014800
10.283800 1.968800
10.323300 1.947800
10.362900 1.899200
10.402400 1.904700
10.442000 1.925000
10.481500 1.929400
10.521100 1.989300
10.560600 2.091200
10.600200 2.087500
10.639700 2.099500
10.679300 2.088600
10.718900 2.065600
10.758400 2.088300
10.798000 2.108600
10.837500 2.157800
10.877100 2.222600
10.916600 2.504900
10.956200 2.397900
10.995700 2.220700
11.035300 2.161300
11.074900 2.138900
11.114400 2.117800
11.154000 2.074900
11.193500 2.033900
11.233100 2.012600
11.272600 1.971100
11.312200 1.976300
11.351700 1.915600
11.391300 1.902200
11.430800 2.019600
11.470400 2.186400
11.510000 2.273100
11.549500 2.290300
