set title 'mp-978524 - Density of States'
set xlabel 'Energy (eV)'
set ylabel 'DOS (states/eV)'
set grid
set xrange [-10:10]
set yrange [0:11.015]
set xzeroaxis lt -1
set terminal png size 800,600
set output 'mp-978524_dos_gnuplot.png'
plot '-' using 1:2 with lines title 'DOS'
-7.154400 0.000000
-7.129800 0.000000
-7.105200 0.000000
-7.080700 0.000000
-7.056100 0.000000
-7.031500 0.000000
-7.006900 0.000000
-6.982400 0.000000
-6.957800 0.000000
-6.933200 0.000000
-6.908600 0.000000
-6.884100 0.000000
-6.859500 0.000000
-6.834900 0.000000
-6.810300 0.000000
-6.785700 0.000000
-6.761200 0.000000
-6.736600 0.000000
-6.712000 0.000000
-6.687400 0.000000
-6.662900 0.000000
-6.638300 0.000000
-6.613700 0.000000
-6.589100 0.000000
-6.564600 0.000000
-6.540000 0.000000
-6.515400 0.000000
-6.490800 0.000000
-6.466200 0.000000
-6.441700 0.000000
-6.417100 0.000000
-6.392500 0.000000
-6.367900 0.000000
-6.343400 0.000000
-6.318800 0.000000
-6.294200 0.000000
-6.269600 0.000000
-6.245000 0.000000
-6.220500 0.000000
-6.195900 0.000000
-6.171300 0.000000
-6.146700 0.000000
-6.122200 0.000000
-6.097600 0.000000
-6.073000 0.000000
-6.048400 0.000000
-6.023900 0.000000
-5.999300 0.000000
-5.974700 0.000000
-5.950100 0.000000
-5.925500 0.000000
-5.901000 0.000000
-5.876400 0.000000
-5.851800 0.000000
-5.827200 0.000000
-5.802700 0.000000
-5.778100 0.000000
-5.753500 0.000000
-5.728900 0.000000
-5.704400 0.000000
-5.679800 0.000000
-5.655200 0.000000
-5.630600 0.000000
-5.606000 0.000000
-5.581500 0.000000
-5.556900 0.000000
-5.532300 0.000000
-5.507700 0.000000
-5.483200 0.000000
-5.458600 0.000000
-5.434000 0.000000
-5.409400 0.000000
-5.384800 0.000000
-5.360300 0.000000
-5.335700 0.000000
-5.311100 0.000000
-5.286500 0.000000
-5.262000 0.000000
-5.237400 0.000000
-5.212800 0.000000
-5.188200 0.000000
-5.163700 0.000000
-5.139100 0.000000
-5.114500 0.000000
-5.089900 0.000000
-5.065300 0.000000
-5.040800 0.000000
-5.016200 0.000300
-4.991600 0.001900
-4.967000 0.007800
-4.942500 0.022300
-4.917900 0.044800
-4.893300 0.067900
-4.868700 0.088200
-4.844100 0.122800
-4.819600 0.184300
-4.795000 0.227600
-4.770400 0.198200
-4.745800 0.129700
-4.721300 0.105600
-4.696700 0.158900
-4.672100 0.247400
-4.647500 0.302200
-4.623000 0.313300
-4.598400 0.340300
-4.573800 0.387000
-4.549200 0.371600
-4.524600 0.275400
-4.500100 0.181500
-4.475500 0.152200
-4.450900 0.165900
-4.426300 0.188300
-4.401800 0.257400
-4.377200 0.428400
-4.352600 0.622100
-4.328000 0.655900
-4.303500 0.499100
-4.278900 0.325400
-4.254300 0.279900
-4.229700 0.352000
-4.205100 0.438200
-4.180600 0.449600
-4.156000 0.404900
-4.131400 0.376400
-4.106800 0.343700
-4.082300 0.269000
-4.057700 0.229800
-4.033100 0.303200
-4.008500 0.433100
-3.983900 0.512700
-3.959400 0.554200
-3.934800 0.664000
-3.910200 0.819400
-3.885600 0.842100
-3.861100 0.671400
-3.836500 0.468300
-3.811900 0.391900
-3.787300 0.437300
-3.762800 0.487700
-3.738200 0.464700
-3.713600 0.410100
-3.689000 0.390400
-3.664400 0.404100
-3.639900 0.419700
-3.615300 0.429600
-3.590700 0.451400
-3.566100 0.507600
-3.541600 0.615100
-3.517000 0.766000
-3.492400 0.894300
-3.467800 0.923900
-3.443300 0.823300
-3.418700 0.640600
-3.394100 0.527200
-3.369500 0.567500
-3.344900 0.671900
-3.320400 0.744200
-3.295800 0.778100
-3.271200 0.789900
-3.246600 0.750000
-3.222100 0.607200
-3.197500 0.409900
-3.172900 0.282200
-3.148300 0.287600
-3.123700 0.417600
-3.099200 0.623400
-3.074600 0.821200
-3.050000 0.921500
-3.025400 0.903400
-3.000900 0.854000
-2.976300 0.870300
-2.951700 0.966300
-2.927100 1.089300
-2.902600 1.126700
-2.878000 0.980300
-2.853400 0.723200
-2.828800 0.528400
-2.804200 0.451700
-2.779700 0.472500
-2.755100 0.612200
-2.730500 0.838400
-2.705900 1.041000
-2.681400 1.159300
-2.656800 1.186800
-2.632200 1.122200
-2.607600 0.987300
-2.583000 0.825500
-2.558500 0.717100
-2.533900 0.734400
-2.509300 0.847000
-2.484700 0.970100
-2.460200 1.060200
-2.435600 1.110200
-2.411000 1.116700
-2.386400 1.118400
-2.361900 1.144400
-2.337300 1.122000
-2.312700 1.002900
-2.288100 0.847500
-2.263500 0.701000
-2.239000 0.549300
-2.214400 0.431900
-2.189800 0.443500
-2.165200 0.599900
-2.140700 0.802800
-2.116100 0.905000
-2.091500 0.817100
-2.066900 0.632300
-2.042400 0.568400
-2.017800 0.710300
-1.993200 0.914100
-1.968600 1.005500
-1.944000 0.957900
-1.919500 0.876100
-1.894900 0.853700
-1.870300 0.852000
-1.845700 0.813700
-1.821200 0.764400
-1.796600 0.725700
-1.772000 0.730700
-1.747400 0.824800
-1.722800 0.942000
-1.698300 0.996700
-1.673700 1.033500
-1.649100 1.097900
-1.624500 1.172500
-1.600000 1.289000
-1.575400 1.426600
-1.550800 1.404400
-1.526200 1.186200
-1.501700 1.017200
-1.477100 1.022200
-1.452500 1.085300
-1.427900 1.171200
-1.403300 1.320200
-1.378800 1.415900
-1.354200 1.320300
-1.329600 1.116900
-1.305000 0.990000
-1.280500 0.966300
-1.255900 0.962100
-1.231300 0.973300
-1.206700 1.034500
-1.182200 1.064600
-1.157600 0.938300
-1.133000 0.753000
-1.108400 0.775700
-1.083800 1.047900
-1.059300 1.321900
-1.034700 1.419500
-1.010100 1.359600
-0.985500 1.218000
-0.961000 1.125500
-0.936400 1.182000
-0.911800 1.323800
-0.887200 1.415600
-0.862600 1.352300
-0.838100 1.151100
-0.813500 0.936100
-0.788900 0.776300
-0.764300 0.695400
-0.739800 0.743900
-0.715200 0.962400
-0.690600 1.290800
-0.666000 1.527400
-0.641500 1.522600
-0.616900 1.377500
-0.592300 1.282500
-0.567700 1.258200
-0.543100 1.244300
-0.518600 1.305800
-0.494000 1.496000
-0.469400 1.721800
-0.444800 1.867700
-0.420300 1.855000
-0.395700 1.674600
-0.371100 1.431700
-0.346500 1.237500
-0.322000 1.098800
-0.297400 1.009100
-0.272800 1.047900
-0.248200 1.255800
-0.223600 1.522300
-0.199100 1.681900
-0.174500 1.677400
-0.149900 1.595800
-0.125300 1.519900
-0.100800 1.434400
-0.076200 1.361800
-0.051600 1.421200
-0.027000 1.572100
-0.002400 1.597900
0.022100 1.514400
0.046700 1.524100
0.071300 1.604100
0.095900 1.572600
0.120400 1.390800
0.145000 1.150700
0.169600 0.912200
0.194200 0.752800
0.218700 0.797200
0.243300 1.050100
0.267900 1.384300
0.292500 1.661800
0.317100 1.722800
0.341600 1.499400
0.366200 1.246000
0.390800 1.238300
0.415400 1.344500
0.439900 1.287000
0.464500 1.073900
0.489100 0.928500
0.513700 1.018800
0.538300 1.345500
0.562800 1.711100
0.587400 1.854700
0.612000 1.732300
0.636600 1.529400
0.661100 1.390400
0.685700 1.275100
0.710300 1.116300
0.734900 0.980700
0.759400 0.960500
0.784000 1.006700
0.808600 0.992900
0.833200 0.895400
0.857800 0.796800
0.882300 0.767900
0.906900 0.815800
0.931500 0.885900
0.956100 0.956900
0.980600 1.115400
1.005200 1.378500
1.029800 1.599300
1.054400 1.634200
1.078900 1.475300
1.103500 1.244800
1.128100 1.027400
1.152700 0.803700
1.177300 0.654200
1.201800 0.720800
1.226400 0.944500
1.251000 1.146900
1.275600 1.233400
1.300100 1.179300
1.324700 1.049000
1.349300 1.018900
1.373900 1.190800
1.398500 1.461700
1.423000 1.630000
1.447600 1.581700
1.472200 1.411800
1.496800 1.339800
1.521300 1.504100
1.545900 1.877300
1.570500 2.276100
1.595100 2.532300
1.619600 2.805000
1.644200 3.449200
1.668800 4.518800
1.693400 5.692900
1.718000 6.494300
1.742500 6.541900
1.767100 5.887200
1.791700 5.097300
1.816300 4.784300
1.840800 4.986000
1.865400 5.284800
1.890000 5.368400
1.914600 5.129000
1.939100 4.643700
1.963700 4.265600
1.988300 4.301200
2.012900 4.661500
2.037500 5.085400
2.062000 5.441900
2.086600 5.732700
2.111200 6.031400
2.135800 6.419000
2.160300 6.962800
2.184900 7.568600
2.209500 7.978200
2.234100 8.294400
2.258700 8.883800
2.283200 9.598000
2.307800 9.976200
2.332400 10.013400
2.357000 9.938600
2.381500 9.671700
2.406100 9.114500
2.430700 8.404600
2.455300 7.491900
2.479800 6.074700
2.504400 4.277300
2.529000 2.770400
2.553600 1.999300
2.578200 1.862500
2.602700 2.031000
2.627300 2.191700
2.651900 2.260400
2.676500 2.464400
2.701000 3.053900
2.725600 4.039300
2.750200 5.232400
2.774800 6.346800
2.799300 6.851100
2.823900 6.351500
2.848500 5.393300
2.873100 4.803600
2.897700 4.612100
2.922200 4.477200
2.946800 4.334400
2.971400 4.243200
2.996000 4.078700
3.020500 3.623100
3.045100 2.897200
3.069700 2.219000
3.094300 1.963900
3.118900 2.303400
3.143400 3.018900
3.168000 3.593400
3.192600 3.674000
3.217200 3.383100
3.241700 3.052200
3.266300 2.850500
3.290900 2.847700
3.315500 3.093200
3.340000 3.390700
3.364600 3.424000
3.389200 3.226300
3.413800 3.124800
3.438400 3.234900
3.462900 3.303700
3.487500 3.087000
3.512100 2.744100
3.536700 2.642200
3.561200 2.761600
3.585800 2.740000
3.610400 2.519100
3.635000 2.387500
3.659600 2.429900
3.684100 2.423900
3.708700 2.241500
3.733300 2.007700
3.757900 1.874300
3.782400 1.866400
3.807000 1.934400
3.831600 2.055400
3.856200 2.235600
3.880700 2.424000
3.905300 2.482800
3.929900 2.316700
3.954500 2.031600
3.979100 1.830500
4.003600 1.741100
4.028200 1.581200
4.052800 1.259900
4.077400 0.966700
4.101900 0.946300
4.126500 1.197900
4.151100 1.474600
4.175700 1.560100
4.200200 1.509300
4.224800 1.530100
4.249400 1.709000
4.274000 1.993800
4.298600 2.243000
4.323100 2.245100
4.347700 1.923600
4.372300 1.434700
4.396900 1.081300
4.421400 1.098700
4.446000 1.363000
4.470600 1.544700
4.495200 1.561600
4.519800 1.585400
4.544300 1.696000
4.568900 1.800300
4.593500 1.835700
4.618100 1.817300
4.642600 1.685300
4.667200 1.450100
4.691800 1.332400
4.716400 1.487100
4.740900 1.805000
4.765500 2.009900
4.790100 1.931500
4.814700 1.660600
4.839300 1.364800
4.863800 1.117600
4.888400 0.928200
4.913000 0.811700
4.937600 0.778900
4.962100 0.818700
4.986700 0.945500
5.011300 1.164600
5.035900 1.366000
5.060400 1.412900
5.085000 1.300800
5.109600 1.156200
5.134200 1.204800
5.158800 1.576400
5.183300 2.091000
5.207900 2.498500
5.232500 2.708700
5.257100 2.704000
5.281600 2.536600
5.306200 2.351700
5.330800 2.259300
5.355400 2.189100
5.380000 2.025400
5.404500 1.848100
5.429100 1.805600
5.453700 1.926100
5.478300 2.154800
5.502800 2.325300
5.527400 2.245800
5.552000 1.999300
5.576600 1.882400
5.601100 1.997200
5.625700 2.166600
5.650300 2.178300
5.674900 1.944700
5.699500 1.572300
5.724000 1.271900
5.748600 1.181800
5.773200 1.297700
5.797800 1.444700
5.822300 1.432100
5.846900 1.309000
5.871500 1.253200
5.896100 1.307800
5.920700 1.472400
5.945200 1.784100
5.969800 2.184200
5.994400 2.540300
6.019000 2.681400
6.043500 2.408400
6.068100 1.785100
6.092700 1.235300
6.117300 1.158100
6.141800 1.591700
6.166400 2.140300
6.191000 2.319500
6.215600 2.136200
6.240200 1.981800
6.264700 1.986800
6.289300 1.931500
6.313900 1.678700
6.338500 1.344600
6.363000 1.131700
6.387600 1.167000
6.412200 1.377200
6.436800 1.516800
6.461300 1.484700
6.485900 1.442100
6.510500 1.459900
6.535100 1.408100
6.559700 1.265600
6.584200 1.141300
6.608800 1.091700
6.633400 1.208000
6.658000 1.631400
6.682500 2.192200
6.707100 2.386400
6.731700 2.050600
6.756300 1.597800
6.780900 1.397400
6.805400 1.417200
6.830000 1.432100
6.854600 1.299500
6.879200 1.085400
6.903700 0.960900
6.928300 1.005600
6.952900 1.134100
6.977500 1.202600
7.002000 1.161300
7.026600 1.059900
7.051200 1.029400
7.075800 1.255500
7.100400 1.735600
7.124900 2.148500
7.149500 2.156700
7.174100 1.748300
7.198700 1.205600
7.223200 0.863900
7.247800 0.916000
7.272400 1.315800
7.297000 1.866800
7.321500 2.361100
7.346100 2.624300
7.370700 2.651600
7.395300 2.584500
7.419900 2.394400
7.444400 2.001600
7.469000 1.584700
7.493600 1.367900
7.518200 1.362900
7.542700 1.462200
7.567300 1.597600
7.591900 1.758600
7.616500 1.964800
7.641100 2.175000
7.665600 2.254200
7.690200 2.207000
7.714800 2.187400
7.739400 2.194100
7.763900 2.081800
7.788500 1.829500
7.813100 1.603300
7.837700 1.496300
7.862200 1.367600
7.886800 1.165600
7.911400 1.089600
7.936000 1.229100
7.960600 1.416000
7.985100 1.556600
8.009700 1.742300
8.034300 1.917700
8.058900 1.879300
8.083400 1.635600
8.108000 1.388500
8.132600 1.250800
8.157200 1.207700
8.181700 1.200600
8.206300 1.154000
8.230900 1.028400
8.255500 0.921600
8.280100 1.052100
8.304600 1.488500
8.329200 1.982500
8.353800 2.205100
8.378400 2.031200
8.402900 1.554600
8.427500 1.043300
8.452100 0.796700
8.476700 0.846000
8.501300 1.001400
8.525800 1.197400
8.550400 1.488300
8.575000 1.816200
8.599600 1.991800
8.624100 1.894800
8.648700 1.730100
8.673300 1.812200
8.697900 2.101300
8.722400 2.346100
8.747000 2.423600
8.771600 2.303400
8.796200 2.053500
8.820800 1.843100
8.845300 1.718100
8.869900 1.612000
8.894500 1.530800
8.919100 1.563500
8.943600 1.748600
8.968200 1.976900
8.992800 2.063800
9.017400 1.939100
9.042000 1.769300
9.066500 1.756200
9.091100 1.903300
9.115700 2.115200
9.140300 2.282100
9.164800 2.269800
9.189400 2.092900
9.214000 1.976200
9.238600 1.991100
9.263100 1.952900
9.287700 1.837600
9.312300 1.777100
9.336900 1.725100
9.361500 1.609500
9.386000 1.551300
9.410600 1.673000
9.435200 1.894300
9.459800 2.011100
9.484300 1.920200
9.508900 1.694400
9.533500 1.477300
9.558100 1.405200
9.582600 1.528900
9.607200 1.746400
9.631800 1.861500
9.656400 1.736600
9.681000 1.468000
9.705500 1.363100
9.730100 1.626600
9.754700 2.103000
9.779300 2.410400
9.803800 2.344600
9.828400 2.058100
9.853000 1.797600
9.877600 1.590000
9.902200 1.356000
9.926700 1.276600
9.951300 1.634500
9.975900 2.253900
10.000500 2.693700
10.025000 2.903600
10.049600 3.013700
10.074200 2.915200
10.098800 2.570400
10.123300 2.171600
10.147900 1.915700
10.172500 1.883900
10.197100 1.961200
10.221700 1.915000
10.246200 1.713600
10.270800 1.608900
10.295400 1.748100
10.320000 1.980300
10.344500 2.163100
10.369100 2.304100
10.393700 2.394300
10.418300 2.375000
10.442800 2.227200
10.467400 2.050000
10.492000 1.960800
10.516600 1.868900
10.541200 1.688200
10.565700 1.576800
10.590300 1.656200
10.614900 1.861100
10.639500 2.058900
10.664000 2.115600
10.688600 2.032800
10.713200 1.993100
10.737800 2.083000
10.762400 2.112800
10.786900 1.882800
10.811500 1.491900
10.836100 1.244900
10.860700 1.313400
10.885200 1.605500
10.909800 1.929100
10.934400 2.132600
10.959000 2.142900
10.983500 1.964600
11.008100 1.724300
11.032700 1.581000
11.057300 1.507200
11.081900 1.431500
11.106400 1.418100
11.131000 1.503000
11.155600 1.713400
11.180200 2.124300
11.204700 2.568300
11.229300 2.694000
11.253900 2.517300
11.278500 2.434500
11.303000 2.603200
11.327600 2.771800
11.352200 2.715400
11.376800 2.451300
11.401400 2.135300
11.425900 1.953000
11.450500 1.947400
11.475100 1.993600
11.499700 2.008700
11.524200 2.041900
11.548800 2.201700
11.573400 2.551300
11.598000 3.009600
11.622600 3.366200
11.647100 3.375500
11.671700 2.983600
11.696300 2.447400
11.720900 2.052800
11.745400 1.917300
11.770000 2.008300
11.794600 2.151800
11.819200 2.165800
11.843700 2.024100
11.868300 1.806100
11.892900 1.597700
11.917500 1.489500
11.942100 1.514100
11.966600 1.643900
11.991200 1.877800
12.015800 2.148400
12.040400 2.237500
12.064900 2.058600
12.089500 1.848300
12.114100 1.775100
12.138700 1.721000
12.163300 1.568900
12.187800 1.381000
12.212400 1.341300
12.237000 1.564100
12.261600 1.909300
12.286100 2.168100
12.310700 2.339100
12.335300 2.477900
12.359900 2.575500
12.384400 2.731400
12.409000 2.981700
12.433600 3.028700
12.458200 2.615200
12.482800 1.988100
12.507300 1.609600
12.531900 1.665100
12.556500 2.077800
12.581100 2.575500
12.605600 2.773400
12.630200 2.601200
12.654800 2.320400
12.679400 2.006800
12.703900 1.605100
12.728500 1.319500
12.753100 1.373300
12.777700 1.595600
12.802300 1.632300
12.826800 1.470400
12.851400 1.433000
12.876000 1.675300
12.900600 2.028400
12.925100 2.292100
12.949700 2.382000
12.974300 2.276500
12.998900 2.066600
13.023500 1.936600
13.048000 1.985800
13.072600 2.131000
13.097200 2.249700
13.121800 2.362000
13.146300 2.482700
13.170900 2.486600
13.195500 2.326700
13.220100 2.116700
13.244600 1.939800
13.269200 1.836700
13.293800 1.817500
13.318400 1.810600
13.343000 1.857600
13.367500 2.051800
13.392100 2.267900
13.416700 2.314600
13.441300 2.145900
13.465800 1.896600
13.490400 1.816500
13.515000 1.960200
13.539600 2.052500
13.564100 1.904600
13.588700 1.663700
13.613300 1.490700
13.637900 1.380000
13.662500 1.325900
13.687000 1.350500
13.711600 1.421700
13.736200 1.508200
13.760800 1.595600
13.785300 1.668100
13.809900 1.719300
13.834500 1.689600
13.859100 1.517200
13.883700 1.287600
13.908200 1.201200
13.932800 1.366900
13.957400 1.734800
13.982000 2.223200
14.006500 2.663900
14.031100 2.814800
14.055700 2.642700
14.080300 2.309500
14.104800 2.013100
14.129400 1.901900
14.154000 1.909400
14.178600 1.891900
14.203200 1.875300
14.227700 1.862200
14.252300 1.752500
14.276900 1.691300
14.301500 1.981300
14.326000 2.473200
14.350600 2.618200
14.375200 2.265500
14.399800 1.828100
14.424400 1.652700
14.448900 1.744600
14.473500 1.956300
14.498100 2.080400
14.522700 1.980900
14.547200 1.714100
14.571800 1.398600
14.596400 1.165800
14.621000 1.177200
14.645500 1.467700
14.670100 1.868400
14.694700 2.111000
14.719300 2.084300
14.743900 2.005200
14.768400 2.098100
14.793000 2.264100
14.817600 2.289700
14.842200 2.108300
14.866700 1.780400
14.891300 1.458300
14.915900 1.283900
14.940500 1.225800
14.965000 1.229500
14.989600 1.403200
15.014200 1.742200
15.038800 1.932700
15.063400 1.777200
15.087900 1.456700
15.112500 1.200600
15.137100 1.093200
15.161700 1.136100
15.186200 1.309700
15.210800 1.630600
15.235400 2.078200
15.260000 2.405100
15.284600 2.279700
15.309100 1.764600
15.333700 1.287900
15.358300 1.134800
15.382900 1.272700
15.407400 1.512000
15.432000 1.697700
15.456600 1.857700
15.481200 2.063600
15.505700 2.183900
15.530300 2.120000
15.554900 2.110700
15.579500 2.340500
15.604100 2.557700
15.628600 2.500700
15.653200 2.271200
15.677800 2.021400
15.702400 1.743100
15.726900 1.445800
15.751500 1.241700
15.776100 1.242300
15.800700 1.398400
15.825200 1.486900
15.849800 1.397800
15.874400 1.306100
15.899000 1.431200
15.923600 1.820900
15.948100 2.344900
15.972700 2.772800
15.997300 2.934200
16.021900 2.856600
16.046400 2.721200
16.071000 2.554900
16.095600 2.215200
16.120200 1.840200
16.144800 1.795100
16.169300 2.212400
16.193900 2.828400
16.218500 3.154600
16.243100 3.010600
16.267600 2.692800
16.292200 2.381900
16.316800 1.995300
16.341400 1.627500
16.365900 1.555500
16.390500 1.803700
16.415100 2.075600
16.439700 2.191600
16.464300 2.197600
16.488800 2.080800
16.513400 1.843000
16.538000 1.706500
16.562600 1.882900
16.587100 2.223900
16.611700 2.378500
16.636300 2.293500
16.660900 2.242700
16.685400 2.331000
16.710000 2.347100
16.734600 2.131300
16.759200 1.774000
16.783800 1.487800
16.808300 1.478500
16.832900 1.823900
16.857500 2.383100
16.882100 2.880400
16.906600 3.085700
16.931200 2.972600
16.955800 2.736800
16.980400 2.593400
17.005000 2.618800
17.029500 2.721600
17.054100 2.709800
17.078700 2.527500
17.103300 2.338000
17.127800 2.336200
17.152400 2.499100
17.177000 2.575200
17.201600 2.443400
17.226100 2.277900
17.250700 2.244900
17.275300 2.291500
17.299900 2.250300
17.324500 2.032400
17.349000 1.707800
17.373600 1.436200
17.398200 1.358400
17.422800 1.487800
17.447300 1.717700
17.471900 2.007900
17.496500 2.411000
17.521100 2.847200
17.545700 3.069000
17.570200 2.908600
17.594800 2.484900
17.619400 2.095600
17.644000 1.885500
17.668500 1.723100
17.693100 1.490300
17.717700 1.328600
17.742300 1.417900
17.766800 1.723100
17.791400 2.074600
17.816000 2.307400
17.840600 2.353900
17.865200 2.304800
17.889700 2.271500
17.914300 2.247000
17.938900 2.151300
17.963500 1.992500
17.988000 1.928600
18.012600 1.989200
18.037200 2.068600
18.061800 2.237500
18.086300 2.498900
18.110900 2.605600
18.135500 2.467000
18.160100 2.255900
18.184700 2.156900
18.209200 2.182400
18.233800 2.220400
18.258400 2.256200
18.283000 2.326800
18.307500 2.390100
18.332100 2.416200
18.356700 2.469500
18.381300 2.538500
18.405900 2.464100
18.430400 2.249000
18.455000 2.052800
18.479600 1.936200
18.504200 1.949900
18.528700 2.072900
18.553300 2.116600
18.577900 2.035400
18.602500 1.955900
18.627000 1.912800
18.651600 1.860400
18.676200 1.830900
18.700800 1.960400
18.725400 2.270700
18.749900 2.483300
18.774500 2.317800
18.799100 1.888800
18.823700 1.509500
18.848200 1.368000
