set title 'mp-149 - Density of States'
set xlabel 'Energy (eV)'
set ylabel 'DOS (states/eV)'
set grid
set xrange [-10:10]
set yrange [0:2.866]
set xzeroaxis lt -1
set terminal png size 800,600
set output 'mp-149_dos_gnuplot.png'
plot '-' using 1:2 with lines title 'DOS'
-7.535600 0.000000
-7.520800 0.000000
-7.506000 0.000000
-7.491200 0.000000
-7.476400 0.000000
-7.461600 0.000000
-7.446800 0.000000
-7.432000 0.000000
-7.417100 0.000000
-7.402300 0.000000
-7.387500 0.000000
-7.372700 0.000000
-7.357900 0.000000
-7.343100 0.000000
-7.328300 0.000000
-7.313500 0.000000
-7.298700 0.000000
-7.283800 0.000000
-7.269000 0.000000
-7.254200 0.000000
-7.239400 0.000000
-7.224600 0.000000
-7.209800 0.000000
-7.195000 0.000000
-7.180200 0.000000
-7.165400 0.000000
-7.150500 0.000000
-7.135700 0.000000
-7.120900 0.000000
-7.106100 0.000000
-7.091300 0.000000
-7.076500 0.000000
-7.061700 0.000000
-7.046900 0.000000
-7.032100 0.000000
-7.017200 0.000000
-7.002400 0.000000
-6.987600 0.000000
-6.972800 0.000000
-6.958000 0.000000
-6.943200 0.000000
-6.928400 0.000000
-6.913600 0.000000
-6.898800 0.000000
-6.883900 0.000000
-6.869100 0.000000
-6.854300 0.000000
-6.839500 0.000000
-6.824700 0.000000
-6.809900 0.000000
-6.795100 0.000000
-6.780300 0.000000
-6.765400 0.000000
-6.750600 0.000000
-6.735800 0.000000
-6.721000 0.000000
-6.706200 0.000000
-6.691400 0.000000
-6.676600 0.000000
-6.661800 0.000000
-6.647000 0.000000
-6.632100 0.000000
-6.617300 0.000000
-6.602500 0.000000
-6.587700 0.000000
-6.572900 0.000000
-6.558100 0.000000
-6.543300 0.000000
-6.528500 0.000000
-6.513700 0.000000
-6.498800 0.000000
-6.484000 0.000000
-6.469200 0.000000
-6.454400 0.000000
-6.439600 0.000000
-6.424800 0.000000
-6.410000 0.000000
-6.395200 0.000000
-6.380400 0.000000
-6.365500 0.000000
-6.350700 0.000000
-6.335900 0.000000
-6.321100 0.000000
-6.306300 0.000000
-6.291500 0.000000
-6.276700 0.000000
-6.261900 0.000000
-6.247100 0.000000
-6.232200 0.000000
-6.217400 0.000000
-6.202600 0.000000
-6.187800 0.021400
-6.173000 0.047800
-6.158200 0.065700
-6.143400 0.076900
-6.128600 0.087700
-6.113700 0.102500
-6.098900 0.109600
-6.084100 0.115000
-6.069300 0.122600
-6.054500 0.131400
-6.039700 0.140600
-6.024900 0.147000
-6.010100 0.152000
-5.995300 0.157100
-5.980400 0.163000
-5.965600 0.169200
-5.950800 0.175200
-5.936000 0.182000
-5.921200 0.187800
-5.906400 0.192300
-5.891600 0.196200
-5.876800 0.200700
-5.862000 0.205400
-5.847100 0.210100
-5.832300 0.215300
-5.817500 0.220800
-5.802700 0.226400
-5.787900 0.230800
-5.773100 0.234300
-5.758300 0.237800
-5.743500 0.241800
-5.728700 0.245900
-5.713800 0.249900
-5.699000 0.254200
-5.684200 0.258600
-5.669400 0.263000
-5.654600 0.267500
-5.639800 0.272200
-5.625000 0.275700
-5.610200 0.278900
-5.595400 0.282400
-5.580500 0.285900
-5.565700 0.289400
-5.550900 0.292900
-5.536100 0.296600
-5.521300 0.300500
-5.506500 0.304400
-5.491700 0.308400
-5.476900 0.312500
-5.462100 0.316700
-5.447200 0.320300
-5.432400 0.323300
-5.417600 0.326300
-5.402800 0.329500
-5.388000 0.332700
-5.373200 0.336000
-5.358400 0.339500
-5.343600 0.343000
-5.328700 0.346500
-5.313900 0.350100
-5.299100 0.353700
-5.284300 0.357300
-5.269500 0.361100
-5.254700 0.364900
-5.239900 0.368400
-5.225100 0.371400
-5.210300 0.374400
-5.195400 0.377500
-5.180600 0.380700
-5.165800 0.383800
-5.151000 0.387100
-5.136200 0.390300
-5.121400 0.393600
-5.106600 0.396900
-5.091800 0.400300
-5.077000 0.403900
-5.062100 0.407500
-5.047300 0.411200
-5.032500 0.414900
-5.017700 0.418700
-5.002900 0.421900
-4.988100 0.424800
-4.973300 0.427900
-4.958500 0.431000
-4.943700 0.434000
-4.928800 0.437300
-4.914000 0.440600
-4.899200 0.444000
-4.884400 0.447500
-4.869600 0.450900
-4.854800 0.454400
-4.840000 0.458000
-4.825200 0.461600
-4.810400 0.465200
-4.795500 0.468900
-4.780700 0.472600
-4.765900 0.476300
-4.751100 0.479900
-4.736300 0.483400
-4.721500 0.486700
-4.706700 0.490200
-4.691900 0.493700
-4.677000 0.497200
-4.662200 0.500700
-4.647400 0.504400
-4.632600 0.508000
-4.617800 0.511700
-4.603000 0.515500
-4.588200 0.519200
-4.573400 0.523200
-4.558600 0.527300
-4.543700 0.531500
-4.528900 0.535700
-4.514100 0.540000
-4.499300 0.544400
-4.484500 0.548900
-4.469700 0.553200
-4.454900 0.557200
-4.440100 0.561300
-4.425300 0.565400
-4.410400 0.569600
-4.395600 0.573800
-4.380800 0.578300
-4.366000 0.583100
-4.351200 0.587900
-4.336400 0.592900
-4.321600 0.597900
-4.306800 0.603100
-4.292000 0.608400
-4.277100 0.613900
-4.262300 0.619400
-4.247500 0.625100
-4.232700 0.631000
-4.217900 0.637100
-4.203100 0.643300
-4.188300 0.649600
-4.173500 0.656700
-4.158700 0.663500
-4.143800 0.670600
-4.129000 0.677900
-4.114200 0.685700
-4.099400 0.693900
-4.084600 0.702500
-4.069800 0.711600
-4.055000 0.721200
-4.040200 0.731800
-4.025300 0.743000
-4.010500 0.755400
-3.995700 0.769300
-3.980900 0.785500
-3.966100 0.804600
-3.951300 0.830200
-3.936500 0.859500
-3.921700 0.924500
-3.906900 0.911100
-3.892000 0.907400
-3.877200 0.924900
-3.862400 0.918500
-3.847600 0.902900
-3.832800 0.894600
-3.818000 0.885700
-3.803200 0.881400
-3.788400 0.883500
-3.773600 0.877200
-3.758700 0.870400
-3.743900 0.866800
-3.729100 0.861500
-3.714300 0.854600
-3.699500 0.847800
-3.684700 0.841400
-3.669900 0.837200
-3.655100 0.833800
-3.640300 0.829800
-3.625400 0.826100
-3.610600 0.817900
-3.595800 0.810200
-3.581000 0.806200
-3.566200 0.802200
-3.551400 0.797500
-3.536600 0.792200
-3.521800 0.786600
-3.507000 0.781300
-3.492100 0.776200
-3.477300 0.771400
-3.462500 0.766200
-3.447700 0.762800
-3.432900 0.758200
-3.418100 0.752800
-3.403300 0.744400
-3.388500 0.737000
-3.373700 0.732400
-3.358800 0.727600
-3.344000 0.723100
-3.329200 0.718500
-3.314400 0.713500
-3.299600 0.707500
-3.284800 0.701600
-3.270000 0.695600
-3.255200 0.690800
-3.240300 0.686500
-3.225500 0.682500
-3.210700 0.678000
-3.195900 0.673400
-3.181100 0.668800
-3.166300 0.663300
-3.151500 0.655800
-3.136700 0.648600
-3.121900 0.642900
-3.107000 0.637600
-3.092200 0.632600
-3.077400 0.627400
-3.062600 0.622100
-3.047800 0.616500
-3.033000 0.610800
-3.018200 0.605000
-3.003400 0.599700
-2.988600 0.595100
-2.973700 0.590400
-2.958900 0.585800
-2.944100 0.580300
-2.929300 0.574400
-2.914500 0.568600
-2.899700 0.563000
-2.884900 0.557400
-2.870100 0.550900
-2.855300 0.543500
-2.840400 0.536000
-2.825600 0.530500
-2.810800 0.525300
-2.796000 0.519700
-2.781200 0.514200
-2.766400 0.508900
-2.751600 0.503700
-2.736800 0.498200
-2.722000 0.491800
-2.707100 0.485300
-2.692300 0.478300
-2.677500 0.473500
-2.662700 0.470400
-2.647900 0.465900
-2.633100 0.458100
-2.618300 0.451500
-2.603500 0.444800
-2.588600 0.437700
-2.573800 0.430200
-2.559000 0.423600
-2.544200 0.416400
-2.529400 0.406800
-2.514600 0.395800
-2.499800 0.387800
-2.485000 0.380200
-2.470200 0.372700
-2.455300 0.368900
-2.440500 0.362600
-2.425700 0.355800
-2.410900 0.348600
-2.396100 0.340900
-2.381300 0.339000
-2.366500 0.335500
-2.351700 0.330300
-2.336900 0.460000
-2.322000 0.660100
-2.307200 0.436800
-2.292400 0.345000
-2.277600 0.253300
-2.262800 0.210000
-2.248000 0.171900
-2.233200 0.146200
-2.218400 0.125300
-2.203600 0.106200
-2.188700 0.098300
-2.173900 0.080900
-2.159100 0.096400
-2.144300 0.000000
-2.129500 0.000000
-2.114700 0.000000
-2.099900 0.000000
-2.085100 0.000000
-2.070300 0.000000
-2.055400 0.000000
-2.040600 0.000000
-2.025800 0.000000
-2.011000 0.000000
-1.996200 0.000000
-1.981400 0.000000
-1.966600 0.000000
-1.951800 0.000000
-1.936900 0.000000
-1.922100 0.000000
-1.907300 0.206500
-1.892500 0.210200
-1.877700 0.204700
-1.862900 0.235100
-1.848100 0.238600
-1.833300 0.263600
-1.818500 0.305200
-1.803600 0.404400
-1.788800 0.269300
-1.774000 0.274400
-1.759200 0.279600
-1.744400 0.284800
-1.729600 0.288500
-1.714800 0.293600
-1.700000 0.301200
-1.685200 0.308800
-1.670300 0.316400
-1.655500 0.324000
-1.640700 0.331400
-1.625900 0.339200
-1.611100 0.349400
-1.596300 0.361000
-1.581500 0.372800
-1.566700 0.384500
-1.551900 0.395000
-1.537000 0.405000
-1.522200 0.414000
-1.507400 0.424600
-1.492600 0.435300
-1.477800 0.449600
-1.463000 0.458100
-1.448200 0.465900
-1.433400 0.473400
-1.418600 0.482600
-1.403700 0.491700
-1.388900 0.500500
-1.374100 0.509300
-1.359300 0.519500
-1.344500 0.530900
-1.329700 0.544500
-1.314900 0.558700
-1.300100 0.573600
-1.285300 0.588700
-1.270400 0.603400
-1.255600 0.617200
-1.240800 0.659200
-1.226000 0.770500
-1.211200 0.874500
-1.196400 0.967000
-1.181600 1.048100
-1.166800 1.131600
-1.151900 1.219700
-1.137100 1.323100
-1.122300 1.482300
-1.107500 1.642600
-1.092700 2.230900
-1.077900 2.116400
-1.063100 1.823900
-1.048300 1.600700
-1.033500 1.430600
-1.018600 1.340900
-1.003800 1.269800
-0.989000 1.206900
-0.974200 1.152100
-0.959400 1.105100
-0.944600 1.066200
-0.929800 1.033100
-0.915000 1.004400
-0.900200 0.977800
-0.885300 0.952800
-0.870500 0.929400
-0.855700 0.907400
-0.840900 0.887100
-0.826100 0.868500
-0.811300 0.851000
-0.796500 0.834500
-0.781700 0.819100
-0.766900 0.804400
-0.752000 0.790200
-0.737200 0.776500
-0.722400 0.764100
-0.707600 0.752100
-0.692800 0.740600
-0.678000 0.729400
-0.663200 0.718600
-0.648400 0.708100
-0.633600 0.698000
-0.618700 0.688300
-0.603900 0.678900
-0.589100 0.669700
-0.574300 0.660800
-0.559500 0.652100
-0.544700 0.643700
-0.529900 0.635400
-0.515100 0.627800
-0.500200 0.620300
-0.485400 0.613000
-0.470600 0.605900
-0.455800 0.599000
-0.441000 0.592300
-0.426200 0.585800
-0.411400 0.579300
-0.396600 0.572900
-0.381800 0.566600
-0.366900 0.560500
-0.352100 0.554400
-0.337300 0.548500
-0.322500 0.542600
-0.307700 0.537000
-0.292900 0.531700
-0.278100 0.526400
-0.263300 0.521200
-0.248500 0.516100
-0.233600 0.511000
-0.218800 0.506000
-0.204000 0.501000
-0.189200 0.496100
-0.174400 0.491300
-0.159600 0.486500
-0.144800 0.481900
-0.130000 0.477200
-0.115200 0.472600
-0.100300 0.468000
-0.085500 0.463400
-0.070700 0.459200
-0.055900 0.455100
-0.041100 0.451000
-0.026300 0.446900
-0.011500 0.443000
0.003300 0.439100
0.018100 0.435200
0.033000 0.431300
0.047800 0.427500
0.062600 0.423800
0.077400 0.420000
0.092200 0.416300
0.107000 0.412600
0.121800 0.409000
0.136600 0.405400
0.151500 0.401800
0.166300 0.398300
0.181100 0.395100
0.195900 0.391800
0.210700 0.388600
0.225500 0.385300
0.240300 0.382100
0.255100 0.378900
0.269900 0.375700
0.284800 0.372600
0.299600 0.369400
0.314400 0.366300
0.329200 0.363200
0.344000 0.360100
0.358800 0.357100
0.373600 0.354100
0.388400 0.351100
0.403200 0.348100
0.418100 0.345100
0.432900 0.342300
0.447700 0.339600
0.462500 0.336900
0.477300 0.334200
0.492100 0.331500
0.506900 0.328900
0.521700 0.326300
0.536500 0.323700
0.551400 0.321100
0.566200 0.318500
0.581000 0.315900
0.595800 0.313400
0.610600 0.310800
0.625400 0.308300
0.640200 0.305800
0.655000 0.303300
0.669800 0.300900
0.684700 0.298300
0.699500 0.296100
0.714300 0.293800
0.729100 0.291500
0.743900 0.289300
0.758700 0.287000
0.773500 0.284800
0.788300 0.282500
0.803200 0.280300
0.818000 0.278000
0.832800 0.275800
0.847600 0.273600
0.862400 0.271400
0.877200 0.269200
0.892000 0.267100
0.906800 0.264900
0.921600 0.262800
0.936500 0.260700
0.951300 0.258600
0.966100 0.256400
0.980900 0.254400
0.995700 0.252500
1.010500 0.250600
1.025300 0.248700
1.040100 0.246800
1.054900 0.244900
1.069800 0.243000
1.084600 0.241100
1.099400 0.239200
1.114200 0.237400
1.129000 0.235500
1.143800 0.233700
1.158600 0.231800
1.173400 0.230000
1.188200 0.228100
1.203100 0.226300
1.217900 0.224500
1.232700 0.222700
1.247500 0.220900
1.262300 0.219000
1.277100 0.217400
1.291900 0.215700
1.306700 0.214100
1.321500 0.296700
1.336400 0.415300
1.351200 0.460000
1.366000 0.505300
1.380800 0.545700
1.395600 0.608600
1.410400 0.643600
1.425200 0.702600
1.440000 0.747900
1.454800 0.767700
1.469700 0.805300
1.484500 0.844500
1.499300 0.887300
1.514100 0.929900
1.528900 0.976000
1.543700 1.030100
1.558500 1.122300
1.573300 1.201600
1.588200 1.322200
1.603000 1.357200
1.617800 1.316900
1.632600 1.293100
1.647400 1.264800
1.662200 1.253300
1.677000 1.243500
1.691800 1.224700
1.706600 1.207800
1.721500 1.194800
1.736300 1.189600
1.751100 1.179000
1.765900 1.163500
1.780700 1.149300
1.795500 1.130700
1.810300 1.124300
1.825100 1.113200
1.839900 1.097800
1.854800 1.083500
1.869600 1.069700
1.884400 1.057000
1.899200 1.050300
1.914000 1.044100
1.928800 1.038300
1.943600 1.032600
1.958400 1.026900
1.973200 1.020500
1.988100 1.013500
2.002900 1.001700
2.017700 1.034600
2.032500 1.038100
2.047300 1.042600
2.062100 1.035600
2.076900 1.037800
2.091700 1.040600
2.106500 1.043400
2.121400 1.046600
2.136200 1.050000
2.151000 1.049100
2.165800 1.050100
2.180600 1.053400
2.195400 1.056400
2.210200 1.057500
2.225000 1.059100
2.239900 1.061500
2.254700 1.063900
2.269500 1.069100
2.284300 1.072700
2.299100 1.076600
2.313900 1.080800
2.328700 1.084900
2.343500 1.089000
2.358300 1.094500
2.373200 1.101000
2.388000 1.107900
2.402800 1.115300
2.417600 1.123000
2.432400 1.128200
2.447200 1.132500
2.462000 1.136800
2.476800 1.141100
2.491600 1.148100
2.506500 1.156000
2.521300 1.162800
2.536100 1.169000
2.550900 1.175900
2.565700 1.184500
2.580500 1.194600
2.595300 1.205000
2.610100 1.216600
2.624900 1.227400
2.639800 1.238700
2.654600 1.250400
2.669400 1.268100
2.684200 1.282100
2.699000 1.294500
2.713800 1.312700
2.728600 1.331300
2.743400 1.350400
2.758200 1.368400
2.773100 1.388600
2.787900 1.417900
2.802700 1.486800
2.817500 1.552000
2.832300 1.593000
2.847100 1.579600
2.861900 1.561200
2.876700 1.579000
2.891600 1.564300
2.906400 1.546500
2.921200 1.545600
2.936000 1.541600
2.950800 1.537800
2.965600 1.561700
2.980400 1.540100
2.995200 1.526700
3.010000 1.523200
3.024900 1.520300
3.039700 1.513500
3.054500 1.506300
3.069300 1.493400
3.084100 1.488500
3.098900 1.495600
3.113700 1.509600
3.128500 1.492400
3.143300 1.486900
3.158200 1.486000
3.173000 1.481200
3.187800 1.467700
3.202600 1.460300
3.217400 1.456000
3.232200 1.452500
3.247000 1.447600
3.261800 1.444600
3.276600 1.444300
3.291500 1.448500
3.306300 1.438100
3.321100 1.431300
3.335900 1.425900
3.350700 1.425300
3.365500 1.423200
3.380300 1.418700
3.395100 1.412900
3.409900 1.406600
3.424800 1.399500
3.439600 1.392000
3.454400 1.386800
3.469200 1.383400
3.484000 1.382100
3.498800 1.381400
3.513600 1.379300
3.528400 1.379300
3.543200 1.376500
3.558100 1.371500
3.572900 1.366000
3.587700 1.360100
3.602500 1.354200
3.617300 1.347900
3.632100 1.341700
3.646900 1.335700
3.661700 1.329500
3.676600 1.324600
3.691400 1.322100
3.706200 1.322400
3.721000 1.322900
3.735800 1.321800
3.750600 1.317000
3.765400 1.314400
3.780200 1.310200
3.795000 1.305300
3.809900 1.300200
3.824700 1.295300
3.839500 1.290400
3.854300 1.286700
3.869100 1.282800
3.883900 1.278300
3.898700 1.273100
3.913500 1.267100
3.928300 1.262100
3.943200 1.257800
3.958000 1.254200
3.972800 1.251300
3.987600 1.249700
4.002400 1.251100
4.017200 1.249300
4.032000 1.250800
4.046800 1.247600
4.061600 1.243900
4.076500 1.239200
4.091300 1.234400
4.106100 1.228700
4.120900 1.224500
4.135700 1.221700
4.150500 1.218300
4.165300 1.213800
4.180100 1.208200
4.194900 1.203200
4.209800 1.199600
4.224600 1.195100
4.239400 1.191900
4.254200 1.197900
4.269000 1.197500
4.283800 1.192100
4.298600 1.192900
4.313400 1.189800
4.328300 1.190300
4.343100 1.187000
4.357900 1.184800
4.372700 1.175200
4.387500 1.168300
4.402300 1.153800
4.417100 1.118500
4.431900 1.077100
4.446700 1.018200
4.461600 0.950700
4.476400 0.923900
4.491200 0.899300
4.506000 0.876800
4.520800 0.862000
4.535600 0.847300
4.550400 0.805200
4.565200 0.779800
4.580000 0.755700
4.594900 0.732500
4.609700 0.715400
4.624500 0.698100
4.639300 0.679900
4.654100 0.666300
4.668900 0.679300
4.683700 0.642400
4.698500 0.627900
4.713300 0.617400
4.728200 0.607300
4.743000 0.596700
4.757800 0.584000
4.772600 0.573400
4.787400 0.560300
4.802200 0.543300
4.817000 0.529600
4.831800 0.515900
4.846600 0.509100
4.861500 0.496000
4.876300 0.484000
4.891100 0.472800
4.905900 0.462500
4.920700 0.454400
4.935500 0.446500
4.950300 0.437900
4.965100 0.432300
4.980000 0.427600
4.994800 0.418100
5.009600 0.401000
5.024400 0.390100
5.039200 0.388600
5.054000 0.371100
5.068800 0.361900
5.083600 0.353100
5.098400 0.343800
5.113300 0.335000
5.128100 0.327700
5.142900 0.325100
5.157700 0.319800
5.172500 0.313300
5.187300 0.305000
5.202100 0.286100
5.216900 0.277300
5.231700 0.269100
5.246600 0.284900
5.261400 0.257400
5.276200 0.252700
5.291000 0.244900
5.305800 0.236900
5.320600 0.233800
5.335400 0.213600
5.350200 0.204300
5.365000 0.195500
5.379900 0.187200
5.394700 0.178600
5.409500 0.171700
5.424300 0.165100
5.439100 0.172800
5.453900 0.152500
5.468700 0.140600
5.483500 0.128400
5.498300 0.129000
5.513200 0.099400
5.528000 0.078300
5.542800 0.067100
5.557600 0.089700
5.572400 0.055200
5.587200 0.028000
5.602000 0.000000
5.616800 0.000000
5.631600 0.000000
5.646500 0.000000
5.661300 0.000000
5.676100 0.000000
5.690900 0.000000
5.705700 0.000000
5.720500 0.000000
5.735300 0.000000
5.750100 0.000000
5.765000 0.000000
5.779800 0.000000
5.794600 0.000000
5.809400 0.000000
5.824200 0.000000
5.839000 0.000000
5.853800 0.000000
5.868600 0.000000
5.883400 0.000000
5.898300 0.000000
5.913100 0.000000
5.927900 0.000000
5.942700 0.000000
5.957500 0.000000
5.972300 0.000000
5.987100 0.000000
6.001900 0.000000
6.016700 0.000000
6.031600 0.000000
6.046400 0.000000
6.061200 0.000000
6.076000 0.000000
6.090800 0.000000
6.105600 0.000000
6.120400 0.000000
6.135200 0.000000
6.150000 0.000000
6.164900 0.000000
6.179700 0.000000
6.194500 0.000000
6.209300 0.000000
6.224100 0.000000
6.238900 0.000000
6.253700 0.000000
6.268500 0.144600
6.283300 0.066100
6.298200 0.074500
6.313000 0.083800
6.327800 0.099400
6.342600 0.116400
6.357400 0.135200
6.372200 0.150100
6.387000 0.166900
6.401800 0.184200
6.416700 0.222100
6.431500 0.241900
6.446300 0.232800
6.461100 0.208800
6.475900 0.228900
6.490700 0.242300
6.505500 0.256000
6.520300 0.269900
6.535100 0.309300
6.550000 0.313400
6.564800 0.318300
6.579600 0.330400
6.594400 0.338200
6.609200 0.347800
6.624000 0.359100
6.638800 0.371000
6.653600 0.377100
6.668400 0.395100
6.683300 0.398600
6.698100 0.399400
6.712900 0.407600
6.727700 0.415700
6.742500 0.422700
6.757300 0.430100
6.772100 0.438600
6.786900 0.447600
6.801700 0.457200
6.816600 0.467500
6.831400 0.491100
6.846200 0.498900
6.861000 0.501400
6.875800 0.506600
6.890600 0.514100
6.905400 0.521800
6.920200 0.529100
6.935000 0.536100
6.949900 0.543300
6.964700 0.551900
6.979500 0.560300
6.994300 0.569100
7.009100 0.575500
7.023900 0.583100
7.038700 0.600500
7.053500 0.610300
7.068400 0.615600
7.083200 0.618800
7.098000 0.625500
7.112800 0.636500
7.127600 0.650200
7.142400 0.666800
7.157200 0.688700
7.172000 0.706500
7.186800 0.739100
7.201700 0.736000
7.216500 0.750400
7.231300 0.764700
7.246100 0.783200
7.260900 0.810800
7.275700 0.826100
7.290500 0.838100
7.305300 0.852100
7.320100 0.863000
7.335000 0.873200
7.349800 0.884200
7.364600 0.898300
7.379400 0.916700
7.394200 0.935400
7.409000 0.944100
7.423800 0.957000
7.438600 0.970900
7.453400 0.985700
7.468300 1.000500
7.483100 1.016900
7.497900 1.034200
7.512700 1.051800
7.527500 1.071700
7.542300 1.093500
7.557100 1.120900
7.571900 1.142500
7.586700 1.154000
7.601600 1.170900
7.616400 1.190200
7.631200 1.211000
7.646000 1.234400
7.660800 1.259800
7.675600 1.287600
7.690400 1.317000
7.705200 1.348200
7.720000 1.382200
7.734900 1.420300
7.749700 1.466900
7.764500 1.581600
7.779300 1.628800
7.794100 1.672200
7.808900 1.703700
7.823700 1.704100
7.838500 1.661000
7.853400 1.672000
7.868200 1.683500
7.883000 1.671100
7.897800 1.664900
7.912600 1.679500
7.927400 1.701700
7.942200 1.672000
7.957000 1.658200
7.971800 1.642300
7.986700 1.626300
8.001500 1.618800
8.016300 1.613200
8.031100 1.616000
8.045900 1.612400
8.060700 1.564200
8.075500 1.552500
8.090300 1.548200
8.105100 1.534800
8.120000 1.548000
8.134800 1.510300
8.149600 1.541700
8.164400 1.496800
8.179200 1.434400
8.194000 1.396500
8.208800 1.365900
8.223600 1.332900
8.238400 1.303700
8.253300 1.277800
