set title 'mp-568867 - Density of States'
set xlabel 'Energy (eV)'
set ylabel 'DOS (states/eV)'
set grid
set xrange [-10:10]
set yrange [0:30.975]
set xzeroaxis lt -1
set terminal png size 800,600
set output 'mp-568867_dos_gnuplot.png'
plot '-' using 1:2 with lines title 'DOS'
-16.624000 0.000000
-16.603900 0.000000
-16.583800 0.000000
-16.563600 0.000000
-16.543500 0.000000
-16.523300 0.000000
-16.503200 0.000000
-16.483100 0.000000
-16.462900 0.000000
-16.442800 0.000000
-16.422600 0.000000
-16.402500 0.000000
-16.382400 0.000000
-16.362200 0.000000
-16.342100 0.000000
-16.322000 0.000000
-16.301800 0.000000
-16.281700 0.000000
-16.261500 0.000000
-16.241400 0.000000
-16.221300 0.000000
-16.201100 0.000000
-16.181000 0.000000
-16.160800 0.000000
-16.140700 0.000000
-16.120600 0.000000
-16.100400 0.000000
-16.080300 0.000000
-16.060100 0.000000
-16.040000 0.000000
-16.019900 0.000000
-15.999700 0.000000
-15.979600 0.000000
-15.959400 0.000000
-15.939300 0.000000
-15.919200 0.000000
-15.899000 0.000000
-15.878900 0.000000
-15.858700 0.000000
-15.838600 0.000000
-15.818500 0.000000
-15.798300 0.000000
-15.778200 0.000000
-15.758100 0.000000
-15.737900 0.000000
-15.717800 0.000000
-15.697600 0.000000
-15.677500 0.000000
-15.657400 0.000000
-15.637200 0.000000
-15.617100 0.000000
-15.596900 0.000000
-15.576800 0.000000
-15.556700 0.000000
-15.536500 0.000000
-15.516400 0.000000
-15.496200 0.000000
-15.476100 0.000000
-15.456000 0.000000
-15.435800 0.000000
-15.415700 0.000000
-15.395500 0.000000
-15.375400 0.000000
-15.355300 0.000000
-15.335100 0.000000
-15.315000 0.000000
-15.294800 0.000000
-15.274700 0.000000
-15.254600 0.000000
-15.234400 0.000000
-15.214300 0.000000
-15.194200 0.000000
-15.174000 0.000000
-15.153900 0.000000
-15.133700 0.000000
-15.113600 0.000000
-15.093500 0.000000
-15.073300 0.000000
-15.053200 0.000000
-15.033000 0.000000
-15.012900 0.000000
-14.992800 0.000000
-14.972600 0.000000
-14.952500 0.000000
-14.932300 0.000000
-14.912200 0.000000
-14.892100 0.000000
-14.871900 0.000000
-14.851800 0.000000
-14.831600 0.000000
-14.811500 0.000000
-14.791400 0.216400
-14.771200 6.353300
-14.751100 6.353300
-14.730900 6.353300
-14.710800 6.353300
-14.690700 6.353300
-14.670500 6.353300
-14.650400 6.353300
-14.630300 5.056900
-14.610100 2.216600
-14.590000 2.216600
-14.569800 2.216600
-14.549700 2.216600
-14.529600 2.216600
-14.509400 2.216600
-14.489300 2.216600
-14.469100 2.216600
-14.449000 2.216600
-14.428900 2.216600
-14.408700 2.216600
-14.388600 2.216600
-14.368400 2.216600
-14.348300 2.216600
-14.328200 2.216600
-14.308000 2.216600
-14.287900 2.216600
-14.267700 2.216600
-14.247600 2.216600
-14.227500 2.216600
-14.207300 2.216600
-14.187200 2.216600
-14.167100 1.564200
-14.146900 1.564200
-14.126800 1.564200
-14.106600 1.564200
-14.086500 1.564200
-14.066400 1.564200
-14.046200 1.564200
-14.026100 1.564200
-14.005900 1.564200
-13.985800 1.564200
-13.965700 1.564200
-13.945500 1.564200
-13.925400 1.564200
-13.905200 1.564200
-13.885100 1.564200
-13.865000 1.564200
-13.844800 1.564200
-13.824700 1.564200
-13.804500 1.564200
-13.784400 1.564200
-13.764300 1.564200
-13.744100 1.564200
-13.724000 1.564200
-13.703800 1.564200
-13.683700 1.564200
-13.663600 1.564200
-13.643400 1.564200
-13.623300 1.564200
-13.603200 1.564200
-13.583000 1.564200
-13.562900 1.564200
-13.542700 1.565600
-13.522600 2.508000
-13.502500 2.508000
-13.482300 2.508000
-13.462200 2.508000
-13.442000 2.508000
-13.421900 2.508000
-13.401800 2.508000
-13.381600 2.508000
-13.361500 2.508000
-13.341300 2.508000
-13.321200 2.508000
-13.301100 2.508000
-13.280900 2.508000
-13.260800 2.508000
-13.240600 2.508000
-13.220500 2.508000
-13.200400 2.508000
-13.180200 2.508000
-13.160100 2.508000
-13.139900 1.243700
-13.119800 0.000000
-13.099700 0.000000
-13.079500 0.000000
-13.059400 0.000000
-13.039300 0.000000
-13.019100 0.000000
-12.999000 0.000000
-12.978800 0.000000
-12.958700 0.000000
-12.938600 0.000000
-12.918400 0.000000
-12.898300 0.000000
-12.878100 0.000000
-12.858000 0.000000
-12.837900 0.000000
-12.817700 0.000000
-12.797600 0.000000
-12.777400 0.000000
-12.757300 0.000000
-12.737200 0.000000
-12.717000 0.000000
-12.696900 0.000000
-12.676700 0.000000
-12.656600 0.000000
-12.636500 0.000000
-12.616300 0.000000
-12.596200 0.000000
-12.576100 0.000000
-12.555900 0.000000
-12.535800 0.000000
-12.515600 0.000000
-12.495500 0.000000
-12.475400 0.000000
-12.455200 0.000000
-12.435100 0.000000
-12.414900 0.000000
-12.394800 0.000000
-12.374700 0.000000
-12.354500 0.000000
-12.334400 0.000000
-12.314200 0.000000
-12.294100 0.000000
-12.274000 0.000000
-12.253800 0.000000
-12.233700 0.000000
-12.213500 0.000000
-12.193400 0.000000
-12.173300 0.000000
-12.153100 0.000000
-12.133000 0.000000
-12.112800 0.000000
-12.092700 0.000000
-12.072600 0.000000
-12.052400 0.000000
-12.032300 0.000000
-12.012200 0.000000
-11.992000 0.000000
-11.971900 0.000000
-11.951700 0.000000
-11.931600 0.000000
-11.911500 0.000000
-11.891300 0.000000
-11.871200 0.000000
-11.851000 0.000000
-11.830900 0.000000
-11.810800 0.000000
-11.790600 0.000000
-11.770500 0.000000
-11.750300 0.000000
-11.730200 0.000000
-11.710100 0.000000
-11.689900 0.000000
-11.669800 0.000000
-11.649600 0.000000
-11.629500 0.000000
-11.609400 0.000000
-11.589200 0.000000
-11.569100 0.000000
-11.548900 0.000000
-11.528800 0.000000
-11.508700 0.000000
-11.488500 0.000000
-11.468400 0.000000
-11.448300 0.000000
-11.428100 0.000000
-11.408000 0.000000
-11.387800 0.000000
-11.367700 0.000000
-11.347600 0.000000
-11.327400 0.000000
-11.307300 0.000000
-11.287100 0.000000
-11.267000 0.000000
-11.246900 0.000000
-11.226700 0.000000
-11.206600 0.000000
-11.186400 0.000000
-11.166300 0.000000
-11.146200 0.000000
-11.126000 0.000000
-11.105900 0.000000
-11.085700 0.000000
-11.065600 0.000000
-11.045500 0.000000
-11.025300 0.000000
-11.005200 0.000000
-10.985000 0.000000
-10.964900 0.000000
-10.944800 0.000000
-10.924600 0.000000
-10.904500 0.000000
-10.884400 0.000000
-10.864200 0.000000
-10.844100 0.000000
-10.823900 0.000000
-10.803800 0.000000
-10.783700 0.000000
-10.763500 0.000000
-10.743400 0.000000
-10.723200 0.000000
-10.703100 0.000000
-10.683000 0.000000
-10.662800 0.000000
-10.642700 0.000000
-10.622500 0.000000
-10.602400 0.000000
-10.582300 0.000000
-10.562100 0.000000
-10.542000 0.000000
-10.521800 0.000000
-10.501700 0.000000
-10.481600 0.000000
-10.461400 0.000000
-10.441300 0.000000
-10.421200 0.000000
-10.401000 0.000000
-10.380900 0.000000
-10.360700 0.000000
-10.340600 0.000000
-10.320500 2.106500
-10.300300 6.295000
-10.280200 7.956100
-10.260000 8.492200
-10.239900 10.247500
-10.219800 10.245000
-10.199600 10.029700
-10.179500 6.608200
-10.159300 5.440500
-10.139200 5.431800
-10.119100 5.423900
-10.098900 5.416900
-10.078800 5.410700
-10.058600 5.405200
-10.038500 5.400600
-10.018400 5.396700
-9.998200 5.646300
-9.978100 5.784600
-9.957900 5.932300
-9.937800 6.089400
-9.917700 7.738600
-9.897500 13.773500
-9.877400 11.406700
-9.857300 10.062500
-9.837100 9.470000
-9.817000 8.600900
-9.796800 7.591400
-9.776700 6.642300
-9.756600 5.806700
-9.736400 5.159700
-9.716300 4.701700
-9.696100 2.882100
-9.676000 3.284800
-9.655900 4.034700
-9.635700 5.403600
-9.615600 6.835400
-9.595400 7.667700
-9.575300 9.739900
-9.555200 10.839100
-9.535000 10.794400
-9.514900 10.608600
-9.494700 10.277300
-9.474600 9.493800
-9.454500 8.706000
-9.434300 8.510500
-9.414200 8.493100
-9.394000 8.462500
-9.373900 8.426800
-9.353800 8.386100
-9.333600 8.105500
-9.313500 7.609600
-9.293400 5.472900
-9.273200 4.089800
-9.253100 2.973400
-9.232900 2.153700
-9.212800 2.100200
-9.192700 2.055600
-9.172500 20.634900
-9.152400 25.471600
-9.132200 17.391900
-9.112100 11.840500
-9.092000 10.595500
-9.071800 9.870500
-9.051700 9.535300
-9.031500 9.165100
-9.011400 8.760100
-8.991300 8.329100
-8.971100 7.696700
-8.951000 7.090200
-8.930800 6.416700
-8.910700 5.803500
-8.890600 5.573800
-8.870400 5.131700
-8.850300 4.982500
-8.830100 4.625000
-8.810000 4.270500
-8.789900 3.965600
-8.769700 3.685800
-8.749600 3.431300
-8.729500 3.201900
-8.709300 2.997800
-8.689200 2.505800
-8.669000 2.240600
-8.648900 2.121300
-8.628800 2.145300
-8.608600 2.312700
-8.588500 2.622500
-8.568300 3.000500
-8.548200 3.800400
-8.528100 4.272500
-8.507900 4.349700
-8.487800 4.418900
-8.467600 4.486100
-8.447500 4.570700
-8.427400 4.637100
-8.407200 4.685400
-8.387100 4.953200
-8.366900 4.754000
-8.346800 4.539800
-8.326700 4.310600
-8.306500 4.066400
-8.286400 3.807200
-8.266300 3.532900
-8.246100 2.168200
-8.226000 2.176300
-8.205800 2.185000
-8.185700 2.194300
-8.165600 2.204300
-8.145400 2.391400
-8.125300 15.065100
-8.105100 28.043000
-8.085000 21.631900
-8.064900 16.585500
-8.044700 15.824700
-8.024600 20.856000
-8.004400 20.652200
-7.984300 19.613800
-7.964200 18.167600
-7.944000 14.065300
-7.923900 13.080500
-7.903700 19.315000
-7.883600 12.347800
-7.863500 16.033500
-7.843300 18.634600
-7.823200 18.948300
-7.803000 15.177800
-7.782900 12.234500
-7.762800 10.407800
-7.742600 10.615000
-7.722500 9.372000
-7.702400 12.703100
-7.682200 8.795300
-7.662100 8.647400
-7.641900 8.548300
-7.621800 8.951700
-7.601700 10.779800
-7.581500 12.298200
-7.561400 14.865600
-7.541200 14.371600
-7.521100 20.067000
-7.501000 11.345900
-7.480800 9.751100
-7.460700 9.194200
-7.440500 8.515500
-7.420400 7.590900
-7.400300 6.191000
-7.380100 6.858500
-7.360000 6.427000
-7.339800 6.281400
-7.319700 5.962000
-7.299600 6.193700
-7.279400 6.453700
-7.259300 6.742200
-7.239100 5.399200
-7.219000 4.851800
-7.198900 4.570200
-7.178700 4.654800
-7.158600 4.824300
-7.138500 4.725200
-7.118300 4.210400
-7.098200 3.691800
-7.078000 3.169500
-7.057900 2.660200
-7.037800 2.272000
-7.017600 1.689100
-6.997500 1.257300
-6.977300 0.984500
-6.957200 0.840500
-6.937100 0.786200
-6.916900 0.785700
-6.896800 0.785700
-6.876600 0.785700
-6.856500 0.785700
-6.836400 0.785700
-6.816200 0.785700
-6.796100 0.785700
-6.775900 0.785800
-6.755800 0.785800
-6.735700 0.785800
-6.715500 0.785800
-6.695400 0.785800
-6.675200 0.785900
-6.655100 0.785900
-6.635000 0.785900
-6.614800 0.785900
-6.594700 0.786000
-6.574600 0.786000
-6.554400 0.786000
-6.534300 0.786100
-6.514100 0.786100
-6.494000 0.786100
-6.473900 0.786200
-6.453700 0.786200
-6.433600 0.786200
-6.413400 0.786300
-6.393300 0.786300
-6.373200 0.786400
-6.353000 0.786400
-6.332900 0.786500
-6.312700 0.786500
-6.292600 0.786600
-6.272500 0.786600
-6.252300 0.786700
-6.232200 0.786700
-6.212000 0.786800
-6.191900 0.786800
-6.171800 0.786900
-6.151600 0.787000
-6.131500 0.787000
-6.111400 0.787100
-6.091200 0.787100
-6.071100 0.787200
-6.050900 0.787300
-6.030800 0.787400
-6.010700 0.787400
-5.990500 0.787500
-5.970400 0.787600
-5.950200 0.787600
-5.930100 0.787700
-5.910000 0.787800
-5.889800 0.787900
-5.869700 0.788000
-5.849500 0.788000
-5.829400 0.806800
-5.809300 0.824100
-5.789100 0.824100
-5.769000 0.824100
-5.748800 0.824100
-5.728700 0.824100
-5.708600 0.824100
-5.688400 0.824100
-5.668300 0.824000
-5.648100 0.824000
-5.628000 0.824000
-5.607900 0.824000
-5.587700 0.824000
-5.567600 0.824000
-5.547500 0.824000
-5.527300 0.824000
-5.507200 0.824000
-5.487000 0.824000
-5.466900 0.824000
-5.446800 0.824000
-5.426600 0.824000
-5.406500 0.824000
-5.386300 0.824000
-5.366200 0.824000
-5.346100 0.824000
-5.325900 0.824000
-5.305800 0.824000
-5.285600 0.824000
-5.265500 0.824000
-5.245400 0.823900
-5.225200 0.823900
-5.205100 0.823900
-5.184900 0.823900
-5.164800 0.823900
-5.144700 0.823900
-5.124500 0.823900
-5.104400 0.823900
-5.084200 0.823900
-5.064100 0.823900
-5.044000 0.823900
-5.023800 0.823900
-5.003700 0.823900
-4.983600 0.823900
-4.963400 0.823900
-4.943300 0.823900
-4.923100 0.823900
-4.903000 0.823900
-4.882900 0.823900
-4.862700 0.823900
-4.842600 0.823900
-4.822400 0.823900
-4.802300 0.823900
-4.782200 0.823900
-4.762000 0.823900
-4.741900 0.823900
-4.721700 0.823900
-4.701600 0.823900
-4.681500 0.823900
-4.661300 0.808900
-4.641200 0.655600
-4.621000 0.482700
-4.600900 0.252700
-4.580800 0.000000
-4.560600 0.000000
-4.540500 0.000000
-4.520300 0.000000
-4.500200 0.000000
-4.480100 0.000000
-4.459900 0.000000
-4.439800 0.000000
-4.419700 0.000000
-4.399500 0.000000
-4.379400 0.000000
-4.359200 0.000000
-4.339100 0.000000
-4.319000 0.000000
-4.298800 0.000000
-4.278700 0.000000
-4.258500 0.000000
-4.238400 0.000000
-4.218300 0.000000
-4.198100 0.000000
-4.178000 0.000000
-4.157800 0.000000
-4.137700 0.000000
-4.117600 0.000000
-4.097400 0.000000
-4.077300 0.000000
-4.057100 0.000000
-4.037000 0.000000
-4.016900 0.000000
-3.996700 0.000000
-3.976600 0.000000
-3.956500 0.000000
-3.936300 0.000000
-3.916200 0.000000
-3.896000 0.000000
-3.875900 0.000000
-3.855800 0.000000
-3.835600 0.000000
-3.815500 0.000000
-3.795300 0.000000
-3.775200 0.000000
-3.755100 0.000000
-3.734900 0.000000
-3.714800 0.000000
-3.694600 0.000000
-3.674500 0.000000
-3.654400 0.000000
-3.634200 0.000000
-3.614100 0.000000
-3.593900 0.000000
-3.573800 0.000000
-3.553700 0.000000
-3.533500 0.000000
-3.513400 0.000000
-3.493200 0.000000
-3.473100 0.000000
-3.453000 0.000000
-3.432800 0.003300
-3.412700 0.065300
-3.392600 0.205900
-3.372400 0.425100
-3.352300 0.722800
-3.332100 1.099000
-3.312000 1.553800
-3.291900 2.087200
-3.271700 3.020600
-3.251600 3.266600
-3.231400 3.419600
-3.211300 3.479600
-3.191200 3.446700
-3.171000 3.170600
-3.150900 3.213700
-3.130700 3.233300
-3.110600 3.195200
-3.090500 3.276100
-3.070300 3.358900
-3.050200 3.336100
-3.030000 3.291900
-3.009900 3.245300
-2.989800 3.196400
-2.969600 3.145100
-2.949500 3.091500
-2.929300 4.012500
-2.909200 4.473500
-2.889100 4.983800
-2.868900 5.803500
-2.848800 6.578400
-2.828700 6.987700
-2.808500 7.282900
-2.788400 7.489400
-2.768200 7.742200
-2.748100 7.017200
-2.728000 6.965900
-2.707800 6.892100
-2.687700 6.770300
-2.667500 6.429500
-2.647400 6.000400
-2.627300 6.135300
-2.607100 5.427900
-2.587000 4.744700
-2.566800 4.121000
-2.546700 3.594700
-2.526600 3.164400
-2.506400 2.830300
-2.486300 2.584000
-2.466100 1.908400
-2.446000 1.378900
-2.425900 1.689100
-2.405700 2.444100
-2.385600 3.446100
-2.365400 4.590500
-2.345300 9.440100
-2.325200 11.803200
-2.305000 12.571400
-2.284900 13.949200
-2.264800 17.130900
-2.244600 19.590300
-2.224500 20.878000
-2.204300 19.578100
-2.184200 20.171100
-2.164100 13.849700
-2.143900 8.940400
-2.123800 7.380800
-2.103600 5.942500
-2.083500 4.625800
-2.063400 3.430400
-2.043200 2.356500
-2.023100 0.982800
-2.002900 0.243200
-1.982800 0.000100
-1.962700 1.894600
-1.942500 5.215200
-1.922400 7.677800
-1.902200 7.462900
-1.882100 6.898000
-1.862000 7.060800
-1.841800 6.469600
-1.821700 5.665700
-1.801600 4.681100
-1.781400 4.841800
-1.761300 5.218100
-1.741100 5.739000
-1.721000 6.601000
-1.700900 7.807500
-1.680700 7.808000
-1.660600 7.678600
-1.640400 7.647600
-1.620300 7.680200
-1.600200 7.708100
-1.580000 7.727100
-1.559900 7.737200
-1.539700 7.738400
-1.519600 7.730600
-1.499500 7.706800
-1.479300 7.698000
-1.459200 7.727200
-1.439000 7.794300
-1.418900 8.120900
-1.398800 8.054700
-1.378600 7.932600
-1.358500 7.804600
-1.338300 7.695500
-1.318200 7.610900
-1.298100 7.296200
-1.277900 7.087600
-1.257800 7.010300
-1.237700 7.175200
-1.217500 7.469500
-1.197400 7.741800
-1.177200 7.992100
-1.157100 7.796400
-1.137000 4.039000
-1.116800 4.389000
-1.096700 4.468300
-1.076500 4.562500
-1.056400 4.671500
-1.036300 4.850400
-1.016100 5.258100
-0.996000 6.118900
-0.975800 6.613500
-0.955700 7.230300
-0.935600 7.969400
-0.915400 7.592800
-0.895300 7.105500
-0.875100 10.545100
-0.855000 7.664400
-0.834900 5.536700
-0.814700 4.459200
-0.794600 3.566600
-0.774400 2.858800
-0.754300 2.431100
-0.734200 5.001700
-0.714000 8.709700
-0.693900 12.581900
-0.673800 13.673400
-0.653600 16.590500
-0.633500 17.316300
-0.613300 16.018500
-0.593200 12.810700
-0.573100 11.247500
-0.552900 10.518800
-0.532800 9.652500
-0.512600 8.546500
-0.492500 7.648200
-0.472400 6.834500
-0.452200 6.101400
-0.432100 5.541300
-0.411900 4.845200
-0.391800 3.971600
-0.371700 2.696200
-0.351500 1.733400
-0.331400 0.845500
-0.311200 0.791200
-0.291100 1.322000
-0.271000 1.625800
-0.250800 2.001600
-0.230700 2.449400
-0.210500 2.969300
-0.190400 3.561100
-0.170300 4.225000
-0.150100 4.907700
-0.130000 5.822400
-0.109900 6.715700
-0.089700 7.448300
-0.069600 7.166500
-0.049400 8.266500
-0.029300 9.469100
-0.009200 9.284300
0.011000 9.020300
0.031100 9.087100
0.051300 9.461400
0.071400 9.029300
0.091500 8.699000
0.111700 8.514500
0.131800 8.475100
0.152000 8.835400
0.172100 8.804000
0.192200 8.557900
0.212400 8.283300
0.232500 7.723200
0.252700 7.341100
0.272800 6.355000
0.292900 5.511300
0.313100 4.779100
0.333200 4.203500
0.353300 3.787100
0.373500 3.530000
0.393600 3.460300
0.413800 3.670100
0.433900 4.171500
0.454000 4.960400
0.474200 6.247800
0.494300 10.419800
0.514500 16.073600
0.534600 19.538700
0.554700 21.982600
0.574900 21.177800
0.595000 18.847800
0.615200 16.221000
0.635300 15.879900
0.655400 11.727500
0.675600 7.520200
0.695700 4.583900
0.715900 2.616800
0.736000 1.490100
0.756100 1.568100
0.776300 1.976200
0.796400 2.458300
0.816600 3.014300
0.836700 5.052500
0.856800 11.745500
0.877000 10.399800
0.897100 10.598800
0.917200 13.460000
0.937400 16.578400
0.957500 16.677300
0.977700 18.580900
0.997800 20.505800
1.017900 16.094100
1.038100 12.282000
1.058200 9.972500
1.078400 5.095600
1.098500 5.583200
1.118600 10.364700
1.138800 10.598800
1.158900 10.786500
1.179100 11.175200
1.199200 11.883000
1.219300 11.360100
1.239500 10.341500
1.259600 9.281600
1.279800 9.848400
1.299900 11.292100
1.320000 13.187000
1.340200 14.147700
1.360300 11.564200
1.380500 11.425500
1.400600 11.832500
1.420700 11.620000
1.440900 9.840400
1.461000 8.047500
1.481100 6.225600
1.501300 4.817100
1.521400 3.559900
1.541600 3.293200
1.561700 4.365400
1.581800 11.897700
1.602000 12.516300
1.622100 11.747500
1.642300 10.764100
1.662400 9.565900
1.682500 8.153100
1.702700 6.606300
1.722800 4.427500
1.743000 4.891700
1.763100 6.405700
1.783200 7.805900
1.803400 11.387600
1.823500 13.382500
1.843700 14.035400
1.863800 13.983800
1.883900 10.854400
1.904100 9.472300
1.924200 8.566500
1.944300 8.049100
1.964500 7.415600
1.984600 6.934000
2.004800 7.328700
2.024900 7.993000
2.045000 8.947600
2.065200 14.783900
2.085300 20.897200
2.105500 19.360200
2.125600 20.506800
2.145700 17.254000
2.165900 14.106500
2.186000 13.495900
2.206200 14.708500
2.226300 16.736000
2.246400 11.526500
2.266600 7.028200
2.286700 12.497600
2.306900 17.331900
2.327000 19.179700
2.347100 17.034700
2.367300 14.765000
2.387400 12.489200
2.407600 11.531100
2.427700 8.613800
2.447800 7.822200
2.468000 6.905300
2.488100 7.341400
2.508200 8.004800
2.528400 8.661300
2.548500 9.300900
2.568700 10.085600
2.588800 12.707800
2.608900 14.323000
2.629100 15.291300
2.649200 15.458500
2.669400 15.433900
2.689500 12.046300
2.709600 10.123500
2.729800 9.768100
2.749900 9.873800
2.770100 10.681800
2.790200 12.614500
2.810300 13.673800
2.830500 8.707200
2.850600 8.363200
2.870800 10.529400
2.890900 10.108800
2.911000 8.461200
2.931200 8.293300
2.951300 8.832800
2.971500 9.722100
2.991600 10.481200
3.011700 11.865900
3.031900 13.477500
3.052000 15.286800
3.072100 23.886400
3.092300 17.250900
3.112400 13.755500
3.132600 13.914900
3.152700 15.882300
3.172800 16.911800
3.193000 16.575200
3.213100 19.545900
3.233300 10.709900
3.253400 9.047000
3.273500 8.609700
3.293700 8.357000
3.313800 8.289000
3.334000 8.061900
3.354100 9.544000
3.374200 11.729300
3.394400 14.128500
3.414500 21.920200
3.434700 23.109900
3.454800 17.435700
3.474900 18.858700
3.495100 21.158100
3.515200 21.260900
3.535400 17.911300
3.555500 20.168700
3.575600 11.571800
3.595800 12.334500
3.615900 14.035000
3.636000 13.125100
3.656200 11.867400
3.676300 10.774100
3.696500 11.967400
3.716600 12.691800
3.736700 12.944900
3.756900 12.950800
3.777000 13.087700
3.797200 10.284500
3.817300 9.111200
3.837400 8.307100
3.857600 8.614200
3.877700 10.396200
3.897900 11.321200
3.918000 12.042300
3.938100 11.946200
