set title 'mp-6997 - Density of States'
set xlabel 'Energy (eV)'
set ylabel 'DOS (states/eV)'
set grid
set xrange [-10:10]
set yrange [0:17.857]
set xzeroaxis lt -1
set terminal png size 800,600
set output 'mp-6997_dos_gnuplot.png'
plot '-' using 1:2 with lines title 'DOS'
-7.803900 0.000000
-7.791800 0.000000
-7.779600 0.000000
-7.767500 0.000000
-7.755300 0.000000
-7.743200 0.000000
-7.731000 0.000000
-7.718900 0.000000
-7.706700 0.000000
-7.694600 0.000000
-7.682400 0.000000
-7.670200 0.000000
-7.658100 0.000000
-7.645900 0.000000
-7.633800 0.000000
-7.621600 0.000000
-7.609500 0.000000
-7.597300 0.000000
-7.585200 0.000000
-7.573000 0.000000
-7.560900 0.000000
-7.548700 0.000000
-7.536500 0.000000
-7.524400 0.000000
-7.512200 0.000000
-7.500100 0.000000
-7.487900 0.000000
-7.475800 0.000000
-7.463600 0.000000
-7.451500 0.000000
-7.439300 0.000000
-7.427200 0.000000
-7.415000 0.000000
-7.402800 0.000000
-7.390700 0.000000
-7.378500 0.000000
-7.366400 0.000000
-7.354200 0.000000
-7.342100 0.000000
-7.329900 0.000000
-7.317800 0.000000
-7.305600 0.000000
-7.293500 0.000000
-7.281300 0.000000
-7.269100 0.000000
-7.257000 0.000000
-7.244800 0.000000
-7.232700 0.000000
-7.220500 0.000000
-7.208400 0.000000
-7.196200 0.000000
-7.184100 0.000000
-7.171900 0.000000
-7.159700 0.000000
-7.147600 0.000000
-7.135400 0.000000
-7.123300 0.000000
-7.111100 0.000000
-7.099000 0.000000
-7.086800 0.000000
-7.074700 0.000000
-7.062500 0.000000
-7.050400 0.000000
-7.038200 0.000000
-7.026000 0.000000
-7.013900 0.000000
-7.001700 0.000000
-6.989600 0.000000
-6.977400 0.000000
-6.965300 0.000000
-6.953100 0.000000
-6.941000 0.000000
-6.928800 0.000000
-6.916700 0.000000
-6.904500 0.000000
-6.892300 0.000000
-6.880200 0.000000
-6.868000 0.000000
-6.855900 0.000000
-6.843700 0.000000
-6.831600 0.000000
-6.819400 0.000000
-6.807300 0.000000
-6.795100 0.000000
-6.783000 0.000000
-6.770800 0.000000
-6.758600 0.000000
-6.746500 0.000000
-6.734300 0.000000
-6.722200 0.000000
-6.710000 0.000000
-6.697900 0.004400
-6.685700 0.240500
-6.673600 0.487300
-6.661400 0.734100
-6.649300 0.981000
-6.637100 1.227800
-6.624900 0.722900
-6.612800 0.744300
-6.600600 0.765800
-6.588500 0.787200
-6.576300 0.808700
-6.564200 0.830100
-6.552000 0.851600
-6.539900 0.873000
-6.527700 0.894500
-6.515600 0.915900
-6.503400 0.937400
-6.491200 0.958800
-6.479100 0.941700
-6.466900 0.918500
-6.454800 0.895200
-6.442600 0.872000
-6.430500 0.848700
-6.418300 0.833600
-6.406200 0.841900
-6.394000 0.850300
-6.381900 0.858700
-6.369700 0.867000
-6.357500 0.875400
-6.345400 0.883700
-6.333200 0.892100
-6.321100 0.900500
-6.308900 0.908800
-6.296800 0.917200
-6.284600 0.925500
-6.272500 0.933900
-6.260300 0.942400
-6.248200 1.060100
-6.236000 1.343200
-6.223800 1.641400
-6.211700 1.875600
-6.199500 2.167600
-6.187400 2.020600
-6.175200 1.724700
-6.163100 1.751500
-6.150900 1.778300
-6.138800 1.805100
-6.126600 1.831900
-6.114500 1.858600
-6.102300 1.885400
-6.090100 1.912600
-6.078000 1.944000
-6.065800 1.974300
-6.053700 1.974700
-6.041500 1.955300
-6.029400 1.935800
-6.017200 1.916300
-6.005100 1.897100
-5.992900 1.897600
-5.980800 1.914100
-5.968600 1.930600
-5.956400 1.947100
-5.944300 1.963600
-5.932100 1.980100
-5.920000 1.996600
-5.907800 2.013100
-5.895700 2.026300
-5.883500 2.035000
-5.871400 2.043800
-5.859200 2.052500
-5.847100 2.061200
-5.834900 2.073300
-5.822700 2.071400
-5.810600 2.046400
-5.798400 2.054900
-5.786300 2.063500
-5.774100 2.072000
-5.762000 2.080500
-5.749800 2.089000
-5.737700 2.097500
-5.725500 2.106000
-5.713400 2.114500
-5.701200 2.126100
-5.689000 2.139600
-5.676900 2.153200
-5.664700 2.166900
-5.652600 2.181800
-5.640400 2.196700
-5.628300 2.211500
-5.616100 2.226400
-5.604000 2.241300
-5.591800 2.256200
-5.579700 2.271100
-5.567500 2.291300
-5.555300 2.328200
-5.543200 2.382700
-5.531000 2.455300
-5.518900 2.545200
-5.506700 2.651700
-5.494600 2.719900
-5.482400 2.812100
-5.470300 2.891900
-5.458100 2.973300
-5.446000 3.056400
-5.433800 3.141100
-5.421600 3.227500
-5.409500 3.315500
-5.397300 3.400700
-5.385200 3.479500
-5.373000 3.545200
-5.360900 3.598100
-5.348700 3.638200
-5.336600 3.662400
-5.324400 3.703200
-5.312300 3.780100
-5.300100 3.877900
-5.287900 3.997000
-5.275800 4.126400
-5.263600 4.230400
-5.251500 4.335200
-5.239300 4.440700
-5.227200 4.547100
-5.215000 5.270000
-5.202900 5.345800
-5.190700 5.422500
-5.178600 5.501100
-5.166400 5.626500
-5.154200 5.796600
-5.142100 5.975000
-5.129900 6.150500
-5.117800 6.303900
-5.105600 6.510400
-5.093500 6.807500
-5.081300 10.856700
-5.069200 9.395500
-5.057000 7.935700
-5.044900 6.467500
-5.032700 5.889600
-5.020500 5.665600
-5.008400 5.835500
-4.996200 6.040400
-4.984100 6.246300
-4.971900 5.442200
-4.959800 5.981400
-4.947600 5.817400
-4.935500 5.654000
-4.923300 5.812900
-4.911200 6.724600
-4.899000 7.689900
-4.886800 8.778600
-4.874700 7.818000
-4.862500 8.753300
-4.850400 8.526900
-4.838200 9.835000
-4.826100 9.850200
-4.813900 8.091900
-4.801800 6.281300
-4.789600 6.806300
-4.777500 9.770800
-4.765300 8.031500
-4.753100 7.529600
-4.741000 6.682000
-4.728800 7.832200
-4.716700 4.980100
-4.704500 2.149800
-4.692400 1.199200
-4.680200 1.308900
-4.668100 1.379300
-4.655900 1.453200
-4.643800 1.531700
-4.631600 1.614400
-4.619400 1.699600
-4.607300 1.786900
-4.595100 1.859000
-4.583000 1.903500
-4.570800 1.920500
-4.558700 1.910100
-4.546500 1.888400
-4.534400 1.935600
-4.522200 1.964700
-4.510100 1.983100
-4.497900 1.990600
-4.485700 1.987100
-4.473600 1.972700
-4.461400 1.946100
-4.449300 1.914800
-4.437100 1.888000
-4.425000 1.866200
-4.412800 1.854400
-4.400700 1.849300
-4.388500 1.850100
-4.376400 1.856900
-4.364200 1.868800
-4.352000 1.881600
-4.339900 1.894400
-4.327700 1.907100
-4.315600 1.919700
-4.303400 1.932300
-4.291300 1.944900
-4.279100 1.957400
-4.267000 1.967900
-4.254800 1.968500
-4.242600 1.969900
-4.230500 1.969700
-4.218300 1.967800
-4.206200 1.964300
-4.194000 1.960200
-4.181900 1.966600
-4.169700 1.972800
-4.157600 1.978700
-4.145400 1.984400
-4.133300 1.990100
-4.121100 1.997500
-4.108900 2.006600
-4.096800 2.017400
-4.084600 2.029900
-4.072500 2.043000
-4.060300 2.056100
-4.048200 2.044200
-4.036000 2.053900
-4.023900 2.064400
-4.011700 2.074900
-3.999600 2.085500
-3.987400 2.096000
-3.975200 2.106600
-3.963100 2.117200
-3.950900 2.128700
-3.938800 2.147100
-3.926600 2.162000
-3.914500 2.173500
-3.902300 2.182100
-3.890200 2.190400
-3.878000 2.205700
-3.865900 2.228500
-3.853700 2.252800
-3.841500 2.277100
-3.829400 2.301400
-3.817200 2.325700
-3.805100 2.350100
-3.792900 2.374500
-3.780800 2.398800
-3.768600 2.423200
-3.756500 2.852900
-3.744300 2.827100
-3.732200 2.813900
-3.720000 2.800700
-3.707800 2.787500
-3.695700 2.774300
-3.683500 2.761100
-3.671400 2.747900
-3.659200 2.734700
-3.647100 2.721500
-3.634900 2.708400
-3.622800 2.695200
-3.610600 2.682000
-3.598500 2.668900
-3.586300 2.655700
-3.574100 2.642600
-3.562000 2.629500
-3.549800 2.708600
-3.537700 11.890800
-3.525500 7.733100
-3.513400 9.017800
-3.501200 3.332200
-3.489100 2.896100
-3.476900 2.801300
-3.464800 2.706800
-3.452600 2.612600
-3.440400 2.518600
-3.428300 2.424900
-3.416100 2.331500
-3.404000 2.238300
-3.391800 2.145400
-3.379700 2.052800
-3.367500 1.960400
-3.355400 1.868300
-3.343200 1.776500
-3.331100 1.684900
-3.318900 1.677000
-3.306700 1.399700
-3.294600 1.602600
-3.282400 1.779800
-3.270300 1.952600
-3.258100 2.753000
-3.246000 4.209800
-3.233800 6.298600
-3.221700 6.049800
-3.209500 6.594900
-3.197400 4.948300
-3.185200 3.523600
-3.173000 3.440500
-3.160900 3.639200
-3.148700 3.858000
-3.136600 3.942500
-3.124400 3.775100
-3.112300 3.607000
-3.100100 3.438300
-3.088000 3.293700
-3.075800 3.990100
-3.063700 4.942200
-3.051500 5.892800
-3.039300 3.470800
-3.027200 3.439500
-3.015000 3.408300
-3.002900 3.377100
-2.990700 3.345900
-2.978600 3.314700
-2.966400 3.283500
-2.954300 3.252200
-2.942100 3.086300
-2.930000 2.840400
-2.917800 2.836000
-2.905600 2.838200
-2.893500 2.845800
-2.881300 2.854400
-2.869200 2.864100
-2.857000 2.874800
-2.844900 2.886500
-2.832700 2.899300
-2.820600 2.916900
-2.808400 2.982100
-2.796300 3.106600
-2.784100 3.290400
-2.771900 3.515700
-2.759800 3.752800
-2.747600 4.009200
-2.735500 4.321000
-2.723300 4.642500
-2.711200 4.938200
-2.699000 4.195400
-2.686900 3.923900
-2.674700 3.778600
-2.662600 3.543000
-2.650400 3.274000
-2.638200 3.172600
-2.626100 3.158900
-2.613900 3.187500
-2.601800 3.612100
-2.589600 3.800700
-2.577500 3.929000
-2.565300 4.333500
-2.553200 5.165800
-2.541000 6.761300
-2.528900 6.240600
-2.516700 5.785500
-2.504500 5.407800
-2.492400 5.049700
-2.480200 4.987000
-2.468100 4.657100
-2.455900 4.336800
-2.443800 4.007100
-2.431600 3.498300
-2.419500 2.893900
-2.407300 2.432000
-2.395200 2.816300
-2.383000 4.830700
-2.370800 3.004700
-2.358700 3.132100
-2.346500 3.262600
-2.334400 3.396000
-2.322200 3.532500
-2.310100 3.672000
-2.297900 3.814500
-2.285800 3.960100
-2.273600 3.034500
-2.261500 2.996600
-2.249300 2.961900
-2.237100 2.932900
-2.225000 2.904900
-2.212800 2.877500
-2.200700 2.848800
-2.188500 2.818400
-2.176400 2.787400
-2.164200 2.756500
-2.152100 2.725700
-2.139900 2.694900
-2.127800 2.661200
-2.115600 2.624700
-2.103400 2.589200
-2.091300 2.567300
-2.079100 2.556400
-2.067000 2.545700
-2.054800 2.535100
-2.042700 2.524500
-2.030500 2.513800
-2.018400 2.503200
-2.006200 2.492600
-1.994100 2.482100
-1.981900 2.807800
-1.969700 2.794300
-1.957600 2.780800
-1.945400 2.774100
-1.933300 2.772100
-1.921100 2.769500
-1.909000 2.766500
-1.896800 2.757900
-1.884700 2.756800
-1.872500 2.755100
-1.860400 2.753000
-1.848200 2.750300
-1.836000 2.758400
-1.823900 2.782700
-1.811700 2.806900
-1.799600 2.871500
-1.787400 2.978000
-1.775300 3.081400
-1.763100 3.181500
-1.751000 3.270200
-1.738800 3.337700
-1.726700 3.404100
-1.714500 3.469400
-1.702300 3.533500
-1.690200 3.596500
-1.678000 3.668200
-1.665900 3.790000
-1.653700 3.963200
-1.641600 3.511200
-1.629400 3.527900
-1.617300 3.557500
-1.605100 3.458800
-1.593000 3.368400
-1.580800 3.281500
-1.568600 3.195800
-1.556500 3.111600
-1.544300 2.962600
-1.532200 2.907600
-1.520000 2.871700
-1.507900 2.826500
-1.495700 2.780600
-1.483600 2.735800
-1.471400 2.692300
-1.459300 2.649900
-1.447100 2.608400
-1.434900 2.568000
-1.422800 2.528700
-1.410600 2.490300
-1.398500 2.452900
-1.386300 2.417200
-1.374200 2.385300
-1.362000 2.356700
-1.349900 2.328500
-1.337700 2.300600
-1.325500 2.273000
-1.313400 2.245600
-1.301200 2.218400
-1.289100 2.191600
-1.276900 2.199000
-1.264800 2.207300
-1.252600 2.200800
-1.240500 2.174100
-1.228300 2.116400
-1.216200 2.059000
-1.204000 2.001800
-1.191800 1.945400
-1.179700 1.885100
-1.167500 1.818900
-1.155400 1.780300
-1.143200 1.808000
-1.131100 1.850400
-1.118900 1.878400
-1.106800 1.892100
-1.094600 1.891100
-1.082500 1.911700
-1.070300 1.848300
-1.058100 1.770800
-1.046000 1.696800
-1.033800 1.626400
-1.021700 1.559500
-1.009500 1.496100
-0.997400 1.436900
-0.985200 1.381400
-0.973100 1.329400
-0.960900 1.280900
-0.948800 1.235900
-0.936600 1.196700
-0.924400 1.161200
-0.912300 1.129200
-0.900100 1.100100
-0.888000 1.071900
-0.875800 1.044200
-0.863700 1.017100
-0.851500 0.990600
-0.839400 0.964600
-0.827200 0.939200
-0.815100 0.914400
-0.802900 0.890200
-0.790700 0.866500
-0.778600 0.843400
-0.766400 0.820800
-0.754300 0.798800
-0.742100 0.777400
-0.730000 0.756600
-0.717800 0.736300
-0.705700 0.716600
-0.693500 0.697500
-0.681400 0.676100
-0.669200 0.652500
-0.657000 0.631200
-0.644900 0.612000
-0.632700 0.595100
-0.620600 0.580400
-0.608400 0.567900
-0.596300 0.558100
-0.584100 0.550900
-0.572000 0.545900
-0.559800 0.543000
-0.547700 0.540500
-0.535500 0.538000
-0.523300 0.535500
-0.511200 0.533000
-0.499000 0.530500
-0.486900 0.528000
-0.474700 0.525500
-0.462600 0.522900
-0.450400 0.520400
-0.438300 0.517900
-0.426100 0.515400
-0.414000 0.512900
-0.401800 0.510500
-0.389600 0.508000
-0.377500 0.519400
-0.365300 0.516600
-0.353200 0.513700
-0.341000 0.510900
-0.328900 0.508000
-0.316700 0.505200
-0.304600 0.502300
-0.292400 0.499500
-0.280300 0.496600
-0.268100 0.493700
-0.255900 0.490900
-0.243800 0.488000
-0.231600 0.485200
-0.219500 0.482300
-0.207300 0.479500
-0.195200 0.476600
-0.183000 0.473800
-0.170900 0.470900
-0.158700 0.468100
-0.146600 0.465200
-0.134400 0.462400
-0.122200 0.459500
-0.110100 0.456700
-0.097900 0.453800
-0.085800 0.451000
-0.073600 0.448100
-0.061500 0.445300
-0.049300 0.442400
-0.037200 0.439600
-0.025000 0.436700
-0.012900 0.433900
-0.000700 0.433000
0.011500 0.436400
0.023600 0.440000
0.035800 0.443600
0.047900 0.447100
0.060100 0.450500
0.072200 0.453900
0.084400 0.457100
0.096500 0.460300
0.108700 0.463400
0.120800 0.466100
0.133000 0.466200
0.145200 0.463200
0.157300 0.457900
0.169500 0.452400
0.181600 0.446900
0.193800 0.441400
0.205900 0.435900
0.218100 0.430400
0.230200 0.425000
0.242400 0.419500
0.254500 0.414000
0.266700 0.408600
0.278900 0.403100
0.291000 0.397700
0.303200 0.392200
0.315300 0.386800
0.327500 0.381300
0.339600 0.375900
0.351800 0.370500
0.363900 0.365000
0.376100 0.359600
0.388200 0.396500
0.400400 0.432300
0.412600 0.458800
0.424700 0.475900
0.436900 0.483600
0.449000 0.482000
0.461200 0.471000
0.473300 0.407600
0.485500 0.339300
0.497600 0.281900
0.509800 0.234800
0.521900 0.193200
0.534100 0.155600
0.546300 0.122100
0.558400 0.092700
0.570600 0.067300
0.582700 0.045900
0.594900 0.028700
0.607000 0.015400
0.619200 0.006300
0.631300 0.001200
0.643500 0.000000
0.655600 0.000000
0.667800 0.000000
0.680000 0.000000
0.692100 0.000000
0.704300 0.000000
0.716400 0.000000
0.728600 0.000000
0.740700 0.000000
0.752900 0.000000
0.765000 0.000000
0.777200 0.000000
0.789300 0.000000
0.801500 0.000000
0.813700 0.000000
0.825800 0.000000
0.838000 0.000000
0.850100 0.000000
0.862300 3.103800
0.874400 2.400200
0.886600 1.773900
0.898700 1.653400
0.910900 1.737100
0.923000 1.823400
0.935200 1.912000
0.947400 2.003100
0.959500 2.096600
0.971700 2.192600
0.983800 2.291000
0.996000 2.373800
1.008100 2.371500
1.020300 2.277300
1.032400 2.144500
1.044600 2.092500
1.056700 2.089800
1.068900 2.082500
1.081100 2.076500
1.093200 2.071800
1.105400 2.070000
1.117500 2.072800
1.129700 2.080100
1.141800 2.092000
1.154000 2.107900
1.166100 2.124700
1.178300 2.691700
1.190400 2.896900
1.202600 3.073400
1.214800 2.658000
1.226900 2.557000
1.239100 2.456000
1.251200 2.354800
1.263400 2.253600
1.275500 2.213500
1.287700 2.616700
1.299800 2.825000
1.312000 2.838500
1.324100 2.881800
1.336300 1.366600
1.348500 1.048600
1.360600 1.025500
1.372800 1.010800
1.384900 1.032900
1.397100 1.098600
1.409200 1.190600
1.421400 1.283000
1.433500 1.375400
1.445700 1.467800
1.457800 1.560100
1.470000 1.652300
1.482200 1.744400
1.494300 1.836600
1.506500 1.928600
1.518600 2.020600
1.530800 2.112500
1.542900 2.391000
1.555100 2.320800
1.567200 2.237200
1.579400 2.140100
1.591600 1.809600
1.603700 1.942000
1.615900 2.179600
1.628000 2.522500
1.640200 2.896000
1.652300 3.488500
1.664500 3.823400
1.676600 4.842600
1.688800 5.520600
1.700900 5.659500
1.713100 6.057500
1.725300 6.345600
1.737400 6.798700
1.749600 7.094400
1.761700 6.844800
1.773900 6.525600
1.786000 6.137000
1.798200 5.767200
1.810300 5.392700
1.822500 5.099600
1.834600 4.844000
1.846800 4.661100
1.859000 4.550900
1.871100 4.513400
1.883300 4.548400
1.895400 5.726100
1.907600 4.035500
1.919700 3.976500
1.931900 3.973000
1.944000 3.980700
1.956200 3.999400
1.968300 4.031400
1.980500 4.081900
1.992700 4.151500
2.004800 4.241400
2.017000 4.274900
2.029100 4.374600
2.041300 4.768000
2.053400 4.960800
2.065600 5.040900
2.077700 5.131900
2.089900 5.184700
2.102000 4.938800
2.114200 4.930500
2.126400 4.980600
2.138500 5.085600
2.150700 5.229000
2.162800 5.407500
2.175000 5.650300
2.187100 5.969100
2.199300 6.361300
2.211400 6.725400
2.223600 7.034700
2.235700 7.077000
2.247900 6.839000
2.260100 6.778300
2.272200 6.624000
2.284400 6.492400
2.296500 6.381100
2.308700 6.277000
2.320800 6.193000
2.333000 6.130400
2.345100 6.105700
2.357300 6.211400
2.369400 6.372000
2.381600 6.587600
2.393800 6.772400
2.405900 6.785800
2.418100 6.734900
2.430200 6.580500
2.442400 6.452700
2.454500 6.546600
2.466700 6.687000
2.478800 6.996900
2.491000 7.339700
2.503100 7.677700
2.515300 7.702000
2.527500 7.633800
2.539600 7.496200
2.551800 7.375400
2.563900 7.284200
2.576100 7.247800
2.588200 7.341700
2.600400 7.510200
2.612500 7.793600
2.624700 7.875700
2.636800 8.928400
2.649000 7.640800
2.661200 7.067500
2.673300 6.957200
2.685500 6.983800
2.697600 7.007800
2.709800 7.031300
2.721900 7.057700
2.734100 7.095100
2.746200 7.146400
2.758400 7.214200
2.770500 7.295000
2.782700 7.454500
2.794900 7.483200
2.807000 7.433600
2.819200 7.402000
2.831300 7.325500
2.843500 7.223700
2.855600 7.140300
2.867800 7.058500
2.879900 6.974600
2.892100 6.911400
2.904200 6.866900
2.916400 6.813600
2.928600 6.753000
2.940700 6.702200
2.952900 6.666000
2.965000 6.644800
2.977200 6.638400
2.989300 6.629800
3.001500 6.599900
3.013600 6.551800
3.025800 6.636700
3.037900 6.637000
3.050100 6.667500
3.062300 6.736000
3.074400 6.829600
3.086600 6.940400
3.098700 7.069500
3.110900 7.147300
3.123000 7.297400
3.135200 7.667600
3.147300 8.077500
3.159500 8.526900
3.171600 8.782600
3.183800 8.458600
3.196000 8.458500
3.208100 8.324300
3.220300 7.988200
3.232400 7.633500
3.244600 7.369300
3.256700 7.114200
3.268900 6.865800
3.281000 6.624600
3.293200 6.521300
3.305300 6.560800
3.317500 6.623300
3.329700 6.709500
3.341800 7.069200
3.354000 7.240900
3.366100 7.400100
3.378300 7.543800
3.390400 7.678400
3.402600 7.934600
3.414700 7.775800
3.426900 7.860700
3.439000 8.009400
3.451200 8.183100
3.463400 8.446800
3.475500 8.783900
3.487700 9.042000
3.499800 9.255000
3.512000 9.432700
3.524100 9.458300
3.536300 9.344300
3.548400 9.072700
3.560600 8.597500
3.572700 8.312900
3.584900 8.059600
3.597100 7.801200
3.609200 7.539500
3.621400 7.271200
3.633500 7.062900
3.645700 6.912300
3.657800 6.857900
3.670000 6.818600
3.682100 6.824300
3.694300 6.876900
3.706400 6.970100
3.718600 7.111300
3.730800 7.237700
3.742900 7.372400
3.755100 7.500800
3.767200 7.625200
3.779400 7.776700
3.791500 7.960000
3.803700 8.184600
3.815800 8.412200
3.828000 8.494500
3.840100 8.165000
3.852300 7.813100
3.864500 7.561600
3.876600 7.269700
3.888800 6.968800
3.900900 6.720500
3.913100 6.555500
3.925200 6.417200
3.937400 6.262500
3.949500 6.062300
3.961700 5.797100
3.973800 5.524100
3.986000 5.364400
3.998200 5.377000
4.010300 5.321100
4.022500 5.273300
4.034600 5.230900
4.046800 5.194900
4.058900 5.103600
4.071100 4.974500
4.083200 4.984100
4.095400 5.354900
4.107500 5.700600
4.119700 6.017700
4.131900 6.311200
4.144000 6.612200
4.156200 7.132800
4.168300 7.445200
4.180500 7.534200
4.192600 7.609100
4.204800 7.676500
4.216900 7.733400
4.229100 7.727600
4.241200 7.597900
4.253400 7.410500
4.265600 7.539400
4.277700 7.591900
4.289900 7.597600
4.302000 7.558000
4.314200 7.503500
4.326300 7.452900
4.338500 7.499900
4.350600 7.569700
4.362800 7.513100
4.374900 7.493900
4.387100 7.447700
4.399300 7.380600
4.411400 7.189000
4.423600 7.093900
4.435700 7.164200
4.447900 7.529600
4.460000 7.707300
4.472200 7.257100
4.484300 6.994500
4.496500 6.918400
4.508700 6.925600
4.520800 6.954000
4.533000 7.010900
4.545100 7.107300
4.557300 7.223500
4.569400 7.314600
4.581600 7.366600
4.593700 7.379400
4.605900 7.369800
4.618000 7.310600
4.630200 7.176000
4.642400 7.047200
4.654500 6.978000
4.666700 7.000300
4.678800 10.271700
4.691000 8.788700
4.703100 7.295800
4.715300 6.676900
4.727400 6.503700
4.739600 6.352100
4.751700 6.212600
4.763900 6.087800
4.776100 5.977600
4.788200 5.898300
4.800400 5.836000
4.812500 5.754100
4.824700 5.717500
4.836800 5.736000
4.849000 5.726100
4.861100 5.685500
4.873300 5.649500
4.885400 5.746700
4.897600 5.875800
4.909800 6.011700
4.921900 6.297900
4.934100 6.660400
4.946200 6.975000
4.958400 7.056400
4.970500 7.010000
4.982700 6.930100
4.994800 6.712200
5.007000 6.358200
5.019100 5.843600
5.031300 5.231600
5.043500 5.321400
5.055600 4.866700
5.067800 4.796100
