set title 'mp-1135 - Density of States'
set xlabel 'Energy (eV)'
set ylabel 'DOS (states/eV)'
set grid
set xrange [-10:10]
set yrange [0:12.231]
set xzeroaxis lt -1
set terminal png size 800,600
set output 'mp-1135_dos_gnuplot.png'
plot '-' using 1:2 with lines title 'DOS'
-30.234800 0.000000
-30.193100 0.000000
-30.151400 0.000000
-30.109700 0.000000
-30.068000 0.000000
-30.026300 0.000000
-29.984600 0.000000
-29.942900 0.000000
-29.901200 0.000000
-29.859500 0.000000
-29.817800 0.000000
-29.776100 0.000000
-29.734400 0.000000
-29.692700 0.000000
-29.651000 0.000000
-29.609300 0.000000
-29.567600 0.000000
-29.525900 0.000000
-29.484200 0.000000
-29.442500 0.000000
-29.400800 0.000000
-29.359100 0.000000
-29.317400 0.000000
-29.275700 0.000000
-29.234000 0.000000
-29.192200 0.000000
-29.150500 0.000000
-29.108800 0.000000
-29.067100 0.000000
-29.025400 0.000000
-28.983700 0.000000
-28.942000 0.000000
-28.900300 0.000000
-28.858600 0.000000
-28.816900 0.000000
-28.775200 0.000000
-28.733500 0.000000
-28.691800 0.000000
-28.650100 0.000000
-28.608400 0.000000
-28.566700 0.000000
-28.525000 0.000000
-28.483300 0.000000
-28.441600 0.000000
-28.399900 0.000000
-28.358200 0.000000
-28.316500 0.000000
-28.274800 0.000000
-28.233100 0.000000
-28.191400 0.000000
-28.149700 0.000000
-28.107900 0.000000
-28.066200 0.000000
-28.024500 0.000000
-27.982800 0.000000
-27.941100 0.000000
-27.899400 0.000000
-27.857700 0.000000
-27.816000 0.000000
-27.774300 0.000000
-27.732600 0.000000
-27.690900 0.000000
-27.649200 0.000000
-27.607500 0.000000
-27.565800 0.000000
-27.524100 0.000000
-27.482400 0.000000
-27.440700 0.000000
-27.399000 0.000000
-27.357300 0.000000
-27.315600 0.000000
-27.273900 0.000000
-27.232200 0.000000
-27.190500 0.000000
-27.148800 0.000000
-27.107100 0.000000
-27.065300 0.000000
-27.023600 0.000000
-26.981900 0.000000
-26.940200 0.000000
-26.898500 0.000000
-26.856800 0.000000
-26.815100 0.000000
-26.773400 0.000000
-26.731700 0.000000
-26.690000 0.000000
-26.648300 0.000000
-26.606600 0.000000
-26.564900 0.005600
-26.523200 0.305300
-26.481500 4.961000
-26.439800 25.681700
-26.398100 48.224900
-26.356400 41.870800
-26.314700 19.056600
-26.273000 3.552300
-26.231300 0.209600
-26.189600 0.003500
-26.147900 0.000000
-26.106200 0.000000
-26.064500 0.000000
-26.022700 0.000000
-25.981000 0.000000
-25.939300 0.000000
-25.897600 0.000000
-25.855900 0.000000
-25.814200 0.000000
-25.772500 0.000000
-25.730800 0.000000
-25.689100 0.000000
-25.647400 0.000000
-25.605700 0.000000
-25.564000 0.000000
-25.522300 0.000000
-25.480600 0.000000
-25.438900 0.000000
-25.397200 0.000000
-25.355500 0.000000
-25.313800 0.000000
-25.272100 0.000000
-25.230400 0.000000
-25.188700 0.000000
-25.147000 0.000000
-25.105300 0.000000
-25.063600 0.000000
-25.021900 0.000000
-24.980200 0.000000
-24.938400 0.000000
-24.896700 0.000000
-24.855000 0.000000
-24.813300 0.000000
-24.771600 0.000000
-24.729900 0.000000
-24.688200 0.000000
-24.646500 0.000000
-24.604800 0.000000
-24.563100 0.000000
-24.521400 0.000000
-24.479700 0.000000
-24.438000 0.000000
-24.396300 0.000000
-24.354600 0.000000
-24.312900 0.000000
-24.271200 0.000000
-24.229500 0.000000
-24.187800 0.000000
-24.146100 0.000000
-24.104400 0.000000
-24.062700 0.000000
-24.021000 0.000000
-23.979300 0.000000
-23.937600 0.000000
-23.895800 0.000000
-23.854100 0.000000
-23.812400 0.000000
-23.770700 0.000000
-23.729000 0.000000
-23.687300 0.000000
-23.645600 0.000000
-23.603900 0.000000
-23.562200 0.000000
-23.520500 0.000000
-23.478800 0.000000
-23.437100 0.000000
-23.395400 0.000000
-23.353700 0.000000
-23.312000 0.000000
-23.270300 0.000000
-23.228600 0.000000
-23.186900 0.000000
-23.145200 0.000000
-23.103500 0.000000
-23.061800 0.000000
-23.020100 0.000000
-22.978400 0.000000
-22.936700 0.000000
-22.895000 0.000000
-22.853200 0.000000
-22.811500 0.000000
-22.769800 0.000000
-22.728100 0.000000
-22.686400 0.000000
-22.644700 0.000000
-22.603000 0.000000
-22.561300 0.000000
-22.519600 0.000000
-22.477900 0.000000
-22.436200 0.000000
-22.394500 0.000000
-22.352800 0.000000
-22.311100 0.000000
-22.269400 0.000000
-22.227700 0.000000
-22.186000 0.000000
-22.144300 0.000000
-22.102600 0.000000
-22.060900 0.000000
-22.019200 0.000000
-21.977500 0.000000
-21.935800 0.000000
-21.894100 0.000000
-21.852400 0.000000
-21.810700 0.000000
-21.768900 0.000000
-21.727200 0.000000
-21.685500 0.000000
-21.643800 0.000000
-21.602100 0.000000
-21.560400 0.000000
-21.518700 0.000000
-21.477000 0.000000
-21.435300 0.000000
-21.393600 0.000000
-21.351900 0.000000
-21.310200 0.000000
-21.268500 0.000000
-21.226800 0.000000
-21.185100 0.000000
-21.143400 0.000000
-21.101700 0.000000
-21.060000 0.000000
-21.018300 0.000000
-20.976600 0.000000
-20.934900 0.000000
-20.893200 0.000000
-20.851500 0.000000
-20.809800 0.000000
-20.768100 0.000000
-20.726300 0.000000
-20.684600 0.000000
-20.642900 0.000000
-20.601200 0.000000
-20.559500 0.000000
-20.517800 0.000000
-20.476100 0.000000
-20.434400 0.000000
-20.392700 0.000000
-20.351000 0.000000
-20.309300 0.000000
-20.267600 0.000000
-20.225900 0.000000
-20.184200 0.000000
-20.142500 0.000000
-20.100800 0.000000
-20.059100 0.000000
-20.017400 0.000000
-19.975700 0.000000
-19.934000 0.000000
-19.892300 0.000000
-19.850600 0.000000
-19.808900 0.000000
-19.767200 0.000000
-19.725500 0.000000
-19.683700 0.000000
-19.642000 0.000000
-19.600300 0.000000
-19.558600 0.000000
-19.516900 0.000000
-19.475200 0.000000
-19.433500 0.000000
-19.391800 0.000000
-19.350100 0.000000
-19.308400 0.000000
-19.266700 0.000000
-19.225000 0.000000
-19.183300 0.000000
-19.141600 0.000000
-19.099900 0.000000
-19.058200 0.000000
-19.016500 0.000000
-18.974800 0.000000
-18.933100 0.000000
-18.891400 0.000000
-18.849700 0.000000
-18.808000 0.000000
-18.766300 0.000000
-18.724600 0.000000
-18.682900 0.000000
-18.641200 0.000000
-18.599400 0.000000
-18.557700 0.000000
-18.516000 0.000000
-18.474300 0.000000
-18.432600 0.000000
-18.390900 0.000000
-18.349200 0.000000
-18.307500 0.000000
-18.265800 0.000000
-18.224100 0.000000
-18.182400 0.000000
-18.140700 0.000000
-18.099000 0.000000
-18.057300 0.000000
-18.015600 0.000000
-17.973900 0.000000
-17.932200 0.000000
-17.890500 0.000000
-17.848800 0.000000
-17.807100 0.000000
-17.765400 0.000000
-17.723700 0.000000
-17.682000 0.000000
-17.640300 0.000000
-17.598600 0.000000
-17.556800 0.000000
-17.515100 0.000000
-17.473400 0.000000
-17.431700 0.000000
-17.390000 0.000000
-17.348300 0.000000
-17.306600 0.000000
-17.264900 0.000000
-17.223200 0.000000
-17.181500 0.000000
-17.139800 0.000000
-17.098100 0.000000
-17.056400 0.000000
-17.014700 0.000000
-16.973000 0.000000
-16.931300 0.000000
-16.889600 0.000000
-16.847900 0.000000
-16.806200 0.000000
-16.764500 0.000000
-16.722800 0.000000
-16.681100 0.000000
-16.639400 0.000000
-16.597700 0.000000
-16.556000 0.000000
-16.514200 0.000000
-16.472500 0.000000
-16.430800 0.000000
-16.389100 0.000000
-16.347400 0.000000
-16.305700 0.000000
-16.264000 0.000000
-16.222300 0.000000
-16.180600 0.000000
-16.138900 0.000000
-16.097200 0.000000
-16.055500 0.000000
-16.013800 0.000000
-15.972100 0.000000
-15.930400 0.000000
-15.888700 0.000000
-15.847000 0.000000
-15.805300 0.000000
-15.763600 0.000000
-15.721900 0.000000
-15.680200 0.000000
-15.638500 0.000000
-15.596800 0.000000
-15.555100 0.000000
-15.513400 0.000000
-15.471700 0.000000
-15.429900 0.000000
-15.388200 0.000000
-15.346500 0.000000
-15.304800 0.000000
-15.263100 0.000000
-15.221400 0.000000
-15.179700 0.000000
-15.138000 0.000000
-15.096300 0.000000
-15.054600 0.000000
-15.012900 0.000000
-14.971200 0.000000
-14.929500 0.000000
-14.887800 0.000000
-14.846100 0.000000
-14.804400 0.000000
-14.762700 0.000000
-14.721000 0.000000
-14.679300 0.000000
-14.637600 0.000000
-14.595900 0.000000
-14.554200 0.000000
-14.512500 0.000000
-14.470800 0.000000
-14.429100 0.000000
-14.387300 0.000000
-14.345600 0.000000
-14.303900 0.000000
-14.262200 0.000000
-14.220500 0.000000
-14.178800 0.000000
-14.137100 0.000000
-14.095400 0.000000
-14.053700 0.000000
-14.012000 0.000000
-13.970300 0.000000
-13.928600 0.000000
-13.886900 0.000000
-13.845200 0.000000
-13.803500 0.000000
-13.761800 0.000000
-13.720100 0.000000
-13.678400 0.000000
-13.636700 0.000000
-13.595000 0.000000
-13.553300 0.000000
-13.511600 0.000000
-13.469900 0.000000
-13.428200 0.000000
-13.386500 0.000000
-13.344800 0.000000
-13.303000 0.000000
-13.261300 0.000000
-13.219600 0.000000
-13.177900 0.000000
-13.136200 0.000000
-13.094500 0.000000
-13.052800 0.000000
-13.011100 0.000000
-12.969400 0.000000
-12.927700 0.000000
-12.886000 0.000000
-12.844300 0.000000
-12.802600 0.000000
-12.760900 0.000000
-12.719200 0.000000
-12.677500 0.000000
-12.635800 0.000000
-12.594100 0.000000
-12.552400 0.000000
-12.510700 0.000000
-12.469000 0.000000
-12.427300 0.000000
-12.385600 0.000000
-12.343900 0.000000
-12.302200 0.000000
-12.260400 0.000000
-12.218700 0.000000
-12.177000 0.000000
-12.135300 0.000000
-12.093600 0.000000
-12.051900 0.000000
-12.010200 0.000000
-11.968500 0.000000
-11.926800 0.000000
-11.885100 0.000000
-11.843400 0.000000
-11.801700 0.000000
-11.760000 0.000000
-11.718300 0.000000
-11.676600 0.000000
-11.634900 0.000000
-11.593200 0.000000
-11.551500 0.000000
-11.509800 0.000000
-11.468100 0.000000
-11.426400 0.000000
-11.384700 0.000000
-11.343000 0.000000
-11.301300 0.000000
-11.259600 0.000000
-11.217800 0.000000
-11.176100 0.000000
-11.134400 0.000000
-11.092700 0.000000
-11.051000 0.000000
-11.009300 0.000000
-10.967600 0.000000
-10.925900 0.000000
-10.884200 0.000000
-10.842500 0.000000
-10.800800 0.000000
-10.759100 0.000000
-10.717400 0.000000
-10.675700 0.000000
-10.634000 0.000000
-10.592300 0.000000
-10.550600 0.000000
-10.508900 0.000000
-10.467200 0.000000
-10.425500 0.000000
-10.383800 0.000000
-10.342100 0.000000
-10.300400 0.000000
-10.258700 0.000000
-10.217000 0.000000
-10.175300 0.000000
-10.133500 0.000000
-10.091800 0.000000
-10.050100 0.000000
-10.008400 0.000000
-9.966700 0.000000
-9.925000 0.000000
-9.883300 0.000000
-9.841600 0.000000
-9.799900 0.000000
-9.758200 0.000000
-9.716500 0.000000
-9.674800 0.000000
-9.633100 0.000000
-9.591400 0.000000
-9.549700 0.000000
-9.508000 0.000000
-9.466300 0.000000
-9.424600 0.000000
-9.382900 0.000000
-9.341200 0.000000
-9.299500 0.000000
-9.257800 0.000000
-9.216100 0.000000
-9.174400 0.000000
-9.132700 0.000000
-9.090900 0.000000
-9.049200 0.000000
-9.007500 0.000000
-8.965800 0.000000
-8.924100 0.000000
-8.882400 0.000000
-8.840700 0.000000
-8.799000 0.000000
-8.757300 0.000000
-8.715600 0.000000
-8.673900 0.000000
-8.632200 0.000000
-8.590500 0.000000
-8.548800 0.000000
-8.507100 0.000000
-8.465400 0.000000
-8.423700 0.000000
-8.382000 0.000000
-8.340300 0.000000
-8.298600 0.000000
-8.256900 0.000000
-8.215200 0.000000
-8.173500 0.000000
-8.131800 0.000000
-8.090100 0.000000
-8.048300 0.000000
-8.006600 0.000000
-7.964900 0.000000
-7.923200 0.000000
-7.881500 0.000000
-7.839800 0.000000
-7.798100 0.000000
-7.756400 0.000000
-7.714700 0.000000
-7.673000 0.000000
-7.631300 0.000000
-7.589600 0.000000
-7.547900 0.000000
-7.506200 0.000000
-7.464500 0.000000
-7.422800 0.000000
-7.381100 0.000000
-7.339400 0.000000
-7.297700 0.000000
-7.256000 0.000000
-7.214300 0.000000
-7.172600 0.000000
-7.130900 0.000000
-7.089200 0.000000
-7.047500 0.000000
-7.005800 0.000000
-6.964000 0.000000
-6.922300 0.000000
-6.880600 0.000000
-6.838900 0.000000
-6.797200 0.000000
-6.755500 0.000000
-6.713800 0.000000
-6.672100 0.000000
-6.630400 0.000000
-6.588700 0.000000
-6.547000 0.000000
-6.505300 0.000000
-6.463600 0.000000
-6.421900 0.000000
-6.380200 0.000000
-6.338500 0.000000
-6.296800 0.000000
-6.255100 0.000000
-6.213400 0.000000
-6.171700 0.000000
-6.130000 0.000000
-6.088300 0.000000
-6.046600 0.000000
-6.004900 0.000000
-5.963200 0.000000
-5.921400 0.000000
-5.879700 0.000000
-5.838000 0.000000
-5.796300 0.000000
-5.754600 0.000000
-5.712900 0.000000
-5.671200 0.000000
-5.629500 0.000000
-5.587800 0.000000
-5.546100 0.000000
-5.504400 0.000000
-5.462700 0.000000
-5.421000 0.000000
-5.379300 0.000000
-5.337600 0.000000
-5.295900 0.000000
-5.254200 0.000000
-5.212500 0.000000
-5.170800 0.000000
-5.129100 0.000000
-5.087400 0.000000
-5.045700 0.000000
-5.004000 0.000000
-4.962300 0.000000
-4.920600 0.000000
-4.878800 0.000000
-4.837100 0.000000
-4.795400 0.000000
-4.753700 0.000000
-4.712000 0.000000
-4.670300 0.000000
-4.628600 0.000000
-4.586900 0.000000
-4.545200 0.000000
-4.503500 0.000000
-4.461800 0.000000
-4.420100 0.000000
-4.378400 0.000000
-4.336700 0.000000
-4.295000 0.000000
-4.253300 0.000000
-4.211600 0.000000
-4.169900 0.000000
-4.128200 0.000000
-4.086500 0.000000
-4.044800 0.000000
-4.003100 0.000000
-3.961400 0.000000
-3.919700 0.000000
-3.878000 0.000000
-3.836300 0.000000
-3.794500 0.000000
-3.752800 0.000000
-3.711100 0.000000
-3.669400 0.000000
-3.627700 0.000000
-3.586000 0.000000
-3.544300 0.000000
-3.502600 0.000000
-3.460900 0.000000
-3.419200 0.000000
-3.377500 0.000000
-3.335800 0.000000
-3.294100 0.000000
-3.252400 0.000000
-3.210700 0.000000
-3.169000 0.000000
-3.127300 0.000000
-3.085600 0.000000
-3.043900 0.000000
-3.002200 0.000000
-2.960500 0.000000
-2.918800 0.000000
-2.877100 0.000000
-2.835400 0.000000
-2.793700 0.000000
-2.751900 0.000000
-2.710200 0.000000
-2.668500 0.000000
-2.626800 0.000000
-2.585100 0.000000
-2.543400 0.000000
-2.501700 0.000000
-2.460000 0.000000
-2.418300 0.000000
-2.376600 0.000000
-2.334900 0.000000
-2.293200 0.000000
-2.251500 0.000000
-2.209800 0.000000
-2.168100 0.000000
-2.126400 0.000000
-2.084700 0.000000
-2.043000 0.000000
-2.001300 0.000000
-1.959600 0.000700
-1.917900 0.007300
-1.876200 0.026300
-1.834500 0.046800
-1.792800 0.066400
-1.751100 0.114700
-1.709400 0.208400
-1.667600 0.155100
-1.625900 0.042500
-1.584200 0.057500
-1.542500 0.195800
-1.500800 0.288200
-1.459100 0.264400
-1.417400 0.266300
-1.375700 0.327900
-1.334000 0.177600
-1.292300 0.053000
-1.250600 0.127400
-1.208900 0.277700
-1.167200 0.346800
-1.125500 0.356500
-1.083800 0.495800
-1.042100 0.488500
-1.000400 0.203800
-0.958700 0.119400
-0.917000 0.246400
-0.875300 0.368600
-0.833600 0.591400
-0.791900 0.633700
-0.750200 0.289900
-0.708500 0.141400
-0.666800 0.407700
-0.625000 0.627500
-0.583300 0.454700
-0.541600 0.385100
-0.499900 0.538000
-0.458200 0.512300
-0.416500 0.479400
-0.374800 0.738800
-0.333100 0.929000
-0.291400 0.908200
-0.249700 0.668900
-0.208000 0.485400
-0.166300 0.559800
-0.124600 0.984700
-0.082900 1.739600
-0.041200 2.254800
0.000500 2.314900
0.042200 2.622200
0.083900 3.556000
0.125600 4.314300
0.167300 4.446000
0.209000 4.705900
0.250700 5.299800
0.292400 5.734600
0.334100 6.233500
0.375800 6.948700
0.417600 6.985900
0.459300 7.192000
0.501000 8.235600
0.542700 8.693200
0.584400 8.566000
0.626100 9.825800
0.667800 10.534800
0.709500 10.136900
0.751200 9.671200
0.792900 8.017700
0.834600 6.908200
0.876300 8.295600
0.918000 9.066900
0.959700 8.276200
1.001400 8.594700
1.043100 7.925900
1.084800 6.470600
1.126500 5.894300
1.168200 6.034100
1.209900 6.268500
1.251600 6.244600
1.293300 5.360000
1.335000 5.051300
1.376700 6.006500
1.418400 7.565600
1.460100 7.549500
1.501900 6.447800
1.543600 6.098800
1.585300 6.374500
1.627000 6.717400
1.668700 6.535500
1.710400 6.269500
1.752100 6.325500
1.793800 7.025600
1.835500 7.407600
1.877200 7.094200
1.918900 7.058300
1.960600 7.234900
2.002300 7.550200
2.044000 7.903000
2.085700 7.772300
2.127400 6.948000
2.169100 5.691100
2.210800 5.515500
2.252500 6.612300
2.294200 7.443500
2.335900 7.887200
2.377600 8.292500
2.419300 8.334500
2.461000 8.735600
2.502700 10.046500
2.544500 10.897300
2.586200 10.653600
2.627900 11.118800
2.669600 10.494500
2.711300 9.585000
2.753000 8.769500
2.794700 8.051100
2.836400 8.101600
2.878100 9.091300
2.919800 8.186300
2.961500 5.973400
3.003200 4.861700
3.044900 4.524800
3.086600 5.372000
3.128300 6.736700
3.170000 7.366700
3.211700 7.412900
3.253400 8.523200
3.295100 9.916300
3.336800 9.701000
3.378500 8.230200
3.420200 7.884800
3.461900 8.094400
3.503600 8.595700
3.545300 8.467500
3.587100 7.231700
3.628800 5.717500
3.670500 5.592500
3.712200 5.238600
3.753900 4.592900
3.795600 4.623700
3.837300 4.172100
3.879000 4.010500
3.920700 4.745300
3.962400 4.829200
4.004100 4.218200
4.045800 4.526200
4.087500 5.277600
4.129200 6.282500
4.170900 7.165900
4.212600 6.724500
4.254300 5.217500
4.296000 4.195000
4.337700 4.739900
4.379400 5.490100
4.421100 5.798300
4.462800 5.478300
4.504500 5.211900
4.546200 5.347600
4.587900 5.386700
4.629600 5.134500
4.671400 4.747500
4.713100 4.619600
4.754800 3.765900
4.796500 2.882600
4.838200 2.631300
4.879900 2.234600
4.921600 2.161600
4.963300 2.374800
5.005000 2.768000
5.046700 2.491200
5.088400 1.714600
5.130100 1.588500
5.171800 2.217200
5.213500 2.252800
5.255200 1.786000
5.296900 1.490600
5.338600 1.566300
5.380300 1.675100
5.422000 1.758800
5.463700 1.760000
5.505400 2.083300
5.547100 2.539300
5.588800 2.294700
5.630500 2.076200
5.672200 2.234600
5.714000 1.992800
5.755700 1.624200
5.797400 1.934600
5.839100 2.898000
5.880800 3.942000
5.922500 4.201100
5.964200 3.483200
6.005900 2.479000
6.047600 1.918700
6.089300 2.246300
6.131000 2.800700
6.172700 3.145500
6.214400 3.303300
6.256100 3.465400
6.297800 3.502300
6.339500 3.338600
6.381200 3.555600
6.422900 4.129000
6.464600 4.575300
6.506300 4.483500
6.548000 4.108400
6.589700 4.388500
6.631400 5.530200
6.673100 6.586300
6.714800 6.527500
6.756600 5.827700
6.798300 5.253600
6.840000 4.576400
6.881700 4.640400
6.923400 4.990500
6.965100 5.620100
7.006800 5.653300
7.048500 5.246500
7.090200 5.170900
7.131900 4.662200
7.173600 4.047500
7.215300 3.631800
7.257000 3.125300
7.298700 2.676200
7.340400 1.851900
7.382100 1.574400
7.423800 2.111800
7.465500 2.706400
7.507200 3.124100
7.548900 2.925200
7.590600 2.195100
7.632300 2.219600
7.674000 2.568600
7.715700 2.381600
7.757400 1.817900
7.799100 1.496600
7.840900 1.578900
7.882600 1.538300
7.924300 1.358600
7.966000 1.563400
8.007700 2.011400
8.049400 2.031800
8.091100 1.880100
8.132800 1.641400
8.174500 1.421900
8.216200 1.184300
8.257900 1.013100
8.299600 1.047700
8.341300 1.101200
8.383000 0.935500
8.424700 0.736200
8.466400 0.613600
8.508100 0.800600
8.549800 1.176300
8.591500 1.236000
8.633200 0.998400
8.674900 1.179000
8.716600 1.389200
8.758300 1.623400
8.800000 1.746800
8.841700 1.269600
8.883500 0.947300
8.925200 0.862400
8.966900 0.939200
9.008600 0.961000
9.050300 0.953500
9.092000 1.199500
9.133700 1.173400
9.175400 1.048500
9.217100 0.876400
9.258800 0.839400
9.300500 1.083300
9.342200 1.025900
9.383900 0.662200
9.425600 0.822300
9.467300 1.043500
9.509000 1.123600
9.550700 1.258200
9.592400 1.527700
9.634100 1.877200
9.675800 1.626800
9.717500 1.205600
9.759200 1.131500
9.800900 0.986400
9.842600 1.081700
9.884300 1.228300
9.926100 1.079500
9.967800 1.265200
10.009500 1.805900
10.051200 1.714100
10.092900 1.522000
10.134600 1.623000
10.176300 1.301500
10.218000 1.133100
10.259700 1.171500
10.301400 0.984300
10.343100 0.781000
10.384800 1.084300
10.426500 1.085500
10.468200 0.762000
10.509900 0.732800
10.551600 0.638400
10.593300 0.598100
10.635000 0.481500
10.676700 0.408600
10.718400 0.806700
10.760100 1.277000
10.801800 0.883400
10.843500 0.357900
10.885200 0.352400
10.926900 0.662700
10.968600 0.731900
11.010400 0.580700
11.052100 0.684900
11.093800 0.874200
11.135500 0.695300
11.177200 0.505200
11.218900 0.469100
11.260600 0.423100
11.302300 0.251300
11.344000 0.389200
11.385700 0.798800
11.427400 0.728300
11.469100 0.448800
11.510800 0.666000
11.552500 0.891600
11.594200 0.579600
11.635900 0.465400
11.677600 0.654600
11.719300 0.656000
11.761000 0.685600
11.802700 1.007400
11.844400 1.424000
11.886100 1.596500
11.927800 1.305700
11.969500 0.958700
12.011200 0.871300
12.053000 0.671200
12.094700 0.546600
12.136400 0.361400
12.178100 0.299400
12.219800 0.387700
12.261500 0.365500
12.303200 0.475300
12.344900 0.743700
12.386600 1.241900
12.428300 1.718900
