set title 'mp-1078443 - Density of States'
set xlabel 'Energy (eV)'
set ylabel 'DOS (states/eV)'
set grid
set xrange [-10:10]
set yrange [0:38.643]
set xzeroaxis lt -1
set terminal png size 800,600
set output 'mp-1078443_dos_gnuplot.png'
plot '-' using 1:2 with lines title 'DOS'
-13.382200 0.000000
-13.364800 0.000000
-13.347400 0.000000
-13.330000 0.000000
-13.312600 0.000000
-13.295200 0.000000
-13.277800 0.000000
-13.260400 0.000000
-13.243000 0.000000
-13.225600 0.000000
-13.208200 0.000000
-13.190800 0.000000
-13.173400 0.000000
-13.156100 0.000000
-13.138700 0.000000
-13.121300 0.000000
-13.103900 0.000000
-13.086500 0.000000
-13.069100 0.000000
-13.051700 0.000000
-13.034300 0.000000
-13.016900 0.000000
-12.999500 0.000000
-12.982100 0.000000
-12.964700 0.000000
-12.947300 0.000000
-12.929900 0.000000
-12.912500 0.000000
-12.895100 0.000000
-12.877700 0.000000
-12.860300 0.000000
-12.842900 0.000000
-12.825500 0.000000
-12.808100 0.000000
-12.790700 0.000000
-12.773300 0.000000
-12.755900 0.000000
-12.738500 0.000000
-12.721100 0.000000
-12.703700 0.000000
-12.686300 0.000000
-12.668900 0.000000
-12.651500 0.000000
-12.634100 0.000000
-12.616700 0.000000
-12.599300 0.000000
-12.581900 0.000000
-12.564500 0.000000
-12.547100 0.000000
-12.529700 0.000000
-12.512300 0.000000
-12.494900 0.000000
-12.477500 0.000000
-12.460100 0.000000
-12.442700 0.000000
-12.425300 0.000000
-12.408000 0.000000
-12.390600 0.000000
-12.373200 0.000000
-12.355800 0.000000
-12.338400 0.000000
-12.321000 0.000000
-12.303600 0.000000
-12.286200 0.000000
-12.268800 0.000000
-12.251400 0.000000
-12.234000 0.000000
-12.216600 0.000000
-12.199200 0.000000
-12.181800 0.000000
-12.164400 0.000000
-12.147000 0.000000
-12.129600 0.000000
-12.112200 0.000000
-12.094800 0.000000
-12.077400 0.000000
-12.060000 0.000000
-12.042600 0.000000
-12.025200 0.000000
-12.007800 0.000000
-11.990400 0.000000
-11.973000 0.000000
-11.955600 0.000000
-11.938200 0.000000
-11.920800 0.000000
-11.903400 0.000000
-11.886000 0.000000
-11.868600 0.000000
-11.851200 0.000000
-11.833800 0.000000
-11.816400 0.000000
-11.799000 0.000200
-11.781600 0.033500
-11.764200 0.122600
-11.746800 0.252100
-11.729400 0.412700
-11.712000 0.604600
-11.694600 0.851600
-11.677200 1.281200
-11.659900 1.677200
-11.642500 1.941600
-11.625100 2.166900
-11.607700 2.356700
-11.590300 2.535600
-11.572900 2.535700
-11.555500 2.535700
-11.538100 2.535800
-11.520700 2.535800
-11.503300 2.535900
-11.485900 2.535900
-11.468500 2.525800
-11.451100 2.475500
-11.433700 2.403600
-11.416300 2.310200
-11.398900 2.187900
-11.381500 2.029500
-11.364100 1.754300
-11.346700 1.855300
-11.329300 1.916500
-11.311900 2.059000
-11.294500 2.156900
-11.277100 2.197900
-11.259700 2.319300
-11.242300 2.441100
-11.224900 2.563200
-11.207500 2.685600
-11.190100 2.808300
-11.172700 2.931400
-11.155300 3.054700
-11.137900 3.178400
-11.120500 3.302400
-11.103100 3.426700
-11.085700 3.511700
-11.068300 3.577000
-11.050900 3.439000
-11.033500 3.319100
-11.016100 3.120400
-10.998700 2.941000
-10.981300 2.863600
-10.963900 2.786500
-10.946500 2.709600
-10.929100 2.632900
-10.911800 2.556300
-10.894400 2.480000
-10.877000 2.403800
-10.859600 2.327900
-10.842200 2.252100
-10.824800 2.197500
-10.807400 2.246400
-10.790000 2.518100
-10.772600 2.814400
-10.755200 3.116900
-10.737800 3.501700
-10.720400 3.782800
-10.703000 3.987100
-10.685600 4.168100
-10.668200 4.340600
-10.650800 4.527500
-10.633400 4.718900
-10.616000 4.852000
-10.598600 4.863300
-10.581200 5.111900
-10.563800 6.087700
-10.546400 7.129900
-10.529000 7.694600
-10.511600 8.067200
-10.494200 8.618200
-10.476800 7.936400
-10.459400 5.282800
-10.442000 2.946400
-10.424600 2.797800
-10.407200 2.671500
-10.389800 2.564500
-10.372400 2.473400
-10.355000 2.309900
-10.337600 2.286900
-10.320200 2.287000
-10.302800 2.287100
-10.285400 2.818300
-10.268000 6.465200
-10.250600 6.131500
-10.233200 3.420400
-10.215800 3.169700
-10.198400 3.104100
-10.181000 3.039000
-10.163700 2.974600
-10.146300 2.910700
-10.128900 2.847400
-10.111500 2.784700
-10.094100 2.722500
-10.076700 2.661000
-10.059300 1.226700
-10.041900 1.226800
-10.024500 1.226900
-10.007100 1.227000
-9.989700 1.227100
-9.972300 1.227200
-9.954900 1.227300
-9.937500 1.227500
-9.920100 1.227600
-9.902700 1.227700
-9.885300 1.757200
-9.867900 3.098600
-9.850500 3.312800
-9.833100 3.170200
-9.815700 3.391900
-9.798300 3.697800
-9.780900 4.141800
-9.763500 13.813000
-9.746100 2.430800
-9.728700 2.888000
-9.711300 3.375400
-9.693900 4.470600
-9.676500 4.747600
-9.659100 5.038400
-9.641700 5.703100
-9.624300 6.769600
-9.606900 7.996600
-9.589500 9.447100
-9.572100 10.677500
-9.554700 12.164700
-9.537300 12.964800
-9.519900 15.486400
-9.502500 18.563400
-9.485100 21.928100
-9.467700 16.282800
-9.450300 14.836900
-9.432900 35.129700
-9.415600 28.149100
-9.398200 17.295100
-9.380800 16.487300
-9.363400 16.216900
-9.346000 18.431900
-9.328600 19.794600
-9.311200 10.445300
-9.293800 1.569700
-9.276400 0.000000
-9.259000 0.000000
-9.241600 0.000000
-9.224200 0.000000
-9.206800 0.000000
-9.189400 0.000000
-9.172000 0.000000
-9.154600 0.000000
-9.137200 0.000000
-9.119800 0.000000
-9.102400 0.000000
-9.085000 0.000000
-9.067600 0.000000
-9.050200 0.000000
-9.032800 0.000000
-9.015400 0.000000
-8.998000 0.000000
-8.980600 0.000000
-8.963200 0.000000
-8.945800 0.000000
-8.928400 0.000000
-8.911000 0.000000
-8.893600 0.000000
-8.876200 0.000000
-8.858800 0.000000
-8.841400 0.000000
-8.824000 0.000000
-8.806600 0.000000
-8.789200 0.000000
-8.771800 0.000000
-8.754400 0.000000
-8.737000 0.000000
-8.719600 0.000000
-8.702200 0.000000
-8.684800 0.000000
-8.667500 0.000000
-8.650100 0.000000
-8.632700 0.000000
-8.615300 0.000000
-8.597900 0.000000
-8.580500 0.000000
-8.563100 0.000000
-8.545700 0.000000
-8.528300 0.000000
-8.510900 0.000000
-8.493500 0.000000
-8.476100 0.000000
-8.458700 0.000000
-8.441300 0.000000
-8.423900 0.000000
-8.406500 0.000000
-8.389100 0.000000
-8.371700 0.000000
-8.354300 0.000000
-8.336900 0.000000
-8.319500 0.000000
-8.302100 0.000000
-8.284700 0.000000
-8.267300 0.000000
-8.249900 0.000000
-8.232500 0.000000
-8.215100 0.000000
-8.197700 0.000000
-8.180300 0.000000
-8.162900 0.000000
-8.145500 0.000000
-8.128100 0.000000
-8.110700 0.000000
-8.093300 0.000000
-8.075900 0.000000
-8.058500 0.000000
-8.041100 0.000000
-8.023700 0.000000
-8.006300 0.000000
-7.988900 0.000000
-7.971500 0.000000
-7.954100 0.000000
-7.936700 0.000000
-7.919400 0.000000
-7.902000 0.000000
-7.884600 0.000000
-7.867200 0.000000
-7.849800 0.000000
-7.832400 0.000000
-7.815000 0.000000
-7.797600 0.000000
-7.780200 0.000000
-7.762800 0.000000
-7.745400 0.000000
-7.728000 0.000000
-7.710600 0.000000
-7.693200 0.000000
-7.675800 0.000000
-7.658400 0.000000
-7.641000 0.000000
-7.623600 0.000000
-7.606200 0.108700
-7.588800 1.034300
-7.571400 2.801700
-7.554000 5.135400
-7.536600 9.764100
-7.519200 20.995400
-7.501800 17.748900
-7.484400 7.554700
-7.467000 6.498300
-7.449600 5.878000
-7.432200 5.341700
-7.414800 4.889600
-7.397400 4.380600
-7.380000 3.402000
-7.362600 2.881200
-7.345200 2.094600
-7.327800 1.930200
-7.310400 1.770200
-7.293000 1.614400
-7.275600 1.463000
-7.258200 1.316000
-7.240800 1.173300
-7.223400 1.034900
-7.206000 1.520200
-7.188600 2.469700
-7.171300 3.394200
-7.153900 4.293800
-7.136500 3.729300
-7.119100 3.479900
-7.101700 3.270600
-7.084300 3.281000
-7.066900 3.408600
-7.049500 3.042300
-7.032100 2.564300
-7.014700 2.185000
-6.997300 1.904300
-6.979900 1.722300
-6.962500 1.643500
-6.945100 1.643200
-6.927700 1.643100
-6.910300 1.643100
-6.892900 1.643200
-6.875500 1.643400
-6.858100 5.039400
-6.840700 5.526600
-6.823300 5.607300
-6.805900 5.501300
-6.788500 5.208500
-6.771100 4.729200
-6.753700 4.110200
-6.736300 3.594500
-6.718900 3.218000
-6.701500 3.234900
-6.684100 3.461300
-6.666700 3.561300
-6.649300 3.672100
-6.631900 3.789500
-6.614500 3.913700
-6.597100 4.044600
-6.579700 4.191900
-6.562300 5.010900
-6.544900 9.539300
-6.527500 13.479800
-6.510100 10.950100
-6.492700 8.044300
-6.475300 5.186900
-6.457900 4.421800
-6.440500 4.166100
-6.423200 3.882000
-6.405800 3.572400
-6.388400 3.237100
-6.371000 2.888000
-6.353600 2.535700
-6.336200 2.184000
-6.318800 2.115800
-6.301400 2.157600
-6.284000 2.237600
-6.266600 2.315500
-6.249200 2.391200
-6.231800 2.464800
-6.214400 2.531700
-6.197000 2.582100
-6.179600 2.615800
-6.162200 2.632600
-6.144800 2.632600
-6.127400 2.603500
-6.110000 2.569500
-6.092600 2.536400
-6.075200 2.504100
-6.057800 2.472600
-6.040400 2.442000
-6.023000 2.412200
-6.005600 2.467000
-5.988200 2.516400
-5.970800 2.555600
-5.953400 2.562200
-5.936000 2.537800
-5.918600 2.515900
-5.901200 2.497700
-5.883800 2.483000
-5.866400 2.510300
-5.849000 2.475500
-5.831600 2.395500
-5.814200 2.317600
-5.796800 2.241800
-5.779400 2.168000
-5.762000 2.080100
-5.744600 1.945600
-5.727200 1.763600
-5.709800 1.636800
-5.692400 1.545100
-5.675100 1.455500
-5.657700 1.393700
-5.640300 1.375700
-5.622900 1.375400
-5.605500 1.346800
-5.588100 1.323800
-5.570700 1.317100
-5.553300 1.341500
-5.535900 1.435700
-5.518500 1.520300
-5.501100 1.596900
-5.483700 1.675700
-5.466300 1.755400
-5.448900 1.835700
-5.431500 1.893300
-5.414100 1.939300
-5.396700 1.979900
-5.379300 2.015100
-5.361900 2.043800
-5.344500 2.065600
-5.327100 2.080400
-5.309700 2.074200
-5.292300 1.997800
-5.274900 1.870500
-5.257500 1.745700
-5.240100 1.623500
-5.222700 1.504400
-5.205300 1.388900
-5.187900 1.277200
-5.170500 1.169300
-5.153100 1.065100
-5.135700 0.938300
-5.118300 0.817400
-5.100900 0.713300
-5.083500 0.619600
-5.066100 0.534100
-5.048700 0.456700
-5.031300 0.387500
-5.013900 0.325100
-4.996500 0.266600
-4.979100 0.211700
-4.961700 0.160400
-4.944300 0.112800
-4.927000 0.068900
-4.909600 0.028600
-4.892200 0.000000
-4.874800 0.000000
-4.857400 0.000000
-4.840000 0.000000
-4.822600 0.000000
-4.805200 0.000000
-4.787800 0.000000
-4.770400 0.000000
-4.753000 0.000000
-4.735600 0.000000
-4.718200 0.000000
-4.700800 0.000000
-4.683400 0.000000
-4.666000 0.000000
-4.648600 0.000000
-4.631200 0.000000
-4.613800 0.000000
-4.596400 0.000000
-4.579000 0.000000
-4.561600 0.000000
-4.544200 0.000000
-4.526800 0.000000
-4.509400 0.000000
-4.492000 0.000000
-4.474600 0.000000
-4.457200 0.000000
-4.439800 0.000000
-4.422400 0.000000
-4.405000 0.000000
-4.387600 0.000000
-4.370200 0.000000
-4.352800 0.000000
-4.335400 0.000000
-4.318000 0.000000
-4.300600 0.000000
-4.283200 0.000000
-4.265800 0.000000
-4.248400 0.000000
-4.231000 0.000000
-4.213600 0.000000
-4.196200 0.000000
-4.178900 0.000000
-4.161500 0.000000
-4.144100 0.000000
-4.126700 0.000000
-4.109300 0.000000
-4.091900 0.000000
-4.074500 0.000000
-4.057100 0.000000
-4.039700 0.000000
-4.022300 0.000000
-4.004900 0.000000
-3.987500 0.000000
-3.970100 0.000000
-3.952700 0.000000
-3.935300 0.000000
-3.917900 0.000000
-3.900500 0.000000
-3.883100 0.000000
-3.865700 0.000000
-3.848300 0.000000
-3.830900 0.000000
-3.813500 0.000000
-3.796100 0.000000
-3.778700 0.000000
-3.761300 0.000000
-3.743900 0.000000
-3.726500 0.000000
-3.709100 0.000000
-3.691700 0.000000
-3.674300 0.000000
-3.656900 0.000000
-3.639500 0.000000
-3.622100 0.000000
-3.604700 0.000000
-3.587300 0.000000
-3.569900 0.000000
-3.552500 0.000000
-3.535100 0.000000
-3.517700 0.000000
-3.500300 0.000000
-3.482900 0.000000
-3.465500 0.000000
-3.448100 0.000000
-3.430800 0.000000
-3.413400 0.000000
-3.396000 0.000000
-3.378600 0.000000
-3.361200 0.000000
-3.343800 0.000000
-3.326400 0.000000
-3.309000 0.000000
-3.291600 0.000000
-3.274200 0.000000
-3.256800 0.000000
-3.239400 0.000000
-3.222000 0.000000
-3.204600 0.000000
-3.187200 0.000000
-3.169800 0.000000
-3.152400 0.000000
-3.135000 0.000000
-3.117600 0.000000
-3.100200 0.000000
-3.082800 0.000000
-3.065400 0.000000
-3.048000 0.000000
-3.030600 0.000000
-3.013200 0.000000
-2.995800 0.000000
-2.978400 0.000000
-2.961000 0.000000
-2.943600 0.000000
-2.926200 0.000000
-2.908800 0.000000
-2.891400 0.000000
-2.874000 0.000000
-2.856600 0.000000
-2.839200 0.000000
-2.821800 0.000000
-2.804400 0.000000
-2.787000 0.000000
-2.769600 0.000000
-2.752200 0.000000
-2.734800 0.000000
-2.717400 0.000000
-2.700000 0.000000
-2.682700 0.000000
-2.665300 0.000000
-2.647900 0.000000
-2.630500 0.000000
-2.613100 0.000000
-2.595700 0.000000
-2.578300 0.000000
-2.560900 0.000000
-2.543500 0.000000
-2.526100 0.000000
-2.508700 0.000000
-2.491300 0.000000
-2.473900 0.000000
-2.456500 0.483900
-2.439100 2.392600
-2.421700 3.473000
-2.404300 4.778500
-2.386900 5.137800
-2.369500 4.752400
-2.352100 4.192500
-2.334700 3.567000
-2.317300 2.993500
-2.299900 2.543900
-2.282500 2.915900
-2.265100 3.510100
-2.247700 3.626300
-2.230300 3.738100
-2.212900 3.855600
-2.195500 3.978800
-2.178100 4.107800
-2.160700 4.242500
-2.143300 4.383000
-2.125900 4.508200
-2.108500 4.601300
-2.091100 4.690000
-2.073700 4.774400
-2.056300 5.568300
-2.038900 5.942300
-2.021500 6.323900
-2.004100 6.691700
-1.986700 7.030100
-1.969300 5.965200
-1.951900 6.004000
-1.934600 6.021900
-1.917200 5.981100
-1.899800 5.912900
-1.882400 5.765500
-1.865000 5.525100
-1.847600 5.364300
-1.830200 3.728700
-1.812800 4.149600
-1.795400 4.556500
-1.778000 4.789200
-1.760600 4.757000
-1.743200 4.176800
-1.725800 3.777100
-1.708400 3.572500
-1.691000 3.535400
-1.673600 3.526800
-1.656200 3.533000
-1.638800 3.572900
-1.621400 3.614500
-1.604000 3.660000
-1.586600 3.710200
-1.569200 3.770500
-1.551800 3.842000
-1.534400 3.924700
-1.517000 4.018500
-1.499600 4.123400
-1.482200 4.223200
-1.464800 4.316100
-1.447400 4.396500
-1.430000 4.365100
-1.412600 4.273600
-1.395200 4.149700
-1.377800 3.993500
-1.360400 3.969000
-1.343000 4.087500
-1.325600 3.885000
-1.308200 3.472800
-1.290800 5.874300
-1.273400 8.285400
-1.256000 9.182700
-1.238600 8.753800
-1.221200 8.773600
-1.203800 9.250500
-1.186500 9.419900
-1.169100 8.867000
-1.151700 7.674700
-1.134300 7.691600
-1.116900 8.275400
-1.099500 8.299100
-1.082100 8.209100
-1.064700 8.045800
-1.047300 7.562000
-1.029900 6.996500
-1.012500 6.695000
-0.995100 6.494400
-0.977700 6.458800
-0.960300 6.634000
-0.942900 7.010200
-0.925500 7.586300
-0.908100 8.361200
-0.890700 7.616800
-0.873300 7.746700
-0.855900 7.915200
-0.838500 8.073600
-0.821100 8.214500
-0.803700 8.412900
-0.786300 8.773800
-0.768900 8.745400
-0.751500 7.955900
-0.734100 6.678000
-0.716700 6.781600
-0.699300 7.163200
-0.681900 7.504900
-0.664500 7.840300
-0.647100 8.090000
-0.629700 8.162300
-0.612300 8.172900
-0.594900 8.366300
-0.577500 7.858500
-0.560100 7.286200
-0.542700 6.804300
-0.525300 6.393400
-0.507900 6.054400
-0.490500 5.813400
-0.473100 5.664000
-0.455700 5.647300
-0.438400 5.826500
-0.421000 6.010500
-0.403600 6.194200
-0.386200 6.380800
-0.368800 6.574200
-0.351400 6.774500
-0.334000 7.164200
-0.316600 12.369200
-0.299200 10.054200
-0.281800 8.894900
-0.264400 7.945300
-0.247000 7.184600
-0.229600 6.406600
-0.212200 5.829300
-0.194800 5.605100
-0.177400 5.695700
-0.160000 5.975700
-0.142600 6.455700
-0.125200 7.140500
-0.107800 8.033600
-0.090400 8.675800
-0.073000 9.144500
-0.055600 9.453600
-0.038200 9.732600
-0.020800 11.860300
-0.003400 8.812100
0.014000 7.695500
0.031400 7.338500
0.048800 7.700700
0.066200 8.486100
0.083600 9.797800
0.101000 11.491700
0.118400 13.988400
0.135800 10.639200
0.153200 8.670000
0.170600 7.065700
0.188000 6.784900
0.205400 6.513200
0.222800 6.250100
0.240200 6.065000
0.257600 6.029700
0.275000 6.104000
0.292300 6.245500
0.309700 6.439500
0.327100 6.715800
0.344500 7.052100
0.361900 7.605700
0.379300 8.033100
0.396700 8.199900
0.414100 8.479200
0.431500 8.577700
0.448900 8.181300
0.466300 7.703300
0.483700 7.152700
0.501100 6.861000
0.518500 6.621200
0.535900 6.330300
0.553300 6.107900
0.570700 6.069300
0.588100 6.172200
0.605500 6.102300
0.622900 6.128900
0.640300 6.152400
0.657700 6.175100
0.675100 6.193600
0.692500 6.205000
0.709900 6.203700
0.727300 6.417100
0.744700 6.829900
0.762100 7.121300
0.779500 8.043300
0.796900 7.706700
0.814300 6.531500
0.831700 5.731100
0.849100 5.080800
0.866500 4.926800
0.883900 4.838300
0.901300 4.758300
0.918700 4.686200
0.936100 4.629400
0.953500 4.591500
0.970900 4.557100
0.988300 4.525800
1.005700 4.497500
1.023100 4.471300
1.040400 4.416400
1.057800 4.360000
1.075200 4.356600
1.092600 4.404200
1.110000 4.399300
1.127400 4.162200
1.144800 3.769000
1.162200 3.703700
1.179600 3.796200
1.197000 4.004100
1.214400 4.205300
1.231800 4.425100
1.249200 4.682200
1.266600 4.971300
1.284000 5.303300
1.301400 5.681900
1.318800 6.128100
1.336200 6.582600
1.353600 6.899400
1.371000 7.101200
1.388400 7.320200
1.405800 8.131900
1.423200 8.661500
1.440600 8.987200
1.458000 9.056700
1.475400 8.760700
1.492800 8.098200
1.510200 7.646200
1.527600 7.527200
1.545000 7.542500
1.562400 9.841400
1.579800 7.752900
1.597200 7.348500
1.614600 6.984900
1.632000 6.881100
1.649400 6.700000
1.666800 6.707400
1.684200 7.541900
1.701600 7.829500
1.719000 8.293700
1.736400 8.954500
1.753800 9.676500
1.771200 9.714500
1.788500 9.578500
1.805900 9.332500
1.823300 8.971200
1.840700 8.673500
1.858100 8.520400
1.875500 8.291400
1.892900 8.081400
1.910300 7.779100
1.927700 7.499400
1.945100 11.117500
1.962500 14.171400
1.979900 15.061700
1.997300 14.683100
2.014700 11.234700
2.032100 9.653700
2.049500 9.061300
2.066900 8.279600
2.084300 8.301900
2.101700 8.360500
2.119100 8.465200
2.136500 8.676900
2.153900 7.978400
2.171300 7.246900
2.188700 6.716700
2.206100 6.717400
2.223500 7.890100
2.240900 8.530300
2.258300 7.958800
2.275700 8.230800
2.293100 8.725600
2.310500 8.851700
2.327900 8.831800
2.345300 8.517100
2.362700 7.787500
2.380100 6.075300
2.397500 5.739500
2.414900 5.336700
2.432300 5.057800
2.449700 4.902900
2.467100 4.856500
2.484500 4.895800
2.501900 5.244700
2.519300 6.642900
2.536600 8.929700
2.554000 11.204400
2.571400 13.719100
2.588800 14.107800
2.606200 10.801000
2.623600 8.313300
2.641000 6.715500
2.658400 5.757700
2.675800 5.062300
2.693200 4.616700
2.710600 4.238300
2.728000 3.950400
2.745400 3.750000
2.762800 3.639400
2.780200 3.791600
2.797600 4.004500
2.815000 4.228300
2.832400 4.462800
2.849800 4.712700
2.867200 5.065800
2.884600 5.386400
2.902000 5.573800
2.919400 5.816800
2.936800 5.492200
2.954200 4.612600
2.971600 6.890000
2.989000 0.629800
3.006400 0.253900
3.023800 0.131400
3.041200 0.063700
3.058600 0.020200
3.076000 0.001000
3.093400 0.000000
3.110800 0.000000
3.128200 0.000000
3.145600 0.000000
3.163000 0.000000
3.180400 0.000000
3.197800 0.000000
3.215200 0.000000
3.232600 0.000000
3.250000 0.000000
3.267400 0.000000
3.284700 0.000000
3.302100 0.000000
3.319500 0.000000
3.336900 0.000000
3.354300 0.000000
3.371700 0.000000
3.389100 0.000000
3.406500 0.000000
3.423900 0.000000
3.441300 0.000000
3.458700 0.000000
3.476100 0.000000
3.493500 0.000000
3.510900 0.000000
3.528300 0.000000
3.545700 0.000000
3.563100 0.000000
3.580500 0.000000
3.597900 0.000000
3.615300 0.000000
3.632700 0.000000
3.650100 0.000000
3.667500 0.000000
3.684900 0.000000
3.702300 0.000000
3.719700 0.009200
3.737100 0.024200
3.754500 0.042700
3.771900 0.064900
3.789300 0.090700
3.806700 0.120200
3.824100 0.156600
3.841500 0.219100
3.858900 0.310700
3.876300 0.449200
3.893700 0.628600
3.911100 0.830700
3.928500 1.464000
3.945900 1.466700
3.963300 1.451100
3.980700 1.421000
3.998100 1.397000
4.015500 1.382000
4.032800 1.378300
4.050200 1.403100
4.067600 1.434900
4.085000 1.475200
4.102400 1.527600
4.119800 1.618700
4.137200 1.790400
4.154600 1.973400
4.172000 2.054700
4.189400 2.087500
4.206800 2.122500
4.224200 2.166100
4.241600 2.218800
4.259000 2.280800
4.276400 2.351800
4.293800 2.432100
4.311200 2.521500
4.328600 2.620100
4.346000 2.730800
4.363400 2.863600
4.380800 3.018100
4.398200 3.314500
4.415600 3.632400
4.433000 3.891600
4.450400 4.087900
4.467800 4.221600
4.485200 4.297800
4.502600 4.367000
4.520000 4.439400
4.537400 4.511300
4.554800 4.804700
4.572200 5.114600
4.589600 5.367500
4.607000 5.563300
4.624400 5.702100
4.641800 5.771300
4.659200 5.650500
4.676600 5.511000
