set title 'mp-998864 - Density of States'
set xlabel 'Energy (eV)'
set ylabel 'DOS (states/eV)'
set grid
set xrange [-10:10]
set yrange [0:2.699]
set xzeroaxis lt -1
set terminal png size 800,600
set output 'mp-998864_dos_gnuplot.png'
plot '-' using 1:2 with lines title 'DOS'
-20.567500 0.000000
-20.524000 0.000000
-20.480500 0.000000
-20.437000 0.000000
-20.393400 0.000000
-20.349900 0.000000
-20.306400 0.000000
-20.262900 0.000000
-20.219300 0.000000
-20.175800 0.000000
-20.132300 0.000000
-20.088800 0.000000
-20.045200 0.000000
-20.001700 0.000000
-19.958200 0.000000
-19.914700 0.000000
-19.871100 0.000000
-19.827600 0.000000
-19.784100 0.000000
-19.740600 0.000000
-19.697000 0.000000
-19.653500 0.000000
-19.610000 0.000000
-19.566500 0.000000
-19.523000 0.000000
-19.479400 0.000000
-19.435900 0.000000
-19.392400 0.000000
-19.348900 0.000000
-19.305300 0.000000
-19.261800 0.000000
-19.218300 0.000000
-19.174800 0.000000
-19.131200 0.000000
-19.087700 0.000000
-19.044200 0.000000
-19.000700 0.000000
-18.957100 0.000000
-18.913600 0.000000
-18.870100 0.000000
-18.826600 0.000000
-18.783000 0.000000
-18.739500 0.000000
-18.696000 0.000000
-18.652500 0.000000
-18.608900 0.000000
-18.565400 0.000000
-18.521900 0.000000
-18.478400 0.000000
-18.434800 0.000000
-18.391300 0.000000
-18.347800 0.000000
-18.304300 0.000000
-18.260700 0.000000
-18.217200 0.000000
-18.173700 0.000000
-18.130200 0.000000
-18.086600 0.000000
-18.043100 0.000000
-17.999600 0.000000
-17.956100 0.000000
-17.912500 0.000000
-17.869000 0.000000
-17.825500 0.000000
-17.782000 0.000000
-17.738400 0.000000
-17.694900 0.000000
-17.651400 0.000000
-17.607900 0.000000
-17.564300 0.000000
-17.520800 0.000000
-17.477300 0.000000
-17.433800 0.000000
-17.390200 0.000000
-17.346700 0.000000
-17.303200 0.000000
-17.259700 0.000000
-17.216100 0.000000
-17.172600 0.000000
-17.129100 0.000000
-17.085600 0.000000
-17.042000 0.000000
-16.998500 0.000000
-16.955000 0.000000
-16.911500 0.000000
-16.867900 0.000000
-16.824400 0.000000
-16.780900 0.000000
-16.737400 0.000000
-16.693800 0.000000
-16.650300 0.000000
-16.606800 0.026600
-16.563300 0.477600
-16.519700 1.205600
-16.476200 1.653500
-16.432700 2.307500
-16.389200 1.819100
-16.345700 1.181100
-16.302100 1.010100
-16.258600 1.010100
-16.215100 0.992200
-16.171600 0.927400
-16.128000 0.826300
-16.084500 0.734200
-16.041000 0.626000
-15.997500 0.626000
-15.953900 0.626000
-15.910400 0.626000
-15.866900 0.626000
-15.823400 0.626000
-15.779800 0.626000
-15.736300 0.608000
-15.692800 0.573600
-15.649300 0.537100
-15.605700 0.483800
-15.562200 0.477300
-15.518700 0.477300
-15.475200 0.477300
-15.431600 0.477300
-15.388100 0.477300
-15.344600 0.477300
-15.301100 0.477300
-15.257500 0.477300
-15.214000 0.477300
-15.170500 0.477300
-15.127000 0.469000
-15.083400 0.455300
-15.039900 0.443000
-14.996400 0.425600
-14.952900 0.425600
-14.909300 0.425600
-14.865800 0.425600
-14.822300 0.425600
-14.778800 0.425600
-14.735200 0.425600
-14.691700 0.425600
-14.648200 0.425600
-14.604700 0.425600
-14.561100 0.425600
-14.517600 0.425600
-14.474100 0.428800
-14.430600 0.441900
-14.387000 0.457000
-14.343500 0.474600
-14.300000 0.481700
-14.256500 0.481700
-14.212900 0.481700
-14.169400 0.481700
-14.125900 0.481700
-14.082400 0.481700
-14.038800 0.481700
-13.995300 0.481700
-13.951800 0.481700
-13.908300 0.481700
-13.864700 0.542100
-13.821200 0.749000
-13.777700 0.908400
-13.734200 1.124400
-13.690600 1.124500
-13.647100 1.124500
-13.603600 0.944300
-13.560100 0.604700
-13.516500 0.322800
-13.473000 0.000000
-13.429500 0.000000
-13.386000 0.000000
-13.342500 0.000000
-13.298900 0.000000
-13.255400 0.000000
-13.211900 0.000000
-13.168400 0.000000
-13.124800 0.000000
-13.081300 0.000000
-13.037800 0.000000
-12.994300 0.000000
-12.950700 0.000000
-12.907200 0.000000
-12.863700 0.000000
-12.820200 0.000000
-12.776600 0.000000
-12.733100 0.000000
-12.689600 0.000000
-12.646100 0.000000
-12.602500 0.000000
-12.559000 0.000000
-12.515500 0.000000
-12.472000 0.000000
-12.428400 0.000000
-12.384900 0.000000
-12.341400 0.000000
-12.297900 0.000000
-12.254300 0.000000
-12.210800 0.000000
-12.167300 0.000000
-12.123800 0.000000
-12.080200 0.000000
-12.036700 0.000000
-11.993200 0.000000
-11.949700 0.000000
-11.906100 0.000000
-11.862600 0.000000
-11.819100 0.000000
-11.775600 0.000000
-11.732000 0.000000
-11.688500 0.000000
-11.645000 0.000000
-11.601500 0.000000
-11.557900 0.000000
-11.514400 0.000000
-11.470900 0.000000
-11.427400 0.000000
-11.383800 0.000000
-11.340300 0.000000
-11.296800 0.000000
-11.253300 0.000000
-11.209700 0.000000
-11.166200 0.000000
-11.122700 0.000000
-11.079200 0.000000
-11.035600 0.000000
-10.992100 0.000000
-10.948600 0.000000
-10.905100 0.000000
-10.861500 0.000000
-10.818000 0.000000
-10.774500 0.000000
-10.731000 0.000000
-10.687400 0.000000
-10.643900 0.000000
-10.600400 0.000000
-10.556900 0.000000
-10.513300 0.000000
-10.469800 0.000000
-10.426300 0.000000
-10.382800 0.000000
-10.339300 0.000000
-10.295700 0.000000
-10.252200 0.000000
-10.208700 0.000000
-10.165200 0.000000
-10.121600 0.000000
-10.078100 0.000000
-10.034600 0.000000
-9.991100 0.000000
-9.947500 0.000000
-9.904000 0.000000
-9.860500 0.000000
-9.817000 0.000000
-9.773400 0.000000
-9.729900 0.000000
-9.686400 0.000000
-9.642900 0.000000
-9.599300 0.000000
-9.555800 0.000000
-9.512300 0.000000
-9.468800 0.000000
-9.425200 0.000000
-9.381700 0.000000
-9.338200 0.000000
-9.294700 0.000000
-9.251100 0.000000
-9.207600 0.000000
-9.164100 0.000000
-9.120600 0.000000
-9.077000 0.000000
-9.033500 0.000000
-8.990000 0.000000
-8.946500 0.000000
-8.902900 0.000000
-8.859400 0.000000
-8.815900 0.000000
-8.772400 0.000000
-8.728800 0.000000
-8.685300 0.000000
-8.641800 0.000000
-8.598300 0.000000
-8.554700 0.000000
-8.511200 0.000000
-8.467700 0.000000
-8.424200 0.000000
-8.380600 0.000000
-8.337100 0.000000
-8.293600 0.000000
-8.250100 0.000000
-8.206500 0.000000
-8.163000 0.000000
-8.119500 0.000000
-8.076000 0.000000
-8.032400 0.000000
-7.988900 0.000000
-7.945400 0.000000
-7.901900 0.000000
-7.858300 0.000000
-7.814800 0.000000
-7.771300 0.000000
-7.727800 0.000000
-7.684200 0.000000
-7.640700 0.000000
-7.597200 0.000000
-7.553700 0.000000
-7.510100 0.000000
-7.466600 0.000000
-7.423100 0.000000
-7.379600 0.000000
-7.336000 0.000000
-7.292500 0.000000
-7.249000 0.000000
-7.205500 0.000000
-7.162000 0.000000
-7.118400 0.000000
-7.074900 0.000000
-7.031400 0.000000
-6.987900 0.147900
-6.944300 0.287800
-6.900800 0.412800
-6.857300 0.615100
-6.813800 0.615100
-6.770200 0.615100
-6.726700 0.615100
-6.683200 0.615100
-6.639700 0.615100
-6.596100 0.615100
-6.552600 0.606100
-6.509100 0.494800
-6.465600 0.413300
-6.422000 0.327900
-6.378500 0.234600
-6.335000 0.234600
-6.291500 0.234600
-6.247900 0.234600
-6.204400 0.234600
-6.160900 0.234600
-6.117400 0.234600
-6.073800 0.234600
-6.030300 0.234600
-5.986800 0.234600
-5.943300 0.234600
-5.899700 0.234600
-5.856200 0.234600
-5.812700 0.234600
-5.769200 0.234600
-5.725600 0.234600
-5.682100 0.234600
-5.638600 0.234600
-5.595100 0.234600
-5.551500 0.234600
-5.508000 0.234600
-5.464500 0.234600
-5.421000 0.234600
-5.377400 0.234600
-5.333900 0.231300
-5.290400 0.215400
-5.246900 0.199800
-5.203300 0.184200
-5.159800 0.169100
-5.116300 0.169100
-5.072800 0.169100
-5.029200 0.169100
-4.985700 0.169100
-4.942200 0.169100
-4.898700 0.169100
-4.855100 0.169100
-4.811600 0.169100
-4.768100 0.169100
-4.724600 0.169100
-4.681000 0.169100
-4.637500 0.169100
-4.594000 0.169100
-4.550500 0.169100
-4.506900 0.226600
-4.463400 0.430400
-4.419900 0.632500
-4.376400 0.638300
-4.332800 0.608200
-4.289300 0.663100
-4.245800 0.757700
-4.202300 0.831600
-4.158800 0.884400
-4.115200 0.945200
-4.071700 1.041900
-4.028200 1.032200
-3.984700 0.970800
-3.941100 0.959600
-3.897600 0.983700
-3.854100 1.016700
-3.810600 1.042700
-3.767000 1.080200
-3.723500 1.118200
-3.680000 1.219800
-3.636500 1.482900
-3.592900 1.796600
-3.549400 2.228900
-3.505900 2.453900
-3.462400 1.958500
-3.418800 1.907500
-3.375300 1.779900
-3.331800 1.692800
-3.288300 1.619400
-3.244700 1.562800
-3.201200 1.424700
-3.157700 1.314100
-3.114200 1.414300
-3.070600 1.605400
-3.027100 1.655100
-2.983600 1.684800
-2.940100 1.594300
-2.896500 1.493200
-2.853000 1.466200
-2.809500 1.448900
-2.766000 1.361900
-2.722400 1.202100
-2.678900 1.092900
-2.635400 1.027000
-2.591900 0.914200
-2.548300 0.868600
-2.504800 0.859800
-2.461300 0.859100
-2.417800 0.849100
-2.374200 0.839400
-2.330700 0.850000
-2.287200 0.889600
-2.243700 0.968000
-2.200100 1.045600
-2.156600 1.114000
-2.113100 1.185100
-2.069600 1.236900
-2.026000 1.334800
-1.982500 1.471000
-1.939000 1.567000
-1.895500 1.698500
-1.851900 1.834400
-1.808400 1.858700
-1.764900 1.817200
-1.721400 1.806500
-1.677800 1.785400
-1.634300 1.658100
-1.590800 1.504100
-1.547300 1.429400
-1.503700 1.375200
-1.460200 1.392200
-1.416700 1.453900
-1.373200 1.590500
-1.329600 1.968500
-1.286100 1.815000
-1.242600 1.739300
-1.199100 1.197700
-1.155600 0.548700
-1.112000 0.522100
-1.068500 0.509600
-1.025000 0.497200
-0.981500 0.500500
-0.937900 0.528200
-0.894400 0.498200
-0.850900 0.429800
-0.807400 0.289000
-0.763800 0.138400
-0.720300 0.138400
-0.676800 0.138400
-0.633300 0.138400
-0.589700 0.138400
-0.546200 0.138400
-0.502700 0.138400
-0.459200 0.138400
-0.415600 0.138400
-0.372100 0.138400
-0.328600 0.138400
-0.285100 0.138400
-0.241500 0.138400
-0.198000 0.138400
-0.154500 0.138400
-0.111000 0.138400
-0.067400 0.138400
-0.023900 0.138400
0.019600 0.138400
0.063100 0.138400
0.106700 0.138400
0.150200 0.138400
0.193700 0.138400
0.237200 0.138400
0.280800 0.138400
0.324300 0.138400
0.367800 0.138400
0.411300 0.139800
0.454900 0.144800
0.498400 0.150100
0.541900 0.155800
0.585400 0.155800
0.629000 0.155800
0.672500 0.155800
0.716000 0.155800
0.759500 0.155800
0.803100 0.155800
0.846600 0.155800
0.890100 0.155800
0.933600 0.155800
0.977200 0.155800
1.020700 0.155800
1.064200 0.155800
1.107700 0.155800
1.151300 0.155800
1.194800 0.155800
1.238300 0.155800
1.281800 0.155800
1.325400 0.155800
1.368900 0.155800
1.412400 0.155800
1.455900 0.155800
1.499500 0.155800
1.543000 0.155800
1.586500 0.155800
1.630000 0.155800
1.673600 0.155800
1.717100 0.155800
1.760600 0.155800
1.804100 0.155800
1.847700 0.155800
1.891200 0.155800
1.934700 0.155800
1.978200 0.155800
2.021700 0.155800
2.065300 0.155800
2.108800 0.155800
2.152300 0.155800
2.195800 0.155800
2.239400 0.155800
2.282900 0.203800
2.326400 0.279900
2.369900 0.341000
2.413500 0.341000
2.457000 0.341000
2.500500 0.341000
2.544000 0.341000
2.587600 0.341000
2.631100 0.341000
2.674600 0.341000
2.718100 0.341000
2.761700 0.341000
2.805200 0.341000
2.848700 0.341000
2.892200 0.341000
2.935800 0.341000
2.979300 0.341100
3.022800 0.341100
3.066300 0.341100
3.109900 0.298300
3.153400 0.138200
3.196900 0.000000
3.240400 0.000000
3.284000 0.000000
3.327500 0.000000
3.371000 0.000000
3.414500 0.000000
3.458100 0.000000
3.501600 0.000000
3.545100 0.000000
3.588600 0.000000
3.632200 0.000000
3.675700 0.000000
3.719200 0.000000
3.762700 0.000000
3.806300 0.000000
3.849800 0.000000
3.893300 0.000000
3.936800 0.000000
3.980400 0.008500
4.023900 0.019200
4.067400 0.030600
4.110900 0.041400
4.154500 0.049100
4.198000 0.047900
4.241500 0.053100
4.285000 0.058800
4.328600 0.064800
4.372100 0.071200
4.415600 0.077500
4.459100 0.081900
4.502700 0.085400
4.546200 0.089000
4.589700 0.092900
4.633200 0.096800
4.676800 0.101100
4.720300 0.105700
4.763800 0.110500
4.807300 0.115500
4.850900 0.120700
4.894400 0.126100
4.937900 0.131800
4.981400 0.136800
5.024900 0.141600
5.068500 0.146400
5.112000 0.151800
5.155500 0.157700
5.199000 0.163700
5.242600 0.170100
5.286100 0.177000
5.329600 0.184300
5.373100 0.192400
5.416700 0.201200
5.460200 0.210500
5.503700 0.239100
5.547200 0.313800
5.590800 0.396300
5.634300 0.459700
5.677800 0.477400
5.721300 0.482400
5.764900 0.484100
5.808400 0.499100
5.851900 0.512200
5.895400 0.532500
5.939000 0.542800
5.982500 0.541500
6.026000 0.534400
6.069500 0.524500
6.113100 0.523000
6.156600 0.521400
6.200100 0.539100
6.243600 0.573800
6.287200 0.614000
6.330700 0.646100
6.374200 0.668800
6.417700 0.693100
6.461300 0.717600
6.504800 0.741000
6.548300 0.750900
6.591800 0.748800
6.635400 0.751900
6.678900 0.726000
6.722400 0.718800
6.765900 0.711600
6.809500 0.709600
6.853000 0.737000
6.896500 0.782800
6.940000 0.842200
6.983600 0.916300
7.027100 1.002200
7.070600 1.112900
7.114100 1.171400
7.157700 1.207200
7.201200 1.258700
7.244700 1.323200
7.288200 1.342900
7.331800 1.367500
7.375300 1.337600
7.418800 1.418400
7.462300 1.478400
7.505900 1.533400
7.549400 1.514500
7.592900 1.521000
7.636400 1.512800
7.680000 1.504800
7.723500 1.498200
7.767000 1.503600
7.810500 1.499900
7.854100 1.468800
7.897600 1.424300
7.941100 1.391500
7.984600 1.373200
8.028100 1.349800
8.071700 1.341800
8.115200 1.319500
8.158700 1.328900
8.202200 1.270800
8.245800 1.252200
8.289300 1.224800
8.332800 1.207100
8.376300 1.205500
8.419900 1.209400
8.463400 1.215300
8.506900 1.245600
8.550400 1.313000
8.594000 1.416200
8.637500 1.471300
8.681000 1.554300
8.724500 1.485600
8.768100 1.382900
8.811600 1.324600
8.855100 1.259500
8.898600 1.139800
8.942200 1.001600
8.985700 0.936500
9.029200 0.897200
9.072700 0.747900
9.116300 0.678700
9.159800 0.631600
9.203300 0.603900
9.246800 0.588500
9.290400 0.569800
9.333900 0.545100
9.377400 0.530600
9.420900 0.515200
9.464500 0.489600
9.508000 0.486900
9.551500 0.452800
9.595000 0.377000
9.638600 0.429900
9.682100 0.495500
9.725600 0.542200
9.769100 0.592900
9.812700 0.596700
9.856200 0.610900
9.899700 0.624600
9.943200 0.636900
9.986800 0.646000
10.030300 0.657200
10.073800 0.670200
10.117300 0.693200
10.160900 0.731000
10.204400 0.762200
10.247900 0.789400
10.291400 0.864100
10.335000 0.846500
10.378500 0.850700
10.422000 0.857700
10.465500 0.823100
10.509100 0.793900
10.552600 0.790400
10.596100 0.800800
10.639600 0.819000
10.683200 0.803100
10.726700 0.845900
10.770200 0.883000
10.813700 0.894200
10.857300 0.910800
10.900800 0.931100
10.944300 0.954600
10.987800 0.989900
11.031400 1.007400
11.074900 1.022500
11.118400 1.038700
11.161900 1.057100
11.205400 1.080900
11.249000 1.131600
11.292500 1.101000
11.336000 1.070400
11.379500 1.053100
11.423100 1.052800
11.466600 1.061600
11.510100 1.061400
11.553600 1.080100
11.597200 1.108600
11.640700 1.160000
11.684200 1.223700
11.727700 1.236900
11.771300 1.249300
11.814800 1.225600
11.858300 1.198100
11.901800 1.192200
11.945400 1.199000
11.988900 1.228900
12.032400 1.266500
12.075900 1.338200
12.119500 1.419200
12.163000 1.450000
12.206500 1.456900
12.250000 1.414000
12.293600 1.378100
12.337100 1.316700
12.380600 1.253800
12.424100 1.226000
12.467700 1.237100
12.511200 1.283400
12.554700 1.284800
12.598200 1.246400
12.641800 1.214400
12.685300 1.184600
12.728800 1.169800
12.772300 1.171300
12.815900 1.177400
12.859400 1.186400
12.902900 1.219400
12.946400 1.295900
12.990000 1.435300
13.033500 1.465600
13.077000 1.491700
13.120500 1.471600
13.164100 1.422800
13.207600 1.435800
13.251100 1.511300
13.294600 1.573800
13.338200 1.602400
13.381700 1.613300
13.425200 1.612000
13.468700 1.607500
13.512300 1.586000
13.555800 1.542200
13.599300 1.470400
13.642800 1.416300
13.686400 1.388000
13.729900 1.380500
13.773400 1.375100
13.816900 1.338800
13.860500 1.270200
13.904000 1.233700
13.947500 1.264900
13.991000 1.293600
14.034600 1.265900
14.078100 1.256000
14.121600 1.214700
14.165100 1.186700
14.208600 1.157200
14.252200 1.145500
14.295700 1.124800
14.339200 1.156700
14.382700 1.167400
14.426300 1.170800
14.469800 1.177500
14.513300 1.185800
14.556800 1.201900
14.600400 1.223900
14.643900 1.267500
14.687400 1.262100
14.730900 1.246000
14.774500 1.245300
14.818000 1.234500
14.861500 1.220800
14.905000 1.217800
14.948600 1.190900
14.992100 1.107700
15.035600 1.016000
15.079100 0.942400
15.122700 0.901300
15.166200 0.932700
15.209700 0.965000
15.253200 1.001000
15.296800 1.018900
15.340300 1.088700
15.383800 1.149700
15.427300 1.102400
15.470900 1.109700
15.514400 1.132500
15.557900 1.149500
15.601400 1.177400
15.645000 1.211100
15.688500 1.249500
15.732000 1.272000
15.775500 1.326500
15.819100 1.396000
15.862600 1.524800
15.906100 1.631600
15.949600 1.639900
15.993200 1.573800
16.036700 1.509700
16.080200 1.450000
16.123700 1.376900
16.167300 1.303400
16.210800 1.242500
16.254300 1.189000
16.297800 1.143300
16.341400 1.144800
16.384900 1.150600
16.428400 1.094300
16.471900 1.058000
16.515500 1.036700
16.559000 1.026900
16.602500 1.023600
16.646000 1.029900
16.689600 1.044200
16.733100 1.045600
16.776600 1.056300
16.820100 1.105800
16.863700 1.126900
16.907200 1.132500
16.950700 1.190500
16.994200 1.218900
17.037800 1.224600
17.081300 1.285000
17.124800 1.267500
17.168300 1.233800
17.211800 1.185300
17.255400 1.190200
17.298900 1.182900
17.342400 1.173500
17.385900 1.186900
17.429500 1.215000
17.473000 1.238900
17.516500 1.268500
17.560000 1.318500
17.603600 1.369400
17.647100 1.417600
17.690600 1.456600
17.734100 1.476900
17.777700 1.495800
17.821200 1.524600
17.864700 1.541200
17.908200 1.560300
17.951800 1.562700
17.995300 1.554800
18.038800 1.565400
18.082300 1.584500
18.125900 1.603800
18.169400 1.605800
18.212900 1.611500
18.256400 1.576700
18.300000 1.535200
18.343500 1.499900
18.387000 1.458700
18.430500 1.436600
18.474100 1.388200
18.517600 1.372800
18.561100 1.379200
18.604600 1.375100
18.648200 1.355300
18.691700 1.336200
18.735200 1.328100
18.778700 1.341100
18.822300 1.349700
18.865800 1.355600
18.909300 1.338300
18.952800 1.305200
18.996400 1.276800
19.039900 1.230800
19.083400 1.218200
19.126900 1.146500
19.170500 1.120500
19.214000 1.093500
19.257500 1.063000
19.301000 1.043200
19.344600 1.029400
19.388100 1.013500
19.431600 1.008400
19.475100 1.011600
19.518700 1.020400
19.562200 1.037300
19.605700 1.058000
19.649200 1.069100
19.692800 1.056500
19.736300 1.057500
19.779800 1.065200
19.823300 1.068900
19.866900 1.075500
19.910400 1.121100
19.953900 1.149500
19.997400 1.193900
20.041000 1.189500
20.084500 1.221000
20.128000 1.254500
20.171500 1.271800
20.215100 1.304200
20.258600 1.426700
20.302100 1.526700
20.345600 1.597300
20.389100 1.645300
20.432700 1.676900
20.476200 1.694400
20.519700 1.707200
20.563200 1.655800
20.606800 1.633800
20.650300 1.584900
20.693800 1.535300
20.737300 1.492300
20.780900 1.499600
20.824400 1.427100
20.867900 1.366400
20.911400 1.285000
20.955000 1.210000
20.998500 1.173800
21.042000 1.163400
21.085500 1.150100
21.129100 1.133400
21.172600 1.128600
21.216100 1.147600
21.259600 1.167600
21.303200 1.152400
21.346700 1.144900
21.390200 1.167600
21.433700 1.185200
21.477300 1.199000
21.520800 1.205800
21.564300 1.210000
21.607800 1.207600
21.651400 1.223500
21.694900 1.235900
21.738400 1.251300
21.781900 1.275100
21.825500 1.288600
21.869000 1.249800
21.912500 1.229100
21.956000 1.231100
21.999600 1.243300
22.043100 1.270100
22.086600 1.295600
22.130100 1.323100
22.173700 1.342600
22.217200 1.338400
22.260700 1.327300
22.304200 1.310100
22.347800 1.299900
22.391300 1.294500
22.434800 1.314900
22.478300 1.336800
22.521900 1.355200
22.565400 1.360100
22.608900 1.376400
22.652400 1.386100
22.696000 1.411100
22.739500 1.421700
22.783000 1.423700
22.826500 1.443500
22.870100 1.451200
22.913600 1.430900
22.957100 1.417600
23.000600 1.445200
23.044200 1.489600
23.087700 1.519000
23.131200 1.516400
23.174700 1.503800
23.218300 1.498200
23.261800 1.472900
23.305300 1.448100
23.348800 1.419700
23.392300 1.399100
23.435900 1.379500
23.479400 1.374100
23.522900 1.377600
23.566400 1.364800
23.610000 1.364300
23.653500 1.388100
23.697000 1.388900
23.740500 1.391100
23.784100 1.386300
23.827600 1.424400
23.871100 1.435100
23.914600 1.469300
23.958200 1.477900
24.001700 1.502100
24.045200 1.570500
24.088700 1.547100
24.132300 1.584700
24.175800 1.532000
24.219300 1.508100
24.262800 1.474000
24.306400 1.461400
24.349900 1.426300
24.393400 1.398700
24.436900 1.392500
24.480500 1.395700
24.524000 1.420300
