set title 'mp-1009223 - Density of States'
set xlabel 'Energy (eV)'
set ylabel 'DOS (states/eV)'
set grid
set xrange [-10:10]
set yrange [0:60.656]
set xzeroaxis lt -1
set terminal png size 800,600
set output 'mp-1009223_dos_gnuplot.png'
plot '-' using 1:2 with lines title 'DOS'
-24.540700 0.000000
-24.497800 0.000000
-24.455000 0.000000
-24.412100 0.000000
-24.369200 0.000000
-24.326400 0.000000
-24.283500 0.000000
-24.240600 0.000000
-24.197800 0.000000
-24.154900 0.000000
-24.112100 0.000000
-24.069200 0.000000
-24.026300 0.000000
-23.983500 0.000000
-23.940600 0.000000
-23.897700 0.000000
-23.854900 0.000000
-23.812000 0.000000
-23.769100 0.000000
-23.726300 0.000000
-23.683400 0.000000
-23.640500 0.000000
-23.597700 0.000000
-23.554800 0.000000
-23.511900 0.000000
-23.469100 0.000000
-23.426200 0.000000
-23.383300 0.000000
-23.340500 0.000000
-23.297600 0.000000
-23.254700 0.000000
-23.211900 0.000000
-23.169000 0.000000
-23.126100 0.000000
-23.083300 0.000000
-23.040400 0.000000
-22.997600 0.000000
-22.954700 0.000000
-22.911800 0.000000
-22.869000 0.000000
-22.826100 0.000000
-22.783200 0.000000
-22.740400 0.000000
-22.697500 0.000000
-22.654600 0.000000
-22.611800 0.000000
-22.568900 0.000000
-22.526000 0.000000
-22.483200 0.000000
-22.440300 0.000000
-22.397400 0.000000
-22.354600 0.000000
-22.311700 0.000000
-22.268800 0.000000
-22.226000 0.000000
-22.183100 0.000000
-22.140200 0.000000
-22.097400 0.000000
-22.054500 0.000000
-22.011600 0.000000
-21.968800 0.000000
-21.925900 0.000000
-21.883100 0.000000
-21.840200 0.000000
-21.797300 0.000000
-21.754500 0.000000
-21.711600 0.000000
-21.668700 0.000000
-21.625900 0.000000
-21.583000 0.000000
-21.540100 0.000000
-21.497300 0.000000
-21.454400 0.000000
-21.411500 0.000000
-21.368700 0.000000
-21.325800 0.000000
-21.282900 0.000000
-21.240100 0.000000
-21.197200 0.000000
-21.154300 0.000000
-21.111500 0.000000
-21.068600 0.000000
-21.025700 0.000000
-20.982900 0.000000
-20.940000 0.000000
-20.897100 0.000000
-20.854300 0.000000
-20.811400 0.000000
-20.768600 0.000000
-20.725700 0.000000
-20.682800 0.000000
-20.640000 20.682200
-20.597100 20.863800
-20.554200 17.885700
-20.511400 75.530800
-20.468500 0.000000
-20.425600 0.000000
-20.382800 0.000000
-20.339900 0.000000
-20.297000 0.000000
-20.254200 0.000000
-20.211300 0.000000
-20.168400 0.000000
-20.125600 0.000000
-20.082700 0.000000
-20.039800 0.000000
-19.997000 0.000000
-19.954100 0.000000
-19.911200 0.000000
-19.868400 0.000000
-19.825500 0.000000
-19.782600 0.000000
-19.739800 0.000000
-19.696900 0.000000
-19.654100 0.000000
-19.611200 0.000000
-19.568300 0.000000
-19.525500 0.000000
-19.482600 0.000000
-19.439700 0.000000
-19.396900 0.000000
-19.354000 0.000000
-19.311100 0.000000
-19.268300 0.000000
-19.225400 0.000000
-19.182500 0.000000
-19.139700 0.000000
-19.096800 0.000000
-19.053900 0.000000
-19.011100 0.000000
-18.968200 0.000000
-18.925300 0.000000
-18.882500 0.000000
-18.839600 0.000000
-18.796700 0.000000
-18.753900 0.000000
-18.711000 0.000000
-18.668100 0.000000
-18.625300 0.000000
-18.582400 0.000000
-18.539500 0.000000
-18.496700 0.000000
-18.453800 0.000000
-18.411000 0.000000
-18.368100 0.000000
-18.325200 0.000000
-18.282400 0.000000
-18.239500 0.000000
-18.196600 0.000000
-18.153800 0.000000
-18.110900 0.000000
-18.068000 0.000000
-18.025200 0.000000
-17.982300 0.000000
-17.939400 0.000000
-17.896600 0.000000
-17.853700 0.000000
-17.810800 0.000000
-17.768000 0.000000
-17.725100 0.000000
-17.682200 0.000000
-17.639400 0.000000
-17.596500 0.000000
-17.553600 0.000000
-17.510800 0.000000
-17.467900 0.000000
-17.425000 0.000000
-17.382200 0.000000
-17.339300 0.000000
-17.296500 0.000000
-17.253600 0.000000
-17.210700 0.000000
-17.167900 0.000000
-17.125000 0.000000
-17.082100 0.000000
-17.039300 0.000000
-16.996400 0.000000
-16.953500 0.000000
-16.910700 0.000000
-16.867800 0.000000
-16.824900 0.000000
-16.782100 0.000000
-16.739200 0.000000
-16.696300 0.000000
-16.653500 0.000000
-16.610600 0.000000
-16.567700 0.000000
-16.524900 0.000000
-16.482000 0.000000
-16.439100 0.000000
-16.396300 0.000000
-16.353400 0.000000
-16.310500 0.000000
-16.267700 0.000000
-16.224800 0.000000
-16.182000 0.000000
-16.139100 0.000000
-16.096200 0.000000
-16.053400 0.000000
-16.010500 0.000000
-15.967600 0.000000
-15.924800 0.000000
-15.881900 0.000000
-15.839000 0.000000
-15.796200 0.000000
-15.753300 0.000000
-15.710400 0.000000
-15.667600 0.000000
-15.624700 0.000000
-15.581800 0.000000
-15.539000 0.000000
-15.496100 0.000000
-15.453200 0.000000
-15.410400 0.000000
-15.367500 0.000000
-15.324600 0.000000
-15.281800 0.000000
-15.238900 0.000000
-15.196000 0.000000
-15.153200 0.000000
-15.110300 0.000000
-15.067500 0.000000
-15.024600 0.000000
-14.981700 0.000000
-14.938900 0.000000
-14.896000 0.000000
-14.853100 0.000000
-14.810300 0.000000
-14.767400 0.000000
-14.724500 0.000000
-14.681700 0.000000
-14.638800 0.000000
-14.595900 0.000000
-14.553100 0.000000
-14.510200 0.000000
-14.467300 0.000000
-14.424500 0.000000
-14.381600 0.000000
-14.338700 0.000000
-14.295900 0.000000
-14.253000 0.000000
-14.210100 0.000000
-14.167300 0.000000
-14.124400 0.000000
-14.081500 0.000000
-14.038700 0.000000
-13.995800 0.000000
-13.953000 0.000000
-13.910100 0.000000
-13.867200 0.000000
-13.824400 0.000000
-13.781500 0.000000
-13.738600 0.000000
-13.695800 0.000000
-13.652900 0.000000
-13.610000 0.000000
-13.567200 0.000000
-13.524300 0.000000
-13.481400 0.000000
-13.438600 0.000000
-13.395700 0.000000
-13.352800 0.000000
-13.310000 0.000000
-13.267100 0.000000
-13.224200 0.000000
-13.181400 0.000000
-13.138500 0.000000
-13.095600 0.000000
-13.052800 0.000000
-13.009900 0.000000
-12.967000 0.000000
-12.924200 0.000000
-12.881300 0.000000
-12.838500 0.000000
-12.795600 0.000000
-12.752700 0.000000
-12.709900 0.000000
-12.667000 0.000000
-12.624100 0.000000
-12.581300 0.000000
-12.538400 0.000000
-12.495500 0.000000
-12.452700 0.000000
-12.409800 0.000000
-12.366900 0.000000
-12.324100 0.000000
-12.281200 0.000000
-12.238300 0.000000
-12.195500 0.000000
-12.152600 0.000000
-12.109700 0.000000
-12.066900 0.000000
-12.024000 0.000000
-11.981100 0.000000
-11.938300 0.000000
-11.895400 0.000000
-11.852500 0.000000
-11.809700 0.000000
-11.766800 0.000000
-11.724000 0.000000
-11.681100 0.000000
-11.638200 0.000000
-11.595400 0.000000
-11.552500 0.000000
-11.509600 0.000000
-11.466800 0.000000
-11.423900 0.000000
-11.381000 0.000000
-11.338200 0.000000
-11.295300 0.000000
-11.252400 0.000000
-11.209600 0.000000
-11.166700 0.000000
-11.123800 0.000000
-11.081000 0.000000
-11.038100 0.000000
-10.995200 0.000000
-10.952400 0.000000
-10.909500 0.000000
-10.866600 0.000000
-10.823800 0.000000
-10.780900 0.000000
-10.738000 0.000000
-10.695200 0.000000
-10.652300 0.000000
-10.609500 0.000000
-10.566600 0.000000
-10.523700 0.000000
-10.480900 0.000000
-10.438000 0.000000
-10.395100 0.000000
-10.352300 0.000000
-10.309400 0.000000
-10.266500 0.000000
-10.223700 0.000000
-10.180800 0.000000
-10.137900 0.000000
-10.095100 0.000000
-10.052200 0.000000
-10.009300 0.000000
-9.966500 0.000000
-9.923600 0.000000
-9.880700 0.000000
-9.837900 0.000000
-9.795000 0.000000
-9.752100 0.000000
-9.709300 0.000000
-9.666400 0.000000
-9.623500 0.000000
-9.580700 0.000000
-9.537800 0.000000
-9.494900 0.000000
-9.452100 0.000000
-9.409200 0.000000
-9.366400 0.000000
-9.323500 0.000000
-9.280600 0.000000
-9.237800 0.000000
-9.194900 0.000000
-9.152000 0.000000
-9.109200 0.000000
-9.066300 0.000000
-9.023400 0.000000
-8.980600 0.000000
-8.937700 0.000000
-8.894800 0.000000
-8.852000 0.000000
-8.809100 0.000000
-8.766200 0.000000
-8.723400 0.000000
-8.680500 0.000000
-8.637600 0.000000
-8.594800 0.000000
-8.551900 0.000000
-8.509000 0.000000
-8.466200 0.015100
-8.423300 0.129400
-8.380400 0.185500
-8.337600 0.227300
-8.294700 0.288600
-8.251900 0.355500
-8.209000 0.441200
-8.166100 0.491800
-8.123300 0.471900
-8.080400 0.490100
-8.037500 0.501500
-7.994700 0.494800
-7.951800 0.492500
-7.908900 0.497300
-7.866100 0.502000
-7.823200 0.505700
-7.780300 0.506500
-7.737500 0.505400
-7.694600 0.512500
-7.651700 0.518700
-7.608900 0.521200
-7.566000 0.525400
-7.523100 0.529600
-7.480300 0.532700
-7.437400 0.533200
-7.394500 0.537100
-7.351700 0.542800
-7.308800 0.549200
-7.265900 0.556000
-7.223100 0.562600
-7.180200 0.569500
-7.137400 0.576500
-7.094500 0.583500
-7.051600 0.590400
-7.008800 0.598100
-6.965900 0.606000
-6.923000 0.614100
-6.880200 0.622200
-6.837300 0.634900
-6.794400 0.653600
-6.751600 0.672500
-6.708700 0.695100
-6.665800 0.720000
-6.623000 0.738500
-6.580100 0.756100
-6.537200 0.773000
-6.494400 0.849100
-6.451500 0.956800
-6.408600 1.080600
-6.365800 1.144100
-6.322900 1.080200
-6.280000 0.964000
-6.237200 0.825500
-6.194300 0.757100
-6.151400 0.700200
-6.108600 0.656400
-6.065700 0.628000
-6.022900 0.601800
-5.980000 0.572500
-5.937100 0.541200
-5.894300 0.515500
-5.851400 0.494800
-5.808500 0.480700
-5.765700 0.467800
-5.722800 0.453400
-5.679900 0.437800
-5.637100 0.420800
-5.594200 0.404400
-5.551300 0.390200
-5.508500 0.378400
-5.465600 0.369200
-5.422700 0.360000
-5.379900 0.350800
-5.337000 0.341400
-5.294100 0.331900
-5.251300 0.322200
-5.208400 0.312700
-5.165500 0.303600
-5.122700 0.295100
-5.079800 0.286900
-5.036900 0.278700
-4.994100 0.270600
-4.951200 0.264400
-4.908400 0.259700
-4.865500 0.256400
-4.822600 0.252000
-4.779800 0.245400
-4.736900 0.236300
-4.694000 0.223800
-4.651200 0.214200
-4.608300 0.212500
-4.565400 0.216400
-4.522600 0.213800
-4.479700 0.190800
-4.436800 0.149800
-4.394000 0.099300
-4.351100 0.050700
-4.308200 0.016700
-4.265400 0.000000
-4.222500 0.000000
-4.179600 0.000000
-4.136800 0.000000
-4.093900 0.000000
-4.051000 0.000000
-4.008200 0.000000
-3.965300 0.000000
-3.922400 0.000000
-3.879600 0.000000
-3.836700 0.000000
-3.793900 0.000000
-3.751000 0.000000
-3.708100 0.000000
-3.665300 0.000000
-3.622400 0.000000
-3.579500 0.000000
-3.536700 0.000000
-3.493800 0.000000
-3.450900 0.000000
-3.408100 0.000000
-3.365200 0.000000
-3.322300 0.000000
-3.279500 0.000000
-3.236600 0.000000
-3.193700 0.000000
-3.150900 0.000000
-3.108000 0.000000
-3.065100 0.000000
-3.022300 0.000000
-2.979400 0.000000
-2.936500 0.000000
-2.893700 0.000000
-2.850800 0.000000
-2.807900 0.000000
-2.765100 0.000000
-2.722200 0.000000
-2.679400 0.000000
-2.636500 0.000000
-2.593600 0.000000
-2.550800 0.000000
-2.507900 0.000000
-2.465000 0.000000
-2.422200 0.000000
-2.379300 0.000000
-2.336400 0.000000
-2.293600 0.000000
-2.250700 0.000000
-2.207800 0.000000
-2.165000 0.000000
-2.122100 0.000000
-2.079200 0.000000
-2.036400 0.000000
-1.993500 0.000000
-1.950600 0.000000
-1.907800 0.000000
-1.864900 0.000000
-1.822000 0.000000
-1.779200 0.000000
-1.736300 0.000000
-1.693400 0.000000
-1.650600 0.000000
-1.607700 0.000000
-1.564800 0.000000
-1.522000 0.000000
-1.479100 0.000000
-1.436300 0.000000
-1.393400 0.000000
-1.350500 0.000000
-1.307700 0.000000
-1.264800 0.000000
-1.221900 0.000000
-1.179100 0.000000
-1.136200 0.022300
-1.093300 0.068000
-1.050500 0.111200
-1.007600 0.156800
-0.964700 0.221300
-0.921900 0.320000
-0.879000 0.364300
-0.836100 0.411800
-0.793300 0.486500
-0.750400 0.539800
-0.707500 0.570900
-0.664700 0.591400
-0.621800 0.606800
-0.578900 0.609400
-0.536100 0.604500
-0.493200 0.615800
-0.450300 0.629000
-0.407500 0.640800
-0.364600 0.656000
-0.321800 0.671900
-0.278900 0.687600
-0.236000 0.701800
-0.193200 0.714200
-0.150300 0.725400
-0.107400 0.737200
-0.064600 0.748600
-0.021700 0.758800
0.021200 0.771200
0.064000 0.787300
0.106900 0.813700
0.149800 0.837600
0.192600 0.858800
0.235500 0.880600
0.278400 0.901800
0.321200 0.921800
0.364100 0.942200
0.407000 0.950700
0.449800 0.945200
0.492700 0.948800
0.535600 0.949900
0.578400 0.952600
0.621300 0.962800
0.664200 0.993800
0.707000 1.059600
0.749900 1.096300
0.792700 1.119600
0.835600 1.163800
0.878500 1.098700
0.921300 1.078600
0.964200 1.097500
1.007100 1.136200
1.049900 1.208300
1.092800 1.251800
1.135700 1.196000
1.178500 1.130700
1.221400 1.117600
1.264300 1.088300
1.307100 1.086300
1.350000 1.101500
1.392900 1.115800
1.435700 1.138200
1.478600 1.146500
1.521500 1.140900
1.564300 1.161000
1.607200 1.163700
1.650100 1.136800
1.692900 1.111000
1.735800 1.078200
1.778700 1.064800
1.821500 1.053600
1.864400 1.039200
1.907200 1.023600
1.950100 1.019400
1.993000 1.041800
2.035800 1.181000
2.078700 1.145200
2.121600 1.113100
2.164400 1.099300
2.207300 1.079400
2.250200 1.063300
2.293000 1.046400
2.335900 1.030400
2.378800 1.017400
2.421600 1.016800
2.464500 1.173400
2.507400 1.021700
2.550200 1.008800
2.593100 1.005000
2.636000 1.013800
2.678800 1.011100
2.721700 0.976900
2.764600 0.941300
2.807400 0.959800
2.850300 0.926400
2.893200 0.873200
2.936000 0.819300
2.978900 0.790800
3.021700 0.772900
3.064600 0.761400
3.107500 0.779300
3.150300 0.761500
3.193200 0.746000
3.236100 0.733200
3.278900 0.707800
3.321800 0.669500
3.364700 0.648500
3.407500 0.633600
3.450400 0.619700
3.493300 0.612900
3.536100 0.611400
3.579000 0.614700
3.621900 0.612900
3.664700 0.611300
3.707600 0.611000
3.750500 0.619700
3.793300 0.650700
3.836200 0.638400
3.879100 0.572800
3.921900 0.532300
3.964800 0.517100
4.007700 0.510000
4.050500 0.511000
4.093400 0.503900
4.136200 0.497700
4.179100 0.491100
4.222000 0.481800
4.264800 0.467000
4.307700 0.445700
4.350600 0.439000
4.393400 0.431900
4.436300 0.424400
4.479200 0.417900
4.522000 0.412700
4.564900 0.409900
4.607800 0.431000
4.650600 0.466500
4.693500 0.453600
4.736400 0.434200
4.779200 0.424900
4.822100 0.428100
4.865000 0.425500
4.907800 0.422000
4.950700 0.423600
4.993600 0.447600
5.036400 0.443300
5.079300 0.439000
5.122200 0.452400
5.165000 0.465100
5.207900 0.477700
5.250700 0.486500
5.293600 0.488900
5.336500 0.480200
5.379300 0.458700
5.422200 0.459100
5.465100 0.460700
5.507900 0.463400
5.550800 0.467300
5.593700 0.472600
5.636500 0.478800
5.679400 0.484300
5.722300 0.489300
5.765100 0.493900
5.808000 0.503100
5.850900 0.525200
5.893700 0.543400
5.936600 0.562200
5.979500 0.583400
6.022300 0.628900
6.065200 0.646500
6.108100 0.681800
6.150900 0.736700
6.193800 0.885200
6.236700 0.794700
6.279500 0.817400
6.322400 0.836900
6.365200 0.832200
6.408100 0.833600
6.451000 0.859300
6.493800 0.889100
6.536700 0.927000
6.579600 1.006600
6.622400 0.955100
6.665300 0.963500
6.708200 0.981400
6.751000 1.001000
6.793900 1.012400
6.836800 0.900400
6.879600 0.896800
6.922500 0.899500
6.965400 0.908000
7.008200 0.919000
7.051100 0.930900
7.094000 0.966400
7.136800 0.952200
7.179700 0.960700
7.222600 0.969300
7.265400 0.978700
7.308300 0.993300
7.351200 1.019500
7.394000 1.057000
7.436900 1.097000
7.479800 1.128000
7.522600 1.154900
7.565500 1.105400
7.608300 1.184300
7.651200 1.228000
7.694100 1.269200
7.736900 1.272400
7.779800 1.254100
7.822700 1.235400
7.865500 1.233900
7.908400 1.226300
7.951300 1.145200
7.994100 1.079700
8.037000 1.012300
8.079900 0.930900
8.122700 0.831500
8.165600 0.799300
8.208500 0.814900
8.251300 0.824600
8.294200 0.833500
8.337100 0.847300
8.379900 0.826200
8.422800 0.826100
8.465700 0.827200
8.508500 0.831000
8.551400 0.834900
8.594300 0.845200
8.637100 0.845900
8.680000 0.837500
8.722800 0.797700
8.765700 0.764300
8.808600 0.759000
8.851400 0.773700
8.894300 0.803000
8.937200 0.851700
8.980000 0.935500
9.022900 1.059800
9.065800 1.147100
9.108600 1.234400
9.151500 1.327200
9.194400 1.427800
9.237200 1.541200
9.280100 1.671000
9.323000 1.852500
9.365800 2.227100
9.408700 2.935000
9.451600 55.142200
9.494400 3.048100
9.537300 1.992400
9.580200 1.573400
9.623000 1.360500
9.665900 1.244700
9.708800 1.190800
9.751600 1.150900
9.794500 1.148100
9.837300 1.169700
9.880200 1.180400
9.923100 1.169100
9.965900 1.159300
10.008800 1.134700
10.051700 1.109200
10.094500 1.072900
10.137400 1.046000
10.180300 1.098900
10.223100 1.123400
10.266000 1.077000
10.308900 0.952400
10.351700 0.875400
10.394600 0.841400
10.437500 0.826400
10.480300 0.819600
10.523200 0.819500
10.566100 0.818700
10.608900 0.800900
10.651800 0.783900
10.694700 0.775700
10.737500 0.777100
10.780400 0.785900
10.823300 0.791400
10.866100 0.796700
10.909000 0.803200
10.951800 0.811200
10.994700 0.836500
11.037600 0.849400
11.080400 0.864100
11.123300 0.877000
11.166200 0.890100
11.209000 0.904100
11.251900 0.913400
11.294800 0.948600
11.337600 1.099100
11.380500 1.099600
11.423400 0.961200
11.466200 0.970100
11.509100 0.982200
11.552000 0.996200
11.594800 1.018300
11.637700 1.012900
11.680600 1.005900
11.723400 1.021200
11.766300 1.034300
11.809200 1.046700
11.852000 1.063600
11.894900 1.100100
11.937800 1.083100
11.980600 1.083600
12.023500 1.105100
12.066300 1.116800
12.109200 1.117500
12.152100 1.125200
12.194900 1.120300
12.237800 1.120800
12.280700 1.141200
12.323500 1.185200
12.366400 1.186500
12.409300 1.190600
12.452100 1.133000
12.495000 1.149700
12.537900 1.171300
12.580700 1.198100
12.623600 1.232700
12.666500 1.269700
12.709300 1.253800
12.752200 1.249100
12.795100 1.268100
12.837900 1.298700
12.880800 1.326300
12.923700 1.490300
12.966500 1.426300
13.009400 1.394100
13.052300 1.364400
13.095100 1.331800
13.138000 1.325400
13.180800 1.324700
13.223700 1.341700
13.266600 1.393300
13.309400 1.423600
13.352300 1.370400
13.395200 1.349100
13.438000 1.342400
13.480900 1.352000
13.523800 1.381400
13.566600 1.385900
13.609500 1.430200
13.652400 1.443400
13.695200 1.458000
13.738100 1.463000
13.781000 1.372600
13.823800 1.308800
13.866700 1.290200
13.909600 1.284600
13.952400 1.280500
13.995300 1.283500
14.038200 1.260400
14.081000 1.271400
14.123900 1.273500
14.166800 1.278000
14.209600 1.322700
14.252500 1.393600
14.295300 1.413700
14.338200 1.442000
14.381100 1.502800
14.423900 1.564500
14.466800 1.614200
14.509700 1.670600
14.552500 1.661100
14.595400 1.478500
14.638300 1.359000
14.681100 1.275400
14.724000 1.203100
14.766900 1.158400
14.809700 1.138500
14.852600 1.223100
14.895500 1.123000
14.938300 1.092500
14.981200 1.083100
15.024100 1.092800
15.066900 1.136300
15.109800 1.197600
15.152700 1.175100
15.195500 1.135300
15.238400 1.115000
15.281300 1.092300
15.324100 1.109300
15.367000 1.126000
15.409800 1.158000
15.452700 1.197100
15.495600 1.282700
15.538400 1.257200
15.581300 1.265000
15.624200 1.270700
15.667000 1.274600
15.709900 1.262700
15.752800 1.214200
15.795600 1.199100
15.838500 1.166800
15.881400 1.129100
15.924200 1.096300
15.967100 1.096600
16.010000 1.110400
16.052800 1.124500
16.095700 1.152100
16.138600 1.230500
16.181400 1.282500
16.224300 1.350400
16.267200 1.436400
16.310000 1.546300
16.352900 1.649000
16.395800 1.738100
16.438600 1.790900
16.481500 1.826300
16.524400 1.843900
16.567200 1.866600
16.610100 1.887400
16.652900 1.801700
16.695800 1.701700
16.738700 1.683700
16.781500 1.657800
16.824400 1.604600
16.867300 1.570900
16.910100 1.554800
16.953000 1.537600
16.995900 1.515200
17.038700 1.483400
17.081600 1.461500
17.124500 1.442300
17.167300 1.426800
17.210200 1.413400
17.253100 1.367700
17.295900 1.355600
17.338800 1.353200
17.381700 1.362100
17.424500 1.375700
17.467400 1.365500
17.510300 1.337900
17.553100 1.258700
17.596000 1.206900
17.638900 1.176700
17.681700 1.217900
17.724600 1.254100
17.767400 1.291300
17.810300 1.338800
17.853200 1.368000
17.896000 1.402800
17.938900 1.416500
17.981800 1.405400
18.024600 1.347400
18.067500 1.303600
18.110400 1.271900
18.153200 1.239100
18.196100 1.207600
18.239000 1.201900
18.281800 1.182400
18.324700 1.191500
18.367600 1.206300
18.410400 1.212100
18.453300 1.220200
18.496200 1.225800
18.539000 1.262400
18.581900 1.291700
18.624800 1.319700
18.667600 1.323400
18.710500 1.317300
18.753400 1.308300
18.796200 1.297300
18.839100 1.287200
18.881900 1.274800
18.924800 1.301300
18.967700 1.323300
19.010500 1.290700
19.053400 1.284500
19.096300 1.248600
19.139100 1.229300
19.182000 1.226200
19.224900 1.216500
19.267700 1.198700
19.310600 1.194600
19.353500 1.209100
19.396300 1.220200
19.439200 1.328100
19.482100 1.427200
19.524900 1.534600
19.567800 1.547900
19.610700 1.531300
19.653500 1.517200
