set title 'mp-1223665 - Density of States'
set xlabel 'Energy (eV)'
set ylabel 'DOS (states/eV)'
set grid
set xrange [-10:10]
set yrange [0:5.393]
set xzeroaxis lt -1
set terminal png size 800,600
set output 'mp-1223665_dos_gnuplot.png'
plot '-' using 1:2 with lines title 'DOS'
-4.840500 0.000000
-4.805700 0.000000
-4.771000 0.000000
-4.736200 0.000000
-4.701500 0.000000
-4.666700 0.000000
-4.632000 0.000000
-4.597200 0.000000
-4.562500 0.000000
-4.527700 0.000000
-4.493000 0.000000
-4.458200 0.000000
-4.423500 0.000000
-4.388700 0.000000
-4.354000 0.000000
-4.319200 0.000000
-4.284500 0.000000
-4.249700 0.000000
-4.215000 0.000000
-4.180200 0.000000
-4.145500 0.000000
-4.110700 0.000000
-4.076000 0.000000
-4.041200 0.000000
-4.006500 0.000000
-3.971700 0.000000
-3.937000 0.000000
-3.902200 0.000000
-3.867500 0.000000
-3.832700 0.000000
-3.798000 0.000000
-3.763200 0.000000
-3.728500 0.000000
-3.693700 0.000000
-3.659000 0.000000
-3.624200 0.000000
-3.589500 0.000000
-3.554700 0.000000
-3.520000 0.000000
-3.485200 0.000000
-3.450500 0.000000
-3.415800 0.000000
-3.381000 0.000000
-3.346300 0.000000
-3.311500 0.000000
-3.276800 0.000000
-3.242000 0.000000
-3.207300 0.000000
-3.172500 0.000000
-3.137800 0.000000
-3.103000 0.000000
-3.068300 0.000000
-3.033500 0.000000
-2.998800 0.000000
-2.964000 0.000000
-2.929300 0.000000
-2.894500 0.000000
-2.859800 0.000000
-2.825000 0.000000
-2.790300 0.000000
-2.755500 0.000000
-2.720800 0.000000
-2.686000 0.000000
-2.651300 0.000000
-2.616500 0.000000
-2.581800 0.000000
-2.547000 0.000000
-2.512300 0.000000
-2.477500 0.000000
-2.442800 0.000000
-2.408000 0.000000
-2.373300 0.000000
-2.338500 0.000000
-2.303800 0.000000
-2.269000 0.000000
-2.234300 0.000000
-2.199500 0.000000
-2.164800 0.000000
-2.130000 0.000000
-2.095300 0.000000
-2.060500 0.000000
-2.025800 0.000000
-1.991000 0.000000
-1.956300 0.000000
-1.921500 0.000000
-1.886800 0.000000
-1.852000 0.000000
-1.817300 0.000000
-1.782500 0.000000
-1.747800 0.000000
-1.713000 0.000000
-1.678300 0.000600
-1.643500 0.009000
-1.608800 0.021600
-1.574100 0.037500
-1.539300 0.047500
-1.504600 0.047500
-1.469800 0.052800
-1.435100 0.058600
-1.400300 0.063000
-1.365600 0.067700
-1.330800 0.073000
-1.296100 0.078500
-1.261300 0.084000
-1.226600 0.088400
-1.191800 0.091400
-1.157100 0.094000
-1.122300 0.096700
-1.087600 0.100000
-1.052800 0.103600
-1.018100 0.107200
-0.983300 0.111000
-0.948600 0.114900
-0.913800 0.118600
-0.879100 0.122300
-0.844300 0.126000
-0.809600 0.129900
-0.774800 0.133800
-0.740100 0.137300
-0.705300 0.140200
-0.670600 0.143500
-0.635800 0.146900
-0.601100 0.150100
-0.566300 0.153400
-0.531600 0.156700
-0.496800 0.160000
-0.462100 0.163500
-0.427300 0.167100
-0.392600 0.170900
-0.357800 0.174700
-0.323100 0.178600
-0.288300 0.182600
-0.253600 0.186600
-0.218800 0.190600
-0.184100 0.194700
-0.149300 0.198800
-0.114600 0.203000
-0.079800 0.207100
-0.045100 0.211100
-0.010300 0.215200
0.024400 0.219600
0.059200 0.224100
0.093900 0.228800
0.128700 0.233600
0.163400 0.238800
0.198200 0.244200
0.232900 0.250800
0.267600 0.258700
0.302400 0.265500
0.337100 0.271200
0.371900 0.275900
0.406600 0.279500
0.441400 0.282000
0.476100 0.287000
0.510900 0.292500
0.545600 0.297500
0.580400 0.302200
0.615100 0.305800
0.649900 0.329600
0.684600 0.330600
0.719400 0.339100
0.754100 0.348800
0.788900 0.359800
0.823600 0.372100
0.858400 0.385400
0.893100 0.400100
0.927900 0.416000
0.962600 0.432700
0.997400 0.450400
1.032100 0.469400
1.066900 0.489400
1.101600 0.510900
1.136400 0.536700
1.171100 0.570200
1.205900 0.663300
1.240600 0.838900
1.275400 0.981400
1.310100 1.092600
1.344900 1.076800
1.379600 1.097700
1.414400 1.063800
1.449100 1.080400
1.483900 1.159600
1.518600 1.314300
1.553400 1.393100
1.588100 1.452600
1.622900 1.524000
1.657600 1.597600
1.692400 1.665900
1.727100 1.736600
1.761900 1.870800
1.796600 1.927800
1.831400 1.891700
1.866100 1.983200
1.900900 2.075700
1.935600 2.074500
1.970400 2.109800
2.005100 2.261000
2.039900 2.436100
2.074600 2.490100
2.109300 2.588000
2.144100 2.626400
2.178800 2.703100
2.213600 2.772200
2.248300 2.791400
2.283100 2.786900
2.317800 2.725100
2.352600 2.681100
2.387300 2.678300
2.422100 2.663900
2.456800 2.641400
2.491600 2.630100
2.526300 2.631000
2.561100 2.652400
2.595800 2.642800
2.630600 2.621500
2.665300 2.588000
2.700100 2.566700
2.734800 2.562000
2.769600 2.551800
2.804300 2.541600
2.839100 2.548300
2.873800 2.617500
2.908600 2.702800
2.943300 2.555100
2.978100 2.445800
3.012800 2.381300
3.047600 2.263900
3.082300 2.229500
3.117100 2.131100
3.151800 1.920100
3.186600 1.824000
3.221300 1.795700
3.256100 1.842800
3.290800 1.955100
3.325600 1.888500
3.360300 1.817700
3.395100 1.667700
3.429800 1.657600
3.464600 1.741000
3.499300 1.865400
3.534100 2.216600
3.568800 1.678600
3.603600 1.910400
3.638300 2.234700
3.673100 2.473300
3.707800 2.731100
3.742600 2.804900
3.777300 2.755700
3.812100 2.659900
3.846800 2.618800
3.881600 2.638000
3.916300 2.616100
3.951000 2.677100
3.985800 2.715300
4.020500 2.811900
4.055300 2.699600
4.090000 2.607700
4.124800 2.587800
4.159500 2.598600
4.194300 2.616300
4.229000 2.601700
4.263800 2.622200
4.298500 2.733300
4.333300 2.775200
4.368000 2.800500
4.402800 2.857600
4.437500 2.872200
4.472300 2.891700
4.507000 2.919400
4.541800 3.003900
4.576500 2.989700
4.611300 3.062600
4.646000 3.125000
4.680800 3.335600
4.715500 3.697300
4.750300 3.773500
4.785000 3.304100
4.819800 3.163100
4.854500 3.068600
4.889300 3.071400
4.924000 3.537100
4.958800 3.511100
4.993500 3.452500
5.028300 3.421600
5.063000 3.763500
5.097800 4.066900
5.132500 3.809800
5.167300 3.944300
5.202000 4.043800
5.236800 4.581100
5.271500 4.903000
5.306300 4.290700
5.341000 4.095200
5.375800 4.090600
5.410500 3.476000
5.445300 3.028000
5.480000 2.866300
5.514800 2.889300
5.549500 2.846900
5.584300 3.010600
5.619000 2.896700
5.653800 2.608300
5.688500 2.331000
5.723300 2.207300
5.758000 2.306500
5.792700 2.189600
5.827500 2.054100
5.862200 2.028700
5.897000 2.060200
5.931700 2.143900
5.966500 2.160200
6.001200 2.220600
6.036000 2.334200
6.070700 2.483000
6.105500 2.599700
6.140200 2.683700
6.175000 2.735000
6.209700 2.822700
6.244500 2.887000
6.279200 2.712600
6.314000 2.523600
6.348700 2.504300
6.383500 2.157900
6.418200 2.205100
6.453000 2.156600
6.487700 2.214500
6.522500 2.568500
6.557200 2.621900
6.592000 2.596300
6.626700 2.393500
6.661500 2.344300
6.696200 2.512300
6.731000 1.763800
6.765700 1.696600
6.800500 1.712300
6.835200 1.952800
6.870000 2.106600
6.904700 2.305600
6.939500 2.525500
6.974200 2.734800
7.009000 2.966200
7.043700 3.184800
7.078500 3.188500
7.113200 2.951100
7.148000 2.805600
7.182700 2.671100
7.217500 2.448900
7.252200 2.469000
7.287000 2.518100
7.321700 2.438100
7.356500 2.333500
7.391200 2.239600
7.426000 2.156200
7.460700 2.074900
7.495500 2.015900
7.530200 1.966800
7.565000 1.935200
7.599700 1.909900
7.634400 1.890800
7.669200 1.873300
7.703900 1.865700
7.738700 1.856100
7.773400 1.848500
7.808200 1.835800
7.842900 1.823800
7.877700 1.815800
7.912400 1.889800
7.947200 2.008700
7.981900 2.149800
8.016700 2.243500
8.051400 2.252400
8.086200 2.222300
8.120900 2.243100
8.155700 2.285000
8.190400 2.373700
8.225200 2.506200
8.259900 2.644900
8.294700 2.808100
8.329400 2.833500
8.364200 2.803800
8.398900 2.806500
8.433700 2.851100
8.468400 2.836400
8.503200 2.755800
8.537900 2.559700
8.572700 2.570900
8.607400 2.714300
8.642200 2.751300
8.676900 2.849500
8.711700 2.940500
8.746400 2.997000
8.781200 2.928700
8.815900 2.683300
8.850700 2.790200
8.885400 2.788300
8.920200 2.812300
8.954900 2.833200
8.989700 2.820600
9.024400 2.760800
9.059200 2.730600
9.093900 2.604900
9.128700 2.412400
9.163400 2.329400
9.198200 2.291500
9.232900 2.281700
9.267700 2.315000
9.302400 2.439000
9.337200 2.233500
9.371900 1.683700
9.406700 1.510700
9.441400 1.231400
9.476100 1.063100
9.510900 1.001700
9.545600 0.897400
9.580400 0.842400
9.615100 0.799000
9.649900 0.750600
9.684600 0.704800
9.719400 0.690300
9.754100 0.694700
9.788900 0.744200
9.823600 0.690200
9.858400 0.676400
9.893100 0.662100
9.927900 0.646600
9.962600 0.634900
9.997400 0.626100
10.032100 0.619400
10.066900 0.613900
10.101600 0.608900
10.136400 0.605800
10.171100 0.606000
10.205900 0.605700
10.240600 0.605300
10.275400 0.604900
10.310100 0.604300
10.344900 0.603500
10.379600 0.603000
10.414400 0.602800
10.449100 0.603100
10.483900 0.603900
10.518600 0.605300
10.553400 0.606500
10.588100 0.607300
10.622900 0.607400
10.657600 0.607200
10.692400 0.606800
10.727100 0.606300
10.761900 0.606000
10.796600 0.605900
10.831400 0.606200
10.866100 0.607000
10.900900 0.607200
10.935600 0.607400
10.970400 0.607700
11.005100 0.608200
11.039900 0.609600
11.074600 0.615400
11.109400 0.623800
11.144100 0.638800
11.178900 0.633400
11.213600 0.617300
11.248300 0.605300
11.283100 0.594100
11.317800 0.583800
11.352600 0.574600
11.387300 0.566500
11.422100 0.559400
11.456800 0.553300
11.491600 0.548200
11.526300 0.544700
11.561100 0.541700
11.595800 0.540000
11.630600 0.538000
11.665300 0.535800
11.700100 0.532600
11.734800 0.528400
11.769600 0.524800
11.804300 0.522800
11.839100 0.522700
11.873800 0.524600
11.908600 0.530400
11.943300 0.542000
11.978100 0.569800
12.012800 0.572200
12.047600 0.528300
12.082300 0.515200
12.117100 0.509800
12.151800 0.505700
12.186600 0.503100
12.221300 0.501200
12.256100 0.499000
12.290800 0.499100
12.325600 0.499800
12.360300 0.500700
12.395100 0.502600
12.429800 0.505600
12.464600 0.509500
12.499300 0.513600
12.534100 0.515900
12.568800 0.516000
12.603600 0.522000
12.638300 0.528000
12.673100 0.534400
12.707800 0.535100
12.742600 0.532100
12.777300 0.532900
12.812100 0.524000
12.846800 0.516500
12.881600 0.509800
12.916300 0.503800
12.951100 0.497600
12.985800 0.489800
13.020600 0.479800
13.055300 0.467900
13.090000 0.460500
13.124800 0.458300
13.159500 0.460900
13.194300 0.466800
13.229000 0.475800
13.263800 0.487800
13.298500 0.494100
13.333300 0.489700
13.368000 0.477000
13.402800 0.462700
13.437500 0.451200
13.472300 0.438300
13.507000 0.432200
13.541800 0.428500
13.576500 0.426700
13.611300 0.426100
13.646000 0.427400
13.680800 0.429800
13.715500 0.433200
13.750300 0.437800
13.785000 0.444100
13.819800 0.450200
13.854500 0.453900
13.889300 0.454800
13.924000 0.453800
13.958800 0.456600
13.993500 0.462900
14.028300 0.469700
14.063000 0.471300
14.097800 0.472100
14.132500 0.466900
14.167300 0.459100
14.202000 0.453100
14.236800 0.447700
14.271500 0.442400
14.306300 0.424900
14.341000 0.405200
14.375800 0.391800
14.410500 0.375100
14.445300 0.357100
14.480000 0.343900
14.514800 0.347400
14.549500 0.381600
14.584300 0.438300
14.619000 0.509600
14.653800 0.578400
14.688500 0.644800
14.723300 0.769600
14.758000 0.998800
14.792800 0.882200
14.827500 0.885800
14.862300 0.872400
14.897000 0.851200
14.931700 0.819900
14.966500 0.762200
15.001200 0.728100
15.036000 0.691300
15.070700 0.651500
15.105500 0.629700
15.140200 0.615700
15.175000 0.607000
15.209700 0.603000
15.244500 0.603300
15.279200 0.605600
15.314000 0.609300
15.348700 0.615700
15.383500 0.633500
15.418200 0.650300
15.453000 0.669200
15.487700 0.678700
15.522500 0.680200
15.557200 0.668600
15.592000 0.684000
15.626700 0.696500
15.661500 0.697300
15.696200 0.697100
15.731000 0.694500
15.765700 0.690000
15.800500 0.675800
15.835200 0.673800
15.870000 0.671600
15.904700 0.669600
15.939500 0.670600
15.974200 0.674100
16.009000 0.678300
16.043700 0.680800
16.078500 0.682000
16.113200 0.679300
16.148000 0.678500
16.182700 0.674700
16.217500 0.674100
16.252200 0.695900
16.287000 0.688500
16.321700 0.677100
16.356500 0.668700
16.391200 0.656500
16.426000 0.640100
16.460700 0.623200
16.495500 0.613500
16.530200 0.608800
16.565000 0.605400
16.599700 0.603400
16.634500 0.601000
16.669200 0.598100
16.704000 0.595800
16.738700 0.597200
16.773400 0.596700
16.808200 0.594700
16.842900 0.592800
16.877700 0.590800
16.912400 0.591300
16.947200 0.600300
16.981900 0.608500
17.016700 0.614300
17.051400 0.620200
17.086200 0.625400
17.120900 0.627100
17.155700 0.629300
17.190400 0.635200
17.225200 0.643600
17.259900 0.647600
17.294700 0.640600
17.329400 0.645400
17.364200 0.662400
17.398900 0.612800
17.433700 0.609700
17.468400 0.607600
17.503200 0.606000
17.537900 0.605300
17.572700 0.603700
17.607400 0.606900
17.642200 0.611700
17.676900 0.617900
17.711700 0.625600
17.746400 0.631000
17.781200 0.634300
17.815900 0.634000
17.850700 0.630800
17.885400 0.628600
17.920200 0.625900
17.954900 0.623100
17.989700 0.619300
18.024400 0.610200
18.059200 0.597600
18.093900 0.585900
18.128700 0.574800
18.163400 0.566300
18.198200 0.562400
18.232900 0.561100
18.267700 0.607400
18.302400 0.539300
18.337200 0.530600
18.371900 0.505700
18.406700 0.497600
18.441400 0.494500
18.476200 0.496200
18.510900 0.499600
18.545700 0.505700
18.580400 0.509700
18.615100 0.518900
18.649900 0.531300
18.684600 0.548900
18.719400 0.572600
18.754100 0.602200
18.788900 0.634800
18.823600 0.671100
18.858400 0.696800
18.893100 0.700500
18.927900 0.692700
18.962600 0.685500
18.997400 0.686600
19.032100 0.691300
19.066900 0.699600
19.101600 0.705700
19.136400 0.706800
19.171100 0.704800
19.205900 0.706900
19.240600 0.720800
19.275400 0.734700
19.310100 0.750400
19.344900 0.742200
19.379600 0.734600
19.414400 0.737200
19.449100 0.740900
19.483900 0.746400
19.518600 0.752200
19.553400 0.759000
19.588100 0.765100
19.622900 0.768600
19.657600 0.769800
19.692400 0.770500
19.727100 0.776100
19.761900 0.782800
19.796600 0.789000
19.831400 0.794100
19.866100 0.797200
19.900900 0.797100
19.935600 0.786600
19.970400 0.805700
20.005100 0.854400
20.039900 0.816400
20.074600 0.808300
20.109400 0.795300
20.144100 0.777000
20.178900 0.759400
20.213600 0.748800
20.248400 0.741000
20.283100 0.742800
20.317900 0.750900
20.352600 0.761100
20.387400 0.773300
20.422100 0.786300
20.456800 0.787300
20.491600 0.783600
20.526300 0.783100
20.561100 0.782600
20.595800 0.785300
20.630600 0.789900
20.665300 0.794200
20.700100 0.798300
20.734800 0.802000
20.769600 0.810700
20.804300 0.826900
20.839100 0.836500
20.873800 0.849900
20.908600 0.865500
20.943300 0.893300
20.978100 0.918600
21.012800 0.938400
21.047600 0.952500
21.082300 0.961700
21.117100 0.967000
21.151800 0.968200
21.186600 0.966700
21.221300 0.963900
21.256100 0.962500
21.290800 0.960900
21.325600 0.955200
21.360300 0.949400
21.395100 0.946300
21.429800 0.948700
21.464600 0.953800
21.499300 0.959100
21.534100 0.963600
21.568800 0.966600
21.603600 0.969000
21.638300 0.972100
21.673100 0.976300
21.707800 0.981000
21.742600 0.986600
21.777300 0.988200
21.812100 0.989000
21.846800 0.989500
21.881600 0.988500
21.916300 0.987300
21.951100 0.986500
21.985800 0.986400
22.020600 0.996800
22.055300 0.998300
22.090100 0.997000
22.124800 1.023000
22.159600 0.996600
22.194300 0.994400
22.229100 0.996700
22.263800 0.993800
22.298500 0.985900
22.333300 0.980500
22.368000 0.975400
22.402800 0.969700
22.437500 0.973600
22.472300 0.974300
22.507000 0.973100
22.541800 0.972300
22.576500 0.972400
22.611300 0.973300
22.646000 0.974500
22.680800 0.975000
22.715500 0.981500
22.750300 0.990400
22.785000 0.996800
22.819800 0.999400
22.854500 1.017000
22.889300 1.009800
22.924000 1.008700
22.958800 1.028300
22.993500 1.054700
23.028300 1.083100
23.063000 1.113000
23.097800 1.105800
23.132500 1.114700
23.167300 1.126100
23.202000 1.158400
23.236800 1.198200
23.271500 1.221300
23.306300 1.236500
23.341000 1.254300
23.375800 1.272100
23.410500 1.285600
23.445300 1.302700
23.480000 1.323800
23.514800 1.350900
23.549500 1.373800
23.584300 1.390500
23.619000 1.407300
23.653800 1.440800
23.688500 1.492100
23.723300 1.547900
23.758000 1.600700
23.792800 1.632100
23.827500 1.647700
23.862300 1.625400
23.897000 1.620300
23.931800 1.620000
23.966500 1.617300
24.001300 1.587000
24.036000 1.517900
24.070800 1.435800
24.105500 1.373500
24.140200 1.362000
24.175000 1.371600
24.209700 1.380800
24.244500 1.397500
24.279200 1.430500
24.314000 1.400900
24.348700 1.384700
24.383500 1.379200
24.418200 1.380900
24.453000 1.376500
24.487700 1.363200
24.522500 1.352800
24.557200 1.343200
24.592000 1.320800
24.626700 1.297100
24.661500 1.288000
24.696200 1.303500
24.731000 1.325600
24.765700 1.328200
24.800500 1.339000
24.835200 1.351700
24.870000 1.378700
24.904700 1.381000
24.939500 1.361700
24.974200 1.344600
25.009000 1.329700
25.043700 1.313500
25.078500 1.299600
25.113200 1.286600
25.148000 1.268600
25.182700 1.251700
25.217500 1.242700
25.252200 1.242400
25.287000 1.245700
25.321700 1.263600
25.356500 1.284800
25.391200 1.304000
25.426000 1.340200
25.460700 1.348000
25.495500 1.428800
25.530200 1.563700
25.565000 1.590000
25.599700 1.462400
25.634500 1.414800
25.669200 1.371500
25.704000 1.360300
25.738700 1.371100
25.773500 1.392800
25.808200 1.396400
25.843000 1.386900
25.877700 1.382400
25.912500 1.351700
25.947200 1.317300
25.981900 1.277300
26.016700 1.214800
26.051400 1.152900
26.086200 1.113800
26.120900 1.071600
26.155700 1.020400
26.190400 0.982400
26.225200 0.952100
26.259900 0.927900
26.294700 0.887500
26.329400 0.858200
26.364200 0.837300
26.398900 0.817100
26.433700 0.795800
26.468400 0.774300
26.503200 0.752000
26.537900 0.739000
26.572700 0.730100
26.607400 0.694300
26.642200 0.649300
26.676900 0.603200
26.711700 0.575200
26.746400 0.561400
26.781200 0.537400
26.815900 0.528100
26.850700 0.530100
26.885400 0.535700
26.920200 0.546300
26.954900 0.562000
26.989700 0.577200
27.024400 0.592000
27.059200 0.605500
27.093900 0.618500
27.128700 0.630900
27.163400 0.641500
27.198200 0.655000
27.232900 0.671800
27.267700 0.687900
27.302400 0.708700
27.337200 0.733200
27.371900 0.756400
27.406700 0.777400
27.441400 0.794000
27.476200 0.811700
27.510900 0.829100
27.545700 0.850800
27.580400 0.883000
27.615200 0.914700
27.649900 0.942200
27.684700 0.976600
27.719400 1.005800
27.754100 1.022900
27.788900 1.063200
27.823600 1.098700
27.858400 1.109800
27.893100 1.106600
27.927900 1.115200
27.962600 1.128900
27.997400 1.146500
28.032100 1.166700
28.066900 1.203500
28.101600 1.227000
28.136400 1.262500
28.171100 1.286400
28.205900 1.300200
28.240600 1.307200
28.275400 1.319300
28.310100 1.362100
28.344900 1.414700
28.379600 1.430300
28.414400 1.423400
28.449100 1.462100
28.483900 1.390300
28.518600 1.395900
28.553400 1.401000
28.588100 1.383100
28.622900 1.411000
28.657600 1.486800
28.692400 1.604700
28.727100 1.616000
28.761900 1.642600
28.796600 1.595400
28.831400 1.568700
28.866100 1.563000
28.900900 1.586600
28.935600 1.591200
28.970400 1.588400
29.005100 1.603900
29.039900 1.614800
29.074600 1.617100
29.109400 1.623800
29.144100 1.618700
29.178900 1.598600
29.213600 1.576900
29.248400 1.559800
29.283100 1.541900
29.317900 1.529000
29.352600 1.502800
29.387400 1.483800
29.422100 1.456800
29.456900 1.451600
29.491600 1.444200
29.526400 1.432300
29.561100 1.435900
29.595800 1.413600
29.630600 1.404400
29.665300 1.392900
29.700100 1.383300
29.734800 1.377100
29.769600 1.372000
29.804300 1.351100
29.839100 1.328500
29.873800 1.307900
29.908600 1.282900
29.943300 1.261100
29.978100 1.241500
30.012800 1.223000
30.047600 1.203200
30.082300 1.176400
30.117100 1.149200
30.151800 1.129400
30.186600 1.119500
30.221300 1.110100
30.256100 1.103400
30.290800 1.098800
30.325600 1.092500
30.360300 1.094700
30.395100 1.096500
30.429800 1.032300
30.464600 1.016400
30.499300 1.011100
30.534100 0.995100
30.568800 0.961900
30.603600 0.921900
30.638300 0.893800
30.673100 0.869300
30.707800 0.864800
30.742600 0.832800
30.777300 0.803100
30.812100 0.778000
30.846800 0.756700
30.881600 0.739400
30.916300 0.725600
30.951100 0.713900
30.985800 0.704500
31.020600 0.698000
31.055300 0.691900
31.090100 0.685800
31.124800 0.678100
31.159600 0.671200
31.194300 0.659800
31.229100 0.637400
31.263800 0.620600
31.298600 0.600900
31.333300 0.581600
31.368100 0.570900
31.402800 0.564700
31.437500 0.589800
31.472300 0.590600
31.507000 0.582200
31.541800 0.575300
31.576500 0.561900
31.611300 0.554300
31.646000 0.552000
31.680800 0.552300
31.715500 0.557700
