set title 'mp-1219709 - Density of States'
set xlabel 'Energy (eV)'
set ylabel 'DOS (states/eV)'
set grid
set xrange [-10:10]
set yrange [0:6.004]
set xzeroaxis lt -1
set terminal png size 800,600
set output 'mp-1219709_dos_gnuplot.png'
plot '-' using 1:2 with lines title 'DOS'
-6.477100 0.000000
-6.443500 0.000000
-6.409900 0.000000
-6.376300 0.000000
-6.342700 0.000000
-6.309100 0.000000
-6.275600 0.000000
-6.242000 0.000000
-6.208400 0.000000
-6.174800 0.000000
-6.141200 0.000000
-6.107600 0.000000
-6.074000 0.000000
-6.040400 0.000000
-6.006800 0.000000
-5.973200 0.000000
-5.939600 0.000000
-5.906000 0.000000
-5.872500 0.000000
-5.838900 0.000000
-5.805300 0.000000
-5.771700 0.000000
-5.738100 0.000000
-5.704500 0.000000
-5.670900 0.000000
-5.637300 0.000000
-5.603700 0.000000
-5.570100 0.000000
-5.536500 0.000000
-5.503000 0.000000
-5.469400 0.000000
-5.435800 0.000000
-5.402200 0.000000
-5.368600 0.000000
-5.335000 0.000000
-5.301400 0.000000
-5.267800 0.000000
-5.234200 0.000000
-5.200600 0.000000
-5.167000 0.000000
-5.133400 0.000000
-5.099900 0.000000
-5.066300 0.000000
-5.032700 0.000000
-4.999100 0.000000
-4.965500 0.000000
-4.931900 0.000000
-4.898300 0.000000
-4.864700 0.000000
-4.831100 0.000000
-4.797500 0.000000
-4.763900 0.000000
-4.730400 0.000000
-4.696800 0.000000
-4.663200 0.000000
-4.629600 0.000000
-4.596000 0.000000
-4.562400 0.000000
-4.528800 0.000000
-4.495200 0.000000
-4.461600 0.000000
-4.428000 0.000000
-4.394400 0.000000
-4.360800 0.000000
-4.327300 0.000000
-4.293700 0.000000
-4.260100 0.000000
-4.226500 0.000000
-4.192900 0.000000
-4.159300 0.000000
-4.125700 0.000000
-4.092100 0.000000
-4.058500 0.000000
-4.024900 0.000000
-3.991300 0.000000
-3.957800 0.000000
-3.924200 0.000000
-3.890600 0.000000
-3.857000 0.000000
-3.823400 0.000000
-3.789800 0.000000
-3.756200 0.000000
-3.722600 0.000000
-3.689000 0.000000
-3.655400 0.000000
-3.621800 0.000000
-3.588200 0.000000
-3.554700 0.000000
-3.521100 0.000000
-3.487500 0.000000
-3.453900 0.000000
-3.420300 0.000000
-3.386700 0.006500
-3.353100 0.020400
-3.319500 0.036900
-3.285900 0.056000
-3.252300 0.057900
-3.218700 0.062400
-3.185200 0.066600
-3.151600 0.072700
-3.118000 0.079200
-3.084400 0.086000
-3.050800 0.091700
-3.017200 0.097500
-2.983600 0.103600
-2.950000 0.108300
-2.916400 0.112500
-2.882800 0.116300
-2.849200 0.119800
-2.815600 0.123400
-2.782100 0.127300
-2.748500 0.131600
-2.714900 0.135900
-2.681300 0.140400
-2.647700 0.145000
-2.614100 0.149700
-2.580500 0.154500
-2.546900 0.159300
-2.513300 0.164000
-2.479700 0.168700
-2.446100 0.172300
-2.412600 0.176200
-2.379000 0.180300
-2.345400 0.184600
-2.311800 0.188900
-2.278200 0.193200
-2.244600 0.197600
-2.211000 0.202200
-2.177400 0.206900
-2.143800 0.211900
-2.110200 0.217100
-2.076600 0.222400
-2.043100 0.227800
-2.009500 0.233400
-1.975900 0.239200
-1.942300 0.245000
-1.908700 0.251900
-1.875100 0.262300
-1.841500 0.272800
-1.807900 0.280800
-1.774300 0.285500
-1.740700 0.286900
-1.707100 0.286300
-1.673500 0.291000
-1.640000 0.295800
-1.606400 0.300700
-1.572800 0.305500
-1.539200 0.310300
-1.505600 0.315100
-1.472000 0.319300
-1.438400 0.323300
-1.404800 0.328000
-1.371200 0.333500
-1.337600 0.339700
-1.304000 0.346700
-1.270500 0.359800
-1.236900 0.379200
-1.203300 0.396500
-1.169700 0.410500
-1.136100 0.424600
-1.102500 0.439900
-1.068900 0.460800
-1.035300 0.486000
-1.001700 0.515700
-0.968100 0.550200
-0.934500 0.591300
-0.900900 0.642300
-0.867400 0.701300
-0.833800 0.960700
-0.800200 1.175400
-0.766600 1.374300
-0.733000 1.336800
-0.699400 1.350200
-0.665800 1.313400
-0.632200 1.357300
-0.598600 1.403300
-0.565000 1.443300
-0.531400 1.576100
-0.497900 1.757400
-0.464300 1.904300
-0.430700 2.080700
-0.397100 2.234400
-0.363500 2.372700
-0.329900 2.524200
-0.296300 2.646300
-0.262700 2.642600
-0.229100 2.601100
-0.195500 2.592100
-0.161900 2.598600
-0.128300 2.664300
-0.094800 2.795400
-0.061200 2.995700
-0.027600 2.926500
0.006000 3.004700
0.039600 3.034500
0.073200 3.026000
0.106800 3.040100
0.140400 3.082800
0.174000 3.125700
0.207600 3.173200
0.241200 3.487500
0.274700 3.250600
0.308300 3.275700
0.341900 3.351500
0.375500 3.422300
0.409100 3.468600
0.442700 3.362300
0.476300 3.288700
0.509900 3.289700
0.543500 3.363800
0.577100 3.448300
0.610700 3.653600
0.644300 3.417100
0.677800 2.942800
0.711400 2.838000
0.745000 2.875400
0.778600 2.484500
0.812200 2.465200
0.845800 2.800400
0.879400 2.617400
0.913000 2.639100
0.946600 2.735700
0.980200 2.778500
1.013800 2.417800
1.047300 2.442200
1.080900 2.189200
1.114500 1.911400
1.148100 2.124000
1.181700 2.574500
1.215300 2.899900
1.248900 3.049000
1.282500 3.198300
1.316100 3.675500
1.349700 3.978600
1.383300 3.968500
1.416900 3.928400
1.450400 3.839600
1.484000 3.545900
1.517600 3.375700
1.551200 3.381400
1.584800 3.237700
1.618400 3.047700
1.652000 3.185000
1.685600 3.290400
1.719200 3.352400
1.752800 3.500700
1.786400 3.582900
1.819900 3.661200
1.853500 3.698700
1.887100 3.846000
1.920700 4.389600
1.954300 4.853200
1.987900 4.712200
2.021500 4.350300
2.055100 3.748600
2.088700 3.538700
2.122300 3.652900
2.155900 3.840900
2.189500 4.018200
2.223000 4.526400
2.256600 5.038500
2.290200 5.244600
2.323800 5.002000
2.357400 5.323800
2.391000 5.198200
2.424600 5.458600
2.458200 4.980900
2.491800 4.754900
2.525400 4.478600
2.559000 3.549200
2.592500 2.933800
2.626100 2.732200
2.659700 2.526800
2.693300 2.362800
2.726900 2.309200
2.760500 2.339400
2.794100 2.385500
2.827700 2.668900
2.861300 3.189400
2.894900 3.684800
2.928500 3.764900
2.962100 3.639800
2.995600 3.645800
3.029200 4.137900
3.062800 3.751300
3.096400 3.594800
3.130000 3.184300
3.163600 3.043000
3.197200 3.082200
3.230800 3.007300
3.264400 3.042800
3.298000 2.941500
3.331600 3.098500
3.365100 3.369700
3.398700 3.582500
3.432300 3.466200
3.465900 2.940400
3.499500 2.628000
3.533100 2.591700
3.566700 2.469300
3.600300 2.434800
3.633900 2.330800
3.667500 2.273800
3.701100 2.317100
3.734700 2.385800
3.768200 2.461400
3.801800 2.585300
3.835400 2.949300
3.869000 3.335500
3.902600 3.222000
3.936200 3.183100
3.969800 3.247400
4.003400 3.214100
4.037000 3.391700
4.070600 3.672900
4.104200 3.629700
4.137700 3.447300
4.171300 3.406500
4.204900 3.384200
4.238500 3.278700
4.272100 3.066700
4.305700 2.937000
4.339300 2.770100
4.372900 2.473800
4.406500 2.528000
4.440100 2.548200
4.473700 2.636500
4.507300 2.743000
4.540800 2.872400
4.574400 2.738000
4.608000 2.884200
4.641600 3.224300
4.675200 3.306700
4.708800 3.427700
4.742400 3.914900
4.776000 3.770500
4.809600 3.076200
4.843200 2.960400
4.876800 2.824300
4.910300 3.203700
4.943900 3.149100
4.977500 3.075900
5.011100 3.155200
5.044700 3.235800
5.078300 3.184600
5.111900 3.170200
5.145500 3.285700
5.179100 3.399200
5.212700 3.496400
5.246300 3.558100
5.279900 3.665700
5.313400 3.974900
5.347000 3.900600
5.380600 3.649000
5.414200 3.335800
5.447800 2.928800
5.481400 2.507800
5.515000 2.035400
5.548600 1.887600
5.582200 1.889400
5.615800 1.900800
5.649400 1.888500
5.682900 1.839300
5.716500 1.878900
5.750100 1.456600
5.783700 1.175500
5.817300 1.154200
5.850900 1.105500
5.884500 1.044500
5.918100 0.987800
5.951700 0.954000
5.985300 0.931300
6.018900 0.909500
6.052500 0.894700
6.086000 0.885300
6.119600 0.879900
6.153200 0.752400
6.186800 0.747300
6.220400 0.748400
6.254000 0.749900
6.287600 0.750300
6.321200 0.749500
6.354800 0.747400
6.388400 0.744800
6.422000 0.741700
6.455500 0.738100
6.489100 0.733400
6.522700 0.728800
6.556300 0.723900
6.589900 0.717800
6.623500 0.712400
6.657100 0.706400
6.690700 0.699600
6.724300 0.684900
6.757900 0.672300
6.791500 0.668100
6.825100 0.667400
6.858600 0.668300
6.892200 0.670100
6.925800 0.672300
6.959400 0.675000
6.993000 0.678100
7.026600 0.682100
7.060200 0.685900
7.093800 0.689300
7.127400 0.683800
7.161000 0.676700
7.194600 0.670600
7.228100 0.664600
7.261700 0.658900
7.295300 0.653800
7.328900 0.648400
7.362500 0.642600
7.396100 0.637400
7.429700 0.632800
7.463300 0.628600
7.496900 0.624500
7.530500 0.619000
7.564100 0.609300
7.597700 0.606900
7.631200 0.607200
7.664800 0.612400
7.698400 0.630500
7.732000 0.694600
7.765600 0.685500
7.799200 0.591800
7.832800 0.574500
7.866400 0.566400
7.900000 0.561500
7.933600 0.558200
7.967200 0.556500
8.000700 0.555600
8.034300 0.555100
8.067900 0.554400
8.101500 0.553200
8.135100 0.551900
8.168700 0.551600
8.202300 0.550700
8.235900 0.549300
8.269500 0.543800
8.303100 0.540700
8.336700 0.536700
8.370200 0.532000
8.403800 0.529400
8.437400 0.530100
8.471000 0.527700
8.504600 0.523100
8.538200 0.523300
8.571800 0.530100
8.605400 0.550000
8.639000 0.532400
8.672600 0.522800
8.706200 0.515700
8.739800 0.511800
8.773300 0.510700
8.806900 0.510200
8.840500 0.509800
8.874100 0.509500
8.907700 0.509200
8.941300 0.509300
8.974900 0.509300
9.008500 0.509300
9.042100 0.509600
9.075700 0.510900
9.109300 0.512700
9.142800 0.514500
9.176400 0.516900
9.210000 0.520600
9.243600 0.539300
9.277200 0.553700
9.310800 0.561600
9.344400 0.564000
9.378000 0.560900
9.411600 0.550200
9.445200 0.535500
9.478800 0.521600
9.512400 0.500700
9.545900 0.499300
9.579500 0.499600
9.613100 0.501200
9.646700 0.502000
9.680300 0.501100
9.713900 0.500200
9.747500 0.506200
9.781100 0.512300
9.814700 0.509700
9.848300 0.502800
9.881900 0.499300
9.915400 0.496700
9.949000 0.498500
9.982600 0.526900
10.016200 0.553800
10.049800 0.518900
10.083400 0.516100
10.117000 0.515100
10.150600 0.512000
10.184200 0.496100
10.217800 0.488900
10.251400 0.607400
10.285000 0.683200
10.318500 0.648800
10.352100 0.645200
10.385700 0.698300
10.419300 0.750300
10.452900 0.782000
10.486500 0.800900
10.520100 0.807100
10.553700 0.797400
10.587300 0.780000
10.620900 0.753800
10.654500 0.701600
10.688000 0.692600
10.721600 0.716900
10.755200 0.718000
10.788800 0.696800
10.822400 0.676600
10.856000 0.657600
10.889600 0.640100
10.923200 0.627000
10.956800 0.620200
10.990400 0.619700
11.024000 0.622100
11.057600 0.613800
11.091100 0.605700
11.124700 0.595400
11.158300 0.590000
11.191900 0.588700
11.225500 0.572300
11.259100 0.554900
11.292700 0.547700
11.326300 0.541400
11.359900 0.540100
11.393500 0.547900
11.427100 0.565100
11.460600 0.580600
11.494200 0.584500
11.527800 0.601700
11.561400 0.600200
11.595000 0.583800
11.628600 0.582400
11.662200 0.595100
11.695800 0.612300
11.729400 0.629900
11.763000 0.646200
11.796600 0.659300
11.830200 0.672600
11.863700 0.696600
11.897300 0.715900
11.930900 0.725100
11.964500 0.728500
11.998100 0.723400
12.031700 0.710300
12.065300 0.713200
12.098900 0.718400
12.132500 0.679100
12.166100 0.665500
12.199700 0.658700
12.233200 0.648200
12.266800 0.648700
12.300400 0.649300
12.334000 0.648900
12.367600 0.647300
12.401200 0.645800
12.434800 0.644900
12.468400 0.641500
12.502000 0.636700
12.535600 0.633900
12.569200 0.633800
12.602800 0.638500
12.636300 0.648300
12.669900 0.661100
12.703500 0.676400
12.737100 0.701800
12.770700 0.723600
12.804300 0.732500
12.837900 0.742800
12.871500 0.748300
12.905100 0.753100
12.938700 0.753600
12.972300 0.745200
13.005800 0.726900
13.039400 0.698400
13.073000 0.667600
13.106600 0.661700
13.140200 0.658600
13.173800 0.652400
13.207400 0.644600
13.241000 0.640200
13.274600 0.637900
13.308200 0.637100
13.341800 0.632100
13.375400 0.627600
13.408900 0.625800
13.442500 0.625200
13.476100 0.624900
13.509700 0.622600
13.543300 0.616200
13.576900 0.605600
13.610500 0.596200
13.644100 0.585400
13.677700 0.579900
13.711300 0.580500
13.744900 0.584100
13.778400 0.586200
13.812000 0.585300
13.845600 0.592200
13.879200 0.597500
13.912800 0.586100
13.946400 0.587200
13.980000 0.581500
14.013600 0.569100
14.047200 0.559800
14.080800 0.556700
14.114400 0.555500
14.148000 0.553900
14.181500 0.553200
14.215100 0.552700
14.248700 0.550600
14.282300 0.542700
14.315900 0.542700
14.349500 0.580000
14.383100 0.582800
14.416700 0.558200
14.450300 0.580000
14.483900 0.601200
14.517500 0.622900
14.551000 0.644200
14.584600 0.659300
14.618200 0.674900
14.651800 0.697000
14.685400 0.705300
14.719000 0.712200
14.752600 0.719500
14.786200 0.727200
14.819800 0.733100
14.853400 0.736800
14.887000 0.736700
14.920600 0.738500
14.954100 0.747800
14.987700 0.765000
15.021300 0.759600
15.054900 0.743300
15.088500 0.723700
15.122100 0.710100
15.155700 0.710400
15.189300 0.712800
15.222900 0.717300
15.256500 0.724100
15.290100 0.725100
15.323600 0.718900
15.357200 0.711100
15.390800 0.709800
15.424400 0.708200
15.458000 0.707600
15.491600 0.707800
15.525200 0.708700
15.558800 0.712300
15.592400 0.716100
15.626000 0.719900
15.659600 0.723400
15.693200 0.726900
15.726700 0.730000
15.760300 0.732900
15.793900 0.735000
15.827500 0.737500
15.861100 0.740900
15.894700 0.743100
15.928300 0.742800
15.961900 0.740400
15.995500 0.738400
16.029100 0.736800
16.062700 0.737400
16.096200 0.742100
16.129800 0.746100
16.163400 0.746900
16.197000 0.744400
16.230600 0.739900
16.264200 0.733700
16.297800 0.731300
16.331400 0.731000
16.365000 0.731600
16.398600 0.732900
16.432200 0.734800
16.465800 0.737300
16.499300 0.739000
16.532900 0.740500
16.566500 0.745900
16.600100 0.760400
16.633700 0.782700
16.667300 0.803800
16.700900 0.853700
16.734500 0.833400
16.768100 0.832500
16.801700 0.845700
16.835300 0.876000
16.868800 0.891000
16.902400 0.893300
16.936000 0.899100
16.969600 0.942000
17.003200 1.022400
17.036800 1.132700
17.070400 1.053600
17.104000 1.035300
17.137600 1.020300
17.171200 1.009400
17.204800 1.004900
17.238400 1.005700
17.271900 1.008600
17.305500 1.008200
17.339100 1.008200
17.372700 1.008100
17.406300 1.007500
17.439900 1.007100
17.473500 1.008000
17.507100 1.010700
17.540700 1.015100
17.574300 1.020100
17.607900 1.025000
17.641400 1.028900
17.675000 1.031000
17.708600 1.033500
17.742200 1.037200
17.775800 1.039900
17.809400 1.039500
17.843000 1.035400
17.876600 1.029100
17.910200 1.021000
17.943800 1.016400
17.977400 1.011800
18.011000 1.003500
18.044500 0.990800
18.078100 0.979300
18.111700 0.967800
18.145300 0.956400
18.178900 0.947300
18.212500 0.943900
18.246100 0.942100
18.279700 0.940900
18.313300 0.940400
18.346900 0.940800
18.380500 0.942000
18.414000 0.943600
18.447600 0.948200
18.481200 0.953000
18.514800 0.958900
18.548400 0.967700
18.582000 0.979500
18.615600 0.995700
18.649200 1.014900
18.682800 1.035600
18.716400 1.064500
18.750000 1.022300
18.783500 1.024500
18.817100 1.034300
18.850700 1.050200
18.884300 1.093200
18.917900 1.082700
18.951500 1.063500
18.985100 1.044000
19.018700 1.021800
19.052300 1.005600
19.085900 0.994700
19.119500 0.988800
19.153100 0.985400
19.186600 0.981000
19.220200 0.972600
19.253800 0.964300
19.287400 0.958000
19.321000 0.954400
19.354600 0.950100
19.388200 0.944500
19.421800 0.935400
19.455400 0.926500
19.489000 0.919400
19.522600 0.906700
19.556100 0.894100
19.589700 0.886500
19.623300 0.880700
19.656900 0.875800
19.690500 0.873800
19.724100 0.883200
19.757700 0.898700
19.791300 0.910900
19.824900 0.918300
19.858500 0.922700
19.892100 0.925500
19.925700 0.936000
19.959200 0.948700
19.992800 0.964100
20.026400 0.974800
20.060000 0.994000
20.093600 1.003100
20.127200 1.017100
20.160800 1.033200
20.194400 1.042600
20.228000 1.049700
20.261600 1.053600
20.295200 1.054500
20.328700 1.052600
20.362300 1.049500
20.395900 1.051300
20.429500 1.054700
20.463100 1.058100
20.496700 1.058600
20.530300 1.057700
20.563900 1.058800
20.597500 1.060900
20.631100 1.064100
20.664700 1.072300
20.698300 1.091900
20.731800 1.102900
20.765400 1.115800
20.799000 1.128600
20.832600 1.138700
20.866200 1.151500
20.899800 1.172600
20.933400 1.186500
20.967000 1.265300
21.000600 1.344200
21.034200 1.435900
21.067800 1.576800
21.101300 1.699700
21.134900 1.699800
21.168500 1.570400
21.202100 1.438500
21.235700 1.363400
21.269300 1.318800
21.302900 1.287500
21.336500 1.264000
21.370100 1.238100
21.403700 1.208600
21.437300 1.190000
21.470900 1.181000
21.504400 1.174400
21.538000 1.168700
21.571600 1.168100
21.605200 1.145900
21.638800 1.108100
21.672400 1.087000
21.706000 1.082300
21.739600 1.091100
21.773200 1.092600
21.806800 1.095100
21.840400 1.103700
21.873900 1.130000
21.907500 1.229600
21.941100 1.231200
21.974700 1.234400
22.008300 1.231400
22.041900 1.235300
22.075500 1.225500
22.109100 1.181000
22.142700 1.139800
22.176300 1.110200
22.209900 1.095400
22.243500 1.086100
22.277000 1.080800
22.310600 1.077700
22.344200 1.078900
22.377800 1.086000
22.411400 1.095500
22.445000 1.108900
22.478600 1.170700
22.512200 1.199100
22.545800 1.201200
22.579400 1.185600
22.613000 1.184600
22.646500 1.194800
22.680100 1.227800
22.713700 1.286800
22.747300 1.364400
22.780900 1.312300
22.814500 1.281300
22.848100 1.136800
22.881700 1.060600
22.915300 1.010600
22.948900 0.979300
22.982500 0.925200
23.016100 0.872200
23.049600 0.835200
23.083200 0.797200
23.116800 0.769500
23.150400 0.744900
23.184000 0.730300
23.217600 0.727700
23.251200 0.731600
23.284800 0.732600
23.318400 0.732500
23.352000 0.735500
23.385600 0.741600
23.419100 0.755000
23.452700 0.773200
23.486300 0.808300
23.519900 0.792300
23.553500 0.805800
23.587100 0.822200
23.620700 0.836900
23.654300 0.852000
23.687900 0.878300
23.721500 0.915200
23.755100 0.959200
23.788700 0.998600
23.822200 1.035600
23.855800 1.073000
23.889400 1.122300
23.923000 1.201900
23.956600 1.223100
23.990200 1.271100
24.023800 1.453400
24.057400 1.356700
24.091000 1.364900
24.124600 1.389700
24.158200 1.471200
24.191700 1.494900
24.225300 1.425400
24.258900 1.422900
24.292500 1.484200
24.326100 1.443200
24.359700 1.453200
24.393300 1.477400
24.426900 1.514300
24.460500 1.566700
24.494100 1.623000
24.527700 1.651600
24.561300 1.660900
24.594800 1.679100
24.628400 1.681800
24.662000 1.671100
24.695600 1.662400
24.729200 1.655800
24.762800 1.647500
24.796400 1.644800
24.830000 1.607900
24.863600 1.554100
24.897200 1.542500
24.930800 1.555100
24.964300 1.585600
24.997900 1.636900
25.031500 1.628800
25.065100 1.567400
25.098700 1.577100
25.132300 1.598100
25.165900 1.632500
25.199500 1.667900
25.233100 1.689500
25.266700 1.687100
25.300300 1.662700
25.333900 1.636100
25.367400 1.586000
25.401000 1.545000
25.434600 1.509800
25.468200 1.487500
25.501800 1.475100
25.535400 1.469300
25.569000 1.453200
25.602600 1.425700
25.636200 1.389200
25.669800 1.327800
25.703400 1.279300
25.736900 1.245400
25.770500 1.230900
25.804100 1.212900
25.837700 1.208200
25.871300 1.172800
25.904900 1.146400
25.938500 1.127900
25.972100 1.114500
26.005700 1.106100
26.039300 1.103100
26.072900 1.103700
26.106500 1.106900
26.140000 1.112100
26.173600 1.118400
26.207200 1.125900
26.240800 1.134300
26.274400 1.143700
26.308000 1.155700
26.341600 1.167600
26.375200 1.180700
26.408800 1.198400
26.442400 1.207500
26.476000 1.211600
26.509500 1.208600
26.543100 1.218700
26.576700 1.188700
26.610300 1.175100
26.643900 1.172200
26.677500 1.160500
26.711100 1.153100
26.744700 1.147300
26.778300 1.138400
26.811900 1.129000
26.845500 1.120000
26.879100 1.122800
26.912600 1.127700
26.946200 1.100900
26.979800 1.061200
27.013400 1.035300
27.047000 0.997700
27.080600 0.978000
27.114200 0.965300
27.147800 0.950600
27.181400 0.929000
27.215000 0.914400
27.248600 0.899100
27.282100 0.887700
27.315700 0.883200
27.349300 0.879100
27.382900 0.872900
27.416500 0.862900
27.450100 0.848800
27.483700 0.830700
27.517300 0.808700
27.550900 0.790700
27.584500 0.773100
27.618100 0.755300
27.651700 0.736000
27.685200 0.715100
27.718800 0.691900
27.752400 0.659100
27.786000 0.629100
27.819600 0.603800
27.853200 0.581300
27.886800 0.565200
27.920400 0.557800
27.954000 0.581200
27.987600 0.562900
28.021200 0.555500
28.054700 0.558700
28.088300 0.565200
28.121900 0.577500
28.155500 0.588500
28.189100 0.591800
28.222700 0.594200
28.256300 0.604100
28.289900 0.615400
28.323500 0.627100
28.357100 0.640400
28.390700 0.653300
28.424300 0.667300
28.457800 0.682000
28.491400 0.703800
28.525000 0.735600
28.558600 0.765500
28.592200 0.798400
28.625800 0.831100
28.659400 0.863500
28.693000 0.900700
28.726600 0.940900
28.760200 0.990700
28.793800 1.007000
28.827300 1.013100
28.860900 1.014900
