set title 'mp-22633 - Density of States'
set xlabel 'Energy (eV)'
set ylabel 'DOS (states/eV)'
set grid
set xrange [-10:10]
set yrange [0:96.668]
set xzeroaxis lt -1
set terminal png size 800,600
set output 'mp-22633_dos_gnuplot.png'
plot '-' using 1:2 with lines title 'DOS'
-16.298300 0.000000
-16.278000 0.000000
-16.257800 0.000000
-16.237500 0.000000
-16.217200 0.000000
-16.196900 0.000000
-16.176600 0.000000
-16.156300 0.000000
-16.136100 0.000000
-16.115800 0.000000
-16.095500 0.000000
-16.075200 0.000000
-16.054900 0.000000
-16.034600 0.000000
-16.014300 0.000000
-15.994100 0.000000
-15.973800 0.000000
-15.953500 0.000000
-15.933200 0.000000
-15.912900 0.000000
-15.892600 0.000000
-15.872400 0.000000
-15.852100 0.000000
-15.831800 0.000000
-15.811500 0.000000
-15.791200 0.000000
-15.770900 0.000000
-15.750700 0.000000
-15.730400 0.000000
-15.710100 0.000000
-15.689800 0.000000
-15.669500 0.000000
-15.649200 0.000000
-15.628900 0.000000
-15.608700 0.000000
-15.588400 0.000000
-15.568100 0.000000
-15.547800 0.000000
-15.527500 0.000000
-15.507200 0.000000
-15.487000 0.000000
-15.466700 0.000000
-15.446400 0.000000
-15.426100 0.000000
-15.405800 0.000000
-15.385500 0.000000
-15.365300 0.000000
-15.345000 0.000000
-15.324700 0.000000
-15.304400 0.000000
-15.284100 0.000000
-15.263800 0.000000
-15.243500 0.000000
-15.223300 0.000000
-15.203000 0.000000
-15.182700 0.000000
-15.162400 0.000000
-15.142100 0.000000
-15.121800 0.000000
-15.101600 0.000000
-15.081300 0.000000
-15.061000 0.000000
-15.040700 0.000000
-15.020400 0.000000
-15.000100 0.000000
-14.979900 0.000000
-14.959600 0.000000
-14.939300 0.000000
-14.919000 0.000000
-14.898700 0.000000
-14.878400 0.000000
-14.858100 0.000000
-14.837900 0.000000
-14.817600 0.000000
-14.797300 0.000000
-14.777000 0.000000
-14.756700 0.000000
-14.736400 0.000000
-14.716200 0.000000
-14.695900 0.000000
-14.675600 0.000000
-14.655300 0.000000
-14.635000 0.000000
-14.614700 0.000000
-14.594500 0.000000
-14.574200 0.000000
-14.553900 0.000000
-14.533600 0.000000
-14.513300 0.000000
-14.493000 0.000000
-14.472700 0.000000
-14.452500 26.765200
-14.432200 60.883800
-14.411900 316.637800
-14.391600 35.090200
-14.371300 47.938000
-14.351000 30.645800
-14.330800 32.908100
-14.310500 31.744900
-14.290200 24.749800
-14.269900 20.692400
-14.249600 18.203100
-14.229300 18.201900
-14.209000 18.201200
-14.188800 18.200900
-14.168500 18.201000
-14.148200 18.201600
-14.127900 18.202600
-14.107600 12.955800
-14.087300 4.292900
-14.067100 0.003900
-14.046800 3.291600
-14.026500 14.491200
-14.006200 21.284700
-13.985900 24.289200
-13.965600 24.304700
-13.945400 24.322100
-13.925100 24.341300
-13.904800 257.959700
-13.884500 9.789100
-13.864200 9.792000
-13.843900 9.795000
-13.823600 44.543700
-13.803400 121.680500
-13.783100 34.584200
-13.762800 32.767100
-13.742500 29.708100
-13.722200 28.181200
-13.701900 26.185900
-13.681700 23.714100
-13.661400 23.704000
-13.641100 23.479100
-13.620800 19.673700
-13.600500 16.421400
-13.580200 14.126800
-13.560000 10.376800
-13.539700 9.751500
-13.519400 9.751900
-13.499100 9.752400
-13.478800 0.000000
-13.458500 0.000000
-13.438200 0.000000
-13.418000 0.000000
-13.397700 0.000000
-13.377400 0.000000
-13.357100 0.000000
-13.336800 0.000000
-13.316500 0.000000
-13.296300 0.000000
-13.276000 0.000000
-13.255700 0.000000
-13.235400 0.000000
-13.215100 0.000000
-13.194800 0.000000
-13.174600 0.000000
-13.154300 0.000000
-13.134000 0.000000
-13.113700 0.000000
-13.093400 0.000000
-13.073100 0.000000
-13.052800 0.000000
-13.032600 0.000000
-13.012300 0.000000
-12.992000 0.000000
-12.971700 0.000000
-12.951400 0.000000
-12.931100 0.000000
-12.910900 0.000000
-12.890600 0.000000
-12.870300 0.000000
-12.850000 0.000000
-12.829700 0.000000
-12.809400 0.000000
-12.789100 0.000000
-12.768900 0.000000
-12.748600 0.000000
-12.728300 0.000000
-12.708000 0.000000
-12.687700 0.000000
-12.667400 0.000000
-12.647200 0.000000
-12.626900 0.000000
-12.606600 0.000000
-12.586300 0.000000
-12.566000 0.000000
-12.545700 0.000000
-12.525500 0.000000
-12.505200 0.000000
-12.484900 0.000000
-12.464600 0.000000
-12.444300 0.000000
-12.424000 0.000000
-12.403700 0.000000
-12.383500 0.000000
-12.363200 0.000000
-12.342900 0.000000
-12.322600 0.000000
-12.302300 65.377600
-12.282000 94.222900
-12.261800 64.561100
-12.241500 64.561800
-12.221200 101.657300
-12.200900 186.679900
-12.180600 367.942600
-12.160300 254.205000
-12.140100 57.823100
-12.119800 92.155200
-12.099500 100.496400
-12.079200 47.327900
-12.058900 88.136400
-12.038600 145.886500
-12.018300 137.295800
-11.998100 27.841000
-11.977800 210.414800
-11.957500 746.893800
-11.937200 764.991700
-11.916900 640.864400
-11.896600 84.475000
-11.876400 64.384900
-11.856100 77.547200
-11.835800 36.563400
-11.815500 19.869400
-11.795200 62.563300
-11.774900 66.061000
-11.754700 27.744300
-11.734400 36.037500
-11.714100 18.020800
-11.693800 16.321400
-11.673500 14.990500
-11.653200 13.424700
-11.632900 12.068000
-11.612700 10.920500
-11.592400 10.661200
-11.572100 13.606500
-11.551800 16.468100
-11.531500 18.695300
-11.511200 16.989000
-11.491000 17.714100
-11.470700 20.790300
-11.450400 24.641200
-11.430100 29.576500
-11.409800 29.687800
-11.389500 25.494100
-11.369300 16.441500
-11.349000 5.838700
-11.328700 0.000000
-11.308400 0.000000
-11.288100 0.000000
-11.267800 0.000000
-11.247500 0.000000
-11.227300 0.000000
-11.207000 21.448300
-11.186700 57.622400
-11.166400 49.594600
-11.146100 39.119200
-11.125800 30.055600
-11.105600 0.556900
-11.085300 0.876400
-11.065000 1.402500
-11.044700 1.965700
-11.024400 2.565900
-11.004100 5.124800
-10.983800 7.420400
-10.963600 8.066700
-10.943300 8.572400
-10.923000 9.008000
-10.902700 9.369500
-10.882400 9.644500
-10.862100 9.832400
-10.841900 10.030100
-10.821600 10.386700
-10.801300 12.019900
-10.781000 22.536900
-10.760700 19.669700
-10.740400 37.681800
-10.720200 56.281200
-10.699900 46.787000
-10.679600 22.593800
-10.659300 12.214800
-10.639000 13.409900
-10.618700 18.913200
-10.598400 50.567400
-10.578200 48.458900
-10.557900 39.157500
-10.537600 27.730300
-10.517300 26.713300
-10.497000 15.735600
-10.476700 4.277500
-10.456500 1.271900
-10.436200 0.000000
-10.415900 0.000000
-10.395600 0.000000
-10.375300 0.000000
-10.355000 0.000000
-10.334800 0.000000
-10.314500 0.000000
-10.294200 0.000000
-10.273900 0.000000
-10.253600 0.000000
-10.233300 0.000000
-10.213000 0.000000
-10.192800 0.000000
-10.172500 0.000000
-10.152200 0.000000
-10.131900 0.000000
-10.111600 0.000000
-10.091300 0.000000
-10.071100 0.000000
-10.050800 0.000000
-10.030500 0.000000
-10.010200 0.000000
-9.989900 0.000000
-9.969600 0.000000
-9.949400 0.000000
-9.929100 0.000000
-9.908800 0.000000
-9.888500 0.000000
-9.868200 0.000000
-9.847900 0.000000
-9.827600 0.000000
-9.807400 0.000000
-9.787100 0.000000
-9.766800 0.000000
-9.746500 0.000000
-9.726200 0.000000
-9.705900 0.000000
-9.685700 0.000000
-9.665400 0.000000
-9.645100 0.000000
-9.624800 0.000000
-9.604500 0.000000
-9.584200 0.000000
-9.563900 0.000000
-9.543700 0.000000
-9.523400 0.000000
-9.503100 0.000000
-9.482800 0.000000
-9.462500 0.000000
-9.442200 0.000000
-9.422000 0.000000
-9.401700 0.000000
-9.381400 0.000000
-9.361100 0.000000
-9.340800 0.000000
-9.320500 0.000000
-9.300300 0.000000
-9.280000 0.000000
-9.259700 0.000000
-9.239400 0.000000
-9.219100 0.000000
-9.198800 0.000000
-9.178500 0.000000
-9.158300 0.000000
-9.138000 0.000000
-9.117700 0.000000
-9.097400 0.000000
-9.077100 0.000000
-9.056800 0.000000
-9.036600 0.000000
-9.016300 0.000000
-8.996000 0.000000
-8.975700 0.000000
-8.955400 0.000000
-8.935100 0.000000
-8.914900 0.000000
-8.894600 0.000000
-8.874300 0.000000
-8.854000 0.000000
-8.833700 0.000000
-8.813400 0.000000
-8.793100 0.000000
-8.772900 0.000000
-8.752600 0.000000
-8.732300 0.000000
-8.712000 0.000000
-8.691700 0.000000
-8.671400 0.000000
-8.651200 0.000000
-8.630900 0.000000
-8.610600 0.000000
-8.590300 0.000000
-8.570000 0.000000
-8.549700 0.000000
-8.529500 0.000000
-8.509200 0.000000
-8.488900 0.000000
-8.468600 0.000000
-8.448300 0.000000
-8.428000 0.000000
-8.407700 0.000000
-8.387500 0.000000
-8.367200 0.000000
-8.346900 0.000000
-8.326600 0.000000
-8.306300 0.000000
-8.286000 0.000000
-8.265800 0.000000
-8.245500 0.000000
-8.225200 0.000000
-8.204900 0.000000
-8.184600 0.000000
-8.164300 0.000000
-8.144000 0.000000
-8.123800 0.000000
-8.103500 0.000000
-8.083200 0.000000
-8.062900 0.000000
-8.042600 0.000000
-8.022300 0.000000
-8.002100 0.000000
-7.981800 0.000000
-7.961500 0.000000
-7.941200 0.000000
-7.920900 0.000000
-7.900600 0.000000
-7.880400 0.000000
-7.860100 0.000000
-7.839800 0.000000
-7.819500 0.000000
-7.799200 0.000000
-7.778900 0.000000
-7.758600 0.000000
-7.738400 0.000000
-7.718100 0.000000
-7.697800 0.000000
-7.677500 0.000000
-7.657200 0.000000
-7.636900 0.000000
-7.616700 0.000000
-7.596400 0.000000
-7.576100 0.000000
-7.555800 0.000000
-7.535500 0.000000
-7.515200 0.000000
-7.495000 0.000000
-7.474700 0.000000
-7.454400 0.000000
-7.434100 0.000000
-7.413800 0.000000
-7.393500 0.000000
-7.373200 0.000000
-7.353000 0.000000
-7.332700 0.000000
-7.312400 0.000000
-7.292100 0.000000
-7.271800 0.000000
-7.251500 0.000000
-7.231300 0.000000
-7.211000 0.000000
-7.190700 0.000000
-7.170400 0.000000
-7.150100 0.000000
-7.129800 0.000000
-7.109600 0.000000
-7.089300 0.000000
-7.069000 0.000000
-7.048700 0.000000
-7.028400 0.000000
-7.008100 0.000000
-6.987800 0.000000
-6.967600 0.000000
-6.947300 0.000000
-6.927000 0.000000
-6.906700 0.000000
-6.886400 0.000000
-6.866100 0.000000
-6.845900 0.000000
-6.825600 0.000000
-6.805300 0.000000
-6.785000 0.000000
-6.764700 0.000000
-6.744400 0.000000
-6.724200 0.000000
-6.703900 0.000000
-6.683600 0.000000
-6.663300 0.000000
-6.643000 0.000000
-6.622700 0.000000
-6.602400 0.000000
-6.582200 0.000000
-6.561900 0.000000
-6.541600 0.000000
-6.521300 0.000000
-6.501000 0.000000
-6.480700 0.000000
-6.460500 0.000000
-6.440200 0.000000
-6.419900 0.000000
-6.399600 0.000000
-6.379300 0.000000
-6.359000 0.000000
-6.338700 0.000000
-6.318500 0.000000
-6.298200 0.000000
-6.277900 0.000000
-6.257600 0.000000
-6.237300 0.000000
-6.217000 0.000000
-6.196800 0.000000
-6.176500 0.000000
-6.156200 0.000000
-6.135900 0.000000
-6.115600 0.000000
-6.095300 0.000000
-6.075100 0.000000
-6.054800 0.000000
-6.034500 0.000000
-6.014200 0.000000
-5.993900 0.000000
-5.973600 0.000000
-5.953300 0.000000
-5.933100 0.000000
-5.912800 0.000000
-5.892500 0.000000
-5.872200 0.000000
-5.851900 0.000000
-5.831600 0.000000
-5.811400 0.000000
-5.791100 0.000000
-5.770800 0.000000
-5.750500 0.000000
-5.730200 0.000000
-5.709900 0.000000
-5.689700 0.000000
-5.669400 0.000000
-5.649100 0.000000
-5.628800 0.000000
-5.608500 0.000000
-5.588200 0.000000
-5.567900 0.000000
-5.547700 0.000000
-5.527400 0.000000
-5.507100 0.000000
-5.486800 0.000000
-5.466500 0.000000
-5.446200 0.000000
-5.426000 0.000000
-5.405700 0.000000
-5.385400 0.000000
-5.365100 0.000000
-5.344800 0.000000
-5.324500 0.000000
-5.304300 0.000000
-5.284000 0.000000
-5.263700 0.000000
-5.243400 0.000000
-5.223100 0.000000
-5.202800 0.000000
-5.182500 0.000000
-5.162300 0.000000
-5.142000 0.000000
-5.121700 0.000000
-5.101400 0.000000
-5.081100 0.000000
-5.060800 0.000000
-5.040600 0.000000
-5.020300 0.000000
-5.000000 0.000000
-4.979700 0.000000
-4.959400 0.000000
-4.939100 0.000000
-4.918800 0.000000
-4.898600 0.000000
-4.878300 0.000000
-4.858000 0.000000
-4.837700 0.000000
-4.817400 0.000000
-4.797100 0.000000
-4.776900 0.000000
-4.756600 0.000000
-4.736300 0.000000
-4.716000 0.000000
-4.695700 0.000000
-4.675400 0.000000
-4.655200 0.000000
-4.634900 0.000000
-4.614600 0.000000
-4.594300 0.000000
-4.574000 0.000000
-4.553700 0.000000
-4.533400 0.000000
-4.513200 0.000000
-4.492900 0.000000
-4.472600 0.000000
-4.452300 0.000000
-4.432000 0.000000
-4.411700 0.000000
-4.391500 0.000000
-4.371200 0.026700
-4.350900 0.116800
-4.330600 0.270700
-4.310300 0.488300
-4.290000 0.769600
-4.269800 1.114600
-4.249500 1.833100
-4.229200 2.688700
-4.208900 3.476600
-4.188600 4.197100
-4.168300 4.921200
-4.148000 6.650300
-4.127800 7.094300
-4.107500 7.540900
-4.087200 7.990100
-4.066900 10.890800
-4.046600 15.481500
-4.026300 18.203700
-4.006100 21.643600
-3.985800 48.578600
-3.965500 35.921100
-3.945200 25.074400
-3.924900 14.626000
-3.904600 11.521000
-3.884400 30.486100
-3.864100 33.039100
-3.843800 32.221000
-3.823500 31.293000
-3.803200 16.806400
-3.782900 14.847000
-3.762600 14.123700
-3.742400 16.505700
-3.722100 12.481100
-3.701800 11.213600
-3.681500 11.246800
-3.661200 11.852300
-3.640900 12.511100
-3.620700 12.850000
-3.600400 12.993900
-3.580100 12.908600
-3.559800 13.006800
-3.539500 13.180400
-3.519200 13.041900
-3.499000 13.191900
-3.478700 13.162500
-3.458400 13.506600
-3.438100 15.115600
-3.417800 17.415700
-3.397500 15.810700
-3.377200 13.782100
-3.357000 12.050300
-3.336700 10.611800
-3.316400 9.231300
-3.296100 14.475000
-3.275800 9.976100
-3.255500 9.562400
-3.235300 8.845100
-3.215000 7.961700
-3.194700 7.164400
-3.174400 6.193100
-3.154100 4.934500
-3.133800 3.388500
-3.113500 1.555100
-3.093300 0.330400
-3.073000 0.185700
-3.052700 0.082400
-3.032400 0.020500
-3.012100 0.000000
-2.991800 0.000000
-2.971600 0.000000
-2.951300 0.000000
-2.931000 1.596600
-2.910700 3.300000
-2.890400 4.871200
-2.870100 6.323100
-2.849900 9.200000
-2.829600 10.457900
-2.809300 14.332200
-2.789000 14.952200
-2.768700 14.708700
-2.748400 14.371700
-2.728100 12.988000
-2.707900 14.448800
-2.687600 16.190200
-2.667300 10.309500
-2.647000 8.542000
-2.626700 7.655500
-2.606400 6.457200
-2.586200 7.057800
-2.565900 8.059700
-2.545600 7.613400
-2.525300 7.102600
-2.505000 6.527300
-2.484700 5.888000
-2.464500 5.282500
-2.444200 4.764200
-2.423900 4.259700
-2.403600 4.357300
-2.383300 4.381800
-2.363000 4.381800
-2.342700 4.377000
-2.322500 4.367300
-2.302200 4.352900
-2.281900 4.333700
-2.261600 4.309600
-2.241300 4.280800
-2.221000 4.247200
-2.200800 4.275300
-2.180500 4.327000
-2.160200 4.369600
-2.139900 4.403100
-2.119600 4.427400
-2.099300 4.442600
-2.079100 4.448600
-2.058800 4.445500
-2.038500 4.433200
-2.018200 4.419300
-1.997900 4.255000
-1.977600 4.098700
-1.957300 3.915100
-1.937100 3.724000
-1.916800 3.540100
-1.896500 4.679900
-1.876200 4.764500
-1.855900 4.773600
-1.835600 4.745100
-1.815400 4.678800
-1.795100 4.574800
-1.774800 4.443300
-1.754500 4.316800
-1.734200 4.197700
-1.713900 4.086100
-1.693600 3.981900
-1.673400 3.648400
-1.653100 3.471900
-1.632800 2.639300
-1.612500 1.817000
-1.592200 1.004900
-1.571900 0.056900
-1.551700 0.000000
-1.531400 0.000000
-1.511100 0.000000
-1.490800 0.000000
-1.470500 0.000000
-1.450200 0.000000
-1.430000 0.000000
-1.409700 0.000000
-1.389400 0.000000
-1.369100 0.000000
-1.348800 0.000000
-1.328500 0.000000
-1.308200 0.000000
-1.288000 0.000000
-1.267700 0.000000
-1.247400 0.000000
-1.227100 0.000000
-1.206800 0.000000
-1.186500 0.000000
-1.166300 0.000000
-1.146000 0.000000
-1.125700 0.000000
-1.105400 0.000000
-1.085100 0.000000
-1.064800 0.000000
-1.044600 0.000000
-1.024300 0.000000
-1.004000 0.000000
-0.983700 0.000000
-0.963400 0.000000
-0.943100 0.000000
-0.922800 0.000000
-0.902600 0.000000
-0.882300 0.000000
-0.862000 0.000000
-0.841700 0.000000
-0.821400 0.000000
-0.801100 0.000000
-0.780900 0.000000
-0.760600 0.000000
-0.740300 0.000000
-0.720000 0.000000
-0.699700 0.000000
-0.679400 0.000000
-0.659200 0.000000
-0.638900 0.000000
-0.618600 2.043200
-0.598300 4.447700
-0.578000 8.178500
-0.557700 11.758000
-0.537400 11.932200
-0.517200 12.251400
-0.496900 12.715600
-0.476600 13.723400
-0.456300 18.466800
-0.436000 23.061300
-0.415700 25.608900
-0.395500 25.674100
-0.375200 58.932400
-0.354900 22.960800
-0.334600 32.144600
-0.314300 37.100600
-0.294000 36.678800
-0.273800 32.262300
-0.253500 15.933100
-0.233200 16.021300
-0.212900 15.875000
-0.192600 14.192100
-0.172300 14.187000
-0.152000 20.887300
-0.131800 25.830100
-0.111500 12.419900
-0.091200 8.696100
-0.070900 8.642100
-0.050600 8.618100
-0.030300 7.406400
-0.010100 4.957400
0.010200 3.109700
0.030500 2.857600
0.050800 2.661400
0.071100 2.521300
0.091400 2.437200
0.111700 2.409000
0.131900 2.436900
0.152200 2.520800
0.172500 2.660600
0.192800 5.967000
0.213100 24.914800
0.233400 19.385200
0.253600 21.099300
0.273900 26.129600
0.294200 31.230100
0.314500 19.139300
0.334800 13.940700
0.355100 17.255900
0.375300 26.333700
0.395600 25.005800
0.415900 16.621200
0.436200 12.690600
0.456500 11.395900
0.476800 10.960700
0.497100 21.844300
0.517300 21.652100
0.537600 19.480400
0.557900 15.668000
0.578200 13.098300
0.598500 10.271600
0.618800 8.752000
0.639000 10.470900
0.659300 10.182200
0.679600 10.004000
0.699900 15.778700
0.720200 19.979300
0.740500 19.532500
0.760700 22.092300
0.781000 19.934100
0.801300 15.691500
0.821600 15.741800
0.841900 9.094700
0.862200 8.961600
0.882500 9.097500
0.902700 9.428600
0.923000 9.666800
0.943300 11.194200
0.963600 13.039000
0.983900 15.201400
1.004200 19.237600
1.024400 26.116700
1.044700 39.015900
1.065000 49.770100
1.085300 24.679600
1.105600 25.231000
1.125900 29.072100
1.146100 40.110100
1.166400 24.509900
1.186700 21.192700
1.207000 14.283800
1.227300 17.674700
1.247600 24.018600
1.267900 40.396800
1.288100 46.199100
1.308400 26.423300
1.328700 22.393000
1.349000 12.632600
1.369300 9.982800
1.389600 12.175000
1.409800 21.362000
1.430100 26.826000
1.450400 36.950200
1.470700 31.440300
1.491000 26.097200
1.511300 25.328100
1.531600 20.807300
1.551800 20.467000
1.572100 19.015300
1.592400 17.881200
1.612700 18.100900
1.633000 18.696600
1.653300 18.453600
1.673500 29.542500
1.693800 28.326200
1.714100 28.495700
1.734400 22.110600
1.754700 22.710800
1.775000 39.612000
1.795200 57.858600
1.815500 33.022200
1.835800 27.461900
1.856100 4.899200
1.876400 3.379700
1.896700 18.793600
1.917000 29.024600
1.937200 45.778000
1.957500 43.538800
1.977800 31.762900
1.998100 20.390000
2.018400 11.748100
2.038700 20.607100
2.058900 40.179500
2.079200 14.787600
2.099500 13.212100
2.119800 28.179100
2.140100 31.680800
2.160400 35.122300
2.180600 45.569200
2.200900 39.697200
2.221200 35.728900
2.241500 29.894700
2.261800 31.129300
2.282100 87.879900
2.302400 61.719000
2.322600 46.281500
2.342900 48.126300
2.363200 38.802600
2.383500 40.028700
2.403800 41.646200
2.424100 44.190100
2.444300 63.237500
2.464600 57.560000
2.484900 59.645400
2.505200 18.145400
2.525500 25.298700
2.545800 18.721400
2.566000 13.453400
2.586300 9.024100
2.606600 5.403500
2.626900 10.067900
2.647200 36.632100
2.667500 21.996100
2.687800 27.136900
2.708000 32.599400
2.728300 28.725000
2.748600 12.914500
2.768900 14.555600
2.789200 12.835900
2.809500 11.308200
2.829700 10.581700
2.850000 11.778400
2.870300 13.434600
2.890600 15.364200
2.910900 17.568000
2.931200 20.937900
2.951400 11.997000
2.971700 14.646000
2.992000 16.918800
3.012300 17.654000
3.032600 13.808900
3.052900 5.847800
3.073200 4.295900
3.093400 6.031100
3.113700 9.333900
3.134000 12.485300
3.154300 15.499600
3.174600 21.030700
3.194900 16.599300
3.215100 16.225300
3.235400 15.024100
3.255700 13.844100
3.276000 12.766400
3.296300 11.207400
3.316600 9.460900
3.336900 8.953900
3.357100 8.637000
3.377400 8.510000
3.397700 3.826400
3.418000 0.000000
3.438300 0.000000
3.458600 0.000000
3.478800 0.000000
3.499100 0.000000
3.519400 0.000000
3.539700 0.000000
3.560000 0.000000
3.580300 0.000000
3.600500 0.000000
3.620800 0.000000
3.641100 0.000000
3.661400 0.000000
3.681700 0.000000
3.702000 0.000000
3.722300 0.000000
3.742500 0.000000
3.762800 0.000000
3.783100 0.000000
3.803400 0.000000
3.823700 0.000000
3.844000 0.000000
3.864200 0.000000
3.884500 0.000000
3.904800 0.000000
3.925100 0.000000
3.945400 0.000000
3.965700 0.000000
3.985900 0.000000
4.006200 0.000000
4.026500 0.000000
4.046800 0.000000
4.067100 0.000000
4.087400 0.000000
4.107700 0.000000
4.127900 0.000000
4.148200 0.000000
4.168500 0.000000
4.188800 0.000000
4.209100 0.000000
4.229400 0.000000
4.249600 0.000000
4.269900 0.000000
