set title 'mp-1096861 - Density of States'
set xlabel 'Energy (eV)'
set ylabel 'DOS (states/eV)'
set grid
set xrange [-10:10]
set yrange [0:14.949]
set xzeroaxis lt -1
set terminal png size 800,600
set output 'mp-1096861_dos_gnuplot.png'
plot '-' using 1:2 with lines title 'DOS'
-11.519800 0.000000
-11.471700 0.000000
-11.423600 0.000000
-11.375500 0.000000
-11.327400 0.000000
-11.279400 0.000000
-11.231300 0.000000
-11.183200 0.000000
-11.135100 0.000000
-11.087100 0.000000
-11.039000 0.000000
-10.990900 0.000000
-10.942800 0.000000
-10.894700 0.000000
-10.846700 0.000000
-10.798600 0.000000
-10.750500 0.000000
-10.702400 0.000000
-10.654300 0.000000
-10.606300 0.000000
-10.558200 0.000000
-10.510100 0.000000
-10.462000 0.000000
-10.414000 0.000000
-10.365900 0.000000
-10.317800 0.000000
-10.269700 0.000000
-10.221600 0.000000
-10.173600 0.000000
-10.125500 0.000000
-10.077400 0.000000
-10.029300 0.000000
-9.981200 0.000000
-9.933200 0.000000
-9.885100 0.000000
-9.837000 0.000000
-9.788900 0.000000
-9.740900 0.000000
-9.692800 0.000000
-9.644700 0.000000
-9.596600 0.000000
-9.548500 0.000000
-9.500500 0.000000
-9.452400 0.000000
-9.404300 0.000000
-9.356200 0.000000
-9.308100 0.000000
-9.260100 0.000000
-9.212000 0.000000
-9.163900 0.000000
-9.115800 0.000000
-9.067800 0.000000
-9.019700 0.000000
-8.971600 0.000000
-8.923500 0.000000
-8.875400 0.000000
-8.827400 0.000000
-8.779300 0.000000
-8.731200 0.000000
-8.683100 0.000000
-8.635000 0.000000
-8.587000 0.000000
-8.538900 0.000000
-8.490800 0.000000
-8.442700 0.000000
-8.394700 0.000000
-8.346600 0.000000
-8.298500 0.000000
-8.250400 0.000000
-8.202300 0.000000
-8.154300 0.000000
-8.106200 0.000000
-8.058100 0.000000
-8.010000 0.000000
-7.961900 0.000000
-7.913900 0.000000
-7.865800 0.000000
-7.817700 0.000000
-7.769600 0.000000
-7.721600 0.000000
-7.673500 0.000000
-7.625400 0.000000
-7.577300 0.000000
-7.529200 0.000000
-7.481200 0.000000
-7.433100 0.000000
-7.385000 0.000000
-7.336900 0.000000
-7.288800 0.000000
-7.240800 0.000000
-7.192700 0.000000
-7.144600 0.143500
-7.096500 0.907100
-7.048500 1.901300
-7.000400 2.955800
-6.952300 4.872200
-6.904200 7.285300
-6.856100 9.398900
-6.808100 9.469800
-6.760000 8.161600
-6.711900 6.135300
-6.663800 8.440000
-6.615700 10.361800
-6.567700 6.899300
-6.519600 10.380800
-6.471500 6.253300
-6.423400 8.638400
-6.375400 9.730100
-6.327300 6.045300
-6.279200 5.377500
-6.231100 12.045500
-6.183000 10.233900
-6.135000 10.152600
-6.086900 8.401600
-6.038800 7.901800
-5.990700 7.836500
-5.942600 8.940800
-5.894600 13.589600
-5.846500 5.458100
-5.798400 0.035100
-5.750300 0.043500
-5.702300 0.052900
-5.654200 0.062300
-5.606100 0.066200
-5.558000 0.067600
-5.509900 0.072600
-5.461900 0.077800
-5.413800 0.083200
-5.365700 0.088700
-5.317600 0.091400
-5.269500 0.094200
-5.221500 0.096800
-5.173400 0.099400
-5.125300 0.102300
-5.077200 0.105900
-5.029200 0.109700
-4.981100 0.113500
-4.933000 0.117400
-4.884900 0.120400
-4.836800 0.121500
-4.788800 0.123700
-4.740700 0.126000
-4.692600 0.128500
-4.644500 0.130900
-4.596400 0.133300
-4.548400 0.136100
-4.500300 0.138900
-4.452200 0.141800
-4.404100 0.144700
-4.356100 0.147700
-4.308000 0.149600
-4.259900 0.151500
-4.211800 0.153200
-4.163700 0.154900
-4.115700 0.156800
-4.067600 0.159000
-4.019500 0.161200
-3.971400 0.163400
-3.923300 0.165600
-3.875300 0.167800
-3.827200 0.170100
-3.779100 0.172500
-3.731000 0.174900
-3.683000 0.177400
-3.634900 0.179500
-3.586800 0.180900
-3.538700 0.182600
-3.490600 0.184300
-3.442600 0.186000
-3.394500 0.187700
-3.346400 0.189400
-3.298300 0.191300
-3.250200 0.193200
-3.202200 0.195200
-3.154100 0.197200
-3.106000 0.199200
-3.057900 0.201200
-3.009900 0.203200
-2.961800 0.205300
-2.913700 0.207300
-2.865600 0.209400
-2.817500 0.211000
-2.769500 0.212600
-2.721400 0.214200
-2.673300 0.215700
-2.625200 0.217300
-2.577100 0.218900
-2.529100 0.220600
-2.481000 0.222300
-2.432900 0.224000
-2.384800 0.225700
-2.336800 0.227400
-2.288700 0.229100
-2.240600 0.230900
-2.192500 0.232800
-2.144400 0.234600
-2.096400 0.236400
-2.048300 0.238300
-2.000200 0.240200
-1.952100 0.242000
-1.904000 0.243600
-1.856000 0.245000
-1.807900 0.246500
-1.759800 0.248100
-1.711700 0.249600
-1.663700 0.251100
-1.615600 0.252600
-1.567500 0.254200
-1.519400 0.255800
-1.471300 0.257500
-1.423300 0.259100
-1.375200 0.260700
-1.327100 0.262400
-1.279000 0.264000
-1.230900 0.265700
-1.182900 0.267400
-1.134800 0.269100
-1.086700 0.270800
-1.038600 0.272600
-0.990600 0.274300
-0.942500 0.276100
-0.894400 0.277700
-0.846300 0.279200
-0.798200 0.280800
-0.750200 0.282300
-0.702100 0.283900
-0.654000 0.285500
-0.605900 0.287200
-0.557800 0.288800
-0.509800 0.290500
-0.461700 0.292200
-0.413600 0.294100
-0.365500 0.296100
-0.317500 0.298300
-0.269400 0.300600
-0.221300 0.303000
-0.173200 0.305700
-0.125100 0.309100
-0.077100 0.313600
-0.029000 0.317800
0.019100 0.321500
0.067200 0.325000
0.115300 0.328500
0.163300 0.342500
0.211400 0.355800
0.259500 0.358400
0.307600 0.350600
0.355600 0.332700
0.403700 0.328600
0.451800 0.325000
0.499900 0.321900
0.548000 0.319500
0.596000 0.318200
0.644100 0.337700
0.692200 0.339700
0.740300 0.329000
0.788400 0.320400
0.836400 0.313900
0.884500 0.342300
0.932600 0.312000
0.980700 0.307500
1.028700 0.303400
1.076800 0.299700
1.124900 0.296300
1.173000 0.298100
1.221100 0.304900
1.269100 0.312100
1.317200 0.319800
1.365300 0.328100
1.413400 0.338700
1.461500 0.356000
1.509500 0.398900
1.557600 0.428000
1.605700 0.415500
1.653800 0.407400
1.701800 0.392200
1.749900 0.386400
1.798000 0.384400
1.846100 0.378700
1.894200 0.393200
1.942200 0.391800
1.990300 0.388500
2.038400 0.397500
2.086500 0.406900
2.134600 0.420400
2.182600 0.386600
2.230700 0.379100
2.278800 0.374100
2.326900 0.371500
2.374900 0.422700
2.423000 0.357100
2.471100 0.357300
2.519200 0.368900
2.567300 0.372700
2.615300 0.367000
2.663400 0.373100
2.711500 0.374100
2.759600 0.365900
2.807700 0.377500
2.855700 0.352000
2.903800 0.333800
2.951900 0.321500
3.000000 0.315500
3.048000 0.323100
3.096100 0.313900
3.144200 0.306000
3.192300 0.302400
3.240400 0.302100
3.288400 0.306600
3.336500 0.315600
3.384600 0.323900
3.432700 0.349800
3.480800 0.348900
3.528800 0.348200
3.576900 0.347400
3.625000 0.347600
3.673100 0.354500
3.721100 0.373700
3.769200 0.411100
3.817300 0.452600
3.865400 0.460800
3.913500 0.488100
3.961500 0.515800
4.009600 0.544100
4.057700 0.536700
4.105800 0.479400
4.153900 0.464600
4.201900 0.451200
4.250000 0.435800
4.298100 0.418900
4.346200 0.412100
4.394200 0.405000
4.442300 0.397400
4.490400 0.389400
4.538500 0.380900
4.586600 0.372900
4.634600 0.390500
4.682700 0.373300
4.730800 0.356400
4.778900 0.340100
4.827000 0.363600
4.875000 0.370200
4.923100 0.379500
4.971200 0.390500
5.019300 0.403200
5.067300 0.430100
5.115400 0.439500
5.163500 0.448000
5.211600 0.454100
5.259700 0.455700
5.307700 0.455800
5.355800 0.452300
5.403900 0.452100
5.452000 0.457300
5.500100 0.457900
5.548100 0.455400
5.596200 0.452500
5.644300 0.465300
5.692400 0.467200
5.740400 0.469600
5.788500 0.469800
5.836600 0.467400
5.884700 0.465300
5.932800 0.462300
5.980800 0.468300
6.028900 0.469900
6.077000 0.478900
6.125100 0.460100
6.173200 0.458400
6.221200 0.456600
6.269300 0.442000
6.317400 0.442000
6.365500 0.454500
6.413500 0.460200
6.461600 0.471800
6.509700 0.473300
6.557800 0.468100
6.605900 0.471900
6.653900 0.478200
6.702000 0.495100
6.750100 0.499900
6.798200 0.492900
6.846300 0.482700
6.894300 0.481800
6.942400 0.481100
6.990500 0.480700
7.038600 0.482400
7.086600 0.484900
7.134700 0.489100
7.182800 0.505800
7.230900 0.499500
7.279000 0.511000
7.327000 0.519500
7.375100 0.511300
7.423200 0.511500
7.471300 0.514700
7.519400 0.511400
7.567400 0.527300
7.615500 0.533200
7.663600 0.532800
7.711700 0.538100
7.759700 0.546200
7.807800 0.556100
7.855900 0.541500
7.904000 0.539300
7.952100 0.536900
8.000100 0.534800
8.048200 0.536000
8.096300 0.533700
8.144400 0.531700
8.192500 0.533900
8.240500 0.537300
8.288600 0.541500
8.336700 0.541900
8.384800 0.564200
8.432800 0.555200
8.480900 0.576500
8.529000 0.597400
8.577100 0.598900
8.625200 0.593600
8.673200 0.600700
8.721300 0.610800
8.769400 0.624800
8.817500 0.612600
8.865600 0.623200
8.913600 0.635900
8.961700 0.647400
9.009800 0.653500
9.057900 0.657000
9.105900 0.649600
9.154000 0.656300
9.202100 0.670000
9.250200 0.656700
9.298300 0.641400
9.346300 0.633900
9.394400 0.630700
9.442500 0.628700
9.490600 0.626200
9.538700 0.625200
9.586700 0.623000
9.634800 0.622200
9.682900 0.622300
9.731000 0.616800
9.779000 0.612600
9.827100 0.609400
9.875200 0.603900
9.923300 0.598400
9.971400 0.594800
10.019400 0.591900
10.067500 0.588000
10.115600 0.584100
10.163700 0.580500
10.211800 0.577400
10.259800 0.575100
10.307900 0.573400
10.356000 0.572200
10.404100 0.571500
10.452100 0.568000
10.500200 0.562800
10.548300 0.558300
10.596400 0.554400
10.644500 0.551100
10.692500 0.546000
10.740600 0.541200
10.788700 0.536500
10.836800 0.532100
10.884900 0.528100
10.932900 0.524500
10.981000 0.521200
11.029100 0.518400
11.077200 0.515900
11.125200 0.513900
11.173300 0.512300
11.221400 0.511100
11.269500 0.509200
11.317600 0.507200
11.365600 0.505600
11.413700 0.503900
11.461800 0.500400
11.509900 0.497100
11.558000 0.492100
11.606000 0.487500
11.654100 0.482600
11.702200 0.477800
11.750300 0.472200
11.798300 0.466100
11.846400 0.460600
11.894500 0.455700
11.942600 0.451500
11.990700 0.447700
12.038700 0.444100
12.086800 0.440800
12.134900 0.437400
12.183000 0.434100
12.231100 0.431000
12.279100 0.428200
12.327200 0.425400
12.375300 0.422600
12.423400 0.420100
12.471400 0.418200
12.519500 0.416500
12.567600 0.415100
12.615700 0.412600
12.663800 0.408900
12.711800 0.405200
12.759900 0.400400
12.808000 0.395300
12.856100 0.390400
12.904200 0.385700
12.952200 0.380400
13.000300 0.375000
13.048400 0.413100
13.096500 0.421500
13.144500 0.447600
13.192600 0.483300
13.240700 0.503900
13.288800 0.512500
13.336900 0.534000
13.384900 0.559100
13.433000 0.585600
13.481100 0.611100
13.529200 0.624300
13.577300 0.641000
13.625300 0.661200
13.673400 0.683500
13.721500 0.705500
13.769600 0.745100
13.817600 0.765300
13.865700 0.766100
13.913800 0.742300
13.961900 0.762600
14.010000 0.767200
14.058000 0.773100
14.106100 0.760800
14.154200 0.764200
14.202300 0.769300
14.250400 0.776900
14.298400 0.783300
14.346500 0.783100
14.394600 0.782500
14.442700 0.776500
14.490700 0.775800
14.538800 0.779000
14.586900 0.790500
14.635000 0.804100
14.683100 0.819700
14.731100 0.837400
14.779200 0.854800
14.827300 0.871400
14.875400 0.888200
14.923500 0.929500
14.971500 1.015400
15.019600 1.041700
15.067700 1.050100
15.115800 1.052100
15.163800 1.078400
15.211900 1.059500
15.260000 0.974500
15.308100 0.967300
15.356200 0.962800
15.404200 0.953900
15.452300 0.935600
15.500400 0.911800
15.548500 0.891900
15.596600 0.883100
15.644600 0.878200
15.692700 0.867900
15.740800 0.855700
15.788900 0.829500
15.836900 0.812100
15.885000 0.797400
15.933100 0.799000
15.981200 0.792700
16.029300 0.791200
16.077300 0.800100
16.125400 0.811900
16.173500 0.804600
16.221600 0.789900
16.269700 0.764300
16.317700 0.740700
16.365800 0.740000
16.413900 0.740400
16.462000 0.723500
16.510000 0.715500
16.558100 0.712900
16.606200 0.696300
16.654300 0.677700
16.702400 0.658500
16.750400 0.650300
16.798500 0.636600
16.846600 0.618100
16.894700 0.607100
16.942800 0.606700
16.990800 0.563700
17.038900 0.529800
17.087000 0.503000
17.135100 0.479400
17.183100 0.452200
17.231200 0.419900
17.279300 0.382500
17.327400 0.369100
17.375500 0.364600
17.423500 0.364400
17.471600 0.345700
17.519700 0.333900
17.567800 0.324800
17.615900 0.305400
17.663900 0.295700
17.712000 0.288600
17.760100 0.280600
17.808200 0.275800
17.856200 0.273100
17.904300 0.272800
17.952400 0.274900
18.000500 0.278700
18.048600 0.282900
18.096600 0.294200
18.144700 0.297600
18.192800 0.301800
18.240900 0.309500
18.289000 0.321600
18.337000 0.339000
18.385100 0.365200
18.433200 0.411700
18.481300 0.441300
18.529300 0.471100
18.577400 0.506400
18.625500 0.599100
18.673600 0.625800
18.721700 0.633400
18.769700 0.656300
18.817800 0.683000
18.865900 0.707200
18.914000 0.751000
18.962100 0.820300
19.010100 0.884100
19.058200 0.965300
19.106300 1.040500
19.154400 0.993700
19.202400 0.954600
19.250500 0.938900
19.298600 0.966900
19.346700 0.891900
19.394800 0.870200
19.442800 0.868300
19.490900 0.868600
19.539000 0.859100
19.587100 0.838400
19.635200 0.792500
19.683200 0.761700
19.731300 0.738000
19.779400 0.711000
19.827500 0.694600
19.875500 0.683200
19.923600 0.686500
19.971700 0.685000
20.019800 0.674800
20.067900 0.669200
20.115900 0.667900
20.164000 0.672800
20.212100 0.682800
20.260200 0.692600
20.308300 0.675700
20.356300 0.661100
20.404400 0.654700
20.452500 0.659500
20.500600 0.676300
20.548600 0.692000
20.596700 0.710100
20.644800 0.729700
20.692900 0.744700
20.741000 0.751300
20.789000 0.749900
20.837100 0.717500
20.885200 0.707100
20.933300 0.752900
20.981400 0.812800
21.029400 0.838800
21.077500 0.846300
21.125600 0.856100
21.173700 0.883200
21.221700 0.885400
21.269800 0.860500
21.317900 0.859600
21.366000 0.874700
21.414100 0.893100
21.462100 0.898300
21.510200 0.893800
21.558300 0.887500
21.606400 0.887600
21.654500 0.885400
21.702500 0.881000
21.750600 0.893300
21.798700 0.902000
21.846800 0.906300
21.894800 0.896400
21.942900 0.872400
21.991000 0.849300
22.039100 0.847000
22.087200 0.860700
22.135200 0.853200
22.183300 0.846100
22.231400 0.841400
22.279500 0.833800
22.327600 0.822000
22.375600 0.808200
22.423700 0.796700
22.471800 0.787300
22.519900 0.783400
22.567900 0.785000
22.616000 0.787100
22.664100 0.788400
22.712200 0.789600
22.760300 0.791000
22.808300 0.795100
22.856400 0.821500
22.904500 0.847700
22.952600 0.868900
23.000700 0.886900
23.048700 0.880400
23.096800 0.891600
23.144900 0.909900
23.193000 0.917600
23.241000 0.926500
23.289100 0.923700
23.337200 0.900900
23.385300 0.892600
23.433400 0.889000
23.481400 0.887700
23.529500 0.891700
23.577600 0.901700
23.625700 0.908000
23.673800 0.895500
23.721800 0.878100
23.769900 0.882600
23.818000 0.931400
23.866100 0.922500
23.914100 0.926700
23.962200 0.950800
24.010300 0.971700
24.058400 0.959800
24.106500 0.964500
24.154500 0.976800
24.202600 0.990500
24.250700 0.999200
24.298800 1.001900
24.346900 0.990000
24.394900 0.980600
24.443000 0.970900
24.491100 0.971300
24.539200 0.966000
24.587200 0.948400
24.635300 0.927800
24.683400 0.917400
24.731500 0.906700
24.779600 0.896500
24.827600 0.887700
24.875700 0.878600
24.923800 0.868000
24.971900 0.854800
25.020000 0.845100
25.068000 0.843000
25.116100 0.849500
25.164200 0.864600
25.212300 0.878000
25.260300 0.894700
25.308400 0.952900
25.356500 0.985700
25.404600 1.014100
25.452700 1.034700
25.500700 1.051700
25.548800 1.064600
25.596900 1.050100
25.645000 1.029700
25.693100 1.014900
25.741100 0.990200
25.789200 0.975200
25.837300 0.981300
25.885400 0.954500
25.933400 0.926100
25.981500 0.904300
26.029600 0.890500
26.077700 0.891600
26.125800 0.901600
26.173800 0.915600
26.221900 0.926900
26.270000 0.937600
26.318100 0.933700
26.366200 0.936100
26.414200 0.936000
26.462300 0.933400
26.510400 0.927800
26.558500 0.916400
26.606500 0.907400
26.654600 0.902600
26.702700 0.899700
26.750800 0.899500
26.798900 0.902400
26.846900 0.905100
26.895000 0.906000
26.943100 0.904400
26.991200 0.902200
27.039300 0.900500
27.087300 0.900600
27.135400 0.899900
27.183500 0.895100
27.231600 0.889800
27.279600 0.883900
27.327700 0.878100
27.375800 0.874100
27.423900 0.871900
27.472000 0.872900
27.520000 0.879400
27.568100 0.894500
27.616200 0.918100
27.664300 0.924000
27.712400 0.924200
27.760400 0.963200
27.808500 0.957700
27.856600 0.970600
27.904700 0.988700
27.952700 0.993300
28.000800 1.000600
28.048900 0.995000
28.097000 0.988600
28.145100 0.973800
28.193100 0.976600
28.241200 1.051500
28.289300 1.011200
28.337400 1.014600
28.385500 1.015500
28.433500 0.991400
28.481600 0.980900
28.529700 0.972100
28.577800 0.967600
28.625800 0.966800
28.673900 0.969200
28.722000 0.976900
28.770100 0.983200
28.818200 0.990600
28.866200 1.000000
28.914300 1.011800
28.962400 1.025900
29.010500 1.039400
29.058600 1.045100
29.106600 1.060500
29.154700 1.071600
29.202800 1.092400
29.250900 1.114600
29.298900 1.133400
29.347000 1.160500
29.395100 1.175600
29.443200 1.242500
29.491300 1.203000
29.539300 1.237000
29.587400 1.256500
29.635500 1.225400
29.683600 1.206900
29.731700 1.196700
29.779700 1.181800
29.827800 1.161400
29.875900 1.132500
29.924000 1.118000
29.972000 1.118900
30.020100 1.078900
30.068200 1.050300
30.116300 1.036600
30.164400 1.033300
30.212400 1.024200
30.260500 1.012500
30.308600 1.000500
30.356700 0.989900
30.404700 0.984300
30.452800 0.982300
30.500900 0.983600
30.549000 0.959900
30.597100 0.919000
30.645100 0.882300
30.693200 0.866600
30.741300 0.863200
30.789400 0.856700
30.837500 0.860200
30.885500 0.865200
30.933600 0.872100
30.981700 0.881200
31.029800 0.893300
31.077800 0.906200
31.125900 0.915100
31.174000 0.920600
31.222100 0.924700
31.270200 0.934300
31.318200 0.995300
31.366300 1.040600
31.414400 1.042900
31.462500 0.981400
31.510600 0.936200
31.558600 0.892700
31.606700 0.875500
31.654800 0.870800
31.702900 0.843300
31.750900 0.791300
31.799000 0.750400
31.847100 0.741600
31.895200 0.742200
31.943300 0.742100
31.991300 0.739400
32.039400 0.737500
32.087500 0.735200
32.135600 0.771500
32.183700 0.777100
32.231700 0.759800
32.279800 0.721800
32.327900 0.740900
32.376000 0.769100
32.424000 0.776300
32.472100 0.783700
32.520200 0.798400
32.568300 0.820700
32.616400 0.827600
32.664400 0.823500
32.712500 0.826200
32.760600 0.843500
32.808700 0.903400
32.856800 0.954200
32.904800 0.999600
32.952900 1.016000
33.001000 1.001800
33.049100 0.983400
33.097100 1.057300
33.145200 1.004600
33.193300 0.977800
33.241400 0.993900
33.289500 1.177700
33.337500 1.100400
33.385600 1.001800
33.433700 0.968100
33.481800 0.937800
33.529900 0.922300
33.577900 0.918700
33.626000 0.938200
33.674100 0.960400
33.722200 0.986100
33.770200 1.003600
33.818300 0.992500
33.866400 1.015800
33.914500 0.980700
33.962600 0.970500
34.010600 0.956900
34.058700 0.948600
34.106800 0.944400
34.154900 0.966500
34.203000 0.964900
34.251000 0.937400
34.299100 0.924800
34.347200 0.914200
34.395300 0.899400
34.443300 0.882100
34.491400 0.869600
34.539500 0.883800
34.587600 0.903900
34.635700 0.919800
34.683700 0.928700
34.731800 0.931200
34.779900 0.917700
34.828000 0.905600
34.876100 0.893800
34.924100 0.886600
34.972200 0.881300
35.020300 0.880800
35.068400 0.883000
35.116400 0.887900
35.164500 0.871200
35.212600 0.846100
35.260700 0.834100
35.308800 0.822500
35.356800 0.806300
35.404900 0.791400
35.453000 0.781100
35.501100 0.773200
35.549200 0.765400
35.597200 0.765200
35.645300 0.771400
35.693400 0.781800
35.741500 0.815800
35.789500 0.873000
35.837600 0.916600
35.885700 0.961100
35.933800 1.007500
35.981900 0.995600
36.029900 1.006600
36.078000 1.035000
36.126100 1.073800
36.174200 1.130700
36.222300 1.190600
36.270300 1.222900
36.318400 1.224700
36.366500 1.199200
36.414600 1.224500
36.462600 1.222600
36.510700 1.229500
36.558800 1.257200
36.606900 1.264800
36.655000 1.286400
36.703000 1.277900
36.751100 1.253900
36.799200 1.302400
36.847300 1.180300
36.895400 1.128800
36.943400 1.143900
36.991500 1.168400
37.039600 1.222300
37.087700 1.328900
37.135700 1.349500
37.183800 1.356500
37.231900 1.329400
37.280000 1.291600
37.328100 1.274000
37.376100 1.273200
37.424200 1.285600
37.472300 1.319200
37.520400 1.359200
37.568500 1.355200
37.616500 1.350500
37.664600 1.353800
37.712700 1.361000
37.760800 1.362200
37.808800 1.344100
37.856900 1.328600
37.905000 1.292500
37.953100 1.259200
38.001200 1.238100
38.049200 1.199300
38.097300 1.173400
38.145400 1.204700
38.193500 1.240200
38.241600 1.161800
38.289600 1.119400
38.337700 1.099400
38.385800 1.086100
38.433900 1.069000
38.481900 1.055100
38.530000 1.042300
38.578100 1.041900
38.626200 1.146600
38.674300 1.139700
38.722300 1.248500
