set title 'mp-570459 - Density of States'
set xlabel 'Energy (eV)'
set ylabel 'DOS (states/eV)'
set grid
set xrange [-10:10]
set yrange [0:4.027]
set xzeroaxis lt -1
set terminal png size 800,600
set output 'mp-570459_dos_gnuplot.png'
plot '-' using 1:2 with lines title 'DOS'
-9.825200 0.000000
-9.796700 0.000000
-9.768200 0.000000
-9.739700 0.000000
-9.711200 0.000000
-9.682700 0.000000
-9.654200 0.000000
-9.625600 0.000000
-9.597100 0.000000
-9.568600 0.000000
-9.540100 0.000000
-9.511600 0.000000
-9.483100 0.000000
-9.454600 0.000000
-9.426000 0.000000
-9.397500 0.000000
-9.369000 0.000000
-9.340500 0.000000
-9.312000 0.000000
-9.283500 0.000000
-9.254900 0.000000
-9.226400 0.000000
-9.197900 0.000000
-9.169400 0.000000
-9.140900 0.000000
-9.112400 0.000000
-9.083900 0.000000
-9.055300 0.000000
-9.026800 0.000000
-8.998300 0.000000
-8.969800 0.000000
-8.941300 0.000000
-8.912800 0.000000
-8.884200 0.000000
-8.855700 0.000000
-8.827200 0.000000
-8.798700 0.000000
-8.770200 0.000000
-8.741700 0.000000
-8.713200 0.000000
-8.684600 0.000000
-8.656100 0.000000
-8.627600 0.000000
-8.599100 0.000000
-8.570600 0.000000
-8.542100 0.000000
-8.513600 0.000000
-8.485000 0.000000
-8.456500 0.000000
-8.428000 0.000000
-8.399500 0.000000
-8.371000 0.000000
-8.342500 0.000000
-8.313900 0.000000
-8.285400 0.000000
-8.256900 0.000000
-8.228400 0.000000
-8.199900 0.000000
-8.171400 0.000000
-8.142900 0.000000
-8.114300 0.000000
-8.085800 0.000000
-8.057300 0.000000
-8.028800 0.000000
-8.000300 0.000000
-7.971800 0.000000
-7.943200 0.000000
-7.914700 0.000000
-7.886200 0.000000
-7.857700 0.000000
-7.829200 0.000000
-7.800700 0.000000
-7.772200 0.000000
-7.743600 0.000000
-7.715100 0.000000
-7.686600 0.000000
-7.658100 0.000000
-7.629600 0.000000
-7.601100 0.000000
-7.572600 0.000000
-7.544000 0.000000
-7.515500 0.000000
-7.487000 0.000000
-7.458500 0.000000
-7.430000 0.000000
-7.401500 0.000000
-7.372900 0.000000
-7.344400 0.000000
-7.315900 0.000000
-7.287400 0.000000
-7.258900 0.000000
-7.230400 0.000400
-7.201900 0.050500
-7.173300 0.183800
-7.144800 0.267000
-7.116300 0.280900
-7.087800 0.322200
-7.059300 0.373300
-7.030800 0.426700
-7.002200 0.471900
-6.973700 0.494200
-6.945200 0.509300
-6.916700 0.536700
-6.888200 0.567800
-6.859700 0.599100
-6.831200 0.630400
-6.802600 0.662600
-6.774100 0.696200
-6.745600 0.725200
-6.717100 0.753400
-6.688600 0.783900
-6.660100 0.814800
-6.631600 0.846200
-6.603000 0.878600
-6.574500 0.913000
-6.546000 0.950600
-6.517500 0.989700
-6.489000 1.018600
-6.460500 1.023400
-6.431900 1.031900
-6.403400 1.039500
-6.374900 1.044400
-6.346400 1.051000
-6.317900 1.062200
-6.289400 1.073200
-6.260900 1.084500
-6.232300 1.095400
-6.203800 1.108000
-6.175300 1.136200
-6.146800 1.175000
-6.118300 1.212400
-6.089800 1.253300
-6.061200 1.298200
-6.032700 1.347000
-6.004200 1.399200
-5.975700 1.455100
-5.947200 1.515500
-5.918700 1.582200
-5.890200 1.703300
-5.861600 1.777000
-5.833100 1.821800
-5.804600 1.854600
-5.776100 1.889900
-5.747600 1.981000
-5.719100 2.072500
-5.690600 2.003900
-5.662000 1.969500
-5.633500 2.001300
-5.605000 2.049600
-5.576500 2.110900
-5.548000 2.187400
-5.519500 2.291800
-5.490900 2.489400
-5.462400 2.407200
-5.433900 1.914600
-5.405400 1.842300
-5.376900 1.724200
-5.348400 1.662600
-5.319900 1.674800
-5.291300 1.669100
-5.262800 1.638600
-5.234300 1.440400
-5.205800 1.427500
-5.177300 1.542700
-5.148800 1.648600
-5.120200 1.692200
-5.091700 1.729900
-5.063200 1.825200
-5.034700 2.015400
-5.006200 2.117300
-4.977700 2.221300
-4.949200 2.278500
-4.920600 2.529700
-4.892100 2.808100
-4.863600 2.764100
-4.835100 2.841100
-4.806600 2.617800
-4.778100 2.413300
-4.749600 2.755700
-4.721000 1.912500
-4.692500 1.544200
-4.664000 1.367900
-4.635500 1.250000
-4.607000 1.150600
-4.578500 1.071300
-4.549900 1.026400
-4.521400 1.003400
-4.492900 1.055300
-4.464400 1.070900
-4.435900 1.165500
-4.407400 1.460000
-4.378900 1.451400
-4.350300 1.560000
-4.321800 1.670600
-4.293300 1.747500
-4.264800 1.798500
-4.236300 1.945100
-4.207800 1.864200
-4.179200 1.865600
-4.150700 1.868900
-4.122200 1.883900
-4.093700 1.932400
-4.065200 1.863300
-4.036700 1.863400
-4.008200 1.841500
-3.979600 1.952000
-3.951100 2.112500
-3.922600 2.169900
-3.894100 2.220500
-3.865600 2.076400
-3.837100 1.949400
-3.808600 1.839500
-3.780000 1.701900
-3.751500 1.573900
-3.723000 1.377600
-3.694500 1.282900
-3.666000 1.214600
-3.637500 1.154000
-3.608900 1.108800
-3.580400 1.067200
-3.551900 1.024600
-3.523400 0.978600
-3.494900 0.932400
-3.466400 0.892800
-3.437900 0.856000
-3.409300 0.822300
-3.380800 0.790100
-3.352300 0.757400
-3.323800 0.722800
-3.295300 0.691200
-3.266800 0.665400
-3.238200 0.641500
-3.209700 0.618600
-3.181200 0.596800
-3.152700 0.577600
-3.124200 0.560600
-3.095700 0.543600
-3.067200 0.526100
-3.038600 0.508600
-3.010100 0.490900
-2.981600 0.473000
-2.953100 0.455000
-2.924600 0.436400
-2.896100 0.417200
-2.867600 0.403600
-2.839000 0.390100
-2.810500 0.376800
-2.782000 0.363500
-2.753500 0.350100
-2.725000 0.337200
-2.696500 0.322400
-2.667900 0.306600
-2.639400 0.291400
-2.610900 0.276800
-2.582400 0.263300
-2.553900 0.251500
-2.525400 0.241400
-2.496900 0.230900
-2.468300 0.219600
-2.439800 0.207600
-2.411300 0.195000
-2.382800 0.181600
-2.354300 0.168000
-2.325800 0.154300
-2.297200 0.147300
-2.268700 0.141400
-2.240200 0.130800
-2.211700 0.115300
-2.183200 0.096200
-2.154700 0.077600
-2.126200 0.053400
-2.097600 0.030100
-2.069100 0.013500
-2.040600 0.003400
-2.012100 0.000000
-1.983600 0.000000
-1.955100 0.000000
-1.926600 0.000000
-1.898000 0.000000
-1.869500 0.000000
-1.841000 0.000000
-1.812500 0.000000
-1.784000 0.000000
-1.755500 0.000000
-1.726900 0.000000
-1.698400 0.000000
-1.669900 0.000000
-1.641400 0.000000
-1.612900 0.000000
-1.584400 0.000000
-1.555900 0.000000
-1.527300 0.000000
-1.498800 0.000000
-1.470300 0.000000
-1.441800 0.000000
-1.413300 0.000000
-1.384800 0.000000
-1.356200 0.000000
-1.327700 0.000000
-1.299200 0.000000
-1.270700 0.000000
-1.242200 0.000000
-1.213700 0.000000
-1.185200 0.000000
-1.156600 0.000000
-1.128100 0.000000
-1.099600 0.000000
-1.071100 0.000000
-1.042600 0.000000
-1.014100 0.000000
-0.985600 0.000000
-0.957000 0.000000
-0.928500 0.000000
-0.900000 0.000000
-0.871500 0.000000
-0.843000 0.000000
-0.814500 0.000000
-0.785900 0.000000
-0.757400 0.000000
-0.728900 0.000000
-0.700400 0.000000
-0.671900 0.000000
-0.643400 0.000000
-0.614900 0.000000
-0.586300 0.000000
-0.557800 0.000000
-0.529300 0.000000
-0.500800 0.000000
-0.472300 0.000000
-0.443800 0.000000
-0.415200 0.000000
-0.386700 0.000000
-0.358200 0.000000
-0.329700 0.000000
-0.301200 0.000000
-0.272700 0.000000
-0.244200 0.000000
-0.215600 0.000000
-0.187100 0.000000
-0.158600 0.000000
-0.130100 0.000000
-0.101600 0.000000
-0.073100 0.000000
-0.044600 0.000000
-0.016000 0.000000
0.012500 0.000000
0.041000 0.000000
0.069500 0.000000
0.098000 0.000000
0.126500 0.000000
0.155100 0.000000
0.183600 0.000000
0.212100 0.000000
0.240600 0.000000
0.269100 0.000000
0.297600 0.000000
0.326100 0.000000
0.354700 0.000000
0.383200 0.000000
0.411700 0.000000
0.440200 0.000000
0.468700 0.000000
0.497200 0.000000
0.525800 0.000000
0.554300 0.190900
0.582800 0.263700
0.611300 0.336000
0.639800 0.406800
0.668300 0.493300
0.696800 0.602600
0.725400 0.642000
0.753900 0.650300
0.782400 0.718700
0.810900 0.806200
0.839400 0.831000
0.867900 0.856900
0.896400 0.915700
0.925000 1.016200
0.953500 1.117800
0.982000 1.226000
1.010500 1.332300
1.039000 1.268600
1.067500 1.209100
1.096100 1.189400
1.124600 1.210600
1.153100 1.216000
1.181600 1.254900
1.210100 1.329500
1.238600 1.425000
1.267100 1.455700
1.295700 1.440900
1.324200 1.476000
1.352700 1.541100
1.381200 1.626200
1.409700 1.730100
1.438200 1.816800
1.466800 1.909400
1.495300 2.041000
1.523800 2.230500
1.552300 2.424100
1.580800 2.490200
1.609300 2.444900
1.637800 2.324000
1.666400 2.186200
1.694900 2.059800
1.723400 2.036400
1.751900 2.196700
1.780400 2.463100
1.808900 2.758200
1.837400 3.180100
1.866000 3.269200
1.894500 3.288400
1.923000 3.303000
1.951500 3.232000
1.980000 3.046200
2.008500 2.941700
2.037100 2.905100
2.065600 2.899600
2.094100 2.879500
2.122600 2.730200
2.151100 2.574600
2.179600 2.442800
2.208100 2.299000
2.236700 2.211800
2.265200 2.163400
2.293700 2.124400
2.322200 2.097200
2.350700 2.124400
2.379200 2.211200
2.407800 2.251800
2.436300 2.314200
2.464800 2.400300
2.493300 2.534700
2.521800 2.754000
2.550300 3.061400
2.578800 3.166700
2.607400 3.245600
2.635900 3.247100
2.664400 3.424500
2.692900 3.661000
2.721400 3.392100
2.749900 3.235200
2.778400 3.128900
2.807000 3.052200
2.835500 2.983300
2.864000 2.868500
2.892500 3.027900
2.921000 2.851700
2.949500 2.740300
2.978100 2.628800
3.006600 2.419200
3.035100 2.311400
3.063600 2.179300
3.092100 2.095900
3.120600 2.042300
3.149100 1.993200
3.177700 1.942000
3.206200 1.912700
3.234700 1.920700
3.263200 1.931400
3.291700 1.968400
3.320200 2.012900
3.348800 2.052000
3.377300 2.074600
3.405800 2.097600
3.434300 2.138100
3.462800 2.163900
3.491300 2.151200
3.519800 2.186200
3.548400 2.213500
3.576900 2.240800
3.605400 2.306200
3.633900 2.438800
3.662400 2.569700
3.690900 2.718100
3.719400 2.793200
3.748000 2.737300
3.776500 2.628600
3.805000 2.814600
3.833500 2.475600
3.862000 2.214700
3.890500 2.106200
3.919100 2.130500
3.947600 1.961800
3.976100 1.890700
4.004600 1.853500
4.033100 1.825800
4.061600 1.806000
4.090100 1.796100
4.118700 1.798300
4.147200 1.808100
4.175700 1.823800
4.204200 1.844700
4.232700 1.890400
4.261200 1.943200
4.289800 1.984100
4.318300 2.032300
4.346800 2.090400
4.375300 2.155300
4.403800 2.227500
4.432300 2.264500
4.460800 2.292700
4.489400 2.298400
4.517900 2.328400
4.546400 2.301400
4.574900 2.314000
4.603400 2.365100
4.631900 2.398800
4.660400 2.381700
4.689000 2.365500
4.717500 2.369200
4.746000 2.380700
4.774500 2.349800
4.803000 2.325400
4.831500 2.309300
4.860100 2.292100
4.888600 2.272700
4.917100 2.243100
4.945600 2.205800
4.974100 2.181800
5.002600 2.171000
5.031100 2.163700
5.059700 2.165600
5.088200 2.180700
5.116700 2.202200
5.145200 2.200700
5.173700 2.203500
5.202200 2.210900
5.230800 2.223300
5.259300 2.243600
5.287800 2.280800
5.316300 2.318900
5.344800 2.362300
5.373300 2.409600
5.401800 2.443800
5.430400 2.463700
5.458900 2.482500
5.487400 2.513800
5.515900 2.528700
5.544400 2.512400
5.572900 2.474400
5.601500 2.451800
5.630000 2.426500
5.658500 2.397900
5.687000 2.371800
5.715500 2.353200
5.744000 2.347000
5.772500 2.312600
5.801100 2.270600
5.829600 2.226900
5.858100 2.158700
5.886600 2.066000
5.915100 1.983000
5.943600 1.840600
5.972100 1.697300
6.000700 1.540300
6.029200 1.359100
6.057700 1.172600
6.086200 1.029000
6.114700 0.899000
6.143200 0.773900
6.171800 0.642000
6.200300 0.518800
6.228800 0.377900
6.257300 0.261000
6.285800 0.175600
6.314300 0.126200
6.342800 0.082300
6.371400 0.065200
6.399900 0.074800
6.428400 0.110700
6.456900 0.153800
6.485400 0.210800
6.513900 0.292100
6.542500 0.402200
6.571000 0.534300
6.599500 0.689400
6.628000 0.886700
6.656500 1.134300
6.685000 1.495500
6.713500 1.854800
6.742100 2.121900
6.770600 2.429300
6.799100 2.779800
6.827600 2.999900
6.856100 3.095200
6.884600 3.078400
6.913100 3.034600
6.941700 2.965000
6.970200 2.876400
6.998700 2.757800
7.027200 2.648600
7.055700 2.562900
7.084200 2.500600
7.112800 2.454800
7.141300 2.418400
7.169800 2.394800
7.198300 2.383400
7.226800 2.378400
7.255300 2.374200
7.283800 2.329400
7.312400 2.303400
7.340900 2.273900
7.369400 2.250600
7.397900 2.236500
7.426400 2.258200
7.454900 2.280000
7.483500 2.302100
7.512000 2.284600
7.540500 2.279000
7.569000 2.296700
7.597500 2.323100
7.626000 2.359700
7.654500 2.415800
7.683100 2.527400
7.711600 2.721200
7.740100 2.718200
7.768600 2.689900
7.797100 2.634800
7.825600 2.583000
7.854100 2.551900
7.882700 2.513800
7.911200 2.450900
7.939700 2.423000
7.968200 2.409000
7.996700 2.357700
8.025200 2.328300
8.053800 2.293200
8.082300 2.263100
8.110800 2.254300
8.139300 2.241400
8.167800 2.233600
8.196300 2.233400
8.224800 2.243600
8.253400 2.281300
8.281900 2.325200
8.310400 2.368100
8.338900 2.339200
8.367400 2.278000
8.395900 2.154900
8.424500 2.080800
8.453000 2.025300
8.481500 1.978900
8.510000 1.942300
8.538500 1.941700
8.567000 1.933400
8.595500 1.938100
8.624100 1.973000
8.652600 2.036300
8.681100 2.262800
8.709600 2.023100
8.738100 2.000600
8.766600 2.021200
8.795100 1.997000
8.823700 1.881700
8.852200 1.849800
8.880700 1.760000
8.909200 1.670200
8.937700 1.586600
8.966200 1.480900
8.994800 1.407500
9.023300 1.363000
9.051800 1.325100
9.080300 1.293800
9.108800 1.293400
9.137300 1.333100
9.165800 1.301000
9.194400 1.185300
9.222900 1.237900
9.251400 1.309800
9.279900 1.370400
9.308400 1.315900
9.336900 1.263900
9.365500 1.208900
9.394000 1.164800
9.422500 1.174200
9.451000 1.026100
9.479500 0.920700
9.508000 0.857400
9.536500 0.843000
9.565100 0.848200
9.593600 0.865200
9.622100 0.895000
9.650600 0.931100
9.679100 0.950000
9.707600 0.939700
9.736100 0.970500
9.764700 0.992100
9.793200 1.019000
9.821700 1.044200
9.850200 1.053200
9.878700 1.050100
9.907200 1.026400
9.935800 0.996700
9.964300 0.974000
9.992800 0.966700
10.021300 0.983900
10.049800 1.019400
10.078300 1.064200
10.106800 1.111300
10.135400 1.147400
10.163900 1.179500
10.192400 1.213300
10.220900 1.262300
10.249400 1.328300
10.277900 1.390400
10.306500 1.440400
10.335000 1.494900
10.363500 1.557500
10.392000 1.583700
10.420500 1.528200
10.449000 1.516100
10.477500 1.500500
10.506100 1.476400
10.534600 1.461700
10.563100 1.450900
10.591600 1.429200
10.620100 1.411600
10.648600 1.372800
10.677100 1.313500
10.705700 1.259800
10.734200 1.210000
10.762700 1.167200
10.791200 1.130400
10.819700 1.094500
10.848200 1.043700
10.876800 1.053600
10.905300 1.078500
10.933800 1.074100
10.962300 1.031000
10.990800 0.979500
11.019300 0.922000
11.047800 0.878400
11.076400 0.887800
11.104900 0.923400
11.133400 0.971700
11.161900 1.030500
11.190400 1.076700
11.218900 1.135200
11.247500 1.228500
11.276000 1.353800
11.304500 1.513200
11.333000 1.675900
11.361500 1.712800
11.390000 1.643600
11.418500 1.624300
11.447100 1.618000
11.475600 1.632400
11.504100 1.650200
11.532600 1.626100
11.561100 1.643100
11.589600 1.622100
11.618100 1.568600
11.646700 1.545800
11.675200 1.510700
11.703700 1.511400
11.732200 1.443500
11.760700 1.381700
11.789200 1.343200
11.817800 1.312000
11.846300 1.287300
11.874800 1.266900
11.903300 1.251200
11.931800 1.237700
11.960300 1.214800
11.988800 1.281400
12.017400 1.360700
12.045900 1.417100
12.074400 1.470200
12.102900 1.648500
12.131400 1.714400
12.159900 1.791500
12.188500 1.673400
12.217000 1.612300
12.245500 1.606600
12.274000 1.622400
12.302500 1.630000
12.331000 1.650300
12.359500 1.673900
12.388100 1.750900
12.416600 1.777800
12.445100 1.755700
12.473600 1.724300
12.502100 1.705700
12.530600 1.683800
12.559100 1.671400
12.587700 1.669600
12.616200 1.669600
12.644700 1.671800
12.673200 1.691300
12.701700 1.699500
12.730200 1.681100
12.758800 1.645800
12.787300 1.655600
12.815800 1.711500
12.844300 1.738200
12.872800 1.740500
12.901300 1.783200
12.929800 1.857900
12.958400 1.934100
12.986900 2.016600
13.015400 2.012500
13.043900 2.066500
13.072400 2.117200
13.100900 2.174300
13.129500 2.256600
13.158000 2.315100
13.186500 2.278300
13.215000 2.248900
13.243500 2.230400
13.272000 2.237400
13.300500 2.242400
13.329100 2.242800
13.357600 2.239400
13.386100 2.240700
13.414600 2.252600
13.443100 2.256800
13.471600 2.263800
13.500100 2.291500
13.528700 2.325800
13.557200 2.369200
13.585700 2.421100
13.614200 2.538900
13.642700 2.625500
13.671200 2.793200
13.699800 2.899900
13.728300 2.877300
13.756800 2.945400
13.785300 3.096100
13.813800 3.141000
13.842300 3.131800
13.870800 3.094600
13.899400 3.076900
13.927900 2.978100
13.956400 2.954800
13.984900 2.930300
14.013400 2.911800
14.041900 2.892700
14.070500 2.888200
14.099000 2.900000
14.127500 2.925700
14.156000 2.949600
14.184500 3.004600
14.213000 3.085600
14.241500 3.161700
14.270100 3.166300
14.298600 3.236000
14.327100 3.238400
14.355600 3.373500
14.384100 3.380700
14.412600 3.306900
14.441100 3.174600
14.469700 3.119200
14.498200 3.088300
14.526700 3.194900
14.555200 3.114700
14.583700 3.092200
14.612200 3.192200
14.640800 3.208200
14.669300 3.257100
14.697800 3.335600
14.726300 3.430100
14.754800 3.554500
14.783300 3.663900
14.811800 3.769300
14.840400 3.912300
14.868900 4.021100
14.897400 4.102900
14.925900 4.108200
14.954400 4.085300
14.982900 4.031200
15.011500 3.867500
15.040000 3.635200
15.068500 3.335200
15.097000 3.168000
15.125500 3.121500
15.154000 3.089100
15.182500 3.067200
15.211100 3.041700
15.239600 3.070900
15.268100 3.200200
15.296600 3.272700
15.325100 3.259500
15.353600 3.188900
15.382100 3.185500
15.410700 3.226000
15.439200 3.263700
15.467700 3.306600
15.496200 3.346300
15.524700 3.375300
15.553200 3.403200
15.581800 3.454100
15.610300 3.551800
15.638800 3.607500
15.667300 3.532700
15.695800 3.346300
15.724300 3.159700
15.752800 3.127600
15.781400 3.124700
15.809900 3.174500
15.838400 3.276300
15.866900 3.345500
15.895400 3.350700
15.923900 3.389200
15.952500 3.343100
15.981000 3.410200
16.009500 3.367100
16.038000 3.208500
16.066500 3.101900
16.095000 3.049300
16.123500 2.989000
16.152100 2.918400
16.180600 2.728900
16.209100 2.691600
16.237600 2.676400
16.266100 2.709800
16.294600 2.786100
16.323100 2.812500
16.351700 2.891400
16.380200 2.984800
16.408700 3.161300
16.437200 3.003600
16.465700 2.963200
16.494200 2.867200
16.522800 2.812000
16.551300 2.794600
16.579800 2.758800
16.608300 2.709900
16.636800 2.649100
16.665300 2.607900
16.693800 2.540900
16.722400 2.557100
16.750900 2.665200
16.779400 2.726200
16.807900 2.745400
16.836400 2.813100
16.864900 2.857000
16.893500 2.932000
16.922000 3.049400
16.950500 3.061500
16.979000 2.999700
17.007500 2.951200
17.036000 2.999000
17.064500 3.013400
17.093100 3.099700
17.121600 3.207500
17.150100 3.331800
17.178600 3.455900
17.207100 3.614800
17.235600 3.705000
17.264100 3.748400
17.292700 3.610300
17.321200 3.506200
17.349700 3.422900
17.378200 3.369300
17.406700 3.335300
17.435200 3.154300
17.463800 3.139400
17.492300 3.127500
17.520800 3.116100
17.549300 3.122100
17.577800 3.176500
17.606300 3.238500
17.634800 3.368200
17.663400 3.380500
17.691900 3.360900
17.720400 3.325600
17.748900 3.227400
17.777400 3.117000
17.805900 3.087800
17.834500 3.102700
17.863000 3.119000
17.891500 3.127100
17.920000 3.112700
17.948500 3.118900
17.977000 3.137700
18.005500 3.145900
18.034100 3.156600
18.062600 3.183600
18.091100 3.222200
18.119600 3.205800
18.148100 3.176800
18.176600 3.179500
18.205100 3.204000
18.233700 3.220600
18.262200 3.210700
18.290700 3.247300
18.319200 3.296300
18.347700 3.327400
18.376200 3.413600
18.404800 3.388100
18.433300 3.351600
18.461800 3.307100
18.490300 3.307700
18.518800 3.405800
18.547300 3.463900
18.575800 3.509600
18.604400 3.600500
18.632900 3.728300
18.661400 3.905100
18.689900 3.888800
18.718400 3.868200
18.746900 3.821600
18.775500 3.735900
18.804000 3.565000
18.832500 3.470400
18.861000 3.481000
18.889500 3.420400
18.918000 3.317700
18.946500 3.290000
18.975100 3.307900
19.003600 3.292100
19.032100 3.318900
19.060600 3.378700
19.089100 3.323200
19.117600 3.257100
19.146100 3.306900
19.174700 3.428700
19.203200 3.485300
19.231700 3.487800
19.260200 3.456800
19.288700 3.449800
19.317200 3.513400
19.345800 3.612600
19.374300 3.622200
19.402800 3.659500
19.431300 3.695000
19.459800 3.718000
19.488300 3.769400
19.516800 3.792600
19.545400 3.833600
19.573900 3.826900
19.602400 3.775100
19.630900 3.689700
19.659400 3.640000
19.687900 3.724000
19.716500 3.733200
19.745000 3.742200
19.773500 3.718900
19.802000 3.714500
19.830500 3.689700
19.859000 3.912200
19.887500 3.654500
19.916100 3.665900
19.944600 3.799900
19.973100 3.941400
20.001600 3.945600
20.030100 3.790200
20.058600 3.540300
20.087100 3.457500
20.115700 3.420200
20.144200 3.385900
20.172700 3.369100
20.201200 3.338500
20.229700 3.337000
20.258200 3.325300
