set title 'mp-971775 - Density of States'
set xlabel 'Energy (eV)'
set ylabel 'DOS (states/eV)'
set grid
set xrange [-10:10]
set yrange [0:73.525]
set xzeroaxis lt -1
set terminal png size 800,600
set output 'mp-971775_dos_gnuplot.png'
plot '-' using 1:2 with lines title 'DOS'
-13.652600 0.000000
-13.627000 0.000000
-13.601400 0.000000
-13.575800 0.000000
-13.550200 0.000000
-13.524600 0.000000
-13.499000 0.000000
-13.473400 0.000000
-13.447800 0.000000
-13.422200 0.000000
-13.396600 0.000000
-13.371000 0.000000
-13.345400 0.000000
-13.319800 0.000000
-13.294200 0.000000
-13.268600 0.000000
-13.243000 0.000000
-13.217400 0.000000
-13.191800 0.000000
-13.166200 0.000000
-13.140600 0.000000
-13.115000 0.000000
-13.089400 0.000000
-13.063800 0.000000
-13.038200 0.000000
-13.012600 0.000000
-12.987000 0.000000
-12.961400 0.000000
-12.935800 0.000000
-12.910200 0.000000
-12.884600 0.000000
-12.859000 0.000000
-12.833300 0.000000
-12.807700 0.000000
-12.782100 0.000000
-12.756500 0.000000
-12.730900 0.000000
-12.705300 0.000000
-12.679700 0.000000
-12.654100 0.000000
-12.628500 0.000000
-12.602900 0.000000
-12.577300 0.000000
-12.551700 0.000000
-12.526100 0.000000
-12.500500 0.000000
-12.474900 0.000000
-12.449300 0.000000
-12.423700 0.000000
-12.398100 0.000000
-12.372500 0.000000
-12.346900 0.000000
-12.321300 0.000000
-12.295700 0.000000
-12.270100 0.000000
-12.244500 0.000000
-12.218900 0.000000
-12.193300 0.000000
-12.167700 0.000000
-12.142100 0.000000
-12.116500 0.000000
-12.090900 0.000000
-12.065300 0.000000
-12.039700 0.000000
-12.014100 0.000000
-11.988500 0.000000
-11.962900 0.000000
-11.937300 0.000000
-11.911700 0.000000
-11.886100 0.000000
-11.860500 0.000000
-11.834800 0.000000
-11.809200 0.000000
-11.783600 0.000000
-11.758000 0.000000
-11.732400 0.000000
-11.706800 0.000000
-11.681200 0.000000
-11.655600 0.000000
-11.630000 0.000000
-11.604400 0.000000
-11.578800 0.000000
-11.553200 0.000000
-11.527600 0.000000
-11.502000 0.000000
-11.476400 0.000000
-11.450800 0.000200
-11.425200 0.003100
-11.399600 0.030300
-11.374000 0.187500
-11.348400 0.762800
-11.322800 2.162400
-11.297200 4.751300
-11.271600 9.392600
-11.246000 18.183800
-11.220400 32.584200
-11.194800 49.696000
-11.169200 63.316600
-11.143600 70.604400
-11.118000 74.397400
-11.092400 77.335100
-11.066800 78.893500
-11.041200 80.008000
-11.015600 83.426700
-10.990000 87.732100
-10.964400 88.401600
-10.938800 84.467000
-10.913200 77.945100
-10.887600 67.956200
-10.861900 52.066600
-10.836300 33.221400
-10.810700 17.954500
-10.785100 8.940400
-10.759500 4.389200
-10.733900 1.998000
-10.708300 0.725800
-10.682700 0.186100
-10.657100 0.031500
-10.631500 0.003400
-10.605900 0.000200
-10.580300 0.000000
-10.554700 0.000000
-10.529100 0.000000
-10.503500 0.000000
-10.477900 0.000000
-10.452300 0.000000
-10.426700 0.000000
-10.401100 0.000000
-10.375500 0.000000
-10.349900 0.000000
-10.324300 0.000000
-10.298700 0.000000
-10.273100 0.000000
-10.247500 0.000000
-10.221900 0.000000
-10.196300 0.000000
-10.170700 0.000000
-10.145100 0.000000
-10.119500 0.000000
-10.093900 0.000000
-10.068300 0.000000
-10.042700 0.000000
-10.017100 0.000000
-9.991500 0.000000
-9.965900 0.000000
-9.940300 0.000000
-9.914700 0.000000
-9.889000 0.000000
-9.863400 0.000000
-9.837800 0.000000
-9.812200 0.000000
-9.786600 0.000000
-9.761000 0.000000
-9.735400 0.000000
-9.709800 0.000000
-9.684200 0.000000
-9.658600 0.000000
-9.633000 0.000000
-9.607400 0.000000
-9.581800 0.000000
-9.556200 0.000000
-9.530600 0.000000
-9.505000 0.000000
-9.479400 0.000000
-9.453800 0.000000
-9.428200 0.000000
-9.402600 0.000000
-9.377000 0.000000
-9.351400 0.000000
-9.325800 0.000000
-9.300200 0.000000
-9.274600 0.000000
-9.249000 0.000000
-9.223400 0.000000
-9.197800 0.000000
-9.172200 0.000000
-9.146600 0.000000
-9.121000 0.000000
-9.095400 0.000000
-9.069800 0.000000
-9.044200 0.000000
-9.018600 0.000000
-8.993000 0.000000
-8.967400 0.000000
-8.941800 0.000000
-8.916100 0.000000
-8.890500 0.000000
-8.864900 0.000000
-8.839300 0.000000
-8.813700 0.000000
-8.788100 0.000000
-8.762500 0.000000
-8.736900 0.000000
-8.711300 0.000000
-8.685700 0.000000
-8.660100 0.000000
-8.634500 0.000000
-8.608900 0.000000
-8.583300 0.000000
-8.557700 0.000000
-8.532100 0.000000
-8.506500 0.000000
-8.480900 0.000000
-8.455300 0.000000
-8.429700 0.000000
-8.404100 0.000000
-8.378500 0.000000
-8.352900 0.000000
-8.327300 0.000000
-8.301700 0.000000
-8.276100 0.000000
-8.250500 0.000000
-8.224900 0.000000
-8.199300 0.000000
-8.173700 0.000000
-8.148100 0.000000
-8.122500 0.000000
-8.096900 0.000000
-8.071300 0.000000
-8.045700 0.000000
-8.020100 0.000000
-7.994500 0.000000
-7.968900 0.000000
-7.943200 0.000000
-7.917600 0.000000
-7.892000 0.000000
-7.866400 0.000000
-7.840800 0.000000
-7.815200 0.000000
-7.789600 0.000000
-7.764000 0.000000
-7.738400 0.000000
-7.712800 0.000000
-7.687200 0.000000
-7.661600 0.000000
-7.636000 0.000000
-7.610400 0.000000
-7.584800 0.000000
-7.559200 0.000000
-7.533600 0.000000
-7.508000 0.000000
-7.482400 0.000000
-7.456800 0.000000
-7.431200 0.000000
-7.405600 0.000000
-7.380000 0.000000
-7.354400 0.000000
-7.328800 0.000000
-7.303200 0.000000
-7.277600 0.000000
-7.252000 0.000000
-7.226400 0.000000
-7.200800 0.000000
-7.175200 0.000000
-7.149600 0.000000
-7.124000 0.000000
-7.098400 0.000000
-7.072800 0.000000
-7.047200 0.000000
-7.021600 0.000000
-6.996000 0.000000
-6.970400 0.000000
-6.944700 0.000000
-6.919100 0.000000
-6.893500 0.000000
-6.867900 0.000000
-6.842300 0.000000
-6.816700 0.000000
-6.791100 0.000000
-6.765500 0.000000
-6.739900 0.000000
-6.714300 0.000000
-6.688700 0.000000
-6.663100 0.000000
-6.637500 0.000000
-6.611900 0.000000
-6.586300 0.000000
-6.560700 0.000000
-6.535100 0.000000
-6.509500 0.000000
-6.483900 0.000000
-6.458300 0.000000
-6.432700 0.000000
-6.407100 0.000000
-6.381500 0.000000
-6.355900 0.000000
-6.330300 0.000000
-6.304700 0.000000
-6.279100 0.000000
-6.253500 0.000000
-6.227900 0.000000
-6.202300 0.000000
-6.176700 0.000000
-6.151100 0.000000
-6.125500 0.000000
-6.099900 0.000000
-6.074300 0.000000
-6.048700 0.000000
-6.023100 0.000000
-5.997500 0.000000
-5.971800 0.000000
-5.946200 0.000000
-5.920600 0.000000
-5.895000 0.000000
-5.869400 0.000000
-5.843800 0.000000
-5.818200 0.000000
-5.792600 0.000000
-5.767000 0.000000
-5.741400 0.000000
-5.715800 0.000000
-5.690200 0.000000
-5.664600 0.000000
-5.639000 0.000000
-5.613400 0.000000
-5.587800 0.000000
-5.562200 0.000000
-5.536600 0.000000
-5.511000 0.000000
-5.485400 0.000000
-5.459800 0.000000
-5.434200 0.000000
-5.408600 0.000500
-5.383000 0.003300
-5.357400 0.013700
-5.331800 0.036600
-5.306200 0.069800
-5.280600 0.109900
-5.255000 0.165500
-5.229400 0.255600
-5.203800 0.361700
-5.178200 0.389700
-5.152600 0.291700
-5.127000 0.175900
-5.101400 0.187100
-5.075800 0.347400
-5.050200 0.528300
-5.024600 0.588100
-4.998900 0.556600
-4.973300 0.568100
-4.947700 0.629400
-4.922100 0.592400
-4.896500 0.422500
-4.870900 0.287200
-4.845300 0.287900
-4.819700 0.417900
-4.794100 0.652900
-4.768500 0.834400
-4.742900 0.819600
-4.717300 0.745800
-4.691700 0.781000
-4.666100 0.820000
-4.640500 0.674100
-4.614900 0.432800
-4.589300 0.384800
-4.563700 0.631200
-4.538100 0.953700
-4.512500 1.085900
-4.486900 1.040500
-4.461300 1.000100
-4.435700 0.979700
-4.410100 0.849700
-4.384500 0.635500
-4.358900 0.516300
-4.333300 0.539800
-4.307700 0.668600
-4.282100 0.918600
-4.256500 1.168200
-4.230900 1.267700
-4.205300 1.317100
-4.179700 1.352200
-4.154100 1.188500
-4.128500 0.848500
-4.102900 0.621900
-4.077300 0.770300
-4.051700 1.277800
-4.026000 1.704200
-4.000400 1.637600
-3.974800 1.242800
-3.949200 0.908000
-3.923600 0.699800
-3.898000 0.533700
-3.872400 0.464800
-3.846800 0.519600
-3.821200 0.629400
-3.795600 0.817800
-3.770000 1.209300
-3.744400 1.777000
-3.718800 2.193500
-3.693200 2.159100
-3.667600 1.712900
-3.642000 1.150100
-3.616400 0.757200
-3.590800 0.661200
-3.565200 0.858800
-3.539600 1.224300
-3.514000 1.544600
-3.488400 1.606200
-3.462800 1.356700
-3.437200 0.962000
-3.411600 0.600200
-3.386000 0.393700
-3.360400 0.414700
-3.334800 0.546400
-3.309200 0.603700
-3.283600 0.668700
-3.258000 0.940700
-3.232400 1.336600
-3.206800 1.580700
-3.181200 1.496400
-3.155600 1.146300
-3.130000 0.815300
-3.104400 0.745400
-3.078800 0.881600
-3.053100 0.968400
-3.027500 0.931500
-3.001900 0.914800
-2.976300 0.988900
-2.950700 1.152000
-2.925100 1.463400
-2.899500 1.919700
-2.873900 2.276200
-2.848300 2.303600
-2.822700 2.116000
-2.797100 1.947900
-2.771500 1.838900
-2.745900 1.706400
-2.720300 1.528100
-2.694700 1.378300
-2.669100 1.309600
-2.643500 1.295500
-2.617900 1.372700
-2.592300 1.582400
-2.566700 1.749300
-2.541100 1.726900
-2.515500 1.624900
-2.489900 1.540500
-2.464300 1.450400
-2.438700 1.407200
-2.413100 1.536200
-2.387500 1.737900
-2.361900 1.723600
-2.336300 1.466600
-2.310700 1.256100
-2.285100 1.316300
-2.259500 1.664800
-2.233900 2.132700
-2.208300 2.384000
-2.182700 2.207600
-2.157100 1.726400
-2.131500 1.344200
-2.105900 1.395800
-2.080300 1.735700
-2.054600 1.994600
-2.029000 2.049400
-2.003400 1.983300
-1.977800 1.830600
-1.952200 1.557400
-1.926600 1.213800
-1.901000 0.996600
-1.875400 1.069800
-1.849800 1.379300
-1.824200 1.777800
-1.798600 2.130100
-1.773000 2.281900
-1.747400 2.254800
-1.721800 2.309100
-1.696200 2.570800
-1.670600 2.884200
-1.645000 2.978300
-1.619400 2.791800
-1.593800 2.647200
-1.568200 2.711600
-1.542600 2.708900
-1.517000 2.491800
-1.491400 2.278600
-1.465800 2.272800
-1.440200 2.450900
-1.414600 2.669600
-1.389000 2.722300
-1.363400 2.521900
-1.337800 2.312400
-1.312200 2.347500
-1.286600 2.659200
-1.261000 3.201300
-1.235400 3.726400
-1.209800 3.824300
-1.184200 3.404100
-1.158600 2.781000
-1.133000 2.271900
-1.107400 1.941400
-1.081700 1.729900
-1.056100 1.601200
-1.030500 1.804800
-1.004900 3.957600
-0.979300 12.711500
-0.953700 32.758700
-0.928100 57.112100
-0.902500 66.840900
-0.876900 55.830800
-0.851300 38.514000
-0.825700 26.497700
-0.800100 19.532200
-0.774500 15.119400
-0.748900 12.439600
-0.723300 10.716800
-0.697700 8.963400
-0.672100 6.942400
-0.646500 5.106200
-0.620900 3.711300
-0.595300 2.746300
-0.569700 2.180100
-0.544100 1.773500
-0.518500 1.303900
-0.492900 0.866200
-0.467300 0.565400
-0.441700 0.388500
-0.416100 0.351700
-0.390500 0.464000
-0.364900 0.637900
-0.339300 0.735300
-0.313700 0.677300
-0.288100 0.512900
-0.262500 0.431800
-0.236900 0.586500
-0.211300 0.817200
-0.185700 0.794500
-0.160100 0.495400
-0.134500 0.196000
-0.108800 0.056900
-0.083200 0.045800
-0.057600 0.105400
-0.032000 0.182300
-0.006400 0.204500
0.019200 0.147900
0.044800 0.068500
0.070400 0.020200
0.096000 0.003700
0.121600 0.000400
0.147200 0.000000
0.172800 0.000000
0.198400 0.000000
0.224000 0.000000
0.249600 0.000000
0.275200 0.000000
0.300800 0.000000
0.326400 0.000000
0.352000 0.000000
0.377600 0.000000
0.403200 0.000000
0.428800 0.000000
0.454400 0.000000
0.480000 0.000000
0.505600 0.000000
0.531200 0.000000
0.556800 0.000000
0.582400 0.000000
0.608000 0.000000
0.633600 0.000000
0.659200 0.000000
0.684800 0.000000
0.710400 0.000000
0.736000 0.000000
0.761600 0.000000
0.787200 0.000000
0.812800 0.000000
0.838400 0.000000
0.864100 0.000000
0.889700 0.000000
0.915300 0.000000
0.940900 0.000000
0.966500 0.000000
0.992100 0.000000
1.017700 0.000000
1.043300 0.000000
1.068900 0.000000
1.094500 0.000100
1.120100 0.001100
1.145700 0.008200
1.171300 0.036900
1.196900 0.100600
1.222500 0.166300
1.248100 0.168500
1.273700 0.116700
1.299300 0.099900
1.324900 0.159100
1.350500 0.241700
1.376100 0.323500
1.401700 0.506400
1.427300 0.808900
1.452900 0.999600
1.478500 0.935400
1.504100 0.784900
1.529700 0.715100
1.555300 0.743700
1.580900 0.822600
1.606500 0.838500
1.632100 0.740600
1.657700 0.656200
1.683300 0.769000
1.708900 1.095200
1.734500 1.461500
1.760100 1.699000
1.785700 1.696000
1.811300 1.389600
1.837000 0.890700
1.862600 0.487400
1.888200 0.462500
1.913800 0.892100
1.939400 1.552100
1.965000 2.234200
1.990600 3.027600
2.016200 3.738100
2.041800 3.766800
2.067400 3.070100
2.093000 2.224900
2.118600 1.665600
2.144200 1.488800
2.169800 1.572600
2.195400 1.733400
2.221000 1.936900
2.246600 2.173500
2.272200 2.198000
2.297800 1.839400
2.323400 1.420700
2.349000 1.385300
2.374600 1.636000
2.400200 1.664300
2.425800 1.322300
2.451400 0.992600
2.477000 0.979900
2.502600 1.163700
2.528200 1.249600
2.553800 1.115600
2.579400 0.859400
2.605000 0.684200
2.630600 0.779900
2.656200 1.137700
2.681800 1.510400
2.707400 1.688300
2.733000 1.628800
2.758600 1.369900
2.784200 1.061000
2.809800 0.890700
2.835500 0.920600
2.861100 1.079100
2.886700 1.235400
2.912300 1.280000
2.937900 1.191200
2.963500 1.093600
2.989100 1.203500
3.014700 1.500100
3.040300 1.634300
3.065900 1.458900
3.091500 1.231100
3.117100 1.136800
3.142700 1.192300
3.168300 1.462200
3.193900 1.835300
3.219500 1.964300
3.245100 1.682700
3.270700 1.140400
3.296300 0.657900
3.321900 0.531800
3.347500 0.840800
3.373100 1.380800
3.398700 1.722200
3.424300 1.631400
3.449900 1.326800
3.475500 1.111200
3.501100 1.118400
3.526700 1.297300
3.552300 1.489900
3.577900 1.608300
3.603500 1.670700
3.629100 1.650300
3.654700 1.477400
3.680300 1.302800
3.705900 1.298300
3.731500 1.301400
3.757100 1.267400
3.782700 1.409000
3.808400 1.665000
3.834000 1.835000
3.859600 1.898900
3.885200 1.924700
3.910800 2.012400
3.936400 2.143600
3.962000 2.204700
3.987600 2.249800
4.013200 2.362600
4.038800 2.452700
4.064400 2.406100
4.090000 2.219900
4.115600 2.007300
4.141200 1.939900
4.166800 2.106500
4.192400 2.399700
4.218000 2.625600
4.243600 2.823500
4.269200 3.100200
4.294800 3.263500
4.320400 3.171500
4.346000 2.911100
4.371600 2.553900
4.397200 2.298600
4.422800 2.328600
4.448400 2.527400
4.474000 2.760900
4.499600 2.974100
4.525200 2.994600
4.550800 2.770900
4.576400 2.540200
4.602000 2.483700
4.627600 2.522700
4.653200 2.480000
4.678800 2.338800
4.704400 2.147400
4.730000 1.839700
4.755600 1.491400
4.781300 1.316300
4.806900 1.350500
4.832500 1.484600
4.858100 1.648800
4.883700 1.840900
4.909300 2.110200
4.934900 2.505400
4.960500 2.909700
4.986100 3.112900
5.011700 3.167900
5.037300 3.070200
5.062900 2.591800
5.088500 1.969500
5.114100 1.669300
5.139700 1.674700
5.165300 1.696900
5.190900 1.635800
5.216500 1.624900
5.242100 1.718000
5.267700 1.737700
5.293300 1.553100
5.318900 1.288600
5.344500 1.195100
5.370100 1.374800
5.395700 1.620400
5.421300 1.664500
5.446900 1.622100
5.472500 1.783600
5.498100 2.110800
5.523700 2.326500
5.549300 2.266100
5.574900 2.050100
5.600500 1.879100
5.626100 1.778000
5.651700 1.705900
5.677300 1.588700
5.702900 1.453100
5.728500 1.550300
5.754200 1.861400
5.779800 1.946400
5.805400 1.615300
5.831000 1.268100
5.856600 1.366500
5.882200 1.804700
5.907800 2.055900
5.933400 1.958000
5.959000 1.915200
5.984600 2.213600
6.010200 2.583100
6.035800 2.676400
6.061400 2.496000
6.087000 2.166800
6.112600 1.855400
6.138200 1.766100
6.163800 2.000400
6.189400 2.543700
6.215000 3.218700
6.240600 3.633100
6.266200 3.426200
6.291800 2.709900
6.317400 2.028600
6.343000 1.675400
6.368600 1.458200
6.394200 1.271200
6.419800 1.303900
6.445400 1.622400
6.471000 1.977400
6.496600 2.066900
6.522200 1.935100
6.547800 1.947900
6.573400 2.226400
6.599000 2.415200
6.624600 2.240700
6.650200 1.944300
6.675800 1.910000
6.701400 2.099800
6.727100 2.102200
6.752700 1.812100
6.778300 1.616800
6.803900 1.782400
6.829500 2.066600
6.855100 2.074400
6.880700 1.869600
6.906300 1.784900
6.931900 1.928500
6.957500 2.236100
6.983100 2.530500
7.008700 2.726600
7.034300 2.832800
7.059900 2.670800
7.085500 2.238100
7.111100 1.984600
7.136700 2.234300
7.162300 2.630300
7.187900 2.584200
7.213500 2.143000
7.239100 1.855600
7.264700 1.986300
7.290300 2.209500
7.315900 2.047300
7.341500 1.465800
7.367100 0.905300
7.392700 0.770400
7.418300 0.995600
7.443900 1.191500
7.469500 1.243200
7.495100 1.490200
7.520700 2.070700
7.546300 2.544200
7.571900 2.593100
7.597500 2.558300
7.623100 2.709700
7.648700 2.689700
7.674300 2.265500
7.699900 1.885200
7.725600 1.997500
7.751200 2.485800
7.776800 2.924200
7.802400 2.923300
7.828000 2.410000
7.853600 1.789800
7.879200 1.577800
7.904800 1.941500
7.930400 2.617600
7.956000 3.031600
7.981600 2.791000
8.007200 2.150100
8.032800 1.647200
8.058400 1.538300
8.084000 1.735000
8.109600 1.996500
8.135200 2.212400
8.160800 2.522000
8.186400 2.972300
8.212000 3.321600
8.237600 3.467400
8.263200 3.561900
8.288800 3.483400
8.314400 2.998400
8.340000 2.380100
8.365600 2.150500
8.391200 2.276900
8.416800 2.282100
8.442400 2.107200
8.468000 2.147700
8.493600 2.610100
8.519200 3.244000
8.544800 3.643300
8.570400 3.704300
8.596000 3.645500
8.621600 3.674000
8.647200 3.668600
8.672800 3.331300
8.698500 2.783200
8.724100 2.417500
8.749700 2.308800
8.775300 2.391200
8.800900 2.605900
8.826500 2.753800
8.852100 2.816100
8.877700 2.975100
8.903300 3.177600
8.928900 3.119900
8.954500 2.807500
8.980100 2.716800
9.005700 3.032400
9.031300 3.368800
9.056900 3.416200
9.082500 3.201900
9.108100 2.958300
9.133700 2.895100
9.159300 2.805300
9.184900 2.394100
9.210500 1.966400
9.236100 1.891900
9.261700 1.922500
9.287300 1.834200
9.312900 1.799600
9.338500 1.920600
9.364100 2.112900
9.389700 2.331700
9.415300 2.589100
9.440900 2.764800
9.466500 2.766400
9.492100 2.802700
9.517700 3.085700
9.543300 3.347900
9.568900 3.046800
9.594500 2.215700
9.620100 1.456900
9.645700 1.061300
9.671400 0.903100
9.697000 0.930700
9.722600 1.193000
9.748200 1.651400
9.773800 2.157200
9.799400 2.508200
9.825000 2.694400
9.850600 2.958800
9.876200 3.381200
9.901800 3.706600
9.927400 3.626300
9.953000 3.129600
9.978600 2.643200
10.004200 2.472400
10.029800 2.456000
10.055400 2.479500
10.081000 2.625300
10.106600 2.848200
10.132200 3.031700
10.157800 3.310600
10.183400 3.765200
10.209000 3.935700
10.234600 3.375900
10.260200 2.403300
10.285800 1.665700
10.311400 1.490300
10.337000 1.863000
10.362600 2.461700
10.388200 2.848900
10.413800 2.795700
10.439400 2.433000
10.465000 2.298300
10.490600 2.673000
10.516200 3.078500
10.541800 3.060300
10.567400 2.860000
10.593000 2.880800
10.618600 2.988100
10.644300 2.961400
10.669900 2.937800
10.695500 2.979100
10.721100 2.959200
10.746700 2.782900
10.772300 2.493500
10.797900 2.323000
10.823500 2.351000
10.849100 2.350200
10.874700 2.345100
10.900300 2.658300
10.925900 3.113700
10.951500 3.124800
10.977100 2.589600
11.002700 1.943600
11.028300 1.592400
11.053900 1.626300
11.079500 1.781600
11.105100 1.807700
11.130700 1.874900
11.156300 2.205600
11.181900 2.675400
11.207500 3.043500
11.233100 3.192700
11.258700 3.105600
11.284300 2.927600
11.309900 2.883500
11.335500 2.891700
11.361100 2.727600
11.386700 2.543300
11.412300 2.505800
11.437900 2.335100
11.463500 1.876900
11.489100 1.440700
11.514700 1.361100
11.540300 1.616600
11.565900 1.830700
11.591500 1.802700
11.617200 1.832500
11.642800 2.207100
11.668400 2.660600
11.694000 2.713400
11.719600 2.401500
11.745200 2.100800
11.770800 1.961500
11.796400 1.947400
11.822000 1.927500
11.847600 1.757900
11.873200 1.572100
11.898800 1.563300
11.924400 1.614900
11.950000 1.638400
11.975600 1.790800
12.001200 2.298800
12.026800 3.170100
12.052400 3.871100
12.078000 3.788900
12.103600 3.015200
12.129200 2.095400
12.154800 1.434000
12.180400 1.179100
12.206000 1.274400
12.231600 1.596900
12.257200 1.930200
12.282800 1.984400
12.308400 1.769800
12.334000 1.559000
12.359600 1.495000
12.385200 1.634300
12.410800 1.918500
12.436400 2.060100
12.462000 2.014400
12.487600 2.079400
12.513200 2.264100
12.538800 2.271100
12.564400 2.099700
12.590100 2.070900
12.615700 2.363600
12.641300 2.823900
12.666900 3.005900
12.692500 2.654900
12.718100 2.146100
12.743700 1.940700
12.769300 1.981900
12.794900 1.977300
12.820500 1.945100
12.846100 2.067800
12.871700 2.286200
12.897300 2.466100
12.922900 2.514100
12.948500 2.244200
12.974100 1.653800
12.999700 1.110700
13.025300 0.927600
13.050900 1.014000
13.076500 1.236500
13.102100 1.662800
13.127700 2.171300
13.153300 2.477500
13.178900 2.549800
