set title 'mp-1223902 - Density of States'
set xlabel 'Energy (eV)'
set ylabel 'DOS (states/eV)'
set grid
set xrange [-10:10]
set yrange [0:15.118]
set xzeroaxis lt -1
set terminal png size 800,600
set output 'mp-1223902_dos_gnuplot.png'
plot '-' using 1:2 with lines title 'DOS'
-10.591900 0.000000
-10.564000 0.000000
-10.536000 0.000000
-10.508100 0.000000
-10.480100 0.000000
-10.452200 0.000000
-10.424200 0.000000
-10.396200 0.000000
-10.368300 0.000000
-10.340300 0.000000
-10.312400 0.000000
-10.284400 0.000000
-10.256400 0.000000
-10.228500 0.000000
-10.200500 0.000000
-10.172600 0.000000
-10.144600 0.000000
-10.116600 0.000000
-10.088700 0.000000
-10.060700 0.000000
-10.032800 0.000000
-10.004800 0.000000
-9.976900 0.000000
-9.948900 0.000000
-9.920900 0.000000
-9.893000 0.000000
-9.865000 0.000000
-9.837100 0.000000
-9.809100 0.000000
-9.781100 0.000000
-9.753200 0.000000
-9.725200 0.000000
-9.697300 0.000000
-9.669300 0.000000
-9.641300 0.000000
-9.613400 0.000000
-9.585400 0.000000
-9.557500 0.000000
-9.529500 0.000000
-9.501600 0.000000
-9.473600 0.000000
-9.445600 0.000000
-9.417700 0.000000
-9.389700 0.000000
-9.361800 0.000000
-9.333800 0.000000
-9.305800 0.000000
-9.277900 0.000000
-9.249900 0.000000
-9.222000 0.000000
-9.194000 0.000000
-9.166000 0.000000
-9.138100 0.000000
-9.110100 0.000000
-9.082200 0.000000
-9.054200 0.000000
-9.026300 0.000000
-8.998300 0.000000
-8.970300 0.000000
-8.942400 0.000000
-8.914400 0.000000
-8.886500 0.000000
-8.858500 0.000000
-8.830500 0.000000
-8.802600 0.000000
-8.774600 0.000000
-8.746700 0.000000
-8.718700 0.000000
-8.690700 0.000000
-8.662800 0.000000
-8.634800 0.000000
-8.606900 0.000000
-8.578900 0.000000
-8.551000 0.000000
-8.523000 0.000000
-8.495000 0.000000
-8.467100 0.000000
-8.439100 0.000000
-8.411200 0.000000
-8.383200 0.000000
-8.355200 0.000000
-8.327300 0.000000
-8.299300 0.000000
-8.271400 0.000000
-8.243400 0.000000
-8.215400 0.000000
-8.187500 0.000000
-8.159500 0.000200
-8.131600 0.001600
-8.103600 0.009400
-8.075700 0.031800
-8.047700 0.069000
-8.019700 0.115400
-7.991800 0.173400
-7.963800 0.244100
-7.935900 0.320800
-7.907900 0.384600
-7.879900 0.437000
-7.852000 0.485700
-7.824000 0.478100
-7.796100 0.440500
-7.768100 0.502500
-7.740100 0.623300
-7.712200 0.675600
-7.684200 0.713700
-7.656300 0.840100
-7.628300 1.048800
-7.600400 1.272500
-7.572400 1.412200
-7.544400 1.510100
-7.516500 1.689000
-7.488500 1.839700
-7.460600 1.768100
-7.432600 1.558000
-7.404600 1.376600
-7.376700 1.141100
-7.348700 0.806600
-7.320800 0.602300
-7.292800 0.644500
-7.264800 0.814200
-7.236900 1.041000
-7.208900 1.291800
-7.181000 1.420500
-7.153000 1.345600
-7.125100 1.126900
-7.097100 0.804700
-7.069100 0.502100
-7.041200 0.394500
-7.013200 0.429900
-6.985300 0.443500
-6.957300 0.425800
-6.929300 0.463800
-6.901400 0.574500
-6.873400 0.673000
-6.845500 0.766300
-6.817500 0.967700
-6.789500 1.198800
-6.761600 1.270700
-6.733600 1.127600
-6.705700 0.817700
-6.677700 0.471800
-6.649800 0.269600
-6.621800 0.252800
-6.593800 0.308200
-6.565900 0.339200
-6.537900 0.359900
-6.510000 0.406800
-6.482000 0.433100
-6.454000 0.429000
-6.426100 0.483300
-6.398100 0.577500
-6.370200 0.627500
-6.342200 0.717400
-6.314200 0.932700
-6.286300 1.215800
-6.258300 1.442300
-6.230400 1.420500
-6.202400 1.058400
-6.174500 0.552900
-6.146500 0.189800
-6.118500 0.045700
-6.090600 0.036500
-6.062600 0.108000
-6.034700 0.236000
-6.006700 0.367900
-5.978700 0.461900
-5.950800 0.518800
-5.922800 0.583000
-5.894900 0.675200
-5.866900 0.798400
-5.838900 1.048400
-5.811000 1.496800
-5.783000 1.955500
-5.755100 1.905300
-5.727100 1.217200
-5.699200 0.582700
-5.671200 0.514400
-5.643200 0.858300
-5.615300 1.225100
-5.587300 1.305500
-5.559400 1.037200
-5.531400 0.610100
-5.503400 0.255500
-5.475500 0.071300
-5.447500 0.012400
-5.419600 0.001300
-5.391600 0.000100
-5.363600 0.000000
-5.335700 0.000000
-5.307700 0.000000
-5.279800 0.000000
-5.251800 0.000000
-5.223900 0.000000
-5.195900 0.000000
-5.167900 0.000000
-5.140000 0.000000
-5.112000 0.000000
-5.084100 0.000000
-5.056100 0.000000
-5.028100 0.000000
-5.000200 0.000000
-4.972200 0.000000
-4.944300 0.000000
-4.916300 0.000000
-4.888300 0.000000
-4.860400 0.000000
-4.832400 0.000000
-4.804500 0.000000
-4.776500 0.000000
-4.748600 0.000000
-4.720600 0.000000
-4.692600 0.000000
-4.664700 0.000000
-4.636700 0.000000
-4.608800 0.000000
-4.580800 0.000000
-4.552800 0.000000
-4.524900 0.000000
-4.496900 0.000000
-4.469000 0.000000
-4.441000 0.000000
-4.413000 0.000000
-4.385100 0.000000
-4.357100 0.000000
-4.329200 0.000000
-4.301200 0.000000
-4.273300 0.000000
-4.245300 0.000000
-4.217300 0.000000
-4.189400 0.000000
-4.161400 0.000000
-4.133500 0.000000
-4.105500 0.000000
-4.077500 0.000000
-4.049600 0.000000
-4.021600 0.000000
-3.993700 0.000000
-3.965700 0.000000
-3.937700 0.000000
-3.909800 0.000000
-3.881800 0.000000
-3.853900 0.000000
-3.825900 0.000000
-3.798000 0.000000
-3.770000 0.000000
-3.742000 0.000000
-3.714100 0.000000
-3.686100 0.000000
-3.658200 0.000000
-3.630200 0.000000
-3.602200 0.000000
-3.574300 0.000000
-3.546300 0.000000
-3.518400 0.000000
-3.490400 0.000000
-3.462400 0.000000
-3.434500 0.000000
-3.406500 0.000000
-3.378600 0.000000
-3.350600 0.000000
-3.322700 0.000000
-3.294700 0.000000
-3.266700 0.000000
-3.238800 0.000000
-3.210800 0.000000
-3.182900 0.000000
-3.154900 0.000000
-3.126900 0.000000
-3.099000 0.001100
-3.071000 0.015100
-3.043100 0.113000
-3.015100 0.483100
-2.987100 1.192800
-2.959200 1.745700
-2.931200 1.711800
-2.903300 1.817900
-2.875300 2.790900
-2.847400 3.543600
-2.819400 2.778400
-2.791400 1.283100
-2.763500 0.347000
-2.735500 0.054800
-2.707600 0.007200
-2.679600 0.030000
-2.651600 0.234300
-2.623700 1.087000
-2.595700 3.034700
-2.567800 5.352300
-2.539800 6.616200
-2.511800 6.760100
-2.483900 6.518100
-2.455900 6.356700
-2.428000 7.011500
-2.400000 8.896400
-2.372100 11.117700
-2.344100 12.491600
-2.316100 12.851700
-2.288200 12.388500
-2.260200 11.368500
-2.232300 10.759400
-2.204300 11.455200
-2.176300 12.989600
-2.148400 13.744000
-2.120400 12.580300
-2.092500 10.353400
-2.064500 8.939800
-2.036500 9.288500
-2.008600 11.065200
-1.980600 13.018600
-1.952700 13.706100
-1.924700 12.551200
-1.896800 10.040500
-1.868800 7.495000
-1.840800 6.340800
-1.812900 7.141900
-1.784900 9.219800
-1.757000 10.848300
-1.729000 10.815200
-1.701000 8.868700
-1.673100 5.744900
-1.645100 3.128500
-1.617200 1.802700
-1.589200 1.294100
-1.561200 1.204300
-1.533300 1.276000
-1.505300 1.233800
-1.477400 1.139300
-1.449400 1.078800
-1.421500 0.937700
-1.393500 0.771500
-1.365500 0.689300
-1.337600 0.607500
-1.309600 0.500700
-1.281700 0.450600
-1.253700 0.458100
-1.225700 0.532400
-1.197800 0.673600
-1.169800 0.750100
-1.141900 0.752300
-1.113900 0.776900
-1.085900 0.743100
-1.058000 0.587300
-1.030000 0.407500
-1.002100 0.304900
-0.974100 0.310200
-0.946200 0.414100
-0.918200 0.559100
-0.890200 0.703200
-0.862300 0.875500
-0.834300 1.085600
-0.806400 1.232200
-0.778400 1.174200
-0.750400 0.964100
-0.722500 0.813300
-0.694500 0.795800
-0.666600 0.820100
-0.638600 0.763800
-0.610600 0.651200
-0.582700 0.649600
-0.554700 0.756500
-0.526800 0.805100
-0.498800 0.685500
-0.470900 0.482200
-0.442900 0.457100
-0.414900 0.644400
-0.387000 0.741800
-0.359000 0.600200
-0.331100 0.419100
-0.303100 0.351400
-0.275100 0.404700
-0.247200 0.752700
-0.219200 1.427400
-0.191300 1.950500
-0.163300 1.965600
-0.135300 1.626900
-0.107400 1.340500
-0.079400 1.338500
-0.051500 1.356200
-0.023500 1.127100
0.004400 0.769200
0.032400 0.463000
0.060400 0.332000
0.088300 0.523800
0.116300 1.146500
0.144200 2.133000
0.172200 2.906200
0.200200 2.816000
0.228100 2.109100
0.256100 1.462200
0.284000 1.067500
0.312000 0.841000
0.340000 0.796900
0.367900 0.871500
0.395900 0.944800
0.423800 1.012800
0.451800 1.138100
0.479700 1.183300
0.507700 0.952200
0.535700 0.611900
0.563600 0.409700
0.591600 0.330500
0.619500 0.292900
0.647500 0.319800
0.675500 0.424900
0.703400 0.557000
0.731400 0.682400
0.759300 0.754600
0.787300 0.717200
0.815300 0.580000
0.843200 0.409300
0.871200 0.301700
0.899100 0.329000
0.927100 0.469600
0.955000 0.615300
0.983000 0.672000
1.011000 0.669400
1.038900 0.700600
1.066900 0.733600
1.094800 0.711400
1.122800 0.712600
1.150800 0.813100
1.178700 0.915100
1.206700 0.867000
1.234600 0.807200
1.262600 0.943400
1.290600 1.169100
1.318500 1.304200
1.346500 1.397200
1.374400 1.523400
1.402400 1.539000
1.430300 1.319100
1.458300 0.947500
1.486300 0.674500
1.514200 0.745600
1.542200 1.040800
1.570100 1.282700
1.598100 1.394200
1.626100 1.318400
1.654000 1.064200
1.682000 0.933700
1.709900 1.025100
1.737900 1.030900
1.765900 0.938800
1.793800 0.993300
1.821800 1.179400
1.849700 1.278800
1.877700 1.159000
1.905600 1.050500
1.933600 1.201100
1.961600 1.372500
1.989500 1.278100
2.017500 0.989400
2.045400 0.743900
2.073400 0.753900
2.101400 0.993500
2.129300 1.149400
2.157300 1.083400
2.185200 1.092600
2.213200 1.277400
2.241200 1.267900
2.269100 0.958000
2.297100 0.718800
2.325000 0.835400
2.353000 1.273000
2.380900 1.676400
2.408900 1.734200
2.436900 1.507800
2.464800 1.191900
2.492800 0.909700
2.520700 0.737400
2.548700 0.693700
2.576700 0.719700
2.604600 0.784700
2.632600 0.978500
2.660500 1.342400
2.688500 1.659900
2.716500 1.712400
2.744400 1.590500
2.772400 1.453400
2.800300 1.367200
2.828300 1.434100
2.856200 1.560800
2.884200 1.504400
2.912200 1.361900
2.940100 1.391100
2.968100 1.556900
2.996000 1.590000
3.024000 1.388200
3.052000 1.217600
3.079900 1.378400
3.107900 1.749700
3.135800 1.974000
3.163800 1.888500
3.191800 1.557300
3.219700 1.297200
3.247700 1.434500
3.275600 1.957500
3.303600 2.511100
3.331500 2.700200
3.359500 2.518400
3.387500 2.259200
3.415400 2.121900
3.443400 2.080200
3.471300 1.944400
3.499300 1.612300
3.527300 1.294000
3.555200 1.177600
3.583200 1.149900
3.611100 1.046600
3.639100 0.881300
3.667100 0.723700
3.695000 0.534200
3.723000 0.343700
3.750900 0.313400
3.778900 0.481100
3.806800 0.689800
3.834800 0.772300
3.862800 0.728200
3.890700 0.654200
3.918700 0.542600
3.946600 0.382800
3.974600 0.283500
4.002600 0.295300
4.030500 0.367600
4.058500 0.478300
4.086400 0.580400
4.114400 0.607000
4.142400 0.662300
4.170300 0.783900
4.198300 0.761300
4.226200 0.545800
4.254200 0.365800
4.282100 0.377600
4.310100 0.479000
4.338100 0.500000
4.366000 0.471800
4.394000 0.485700
4.421900 0.457200
4.449900 0.332400
4.477900 0.275000
4.505800 0.460700
4.533800 0.836000
4.561700 1.157800
4.589700 1.211700
4.617700 1.041600
4.645600 0.911200
4.673600 0.961800
4.701500 1.162600
4.729500 1.464300
4.757400 1.713500
4.785400 1.713300
4.813400 1.559600
4.841300 1.475700
4.869300 1.398500
4.897200 1.204200
4.925200 1.057800
4.953200 1.195000
4.981100 1.563000
5.009100 1.831500
5.037000 1.760500
5.065000 1.593700
5.093000 1.625100
5.120900 1.743100
5.148900 1.680500
5.176800 1.439000
5.204800 1.300500
5.232700 1.292300
5.260700 1.250700
5.288700 1.259400
5.316600 1.350200
5.344600 1.330600
5.372500 1.045400
5.400500 0.575000
5.428500 0.214300
5.456400 0.129600
5.484400 0.290900
5.512300 0.565800
5.540300 0.743000
5.568300 0.741100
5.596200 0.645500
5.624200 0.503600
5.652100 0.377100
5.680100 0.380500
5.708000 0.501700
5.736000 0.616000
5.764000 0.634000
5.791900 0.546400
5.819900 0.430800
5.847800 0.366000
5.875800 0.385900
5.903800 0.488900
5.931700 0.559400
5.959700 0.519000
5.987600 0.470100
6.015600 0.439300
6.043600 0.343100
6.071500 0.264800
6.099500 0.299400
6.127400 0.341600
6.155400 0.303100
6.183300 0.279600
6.211300 0.404600
6.239300 0.582200
6.267200 0.542300
6.295200 0.297400
6.323100 0.106300
6.351100 0.078100
6.379100 0.168600
6.407000 0.308400
6.435000 0.477100
6.462900 0.665700
6.490900 0.812600
6.518900 0.985500
6.546800 1.298100
6.574800 1.673600
6.602700 1.889000
6.630700 1.751300
6.658600 1.358100
6.686600 0.984100
6.714600 0.782100
6.742500 0.725400
6.770500 0.754300
6.798400 0.897400
6.826400 1.084300
6.854400 1.146500
6.882300 0.988900
6.910300 0.631000
6.938200 0.290800
6.966200 0.174200
6.994200 0.239700
7.022100 0.353600
7.050100 0.494800
7.078000 0.681800
7.106000 0.860500
7.134000 0.954800
7.161900 1.001000
7.189900 1.034700
7.217800 0.888200
7.245800 0.581300
7.273700 0.428300
7.301700 0.532400
7.329700 0.706400
7.357600 0.754400
7.385600 0.661300
7.413500 0.606700
7.441500 0.789000
7.469500 1.161400
7.497400 1.421700
7.525400 1.368200
7.553300 1.085800
7.581300 0.779400
7.609300 0.636600
7.637200 0.715600
7.665200 0.943100
7.693100 1.155200
7.721100 1.160300
7.749000 1.012300
7.777000 0.899200
7.805000 0.811400
7.832900 0.731000
7.860900 0.700400
7.888800 0.743400
7.916800 0.952200
7.944800 1.294400
7.972700 1.515800
8.000700 1.427900
8.028600 1.093800
8.056600 0.746200
8.084600 0.565700
8.112500 0.577300
8.140500 0.674100
8.168400 0.678100
8.196400 0.552800
8.224300 0.521500
8.252300 0.752500
8.280300 1.084400
8.308200 1.234900
8.336200 1.155300
8.364100 0.961600
8.392100 0.731900
8.420100 0.620700
8.448000 0.755600
8.476000 0.994900
8.503900 1.115900
8.531900 1.040500
8.559900 0.916500
8.587800 0.989600
8.615800 1.246800
8.643700 1.438400
8.671700 1.438500
8.699600 1.309200
8.727600 1.211900
8.755600 1.177000
8.783500 1.022400
8.811500 0.882700
8.839400 1.088900
8.867400 1.460500
8.895400 1.590400
8.923300 1.411700
8.951300 1.089300
8.979200 0.777600
9.007200 0.632600
9.035200 0.775300
9.063100 1.078600
9.091100 1.238300
9.119000 1.215200
9.147000 1.315500
9.174900 1.638700
9.202900 2.038300
9.230900 2.380600
9.258800 2.487100
9.286800 2.289400
9.314700 1.846500
9.342700 1.394700
9.370700 1.233400
9.398600 1.276600
9.426600 1.283200
9.454500 1.220600
9.482500 1.135500
9.510500 1.068200
9.538400 0.984500
9.566400 0.889500
9.594300 0.998000
9.622300 1.425500
9.650200 1.910900
9.678200 2.137400
9.706200 2.155200
9.734100 2.055000
9.762100 1.748800
9.790000 1.344200
9.818000 1.108700
9.846000 1.170500
9.873900 1.420600
9.901900 1.531300
9.929800 1.337100
9.957800 1.160500
9.985800 1.254600
10.013700 1.384800
10.041700 1.316200
10.069600 1.297700
10.097600 1.583200
10.125500 1.981400
10.153500 2.215900
10.181500 2.161800
10.209400 1.991900
10.237400 1.909200
10.265300 1.761600
10.293300 1.476200
10.321300 1.284300
10.349200 1.355500
10.377200 1.610400
10.405100 1.850200
10.433100 2.045800
10.461100 2.172300
10.489000 2.057400
10.517000 1.705100
10.544900 1.334600
10.572900 1.099000
10.600800 0.950600
10.628800 0.873400
10.656800 0.941500
10.684700 1.137400
10.712700 1.290400
10.740600 1.202600
10.768600 0.953300
10.796600 0.766000
10.824500 0.669700
10.852500 0.611900
10.880400 0.642900
10.908400 0.818600
10.936400 1.028700
10.964300 1.015700
10.992300 0.733800
11.020200 0.515800
11.048200 0.545200
11.076100 0.624000
11.104100 0.573700
11.132100 0.494500
11.160000 0.576900
11.188000 0.848100
11.215900 1.093800
11.243900 1.090200
11.271900 0.938500
11.299800 0.795000
11.327800 0.648300
11.355700 0.638500
11.383700 0.946000
11.411700 1.333200
11.439600 1.341000
11.467600 0.961400
11.495500 0.586600
11.523500 0.448700
11.551400 0.484000
11.579400 0.526100
11.607400 0.598000
11.635300 0.799100
11.663300 0.923200
11.691200 0.836300
11.719200 0.821200
11.747200 1.062500
11.775100 1.309500
11.803100 1.240300
11.831000 0.930000
11.859000 0.681000
11.887000 0.603000
11.914900 0.659500
11.942900 0.835800
11.970800 1.047600
11.998800 1.223300
12.026700 1.407700
12.054700 1.632300
12.082700 1.862800
12.110600 1.869100
12.138600 1.457400
12.166500 0.926000
12.194500 0.741900
12.222500 0.884100
12.250400 1.061900
12.278400 1.198900
12.306300 1.271700
12.334300 1.254000
12.362300 1.215000
12.390200 1.143400
12.418200 1.072000
12.446100 1.193900
12.474100 1.569700
12.502000 1.957600
12.530000 2.069500
12.558000 1.835700
12.585900 1.379800
12.613900 0.961700
12.641800 0.753300
12.669800 0.718500
12.697800 0.804600
12.725700 0.995900
12.753700 1.246500
12.781600 1.494200
12.809600 1.635700
12.837600 1.634700
12.865500 1.605400
12.893500 1.646400
12.921400 1.705200
12.949400 1.658000
12.977300 1.532000
13.005300 1.444800
13.033300 1.352800
13.061200 1.246300
13.089200 1.254300
13.117100 1.440500
13.145100 1.711600
13.173100 1.799100
13.201000 1.570400
13.229000 1.277900
13.256900 1.257200
13.284900 1.522400
13.312900 1.749900
13.340800 1.636100
13.368800 1.309400
13.396700 1.131000
13.424700 1.141300
13.452600 1.154600
13.480600 1.241700
13.508600 1.604800
13.536500 1.935500
13.564500 1.898800
13.592400 1.717500
13.620400 1.557600
13.648400 1.438300
13.676300 1.433500
13.704300 1.509100
13.732200 1.630000
13.760200 1.807100
13.788200 1.875100
13.816100 1.669100
13.844100 1.360000
13.872000 1.181800
13.900000 1.137100
13.927900 1.164800
13.955900 1.280600
13.983900 1.402000
14.011800 1.493300
14.039800 1.757700
14.067700 2.106300
14.095700 2.061800
14.123700 1.612700
14.151600 1.220100
14.179600 1.010100
14.207500 0.890400
14.235500 0.888600
14.263500 1.017300
14.291400 1.211000
14.319400 1.324300
14.347300 1.310900
14.375300 1.369100
14.403200 1.672600
14.431200 2.047700
14.459200 2.201500
14.487100 2.128600
14.515100 1.902700
14.543000 1.599800
14.571000 1.552100
14.599000 1.814000
14.626900 1.922800
14.654900 1.761300
14.682800 1.625900
14.710800 1.618600
14.738800 1.675400
14.766700 1.713000
14.794700 1.589100
14.822600 1.325700
14.850600 1.198100
14.878500 1.395200
14.906500 1.711200
14.934500 1.822900
14.962400 1.676400
14.990400 1.404500
15.018300 1.280800
15.046300 1.625300
15.074300 2.327200
15.102200 2.760100
15.130200 2.502200
15.158100 1.917600
15.186100 1.569200
15.214100 1.508200
15.242000 1.610100
15.270000 1.774700
15.297900 1.924000
15.325900 2.118000
15.353800 2.250600
15.381800 2.249200
15.409800 2.368200
15.437700 2.611300
15.465700 2.617300
15.493600 2.373500
15.521600 2.177300
15.549600 2.013700
15.577500 1.622700
15.605500 1.108300
15.633400 0.915000
15.661400 1.158700
15.689400 1.485900
15.717300 1.678600
15.745300 1.858300
15.773200 2.051600
15.801200 2.127200
15.829100 2.064200
15.857100 1.961600
15.885100 1.850800
15.913000 1.804100
15.941000 1.821100
15.968900 1.733200
15.996900 1.591600
16.024900 1.533500
16.052800 1.538400
16.080800 1.645200
16.108700 1.796400
16.136700 1.835900
16.164700 1.824000
16.192600 1.830500
16.220600 1.813700
16.248500 1.802600
16.276500 1.792500
16.304400 1.646000
16.332400 1.471500
16.360400 1.641500
16.388300 2.106600
16.416300 2.334200
16.444200 2.203300
16.472200 2.073300
16.500200 1.972500
16.528100 1.735100
16.556100 1.485400
16.584000 1.416500
16.612000 1.505500
16.640000 1.621100
16.667900 1.662500
16.695900 1.669100
16.723800 1.776800
16.751800 1.979200
16.779700 2.120000
16.807700 2.096800
16.835700 1.964800
16.863600 1.851700
16.891600 1.823900
16.919500 1.821400
16.947500 1.797000
16.975500 1.888700
17.003400 2.243400
17.031400 2.651400
17.059300 2.750800
17.087300 2.507000
17.115300 2.105800
17.143200 1.618800
17.171200 1.166800
17.199100 0.944300
17.227100 0.957500
17.255000 1.083400
17.283000 1.275200
17.311000 1.528000
17.338900 1.690100
17.366900 1.683500
17.394800 1.703100
17.422800 1.810500
17.450800 1.819200
17.478700 1.676400
17.506700 1.550700
17.534600 1.639200
17.562600 2.079700
17.590600 2.631300
17.618500 2.653500
17.646500 2.131500
17.674400 1.662900
17.702400 1.399100
17.730300 1.234700
17.758300 1.304300
17.786300 1.853100
17.814200 2.677800
17.842200 3.098600
17.870100 2.887200
17.898100 2.462900
17.926100 2.184800
17.954000 2.089800
17.982000 2.128600
18.009900 2.106400
18.037900 1.912100
18.065900 1.839400
18.093800 2.063700
18.121800 2.288700
18.149700 2.117400
18.177700 1.591600
18.205600 1.106600
18.233600 0.865800
18.261600 0.885400
18.289500 1.160400
18.317500 1.523700
18.345400 1.675100
18.373400 1.570500
18.401400 1.533500
18.429300 1.776300
18.457300 2.012000
18.485200 1.927800
18.513200 1.740600
18.541200 1.774500
18.569100 1.999400
18.597100 2.215900
18.625000 2.364000
18.653000 2.385000
18.680900 2.168800
18.708900 1.803400
18.736900 1.484300
18.764800 1.411100
18.792800 1.644200
18.820700 1.882900
18.848700 1.759600
