set title 'mp-1060884 - Density of States'
set xlabel 'Energy (eV)'
set ylabel 'DOS (states/eV)'
set grid
set xrange [-10:10]
set yrange [0:9.823]
set xzeroaxis lt -1
set terminal png size 800,600
set output 'mp-1060884_dos_gnuplot.png'
plot '-' using 1:2 with lines title 'DOS'
-41.415100 0.000000
-41.356200 0.000000
-41.297300 0.000000
-41.238300 0.000000
-41.179400 0.000000
-41.120500 0.000000
-41.061500 0.000000
-41.002600 0.000000
-40.943700 0.000000
-40.884700 0.000000
-40.825800 0.000000
-40.766900 0.000000
-40.707900 0.000000
-40.649000 0.000000
-40.590100 0.000000
-40.531100 0.000000
-40.472200 0.000000
-40.413300 0.000000
-40.354300 0.000000
-40.295400 0.000000
-40.236500 0.000000
-40.177500 0.000000
-40.118600 0.000000
-40.059700 0.000000
-40.000700 0.000000
-39.941800 0.000000
-39.882900 0.000000
-39.823900 0.000000
-39.765000 0.000000
-39.706100 0.000000
-39.647100 0.000000
-39.588200 0.000000
-39.529300 0.000000
-39.470300 0.000000
-39.411400 0.000000
-39.352500 0.000000
-39.293500 0.000000
-39.234600 0.000000
-39.175700 0.000000
-39.116700 0.000000
-39.057800 0.000000
-38.998900 0.000000
-38.939900 0.000000
-38.881000 0.000000
-38.822100 0.000000
-38.763100 0.000000
-38.704200 0.000000
-38.645300 0.000000
-38.586300 0.000000
-38.527400 0.000000
-38.468500 0.000000
-38.409500 0.000000
-38.350600 0.000000
-38.291700 0.000000
-38.232700 0.000000
-38.173800 0.000000
-38.114900 0.000000
-38.055900 0.000000
-37.997000 0.000000
-37.938100 0.000000
-37.879100 0.000000
-37.820200 0.000000
-37.761300 0.000000
-37.702300 0.000000
-37.643400 0.000000
-37.584500 0.000000
-37.525500 0.000000
-37.466600 0.000000
-37.407700 0.000000
-37.348700 0.000000
-37.289800 0.000000
-37.230900 0.000000
-37.171900 0.000000
-37.113000 0.000000
-37.054100 0.000000
-36.995100 0.000000
-36.936200 0.000000
-36.877300 0.000000
-36.818300 0.000000
-36.759400 0.000000
-36.700500 0.000000
-36.641500 0.000000
-36.582600 0.000000
-36.523700 0.000000
-36.464700 0.000000
-36.405800 0.000000
-36.346900 0.000000
-36.287900 0.000000
-36.229000 0.000000
-36.170100 0.000000
-36.111200 0.000000
-36.052200 0.098100
-35.993300 0.459300
-35.934400 0.564700
-35.875400 0.539100
-35.816500 0.591100
-35.757600 0.622600
-35.698600 0.661600
-35.639700 0.709200
-35.580800 0.786300
-35.521800 0.862400
-35.462900 0.937900
-35.404000 1.138300
-35.345000 1.352800
-35.286100 1.607200
-35.227200 3.929500
-35.168200 2.289100
-35.109300 0.000000
-35.050400 0.000000
-34.991400 0.000000
-34.932500 0.000000
-34.873600 0.000000
-34.814600 0.000000
-34.755700 0.000000
-34.696800 0.000000
-34.637800 0.000000
-34.578900 0.000000
-34.520000 0.000000
-34.461000 0.000000
-34.402100 0.000000
-34.343200 0.000000
-34.284200 0.000000
-34.225300 0.000000
-34.166400 0.000000
-34.107400 0.000000
-34.048500 0.000000
-33.989600 0.000000
-33.930600 0.000000
-33.871700 0.000000
-33.812800 0.000000
-33.753800 0.000000
-33.694900 0.000000
-33.636000 0.000000
-33.577000 0.000000
-33.518100 0.000000
-33.459200 0.000000
-33.400200 0.000000
-33.341300 0.000000
-33.282400 0.000000
-33.223400 0.000000
-33.164500 0.000000
-33.105600 0.000000
-33.046600 0.000000
-32.987700 0.000000
-32.928800 0.000000
-32.869800 0.000000
-32.810900 0.000000
-32.752000 0.000000
-32.693000 0.000000
-32.634100 0.000000
-32.575200 0.000000
-32.516200 0.000000
-32.457300 0.000000
-32.398400 0.000000
-32.339400 0.000000
-32.280500 0.000000
-32.221600 0.000000
-32.162600 0.000000
-32.103700 0.000000
-32.044800 0.000000
-31.985800 0.000000
-31.926900 0.000000
-31.868000 0.000000
-31.809000 0.000000
-31.750100 0.000000
-31.691200 0.000000
-31.632200 0.000000
-31.573300 0.000000
-31.514400 0.000000
-31.455400 0.000000
-31.396500 0.000000
-31.337600 0.000000
-31.278600 0.000000
-31.219700 0.000000
-31.160800 0.000000
-31.101800 0.000000
-31.042900 0.000000
-30.984000 0.000000
-30.925000 0.000000
-30.866100 0.000000
-30.807200 0.000000
-30.748200 0.000000
-30.689300 0.000000
-30.630400 0.000000
-30.571400 0.000000
-30.512500 0.000000
-30.453600 0.000000
-30.394600 0.000000
-30.335700 0.000000
-30.276800 0.000000
-30.217800 0.000000
-30.158900 0.000000
-30.100000 0.000000
-30.041000 0.000000
-29.982100 0.000000
-29.923200 0.000000
-29.864200 0.000000
-29.805300 0.000000
-29.746400 0.000000
-29.687400 0.000000
-29.628500 0.000000
-29.569600 0.000000
-29.510600 0.000000
-29.451700 0.000000
-29.392800 0.000000
-29.333800 0.000000
-29.274900 0.000000
-29.216000 0.000000
-29.157000 0.000000
-29.098100 0.000000
-29.039200 0.000000
-28.980200 0.000000
-28.921300 0.000000
-28.862400 0.000000
-28.803400 0.000000
-28.744500 0.000000
-28.685600 0.000000
-28.626600 0.000000
-28.567700 0.000000
-28.508800 0.000000
-28.449800 0.000000
-28.390900 0.000000
-28.332000 0.000000
-28.273000 0.000000
-28.214100 0.000000
-28.155200 0.000000
-28.096200 0.000000
-28.037300 0.000000
-27.978400 0.000000
-27.919400 0.000000
-27.860500 0.000000
-27.801600 0.000000
-27.742600 0.000000
-27.683700 0.000000
-27.624800 0.000000
-27.565800 0.000000
-27.506900 0.000000
-27.448000 0.000000
-27.389100 0.000000
-27.330100 0.000000
-27.271200 0.000000
-27.212300 0.000000
-27.153300 0.000000
-27.094400 0.000000
-27.035500 0.000000
-26.976500 0.000000
-26.917600 0.000000
-26.858700 0.000000
-26.799700 0.000000
-26.740800 0.000000
-26.681900 0.000000
-26.622900 0.000000
-26.564000 0.000000
-26.505100 0.000000
-26.446100 0.000000
-26.387200 0.000000
-26.328300 0.000000
-26.269300 0.000000
-26.210400 0.000000
-26.151500 0.000000
-26.092500 0.000000
-26.033600 0.000000
-25.974700 0.000000
-25.915700 0.000000
-25.856800 0.000000
-25.797900 0.000000
-25.738900 0.000000
-25.680000 0.000000
-25.621100 0.000000
-25.562100 0.000000
-25.503200 0.000000
-25.444300 0.000000
-25.385300 0.000000
-25.326400 0.000000
-25.267500 0.000000
-25.208500 0.000000
-25.149600 0.000000
-25.090700 0.000000
-25.031700 0.000000
-24.972800 0.000000
-24.913900 0.000000
-24.854900 0.000000
-24.796000 0.000000
-24.737100 0.000000
-24.678100 0.000000
-24.619200 0.000000
-24.560300 0.000000
-24.501300 0.000000
-24.442400 0.000000
-24.383500 0.000000
-24.324500 0.000000
-24.265600 0.000000
-24.206700 0.000000
-24.147700 0.000000
-24.088800 0.000000
-24.029900 0.000000
-23.970900 0.000000
-23.912000 0.000000
-23.853100 0.000000
-23.794100 0.000000
-23.735200 0.000000
-23.676300 0.000000
-23.617300 0.000000
-23.558400 0.000000
-23.499500 0.000000
-23.440500 0.000000
-23.381600 0.000000
-23.322700 0.000000
-23.263700 0.000000
-23.204800 0.000000
-23.145900 0.000000
-23.086900 0.000000
-23.028000 0.000000
-22.969100 0.000000
-22.910100 0.000000
-22.851200 0.000000
-22.792300 0.000000
-22.733300 0.000000
-22.674400 0.000000
-22.615500 0.000000
-22.556500 0.000000
-22.497600 0.000000
-22.438700 0.000000
-22.379700 0.000000
-22.320800 0.000000
-22.261900 0.000000
-22.202900 0.000000
-22.144000 0.000000
-22.085100 0.000000
-22.026100 0.000000
-21.967200 0.000000
-21.908300 0.000000
-21.849300 0.000000
-21.790400 0.000000
-21.731500 0.000000
-21.672500 0.000000
-21.613600 0.000000
-21.554700 0.000000
-21.495700 0.000000
-21.436800 0.000000
-21.377900 0.000000
-21.318900 0.000000
-21.260000 0.000000
-21.201100 0.000000
-21.142100 0.000000
-21.083200 0.000000
-21.024300 0.000000
-20.965300 0.000000
-20.906400 0.000000
-20.847500 0.000000
-20.788500 0.000000
-20.729600 0.000000
-20.670700 0.000000
-20.611700 0.000000
-20.552800 0.000000
-20.493900 0.000000
-20.434900 0.000000
-20.376000 0.000000
-20.317100 0.000000
-20.258100 0.000000
-20.199200 0.000000
-20.140300 0.000000
-20.081300 0.000000
-20.022400 0.000000
-19.963500 0.000000
-19.904500 0.000000
-19.845600 0.000000
-19.786700 0.000000
-19.727700 0.000000
-19.668800 0.000000
-19.609900 0.000000
-19.550900 0.000000
-19.492000 0.000000
-19.433100 0.000000
-19.374100 0.000000
-19.315200 0.000000
-19.256300 0.000000
-19.197300 0.000000
-19.138400 0.000000
-19.079500 0.000000
-19.020500 0.000000
-18.961600 0.000000
-18.902700 0.000000
-18.843700 0.000000
-18.784800 0.000000
-18.725900 0.000000
-18.666900 0.000000
-18.608000 0.000000
-18.549100 0.000000
-18.490200 0.000000
-18.431200 0.000000
-18.372300 0.000000
-18.313400 0.000000
-18.254400 0.000000
-18.195500 0.000000
-18.136600 0.000000
-18.077600 0.000000
-18.018700 0.000000
-17.959800 0.000000
-17.900800 0.000000
-17.841900 0.000000
-17.783000 0.000000
-17.724000 0.000000
-17.665100 0.000000
-17.606200 0.000000
-17.547200 0.000000
-17.488300 0.000000
-17.429400 0.000000
-17.370400 0.000000
-17.311500 0.000000
-17.252600 0.000000
-17.193600 0.000000
-17.134700 0.000000
-17.075800 0.000000
-17.016800 0.000000
-16.957900 0.000000
-16.899000 0.000000
-16.840000 0.000000
-16.781100 0.000000
-16.722200 0.000000
-16.663200 0.000000
-16.604300 0.000000
-16.545400 0.000000
-16.486400 0.000000
-16.427500 0.000000
-16.368600 0.000000
-16.309600 0.000000
-16.250700 0.000000
-16.191800 0.000000
-16.132800 0.000000
-16.073900 0.000000
-16.015000 0.000000
-15.956000 0.000000
-15.897100 0.000000
-15.838200 0.000000
-15.779200 0.000000
-15.720300 0.000000
-15.661400 0.000000
-15.602400 0.000000
-15.543500 0.000000
-15.484600 0.000000
-15.425600 0.000000
-15.366700 0.000000
-15.307800 0.000000
-15.248800 0.000000
-15.189900 0.000000
-15.131000 0.000000
-15.072000 0.000000
-15.013100 0.000000
-14.954200 0.000000
-14.895200 0.000000
-14.836300 0.000000
-14.777400 0.000000
-14.718400 0.000000
-14.659500 0.000000
-14.600600 0.000000
-14.541600 0.000000
-14.482700 0.000000
-14.423800 0.000000
-14.364800 0.000000
-14.305900 0.000000
-14.247000 0.000000
-14.188000 0.000000
-14.129100 0.000000
-14.070200 0.000000
-14.011200 0.000000
-13.952300 0.834900
-13.893400 0.335200
-13.834400 0.388300
-13.775500 0.441400
-13.716600 0.494500
-13.657600 0.425200
-13.598700 0.444300
-13.539800 0.463400
-13.480800 0.482500
-13.421900 0.505500
-13.363000 0.530600
-13.304000 0.564700
-13.245100 0.895600
-13.186200 0.766000
-13.127200 0.636400
-13.068300 0.506800
-13.009400 0.401500
-12.950400 0.268000
-12.891500 0.259600
-12.832600 0.251200
-12.773600 0.242900
-12.714700 0.234500
-12.655800 0.226100
-12.596800 0.217700
-12.537900 0.173300
-12.479000 0.170700
-12.420000 0.168100
-12.361100 0.165600
-12.302200 0.163000
-12.243200 0.160400
-12.184300 0.222500
-12.125400 0.225800
-12.066400 0.229100
-12.007500 0.232400
-11.948600 0.238800
-11.889600 0.256500
-11.830700 0.274300
-11.771800 0.335800
-11.712800 0.720500
-11.653900 0.675700
-11.595000 0.733400
-11.536000 0.713700
-11.477100 0.746700
-11.418200 0.782700
-11.359200 0.477300
-11.300300 0.231400
-11.241400 0.202900
-11.182400 0.362300
-11.123500 0.683500
-11.064600 1.054900
-11.005600 1.056300
-10.946700 1.064300
-10.887800 1.076100
-10.828800 1.357900
-10.769900 1.206300
-10.711000 1.345300
-10.652000 1.711000
-10.593100 1.336400
-10.534200 0.770600
-10.475200 1.983400
-10.416300 1.405700
-10.357400 0.427300
-10.298400 0.431100
-10.239500 0.434800
-10.180600 0.438600
-10.121600 0.442300
-10.062700 0.446100
-10.003800 0.506300
-9.944800 0.591100
-9.885900 0.632200
-9.827000 0.673100
-9.768100 0.714000
-9.709100 0.607100
-9.650200 0.540300
-9.591300 0.473400
-9.532300 0.443700
-9.473400 0.420400
-9.414500 0.413700
-9.355500 0.407400
-9.296600 0.395800
-9.237700 0.377800
-9.178700 0.359700
-9.119800 0.341600
-9.060900 0.323600
-9.001900 0.305500
-8.943000 0.313000
-8.884100 0.337100
-8.825100 0.317900
-8.766200 0.298800
-8.707300 0.305000
-8.648300 0.277700
-8.589400 0.300000
-8.530500 0.299100
-8.471500 0.260300
-8.412600 0.221400
-8.353700 0.345200
-8.294700 0.108200
-8.235800 0.000000
-8.176900 0.000000
-8.117900 0.000000
-8.059000 0.000000
-8.000100 0.000000
-7.941100 0.000000
-7.882200 0.000000
-7.823300 0.000000
-7.764300 0.000000
-7.705400 0.000000
-7.646500 0.000000
-7.587500 0.000000
-7.528600 0.000000
-7.469700 0.000000
-7.410700 0.000000
-7.351800 0.000000
-7.292900 0.000000
-7.233900 0.000000
-7.175000 0.000000
-7.116100 0.000000
-7.057100 0.000000
-6.998200 0.000000
-6.939300 0.000000
-6.880300 0.000000
-6.821400 0.000000
-6.762500 0.000000
-6.703500 0.000000
-6.644600 0.000000
-6.585700 0.000000
-6.526700 0.000000
-6.467800 0.000000
-6.408900 0.000000
-6.349900 0.000000
-6.291000 0.000000
-6.232100 0.000000
-6.173100 0.000000
-6.114200 0.000000
-6.055300 0.000000
-5.996300 0.000000
-5.937400 0.000000
-5.878500 0.000000
-5.819500 0.000000
-5.760600 0.000000
-5.701700 0.000000
-5.642700 0.000000
-5.583800 0.000000
-5.524900 0.000000
-5.465900 0.000000
-5.407000 0.000000
-5.348100 0.000000
-5.289100 0.000000
-5.230200 0.000000
-5.171300 0.000000
-5.112300 0.000000
-5.053400 0.000000
-4.994500 0.000000
-4.935500 0.000000
-4.876600 0.000000
-4.817700 0.000000
-4.758700 0.000000
-4.699800 0.000000
-4.640900 0.000000
-4.581900 0.000000
-4.523000 0.000000
-4.464100 0.000000
-4.405100 0.000000
-4.346200 0.000000
-4.287300 0.000000
-4.228300 0.000000
-4.169400 0.000000
-4.110500 0.000000
-4.051500 0.000000
-3.992600 0.000000
-3.933700 0.000000
-3.874700 0.000000
-3.815800 0.000000
-3.756900 0.000000
-3.697900 0.000000
-3.639000 0.000000
-3.580100 0.000000
-3.521100 0.000000
-3.462200 0.000000
-3.403300 0.000000
-3.344300 0.000000
-3.285400 0.000000
-3.226500 0.000000
-3.167500 0.000000
-3.108600 0.000000
-3.049700 0.000000
-2.990700 0.000000
-2.931800 0.000000
-2.872900 0.000000
-2.813900 0.000000
-2.755000 0.000000
-2.696100 0.000000
-2.637100 0.000000
-2.578200 0.000000
-2.519300 0.000000
-2.460300 0.748200
-2.401400 1.362300
-2.342500 1.158400
-2.283500 1.405800
-2.224600 1.739100
-2.165700 1.947900
-2.106700 2.895100
-2.047800 2.331900
-1.988900 1.594000
-1.929900 1.822100
-1.871000 2.199000
-1.812100 2.664200
-1.753100 5.521300
-1.694200 4.004400
-1.635300 2.078800
-1.576300 1.789200
-1.517400 2.382700
-1.458500 3.528100
-1.399500 3.332000
-1.340600 3.160000
-1.281700 4.598000
-1.222700 5.220900
-1.163800 8.929700
-1.104900 2.967100
-1.046000 4.000400
-0.987000 2.314500
-0.928100 2.422300
-0.869200 1.284800
-0.810200 1.093000
-0.751300 0.917300
-0.692400 0.871800
-0.633400 0.583200
-0.574500 0.000000
-0.515600 0.000000
-0.456600 0.000000
-0.397700 0.000000
-0.338800 0.000000
-0.279800 0.000000
-0.220900 0.000000
-0.162000 0.000000
-0.103000 0.000000
-0.044100 0.000000
0.014800 0.000000
0.073800 0.000000
0.132700 0.005200
0.191600 0.027500
0.250600 0.045500
0.309500 0.052100
0.368400 0.061100
0.427400 0.071000
0.486300 0.080500
0.545200 0.089400
0.604200 0.095300
0.663100 0.100400
0.722000 0.107100
0.781000 0.114500
0.839900 0.123500
0.898800 0.135100
0.957800 0.147300
1.016700 0.173300
1.075600 0.170200
1.134600 0.167700
1.193500 0.168500
1.252400 0.167300
1.311400 0.163300
1.370300 0.158500
1.429200 0.158300
1.488200 0.158800
1.547100 0.159300
1.606000 0.159500
1.665000 0.159300
1.723900 0.158000
1.782800 0.155800
1.841800 0.155900
1.900700 0.155100
1.959600 0.153800
2.018600 0.153300
2.077500 0.153200
2.136400 0.153100
2.195400 0.153000
2.254300 0.152700
2.313200 0.152200
2.372200 0.151200
2.431100 0.149500
2.490000 0.148400
2.549000 0.148800
2.607900 0.149400
2.666800 0.150100
2.725800 0.150900
2.784700 0.151800
2.843600 0.152900
2.902600 0.154200
2.961500 0.154700
3.020400 0.154900
3.079400 0.155100
3.138300 0.155200
3.197200 0.155200
3.256200 0.155300
3.315100 0.155300
3.374000 0.155900
3.433000 0.156800
3.491900 0.157900
3.550800 0.159500
3.609800 0.161000
3.668700 0.162600
3.727600 0.164200
3.786600 0.166500
3.845500 0.171500
3.904400 0.177900
3.963400 0.185600
4.022300 0.194000
4.081200 0.202300
4.140200 0.207700
4.199100 0.213500
4.258000 0.220200
4.317000 0.230000
4.375900 0.244600
4.434800 0.257900
4.493800 0.271200
4.552700 0.293500
4.611600 0.398800
4.670600 0.418800
4.729500 0.394400
4.788400 0.370700
4.847400 0.434000
4.906300 0.490700
4.965200 0.573200
5.024200 0.669900
5.083100 0.773900
5.142000 0.844200
5.201000 0.882100
5.259900 0.913600
5.318800 0.947400
5.377800 0.923900
5.436700 0.843300
5.495600 0.809800
5.554600 0.815800
5.613500 0.841300
5.672400 0.863800
5.731400 0.962600
5.790300 1.093600
5.849200 1.187000
5.908200 1.517400
5.967100 0.976400
6.026000 0.814500
6.085000 0.886900
6.143900 1.075100
6.202800 1.191700
6.261800 1.398300
6.320700 1.233600
6.379600 1.375400
6.438600 1.435500
6.497500 1.731200
6.556400 1.532200
6.615400 1.372100
6.674300 1.195300
6.733200 1.111500
6.792200 1.119600
6.851100 1.018200
6.910000 0.982200
6.969000 1.028800
7.027900 0.991200
7.086800 1.875000
7.145800 2.366400
7.204700 3.673800
7.263600 2.779800
7.322600 2.060700
7.381500 5.464700
7.440400 2.691400
7.499400 2.513500
7.558300 2.418200
7.617200 2.490900
7.676200 2.947000
7.735100 3.464200
7.794000 4.938300
7.852900 3.117600
7.911900 2.265600
7.970800 1.887500
8.029700 0.900600
8.088700 0.620700
8.147600 0.213300
8.206500 0.612800
8.265500 1.956000
8.324400 2.938800
8.383300 1.990100
8.442300 1.188500
8.501200 1.943100
8.560100 2.727700
8.619100 2.664300
8.678000 3.124500
8.736900 2.085200
8.795900 2.245700
8.854800 1.920700
8.913700 3.414300
8.972700 4.012600
9.031600 4.305900
9.090500 3.228200
9.149500 2.558300
9.208400 2.831200
9.267300 3.338500
9.326300 2.419500
9.385200 2.211300
9.444100 2.189900
9.503100 2.104800
9.562000 1.671200
9.620900 1.392800
9.679900 1.250600
9.738800 1.187200
9.797700 1.502000
9.856700 1.515200
9.915600 1.005100
9.974500 0.898700
10.033500 0.842500
10.092400 0.818900
10.151300 0.833900
10.210300 0.901500
10.269200 0.957200
10.328100 0.957700
10.387100 0.910400
10.446000 0.855100
10.504900 0.821900
10.563900 0.727000
10.622800 0.578300
10.681700 0.577800
10.740700 0.594000
10.799600 0.777700
10.858500 0.978600
10.917500 1.132200
10.976400 1.205800
11.035300 1.251100
11.094300 1.045800
11.153200 0.764400
11.212100 0.762300
11.271100 0.783100
11.330000 0.824700
11.388900 0.781200
11.447900 0.742100
11.506800 0.762500
11.565700 0.820400
11.624700 0.841700
11.683600 0.817000
11.742500 0.796200
11.801500 0.772000
11.860400 0.745500
11.919300 0.761600
11.978300 0.777300
12.037200 0.805000
12.096100 0.815000
12.155100 0.811900
12.214000 0.810400
12.272900 0.816200
12.331900 0.791100
12.390800 0.785400
12.449700 0.762700
12.508700 0.711100
12.567600 0.650300
12.626500 0.592700
12.685500 0.566500
12.744400 0.547400
12.803300 0.544900
12.862300 0.558200
12.921200 0.560500
12.980100 0.575500
13.039100 0.611300
13.098000 0.682700
13.156900 0.695400
13.215900 0.782900
13.274800 0.776800
13.333700 0.766800
13.392700 0.743500
13.451600 0.735100
13.510500 0.693000
13.569500 0.644300
13.628400 0.620600
13.687300 0.687300
13.746300 0.831100
13.805200 0.893900
13.864100 0.874600
13.923100 0.876400
13.982000 0.830900
14.040900 0.836200
14.099900 0.826000
14.158800 0.824800
14.217700 0.802900
14.276700 0.798000
14.335600 0.768100
14.394500 0.777400
14.453500 0.727500
14.512400 0.727000
14.571300 0.729700
14.630300 0.755600
14.689200 0.739100
14.748100 0.666700
14.807100 0.622300
14.866000 0.586100
14.924900 0.549100
14.983900 0.537600
15.042800 0.592600
15.101700 0.666500
15.160700 0.767900
15.219600 0.832200
15.278500 0.850500
15.337500 0.834500
15.396400 0.756700
15.455300 0.724800
15.514300 0.681400
15.573200 0.668800
15.632100 0.657900
15.691100 0.618100
15.750000 0.615500
15.808900 0.604400
15.867900 0.601600
15.926800 0.593500
15.985700 0.588300
16.044700 0.587300
16.103600 0.599600
16.162500 0.603700
16.221500 0.663700
16.280400 0.639700
16.339300 0.579100
16.398300 0.518800
16.457200 0.484900
16.516100 0.489500
16.575000 0.486600
16.634000 0.490300
16.692900 0.500600
16.751800 0.500700
16.810800 0.493700
16.869700 0.489400
16.928600 0.491400
16.987600 0.510500
17.046500 0.525000
17.105400 0.550500
17.164400 0.585300
17.223300 0.589000
17.282200 0.574000
17.341200 0.542800
17.400100 0.504300
17.459000 0.482400
17.518000 0.463700
17.576900 0.459900
17.635800 0.461800
17.694800 0.463500
17.753700 0.465100
17.812600 0.467200
17.871600 0.470600
17.930500 0.512500
17.989400 0.600800
18.048400 0.580000
18.107300 0.581600
18.166200 0.591300
18.225200 0.629200
18.284100 0.631400
18.343000 0.665300
18.402000 0.697200
18.460900 0.681100
18.519800 0.652000
