set title 'mp-568619 - Density of States'
set xlabel 'Energy (eV)'
set ylabel 'DOS (states/eV)'
set grid
set xrange [-10:10]
set yrange [0:7.783]
set xzeroaxis lt -1
set terminal png size 800,600
set output 'mp-568619_dos_gnuplot.png'
plot '-' using 1:2 with lines title 'DOS'
-8.969500 0.000000
-8.951700 0.000000
-8.933800 0.000000
-8.916000 0.000000
-8.898200 0.000000
-8.880300 0.000000
-8.862500 0.000000
-8.844700 0.000000
-8.826900 0.000000
-8.809000 0.000000
-8.791200 0.000000
-8.773400 0.000000
-8.755500 0.000000
-8.737700 0.000000
-8.719900 0.000000
-8.702000 0.000000
-8.684200 0.000000
-8.666400 0.000000
-8.648600 0.000000
-8.630700 0.000000
-8.612900 0.000000
-8.595100 0.000000
-8.577200 0.000000
-8.559400 0.000000
-8.541600 0.000000
-8.523800 0.000000
-8.505900 0.000000
-8.488100 0.000000
-8.470300 0.000000
-8.452400 0.000000
-8.434600 0.000000
-8.416800 0.000000
-8.398900 0.000000
-8.381100 0.000000
-8.363300 0.000000
-8.345500 0.000000
-8.327600 0.000000
-8.309800 0.000000
-8.292000 0.000000
-8.274100 0.000000
-8.256300 0.000000
-8.238500 0.000000
-8.220600 0.000000
-8.202800 0.000000
-8.185000 0.000000
-8.167200 0.000000
-8.149300 0.000000
-8.131500 0.000000
-8.113700 0.000000
-8.095800 0.000000
-8.078000 0.000000
-8.060200 0.000000
-8.042400 0.000000
-8.024500 0.000000
-8.006700 0.000000
-7.988900 0.000000
-7.971000 0.000000
-7.953200 0.000000
-7.935400 0.000000
-7.917500 0.000000
-7.899700 0.000000
-7.881900 0.000000
-7.864100 0.000000
-7.846200 0.000000
-7.828400 0.000000
-7.810600 0.000000
-7.792700 0.000000
-7.774900 0.000000
-7.757100 0.000000
-7.739200 0.000000
-7.721400 0.000000
-7.703600 0.000000
-7.685800 0.000000
-7.667900 0.000000
-7.650100 0.000000
-7.632300 0.000000
-7.614400 0.000000
-7.596600 0.000000
-7.578800 0.000000
-7.561000 0.000000
-7.543100 0.000000
-7.525300 0.000000
-7.507500 0.000000
-7.489600 0.000000
-7.471800 0.000000
-7.454000 0.000000
-7.436100 0.000000
-7.418300 0.000000
-7.400500 0.000000
-7.382700 0.000000
-7.364800 0.000000
-7.347000 0.000000
-7.329200 0.003900
-7.311300 0.014300
-7.293500 0.031300
-7.275700 0.054900
-7.257900 0.085000
-7.240000 0.121600
-7.222200 0.164900
-7.204400 0.214700
-7.186500 0.271000
-7.168700 0.330300
-7.150900 0.389900
-7.133000 0.440800
-7.115200 0.457200
-7.097400 0.468800
-7.079600 0.476400
-7.061700 0.479900
-7.043900 0.479300
-7.026100 0.474600
-7.008200 0.465900
-6.990400 0.453000
-6.972600 0.446800
-6.954700 0.469400
-6.936900 0.494000
-6.919100 0.520600
-6.901300 0.544500
-6.883400 0.561900
-6.865600 0.579500
-6.847800 0.597200
-6.829900 0.615100
-6.812100 0.633200
-6.794300 0.651400
-6.776500 0.669900
-6.758600 0.688500
-6.740800 0.707300
-6.723000 0.726300
-6.705100 0.745100
-6.687300 0.762900
-6.669500 0.779600
-6.651600 0.795400
-6.633800 0.810100
-6.616000 0.823700
-6.598200 0.836400
-6.580300 0.847800
-6.562500 0.856900
-6.544700 0.864700
-6.526800 0.871800
-6.509000 0.878100
-6.491200 0.884500
-6.473300 0.890800
-6.455500 0.897200
-6.437700 0.903400
-6.419900 0.909600
-6.402000 0.915800
-6.384200 0.921900
-6.366400 0.935900
-6.348500 0.947800
-6.330700 0.959600
-6.312900 0.971000
-6.295100 0.982200
-6.277200 0.993100
-6.259400 1.004000
-6.241600 1.014900
-6.223700 1.025800
-6.205900 1.036700
-6.188100 1.047500
-6.170200 1.058400
-6.152400 1.069300
-6.134600 1.080100
-6.116800 1.091000
-6.098900 1.101800
-6.081100 1.112700
-6.063300 1.123500
-6.045400 1.134400
-6.027600 1.145200
-6.009800 1.156000
-5.992000 1.166900
-5.974100 1.177700
-5.956300 1.188600
-5.938500 1.199900
-5.920600 1.211300
-5.902800 1.222500
-5.885000 1.230900
-5.867100 1.239400
-5.849300 1.247800
-5.831500 1.256300
-5.813700 1.264900
-5.795800 1.273400
-5.778000 1.282000
-5.760200 1.290500
-5.742300 1.301400
-5.724500 1.313100
-5.706700 1.324900
-5.688800 1.336700
-5.671000 1.347800
-5.653200 1.357800
-5.635400 1.367500
-5.617500 1.376900
-5.599700 1.386100
-5.581900 1.395000
-5.564000 1.403700
-5.546200 1.412200
-5.528400 1.420400
-5.510600 1.428400
-5.492700 1.436300
-5.474900 1.444300
-5.457100 1.457200
-5.439200 1.467000
-5.421400 1.476900
-5.403600 1.487000
-5.385700 1.497200
-5.367900 1.507500
-5.350100 1.517800
-5.332300 1.528000
-5.314400 1.538300
-5.296600 1.548400
-5.278800 1.558600
-5.260900 1.568800
-5.243100 1.579000
-5.225300 1.589300
-5.207400 1.599500
-5.189600 1.609800
-5.171800 1.620900
-5.154000 1.632600
-5.136100 1.644500
-5.118300 1.656300
-5.100500 1.668200
-5.082600 1.680100
-5.064800 1.692100
-5.047000 1.704300
-5.029200 1.716600
-5.011300 1.729000
-4.993500 1.741500
-4.975700 1.754200
-4.957800 1.766900
-4.940000 1.779800
-4.922200 1.792700
-4.904300 1.805800
-4.886500 1.818900
-4.868700 1.832000
-4.850900 1.845100
-4.833000 1.858200
-4.815200 1.871400
-4.797400 1.884600
-4.779500 1.897800
-4.761700 1.911500
-4.743900 1.925800
-4.726100 1.940900
-4.708200 1.956800
-4.690400 1.973300
-4.672600 1.990600
-4.654700 2.008700
-4.636900 2.027200
-4.619100 2.045900
-4.601200 2.064600
-4.583400 2.083400
-4.565600 2.102200
-4.547800 2.120000
-4.529900 2.137000
-4.512100 2.153200
-4.494300 2.170300
-4.476400 2.188300
-4.458600 2.207400
-4.440800 2.227500
-4.422900 2.248500
-4.405100 2.270600
-4.387300 2.293700
-4.369500 2.323000
-4.351600 2.355600
-4.333800 2.390800
-4.316000 2.420200
-4.298100 2.519700
-4.280300 2.616400
-4.262500 2.707900
-4.244700 2.794300
-4.226800 2.808200
-4.209000 2.810800
-4.191200 2.813800
-4.173300 2.817200
-4.155500 2.821000
-4.137700 2.825800
-4.119800 2.831600
-4.102000 2.838600
-4.084200 2.846600
-4.066400 2.867600
-4.048500 2.901200
-4.030700 2.933300
-4.012900 2.964000
-3.995000 2.992900
-3.977200 3.020000
-3.959400 3.045300
-3.941500 3.068800
-3.923700 3.090400
-3.905900 3.110100
-3.888100 3.127800
-3.870200 3.143700
-3.852400 3.127400
-3.834600 3.107100
-3.816700 3.298000
-3.798900 4.103400
-3.781100 4.009100
-3.763300 3.775100
-3.745400 3.494200
-3.727600 3.166400
-3.709800 2.930900
-3.691900 2.913300
-3.674100 2.894000
-3.656300 2.874700
-3.638400 2.863600
-3.620600 2.852800
-3.602800 2.898100
-3.585000 3.137000
-3.567100 3.208900
-3.549300 3.273000
-3.531500 3.329200
-3.513600 3.377400
-3.495800 3.417900
-3.478000 3.451700
-3.460200 3.471500
-3.442300 3.458000
-3.424500 3.409500
-3.406700 3.325700
-3.388800 3.192500
-3.371000 3.002700
-3.353200 2.900700
-3.335300 2.861700
-3.317500 2.824200
-3.299700 2.792200
-3.281900 2.767700
-3.264000 2.744900
-3.246200 2.726500
-3.228400 2.712600
-3.210500 2.703100
-3.192700 2.709500
-3.174900 2.744100
-3.157000 2.774900
-3.139200 2.801700
-3.121400 2.824600
-3.103600 2.843500
-3.085700 2.858400
-3.067900 2.868700
-3.050100 2.874500
-3.032200 2.878200
-3.014400 2.881100
-2.996600 2.891000
-2.978800 2.964800
-2.960900 3.114000
-2.943100 3.301100
-2.925300 3.363800
-2.907400 3.379000
-2.889600 3.335600
-2.871800 3.239000
-2.853900 3.091200
-2.836100 2.922800
-2.818300 2.762300
-2.800500 2.604100
-2.782600 2.448100
-2.764800 2.294300
-2.747000 2.213700
-2.729100 2.167000
-2.711300 2.174200
-2.693500 2.258100
-2.675600 4.129600
-2.657800 3.767700
-2.640000 3.511100
-2.622200 3.203300
-2.604300 2.847100
-2.586500 2.442300
-2.568700 1.989000
-2.550800 1.641500
-2.533000 2.398800
-2.515200 3.391300
-2.497400 4.361400
-2.479500 5.247300
-2.461700 6.173100
-2.443900 4.371300
-2.426000 4.286200
-2.408200 4.204300
-2.390400 4.125800
-2.372500 4.050500
-2.354700 3.978500
-2.336900 2.369800
-2.319100 1.683500
-2.301200 1.083700
-2.283400 0.510300
-2.265600 0.125900
-2.247700 0.000000
-2.229900 0.000000
-2.212100 0.000000
-2.194300 0.000000
-2.176400 0.000000
-2.158600 0.000000
-2.140800 0.000000
-2.122900 0.000000
-2.105100 0.000000
-2.087300 0.000000
-2.069400 0.000000
-2.051600 0.000000
-2.033800 0.000000
-2.016000 0.000000
-1.998100 0.000000
-1.980300 0.000000
-1.962500 0.000000
-1.944600 0.000000
-1.926800 0.000000
-1.909000 0.000000
-1.891100 0.000000
-1.873300 0.000000
-1.855500 0.000000
-1.837700 0.000000
-1.819800 0.000000
-1.802000 0.000000
-1.784200 0.000000
-1.766300 0.000000
-1.748500 0.000000
-1.730700 0.000000
-1.712900 0.000000
-1.695000 0.000000
-1.677200 0.000000
-1.659400 0.000000
-1.641500 0.000000
-1.623700 0.000000
-1.605900 0.000000
-1.588000 0.000000
-1.570200 0.000000
-1.552400 0.000000
-1.534600 0.000000
-1.516700 0.000000
-1.498900 0.000000
-1.481100 0.000000
-1.463200 0.000000
-1.445400 0.000000
-1.427600 0.000000
-1.409700 0.000000
-1.391900 0.000000
-1.374100 0.000000
-1.356300 0.000000
-1.338400 0.000000
-1.320600 0.000000
-1.302800 0.000000
-1.284900 0.000000
-1.267100 0.000000
-1.249300 0.000000
-1.231500 0.000000
-1.213600 0.000000
-1.195800 0.000000
-1.178000 0.000000
-1.160100 0.000000
-1.142300 0.000000
-1.124500 0.000000
-1.106600 0.000000
-1.088800 0.000000
-1.071000 0.000000
-1.053200 0.000000
-1.035300 0.000000
-1.017500 0.000000
-0.999700 0.000000
-0.981800 0.000000
-0.964000 0.000000
-0.946200 0.000000
-0.928400 0.000000
-0.910500 0.000000
-0.892700 0.000000
-0.874900 0.000000
-0.857000 0.000000
-0.839200 0.000000
-0.821400 0.000000
-0.803500 0.000000
-0.785700 0.000000
-0.767900 0.000000
-0.750100 0.000000
-0.732200 0.000000
-0.714400 0.000000
-0.696600 0.000000
-0.678700 0.000000
-0.660900 0.000000
-0.643100 0.000000
-0.625200 0.000000
-0.607400 0.000000
-0.589600 0.000000
-0.571800 0.000000
-0.553900 0.000000
-0.536100 0.000000
-0.518300 0.000000
-0.500400 0.000200
-0.482600 0.001400
-0.464800 0.004000
-0.447000 0.007900
-0.429100 0.013100
-0.411300 0.019700
-0.393500 0.027500
-0.375600 0.036600
-0.357800 0.047100
-0.340000 0.058800
-0.322100 0.071900
-0.304300 0.081300
-0.286500 0.096800
-0.268700 0.319900
-0.250800 0.838200
-0.233000 1.534700
-0.215200 1.775900
-0.197300 1.454200
-0.179500 0.690900
-0.161700 0.718900
-0.143800 0.747000
-0.126000 0.775300
-0.108200 0.803800
-0.090400 0.832500
-0.072500 0.861300
-0.054700 0.890400
-0.036900 0.919600
-0.019000 0.949000
-0.001200 0.978600
0.016600 1.008400
0.034400 1.038400
0.052300 1.068600
0.070100 1.098900
0.087900 1.129500
0.105800 1.160300
0.123600 1.755100
0.141400 2.252100
0.159300 2.642000
0.177100 2.871800
0.194900 1.955200
0.212700 2.017700
0.230600 2.092800
0.248400 2.181200
0.266200 2.300300
0.284100 2.748300
0.301900 3.202000
0.319700 3.656900
0.337500 3.680000
0.355400 3.720500
0.373200 3.778400
0.391000 3.844800
0.408900 3.914900
0.426700 3.972400
0.444500 4.015000
0.462400 4.042800
0.480200 4.055700
0.498000 4.048400
0.515800 4.412100
0.533700 5.418200
0.551500 7.075300
0.569300 6.294100
0.587200 4.879300
0.605000 4.082900
0.622800 3.888700
0.640700 3.887300
0.658500 3.907500
0.676300 3.955300
0.694100 3.998300
0.712000 4.033700
0.729800 4.072400
0.747600 4.122800
0.765500 4.184900
0.783300 6.694600
0.801100 6.343200
0.818900 5.624500
0.836800 4.711100
0.854600 3.784300
0.872400 3.753000
0.890300 3.721700
0.908100 3.687400
0.925900 3.663400
0.943800 3.662600
0.961600 3.662700
0.979400 3.662200
0.997200 3.660800
1.015100 3.668700
1.032900 3.705000
1.050700 3.779300
1.068600 3.893000
1.086400 5.701000
1.104200 5.760100
1.122100 4.035400
1.139900 3.791600
1.157700 3.531300
1.175500 3.314400
1.193400 3.123700
1.211200 2.960000
1.229000 2.817500
1.246900 2.693000
1.264700 2.600900
1.282500 2.541700
1.300300 2.506200
1.318200 2.490000
1.336000 2.491900
1.353800 2.511000
1.371700 2.539000
1.389500 2.573200
1.407300 2.613400
1.425200 2.659600
1.443000 2.711900
1.460800 2.770300
1.478600 2.829500
1.496500 2.872700
1.514300 2.920500
1.532100 2.972900
1.550000 3.035300
1.567800 3.122400
1.585600 3.235200
1.603400 3.373800
1.621300 3.538300
1.639100 3.728600
1.656900 3.004800
1.674800 2.445900
1.692600 2.419700
1.710400 2.392400
1.728300 2.364200
1.746100 2.335300
1.763900 2.305600
1.781700 2.275200
1.799600 2.245200
1.817400 2.219000
1.835200 2.193400
1.853100 2.167400
1.870900 2.140800
1.888700 2.113700
1.906600 2.099300
1.924400 2.091000
1.942200 2.083100
1.960000 2.075700
1.977900 2.068700
1.995700 2.062100
2.013500 2.056000
2.031400 2.051400
2.049200 2.048000
2.067000 2.044800
2.084800 2.041900
2.102700 2.039300
2.120500 2.036900
2.138300 2.034800
2.156200 2.033000
2.174000 2.031400
2.191800 2.030200
2.209700 2.029200
2.227500 2.028400
2.245300 2.028000
2.263100 2.027800
2.281000 2.029000
2.298800 2.033000
2.316600 2.035300
2.334500 2.035800
2.352300 2.034500
2.370100 2.031500
2.388000 2.026600
2.405800 2.020000
2.423600 2.011600
2.441400 2.003700
2.459300 2.003300
2.477100 2.007100
2.494900 2.012500
2.512800 2.019400
2.530600 2.027800
2.548400 2.037500
2.566200 2.047600
2.584100 2.059000
2.601900 2.158400
2.619700 3.519400
2.637600 2.804500
2.655400 2.669500
2.673200 2.600300
2.691100 2.592800
2.708900 2.612100
2.726700 2.650000
2.744500 2.693200
2.762400 2.728500
2.780200 2.760400
2.798000 2.797300
2.815900 2.839200
2.833700 2.886300
2.851500 2.938400
2.869300 2.997200
2.887200 3.067900
2.905000 3.122300
2.922800 3.172400
2.940700 3.221700
2.958500 3.247300
2.976300 3.279900
2.994200 3.320900
3.012000 3.363000
3.029800 3.406500
3.047600 3.450500
3.065500 3.494800
3.083300 3.539400
3.101100 3.585700
3.119000 3.638100
3.136800 3.691900
3.154600 3.748500
3.172500 3.807800
3.190300 3.869500
3.208100 3.932600
3.225900 3.943800
3.243800 3.519200
3.261600 3.498600
3.279400 3.474600
3.297300 3.447200
3.315100 3.416200
3.332900 3.381800
3.350700 3.343900
3.368600 3.313200
3.386400 3.281900
3.404200 3.246300
3.422100 3.206600
3.439900 3.162600
3.457700 3.115500
3.475600 3.068800
3.493400 3.024500
3.511200 2.984100
3.529000 2.964900
3.546900 2.948500
3.564700 2.928500
3.582500 2.927300
3.600400 2.942700
3.618200 2.974000
3.636000 3.021200
3.653900 3.079200
3.671700 3.139500
3.689500 3.201900
3.707300 3.266400
3.725200 3.367800
3.743000 3.473400
3.760800 3.581900
3.778700 3.695100
3.796500 3.833200
3.814300 3.962100
3.832100 4.082000
3.850000 4.192800
3.867800 4.313100
3.885600 4.605000
3.903500 4.766900
3.921300 4.799400
3.939100 4.669200
3.957000 4.634200
3.974800 4.602800
3.992600 4.569200
4.010400 4.532000
4.028300 4.490500
4.046100 4.444500
4.063900 4.391300
4.081800 4.333700
4.099600 4.275600
4.117400 4.216700
4.135200 4.156900
4.153100 4.095500
4.170900 4.038300
4.188700 3.986000
4.206600 3.929800
4.224400 3.867300
4.242200 3.794400
4.260100 3.710900
4.277900 3.647600
4.295700 3.585200
4.313500 3.528200
4.331400 3.490800
4.349200 3.472700
4.367000 3.473900
4.384900 3.493700
4.402700 3.519600
4.420500 3.546200
4.438400 3.668800
4.456200 3.839900
4.474000 3.981700
4.491800 4.094300
4.509700 4.192600
4.527500 4.292300
4.545300 4.393300
4.563200 4.495000
4.581000 4.595500
4.598800 4.692400
4.616600 4.784300
4.634500 4.870600
4.652300 4.954200
4.670100 5.036300
4.688000 5.117100
4.705800 5.196400
4.723600 5.274300
4.741500 5.353300
4.759300 5.519200
4.777100 5.712900
4.794900 5.881700
4.812800 6.026800
4.830600 6.196200
4.848400 6.319100
4.866300 6.329600
4.884100 6.248600
4.901900 6.066300
4.919800 5.858500
4.937600 5.655000
4.955400 5.462300
4.973200 5.306300
4.991100 5.162500
5.008900 5.030800
5.026700 4.924600
5.044600 4.855400
5.062400 4.814800
5.080200 4.802900
5.098000 4.800000
5.115900 4.802400
5.133700 4.808000
5.151500 4.812400
5.169400 4.796200
5.187200 4.777700
5.205000 4.756800
5.222900 4.733200
5.240700 4.708600
5.258500 4.682500
5.276300 4.654900
5.294200 4.627300
5.312000 4.598500
5.329800 4.572700
5.347700 4.556700
5.365500 4.552300
5.383300 4.560900
5.401100 4.582500
5.419000 4.640100
5.436800 4.679600
5.454600 4.741700
5.472500 4.828100
5.490300 4.939300
5.508100 5.081300
5.526000 5.264100
5.543800 5.521200
5.561600 5.818800
5.579400 6.149300
5.597300 6.389100
5.615100 6.050800
5.632900 5.767400
5.650800 5.736000
5.668600 5.725900
5.686400 5.754200
5.704300 5.820900
5.722100 5.926000
5.739900 6.064800
5.757700 6.193600
5.775600 6.288200
5.793400 6.408600
5.811200 6.949800
5.829100 7.024400
5.846900 6.854400
5.864700 6.685000
5.882500 6.525100
5.900400 6.379500
5.918200 6.268800
5.936000 6.193400
5.953900 6.152700
5.971700 6.056400
5.989500 5.852900
6.007400 5.669000
6.025200 5.548600
6.043000 5.499800
6.060800 5.481900
6.078700 5.467200
6.096500 5.458900
6.114300 5.455600
6.132200 5.457200
6.150000 5.463900
6.167800 5.479700
6.185700 5.511400
6.203500 5.552900
6.221300 5.602200
6.239100 5.667400
6.257000 5.828300
6.274800 6.103700
6.292600 6.476100
6.310500 6.963800
6.328300 6.072200
6.346100 6.021200
6.363900 5.953300
6.381800 5.896800
6.399600 5.851800
6.417400 5.818200
6.435300 5.752800
6.453100 5.682800
6.470900 5.625000
6.488800 5.663300
6.506600 5.696800
6.524400 5.617200
6.542200 5.536900
6.560100 5.456900
6.577900 5.384600
6.595700 5.308500
6.613600 5.234500
6.631400 5.184300
6.649200 5.146600
6.667000 5.112200
6.684900 5.163800
6.702700 5.902300
6.720500 5.555800
6.738400 5.300800
6.756200 5.137500
6.774000 5.040700
6.791900 4.937600
6.809700 4.828600
6.827500 4.720800
6.845300 4.617900
6.863200 4.513400
6.881000 4.399800
6.898800 4.263400
6.916700 4.124400
6.934500 3.985300
6.952300 3.880300
6.970200 3.781000
6.988000 3.686500
7.005800 3.601200
7.023600 3.522300
7.041500 3.462900
7.059300 3.424000
7.077100 3.390200
7.095000 3.359100
7.112800 3.330200
7.130600 3.303500
7.148400 3.278900
7.166300 3.277800
7.184100 3.209600
7.201900 3.104000
7.219800 3.073500
7.237600 3.049300
7.255400 3.011300
7.273300 2.932800
7.291100 2.828100
7.308900 2.747200
7.326700 2.677900
7.344600 2.609100
7.362400 2.523300
7.380200 2.411500
7.398100 2.278400
7.415900 2.145800
7.433700 2.025600
7.451600 1.924500
7.469400 1.837200
7.487200 1.763000
7.505000 1.698300
7.522900 1.641500
7.540700 1.592100
7.558500 1.549700
7.576400 1.513200
7.594200 1.477400
7.612000 1.433700
7.629800 1.381800
7.647700 1.329000
7.665500 1.275500
7.683300 1.221200
7.701200 1.166000
7.719000 1.110100
7.736800 1.053300
7.754700 1.003300
7.772500 0.969800
7.790300 0.952800
7.808100 0.952300
7.826000 0.968300
7.843800 1.043400
7.861600 1.271700
7.879500 1.506200
7.897300 1.097300
7.915100 0.679500
7.932900 0.448100
7.950800 0.265500
7.968600 0.131500
7.986400 0.044400
8.004300 0.003400
8.022100 0.000000
8.039900 0.000000
8.057800 0.000000
8.075600 0.000000
8.093400 0.000000
8.111200 0.000000
8.129100 0.000000
8.146900 0.000000
8.164700 0.000000
8.182600 0.000000
8.200400 0.000000
8.218200 0.000000
8.236100 0.000000
8.253900 0.000000
8.271700 0.000000
8.289500 0.000000
8.307400 0.000000
8.325200 0.000000
8.343000 0.000000
8.360900 0.000000
8.378700 0.000000
8.396500 0.000000
8.414300 0.000000
8.432200 0.000000
8.450000 0.000000
8.467800 0.000000
8.485700 0.000000
8.503500 0.000000
8.521300 0.000000
8.539200 0.000000
8.557000 0.000000
8.574800 0.000000
8.592600 0.000000
8.610500 0.000000
8.628300 0.000000
8.646100 0.000000
8.664000 0.000000
8.681800 0.000000
8.699600 0.000000
8.717500 0.000000
8.735300 0.000000
8.753100 0.000000
8.770900 0.000000
8.788800 0.000000
8.806600 0.000000
8.824400 0.000000
8.842300 0.000000
8.860100 0.000000
8.877900 0.000000
8.895700 0.000000
8.913600 0.000000
8.931400 0.000000
8.949200 0.000000
8.967100 0.000000
8.984900 0.000000
9.002700 0.000000
9.020600 0.000000
9.038400 0.000000
9.056200 0.000000
9.074000 0.000000
9.091900 0.000000
9.109700 0.000000
9.127500 0.000000
9.145400 0.000000
9.163200 0.000000
9.181000 0.000000
9.198800 0.000000
9.216700 0.000000
9.234500 0.000000
9.252300 0.000000
9.270200 0.000000
9.288000 0.000000
9.305800 0.000000
9.323700 0.000000
9.341500 0.000000
9.359300 0.000000
9.377100 0.000000
9.395000 0.000000
9.412800 0.000000
9.430600 0.000000
9.448500 0.000000
9.466300 0.000000
9.484100 0.000000
9.502000 0.000000
9.519800 0.000000
9.537600 0.000000
9.555400 0.000000
9.573300 0.000000
9.591100 0.000000
9.608900 0.000000
9.626800 0.000000
9.644600 0.000000
9.662400 0.000000
9.680200 0.000000
9.698100 0.000000
9.715900 0.000000
9.733700 0.000000
9.751600 0.000000
9.769400 0.000000
9.787200 0.000000
9.805100 0.000000
9.822900 0.000000
9.840700 0.000000
9.858500 0.000000
9.876400 0.000000
9.894200 0.018400
9.912000 0.053500
9.929900 0.089600
9.947700 0.126500
9.965500 0.164400
9.983400 0.203200
10.001200 0.242900
10.019000 0.283600
10.036800 0.310200
