set title 'mp-973839 - Density of States'
set xlabel 'Energy (eV)'
set ylabel 'DOS (states/eV)'
set grid
set xrange [-10:10]
set yrange [0:14.981]
set xzeroaxis lt -1
set terminal png size 800,600
set output 'mp-973839_dos_gnuplot.png'
plot '-' using 1:2 with lines title 'DOS'
-5.604600 0.000000
-5.585100 0.000000
-5.565600 0.000000
-5.546200 0.000000
-5.526700 0.000000
-5.507200 0.000000
-5.487700 0.000000
-5.468300 0.000000
-5.448800 0.000000
-5.429300 0.000000
-5.409800 0.000000
-5.390400 0.000000
-5.370900 0.000000
-5.351400 0.000000
-5.331900 0.000000
-5.312400 0.000000
-5.293000 0.000000
-5.273500 0.000000
-5.254000 0.000000
-5.234500 0.000000
-5.215100 0.000000
-5.195600 0.000000
-5.176100 0.000000
-5.156600 0.000000
-5.137200 0.000000
-5.117700 0.000000
-5.098200 0.000000
-5.078700 0.000000
-5.059200 0.000000
-5.039800 0.000000
-5.020300 0.000000
-5.000800 0.000000
-4.981300 0.000000
-4.961900 0.000000
-4.942400 0.000000
-4.922900 0.000000
-4.903400 0.000000
-4.884000 0.000000
-4.864500 0.000000
-4.845000 0.000000
-4.825500 0.000000
-4.806000 0.000000
-4.786600 0.000000
-4.767100 0.000000
-4.747600 0.000000
-4.728100 0.000000
-4.708700 0.000000
-4.689200 0.000000
-4.669700 0.000000
-4.650200 0.000000
-4.630800 0.000000
-4.611300 0.000000
-4.591800 0.000000
-4.572300 0.000000
-4.552800 0.000000
-4.533400 0.000000
-4.513900 0.000000
-4.494400 0.000000
-4.474900 0.000000
-4.455500 0.000000
-4.436000 0.000000
-4.416500 0.000000
-4.397000 0.000000
-4.377600 0.000000
-4.358100 0.000000
-4.338600 0.000000
-4.319100 0.000000
-4.299600 0.000000
-4.280200 0.000000
-4.260700 0.000000
-4.241200 0.000000
-4.221700 0.000000
-4.202300 0.000000
-4.182800 0.000000
-4.163300 0.000000
-4.143800 0.000000
-4.124400 0.000000
-4.104900 0.000000
-4.085400 0.000000
-4.065900 0.000000
-4.046400 0.000000
-4.027000 0.000000
-4.007500 0.000000
-3.988000 0.000000
-3.968500 0.000000
-3.949100 0.000100
-3.929600 0.000300
-3.910100 0.001500
-3.890600 0.004800
-3.871200 0.011700
-3.851700 0.022400
-3.832200 0.035200
-3.812700 0.047900
-3.793200 0.059700
-3.773800 0.070100
-3.754300 0.084200
-3.734800 0.114200
-3.715300 0.165200
-3.695900 0.214800
-3.676400 0.224800
-3.656900 0.181800
-3.637400 0.113000
-3.618000 0.058800
-3.598500 0.042800
-3.579000 0.071200
-3.559500 0.137100
-3.540000 0.217000
-3.520600 0.279600
-3.501100 0.309500
-3.481600 0.311200
-3.462100 0.298500
-3.442700 0.293900
-3.423200 0.315500
-3.403700 0.343900
-3.384200 0.330400
-3.364800 0.255900
-3.345300 0.155700
-3.325800 0.081200
-3.306300 0.060200
-3.286800 0.095100
-3.267400 0.171300
-3.247900 0.259700
-3.228400 0.330100
-3.208900 0.367300
-3.189500 0.374700
-3.170000 0.380300
-3.150500 0.431600
-3.131000 0.538100
-3.111600 0.622300
-3.092100 0.586100
-3.072600 0.427500
-3.053100 0.244800
-3.033600 0.133700
-3.014200 0.123000
-2.994700 0.185700
-2.975200 0.270900
-2.955700 0.336500
-2.936300 0.376600
-2.916800 0.420200
-2.897300 0.498700
-2.877800 0.601700
-2.858400 0.658300
-2.838900 0.595300
-2.819400 0.426400
-2.799900 0.247700
-2.780400 0.152700
-2.761000 0.180900
-2.741500 0.321100
-2.722000 0.513600
-2.702500 0.663300
-2.683100 0.699300
-2.663600 0.634400
-2.644100 0.552200
-2.624600 0.527800
-2.605200 0.554600
-2.585700 0.556100
-2.566200 0.483800
-2.546700 0.383100
-2.527200 0.339400
-2.507800 0.387600
-2.488300 0.502600
-2.468800 0.647500
-2.449300 0.789600
-2.429900 0.887800
-2.410400 0.918000
-2.390900 0.900000
-2.371400 0.854400
-2.352000 0.758300
-2.332500 0.592500
-2.313000 0.397300
-2.293500 0.247700
-2.274000 0.197000
-2.254600 0.261300
-2.235100 0.434000
-2.215600 0.678700
-2.196100 0.909000
-2.176700 1.030000
-2.157200 1.033000
-2.137700 1.004400
-2.118200 1.008000
-2.098800 1.001300
-2.079300 0.917600
-2.059800 0.790400
-2.040300 0.738400
-2.020800 0.844600
-2.001400 1.081500
-1.981900 1.316700
-1.962400 1.382300
-1.942900 1.214100
-1.923500 0.944100
-1.904000 0.797200
-1.884500 0.881700
-1.865000 1.101900
-1.845600 1.272300
-1.826100 1.306900
-1.806600 1.291800
-1.787100 1.371400
-1.767600 1.585000
-1.748200 1.842600
-1.728700 2.054000
-1.709200 2.239300
-1.689700 2.478700
-1.670300 2.766800
-1.650800 2.995300
-1.631300 3.115600
-1.611800 3.224200
-1.592400 3.423200
-1.572900 3.680700
-1.553400 3.870400
-1.533900 3.885600
-1.514400 3.704100
-1.495000 3.381400
-1.475500 2.994400
-1.456000 2.620400
-1.436500 2.362600
-1.417100 2.321000
-1.397600 2.494600
-1.378100 2.740400
-1.358600 2.885000
-1.339200 2.884800
-1.319700 2.831200
-1.300200 2.813300
-1.280700 2.862600
-1.261200 3.019700
-1.241800 3.354100
-1.222300 3.885500
-1.202800 4.507700
-1.183300 5.015800
-1.163900 5.259600
-1.144400 5.287600
-1.124900 5.312300
-1.105400 5.525100
-1.086000 5.940000
-1.066500 6.409200
-1.047000 6.789100
-1.027500 7.054900
-1.008000 7.232100
-0.988600 7.299100
-0.969100 7.257300
-0.949600 7.250500
-0.930100 7.465400
-0.910700 7.897100
-0.891200 8.335500
-0.871700 8.608700
-0.852200 8.768900
-0.832800 9.025100
-0.813300 9.508000
-0.793800 10.101800
-0.774300 10.536500
-0.754800 10.654200
-0.735400 10.490300
-0.715900 10.130900
-0.696400 9.689400
-0.676900 9.363800
-0.657500 9.279300
-0.638000 9.294900
-0.618500 9.117300
-0.599000 8.618000
-0.579600 7.986100
-0.560100 7.565300
-0.540600 7.567900
-0.521100 7.928700
-0.501600 8.364800
-0.482200 8.555600
-0.462700 8.327100
-0.443200 7.763900
-0.423700 7.155700
-0.404300 6.736900
-0.384800 6.465800
-0.365300 6.156000
-0.345800 5.776300
-0.326400 5.474000
-0.306900 5.375200
-0.287400 5.523200
-0.267900 5.914200
-0.248400 6.442800
-0.229000 6.923100
-0.209500 7.274100
-0.190000 7.545400
-0.170500 7.696400
-0.151100 7.549500
-0.131600 7.058000
-0.112100 6.441900
-0.092600 5.960300
-0.073200 5.675000
-0.053700 5.494500
-0.034200 5.374000
-0.014700 5.394100
0.004800 5.601900
0.024200 5.851000
0.043700 5.945300
0.063200 5.881300
0.082700 5.826300
0.102100 5.942800
0.121600 6.298700
0.141100 6.854700
0.160600 7.508000
0.180000 8.162000
0.199500 8.730100
0.219000 9.130700
0.238500 9.353200
0.258000 9.444700
0.277400 9.407800
0.296900 9.231300
0.316400 8.983900
0.335900 8.739100
0.355300 8.487500
0.374800 8.254200
0.394300 8.173200
0.413800 8.309100
0.433200 8.544400
0.452700 8.745100
0.472200 8.874200
0.491700 8.911900
0.511200 8.862200
0.530600 8.825300
0.550100 8.874000
0.569600 8.909000
0.589100 8.785800
0.608500 8.480600
0.628000 8.030900
0.647500 7.471200
0.667000 6.918300
0.686400 6.592100
0.705900 6.644800
0.725400 6.973700
0.744900 7.263500
0.764400 7.303200
0.783800 7.277200
0.803300 7.644400
0.822800 8.671800
0.842300 10.151600
0.861700 11.594100
0.881200 12.624700
0.900700 13.201500
0.920200 13.502000
0.939600 13.619400
0.959100 13.459700
0.978600 12.985100
0.998100 12.427800
1.017600 12.123900
1.037000 12.138000
1.056500 12.151700
1.076000 11.806700
1.095500 11.104400
1.114900 10.378700
1.134400 9.899100
1.153900 9.585600
1.173400 9.134800
1.192800 8.382000
1.212300 7.489900
1.231800 6.762500
1.251300 6.317900
1.270800 6.036700
1.290200 5.813700
1.309700 5.707600
1.329200 5.779700
1.348700 5.929600
1.368100 6.018000
1.387600 6.076000
1.407100 6.285600
1.426600 6.796200
1.446000 7.571100
1.465500 8.346400
1.485000 8.798300
1.504500 8.842500
1.524000 8.708800
1.543400 8.660700
1.562900 8.704300
1.582400 8.651600
1.601900 8.463300
1.621300 8.396200
1.640800 8.722100
1.660300 9.412600
1.679800 10.201000
1.699200 10.835900
1.718700 11.169400
1.738200 11.107100
1.757700 10.635600
1.777200 9.916000
1.796600 9.279200
1.816100 9.054100
1.835600 9.290200
1.855100 9.605000
1.874500 9.437200
1.894000 8.596600
1.913500 7.511100
1.933000 6.808800
1.952400 6.725500
1.971900 7.030300
1.991400 7.396400
2.010900 7.670600
2.030400 7.827600
2.049800 7.827300
2.069300 7.612300
2.088800 7.198100
2.108300 6.669900
2.127700 6.109300
2.147200 5.591500
2.166700 5.226100
2.186200 5.120700
2.205600 5.288100
2.225100 5.621900
2.244600 5.928000
2.264100 5.990800
2.283600 5.742700
2.303000 5.381600
2.322500 5.204200
2.342000 5.341100
2.361500 5.701900
2.380900 6.101600
2.400400 6.411900
2.419900 6.641900
2.439400 6.867100
2.458800 7.092200
2.478300 7.244700
2.497800 7.293200
2.517300 7.313900
2.536800 7.430700
2.556200 7.681800
2.575700 7.941400
2.595200 8.039300
2.614700 8.003500
2.634100 8.089800
2.653600 8.500100
2.673100 9.161000
2.692600 9.814200
2.712000 10.204900
2.731500 10.207800
2.751000 9.934100
2.770500 9.677000
2.790000 9.628100
2.809400 9.696400
2.828900 9.641600
2.848400 9.289300
2.867900 8.615500
2.887300 7.762400
2.906800 7.028600
2.926300 6.714800
2.945800 6.832900
2.965200 7.038000
2.984700 7.004400
3.004200 6.825900
3.023700 6.880100
3.043200 7.302600
3.062600 7.790700
3.082100 8.014800
3.101600 8.004800
3.121100 7.978500
3.140500 8.030500
3.160000 8.190300
3.179500 8.545900
3.199000 9.091700
3.218400 9.614000
3.237900 9.861900
3.257400 9.772300
3.276900 9.531400
3.296400 9.458500
3.315800 9.807900
3.335300 10.611300
3.354800 11.616300
3.374300 12.386100
3.393700 12.580900
3.413200 12.169300
3.432700 11.321500
3.452200 10.189600
3.471600 8.907100
3.491100 7.706400
3.510600 6.834200
3.530100 6.316600
3.549600 5.928000
3.569000 5.425400
3.588500 4.745300
3.608000 4.000500
3.627500 3.361900
3.646900 2.928100
3.666400 2.681100
3.685900 2.551500
3.705400 2.465100
3.724800 2.329500
3.744300 2.089200
3.763800 1.810600
3.783300 1.625400
3.802800 1.588200
3.822200 1.644000
3.841700 1.705600
3.861200 1.711500
3.880700 1.626600
3.900100 1.441200
3.919600 1.198900
3.939100 0.995300
3.958600 0.906700
3.978000 0.935400
3.997500 1.046200
4.017000 1.211700
4.036500 1.380100
4.056000 1.449000
4.075400 1.347300
4.094900 1.134900
4.114400 0.958300
4.133900 0.914600
4.153300 0.991500
4.172800 1.104000
4.192300 1.162400
4.211800 1.145400
4.231200 1.128500
4.250700 1.203700
4.270200 1.364800
4.289700 1.515300
4.309200 1.585100
4.328600 1.583300
4.348100 1.530700
4.367600 1.411500
4.387100 1.225900
4.406500 1.031700
4.426000 0.892100
4.445500 0.820700
4.465000 0.798000
4.484400 0.808800
4.503900 0.849400
4.523400 0.922600
4.542900 1.028000
4.562400 1.156600
4.581800 1.286100
4.601300 1.359900
4.620800 1.293000
4.640300 1.058800
4.659700 0.761200
4.679200 0.570200
4.698700 0.585400
4.718200 0.773700
4.737600 1.022100
4.757100 1.240800
4.776600 1.410500
4.796100 1.533100
4.815600 1.586400
4.835000 1.558600
4.854500 1.482700
4.874000 1.403700
4.893500 1.338000
4.912900 1.274700
4.932400 1.205500
4.951900 1.136600
4.971400 1.059800
4.990800 0.939200
5.010300 0.771400
5.029800 0.636800
5.049300 0.630100
5.068800 0.743800
5.088200 0.869900
5.107700 0.920000
5.127200 0.904500
5.146700 0.893500
5.166100 0.942700
5.185600 1.066800
5.205100 1.245000
5.224600 1.423200
5.244000 1.533500
5.263500 1.538000
5.283000 1.454800
5.302500 1.344400
5.322000 1.268200
5.341400 1.236700
5.360900 1.203600
5.380400 1.142200
5.399900 1.102600
5.419300 1.144200
5.438800 1.241900
5.458300 1.309500
5.477800 1.289800
5.497200 1.187600
5.516700 1.044300
5.536200 0.903800
5.555700 0.792300
5.575200 0.728300
5.594600 0.735400
5.614100 0.816000
5.633600 0.925700
5.653100 1.006800
5.672500 1.036500
5.692000 1.028100
5.711500 1.016000
5.731000 1.049100
5.750400 1.150000
5.769900 1.268200
5.789400 1.318000
5.808900 1.268700
5.828400 1.166500
5.847800 1.081800
5.867300 1.060700
5.886800 1.100100
5.906300 1.146300
5.925700 1.138000
5.945200 1.069200
5.964700 0.990400
5.984200 0.938500
6.003600 0.892700
6.023100 0.818400
6.042600 0.732400
6.062100 0.697700
6.081600 0.750800
6.101000 0.850400
6.120500 0.933500
6.140000 1.017900
6.159500 1.187700
6.178900 1.453400
6.198400 1.689700
6.217900 1.760100
6.237400 1.665000
6.256800 1.513500
6.276300 1.393600
6.295800 1.328600
6.315300 1.311300
6.334800 1.308800
6.354200 1.249800
6.373700 1.088100
6.393200 0.892500
6.412700 0.796100
6.432100 0.850600
6.451600 0.998800
6.471100 1.168200
6.490600 1.309000
6.510000 1.369500
6.529500 1.333800
6.549000 1.269200
6.568500 1.250000
6.588000 1.257400
6.607400 1.227100
6.626900 1.157700
6.646400 1.102300
6.665900 1.081700
6.685300 1.063000
6.704800 1.011400
6.724300 0.929400
6.743800 0.847300
6.763300 0.799500
6.782700 0.803500
6.802200 0.843100
6.821700 0.881100
6.841200 0.892300
6.860600 0.872200
6.880100 0.834500
6.899600 0.807700
6.919100 0.804700
6.938500 0.810100
6.958000 0.817500
6.977500 0.833500
6.997000 0.834500
7.016500 0.792800
7.035900 0.765600
7.055400 0.880300
7.074900 1.182500
7.094400 1.532500
7.113800 1.707300
7.133300 1.616500
7.152800 1.378800
7.172300 1.168800
7.191700 1.043500
7.211200 0.969100
7.230700 0.961700
7.250200 1.092600
7.269700 1.338100
7.289100 1.519200
7.308600 1.459200
7.328100 1.183400
7.347600 0.907100
7.367000 0.823300
7.386500 0.945100
7.406000 1.153600
7.425500 1.327900
7.444900 1.407800
7.464400 1.395200
7.483900 1.345700
7.503400 1.327300
7.522900 1.349400
7.542300 1.353800
7.561800 1.285300
7.581300 1.142100
7.600800 0.964200
7.620200 0.806200
7.639700 0.709000
7.659200 0.677400
7.678700 0.694300
7.698100 0.745600
7.717600 0.813900
7.737100 0.869800
7.756600 0.896400
7.776100 0.899000
7.795500 0.875000
7.815000 0.804300
7.834500 0.685600
7.854000 0.555200
7.873400 0.458300
7.892900 0.414800
7.912400 0.418000
7.931900 0.455500
7.951300 0.514100
7.970800 0.579100
7.990300 0.658000
8.009800 0.788200
8.029300 0.984000
8.048700 1.186700
8.068200 1.305600
8.087700 1.319300
8.107200 1.301100
8.126600 1.322100
8.146100 1.361600
8.165600 1.335500
8.185100 1.190300
8.204500 0.970500
8.224000 0.795400
8.243500 0.746600
8.263000 0.789400
8.282500 0.829700
8.301900 0.825900
8.321400 0.826500
8.340900 0.912100
8.360400 1.110600
8.379800 1.355000
8.399300 1.532600
8.418800 1.575400
8.438300 1.488400
8.457700 1.319000
8.477200 1.132500
8.496700 0.999300
8.516200 0.964900
8.535700 1.017500
8.555100 1.101600
8.574600 1.179200
8.594100 1.262200
8.613600 1.371000
8.633000 1.504500
8.652500 1.660300
8.672000 1.819200
8.691500 1.907400
8.710900 1.848500
8.730400 1.645600
8.749900 1.356200
8.769400 1.041800
8.788900 0.799800
8.808300 0.759300
8.827800 0.960100
8.847300 1.262900
8.866800 1.442000
8.886200 1.387700
8.905700 1.190400
8.925200 1.026200
8.944700 1.017100
8.964100 1.187800
8.983600 1.459000
9.003100 1.661500
9.022600 1.648300
9.042100 1.438300
9.061500 1.210000
9.081000 1.125900
9.100500 1.194200
9.120000 1.315000
9.139400 1.404100
9.158900 1.429000
9.178400 1.377300
9.197900 1.249500
9.217300 1.077300
9.236800 0.914900
9.256300 0.803700
9.275800 0.751000
9.295300 0.734900
9.314700 0.724600
9.334200 0.709800
9.353700 0.707500
9.373200 0.726900
9.392600 0.755900
9.412100 0.803700
9.431600 0.920700
9.451100 1.144600
9.470500 1.439300
9.490000 1.689300
9.509500 1.762800
9.529000 1.623600
9.548500 1.377500
9.567900 1.168700
9.587400 1.059000
9.606900 1.032500
9.626400 1.056600
9.645800 1.085800
9.665300 1.048400
9.684800 0.893900
9.704300 0.659000
9.723700 0.462300
9.743200 0.430100
9.762700 0.612800
9.782200 0.937400
9.801700 1.237900
9.821100 1.385200
9.840600 1.400200
9.860100 1.396300
9.879600 1.420200
9.899000 1.415700
9.918500 1.341800
9.938000 1.246700
9.957500 1.214300
9.976900 1.290900
9.996400 1.449700
10.015900 1.588000
10.035400 1.596100
10.054900 1.466000
10.074300 1.304900
10.093800 1.224600
10.113300 1.251300
10.132800 1.340500
10.152200 1.429000
10.171700 1.467500
10.191200 1.438200
10.210700 1.346000
10.230100 1.196800
10.249600 1.018800
10.269100 0.889500
10.288600 0.882900
10.308100 0.989100
10.327500 1.132500
10.347000 1.263800
10.366500 1.381600
10.386000 1.484200
10.405400 1.553100
10.424900 1.571700
10.444400 1.532700
10.463900 1.441900
10.483300 1.316000
10.502800 1.176700
10.522300 1.065700
10.541800 1.047900
10.561300 1.157400
10.580700 1.338100
10.600200 1.464300
10.619700 1.435000
10.639200 1.254500
10.658600 1.031300
10.678100 0.881600
10.697600 0.831900
10.717100 0.841100
10.736500 0.902100
10.756000 1.063300
10.775500 1.334000
10.795000 1.625400
10.814500 1.819300
10.833900 1.875800
10.853400 1.849500
10.872900 1.799400
10.892400 1.707500
10.911800 1.512800
10.931300 1.217300
10.950800 0.921900
10.970300 0.743200
10.989700 0.722000
11.009200 0.825200
11.028700 0.995800
11.048200 1.167300
11.067700 1.270600
11.087100 1.281800
11.106600 1.248700
11.126100 1.227300
11.145600 1.211200
11.165000 1.163100
11.184500 1.083100
11.204000 1.018600
11.223500 1.041500
11.242900 1.218000
11.262400 1.549500
11.281900 1.925000
11.301400 2.160900
11.320900 2.113300
11.340300 1.776400
11.359800 1.303100
11.379300 0.927900
11.398800 0.827400
11.418200 1.005900
11.437700 1.292900
11.457200 1.478800
11.476700 1.475400
11.496100 1.346000
11.515600 1.204700
11.535100 1.128400
11.554600 1.141100
11.574100 1.227000
11.593500 1.341500
11.613000 1.422400
11.632500 1.422200
11.652000 1.362900
11.671400 1.345400
11.690900 1.446800
11.710400 1.600200
11.729900 1.644700
11.749300 1.503800
11.768800 1.246600
11.788300 0.995400
11.807800 0.846800
11.827300 0.848400
11.846700 0.961900
11.866200 1.069300
11.885700 1.092000
11.905200 1.093800
11.924600 1.188200
11.944100 1.348600
11.963600 1.404400
11.983100 1.237700
12.002500 0.907200
12.022000 0.568500
12.041500 0.345700
12.061000 0.291100
12.080500 0.400600
12.099900 0.614800
12.119400 0.828100
12.138900 0.954100
12.158400 0.992400
12.177800 1.001400
12.197300 1.009100
12.216800 0.986100
12.236300 0.916000
12.255700 0.863000
12.275200 0.931400
12.294700 1.158300
12.314200 1.459400
12.333700 1.686400
12.353100 1.751100
12.372600 1.714100
12.392100 1.727200
12.411600 1.859200
12.431000 2.000200
12.450500 1.980400
12.470000 1.765900
12.489500 1.486000
12.508900 1.278800
12.528400 1.177400
12.547900 1.156400
12.567400 1.217300
12.586900 1.367100
12.606300 1.536000
12.625800 1.590600
12.645300 1.459900
12.664800 1.227100
12.684200 1.072900
12.703700 1.114500
12.723200 1.300900
12.742700 1.466900
12.762100 1.479100
12.781600 1.330500
12.801100 1.114000
12.820600 0.937400
12.840100 0.870600
12.859500 0.934700
12.879000 1.101900
12.898500 1.314600
12.918000 1.512500
12.937400 1.645100
12.956900 1.678800
12.976400 1.611000
12.995900 1.475000
13.015300 1.325300
13.034800 1.212000
13.054300 1.153400
13.073800 1.123800
13.093300 1.077000
13.112700 1.006200
13.132200 0.973600
13.151700 1.060500
13.171200 1.293500
13.190600 1.603600
13.210100 1.834800
13.229600 1.844300
13.249100 1.636900
13.268500 1.359200
13.288000 1.150700
13.307500 1.048200
13.327000 1.037600
13.346500 1.122800
13.365900 1.300100
13.385400 1.524700
13.404900 1.767100
13.424400 2.064500
13.443800 2.439400
13.463300 2.782900
13.482800 2.899900
13.502300 2.684100
13.521700 2.221700
13.541200 1.735100
13.560700 1.430800
13.580200 1.377600
13.599700 1.496200
13.619100 1.641800
13.638600 1.708500
13.658100 1.696800
13.677600 1.692900
13.697000 1.778400
13.716500 1.956400
13.736000 2.140900
13.755500 2.202500
13.774900 2.051500
13.794400 1.712000
13.813900 1.318500
13.833400 1.026900
13.852900 0.924600
13.872300 1.027700
13.891800 1.321300
13.911300 1.726100
13.930800 2.049700
13.950200 2.085500
13.969700 1.791800
13.989200 1.315300
14.008700 0.854000
14.028100 0.544000
14.047600 0.432800
14.067100 0.483300
14.086600 0.598300
14.106100 0.686900
14.125500 0.726300
14.145000 0.749900
14.164500 0.783900
14.184000 0.822600
14.203400 0.860200
14.222900 0.920600
14.242400 1.028500
14.261900 1.152300
14.281300 1.211800
14.300800 1.172000
14.320300 1.099200
14.339800 1.099600
14.359300 1.231800
14.378700 1.480600
14.398200 1.770100
14.417700 2.024700
14.437200 2.265100
14.456600 2.574200
14.476100 2.893900
14.495600 2.991200
14.515100 2.746000
14.534500 2.337900
14.554000 2.021100
14.573500 1.851400
14.593000 1.734900
14.612500 1.610900
14.631900 1.500900
14.651400 1.457200
14.670900 1.498600
14.690400 1.579000
14.709800 1.651200
14.729300 1.742800
14.748800 1.900400
14.768300 2.080900
14.787700 2.170500
14.807200 2.102200
14.826700 1.922600
14.846200 1.743500
14.865700 1.639700
14.885100 1.603400
14.904600 1.585700
14.924100 1.540600
14.943600 1.443100
14.963000 1.327600
14.982500 1.284200
15.002000 1.356600
15.021500 1.474900
15.040900 1.539900
15.060400 1.546500
15.079900 1.590600
