set title 'mp-1218920 - Density of States'
set xlabel 'Energy (eV)'
set ylabel 'DOS (states/eV)'
set grid
set xrange [-10:10]
set yrange [0:1.615]
set xzeroaxis lt -1
set terminal png size 800,600
set output 'mp-1218920_dos_gnuplot.png'
plot '-' using 1:2 with lines title 'DOS'
-17.458200 0.000000
-17.426900 0.000000
-17.395500 0.000000
-17.364200 0.000000
-17.332900 0.000000
-17.301600 0.000000
-17.270200 0.000000
-17.238900 0.000000
-17.207600 0.000000
-17.176300 0.000000
-17.145000 0.000000
-17.113600 0.000000
-17.082300 0.000000
-17.051000 0.000000
-17.019700 0.000000
-16.988300 0.000000
-16.957000 0.000000
-16.925700 0.000000
-16.894400 0.000000
-16.863000 0.000000
-16.831700 0.000000
-16.800400 0.000000
-16.769100 0.000000
-16.737700 0.000000
-16.706400 0.000000
-16.675100 0.000000
-16.643800 0.000000
-16.612400 0.000000
-16.581100 0.000000
-16.549800 0.000000
-16.518500 0.000000
-16.487100 0.000000
-16.455800 0.000000
-16.424500 0.000000
-16.393200 0.000000
-16.361900 0.000000
-16.330500 0.000000
-16.299200 0.000000
-16.267900 0.000000
-16.236600 0.000000
-16.205200 0.000000
-16.173900 0.000000
-16.142600 0.000000
-16.111300 0.000000
-16.079900 0.000000
-16.048600 0.000000
-16.017300 0.000000
-15.986000 0.000000
-15.954600 0.000000
-15.923300 0.000000
-15.892000 0.000000
-15.860700 0.000000
-15.829300 0.000000
-15.798000 0.000000
-15.766700 0.000000
-15.735400 0.000000
-15.704000 0.000000
-15.672700 0.000000
-15.641400 0.000000
-15.610100 0.000000
-15.578700 0.000000
-15.547400 0.000000
-15.516100 0.000000
-15.484800 0.000000
-15.453500 0.000000
-15.422100 0.000000
-15.390800 0.000000
-15.359500 0.000000
-15.328200 0.000000
-15.296800 0.000000
-15.265500 0.000000
-15.234200 0.000000
-15.202900 0.000000
-15.171500 0.000000
-15.140200 0.000000
-15.108900 0.000000
-15.077600 0.000000
-15.046200 0.000000
-15.014900 0.000000
-14.983600 0.000000
-14.952300 0.000000
-14.920900 0.000000
-14.889600 0.000000
-14.858300 0.000000
-14.827000 0.000000
-14.795600 0.000000
-14.764300 0.000000
-14.733000 0.000000
-14.701700 0.000000
-14.670300 0.000000
-14.639000 0.000000
-14.607700 1.250200
-14.576400 3.814800
-14.545100 6.428900
-14.513700 12.042400
-14.482400 13.776100
-14.451100 18.223300
-14.419800 73.957400
-14.388400 52.494600
-14.357100 50.723900
-14.325800 103.808600
-14.294500 16.894900
-14.263100 22.955500
-14.231800 5.883400
-14.200500 3.830200
-14.169200 2.927800
-14.137800 2.584400
-14.106500 0.000000
-14.075200 0.000000
-14.043900 0.000000
-14.012500 0.000000
-13.981200 0.000000
-13.949900 0.000000
-13.918600 0.000000
-13.887200 0.000000
-13.855900 0.000000
-13.824600 0.000000
-13.793300 0.000000
-13.762000 0.000000
-13.730600 0.000000
-13.699300 0.000000
-13.668000 0.000000
-13.636700 0.000000
-13.605300 0.000000
-13.574000 0.000000
-13.542700 0.000000
-13.511400 0.000000
-13.480000 0.000000
-13.448700 0.000000
-13.417400 0.000000
-13.386100 0.000000
-13.354700 0.000000
-13.323400 0.000000
-13.292100 0.000000
-13.260800 0.000000
-13.229400 0.000000
-13.198100 0.000000
-13.166800 0.000000
-13.135500 0.000000
-13.104100 0.000000
-13.072800 0.000000
-13.041500 0.000000
-13.010200 0.000000
-12.978800 0.000000
-12.947500 0.000000
-12.916200 0.000000
-12.884900 0.000000
-12.853600 0.000000
-12.822200 0.000000
-12.790900 0.000000
-12.759600 0.000000
-12.728300 0.000000
-12.696900 0.000000
-12.665600 0.000000
-12.634300 0.000000
-12.603000 0.000000
-12.571600 0.000000
-12.540300 0.000000
-12.509000 0.000000
-12.477700 0.000000
-12.446300 0.000000
-12.415000 0.000000
-12.383700 0.000000
-12.352400 0.000000
-12.321000 0.000000
-12.289700 0.000000
-12.258400 0.000000
-12.227100 0.000000
-12.195700 0.000000
-12.164400 0.000000
-12.133100 0.000000
-12.101800 0.000000
-12.070500 0.000000
-12.039100 0.000000
-12.007800 0.000000
-11.976500 0.000000
-11.945200 0.000000
-11.913800 0.000000
-11.882500 0.000000
-11.851200 0.000000
-11.819900 0.000000
-11.788500 0.000000
-11.757200 0.000000
-11.725900 0.000000
-11.694600 0.000000
-11.663200 0.000000
-11.631900 0.000000
-11.600600 0.000000
-11.569300 0.000000
-11.537900 0.000000
-11.506600 0.000000
-11.475300 0.000000
-11.444000 0.000000
-11.412600 0.000000
-11.381300 0.000000
-11.350000 0.000000
-11.318700 0.000000
-11.287300 0.000000
-11.256000 0.000000
-11.224700 0.000000
-11.193400 0.000000
-11.162100 0.000000
-11.130700 0.000000
-11.099400 0.000000
-11.068100 0.000000
-11.036800 0.000000
-11.005400 0.000000
-10.974100 0.000000
-10.942800 0.000000
-10.911500 0.000000
-10.880100 0.000000
-10.848800 0.000000
-10.817500 0.000000
-10.786200 0.000000
-10.754800 0.000000
-10.723500 0.000000
-10.692200 0.000000
-10.660900 0.000000
-10.629500 0.000000
-10.598200 0.000000
-10.566900 0.000000
-10.535600 0.000000
-10.504200 0.000000
-10.472900 0.000000
-10.441600 0.000000
-10.410300 0.000000
-10.379000 0.000000
-10.347600 0.000000
-10.316300 0.000000
-10.285000 0.000000
-10.253700 0.000000
-10.222300 0.000000
-10.191000 0.000000
-10.159700 0.000000
-10.128400 0.000000
-10.097000 0.000000
-10.065700 0.000000
-10.034400 0.000000
-10.003100 0.000000
-9.971700 0.000000
-9.940400 0.000000
-9.909100 0.000000
-9.877800 0.000000
-9.846400 0.000000
-9.815100 0.000000
-9.783800 0.000000
-9.752500 0.000000
-9.721100 0.000000
-9.689800 0.000000
-9.658500 0.000000
-9.627200 0.000000
-9.595800 0.000000
-9.564500 0.000000
-9.533200 0.000000
-9.501900 0.000000
-9.470600 0.000000
-9.439200 0.000000
-9.407900 0.000000
-9.376600 0.000000
-9.345300 0.000000
-9.313900 0.000000
-9.282600 0.000000
-9.251300 0.000000
-9.220000 0.000000
-9.188600 0.000000
-9.157300 0.000000
-9.126000 0.000000
-9.094700 0.000000
-9.063300 0.000000
-9.032000 0.000000
-9.000700 0.000000
-8.969400 0.000000
-8.938000 0.000000
-8.906700 0.000000
-8.875400 0.000000
-8.844100 0.000000
-8.812700 0.000000
-8.781400 0.000000
-8.750100 0.000000
-8.718800 0.000000
-8.687400 0.000000
-8.656100 0.000000
-8.624800 0.000000
-8.593500 0.000000
-8.562200 0.000000
-8.530800 0.000000
-8.499500 0.000000
-8.468200 0.000000
-8.436900 0.000000
-8.405500 0.000000
-8.374200 0.000000
-8.342900 0.000000
-8.311600 0.000000
-8.280200 0.000000
-8.248900 0.000000
-8.217600 0.000000
-8.186300 0.000000
-8.154900 0.000000
-8.123600 0.000000
-8.092300 0.000000
-8.061000 0.000000
-8.029600 0.000000
-7.998300 0.000000
-7.967000 0.000000
-7.935700 0.000000
-7.904300 0.000000
-7.873000 0.000000
-7.841700 0.000000
-7.810400 0.000000
-7.779100 0.000000
-7.747700 0.000000
-7.716400 0.000000
-7.685100 0.000000
-7.653800 0.000000
-7.622400 0.000000
-7.591100 0.000000
-7.559800 0.000000
-7.528500 0.000000
-7.497100 0.000000
-7.465800 0.000000
-7.434500 0.000000
-7.403200 0.000000
-7.371800 0.000000
-7.340500 0.000000
-7.309200 0.000000
-7.277900 0.000000
-7.246500 0.000000
-7.215200 0.000000
-7.183900 0.000000
-7.152600 0.000000
-7.121200 0.000000
-7.089900 0.000000
-7.058600 0.000000
-7.027300 0.000000
-6.995900 0.000000
-6.964600 0.000000
-6.933300 0.000000
-6.902000 0.000000
-6.870700 0.000000
-6.839300 0.000000
-6.808000 0.000000
-6.776700 0.000000
-6.745400 0.000000
-6.714000 0.000000
-6.682700 0.000000
-6.651400 0.000000
-6.620100 0.000000
-6.588700 0.000000
-6.557400 0.000000
-6.526100 0.000000
-6.494800 0.000000
-6.463400 0.000000
-6.432100 0.000000
-6.400800 0.000000
-6.369500 0.000000
-6.338100 0.000000
-6.306800 0.000000
-6.275500 0.000000
-6.244200 0.000000
-6.212800 0.000000
-6.181500 0.000000
-6.150200 0.000000
-6.118900 0.000000
-6.087600 0.000000
-6.056200 0.000000
-6.024900 0.000000
-5.993600 0.000000
-5.962300 0.000000
-5.930900 0.000000
-5.899600 0.000000
-5.868300 0.000000
-5.837000 0.000000
-5.805600 0.000000
-5.774300 0.000000
-5.743000 0.000000
-5.711700 0.000000
-5.680300 0.000000
-5.649000 0.000000
-5.617700 0.000000
-5.586400 0.000000
-5.555000 0.000000
-5.523700 0.000000
-5.492400 0.000000
-5.461100 0.000000
-5.429700 0.000000
-5.398400 0.000000
-5.367100 0.000000
-5.335800 0.000000
-5.304400 0.000000
-5.273100 0.000000
-5.241800 0.000000
-5.210500 0.000000
-5.179200 0.000000
-5.147800 0.000000
-5.116500 0.000000
-5.085200 0.000000
-5.053900 0.000000
-5.022500 0.000000
-4.991200 0.000000
-4.959900 0.000000
-4.928600 0.000000
-4.897200 0.000000
-4.865900 0.000000
-4.834600 0.000000
-4.803300 0.000000
-4.771900 0.000000
-4.740600 0.000000
-4.709300 0.004900
-4.678000 0.052400
-4.646600 0.128700
-4.615300 0.164400
-4.584000 0.176600
-4.552700 0.203500
-4.521300 0.238300
-4.490000 0.274900
-4.458700 0.308300
-4.427400 0.331300
-4.396100 0.374500
-4.364700 0.421600
-4.333400 0.419000
-4.302100 0.406800
-4.270800 0.413500
-4.239400 0.421600
-4.208100 0.428600
-4.176800 0.432600
-4.145500 0.423800
-4.114100 0.417300
-4.082800 0.419000
-4.051500 0.421200
-4.020200 0.423000
-3.988800 0.424400
-3.957500 0.425500
-3.926200 0.426900
-3.894900 0.428500
-3.863500 0.426800
-3.832200 0.426300
-3.800900 0.429700
-3.769600 0.432400
-3.738200 0.432600
-3.706900 0.432500
-3.675600 0.433300
-3.644300 0.434500
-3.612900 0.435900
-3.581600 0.437000
-3.550300 0.437800
-3.519000 0.438600
-3.487700 0.438700
-3.456300 0.438000
-3.425000 0.438900
-3.393700 0.440900
-3.362400 0.443100
-3.331000 0.445600
-3.299700 0.448200
-3.268400 0.450100
-3.237100 0.451500
-3.205700 0.453300
-3.174400 0.455200
-3.143100 0.457100
-3.111800 0.458900
-3.080400 0.460600
-3.049100 0.462300
-3.017800 0.464000
-2.986500 0.465200
-2.955100 0.466800
-2.923800 0.469200
-2.892500 0.471600
-2.861200 0.474100
-2.829800 0.476700
-2.798500 0.479400
-2.767200 0.482200
-2.735900 0.486000
-2.704600 0.491200
-2.673200 0.496200
-2.641900 0.501100
-2.610600 0.527100
-2.579300 0.576800
-2.547900 0.603000
-2.516600 0.607200
-2.485300 0.620500
-2.454000 0.641000
-2.422600 0.661400
-2.391300 0.682000
-2.360000 0.695700
-2.328700 0.705500
-2.297300 0.719800
-2.266000 0.742800
-2.234700 0.781000
-2.203400 0.820100
-2.172000 0.856000
-2.140700 0.894400
-2.109400 0.936100
-2.078100 0.980300
-2.046700 1.000600
-2.015400 1.002200
-1.984100 1.007900
-1.952800 1.006000
-1.921400 0.996000
-1.890100 0.979800
-1.858800 0.957400
-1.827500 0.925700
-1.796200 0.883700
-1.764800 0.859400
-1.733500 0.854100
-1.702200 0.849000
-1.670900 0.844300
-1.639500 0.840300
-1.608200 0.837000
-1.576900 0.837700
-1.545600 0.837600
-1.514200 0.828100
-1.482900 0.813200
-1.451600 0.801900
-1.420300 0.793100
-1.388900 0.784300
-1.357600 0.775400
-1.326300 0.766000
-1.295000 0.757200
-1.263600 0.751500
-1.232300 0.746200
-1.201000 0.740300
-1.169700 0.733900
-1.138300 0.727100
-1.107000 0.719700
-1.075700 0.711900
-1.044400 0.704900
-1.013000 0.698000
-0.981700 0.692000
-0.950400 0.687100
-0.919100 0.682800
-0.887800 0.679100
-0.856400 0.676200
-0.825100 0.673300
-0.793800 0.669800
-0.762500 0.666100
-0.731100 0.662200
-0.699800 0.658300
-0.668500 0.654100
-0.637200 0.649700
-0.605800 0.645200
-0.574500 0.640900
-0.543200 0.637400
-0.511900 0.634600
-0.480500 0.632400
-0.449200 0.630500
-0.417900 0.628600
-0.386600 0.627100
-0.355200 0.626000
-0.323900 0.625000
-0.292600 0.624000
-0.261300 0.622600
-0.229900 0.621300
-0.198600 0.620100
-0.167300 0.618900
-0.136000 0.617900
-0.104700 0.616800
-0.073300 0.615800
-0.042000 0.614900
-0.010700 0.614100
0.020600 0.613500
0.052000 0.613400
0.083300 0.622100
0.114600 0.631700
0.145900 0.637100
0.177300 0.642900
0.208600 0.649000
0.239900 0.655600
0.271200 0.663300
0.302600 0.672000
0.333900 0.677700
0.365200 0.668400
0.396500 0.660000
0.427900 0.658800
0.459200 0.657100
0.490500 0.655400
0.521800 0.650300
0.553200 0.641700
0.584500 0.631800
0.615800 0.620500
0.647100 0.606900
0.678500 0.590900
0.709800 0.572400
0.741100 0.551900
0.772400 0.533100
0.803700 0.517300
0.835100 0.502900
0.866400 0.489900
0.897700 0.479200
0.929000 0.470900
0.960400 0.465700
0.991700 0.462900
1.023000 0.460300
1.054300 0.457700
1.085700 0.455200
1.117000 0.452900
1.148300 0.450700
1.179600 0.448400
1.211000 0.444300
1.242300 0.437200
1.273600 0.428600
1.304900 0.419200
1.336300 0.409200
1.367600 0.398300
1.398900 0.386500
1.430200 0.373900
1.461600 0.360600
1.492900 0.346800
1.524200 0.334100
1.555500 0.323800
1.586800 0.314700
1.618200 0.306100
1.649500 0.298000
1.680800 0.290300
1.712100 0.283100
1.743500 0.276400
1.774800 0.269900
1.806100 0.263700
1.837400 0.257600
1.868800 0.252000
1.900100 0.251400
1.931400 0.265500
1.962700 0.285800
1.994100 0.302200
2.025400 0.319000
2.056700 0.343200
2.088000 0.373600
2.119400 0.404000
2.150700 0.433000
2.182000 0.462700
2.213300 0.494300
2.244700 0.527000
2.276000 0.557100
2.307300 0.586600
2.338600 0.609000
2.370000 0.627500
2.401300 0.644100
2.432600 0.658300
2.463900 0.669800
2.495200 0.676500
2.526600 0.679600
2.557900 0.682700
2.589200 0.685000
2.620500 0.681200
2.651900 0.675400
2.683200 0.675800
2.714500 0.678000
2.745800 0.680900
2.777200 0.683700
2.808500 0.687300
2.839800 0.692300
2.871100 0.698100
2.902500 0.704000
2.933800 0.709800
2.965100 0.715600
2.996400 0.721600
3.027800 0.728100
3.059100 0.734900
3.090400 0.742000
3.121700 0.748600
3.153100 0.764200
3.184400 0.789800
3.215700 0.807800
3.247000 0.817400
3.278300 0.825900
3.309700 0.833600
3.341000 0.840000
3.372300 0.843000
3.403600 0.842600
3.435000 0.840900
3.466300 0.840400
3.497600 0.849500
3.528900 0.859600
3.560300 0.865300
3.591600 0.871400
3.622900 0.878200
3.654200 0.885100
3.685600 0.892100
3.716900 0.899100
3.748200 0.905800
3.779500 0.914000
3.810900 0.928200
3.842200 0.948000
3.873500 0.969500
3.904800 0.986600
3.936200 1.033000
3.967500 1.064500
3.998800 1.077500
4.030100 1.089200
4.061500 1.108000
4.092800 1.209800
4.124100 1.248900
4.155400 1.315900
4.186700 1.361700
4.218100 1.386700
4.249400 1.426400
4.280700 1.426700
4.312000 1.415100
4.343400 1.394900
4.374700 1.350300
4.406000 1.325500
4.437300 1.321500
4.468700 1.378600
4.500000 1.422900
4.531300 1.356500
4.562600 1.337800
4.594000 1.318100
4.625300 1.303300
4.656600 1.283900
4.687900 1.274800
4.719300 1.298600
4.750600 1.304300
4.781900 1.293300
4.813200 1.230300
4.844600 1.244600
4.875900 1.257000
4.907200 1.283300
4.938500 1.306300
4.969900 1.270900
5.001200 1.245500
5.032500 1.246100
5.063800 1.250500
5.095100 1.264400
5.126500 1.283100
5.157800 1.304100
5.189100 1.340600
5.220400 1.368700
5.251800 1.390000
5.283100 1.408500
5.314400 1.432300
5.345700 1.457500
5.377100 1.467800
5.408400 1.462800
5.439700 1.440800
5.471000 1.369400
5.502400 1.260700
5.533700 1.139000
5.565000 1.042600
5.596300 1.005600
5.627700 1.001800
5.659000 1.006400
5.690300 1.156900
5.721600 1.106000
5.753000 1.093400
5.784300 1.087600
5.815600 1.096000
5.846900 1.110000
5.878200 1.159600
5.909600 1.227900
5.940900 1.273800
5.972200 1.312500
6.003500 1.344000
6.034900 1.368000
6.066200 1.314500
6.097500 1.296900
6.128800 1.281000
6.160200 1.249500
6.191500 1.236800
6.222800 1.223000
6.254100 1.201400
6.285500 1.211700
6.316800 1.158900
6.348100 1.132300
6.379400 1.117400
6.410800 1.131100
6.442100 1.184900
6.473400 1.315200
6.504700 1.348400
6.536100 1.341300
6.567400 1.267100
6.598700 1.219600
6.630000 1.149800
6.661400 1.130900
6.692700 1.150000
6.724000 1.127700
6.755300 1.099200
6.786600 1.112900
6.818000 1.114300
6.849300 1.117300
6.880600 1.129800
6.911900 1.138400
6.943300 1.147400
6.974600 1.156200
7.005900 1.162200
7.037200 1.169100
7.068600 1.207300
7.099900 1.233300
7.131200 1.205800
7.162500 1.205100
7.193900 1.248900
7.225200 1.230000
7.256500 1.207200
7.287800 1.122300
7.319200 1.051600
7.350500 1.012000
7.381800 0.990500
7.413100 0.994700
7.444500 0.980300
7.475800 0.985100
7.507100 1.009000
7.538400 0.984700
7.569700 0.977600
7.601100 0.977600
7.632400 0.942300
7.663700 0.893900
7.695000 0.886300
7.726400 0.877500
7.757700 0.868100
7.789000 0.862300
7.820300 0.865400
7.851700 0.854600
7.883000 0.844300
7.914300 0.811800
7.945600 0.774600
7.977000 0.769300
8.008300 0.770200
8.039600 0.786900
8.070900 0.819000
8.102300 0.863700
8.133600 0.923700
8.164900 0.951300
8.196200 0.945500
8.227600 0.905700
8.258900 0.947300
8.290200 0.922100
8.321500 0.880500
8.352900 0.860700
8.384200 0.848900
8.415500 0.835000
8.446800 0.828200
8.478100 0.841500
8.509500 0.863700
8.540800 0.892200
8.572100 0.922300
8.603400 0.928000
8.634800 0.944100
8.666100 0.961100
8.697400 0.975800
8.728700 0.980700
8.760100 1.001400
8.791400 0.992200
8.822700 0.980600
8.854000 0.973400
8.885400 0.969100
8.916700 1.006400
8.948000 0.954900
8.979300 0.958700
9.010700 0.988100
9.042000 1.023900
9.073300 1.062100
9.104600 1.094000
9.136000 1.082700
9.167300 1.063100
9.198600 1.093600
9.229900 1.005500
9.261200 1.028200
9.292600 1.048800
9.323900 1.071400
9.355200 1.090000
9.386500 1.085200
9.417900 1.046300
9.449200 1.006400
9.480500 1.030100
9.511800 1.059700
9.543200 1.053700
9.574500 1.034600
9.605800 1.009500
9.637100 1.008300
9.668500 1.028100
9.699800 1.051100
9.731100 1.066800
9.762400 1.104600
9.793800 1.095400
9.825100 1.106800
9.856400 1.118400
9.887700 1.132400
9.919100 1.148100
9.950400 1.162700
9.981700 1.172500
10.013000 1.177300
10.044400 1.181200
10.075700 1.184400
10.107000 1.193900
10.138300 1.200600
10.169600 1.193600
10.201000 1.204200
10.232300 1.224200
10.263600 1.245500
10.294900 1.262800
10.326300 1.277100
10.357600 1.337100
10.388900 1.390100
10.420200 1.404900
10.451600 1.404300
10.482900 1.406300
10.514200 1.425700
10.545500 1.447500
10.576900 1.474000
10.608200 1.505800
10.639500 1.524300
10.670800 1.532900
10.702200 1.499500
10.733500 1.418800
10.764800 1.390500
10.796100 1.384800
10.827500 1.401600
10.858800 1.418800
10.890100 1.389500
10.921400 1.406200
10.952700 1.435600
10.984100 1.464200
11.015400 1.510900
11.046700 1.566900
11.078000 1.628500
11.109400 1.635100
11.140700 1.635700
11.172000 1.664700
11.203300 1.616800
11.234700 1.540300
11.266000 1.519300
11.297300 1.505400
11.328600 1.502100
11.360000 1.460000
11.391300 1.429300
11.422600 1.453900
11.453900 1.481700
11.485300 1.469700
11.516600 1.490200
11.547900 1.532700
11.579200 1.578100
11.610600 1.659000
11.641900 1.706000
11.673200 1.668900
11.704500 1.628900
11.735900 1.606400
11.767200 1.555300
11.798500 1.524200
11.829800 1.517600
11.861100 1.517000
11.892500 1.535600
11.923800 1.547300
11.955100 1.552400
11.986400 1.568200
12.017800 1.580200
12.049100 1.601600
12.080400 1.652700
12.111700 1.631600
12.143100 1.586300
12.174400 1.547600
12.205700 1.514000
12.237000 1.474600
12.268400 1.450500
12.299700 1.427100
12.331000 1.397400
12.362300 1.375000
12.393700 1.355100
12.425000 1.360800
12.456300 1.414100
12.487600 1.411900
12.519000 1.443900
12.550300 1.487400
12.581600 1.500400
12.612900 1.499200
12.644300 1.509400
12.675600 1.526300
12.706900 1.548000
12.738200 1.577100
12.769500 1.556900
12.800900 1.555800
12.832200 1.547600
12.863500 1.534400
12.894800 1.527200
12.926200 1.526000
12.957500 1.528100
12.988800 1.531500
13.020100 1.532500
13.051500 1.533200
13.082800 1.549400
13.114100 1.542700
13.145400 1.535900
13.176800 1.527400
13.208100 1.508500
13.239400 1.505800
13.270700 1.503300
13.302100 1.479000
13.333400 1.460500
13.364700 1.421400
13.396000 1.396600
13.427400 1.362100
13.458700 1.366200
13.490000 1.366400
13.521300 1.345000
13.552600 1.335900
13.584000 1.330700
13.615300 1.329600
13.646600 1.310300
13.677900 1.307800
13.709300 1.326000
13.740600 1.334200
13.771900 1.338800
13.803200 1.332600
13.834600 1.320400
13.865900 1.311300
13.897200 1.296000
13.928500 1.278500
13.959900 1.262700
13.991200 1.241800
14.022500 1.224500
14.053800 1.206100
14.085200 1.182500
14.116500 1.180600
14.147800 1.199400
14.179100 1.223800
14.210500 1.226700
14.241800 1.213600
14.273100 1.208000
14.304400 1.212200
14.335800 1.232500
14.367100 1.225100
14.398400 1.208400
14.429700 1.282000
14.461000 1.251700
14.492400 1.252000
14.523700 1.248800
14.555000 1.254400
14.586300 1.270700
14.617700 1.305500
14.649000 1.326000
14.680300 1.334700
14.711600 1.347400
14.743000 1.355200
14.774300 1.361200
14.805600 1.363500
14.836900 1.337900
14.868300 1.331400
14.899600 1.325800
14.930900 1.321700
14.962200 1.319400
14.993600 1.323700
15.024900 1.334600
15.056200 1.354200
15.087500 1.368400
15.118900 1.373000
