set title 'mp-611836 - Density of States'
set xlabel 'Energy (eV)'
set ylabel 'DOS (states/eV)'
set grid
set xrange [-10:10]
set yrange [0:3.714]
set xzeroaxis lt -1
set terminal png size 800,600
set output 'mp-611836_dos_gnuplot.png'
plot '-' using 1:2 with lines title 'DOS'
-34.716700 0.000000
-34.650500 0.000000
-34.584300 0.000000
-34.518000 0.000000
-34.451800 0.000000
-34.385600 0.000000
-34.319300 0.000000
-34.253100 0.000000
-34.186900 0.000000
-34.120700 0.000000
-34.054400 0.000000
-33.988200 0.000000
-33.922000 0.000000
-33.855700 0.000000
-33.789500 0.000000
-33.723300 0.000000
-33.657000 0.000000
-33.590800 0.000000
-33.524600 0.000000
-33.458300 0.000000
-33.392100 0.000000
-33.325900 0.000000
-33.259600 0.000000
-33.193400 0.000000
-33.127200 0.000000
-33.060900 0.000000
-32.994700 0.000000
-32.928500 0.000000
-32.862200 0.000000
-32.796000 0.000000
-32.729800 0.000000
-32.663600 0.000000
-32.597300 0.000000
-32.531100 0.000000
-32.464900 0.000000
-32.398600 0.000000
-32.332400 0.000000
-32.266200 0.000000
-32.199900 0.000000
-32.133700 0.000000
-32.067500 0.000000
-32.001200 0.000000
-31.935000 0.000000
-31.868800 0.000000
-31.802500 0.000000
-31.736300 0.000000
-31.670100 0.000000
-31.603800 0.000000
-31.537600 0.000000
-31.471400 0.000000
-31.405100 0.000000
-31.338900 0.000000
-31.272700 0.000000
-31.206500 0.000000
-31.140200 0.000000
-31.074000 0.000000
-31.007800 0.000000
-30.941500 0.000000
-30.875300 0.000000
-30.809100 0.000000
-30.742800 0.000000
-30.676600 0.000000
-30.610400 0.000000
-30.544100 0.000000
-30.477900 0.000000
-30.411700 0.000000
-30.345400 0.000000
-30.279200 0.000000
-30.213000 0.000000
-30.146700 0.000000
-30.080500 0.000000
-30.014300 0.000000
-29.948100 0.000000
-29.881800 0.000000
-29.815600 0.000000
-29.749400 0.000000
-29.683100 0.000000
-29.616900 0.000000
-29.550700 0.000000
-29.484400 0.000000
-29.418200 0.000000
-29.352000 0.000000
-29.285700 0.000000
-29.219500 0.000000
-29.153300 0.000000
-29.087000 0.000000
-29.020800 0.000000
-28.954600 0.000000
-28.888300 0.000000
-28.822100 0.000000
-28.755900 0.000000
-28.689600 0.000000
-28.623400 0.000000
-28.557200 0.000000
-28.491000 0.000000
-28.424700 0.000000
-28.358500 0.000000
-28.292300 0.000000
-28.226000 0.000000
-28.159800 0.000000
-28.093600 0.000000
-28.027300 0.000000
-27.961100 0.000000
-27.894900 0.000000
-27.828600 0.000000
-27.762400 0.000000
-27.696200 0.000000
-27.629900 0.000000
-27.563700 0.000000
-27.497500 0.000000
-27.431200 7.122700
-27.365000 0.000000
-27.298800 0.000000
-27.232500 0.000000
-27.166300 0.000000
-27.100100 0.000000
-27.033900 0.000000
-26.967600 0.000000
-26.901400 0.000000
-26.835200 0.000000
-26.768900 0.000000
-26.702700 0.000000
-26.636500 0.000000
-26.570200 0.000000
-26.504000 0.000000
-26.437800 0.000000
-26.371500 0.000000
-26.305300 0.000000
-26.239100 0.000000
-26.172800 0.000000
-26.106600 0.000000
-26.040400 0.000000
-25.974100 0.000000
-25.907900 0.000000
-25.841700 0.000000
-25.775500 0.000000
-25.709200 0.000000
-25.643000 0.000000
-25.576800 0.000000
-25.510500 0.000000
-25.444300 0.000000
-25.378100 0.000000
-25.311800 0.000000
-25.245600 0.000000
-25.179400 0.000000
-25.113100 0.000000
-25.046900 0.000000
-24.980700 0.000000
-24.914400 0.000000
-24.848200 0.000000
-24.782000 0.000000
-24.715700 0.000000
-24.649500 0.000000
-24.583300 0.000000
-24.517000 0.000000
-24.450800 0.000000
-24.384600 0.000000
-24.318400 0.000000
-24.252100 0.000000
-24.185900 0.000000
-24.119700 0.000000
-24.053400 0.000000
-23.987200 0.000000
-23.921000 0.000000
-23.854700 0.000000
-23.788500 0.000000
-23.722300 0.000000
-23.656000 0.000000
-23.589800 0.000000
-23.523600 0.000000
-23.457300 0.000000
-23.391100 0.000000
-23.324900 0.000000
-23.258600 0.000000
-23.192400 0.000000
-23.126200 0.000000
-23.059900 0.000000
-22.993700 0.000000
-22.927500 0.000000
-22.861300 0.000000
-22.795000 0.000000
-22.728800 0.000000
-22.662600 0.000000
-22.596300 0.000000
-22.530100 0.000000
-22.463900 0.000000
-22.397600 0.000000
-22.331400 0.000000
-22.265200 0.000000
-22.198900 0.000000
-22.132700 0.000000
-22.066500 0.000000
-22.000200 0.000000
-21.934000 0.000000
-21.867800 0.000000
-21.801500 0.000000
-21.735300 0.000000
-21.669100 0.000000
-21.602900 0.000000
-21.536600 0.000000
-21.470400 0.000000
-21.404200 0.000000
-21.337900 0.000000
-21.271700 0.000000
-21.205500 0.000000
-21.139200 0.000000
-21.073000 0.000000
-21.006800 0.000000
-20.940500 0.000000
-20.874300 0.000000
-20.808100 0.000000
-20.741800 0.000000
-20.675600 0.000000
-20.609400 0.000000
-20.543100 0.000000
-20.476900 0.000000
-20.410700 0.000000
-20.344400 0.000000
-20.278200 0.000000
-20.212000 0.000000
-20.145800 0.000000
-20.079500 0.000000
-20.013300 0.000000
-19.947100 0.000000
-19.880800 0.000000
-19.814600 0.000000
-19.748400 0.000000
-19.682100 0.000000
-19.615900 0.000000
-19.549700 0.000000
-19.483400 0.000000
-19.417200 0.000000
-19.351000 0.000000
-19.284700 0.000000
-19.218500 0.000000
-19.152300 0.000000
-19.086000 0.000000
-19.019800 0.000000
-18.953600 0.000000
-18.887300 0.000000
-18.821100 0.000000
-18.754900 0.000000
-18.688700 0.000000
-18.622400 0.000000
-18.556200 0.000000
-18.490000 0.000000
-18.423700 0.000000
-18.357500 0.000000
-18.291300 0.000000
-18.225000 0.000000
-18.158800 0.000000
-18.092600 0.000000
-18.026300 0.000000
-17.960100 0.000000
-17.893900 0.000000
-17.827600 0.000000
-17.761400 0.000000
-17.695200 0.000000
-17.628900 0.000000
-17.562700 0.000000
-17.496500 0.000000
-17.430300 0.000000
-17.364000 0.000000
-17.297800 0.000000
-17.231600 0.000000
-17.165300 0.000000
-17.099100 0.000000
-17.032900 0.000000
-16.966600 0.000000
-16.900400 0.000000
-16.834200 0.000000
-16.767900 0.000000
-16.701700 0.000000
-16.635500 0.000000
-16.569200 0.000000
-16.503000 0.000000
-16.436800 0.000000
-16.370500 0.000000
-16.304300 0.000000
-16.238100 0.000000
-16.171800 0.000000
-16.105600 0.000000
-16.039400 0.000000
-15.973200 0.000000
-15.906900 0.000000
-15.840700 0.000000
-15.774500 0.000000
-15.708200 0.000000
-15.642000 0.000000
-15.575800 0.000000
-15.509500 0.000000
-15.443300 0.000000
-15.377100 0.000000
-15.310800 0.000000
-15.244600 0.376000
-15.178400 0.699800
-15.112100 1.094900
-15.045900 1.733400
-14.979700 3.137300
-14.913400 4.084500
-14.847200 5.174300
-14.781000 0.000000
-14.714800 0.000000
-14.648500 0.000000
-14.582300 0.000000
-14.516100 0.000000
-14.449800 0.000000
-14.383600 0.000000
-14.317400 0.000000
-14.251100 0.000000
-14.184900 0.000000
-14.118700 0.000000
-14.052400 0.000000
-13.986200 0.000000
-13.920000 0.000000
-13.853700 0.000000
-13.787500 0.000000
-13.721300 0.000000
-13.655000 0.000000
-13.588800 0.000000
-13.522600 0.000000
-13.456300 0.000000
-13.390100 0.000000
-13.323900 0.000000
-13.257700 0.000000
-13.191400 0.000000
-13.125200 0.000000
-13.059000 0.000000
-12.992700 0.000000
-12.926500 0.000000
-12.860300 0.000000
-12.794000 0.000000
-12.727800 0.000000
-12.661600 0.000000
-12.595300 0.000000
-12.529100 0.000000
-12.462900 0.000000
-12.396600 0.000000
-12.330400 0.000000
-12.264200 0.000000
-12.197900 0.000000
-12.131700 0.000000
-12.065500 0.000000
-11.999200 0.000000
-11.933000 0.000000
-11.866800 0.000000
-11.800600 0.000000
-11.734300 0.000000
-11.668100 0.000000
-11.601900 0.000000
-11.535600 0.000000
-11.469400 0.000000
-11.403200 0.000000
-11.336900 0.000000
-11.270700 0.000000
-11.204500 0.000000
-11.138200 0.000000
-11.072000 0.000000
-11.005800 0.000000
-10.939500 0.000000
-10.873300 0.000000
-10.807100 0.000000
-10.740800 0.000000
-10.674600 0.000000
-10.608400 0.000000
-10.542200 0.000000
-10.475900 0.000000
-10.409700 0.000000
-10.343500 0.000000
-10.277200 0.000000
-10.211000 0.000000
-10.144800 0.000000
-10.078500 0.000000
-10.012300 0.000000
-9.946100 0.000000
-9.879800 0.000000
-9.813600 0.000000
-9.747400 0.000000
-9.681100 0.000000
-9.614900 0.000000
-9.548700 0.000000
-9.482400 0.000000
-9.416200 0.000000
-9.350000 0.000000
-9.283700 0.000000
-9.217500 0.028400
-9.151300 0.256100
-9.085100 0.369800
-9.018800 0.491800
-8.952600 0.616100
-8.886400 0.760000
-8.820100 0.938500
-8.753900 1.196700
-8.687700 1.501600
-8.621400 1.682900
-8.555200 1.745000
-8.489000 1.864700
-8.422700 2.007500
-8.356500 1.347100
-8.290300 0.317700
-8.224000 0.000000
-8.157800 0.000000
-8.091600 0.000000
-8.025300 0.649200
-7.959100 1.931200
-7.892900 3.210300
-7.826600 2.300300
-7.760400 1.306800
-7.694200 1.047300
-7.628000 1.309500
-7.561700 1.629900
-7.495500 2.209800
-7.429300 2.333500
-7.363000 2.553000
-7.296800 2.979300
-7.230600 3.376500
-7.164300 2.385300
-7.098100 0.888300
-7.031900 0.000000
-6.965600 0.000000
-6.899400 0.000000
-6.833200 0.000000
-6.766900 0.000000
-6.700700 0.000000
-6.634500 0.000000
-6.568200 0.000000
-6.502000 0.000000
-6.435800 0.000000
-6.369600 0.000000
-6.303300 0.000000
-6.237100 0.000000
-6.170900 0.000000
-6.104600 0.000000
-6.038400 0.000000
-5.972200 0.000000
-5.905900 0.000000
-5.839700 0.000000
-5.773500 0.000000
-5.707200 0.000000
-5.641000 0.000000
-5.574800 0.000000
-5.508500 0.000000
-5.442300 0.000000
-5.376100 0.000000
-5.309800 0.000000
-5.243600 0.000000
-5.177400 0.000000
-5.111100 0.000000
-5.044900 0.000000
-4.978700 0.000000
-4.912500 0.000000
-4.846200 0.000000
-4.780000 0.000000
-4.713800 0.000000
-4.647500 0.000000
-4.581300 0.000000
-4.515100 0.000000
-4.448800 0.000000
-4.382600 0.000000
-4.316400 0.000000
-4.250100 0.000000
-4.183900 0.000000
-4.117700 0.000000
-4.051400 0.000000
-3.985200 0.000000
-3.919000 0.000000
-3.852700 0.000000
-3.786500 0.000000
-3.720300 0.000000
-3.654000 0.000000
-3.587800 0.000000
-3.521600 0.000000
-3.455400 0.000000
-3.389100 0.000000
-3.322900 0.000000
-3.256700 0.000000
-3.190400 0.000000
-3.124200 0.000000
-3.058000 0.000000
-2.991700 0.000000
-2.925500 0.000000
-2.859300 0.000000
-2.793000 0.000000
-2.726800 0.000000
-2.660600 0.000000
-2.594300 0.000000
-2.528100 0.000000
-2.461900 0.000000
-2.395600 0.000000
-2.329400 0.000000
-2.263200 0.000000
-2.197000 0.000000
-2.130700 0.000000
-2.064500 0.000000
-1.998300 0.000000
-1.932000 0.000000
-1.865800 0.000000
-1.799600 0.000000
-1.733300 0.000000
-1.667100 0.000000
-1.600900 0.000000
-1.534600 0.000000
-1.468400 0.000000
-1.402200 0.000000
-1.335900 0.370600
-1.269700 0.627100
-1.203500 1.472800
-1.137200 1.950900
-1.071000 2.043700
-1.004800 1.801500
-0.938500 1.867300
-0.872300 1.446300
-0.806100 1.798300
-0.739900 2.191800
-0.673600 2.750600
-0.607400 2.948600
-0.541200 3.006300
-0.474900 2.863900
-0.408700 2.274500
-0.342500 0.486300
-0.276200 0.000000
-0.210000 0.000000
-0.143800 0.000000
-0.077500 0.000000
-0.011300 0.000000
0.054900 0.000000
0.121200 0.000000
0.187400 0.000000
0.253600 0.000000
0.319900 0.000000
0.386100 0.000000
0.452300 0.000000
0.518600 0.000000
0.584800 0.000000
0.651000 0.000000
0.717200 0.000000
0.783500 0.000000
0.849700 0.000000
0.915900 0.000000
0.982200 0.000000
1.048400 0.000000
1.114600 0.000000
1.180900 0.000000
1.247100 0.000000
1.313300 0.000000
1.379600 0.000000
1.445800 0.000000
1.512000 0.000000
1.578300 0.000000
1.644500 0.000000
1.710700 0.000000
1.777000 0.000000
1.843200 0.000000
1.909400 0.000000
1.975600 0.000000
2.041900 0.000000
2.108100 0.000000
2.174300 0.000000
2.240600 0.000000
2.306800 0.000000
2.373000 0.000000
2.439300 0.000000
2.505500 0.000000
2.571700 0.000000
2.638000 0.000000
2.704200 0.000000
2.770400 0.000000
2.836700 0.000000
2.902900 0.000000
2.969100 0.000000
3.035400 0.000000
3.101600 0.000000
3.167800 0.000000
3.234100 0.000000
3.300300 0.000000
3.366500 0.000000
3.432700 0.000000
3.499000 0.000000
3.565200 0.000000
3.631400 0.000000
3.697700 0.000000
3.763900 0.000000
3.830100 0.000000
3.896400 0.000000
3.962600 0.000000
4.028800 0.000000
4.095100 0.000000
4.161300 0.000000
4.227500 0.000000
4.293800 0.000000
4.360000 0.000000
4.426200 0.000000
4.492500 0.000000
4.558700 0.034600
4.624900 0.086000
4.691200 0.140900
4.757400 0.158000
4.823600 0.148800
4.889800 0.165000
4.956100 0.181300
5.022300 0.194100
5.088500 0.202300
5.154800 0.204100
5.221000 0.211600
5.287200 0.218600
5.353500 0.223700
5.419700 0.227500
5.485900 0.231200
5.552200 0.235300
5.618400 0.238300
5.684600 0.242500
5.750900 0.248300
5.817100 0.254200
5.883300 0.307600
5.949600 0.291500
6.015800 0.304600
6.082000 0.317200
6.148200 0.329500
6.214500 0.342700
6.280700 0.355700
6.346900 0.368600
6.413200 0.381500
6.479400 0.394400
6.545600 0.416400
6.611900 0.460100
6.678100 0.513900
6.744300 0.559100
6.810600 0.558300
6.876800 0.570100
6.943000 0.603300
7.009300 0.622700
7.075500 0.656700
7.141700 0.695100
7.208000 0.767900
7.274200 0.720700
7.340400 0.682100
7.406700 0.605700
7.472900 0.567200
7.539100 0.325400
7.605300 0.213100
7.671600 0.149300
7.737800 0.139600
7.804000 0.147500
7.870300 0.164600
7.936500 0.190200
8.002700 0.236800
8.069000 0.316400
8.135200 0.523800
8.201400 0.660700
8.267700 0.793800
8.333900 1.046800
8.400100 1.319900
8.466400 1.433900
8.532600 1.484900
8.598800 1.312100
8.665100 1.001700
8.731300 1.010400
8.797500 0.643300
8.863800 0.333800
8.930000 0.267700
8.996200 0.190100
9.062400 0.070100
9.128700 0.017400
9.194900 0.004200
9.261100 0.016100
9.327400 0.035400
9.393600 0.061600
9.459800 0.096300
9.526100 0.199000
9.592300 0.359100
9.658500 0.415100
9.724800 0.502600
9.791000 0.611500
9.857200 0.801900
9.923500 1.040700
9.989700 1.550600
10.055900 1.120900
10.122200 0.777900
10.188400 0.707400
10.254600 0.663500
10.320800 0.612400
10.387100 0.558400
10.453300 0.514800
10.519500 0.473400
10.585800 0.415500
10.652000 0.363600
10.718200 0.323600
10.784500 0.302400
10.850700 0.273900
10.916900 0.287200
10.983200 0.338000
11.049400 0.392200
11.115600 0.552900
11.181900 0.690000
11.248100 0.813500
11.314300 0.891700
11.380600 0.986800
11.446800 0.847100
11.513000 0.737800
11.579300 0.679000
11.645500 0.612500
11.711700 0.576200
11.777900 0.549300
11.844200 0.522300
11.910400 0.472100
11.976600 0.434100
12.042900 0.421500
12.109100 0.418800
12.175300 0.417100
12.241600 0.419400
12.307800 0.425600
12.374000 0.416900
12.440300 0.393000
12.506500 0.364900
12.572700 0.348900
12.639000 0.324000
12.705200 0.292000
12.771400 0.266000
12.837700 0.229500
12.903900 0.184300
12.970100 0.155300
13.036400 0.136900
13.102600 0.122100
13.168800 0.109400
13.235000 0.112800
13.301300 0.147600
13.367500 0.234900
13.433700 0.288600
13.500000 0.335100
13.566200 0.388700
13.632400 0.440200
13.698700 0.522800
13.764900 0.585500
13.831100 0.590100
13.897400 0.586000
13.963600 0.858500
14.029800 0.639100
14.096100 0.594700
14.162300 0.568200
14.228500 0.554800
14.294800 0.530700
14.361000 0.500800
14.427200 0.473900
14.493400 0.455500
14.559700 0.456200
14.625900 0.450700
14.692100 0.400600
14.758400 0.409200
14.824600 0.431000
14.890800 0.443700
14.957100 0.482900
15.023300 0.512400
15.089500 0.526700
15.155800 0.564800
15.222000 0.618900
15.288200 0.652400
15.354500 0.660700
15.420700 0.707500
15.486900 0.798600
15.553200 0.813000
15.619400 0.792200
15.685600 0.773500
15.751900 0.739100
15.818100 0.702300
15.884300 0.673000
15.950500 0.748400
16.016800 0.660200
16.083000 0.619500
16.149200 0.600500
16.215500 0.576500
16.281700 0.553700
16.347900 0.549200
16.414200 0.578100
16.480400 0.554100
16.546600 0.533300
16.612900 0.505400
16.679100 0.495300
16.745300 0.490900
16.811600 0.468400
16.877800 0.434400
16.944000 0.419300
17.010300 0.429800
17.076500 0.448600
17.142700 0.466000
17.209000 0.487700
17.275200 0.507600
17.341400 0.501800
17.407600 0.482700
17.473900 0.474800
17.540100 0.498700
17.606300 0.523500
17.672600 0.505500
17.738800 0.492900
17.805000 0.502300
17.871300 0.529900
17.937500 0.545700
18.003700 0.586000
18.070000 0.601800
18.136200 0.548000
18.202400 0.522500
18.268700 0.507300
18.334900 0.480400
18.401100 0.461200
18.467400 0.445400
18.533600 0.461500
18.599800 0.440700
18.666000 0.426100
18.732300 0.438600
18.798500 0.411400
18.864700 0.417000
18.931000 0.438400
18.997200 0.457500
19.063400 0.476100
19.129700 0.493900
19.195900 0.507200
19.262100 0.521400
19.328400 0.552800
19.394600 0.597400
19.460800 0.553200
19.527100 0.503700
19.593300 0.490700
19.659500 0.485800
19.725800 0.481200
19.792000 0.482400
19.858200 0.483200
19.924500 0.470800
19.990700 0.453800
20.056900 0.443700
20.123100 0.435200
20.189400 0.422600
20.255600 0.412500
20.321800 0.409500
20.388100 0.416200
20.454300 0.458100
20.520500 0.507800
20.586800 0.530600
20.653000 0.531500
20.719200 0.543000
20.785500 0.559800
20.851700 0.579400
20.917900 0.607800
20.984200 0.606500
21.050400 0.604500
21.116600 0.600300
21.182900 0.597200
21.249100 0.586000
21.315300 0.567900
21.381600 0.565900
21.447800 0.559700
21.514000 0.564100
21.580200 0.593100
21.646500 0.624800
21.712700 0.659200
21.778900 0.705400
21.845200 0.752700
21.911400 0.793900
21.977600 0.823700
22.043900 0.850300
22.110100 0.864800
22.176300 0.837400
22.242600 0.811900
22.308800 0.770500
22.375000 0.729600
22.441300 0.689000
22.507500 0.656800
22.573700 0.657900
22.640000 0.614800
22.706200 0.558800
22.772400 0.537200
22.838600 0.529000
22.904900 0.517700
22.971100 0.508100
23.037300 0.485100
23.103600 0.454100
23.169800 0.445800
23.236000 0.449700
23.302300 0.495400
23.368500 0.567200
23.434700 0.640100
23.501000 0.715200
23.567200 0.771500
23.633400 0.803400
23.699700 0.838900
23.765900 0.886700
23.832100 0.849000
23.898400 0.828300
23.964600 0.799600
24.030800 0.766400
24.097100 0.677000
24.163300 0.521900
24.229500 0.425100
24.295700 0.388400
24.362000 0.376300
24.428200 0.429300
24.494400 0.489000
24.560700 0.547300
24.626900 0.597000
24.693100 0.631300
24.759400 0.656000
24.825600 0.688000
24.891800 0.756900
24.958100 0.815700
25.024300 0.866600
25.090500 0.947300
25.156800 0.931000
25.223000 0.940800
25.289200 0.984500
25.355500 0.942500
25.421700 0.905000
25.487900 0.768700
25.554200 0.718700
25.620400 0.618800
25.686600 0.566700
25.752800 0.628600
25.819100 0.755600
25.885300 0.789000
25.951500 0.809600
26.017800 0.841800
26.084000 0.881100
26.150200 0.961500
26.216500 0.991700
26.282700 1.051000
26.348900 1.086700
26.415200 1.126300
26.481400 1.100500
26.547600 1.021000
26.613900 0.970200
26.680100 0.948600
26.746300 1.004300
26.812600 0.887500
26.878800 0.781400
26.945000 0.688000
27.011200 0.623000
27.077500 0.565900
27.143700 0.581100
27.209900 0.653100
27.276200 0.674300
27.342400 0.730700
27.408600 0.802100
27.474900 0.855300
27.541100 0.889900
27.607300 0.828100
27.673600 0.805400
27.739800 0.807300
27.806000 0.851700
27.872300 0.819100
27.938500 0.757700
28.004700 0.736400
28.071000 0.747400
28.137200 0.793700
28.203400 0.815200
28.269700 0.851900
28.335900 0.842900
28.402100 0.995600
28.468300 1.041700
28.534600 1.069700
28.600800 1.101100
28.667000 1.134200
28.733300 1.083500
28.799500 1.058100
28.865700 1.059300
28.932000 1.040600
28.998200 1.045200
29.064400 0.986300
29.130700 0.961800
29.196900 0.948200
29.263100 0.904800
29.329400 0.863600
29.395600 0.786200
29.461800 0.731400
29.528100 0.708800
29.594300 0.685000
29.660500 0.671900
29.726800 0.727600
29.793000 0.771200
29.859200 0.893700
29.925400 1.062400
29.991700 0.907300
30.057900 0.774300
30.124100 0.693300
30.190400 0.650600
30.256600 0.731800
30.322800 0.692200
30.389100 0.731400
30.455300 0.740300
30.521500 0.699600
30.587800 0.677900
30.654000 0.654000
30.720200 0.629700
30.786500 0.615500
30.852700 0.658300
30.918900 0.720500
30.985200 0.737400
31.051400 0.748500
31.117600 0.745200
31.183800 0.731600
31.250100 0.725300
31.316300 0.725700
31.382500 0.734700
31.448800 0.734500
31.515000 0.768200
31.581200 0.755600
31.647500 0.771400
31.713700 0.802900
31.779900 0.767800
31.846200 0.725800
31.912400 0.700700
31.978600 0.686000
32.044900 0.700100
32.111100 0.672300
32.177300 0.637600
32.243600 0.613400
32.309800 0.598400
32.376000 0.594000
32.442300 0.584400
32.508500 0.584300
32.574700 0.596800
32.640900 0.610200
32.707200 0.621000
32.773400 0.635000
32.839600 0.665500
32.905900 0.663800
32.972100 0.686600
33.038300 0.723200
33.104600 0.748900
33.170800 0.812400
