set title 'mp-569765 - Density of States'
set xlabel 'Energy (eV)'
set ylabel 'DOS (states/eV)'
set grid
set xrange [-10:10]
set yrange [0:189.080]
set xzeroaxis lt -1
set terminal png size 800,600
set output 'mp-569765_dos_gnuplot.png'
plot '-' using 1:2 with lines title 'DOS'
-11.350300 0.000000
-11.317200 0.000000
-11.284200 0.000000
-11.251200 0.000000
-11.218100 0.000000
-11.185100 0.000000
-11.152100 0.000000
-11.119000 0.000000
-11.086000 0.000000
-11.053000 0.000000
-11.019900 0.000000
-10.986900 0.000000
-10.953900 0.000000
-10.920800 0.000000
-10.887800 0.000000
-10.854800 0.000000
-10.821700 0.000000
-10.788700 0.000000
-10.755700 0.000000
-10.722600 0.000000
-10.689600 0.000000
-10.656600 0.000000
-10.623500 0.000000
-10.590500 0.000000
-10.557500 0.000000
-10.524400 0.000000
-10.491400 0.000000
-10.458300 0.000000
-10.425300 0.000000
-10.392300 0.000000
-10.359200 0.000000
-10.326200 0.000000
-10.293200 0.000000
-10.260100 0.000000
-10.227100 0.000000
-10.194100 0.000000
-10.161000 0.000000
-10.128000 0.000000
-10.095000 0.000000
-10.061900 0.000000
-10.028900 0.000000
-9.995900 0.000000
-9.962800 0.000000
-9.929800 0.000000
-9.896800 0.000000
-9.863700 0.000000
-9.830700 0.000000
-9.797700 0.000000
-9.764600 0.000000
-9.731600 0.000000
-9.698500 0.000000
-9.665500 0.000000
-9.632500 0.000000
-9.599400 0.000000
-9.566400 0.000000
-9.533400 0.000000
-9.500300 0.000000
-9.467300 0.000000
-9.434300 0.000000
-9.401200 0.000000
-9.368200 0.000000
-9.335200 0.000000
-9.302100 0.000000
-9.269100 0.000000
-9.236100 0.000000
-9.203000 0.000000
-9.170000 0.000000
-9.137000 0.000000
-9.103900 0.000000
-9.070900 0.000000
-9.037900 0.000000
-9.004800 0.000000
-8.971800 0.000000
-8.938700 0.000000
-8.905700 0.000000
-8.872700 0.000000
-8.839600 0.000000
-8.806600 0.000000
-8.773600 0.000000
-8.740500 0.000000
-8.707500 0.000000
-8.674500 0.000000
-8.641400 0.000000
-8.608400 0.000000
-8.575400 0.000000
-8.542300 0.000000
-8.509300 0.000000
-8.476300 0.000000
-8.443200 0.000000
-8.410200 0.000000
-8.377200 0.000000
-8.344100 3.738300
-8.311100 10.855700
-8.278100 18.033900
-8.245000 45.795800
-8.212000 106.130500
-8.178900 91.252200
-8.145900 126.937000
-8.112900 171.891000
-8.079800 44.873000
-8.046800 13.847800
-8.013800 8.487800
-7.980700 0.000000
-7.947700 0.000000
-7.914700 0.000000
-7.881600 0.000000
-7.848600 0.000000
-7.815600 0.000000
-7.782500 0.000000
-7.749500 0.000000
-7.716500 0.000000
-7.683400 0.000000
-7.650400 0.000000
-7.617400 0.000000
-7.584300 0.000000
-7.551300 0.000000
-7.518300 0.000000
-7.485200 0.000000
-7.452200 0.000000
-7.419200 0.000000
-7.386100 0.000000
-7.353100 0.000000
-7.320000 0.000000
-7.287000 0.000000
-7.254000 0.000000
-7.220900 0.000000
-7.187900 0.000000
-7.154900 0.000000
-7.121800 0.000000
-7.088800 0.000000
-7.055800 0.000000
-7.022700 0.000000
-6.989700 0.000000
-6.956700 0.000000
-6.923600 0.000000
-6.890600 0.000000
-6.857600 0.000000
-6.824500 0.000000
-6.791500 0.000000
-6.758500 0.000000
-6.725400 0.000000
-6.692400 0.000000
-6.659400 0.000000
-6.626300 0.000000
-6.593300 0.000000
-6.560200 0.000000
-6.527200 0.000000
-6.494200 0.000000
-6.461100 0.000000
-6.428100 0.000000
-6.395100 0.000000
-6.362000 0.000000
-6.329000 0.000000
-6.296000 0.000000
-6.262900 0.000000
-6.229900 0.000000
-6.196900 0.000000
-6.163800 0.000000
-6.130800 0.000000
-6.097800 0.000000
-6.064700 0.000000
-6.031700 0.000000
-5.998700 0.000000
-5.965600 0.000000
-5.932600 0.000000
-5.899600 0.091600
-5.866500 0.320000
-5.833500 0.435500
-5.800400 0.497200
-5.767400 0.591500
-5.734400 0.692900
-5.701300 0.814400
-5.668300 0.929200
-5.635300 1.080200
-5.602200 1.175900
-5.569200 1.130100
-5.536200 1.130700
-5.503100 1.163600
-5.470100 1.190000
-5.437100 1.208400
-5.404000 1.192800
-5.371000 1.185400
-5.338000 1.196000
-5.304900 1.205500
-5.271900 1.215000
-5.238900 1.225700
-5.205800 1.241300
-5.172800 1.253400
-5.139800 1.257500
-5.106700 1.266900
-5.073700 1.284600
-5.040600 1.296200
-5.007600 1.303300
-4.974600 1.317500
-4.941500 1.335500
-4.908500 1.352000
-4.875500 1.368200
-4.842400 1.383300
-4.809400 1.396300
-4.776400 1.405800
-4.743300 1.422100
-4.710300 1.451800
-4.677300 1.484300
-4.644200 1.516600
-4.611200 1.549000
-4.578200 1.575700
-4.545100 1.604800
-4.512100 1.635900
-4.479100 1.683100
-4.446000 1.747600
-4.413000 1.812600
-4.380000 1.882500
-4.346900 1.954700
-4.313900 2.036200
-4.280900 2.425800
-4.247800 2.373500
-4.214800 2.411200
-4.181700 2.392000
-4.148700 2.366000
-4.115700 2.405900
-4.082600 2.376900
-4.049600 2.214400
-4.016600 1.984800
-3.983500 1.841400
-3.950500 1.731200
-3.917500 1.663400
-3.884400 1.528200
-3.851400 1.455200
-3.818400 1.392800
-3.785300 1.339300
-3.752300 1.293400
-3.719300 1.254800
-3.686200 1.197700
-3.653200 1.169300
-3.620200 1.150100
-3.587100 1.132600
-3.554100 1.097900
-3.521100 1.061500
-3.488000 1.045700
-3.455000 1.017600
-3.421900 0.973100
-3.388900 0.929500
-3.355900 0.894700
-3.322800 0.866500
-3.289800 0.845200
-3.256800 0.834600
-3.223700 0.826400
-3.190700 0.803700
-3.157700 0.808300
-3.124600 0.804500
-3.091600 0.803200
-3.058600 0.783900
-3.025500 0.738400
-2.992500 0.693000
-2.959500 0.647400
-2.926400 0.605500
-2.893400 0.616800
-2.860400 0.695600
-2.827300 0.769100
-2.794300 0.661500
-2.761300 0.411000
-2.728200 0.167100
-2.695200 0.000000
-2.662100 0.000000
-2.629100 0.000000
-2.596100 0.000000
-2.563000 0.000000
-2.530000 0.000000
-2.497000 0.000000
-2.463900 0.000000
-2.430900 0.000000
-2.397900 0.000000
-2.364800 0.000000
-2.331800 0.000000
-2.298800 0.000000
-2.265700 0.000000
-2.232700 0.000000
-2.199700 0.000000
-2.166600 0.000000
-2.133600 0.000000
-2.100600 0.000000
-2.067500 0.000000
-2.034500 0.000000
-2.001500 0.000000
-1.968400 0.000000
-1.935400 0.000000
-1.902300 0.000000
-1.869300 0.000000
-1.836300 0.000000
-1.803200 0.000000
-1.770200 0.000000
-1.737200 0.000000
-1.704100 0.000000
-1.671100 0.000000
-1.638100 0.000000
-1.605000 0.000000
-1.572000 0.000000
-1.539000 0.000000
-1.505900 0.000000
-1.472900 0.000000
-1.439900 0.000000
-1.406800 0.000000
-1.373800 0.000000
-1.340800 0.000000
-1.307700 0.000000
-1.274700 0.000000
-1.241700 0.000000
-1.208600 0.000000
-1.175600 0.000000
-1.142500 0.009900
-1.109500 0.082300
-1.076500 0.158500
-1.043400 0.160800
-1.010400 0.160500
-0.977400 0.186000
-0.944300 0.213000
-0.911300 0.241400
-0.878300 0.271300
-0.845200 0.284900
-0.812200 0.296000
-0.779200 0.313200
-0.746100 0.325700
-0.713100 0.336900
-0.680100 0.350300
-0.647000 0.364500
-0.614000 0.378200
-0.581000 0.392500
-0.547900 0.407000
-0.514900 0.417900
-0.481900 0.427100
-0.448800 0.438200
-0.415800 0.450800
-0.382800 0.463400
-0.349700 0.476100
-0.316700 0.488700
-0.283600 0.501200
-0.250600 0.514000
-0.217600 0.527300
-0.184500 0.541300
-0.151500 0.555000
-0.118500 0.568200
-0.085400 0.582500
-0.052400 0.596000
-0.019400 0.606400
0.013700 0.616900
0.046700 0.629000
0.079700 0.641300
0.112800 0.653900
0.145800 0.666500
0.178800 0.679100
0.211900 0.691800
0.244900 0.705600
0.277900 0.721300
0.311000 0.738800
0.344000 0.757500
0.377000 0.781300
0.410100 0.840600
0.443100 0.940700
0.476200 1.065900
0.509200 1.225700
0.542200 1.282500
0.575300 1.305400
0.608300 1.396100
0.641300 1.500700
0.674400 1.611900
0.707400 1.727600
0.740400 1.873700
0.773500 2.048100
0.806500 2.209900
0.839500 2.376300
0.872600 2.467100
0.905600 2.445100
0.938600 2.463700
0.971700 2.490900
1.004700 2.588100
1.037700 2.577700
1.070800 2.510600
1.103800 2.500900
1.136800 2.436900
1.169900 2.415200
1.202900 2.436000
1.236000 2.390500
1.269000 2.177500
1.302000 2.043200
1.335100 1.885300
1.368100 1.802300
1.401100 1.724500
1.434200 1.655900
1.467200 1.673400
1.500200 1.561100
1.533300 1.487800
1.566300 1.431400
1.599300 1.361000
1.632400 1.293500
1.665400 1.241900
1.698400 1.233100
1.731500 1.107000
1.764500 1.074000
1.797500 1.039400
1.830600 0.990400
1.863600 0.937000
1.896600 0.894700
1.929700 0.865500
1.962700 0.840400
1.995800 0.815500
2.028800 0.791200
2.061800 0.766500
2.094900 0.863600
2.127900 0.867500
2.160900 0.874700
2.194000 0.885600
2.227000 0.861700
2.260000 0.845600
2.293100 0.857300
2.326100 0.923200
2.359100 0.904900
2.392200 0.893500
2.425200 0.871000
2.458200 0.860900
2.491300 0.872700
2.524300 0.878100
2.557300 0.877200
2.590400 0.872700
2.623400 0.881800
2.656400 0.892700
2.689500 0.906800
2.722500 0.942500
2.755500 0.983800
2.788600 1.054400
2.821600 1.085900
2.854700 1.050700
2.887700 1.100700
2.920700 1.133700
2.953800 1.184100
2.986800 1.232600
3.019800 1.262900
3.052900 1.292100
3.085900 1.325900
3.118900 1.350800
3.152000 1.381600
3.185000 1.421400
3.218000 1.435900
3.251100 1.479500
3.284100 1.531100
3.317100 1.590900
3.350200 1.654300
3.383200 1.716900
3.416200 1.791300
3.449300 1.863700
3.482300 1.975700
3.515300 2.044300
3.548400 2.137300
3.581400 2.245200
3.614500 2.338500
3.647500 2.447100
3.680500 2.566900
3.713600 2.700200
3.746600 2.851000
3.779600 3.030400
3.812700 3.147900
3.845700 3.257300
3.878700 3.320100
3.911800 3.380600
3.944800 3.498800
3.977800 3.924000
4.010900 3.007700
4.043900 2.651900
4.076900 2.567600
4.110000 2.549300
4.143000 2.581800
4.176000 2.643300
4.209100 2.646700
4.242100 2.674800
4.275100 2.707900
4.308200 2.740300
4.341200 2.768000
4.374300 2.796400
4.407300 2.832200
4.440300 2.780100
4.473400 2.748000
4.506400 2.719400
4.539400 2.650000
4.572500 2.553900
4.605500 2.410600
4.638500 2.265800
4.671600 2.142700
4.704600 1.933100
4.737600 1.689700
4.770700 1.600700
4.803700 1.659200
4.836700 1.523400
4.869800 1.529100
4.902800 1.570900
4.935800 1.635900
4.968900 1.709400
5.001900 1.893600
5.034900 1.961400
5.068000 2.006500
5.101000 2.102800
5.134100 2.207500
5.167100 2.314600
5.200100 2.417700
5.233200 2.482500
5.266200 2.536200
5.299200 2.586800
5.332300 2.629300
5.365300 2.650400
5.398300 2.660000
5.431400 2.769100
5.464400 2.718400
5.497400 2.550200
5.530500 2.419900
5.563500 2.373100
5.596500 2.406800
5.629600 2.422200
5.662600 2.397900
5.695600 2.430700
5.728700 2.371400
5.761700 2.358100
5.794700 2.376300
5.827800 2.398400
5.860800 2.415900
5.893900 2.443900
5.926900 2.463500
5.959900 2.451700
5.993000 2.391200
6.026000 2.308700
6.059000 2.230700
6.092100 2.154000
6.125100 2.185800
6.158100 2.331700
6.191200 2.111600
6.224200 2.007100
6.257200 1.908000
6.290300 1.784700
6.323300 1.624100
6.356300 1.526100
6.389400 1.496200
6.422400 1.494300
6.455400 1.541300
6.488500 1.704600
6.521500 1.870700
6.554500 2.032500
6.587600 2.157100
6.620600 2.280800
6.653600 2.275600
6.686700 2.233700
6.719700 2.188100
6.752800 2.188400
6.785800 2.194200
6.818800 2.165100
6.851900 2.129300
6.884900 2.107400
6.917900 2.171100
6.951000 2.191400
6.984000 2.211200
7.017000 2.223900
7.050100 2.219300
7.083100 2.190900
7.116100 2.150000
7.149200 2.121900
7.182200 2.101500
7.215200 2.087600
7.248300 2.146300
7.281300 2.206400
7.314300 2.014500
7.347400 1.933400
7.380400 1.854500
7.413400 1.770200
7.446500 1.663600
7.479500 1.680100
7.512600 1.861900
7.545600 1.791500
7.578600 1.952500
7.611700 2.087000
7.644700 2.294400
7.677700 2.423000
7.710800 2.380700
7.743800 2.326400
7.776800 2.418300
7.809900 2.439400
7.842900 2.481600
7.875900 2.505900
7.909000 2.565100
7.942000 2.698300
7.975000 2.799400
8.008100 2.931400
8.041100 2.952600
8.074100 2.976100
8.107200 2.883400
8.140200 2.915500
8.173200 3.102200
8.206300 3.127400
8.239300 3.086800
8.272400 3.050700
8.305400 3.061000
8.338400 3.094400
8.371500 3.132300
8.404500 3.138500
8.437500 3.083300
8.470600 3.064700
8.503600 3.063300
8.536600 3.157900
8.569700 3.254700
8.602700 3.308000
8.635700 3.330300
8.668800 3.180000
8.701800 3.125000
8.734800 3.170600
8.767900 3.230700
8.800900 3.242600
8.833900 3.233700
8.867000 3.151300
8.900000 3.082000
8.933000 2.991200
8.966100 2.919100
8.999100 2.829700
9.032200 2.729600
9.065200 2.647100
9.098200 2.628000
9.131300 2.718700
9.164300 2.852500
9.197300 3.034600
9.230400 3.346500
9.263400 3.672600
9.296400 3.872300
9.329500 3.978800
9.362500 3.968300
9.395500 3.626300
9.428600 3.229200
9.461600 2.909000
9.494600 2.666700
9.527700 2.528500
9.560700 2.445000
9.593700 2.412600
9.626800 2.458500
9.659800 2.540500
9.692800 2.662600
9.725900 2.793100
9.758900 2.838100
9.791900 2.891400
9.825000 2.942500
9.858000 3.043300
9.891100 3.151400
9.924100 3.290900
9.957100 3.410300
9.990200 3.359000
10.023200 3.219600
10.056200 3.083700
10.089300 2.932600
10.122300 2.778700
10.155300 2.622900
10.188400 2.627700
10.221400 2.659100
10.254400 2.557500
10.287500 2.430300
10.320500 2.353900
10.353500 2.292900
10.386600 2.242200
10.419600 2.190500
10.452600 2.139100
10.485700 2.089400
10.518700 2.045500
10.551700 2.020400
10.584800 2.017100
10.617800 2.152900
10.650900 2.055800
10.683900 1.929500
10.716900 2.008000
10.750000 2.079900
10.783000 2.187900
10.816000 2.132900
10.849100 2.089900
10.882100 2.069000
10.915100 2.022100
10.948200 1.956500
10.981200 1.914600
11.014200 1.884500
11.047300 1.866600
11.080300 1.870800
11.113300 1.864700
11.146400 1.861400
11.179400 1.870100
11.212400 1.862700
11.245500 1.815400
11.278500 1.809300
11.311500 1.803400
11.344600 1.798200
11.377600 1.797000
11.410700 1.815700
11.443700 1.881800
11.476700 1.920800
11.509800 1.991100
11.542800 2.034300
11.575800 2.040100
11.608900 1.961600
11.641900 1.883900
11.674900 1.854100
11.708000 1.749900
11.741000 1.881100
11.774000 1.977900
11.807100 2.073500
11.840100 2.080200
11.873100 2.012100
11.906200 1.750100
11.939200 1.667000
11.972200 1.686900
12.005300 1.731900
12.038300 1.727600
12.071300 1.722700
12.104400 1.721900
12.137400 1.726300
12.170500 1.752600
12.203500 1.801200
12.236500 1.933100
12.269600 1.973100
12.302600 1.994100
12.335600 1.967300
12.368700 1.835600
12.401700 2.148700
12.434700 2.064800
12.467800 2.117100
12.500800 2.135400
12.533800 2.153500
12.566900 2.150600
12.599900 2.093900
12.632900 2.105000
12.666000 2.197200
12.699000 2.231000
12.732000 2.226700
12.765100 2.203200
12.798100 2.382200
12.831100 2.671400
12.864200 2.439100
12.897200 2.458700
12.930200 2.482000
12.963300 2.490900
12.996300 2.611900
13.029400 2.699000
13.062400 2.621800
13.095400 2.565700
13.128500 2.584400
13.161500 2.550900
13.194500 2.585700
13.227600 2.627900
13.260600 2.655200
13.293600 2.669300
13.326700 2.651200
13.359700 2.637900
13.392700 2.646300
13.425800 2.660200
13.458800 2.671200
13.491800 2.687900
13.524900 2.720900
13.557900 2.717900
13.590900 3.059600
13.624000 3.155300
13.657000 3.077900
13.690000 3.099900
13.723100 3.129200
13.756100 3.190600
13.789200 3.106700
13.822200 3.017600
13.855200 2.927000
13.888300 2.863700
13.921300 2.804100
13.954300 2.800000
13.987400 2.770900
14.020400 2.788100
14.053400 2.822400
14.086500 2.906100
14.119500 3.053000
14.152500 3.190500
14.185600 3.186900
14.218600 3.140100
14.251600 3.179400
14.284700 3.200000
14.317700 3.326700
14.350700 3.468500
14.383800 3.617100
14.416800 3.746100
14.449800 3.831400
14.482900 3.794700
14.515900 3.709400
14.549000 3.608400
14.582000 3.538200
14.615000 3.470500
14.648100 3.405800
14.681100 3.326200
14.714100 3.265300
14.747200 3.208200
14.780200 3.288100
14.813200 3.202900
14.846300 3.154100
14.879300 3.075700
14.912300 2.983600
14.945400 2.949600
14.978400 2.888200
15.011400 3.036400
15.044500 3.011100
15.077500 3.006400
15.110500 2.858100
15.143600 2.762300
15.176600 2.786100
15.209600 2.788800
15.242700 2.918800
15.275700 3.012200
15.308800 3.099500
15.341800 3.231100
15.374800 3.305100
15.407900 3.414900
15.440900 3.485300
15.473900 3.489000
15.507000 3.451500
15.540000 3.498800
15.573000 3.609800
15.606100 3.533300
15.639100 3.537600
15.672100 3.542100
15.705200 3.521900
15.738200 3.475100
15.771200 3.451700
15.804300 3.598800
15.837300 3.580200
15.870300 3.617900
15.903400 3.646800
15.936400 3.483700
15.969400 3.544200
16.002500 3.519500
16.035500 3.563600
16.068600 3.651000
16.101600 3.932800
16.134600 3.840300
16.167700 3.774100
16.200700 3.636900
16.233700 3.538300
16.266800 3.417400
16.299800 3.324100
16.332800 3.279900
16.365900 3.223700
16.398900 3.145000
16.431900 3.029700
16.465000 3.020000
16.498000 3.048900
16.531000 3.064000
16.564100 3.130100
16.597100 3.216300
16.630100 3.241600
16.663200 3.273400
16.696200 3.219500
16.729200 3.124200
16.762300 3.086000
16.795300 3.051100
16.828300 3.026300
16.861400 2.912800
16.894400 2.844300
16.927500 2.746400
16.960500 2.771900
16.993500 2.799300
17.026600 2.611000
17.059600 2.526300
17.092600 2.456600
17.125700 2.551600
17.158700 2.619100
17.191700 2.622900
17.224800 2.631100
17.257800 2.648400
17.290800 2.726600
17.323900 2.826100
17.356900 2.859500
17.389900 2.951700
17.423000 3.067000
17.456000 3.209000
17.489000 3.493800
17.522100 3.770600
17.555100 3.672100
17.588100 3.444000
17.621200 3.444800
17.654200 3.469900
17.687300 3.536200
17.720300 3.633900
17.753300 3.576800
17.786400 3.551800
17.819400 3.463300
17.852400 3.390700
17.885500 3.297900
17.918500 3.270100
17.951500 3.233600
17.984600 3.307800
18.017600 3.411200
18.050600 3.511500
18.083700 3.752400
18.116700 4.053600
18.149700 4.053700
18.182800 4.672200
18.215800 4.117500
18.248800 4.152300
18.281900 4.242900
18.314900 4.390700
18.347900 4.316300
18.381000 4.174100
18.414000 4.016800
18.447100 3.898500
18.480100 3.904000
18.513100 3.912200
18.546200 3.935800
18.579200 3.913100
18.612200 3.950100
18.645300 4.043000
18.678300 4.073400
18.711300 4.068800
18.744400 4.113200
18.777400 4.286300
18.810400 4.332700
18.843500 4.133400
18.876500 4.058100
18.909500 4.037500
18.942600 4.122000
18.975600 4.102300
19.008600 4.150000
19.041700 4.244100
19.074700 4.415000
19.107700 4.761100
19.140800 4.808600
19.173800 4.800000
19.206900 4.633800
19.239900 4.399700
19.272900 4.349300
19.306000 4.560300
19.339000 4.916600
19.372000 4.824700
19.405100 4.546100
19.438100 4.628500
19.471100 4.726900
19.504200 4.837400
19.537200 4.965200
19.570200 5.097300
19.603300 5.233300
19.636300 5.265100
19.669300 5.182400
19.702400 4.825000
19.735400 4.362500
19.768400 4.485200
19.801500 4.652800
19.834500 4.798900
19.867500 4.811900
19.900600 4.892200
19.933600 4.820400
19.966600 4.765900
19.999700 4.682800
20.032700 4.555300
20.065800 4.316500
20.098800 4.187200
20.131800 4.129600
20.164900 3.992800
20.197900 4.031900
20.230900 4.093800
20.264000 4.097700
20.297000 4.156600
20.330000 4.209500
20.363100 4.327100
20.396100 4.407800
20.429100 4.486000
20.462200 4.513000
20.495200 4.439800
20.528200 4.278200
20.561300 4.149500
20.594300 4.201400
20.627300 4.163100
20.660400 4.238800
20.693400 4.239900
20.726400 4.271100
20.759500 4.377200
20.792500 4.513900
20.825600 4.719300
20.858600 5.154900
20.891600 5.049300
20.924700 4.938400
20.957700 4.795800
20.990700 4.644200
21.023800 4.571400
21.056800 4.481400
21.089800 4.387500
21.122900 4.427200
21.155900 4.449700
21.188900 4.640200
21.222000 4.773900
21.255000 4.894200
21.288000 4.842400
21.321100 4.838300
21.354100 4.822900
21.387100 4.771300
21.420200 4.675400
21.453200 4.643900
21.486200 4.645300
21.519300 4.742700
21.552300 4.961800
21.585400 5.241600
21.618400 5.081700
21.651400 5.065600
21.684500 5.137300
21.717500 5.015500
21.750500 4.936800
21.783600 4.773400
21.816600 4.919200
21.849600 4.691500
21.882700 4.421100
21.915700 4.535500
21.948700 4.574000
21.981800 4.647300
22.014800 4.786100
22.047800 4.850700
22.080900 4.803700
22.113900 4.781500
22.146900 4.743300
22.180000 4.704500
22.213000 4.691100
22.246000 4.852200
22.279100 5.240600
22.312100 5.249800
22.345200 5.135500
22.378200 4.960400
22.411200 4.907600
22.444300 4.845900
22.477300 4.818400
22.510300 4.743700
22.543400 4.771700
22.576400 4.730500
22.609400 4.670000
22.642500 4.682500
22.675500 4.618300
22.708500 4.636100
22.741600 4.646300
22.774600 4.681500
22.807600 4.840900
22.840700 5.012100
22.873700 5.164000
22.906700 5.308600
22.939800 5.263500
22.972800 5.319500
23.005800 5.341100
23.038900 5.365500
23.071900 5.511900
23.104900 5.476300
23.138000 5.421800
23.171000 5.405100
23.204100 5.389300
23.237100 5.193700
23.270100 5.155100
23.303200 5.182600
23.336200 5.260500
