set title 'mp-561196 - Density of States'
set xlabel 'Energy (eV)'
set ylabel 'DOS (states/eV)'
set grid
set xrange [-10:10]
set yrange [0:617.279]
set xzeroaxis lt -1
set terminal png size 800,600
set output 'mp-561196_dos_gnuplot.png'
plot '-' using 1:2 with lines title 'DOS'
-12.327000 0.000000
-12.313300 0.000000
-12.299700 0.000000
-12.286000 0.000000
-12.272400 0.000000
-12.258700 0.000000
-12.245100 0.000000
-12.231400 0.000000
-12.217800 0.000000
-12.204100 0.000000
-12.190500 0.000000
-12.176900 0.000000
-12.163200 0.000000
-12.149600 0.000000
-12.135900 0.000000
-12.122300 0.000000
-12.108600 0.000000
-12.095000 0.000000
-12.081300 0.000000
-12.067700 0.000000
-12.054000 0.000000
-12.040400 0.000000
-12.026700 0.000000
-12.013100 0.000000
-11.999500 0.000000
-11.985800 0.000000
-11.972200 0.000000
-11.958500 0.000000
-11.944900 0.000000
-11.931200 0.000000
-11.917600 0.000000
-11.903900 0.000000
-11.890300 0.000000
-11.876600 0.000000
-11.863000 0.000000
-11.849400 0.000000
-11.835700 0.000000
-11.822100 0.000000
-11.808400 0.000000
-11.794800 0.000000
-11.781100 0.000000
-11.767500 0.000000
-11.753800 0.000000
-11.740200 0.000000
-11.726500 0.000000
-11.712900 0.000000
-11.699300 0.000000
-11.685600 0.000000
-11.672000 0.000000
-11.658300 0.000000
-11.644700 0.000000
-11.631000 0.000000
-11.617400 0.000000
-11.603700 0.000000
-11.590100 0.000000
-11.576400 0.000000
-11.562800 0.000000
-11.549100 0.000000
-11.535500 0.000000
-11.521900 0.000000
-11.508200 0.000000
-11.494600 0.000000
-11.480900 0.000000
-11.467300 0.000000
-11.453600 0.000000
-11.440000 0.000000
-11.426300 0.000000
-11.412700 0.000000
-11.399000 0.000000
-11.385400 0.000000
-11.371800 0.000000
-11.358100 0.000000
-11.344500 0.000000
-11.330800 0.000000
-11.317200 0.000000
-11.303500 0.000000
-11.289900 0.000000
-11.276200 0.000000
-11.262600 0.000000
-11.248900 0.000000
-11.235300 0.000000
-11.221600 0.000000
-11.208000 0.000000
-11.194400 0.000000
-11.180700 0.000000
-11.167100 0.000000
-11.153400 0.000000
-11.139800 0.000000
-11.126100 0.000000
-11.112500 0.000000
-11.098800 0.000000
-11.085200 0.018200
-11.071500 0.218600
-11.057900 0.419100
-11.044300 0.767900
-11.030600 1.381800
-11.017000 1.995600
-11.003300 2.609500
-10.989700 3.223400
-10.976000 3.837300
-10.962400 4.451200
-10.948700 4.115900
-10.935100 4.784900
-10.921400 4.783100
-10.907800 4.497300
-10.894100 5.028500
-10.880500 5.559800
-10.866900 6.091100
-10.853200 6.622300
-10.839600 7.153600
-10.825900 7.684800
-10.812300 6.211100
-10.798600 6.346100
-10.785000 6.481200
-10.771300 6.927400
-10.757700 7.599700
-10.744000 8.272100
-10.730400 8.944400
-10.716800 9.610500
-10.703100 10.273400
-10.689500 10.929900
-10.675800 11.576400
-10.662200 10.169200
-10.648500 10.352100
-10.634900 10.535000
-10.621200 10.722000
-10.607600 10.917200
-10.593900 11.112900
-10.580300 11.598200
-10.566600 12.495200
-10.553000 13.392300
-10.539400 14.289300
-10.525700 15.186300
-10.512100 16.088400
-10.498400 17.006500
-10.484800 15.809000
-10.471100 16.150600
-10.457500 16.510800
-10.443800 16.871000
-10.430200 17.231200
-10.416500 17.591500
-10.402900 17.951700
-10.389300 18.880400
-10.375600 20.171800
-10.362000 21.803100
-10.348300 23.804000
-10.334700 25.602300
-10.321000 27.400600
-10.307400 26.772700
-10.293700 27.908400
-10.280100 30.077000
-10.266400 33.267900
-10.252800 38.375900
-10.239100 39.319800
-10.225500 40.262900
-10.211900 43.581700
-10.198200 47.101700
-10.184600 46.575000
-10.170900 45.297100
-10.157300 45.404400
-10.143600 46.626000
-10.130000 52.509400
-10.116300 52.328000
-10.102700 55.083700
-10.089000 45.837500
-10.075400 48.899100
-10.061800 42.089300
-10.048100 53.033700
-10.034500 52.172800
-10.020800 36.281800
-10.007200 40.769800
-9.993500 63.063700
-9.979900 67.176600
-9.966200 46.920900
-9.952600 50.301000
-9.938900 73.385700
-9.925300 96.231900
-9.911600 122.524900
-9.898000 0.000000
-9.884400 0.000000
-9.870700 0.000000
-9.857100 0.000000
-9.843400 0.000000
-9.829800 0.000000
-9.816100 0.000000
-9.802500 0.000000
-9.788800 0.000000
-9.775200 0.000000
-9.761500 0.000000
-9.747900 0.000000
-9.734300 0.000000
-9.720600 0.000000
-9.707000 0.000000
-9.693300 0.000000
-9.679700 0.000000
-9.666000 0.000000
-9.652400 0.000000
-9.638700 0.000000
-9.625100 0.000000
-9.611400 0.000000
-9.597800 0.000000
-9.584100 0.000000
-9.570500 0.000000
-9.556900 0.000000
-9.543200 0.000000
-9.529600 0.000000
-9.515900 0.000000
-9.502300 0.000000
-9.488600 0.000000
-9.475000 0.000000
-9.461300 0.000000
-9.447700 0.000000
-9.434000 0.000000
-9.420400 0.000000
-9.406800 0.000000
-9.393100 0.000000
-9.379500 0.000000
-9.365800 0.000000
-9.352200 0.000000
-9.338500 0.000000
-9.324900 0.000000
-9.311200 0.000000
-9.297600 0.000000
-9.283900 0.000000
-9.270300 0.000000
-9.256600 0.000000
-9.243000 0.000000
-9.229400 0.000000
-9.215700 0.000000
-9.202100 0.000000
-9.188400 0.000000
-9.174800 0.000000
-9.161100 0.000000
-9.147500 0.000000
-9.133800 0.000000
-9.120200 0.000000
-9.106500 0.000000
-9.092900 0.000000
-9.079300 0.000000
-9.065600 0.000000
-9.052000 0.000000
-9.038300 0.000000
-9.024700 0.000000
-9.011000 0.000000
-8.997400 0.000000
-8.983700 0.000000
-8.970100 0.000000
-8.956400 0.000000
-8.942800 0.000000
-8.929100 0.000000
-8.915500 0.000000
-8.901900 0.000000
-8.888200 0.000000
-8.874600 0.000000
-8.860900 0.000000
-8.847300 0.000000
-8.833600 0.000000
-8.820000 0.000000
-8.806300 0.000000
-8.792700 0.000000
-8.779000 0.000000
-8.765400 0.000000
-8.751800 0.000000
-8.738100 0.000000
-8.724500 0.000000
-8.710800 0.000000
-8.697200 0.000000
-8.683500 0.000000
-8.669900 0.000000
-8.656200 0.000000
-8.642600 0.000000
-8.628900 0.000000
-8.615300 0.000000
-8.601700 0.000000
-8.588000 0.000000
-8.574400 0.000000
-8.560700 0.000000
-8.547100 0.000000
-8.533400 0.000000
-8.519800 0.000000
-8.506100 0.000000
-8.492500 0.000000
-8.478800 0.000000
-8.465200 0.000000
-8.451500 0.000000
-8.437900 0.000000
-8.424300 0.000000
-8.410600 0.000000
-8.397000 0.000000
-8.383300 0.000000
-8.369700 0.000000
-8.356000 0.000000
-8.342400 0.000000
-8.328700 0.000000
-8.315100 0.000000
-8.301400 0.000000
-8.287800 0.000000
-8.274200 0.000000
-8.260500 0.000000
-8.246900 0.000000
-8.233200 0.000000
-8.219600 0.000000
-8.205900 0.000000
-8.192300 0.000000
-8.178600 0.000000
-8.165000 0.000000
-8.151300 0.000000
-8.137700 0.000000
-8.124000 0.000000
-8.110400 0.000000
-8.096800 0.000000
-8.083100 0.000000
-8.069500 0.000000
-8.055800 0.000000
-8.042200 0.000000
-8.028500 0.000000
-8.014900 0.000000
-8.001200 0.000000
-7.987600 0.000000
-7.973900 0.000000
-7.960300 0.000000
-7.946700 0.000000
-7.933000 0.000000
-7.919400 0.000000
-7.905700 0.000000
-7.892100 0.000000
-7.878400 0.000000
-7.864800 0.000000
-7.851100 0.000000
-7.837500 0.000000
-7.823800 0.000000
-7.810200 0.000000
-7.796500 0.000000
-7.782900 0.000000
-7.769300 0.000000
-7.755600 0.000000
-7.742000 0.000000
-7.728300 0.000000
-7.714700 0.000000
-7.701000 0.000000
-7.687400 0.000000
-7.673700 0.000000
-7.660100 0.000000
-7.646400 0.000000
-7.632800 0.000000
-7.619200 0.000000
-7.605500 0.000000
-7.591900 0.000000
-7.578200 0.000000
-7.564600 0.000000
-7.550900 0.000000
-7.537300 0.000000
-7.523600 0.000000
-7.510000 0.000000
-7.496300 0.000000
-7.482700 0.000000
-7.469000 0.000000
-7.455400 0.000000
-7.441800 0.000000
-7.428100 0.000000
-7.414500 0.000000
-7.400800 0.000000
-7.387200 0.000000
-7.373500 0.000000
-7.359900 0.000000
-7.346200 0.000000
-7.332600 0.000000
-7.318900 0.000000
-7.305300 0.000000
-7.291700 0.000000
-7.278000 0.000000
-7.264400 0.000000
-7.250700 0.000000
-7.237100 0.000000
-7.223400 0.000000
-7.209800 0.000000
-7.196100 0.000000
-7.182500 0.000000
-7.168800 0.000000
-7.155200 0.000000
-7.141500 0.000000
-7.127900 0.000000
-7.114300 0.000000
-7.100600 0.000000
-7.087000 0.000000
-7.073300 0.000000
-7.059700 0.000000
-7.046000 0.000000
-7.032400 0.000000
-7.018700 0.000000
-7.005100 0.000000
-6.991400 0.000000
-6.977800 0.000000
-6.964200 0.000000
-6.950500 0.000000
-6.936900 0.000000
-6.923200 0.000000
-6.909600 0.000000
-6.895900 0.000000
-6.882300 0.000000
-6.868600 0.000000
-6.855000 0.000000
-6.841300 0.000000
-6.827700 0.000000
-6.814000 0.000000
-6.800400 0.000000
-6.786800 0.000000
-6.773100 0.000000
-6.759500 0.000000
-6.745800 0.000000
-6.732200 0.000000
-6.718500 0.000000
-6.704900 0.000000
-6.691200 0.000000
-6.677600 0.000000
-6.663900 0.000000
-6.650300 0.000000
-6.636700 0.000000
-6.623000 0.000000
-6.609400 0.000000
-6.595700 0.000000
-6.582100 0.000000
-6.568400 0.000000
-6.554800 0.000000
-6.541100 0.000000
-6.527500 0.000000
-6.513800 0.000000
-6.500200 0.000000
-6.486500 0.000000
-6.472900 0.000000
-6.459300 0.000000
-6.445600 0.000000
-6.432000 0.000000
-6.418300 0.000000
-6.404700 0.000000
-6.391000 0.000000
-6.377400 0.000000
-6.363700 0.000000
-6.350100 0.000000
-6.336400 0.000000
-6.322800 0.000000
-6.309200 0.000000
-6.295500 0.000000
-6.281900 0.000000
-6.268200 0.000000
-6.254600 0.000000
-6.240900 0.000000
-6.227300 0.000000
-6.213600 0.000000
-6.200000 0.000000
-6.186300 0.000000
-6.172700 0.000000
-6.159000 0.000000
-6.145400 0.000000
-6.131800 0.000000
-6.118100 0.000000
-6.104500 0.000000
-6.090800 0.000000
-6.077200 0.000000
-6.063500 0.000000
-6.049900 0.000000
-6.036200 0.000000
-6.022600 0.000000
-6.008900 0.000000
-5.995300 0.000000
-5.981700 0.000000
-5.968000 0.000000
-5.954400 0.000000
-5.940700 0.000000
-5.927100 0.000000
-5.913400 0.000000
-5.899800 0.000000
-5.886100 0.000000
-5.872500 0.000000
-5.858800 0.000000
-5.845200 0.000000
-5.831500 0.000000
-5.817900 0.000000
-5.804300 0.000000
-5.790600 0.000000
-5.777000 0.000000
-5.763300 0.000000
-5.749700 0.000000
-5.736000 0.000000
-5.722400 0.000000
-5.708700 0.000000
-5.695100 0.000000
-5.681400 0.000000
-5.667800 0.000000
-5.654200 0.000000
-5.640500 0.000000
-5.626900 0.000000
-5.613200 0.000000
-5.599600 0.000000
-5.585900 0.000000
-5.572300 0.000000
-5.558600 0.000000
-5.545000 0.000000
-5.531300 0.000000
-5.517700 0.000000
-5.504100 0.000000
-5.490400 0.000000
-5.476800 0.000000
-5.463100 0.000000
-5.449500 0.000000
-5.435800 0.000000
-5.422200 0.000000
-5.408500 0.000000
-5.394900 0.000000
-5.381200 0.000000
-5.367600 0.000000
-5.353900 0.000000
-5.340300 0.000000
-5.326700 0.000000
-5.313000 0.000000
-5.299400 0.000000
-5.285700 0.000000
-5.272100 0.000000
-5.258400 0.000000
-5.244800 0.000000
-5.231100 0.000000
-5.217500 0.000000
-5.203800 0.000000
-5.190200 0.000000
-5.176600 0.000000
-5.162900 0.000000
-5.149300 0.000000
-5.135600 0.000000
-5.122000 0.000000
-5.108300 0.000000
-5.094700 0.000000
-5.081000 0.000000
-5.067400 0.000000
-5.053700 0.000000
-5.040100 0.000000
-5.026400 0.000000
-5.012800 0.000000
-4.999200 0.000000
-4.985500 0.000000
-4.971900 0.000000
-4.958200 0.000000
-4.944600 0.000000
-4.930900 0.000000
-4.917300 0.000000
-4.903600 0.000000
-4.890000 0.000000
-4.876300 0.000000
-4.862700 0.000000
-4.849100 0.000000
-4.835400 0.000000
-4.821800 0.000000
-4.808100 0.000000
-4.794500 0.000000
-4.780800 0.000000
-4.767200 0.000000
-4.753500 0.000000
-4.739900 0.000000
-4.726200 0.000000
-4.712600 0.000000
-4.698900 0.000000
-4.685300 0.000000
-4.671700 0.000000
-4.658000 0.000000
-4.644400 0.000000
-4.630700 0.000000
-4.617100 0.000000
-4.603400 0.000000
-4.589800 0.000000
-4.576100 0.000000
-4.562500 0.000000
-4.548800 0.000000
-4.535200 0.000000
-4.521600 0.000000
-4.507900 0.000000
-4.494300 0.000000
-4.480600 0.000000
-4.467000 0.000000
-4.453300 0.000000
-4.439700 0.000000
-4.426000 0.000000
-4.412400 2.807700
-4.398700 76.413500
-4.385100 106.659900
-4.371400 149.104800
-4.357800 174.524500
-4.344200 183.746500
-4.330500 203.700300
-4.316900 233.689400
-4.303200 279.040600
-4.289600 395.304100
-4.275900 555.546400
-4.262300 413.955200
-4.248600 252.474600
-4.235000 254.156600
-4.221300 175.897800
-4.207700 258.360300
-4.194100 152.003100
-4.180400 155.463000
-4.166800 179.264500
-4.153100 173.618800
-4.139500 186.173000
-4.125800 132.133100
-4.112200 138.673700
-4.098500 116.246800
-4.084900 128.682900
-4.071200 117.254600
-4.057600 100.454100
-4.043900 93.229600
-4.030300 80.145600
-4.016700 68.432800
-4.003000 189.515900
-3.989400 101.876500
-3.975700 61.012300
-3.962100 94.489900
-3.948400 256.890700
-3.934800 381.361900
-3.921100 397.780800
-3.907500 520.291000
-3.893800 561.162300
-3.880200 555.761100
-3.866600 169.336300
-3.852900 98.936900
-3.839300 86.795800
-3.825600 80.196700
-3.812000 76.258400
-3.798300 75.022700
-3.784700 79.985400
-3.771000 69.992500
-3.757400 63.279700
-3.743700 75.576500
-3.730100 40.723900
-3.716400 44.148500
-3.702800 61.076600
-3.689200 53.256600
-3.675500 36.226600
-3.661900 46.710500
-3.648200 77.508600
-3.634600 63.009600
-3.620900 53.705600
-3.607300 45.318900
-3.593600 29.547500
-3.580000 17.185100
-3.566300 0.000000
-3.552700 0.000000
-3.539100 0.000000
-3.525400 0.000000
-3.511800 0.000000
-3.498100 0.000000
-3.484500 0.000000
-3.470800 0.000000
-3.457200 0.000000
-3.443500 0.000000
-3.429900 0.000000
-3.416200 0.000000
-3.402600 0.000000
-3.388900 0.000000
-3.375300 0.000000
-3.361700 0.000000
-3.348000 0.000000
-3.334400 0.000000
-3.320700 0.000000
-3.307100 0.000000
-3.293400 0.000000
-3.279800 0.000000
-3.266100 0.000000
-3.252500 0.000000
-3.238800 0.049500
-3.225200 0.145200
-3.211600 0.240900
-3.197900 0.336700
-3.184300 0.432400
-3.170600 0.528100
-3.157000 0.623900
-3.143300 0.719600
-3.129700 0.815300
-3.116000 0.911100
-3.102400 1.006800
-3.088700 1.102500
-3.075100 1.198300
-3.061400 1.774300
-3.047800 2.620000
-3.034200 3.907400
-3.020500 5.494400
-3.006900 3.826000
-2.993200 5.167000
-2.979600 6.508000
-2.965900 7.848900
-2.952300 4.408400
-2.938600 7.170900
-2.925000 9.933400
-2.911300 6.246000
-2.897700 6.512100
-2.884100 6.778200
-2.870400 7.185400
-2.856800 7.827900
-2.843100 9.045000
-2.829500 11.786300
-2.815800 14.527600
-2.802200 17.269000
-2.788500 13.306800
-2.774900 14.096500
-2.761200 15.203800
-2.747600 26.925300
-2.733900 18.698300
-2.720300 19.929400
-2.706700 21.160500
-2.693000 21.739700
-2.679400 22.504800
-2.665700 22.382200
-2.652100 28.581600
-2.638400 26.678500
-2.624800 29.303800
-2.611100 24.262700
-2.597500 28.973500
-2.583800 34.181200
-2.570200 36.509000
-2.556600 51.059200
-2.542900 41.829700
-2.529300 28.499900
-2.515600 22.964700
-2.502000 16.911800
-2.488300 14.792400
-2.474700 21.267200
-2.461000 14.626700
-2.447400 14.759200
-2.433700 14.891800
-2.420100 18.054100
-2.406400 23.861600
-2.392800 16.097700
-2.379200 15.566000
-2.365500 15.847900
-2.351900 16.649200
-2.338200 18.529900
-2.324600 22.888600
-2.310900 15.483300
-2.297300 16.847200
-2.283600 18.211100
-2.270000 13.938700
-2.256300 13.921400
-2.242700 13.904100
-2.229100 13.886800
-2.215400 13.869500
-2.201800 13.887100
-2.188100 14.706600
-2.174500 16.688100
-2.160800 19.057800
-2.147200 21.101000
-2.133500 23.522000
-2.119900 25.943000
-2.106200 29.293400
-2.092600 16.796000
-2.079000 9.418500
-2.065300 9.360000
-2.051700 9.301500
-2.038000 9.243000
-2.024400 9.184500
-2.010700 9.126000
-1.997100 9.067500
-1.983400 9.009000
-1.969800 8.950500
-1.956100 8.189300
-1.942500 8.075700
-1.928800 7.786500
-1.915200 7.696200
-1.901600 7.610300
-1.887900 7.355300
-1.874300 7.308700
-1.860600 7.270100
-1.847000 7.231400
-1.833300 7.192800
-1.819700 7.154200
-1.806000 7.115600
-1.792400 7.077000
-1.778700 7.038400
-1.765100 6.999800
-1.751500 6.961200
-1.737800 6.922600
-1.724200 6.884000
-1.710500 6.845400
-1.696900 6.806800
-1.683200 6.662600
-1.669600 6.634400
-1.655900 6.475800
-1.642300 6.461500
-1.628600 6.447200
-1.615000 6.432800
-1.601300 6.418500
-1.587700 6.405500
-1.574100 6.392500
-1.560400 6.280900
-1.546800 6.277800
-1.533100 6.274700
-1.519500 6.271600
-1.505800 6.268500
-1.492200 6.265300
-1.478500 6.262200
-1.464900 6.259100
-1.451200 6.256000
-1.437600 6.252900
-1.424000 6.249800
-1.410300 6.246600
-1.396700 6.243500
-1.383000 6.240400
-1.369400 30.158100
-1.355700 4.348700
-1.342100 4.051900
-1.328400 4.031700
-1.314800 4.011500
-1.301100 3.991300
-1.287500 3.971000
-1.273800 3.950800
-1.260200 3.930600
-1.246600 3.908600
-1.232900 3.886400
-1.219300 3.864300
-1.205600 5.345400
-1.192000 5.707300
-1.178300 6.069300
-1.164700 6.432700
-1.151000 6.797100
-1.137400 7.162100
-1.123700 7.527100
-1.110100 7.892200
-1.096500 8.257200
-1.082800 8.622200
-1.069200 8.055200
-1.055500 8.918300
-1.041900 10.563800
-1.028200 11.666300
-1.014600 12.766900
-1.000900 15.018700
-0.987300 15.530000
-0.973600 15.384400
-0.960000 15.892600
-0.946300 15.720500
-0.932700 16.754400
-0.919100 17.787800
-0.905400 18.820500
-0.891800 18.879200
-0.878100 21.132000
-0.864500 22.759300
-0.850800 25.778900
-0.837200 19.332100
-0.823500 15.523600
-0.809900 16.200300
-0.796200 16.878700
-0.782600 19.584100
-0.769000 18.823700
-0.755300 17.643100
-0.741700 16.336700
-0.728000 15.571000
-0.714400 14.805200
-0.700700 14.891300
-0.687100 14.808800
-0.673400 14.752400
-0.659800 14.860500
-0.646100 15.318500
-0.632500 15.777800
-0.618800 16.372500
-0.605200 16.989500
-0.591600 20.165700
-0.577900 22.086100
-0.564300 23.006600
-0.550600 23.969300
-0.537000 24.936800
-0.523300 27.123400
-0.509700 27.556200
-0.496000 27.895700
-0.482400 25.363600
-0.468700 22.598700
-0.455100 22.422200
-0.441500 22.308800
-0.427800 21.207400
-0.414200 20.362200
-0.400500 19.954600
-0.386900 19.672100
-0.373200 18.367800
-0.359600 19.649600
-0.345900 20.071100
-0.332300 20.492500
-0.318600 20.740100
-0.305000 21.312500
-0.291300 21.885000
-0.277700 22.457500
-0.264100 23.030000
-0.250400 25.027900
-0.236800 25.620200
-0.223100 26.224900
-0.209500 26.093400
-0.195800 26.699000
-0.182200 26.568000
-0.168500 28.277400
-0.154900 28.578300
-0.141200 28.356800
-0.127600 26.745000
-0.114000 25.745600
-0.100300 24.567900
-0.086700 24.708800
-0.073000 24.600800
-0.059400 24.380800
-0.045700 24.518600
-0.032100 24.779700
-0.018400 24.616700
-0.004800 24.127900
0.008900 23.624200
0.022500 22.270100
0.036200 20.952800
0.049800 20.918200
0.063400 21.130800
0.077100 24.672200
0.090700 24.577800
0.104400 24.217400
0.118000 22.723200
0.131700 22.323400
0.145300 22.195800
0.159000 27.967800
0.172600 24.844100
0.186300 24.607500
0.199900 24.495900
0.213500 24.397300
0.227200 24.267800
0.240800 24.171300
0.254500 30.126800
0.268100 24.901400
0.281800 24.693800
0.295400 23.833400
0.309100 27.159000
0.322700 25.838100
0.336400 26.733400
0.350000 26.277700
0.363700 28.214500
0.377300 28.173600
0.390900 28.075600
0.404600 29.063400
0.418200 29.052900
0.431900 29.042300
0.445500 28.988400
0.459200 28.211700
0.472800 28.089800
0.486500 27.979400
0.500100 28.885100
0.513800 28.822900
0.527400 28.100400
0.541000 27.350300
0.554700 27.358700
0.568300 26.926400
0.582000 26.807200
0.595600 26.687900
0.609300 26.570100
0.622900 26.276100
0.636600 26.431800
0.650200 26.435100
0.663900 26.561200
0.677500 28.290600
0.691200 28.238200
0.704800 29.668900
0.718400 29.551800
0.732100 29.349800
0.745700 29.146200
0.759400 28.623100
0.773000 28.375700
0.786700 28.335700
0.800300 28.110600
0.814000 26.727300
0.827600 26.750800
0.841300 26.788800
0.854900 26.938100
0.868500 27.250000
0.882200 27.558200
0.895800 27.745800
0.909500 27.902100
0.923100 27.049500
0.936800 26.995900
0.950400 27.030000
0.964100 26.889600
0.977700 26.778900
0.991400 26.618700
1.005000 26.458300
1.018600 23.142100
1.032300 22.779500
1.045900 22.416900
1.059600 22.061800
1.073200 21.709800
1.086900 21.363600
1.100500 19.493100
1.114200 18.999100
1.127800 18.522200
1.141500 18.225700
1.155100 17.758100
1.168800 17.312800
1.182400 16.798800
1.196000 16.303100
1.209700 15.828500
1.223300 15.530300
1.237000 15.041900
1.250600 14.553400
1.264300 13.951900
1.277900 13.466100
1.291600 12.980400
1.305200 12.538100
1.318900 12.153800
1.332500 11.733000
1.346100 11.320400
1.359800 10.946900
1.373400 10.587700
1.387100 10.241600
1.400700 9.895400
1.414400 9.553500
1.428000 9.225100
1.441700 8.906300
1.455300 8.587600
1.469000 8.268900
1.482600 7.959300
1.496300 7.663700
