set title 'mp-1077157 - Density of States'
set xlabel 'Energy (eV)'
set ylabel 'DOS (states/eV)'
set grid
set xrange [-10:10]
set yrange [0:6.839]
set xzeroaxis lt -1
set terminal png size 800,600
set output 'mp-1077157_dos_gnuplot.png'
plot '-' using 1:2 with lines title 'DOS'
-10.159600 0.000000
-10.133100 0.000000
-10.106600 0.000000
-10.080000 0.000000
-10.053500 0.000000
-10.027000 0.000000
-10.000400 0.000000
-9.973900 0.000000
-9.947400 0.000000
-9.920900 0.000000
-9.894300 0.000000
-9.867800 0.000000
-9.841300 0.000000
-9.814800 0.000000
-9.788200 0.000000
-9.761700 0.000000
-9.735200 0.000000
-9.708600 0.000000
-9.682100 0.000000
-9.655600 0.000000
-9.629100 0.000000
-9.602500 0.000000
-9.576000 0.000000
-9.549500 0.000000
-9.523000 0.000000
-9.496400 0.000000
-9.469900 0.000000
-9.443400 0.000000
-9.416800 0.000000
-9.390300 0.000000
-9.363800 0.000000
-9.337300 0.000000
-9.310700 0.000000
-9.284200 0.000000
-9.257700 0.000000
-9.231200 0.000000
-9.204600 0.000000
-9.178100 0.000000
-9.151600 0.000000
-9.125000 0.000000
-9.098500 0.000000
-9.072000 0.000000
-9.045500 0.000000
-9.018900 0.000000
-8.992400 0.000000
-8.965900 0.000000
-8.939400 0.000000
-8.912800 0.000000
-8.886300 0.000000
-8.859800 0.000000
-8.833200 0.000000
-8.806700 0.000000
-8.780200 0.000000
-8.753700 0.000000
-8.727100 0.000000
-8.700600 0.000000
-8.674100 0.000000
-8.647600 0.000000
-8.621000 0.000000
-8.594500 0.000000
-8.568000 0.000000
-8.541400 0.000000
-8.514900 0.000000
-8.488400 0.000000
-8.461900 0.000000
-8.435300 0.000000
-8.408800 0.000000
-8.382300 0.000000
-8.355800 0.000000
-8.329200 0.000000
-8.302700 0.000000
-8.276200 0.000000
-8.249700 0.000000
-8.223100 0.000000
-8.196600 0.000000
-8.170100 0.000000
-8.143500 0.000000
-8.117000 0.000000
-8.090500 0.000000
-8.064000 0.000000
-8.037400 0.000000
-8.010900 0.000000
-7.984400 0.000000
-7.957900 0.000000
-7.931300 0.000000
-7.904800 0.000000
-7.878300 0.000000
-7.851700 0.000000
-7.825200 0.000000
-7.798700 0.000000
-7.772200 0.000000
-7.745600 0.000100
-7.719100 0.020300
-7.692600 0.074700
-7.666100 0.109400
-7.639500 0.129200
-7.613000 0.154700
-7.586500 0.184000
-7.559900 0.207400
-7.533400 0.219700
-7.506900 0.228100
-7.480400 0.240600
-7.453800 0.255400
-7.427300 0.273300
-7.400800 0.290800
-7.374300 0.305500
-7.347700 0.322100
-7.321200 0.331500
-7.294700 0.339800
-7.268100 0.348000
-7.241600 0.364200
-7.215100 0.378000
-7.188600 0.392600
-7.162000 0.406100
-7.135500 0.417700
-7.109000 0.429100
-7.082500 0.442700
-7.055900 0.455400
-7.029400 0.467800
-7.002900 0.480300
-6.976300 0.492400
-6.949800 0.504300
-6.923300 0.516900
-6.896800 0.529900
-6.870200 0.543500
-6.843700 0.557200
-6.817200 0.571100
-6.790700 0.585100
-6.764100 0.599600
-6.737600 0.614300
-6.711100 0.627800
-6.684500 0.641300
-6.658000 0.655600
-6.631500 0.671200
-6.605000 0.687800
-6.578400 0.704600
-6.551900 0.721200
-6.525400 0.737600
-6.498900 0.754300
-6.472300 0.771300
-6.445800 0.788500
-6.419300 0.805900
-6.392700 0.827400
-6.366200 0.848100
-6.339700 0.869700
-6.313200 0.891700
-6.286600 0.914200
-6.260100 0.938100
-6.233600 0.962400
-6.207100 0.987200
-6.180500 1.014400
-6.154000 1.045000
-6.127500 1.077500
-6.101000 1.110200
-6.074400 1.143600
-6.047900 1.179200
-6.021400 1.217500
-5.994800 1.259100
-5.968300 1.317500
-5.941800 1.389800
-5.915300 1.474000
-5.888700 1.576400
-5.862200 1.685200
-5.835700 1.815400
-5.809200 2.061800
-5.782600 2.209100
-5.756100 2.207600
-5.729600 2.166600
-5.703000 2.100700
-5.676500 2.032600
-5.650000 2.066600
-5.623500 2.184700
-5.596900 2.138800
-5.570400 1.988000
-5.543900 1.694000
-5.517400 1.588600
-5.490800 1.647600
-5.464300 1.681100
-5.437800 1.635600
-5.411200 1.463800
-5.384700 1.650900
-5.358200 2.065500
-5.331700 2.287200
-5.305100 2.325100
-5.278600 2.227700
-5.252100 2.245200
-5.225600 2.330300
-5.199000 2.206700
-5.172500 2.112900
-5.146000 2.108300
-5.119400 2.138800
-5.092900 2.202500
-5.066400 2.293600
-5.039900 2.562500
-5.013300 2.839300
-4.986800 2.961300
-4.960300 3.095300
-4.933800 2.580100
-4.907200 2.139500
-4.880700 1.843300
-4.854200 1.660600
-4.827600 1.497300
-4.801100 1.393400
-4.774600 1.291300
-4.748100 1.194100
-4.721500 1.117800
-4.695000 1.057400
-4.668500 0.991200
-4.642000 0.919800
-4.615400 0.861600
-4.588900 0.818800
-4.562400 0.778800
-4.535800 0.737300
-4.509300 0.696200
-4.482800 0.657400
-4.456300 0.621200
-4.429700 0.589300
-4.403200 0.560500
-4.376700 0.530900
-4.350200 0.501600
-4.323600 0.473600
-4.297100 0.448900
-4.270600 0.426900
-4.244100 0.404500
-4.217500 0.383400
-4.191000 0.364000
-4.164500 0.345200
-4.137900 0.322700
-4.111400 0.308500
-4.084900 0.294200
-4.058400 0.278900
-4.031800 0.262500
-4.005300 0.246900
-3.978800 0.231100
-3.952300 0.216400
-3.925700 0.203400
-3.899200 0.192000
-3.872700 0.181400
-3.846100 0.171200
-3.819600 0.161200
-3.793100 0.151300
-3.766600 0.137200
-3.740000 0.130900
-3.713500 0.122500
-3.687000 0.112000
-3.660500 0.100800
-3.633900 0.090500
-3.607400 0.081200
-3.580900 0.073000
-3.554300 0.065900
-3.527800 0.059700
-3.501300 0.063800
-3.474800 0.040900
-3.448200 0.026300
-3.421700 0.014900
-3.395200 0.006700
-3.368700 0.001700
-3.342100 0.000000
-3.315600 0.000000
-3.289100 0.000000
-3.262500 0.000000
-3.236000 0.000000
-3.209500 0.000000
-3.183000 0.000000
-3.156400 0.000000
-3.129900 0.000000
-3.103400 0.000000
-3.076900 0.000000
-3.050300 0.000000
-3.023800 0.000000
-2.997300 0.000000
-2.970700 0.000000
-2.944200 0.000000
-2.917700 0.000000
-2.891200 0.000000
-2.864600 0.000000
-2.838100 0.081500
-2.811600 0.067500
-2.785100 0.083900
-2.758500 0.100100
-2.732000 0.118100
-2.705500 0.141900
-2.678900 0.158700
-2.652400 0.169400
-2.625900 0.180600
-2.599400 0.187200
-2.572800 0.192400
-2.546300 0.201700
-2.519800 0.213200
-2.493300 0.224900
-2.466700 0.236900
-2.440200 0.250600
-2.413700 0.263200
-2.387100 0.273400
-2.360600 0.284000
-2.334100 0.294500
-2.307600 0.302000
-2.281000 0.308300
-2.254500 0.317000
-2.228000 0.326600
-2.201500 0.336600
-2.174900 0.346800
-2.148400 0.357600
-2.121900 0.368800
-2.095400 0.380400
-2.068800 0.392100
-2.042300 0.402700
-2.015800 0.411400
-1.989200 0.422000
-1.962700 0.433300
-1.936200 0.444800
-1.909700 0.456600
-1.883100 0.469000
-1.856600 0.480700
-1.830100 0.493500
-1.803600 0.506500
-1.777000 0.520000
-1.750500 0.534200
-1.724000 0.551800
-1.697400 0.571100
-1.670900 0.591800
-1.644400 0.613800
-1.617900 0.637500
-1.591300 0.662200
-1.564800 0.654500
-1.538300 0.645300
-1.511800 0.645700
-1.485200 0.657600
-1.458700 0.669200
-1.432200 0.680800
-1.405600 0.692800
-1.379100 0.705600
-1.352600 0.718700
-1.326100 0.735600
-1.299500 0.754000
-1.273000 0.773500
-1.246500 0.794400
-1.220000 0.831700
-1.193400 0.868400
-1.166900 0.925800
-1.140400 1.084200
-1.113800 1.165900
-1.087300 1.276300
-1.060800 1.402300
-1.034300 1.499200
-1.007700 1.556400
-0.981200 1.617100
-0.954700 1.669700
-0.928200 1.716200
-0.901600 1.763400
-0.875100 1.847900
-0.848600 1.946200
-0.822000 2.063600
-0.795500 2.214400
-0.769000 2.375000
-0.742500 2.647700
-0.715900 2.913900
-0.689400 2.960900
-0.662900 2.667500
-0.636400 2.466000
-0.609800 2.211500
-0.583300 2.042600
-0.556800 1.939000
-0.530200 1.895000
-0.503700 1.820600
-0.477200 1.804500
-0.450700 1.838200
-0.424100 1.841500
-0.397600 1.832400
-0.371100 1.837600
-0.344600 1.852500
-0.318000 1.943100
-0.291500 1.967600
-0.265000 1.989300
-0.238500 2.025000
-0.211900 2.010600
-0.185400 2.001400
-0.158900 1.902200
-0.132300 1.884100
-0.105800 1.875400
-0.079300 1.899900
-0.052800 1.951000
-0.026200 2.041300
0.000300 2.217900
0.026800 2.316100
0.053300 2.508000
0.079900 2.487300
0.106400 2.374400
0.132900 2.320800
0.159500 2.292300
0.186000 2.301900
0.212500 2.321300
0.239000 2.270100
0.265600 2.178800
0.292100 2.053200
0.318600 1.932000
0.345100 1.880000
0.371700 1.755000
0.398200 1.419000
0.424700 1.106300
0.451300 1.014200
0.477800 0.929600
0.504300 0.836000
0.530800 0.797300
0.557400 0.713800
0.583900 0.758400
0.610400 0.838500
0.636900 0.885400
0.663500 0.942100
0.690000 1.097900
0.716500 1.166900
0.743100 1.188700
0.769600 1.133200
0.796100 1.178200
0.822600 1.224100
0.849200 1.273400
0.875700 1.253200
0.902200 1.266300
0.928700 1.303500
0.955300 1.331500
0.981800 1.376600
1.008300 1.427900
1.034900 1.532400
1.061400 1.633000
1.087900 1.748700
1.114400 1.948100
1.141000 2.095800
1.167500 2.064400
1.194000 2.553700
1.220500 1.998000
1.247100 1.848200
1.273600 1.753800
1.300100 1.685600
1.326700 1.645500
1.353200 1.611400
1.379700 1.585500
1.406200 1.584400
1.432800 1.656400
1.459300 1.752300
1.485800 1.836400
1.512300 1.902400
1.538900 1.969600
1.565400 2.039000
1.591900 2.084300
1.618500 2.139600
1.645000 2.194400
1.671500 2.222800
1.698000 2.266600
1.724600 2.347000
1.751100 2.390300
1.777600 2.496800
1.804100 2.467400
1.830700 2.457300
1.857200 2.468400
1.883700 2.450200
1.910200 2.400000
1.936800 2.381600
1.963300 2.363000
1.989800 2.375100
2.016400 2.347400
2.042900 2.322600
2.069400 2.300500
2.095900 2.279300
2.122500 2.321000
2.149000 2.475900
2.175500 2.439900
2.202000 2.383200
2.228600 2.376600
2.255100 2.415400
2.281600 2.439000
2.308200 2.445800
2.334700 2.463700
2.361200 2.465200
2.387700 2.474000
2.414300 2.491700
2.440800 2.507300
2.467300 2.508100
2.493800 2.522500
2.520400 2.551500
2.546900 2.584600
2.573400 2.594600
2.600000 2.608400
2.626500 2.651900
2.653000 2.676600
2.679500 2.719500
2.706100 2.766900
2.732600 2.830200
2.759100 2.845100
2.785600 2.832100
2.812200 2.876200
2.838700 3.042000
2.865200 3.070100
2.891800 3.194900
2.918300 3.425400
2.944800 3.628300
2.971300 3.862400
2.997900 3.828900
3.024400 3.653900
3.050900 3.263500
3.077400 3.003300
3.104000 2.830300
3.130500 2.529700
3.157000 2.488600
3.183600 2.612800
3.210100 2.644500
3.236600 2.539900
3.263100 2.539200
3.289700 2.613900
3.316200 2.570000
3.342700 2.449600
3.369200 2.492400
3.395800 2.642400
3.422300 2.782500
3.448800 2.942600
3.475400 3.034800
3.501900 2.987800
3.528400 3.005300
3.554900 3.180900
3.581500 3.451000
3.608000 3.686900
3.634500 3.754200
3.661000 3.584900
3.687600 3.535600
3.714100 3.576900
3.740600 3.598300
3.767100 3.623300
3.793700 3.691100
3.820200 3.813000
3.846700 3.946400
3.873300 4.029500
3.899800 4.077000
3.926300 4.008900
3.952800 3.868200
3.979400 3.741300
4.005900 3.548600
4.032400 3.312300
4.058900 3.161600
4.085500 3.110700
4.112000 3.072500
4.138500 3.057000
4.165100 3.044000
4.191600 3.109600
4.218100 3.163100
4.244600 3.194900
4.271200 3.255200
4.297700 3.376200
4.324200 3.506000
4.350700 3.602200
4.377300 3.756400
4.403800 3.819200
4.430300 3.952100
4.456900 4.039200
4.483400 4.215700
4.509900 4.722300
4.536400 5.489500
4.563000 5.908900
4.589500 5.649100
4.616000 5.855800
4.642500 5.750400
4.669100 5.125000
4.695600 4.656900
4.722100 3.979500
4.748700 3.683300
4.775200 3.471300
4.801700 3.559200
4.828200 3.540500
4.854800 3.858600
4.881300 4.058000
4.907800 4.240800
4.934300 4.208000
4.960900 4.074600
4.987400 4.155600
5.013900 4.468500
5.040500 4.157800
5.067000 4.076800
5.093500 3.992800
5.120000 3.963700
5.146600 3.881300
5.173100 3.835700
5.199600 3.878000
5.226100 4.011300
5.252700 4.275200
5.279200 4.629400
5.305700 4.945600
5.332300 5.282700
5.358800 5.355900
5.385300 5.585500
5.411800 6.136500
5.438400 6.216900
5.464900 5.964400
5.491400 6.063100
5.517900 6.217500
5.544500 5.794300
5.571000 5.779200
5.597500 5.807100
5.624100 5.892900
5.650600 5.876100
5.677100 5.625100
5.703600 5.331200
5.730200 4.476200
5.756700 4.113800
5.783200 3.987200
5.809700 3.916900
5.836300 3.807900
5.862800 3.744500
5.889300 3.670700
5.915800 3.598900
5.942400 3.530200
5.968900 3.485400
5.995400 3.428200
6.022000 3.387500
6.048500 3.277200
6.075000 3.244200
6.101500 3.232700
6.128100 3.248100
6.154600 3.329300
6.181100 3.307600
6.207600 3.235600
6.234200 3.179500
6.260700 3.089500
6.287200 3.008800
6.313800 2.884000
6.340300 2.779800
6.366800 2.697300
6.393300 2.584700
6.419900 2.506200
6.446400 2.439400
6.472900 2.365900
6.499400 2.345300
6.526000 2.228200
6.552500 1.989700
6.579000 1.971500
6.605600 1.956200
6.632100 1.926300
6.658600 1.826700
6.685100 1.740900
6.711700 1.730100
6.738200 1.726200
6.764700 1.731000
6.791200 1.763500
6.817800 1.761900
6.844300 1.772800
6.870800 1.850300
6.897400 1.893100
6.923900 2.004500
6.950400 2.199700
6.976900 2.221300
7.003500 2.069200
7.030000 1.845700
7.056500 1.643000
7.083000 1.542100
7.109600 1.330600
7.136100 1.088600
7.162600 1.002000
7.189200 0.908000
7.215700 0.774600
7.242200 0.678700
7.268700 0.650400
7.295300 0.668800
7.321800 0.668000
7.348300 0.632300
7.374800 0.666800
7.401400 0.788800
7.427900 0.983100
7.454400 1.230400
7.481000 1.720300
7.507500 2.318400
7.534000 2.797800
7.560500 2.824600
7.587100 2.866500
7.613600 2.997600
7.640100 3.155700
7.666600 3.221300
7.693200 3.501800
7.719700 3.610700
7.746200 3.864200
7.772700 3.652800
7.799300 3.184800
7.825800 2.843900
7.852300 2.668600
7.878900 2.467700
7.905400 2.280000
7.931900 2.169100
7.958400 2.242200
7.985000 2.271100
8.011500 2.371200
8.038000 2.265400
8.064500 2.332000
8.091100 2.335000
8.117600 2.298100
8.144100 2.230500
8.170700 2.182700
8.197200 2.119600
8.223700 2.089000
8.250200 2.104200
8.276800 2.119600
8.303300 2.181300
8.329800 2.338700
8.356300 2.355200
8.382900 2.339400
8.409400 2.380500
8.435900 2.420100
8.462500 2.426600
8.489000 2.477900
8.515500 2.451600
8.542000 2.435800
8.568600 2.433500
8.595100 2.452900
8.621600 2.541700
8.648100 2.677000
8.674700 2.697500
8.701200 2.585100
8.727700 2.587600
8.754300 2.833100
8.780800 2.528400
8.807300 2.318500
8.833800 2.353000
8.860400 2.468400
8.886900 2.577000
8.913400 2.902600
8.939900 2.498900
8.966500 2.319500
8.993000 2.126000
9.019500 1.972600
9.046100 1.936800
9.072600 1.814000
9.099100 1.688200
9.125600 1.559500
9.152200 1.504600
9.178700 1.427100
9.205200 1.444300
9.231700 1.460500
9.258300 1.501900
9.284800 1.535700
9.311300 1.623200
9.337900 1.704900
9.364400 1.833300
9.390900 1.844300
9.417400 1.931400
9.444000 2.020400
9.470500 2.152600
9.497000 2.335000
9.523500 2.375000
9.550100 2.464800
9.576600 2.483300
9.603100 2.499800
9.629700 2.519400
9.656200 2.433900
9.682700 2.381000
9.709200 2.356800
9.735800 2.344200
9.762300 2.392800
9.788800 2.423800
9.815300 2.381300
9.841900 2.359400
9.868400 2.368900
9.894900 2.393400
9.921400 2.428300
9.948000 2.476900
9.974500 2.546800
10.001000 2.618700
10.027600 2.684500
10.054100 2.740700
10.080600 2.789700
10.107100 2.849400
10.133700 2.849200
10.160200 2.867500
10.186700 2.879300
10.213200 2.880200
10.239800 2.884000
10.266300 2.910500
10.292800 2.874400
10.319400 2.932400
10.345900 3.008400
10.372400 3.089200
10.398900 3.203000
10.425500 3.268200
10.452000 3.449700
10.478500 3.504300
10.505000 3.430500
10.531600 3.432400
10.558100 3.277300
10.584600 3.275600
10.611200 3.209700
10.637700 3.194100
10.664200 3.468500
10.690700 3.669600
10.717300 4.047900
10.743800 4.166900
10.770300 4.103800
10.796800 4.353100
10.823400 4.883300
10.849900 4.844000
10.876400 4.508200
10.903000 4.063200
10.929500 3.758900
10.956000 3.532100
10.982500 3.391000
11.009100 3.377800
11.035600 3.277600
11.062100 3.344900
11.088600 3.425000
11.115200 3.563600
11.141700 3.734000
11.168200 3.944500
11.194800 4.330900
11.221300 4.201200
11.247800 4.074600
11.274300 4.125700
11.300900 4.130700
11.327400 4.245800
11.353900 4.213000
11.380400 3.996900
11.407000 3.177900
11.433500 2.855600
11.460000 2.761800
11.486600 2.827400
11.513100 2.888300
11.539600 3.012000
11.566100 3.002600
11.592700 2.833700
11.619200 2.689000
11.645700 2.468200
11.672200 2.378000
11.698800 2.322000
11.725300 2.059400
11.751800 2.031900
11.778300 2.053400
11.804900 2.133600
11.831400 2.302600
11.857900 2.398800
11.884500 2.528900
11.911000 2.875400
11.937500 3.453900
11.964000 3.495000
11.990600 3.458200
12.017100 3.491900
12.043600 3.680400
12.070100 3.749000
12.096700 3.842300
12.123200 3.739100
12.149700 3.717200
12.176300 3.807900
12.202800 3.329200
12.229300 3.050500
12.255800 2.761400
12.282400 2.541800
12.308900 2.443600
12.335400 2.501100
12.361900 2.343900
12.388500 2.348500
12.415000 2.331500
12.441500 2.265300
12.468100 2.194700
12.494600 2.159100
12.521100 2.166600
12.547600 2.317800
12.574200 2.608200
12.600700 2.415200
12.627200 2.372900
12.653700 2.497100
12.680300 2.448800
12.706800 2.502700
12.733300 2.575300
12.759900 2.847900
12.786400 2.882900
12.812900 3.135700
12.839400 3.413100
12.866000 3.815500
12.892500 3.745800
12.919000 3.713800
12.945500 3.793800
12.972100 4.084200
12.998600 3.746500
13.025100 3.550000
13.051700 3.405100
13.078200 3.323600
13.104700 3.287500
13.131200 3.295000
13.157800 3.356700
13.184300 3.481000
13.210800 3.685200
13.237300 3.568000
13.263900 3.593800
13.290400 3.562200
13.316900 3.529900
13.343500 3.412100
13.370000 3.335800
13.396500 3.305800
13.423000 3.150600
13.449600 2.931000
13.476100 2.647600
13.502600 2.424300
13.529100 2.245900
13.555700 2.147400
13.582200 2.118300
13.608700 2.246400
13.635300 2.074900
13.661800 1.851400
13.688300 1.652300
13.714800 1.513400
13.741400 1.400400
13.767900 1.316100
13.794400 1.287800
13.820900 1.278300
13.847500 1.282100
13.874000 1.346400
13.900500 1.444800
13.927000 1.306600
13.953600 1.098500
13.980100 0.962000
14.006600 0.905900
14.033200 0.980800
14.059700 0.867800
14.086200 0.842000
14.112700 0.821300
14.139300 0.818600
14.165800 0.821800
14.192300 0.828500
14.218800 0.841100
14.245400 0.855000
14.271900 0.870200
14.298400 0.903700
14.325000 0.929000
14.351500 0.941500
14.378000 0.956000
14.404500 0.972900
14.431100 0.990200
14.457600 1.013800
14.484100 1.032100
14.510600 1.053200
14.537200 1.078000
14.563700 1.105400
14.590200 1.136000
14.616800 1.169000
14.643300 1.197400
14.669800 1.241000
14.696300 1.285200
14.722900 1.328900
14.749400 1.388300
14.775900 1.460300
14.802400 1.564500
14.829000 1.680900
14.855500 1.601600
14.882000 1.574400
14.908600 1.511200
14.935100 1.470700
14.961600 1.446800
14.988100 1.468900
15.014700 1.436700
15.041200 1.420800
15.067700 1.412600
15.094200 1.321800
15.120800 1.162700
15.147300 0.964200
15.173800 0.922400
15.200400 0.879400
15.226900 0.837400
15.253400 0.800200
15.279900 0.765300
15.306500 0.734000
15.333000 0.704300
15.359500 0.675800
15.386000 0.649200
15.412600 0.624700
15.439100 0.595400
15.465600 0.572000
15.492200 0.553100
15.518700 0.535700
15.545200 0.519400
15.571700 0.503800
15.598300 0.487200
15.624800 0.473700
15.651300 0.460100
15.677800 0.446700
15.704400 0.432600
15.730900 0.421600
15.757400 0.409700
15.783900 0.397000
15.810500 0.383000
15.837000 0.368500
15.863500 0.356000
15.890100 0.343200
15.916600 0.328800
15.943100 0.315000
15.969600 0.301900
15.996200 0.289400
16.022700 0.277700
16.049200 0.266700
16.075700 0.258600
16.102300 0.254400
16.128800 0.235800
16.155300 0.215900
16.181900 0.199300
16.208400 0.185700
16.234900 0.175000
16.261400 0.167500
16.288000 0.161800
16.314500 0.155600
16.341000 0.149100
16.367500 0.142100
16.394100 0.136600
16.420600 0.131400
16.447100 0.128100
16.473700 0.123200
16.500200 0.117000
16.526700 0.110400
16.553200 0.103400
16.579800 0.096000
16.606300 0.090400
16.632800 0.084700
16.659300 0.077600
16.685900 0.069000
16.712400 0.058900
16.738900 0.053200
16.765500 0.047600
16.792000 0.041400
16.818500 0.034600
16.845000 0.000000
16.871600 0.000000
16.898100 0.000000
16.924600 0.000000
16.951100 0.000000
16.977700 0.000000
17.004200 0.000000
17.030700 0.000000
17.057300 0.000300
17.083800 0.001600
17.110300 0.003900
17.136800 0.007300
17.163400 0.011700
17.189900 0.017100
17.216400 0.023500
17.242900 0.174400
17.269500 0.033000
17.296000 0.034800
17.322500 0.036700
17.349100 0.038900
17.375600 0.041300
17.402100 0.043900
17.428600 0.046700
17.455200 0.049700
17.481700 0.052700
17.508200 0.055500
17.534700 0.058100
17.561300 0.060600
17.587800 0.063000
17.614300 0.065300
17.640900 0.067400
17.667400 0.072600
17.693900 0.073700
17.720400 0.074900
17.747000 0.076500
17.773500 0.078200
17.800000 0.080200
17.826500 0.082400
17.853100 0.084900
