set title 'mp-1096804 - Density of States'
set xlabel 'Energy (eV)'
set ylabel 'DOS (states/eV)'
set grid
set xrange [-10:10]
set yrange [0:28.661]
set xzeroaxis lt -1
set terminal png size 800,600
set output 'mp-1096804_dos_gnuplot.png'
plot '-' using 1:2 with lines title 'DOS'
-9.472200 0.000000
-9.440900 0.000000
-9.409600 0.000000
-9.378300 0.000000
-9.347000 0.000000
-9.315700 0.000000
-9.284400 0.000000
-9.253100 0.000000
-9.221800 0.000000
-9.190500 0.000000
-9.159200 0.000000
-9.127900 0.000000
-9.096600 0.000000
-9.065300 0.000000
-9.034000 0.000000
-9.002700 0.000000
-8.971400 0.000000
-8.940100 0.000000
-8.908700 0.000000
-8.877400 0.000000
-8.846100 0.000000
-8.814800 0.000000
-8.783500 0.000000
-8.752200 0.000000
-8.720900 0.000000
-8.689600 0.000000
-8.658300 0.000000
-8.627000 0.000000
-8.595700 0.000000
-8.564400 0.000000
-8.533100 0.000000
-8.501800 0.000000
-8.470500 0.000000
-8.439200 0.000000
-8.407900 0.000000
-8.376600 0.000000
-8.345300 0.000000
-8.314000 0.000000
-8.282700 0.000000
-8.251400 0.000000
-8.220100 0.000000
-8.188800 0.000000
-8.157500 0.000000
-8.126200 0.000000
-8.094800 0.000000
-8.063500 0.000000
-8.032200 0.000000
-8.000900 0.000000
-7.969600 0.000000
-7.938300 0.000000
-7.907000 0.000000
-7.875700 0.000000
-7.844400 0.000000
-7.813100 0.000000
-7.781800 0.000000
-7.750500 0.000000
-7.719200 0.000000
-7.687900 0.000000
-7.656600 0.000000
-7.625300 0.000000
-7.594000 0.000000
-7.562700 0.000000
-7.531400 0.000000
-7.500100 0.000000
-7.468800 0.000000
-7.437500 0.000000
-7.406200 0.000000
-7.374900 0.000000
-7.343600 0.000000
-7.312300 0.000000
-7.281000 0.000000
-7.249600 0.000000
-7.218300 0.000000
-7.187000 0.000000
-7.155700 0.000000
-7.124400 0.000000
-7.093100 0.000000
-7.061800 0.000000
-7.030500 0.000000
-6.999200 0.000000
-6.967900 0.000000
-6.936600 0.000000
-6.905300 0.000000
-6.874000 0.000000
-6.842700 0.000000
-6.811400 0.000000
-6.780100 0.000000
-6.748800 0.000000
-6.717500 0.000000
-6.686200 0.000000
-6.654900 0.000000
-6.623600 0.000000
-6.592300 0.003900
-6.561000 0.014500
-6.529700 0.031600
-6.498400 0.055400
-6.467100 0.085800
-6.435800 0.122800
-6.404400 0.158700
-6.373100 0.179900
-6.341800 0.197700
-6.310500 0.212000
-6.279200 0.222800
-6.247900 0.230100
-6.216600 0.235300
-6.185300 0.251500
-6.154000 0.268200
-6.122700 0.285200
-6.091400 0.302700
-6.060100 0.320500
-6.028800 0.338800
-5.997500 0.357200
-5.966200 0.375800
-5.934900 0.394400
-5.903600 0.413200
-5.872300 0.451600
-5.841000 0.495000
-5.809700 0.536600
-5.778400 0.576600
-5.747100 0.615000
-5.715800 0.651800
-5.684500 0.602900
-5.653200 0.620700
-5.621900 0.638500
-5.590600 0.656500
-5.559200 0.674700
-5.527900 0.693000
-5.496600 0.711400
-5.465300 0.730900
-5.434000 0.761100
-5.402700 0.796800
-5.371400 0.843200
-5.340100 0.913400
-5.308800 1.031600
-5.277500 1.166500
-5.246200 1.318400
-5.214900 1.486500
-5.183600 1.552800
-5.152300 1.694600
-5.121000 1.847800
-5.089700 2.049400
-5.058400 2.400500
-5.027100 3.210900
-4.995800 3.734300
-4.964500 4.060200
-4.933200 4.110800
-4.901900 4.240500
-4.870600 4.451700
-4.839300 4.752500
-4.808000 5.124300
-4.776700 5.821800
-4.745400 5.491200
-4.714000 6.764900
-4.682700 12.320200
-4.651400 16.432700
-4.620100 9.019500
-4.588800 4.618400
-4.557500 2.268500
-4.526200 0.000000
-4.494900 0.000000
-4.463600 0.000000
-4.432300 0.000000
-4.401000 0.000000
-4.369700 0.000000
-4.338400 0.000000
-4.307100 0.000000
-4.275800 0.000000
-4.244500 0.000000
-4.213200 0.000000
-4.181900 0.000000
-4.150600 0.000000
-4.119300 0.000000
-4.088000 0.000000
-4.056700 0.000000
-4.025400 0.000000
-3.994100 0.000000
-3.962800 0.000000
-3.931500 0.000000
-3.900200 0.000000
-3.868800 0.000000
-3.837500 0.000000
-3.806200 0.000000
-3.774900 0.000000
-3.743600 0.000000
-3.712300 0.000000
-3.681000 0.000000
-3.649700 0.000000
-3.618400 0.000000
-3.587100 0.000000
-3.555800 0.000000
-3.524500 0.000000
-3.493200 0.000000
-3.461900 0.000000
-3.430600 0.000000
-3.399300 0.000000
-3.368000 0.000000
-3.336700 0.000000
-3.305400 0.000000
-3.274100 0.000000
-3.242800 0.000000
-3.211500 0.000000
-3.180200 0.000000
-3.148900 0.000000
-3.117600 0.000000
-3.086300 0.000000
-3.055000 0.000000
-3.023600 0.000000
-2.992300 0.175600
-2.961000 3.957700
-2.929700 7.204300
-2.898400 8.306700
-2.867100 7.528800
-2.835800 7.847300
-2.804500 8.265700
-2.773200 9.647800
-2.741900 8.662300
-2.710600 7.639000
-2.679300 7.403600
-2.648000 7.029600
-2.616700 6.498200
-2.585400 6.167900
-2.554100 6.099300
-2.522800 6.115000
-2.491500 5.648900
-2.460200 5.147100
-2.428900 5.019400
-2.397600 9.602600
-2.366300 14.078000
-2.335000 15.931500
-2.303700 12.797400
-2.272400 9.587900
-2.241100 8.372700
-2.209800 10.249500
-2.178400 13.196500
-2.147100 10.705900
-2.115800 11.275000
-2.084500 11.466500
-2.053200 11.218100
-2.021900 8.593400
-1.990600 7.564300
-1.959300 8.167100
-1.928000 9.150900
-1.896700 9.279800
-1.865400 9.205200
-1.834100 7.554800
-1.802800 9.151200
-1.771500 10.878200
-1.740200 8.340000
-1.708900 7.792000
-1.677600 6.687200
-1.646300 6.600600
-1.615000 8.064700
-1.583700 6.809800
-1.552400 7.307600
-1.521100 8.855400
-1.489800 8.001200
-1.458500 7.585100
-1.427200 11.048400
-1.395900 13.923200
-1.364600 13.139900
-1.333200 11.716200
-1.301900 12.324200
-1.270600 16.895200
-1.239300 26.055600
-1.208000 3.221900
-1.176700 1.402600
-1.145400 1.237000
-1.114100 0.986400
-1.082800 0.900000
-1.051500 0.917100
-1.020200 0.935200
-0.988900 0.953700
-0.957600 0.972400
-0.926300 0.991300
-0.895000 1.010300
-0.863700 1.029100
-0.832400 1.043600
-0.801100 1.057500
-0.769800 1.070800
-0.738500 1.084500
-0.707200 1.100800
-0.675900 1.114300
-0.644600 1.060200
-0.613300 1.031500
-0.582000 1.024900
-0.550700 1.021700
-0.519400 1.017600
-0.488000 1.012800
-0.456700 1.016300
-0.425400 1.048700
-0.394100 1.071300
-0.362800 1.064400
-0.331500 1.081500
-0.300200 1.073600
-0.268900 1.065400
-0.237600 1.057000
-0.206300 1.052600
-0.175000 1.052400
-0.143700 1.052400
-0.112400 1.052800
-0.081100 1.053400
-0.049800 1.054300
-0.018500 1.055300
0.012800 1.056500
0.044100 1.057700
0.075400 1.059100
0.106700 1.060600
0.138000 1.062200
0.169300 1.063900
0.200600 1.065700
0.231900 1.067600
0.263200 1.069700
0.294500 1.210100
0.325800 1.262700
0.357200 1.255200
0.388500 1.238600
0.419800 1.221400
0.451100 1.203600
0.482400 1.197900
0.513700 1.207000
0.545000 1.695900
0.576300 1.647200
0.607600 1.222300
0.638900 1.178100
0.670200 1.163000
0.701500 1.147600
0.732800 1.135200
0.764100 1.138300
0.795400 1.149700
0.826700 1.127900
0.858000 1.143200
0.889300 1.152600
0.920600 1.156200
0.951900 1.153800
0.983200 1.147500
1.014500 1.143400
1.045800 1.140800
1.077100 1.134400
1.108400 1.123600
1.139700 1.108400
1.171000 1.088600
1.202400 1.064100
1.233700 1.034900
1.265000 1.076300
1.296300 1.058200
1.327600 1.043700
1.358900 1.029000
1.390200 1.014000
1.421500 0.997200
1.452800 0.977800
1.484100 0.955900
1.515400 0.931400
1.546700 0.904400
1.578000 0.875100
1.609300 0.843500
1.640600 0.809700
1.671900 1.005700
1.703200 1.113700
1.734500 0.976600
1.765800 0.900200
1.797100 0.813800
1.828400 0.717400
1.859700 0.608400
1.891000 0.477700
1.922300 0.344400
1.953600 0.270900
1.984900 0.214800
2.016300 0.171200
2.047600 0.132600
2.078900 0.098900
2.110200 0.070100
2.141500 0.046300
2.172800 0.027400
2.204100 0.013400
2.235400 0.004400
2.266700 0.000300
2.298000 0.000000
2.329300 0.000000
2.360600 0.000000
2.391900 0.000000
2.423200 0.000000
2.454500 0.000000
2.485800 0.000000
2.517100 0.000000
2.548400 0.000000
2.579700 0.000000
2.611000 0.000000
2.642300 0.000000
2.673600 0.000000
2.704900 0.000000
2.736200 0.000000
2.767500 0.000000
2.798800 0.000000
2.830100 0.000000
2.861500 0.000000
2.892800 0.000000
2.924100 0.000000
2.955400 0.000000
2.986700 0.000000
3.018000 0.000000
3.049300 0.000000
3.080600 0.000000
3.111900 0.000000
3.143200 0.000000
3.174500 0.000000
3.205800 0.001100
3.237100 0.004400
3.268400 0.009900
3.299700 0.017600
3.331000 0.023300
3.362300 0.027100
3.393600 0.031100
3.424900 0.035200
3.456200 0.039400
3.487500 0.043600
3.518800 0.048000
3.550100 0.052500
3.581400 0.057000
3.612700 0.061700
3.644000 0.066400
3.675300 0.071200
3.706700 0.075700
3.738000 0.080000
3.769300 0.084100
3.800600 0.088000
3.831900 0.091600
3.863200 0.095100
3.894500 0.098600
3.925800 0.102200
3.957100 0.106300
3.988400 0.111100
4.019700 0.116600
4.051000 0.122900
4.082300 0.130000
4.113600 0.137800
4.144900 0.235800
4.176200 0.496900
4.207500 0.874800
4.238800 0.671800
4.270100 0.647200
4.301400 0.646800
4.332700 0.672100
4.364000 0.723600
4.395300 0.790200
4.426600 0.865700
4.457900 0.950200
4.489200 1.043600
4.520500 1.146100
4.551900 1.260200
4.583200 1.387200
4.614500 1.547500
4.645800 1.727700
4.677100 1.899800
4.708400 1.874500
4.739700 1.993000
4.771000 2.005200
4.802300 1.879900
4.833600 1.713900
4.864900 1.495400
4.896200 1.406000
4.927500 1.331800
4.958800 1.282900
4.990100 1.248000
5.021400 1.216600
5.052700 1.190000
5.084000 1.165600
5.115300 1.143300
5.146600 1.123100
5.177900 1.104900
5.209200 1.088800
5.240500 2.362800
5.271800 1.156400
5.303100 1.145600
5.334400 1.134400
5.365700 1.123100
5.397100 1.111900
5.428400 1.100700
5.459700 1.089400
5.491000 1.078200
5.522300 1.066900
5.553600 1.056100
5.584900 1.054200
5.616200 1.072600
5.647500 1.113400
5.678800 1.089400
5.710100 1.140200
5.741400 1.206500
5.772700 1.281700
5.804000 1.355200
5.835300 1.413400
5.866600 1.461400
5.897900 1.499200
5.929200 1.530500
5.960500 1.557900
5.991800 1.579500
6.023100 1.595500
6.054400 1.605800
6.085700 1.600400
6.117000 1.550500
6.148300 1.471900
6.179600 1.390600
6.210900 1.310200
6.242300 1.232600
6.273600 1.157900
6.304900 1.086500
6.336200 1.022100
6.367500 0.970800
6.398800 0.932800
6.430100 0.917000
6.461400 0.914300
6.492700 0.916400
6.524000 0.922800
6.555300 0.930900
6.586600 0.941200
6.617900 0.953000
6.649200 0.966900
6.680500 0.983100
6.711800 0.988300
6.743100 0.985300
6.774400 0.981100
6.805700 0.975700
6.837000 1.007200
6.868300 1.031000
6.899600 1.056700
6.930900 1.080700
6.962200 1.103100
6.993500 1.123900
7.024800 1.085500
7.056100 1.093200
7.087500 1.099400
7.118800 1.104900
7.150100 1.117200
7.181400 1.129500
7.212700 0.748400
7.244000 0.686300
7.275300 0.687100
7.306600 0.688300
7.337900 0.689900
7.369200 0.692000
7.400500 0.694500
7.431800 0.697500
7.463100 0.706600
7.494400 0.710900
7.525700 0.715300
7.557000 0.719800
7.588300 0.726300
7.619600 0.755700
7.650900 0.796500
7.682200 0.848600
7.713500 0.912100
7.744800 0.945800
7.776100 0.972000
7.807400 0.998400
7.838700 1.025000
7.870000 1.054200
7.901300 1.088400
7.932700 1.122400
7.964000 1.156200
7.995300 1.189900
8.026600 1.224000
8.057900 1.263400
8.089200 1.317600
8.120500 1.374800
8.151800 1.433100
8.183100 1.494500
8.214400 1.559700
8.245700 1.625400
8.277000 1.661500
8.308300 1.661200
8.339600 1.697500
8.370900 2.042600
8.402200 1.544300
8.433500 1.508100
8.464800 1.481900
8.496100 1.469500
8.527400 1.466800
8.558700 1.464900
8.590000 1.463600
8.621300 1.463200
8.652600 1.447300
8.683900 1.427300
8.715200 1.402400
8.746500 1.371700
8.777900 1.326100
8.809200 1.272700
8.840500 1.443200
8.871800 1.341800
8.903100 1.242600
8.934400 0.909200
8.965700 0.906600
8.997000 0.904600
9.028300 0.902800
9.059600 0.901300
9.090900 0.899900
9.122200 0.898800
9.153500 0.897900
9.184800 0.897200
9.216100 0.898300
9.247400 0.910200
9.278700 0.922600
9.310000 0.935800
9.341300 0.947600
9.372600 0.955800
9.403900 0.972300
9.435200 0.993600
9.466500 1.019100
9.497800 1.048700
9.529100 1.082500
9.560400 1.128000
9.591700 1.157400
9.623100 1.165100
9.654400 1.176700
9.685700 1.192600
9.717000 1.212600
9.748300 1.271700
9.779600 1.215200
9.810900 1.180900
9.842200 1.149500
9.873500 1.120900
9.904800 1.095300
9.936100 1.079300
9.967400 1.071400
9.998700 1.061000
10.030000 1.050400
10.061300 1.041800
10.092600 1.034600
10.123900 1.028000
10.155200 1.021800
10.186500 1.016100
10.217800 1.010800
10.249100 1.006000
10.280400 1.001400
10.311700 0.996900
10.343000 0.992600
10.374300 0.990000
10.405600 0.971200
10.436900 0.973600
10.468300 0.976300
10.499600 0.979200
10.530900 0.982600
10.562200 0.986500
10.593500 0.992100
10.624800 1.012600
10.656100 1.045600
10.687400 1.077300
10.718700 1.108600
10.750000 1.139400
10.781300 1.169100
10.812600 1.198000
10.843900 1.226000
10.875200 1.255300
10.906500 1.290300
10.937800 1.323400
10.969100 1.350100
11.000400 1.367700
11.031700 1.383900
11.063000 1.398900
11.094300 1.412700
11.125600 1.425000
11.156900 1.435700
11.188200 1.444500
11.219500 1.451500
11.250800 1.456100
11.282200 1.457700
11.313500 1.432900
11.344800 1.428000
11.376100 1.418800
11.407400 1.405300
11.438700 1.360700
11.470000 1.330600
11.501300 1.165800
11.532600 1.170800
11.563900 1.159100
11.595200 1.147500
11.626500 1.136700
11.657800 1.127100
11.689100 0.979000
11.720400 0.961700
11.751700 0.944300
11.783000 0.929700
11.814300 0.915800
11.845600 0.902500
11.876900 0.889900
11.908200 0.878100
11.939500 0.867300
11.970800 0.857300
12.002100 0.848200
12.033400 0.840000
12.064700 0.836400
12.096000 0.836100
12.127400 0.836100
12.158700 0.837700
12.190000 0.843700
12.221300 0.851900
12.252600 0.861600
12.283900 0.872700
12.315200 0.885200
12.346500 0.899300
12.377800 0.915000
12.409100 0.931700
12.440400 0.949000
12.471700 0.965000
12.503000 0.980800
12.534300 0.996200
12.565600 1.012100
12.596900 1.037000
12.628200 1.072000
12.659500 1.115900
12.690800 1.187500
12.722100 1.294900
12.753400 1.599400
12.784700 1.744800
12.816000 1.896600
12.847300 2.048300
12.878600 2.197800
12.909900 2.342700
12.941200 2.338000
12.972600 2.281700
13.003900 2.232100
13.035200 2.126200
13.066500 2.026100
13.097800 1.918000
13.129100 1.825400
13.160400 1.713300
13.191700 1.634100
13.223000 1.611500
13.254300 1.101100
13.285600 1.109400
13.316900 1.116500
13.348200 1.113600
13.379500 1.110000
13.410800 1.105900
13.442100 1.101100
13.473400 1.095700
13.504700 1.090900
13.536000 1.086500
13.567300 1.081300
13.598600 1.079900
13.629900 1.081000
13.661200 1.081600
13.692500 1.081400
13.723800 1.085400
13.755100 1.113100
13.786400 1.120500
13.817800 1.127500
13.849100 1.134200
13.880400 1.139700
13.911700 1.143200
13.943000 1.145400
13.974300 1.146200
14.005600 1.147000
14.036900 1.149000
14.068200 1.153400
14.099500 1.158700
14.130800 1.165000
14.162100 1.175400
14.193400 1.187000
14.224700 1.199900
14.256000 1.216900
14.287300 1.239500
14.318600 1.268600
14.349900 1.301200
14.381200 1.337500
14.412500 1.283700
14.443800 1.243000
14.475100 1.259200
14.506400 1.275100
14.537700 1.290800
14.569000 1.310700
14.600300 1.330000
14.631600 1.347400
14.663000 1.367500
14.694300 1.386300
14.725600 1.403800
14.756900 1.416000
14.788200 1.427800
14.819500 1.439400
14.850800 1.450700
14.882100 1.461800
14.913400 1.479200
14.944700 1.487400
14.976000 1.496600
15.007300 1.506500
15.038600 1.517200
15.069900 1.528600
15.101200 1.540800
15.132500 1.568200
15.163800 1.588900
15.195100 1.612400
15.226400 1.628500
15.257700 1.635300
15.289000 1.633300
15.320300 1.629300
15.351600 1.625200
15.382900 1.621300
15.414200 1.850300
15.445500 1.845800
15.476800 1.776000
15.508200 1.710600
15.539500 1.858800
15.570800 1.780700
15.602100 1.699800
15.633400 1.620400
15.664700 1.535300
15.696000 1.444300
15.727300 1.393800
15.758600 1.346000
15.789900 1.337800
15.821200 1.334700
15.852500 1.330800
15.883800 1.326100
15.915100 1.320600
15.946400 1.314200
15.977700 1.333200
16.009000 1.359100
16.040300 1.384900
16.071600 1.410600
16.102900 2.567000
16.134200 1.924200
16.165500 1.599000
16.196800 1.519600
16.228100 1.452500
16.259400 1.397900
16.290700 1.863600
16.322000 1.716200
16.353400 1.559000
16.384700 1.391900
16.416000 1.239200
16.447300 1.082500
16.478600 0.998800
16.509900 0.924000
16.541200 0.858200
16.572500 0.819500
16.603800 0.787800
16.635100 0.757700
16.666400 0.730400
16.697700 0.703200
16.729000 0.677700
16.760300 0.654200
16.791600 0.631100
16.822900 0.604800
16.854200 0.578100
16.885500 0.556600
16.916800 0.540100
16.948100 0.528800
16.979400 0.520500
17.010700 0.513300
17.042000 0.507000
17.073300 0.557300
17.104600 0.565400
17.135900 0.575200
17.167200 0.587000
17.198600 0.602500
17.229900 0.619800
17.261200 0.669300
17.292500 0.706400
17.323800 0.749100
17.355100 0.797300
17.386400 0.851000
17.417700 0.950400
17.449000 1.106500
17.480300 1.282400
17.511600 1.448600
17.542900 1.604700
17.574200 1.746100
17.605500 1.873600
17.636800 1.839300
17.668100 1.710100
17.699400 1.747100
17.730700 1.781000
17.762000 1.812000
17.793300 1.839900
17.824600 1.860000
17.855900 1.866000
17.887200 1.857700
17.918500 1.852000
17.949800 1.832500
17.981100 1.798100
18.012400 1.761900
18.043800 1.725600
18.075100 1.686300
18.106400 1.646800
18.137700 1.616300
18.169000 1.594300
18.200300 1.473700
18.231600 1.433400
18.262900 1.396600
18.294200 1.359200
18.325500 1.322800
18.356800 1.320100
18.388100 1.347700
18.419400 1.264500
18.450700 1.153600
18.482000 1.043700
18.513300 0.987200
18.544600 0.950800
18.575900 0.930600
18.607200 0.933600
18.638500 0.938400
18.669800 0.945700
18.701100 0.957400
18.732400 0.949300
18.763700 0.982700
18.795000 1.033600
18.826300 1.101900
18.857600 1.194100
18.889000 1.312900
18.920300 1.311400
18.951600 1.314400
18.982900 1.323600
19.014200 1.334200
19.045500 1.347800
19.076800 1.375400
19.108100 1.404900
19.139400 1.436600
19.170700 1.508100
19.202000 1.579400
19.233300 1.544500
19.264600 1.581400
19.295900 1.613600
19.327200 1.641100
19.358500 1.810800
19.389800 1.759700
19.421100 1.678200
19.452400 1.598600
19.483700 1.520100
19.515000 1.594400
19.546300 1.465100
19.577600 1.353600
19.608900 1.271200
19.640200 1.240400
19.671500 1.208000
19.702800 1.173700
19.734200 1.137700
19.765500 1.106100
19.796800 1.075000
19.828100 1.057400
19.859400 1.046600
19.890700 1.027100
19.922000 0.966900
19.953300 0.926700
19.984600 0.908200
20.015900 0.891100
20.047200 0.883000
20.078500 0.874100
20.109800 0.776800
20.141100 0.564500
20.172400 0.568500
20.203700 0.576100
20.235000 0.588400
20.266300 0.602600
20.297600 0.669600
20.328900 0.919200
20.360200 0.997100
20.391500 1.007000
20.422800 1.016600
20.454100 1.026000
20.485400 1.035100
20.516700 1.044000
20.548000 1.052700
20.579400 1.061200
20.610700 1.069500
20.642000 1.077200
20.673300 1.084200
20.704600 1.090800
20.735900 1.096900
20.767200 1.103700
20.798500 1.028800
20.829800 1.065200
20.861100 1.105700
20.892400 1.150900
20.923700 1.201000
20.955000 1.254400
20.986300 1.311000
21.017600 1.373600
21.048900 1.435100
21.080200 1.447300
21.111500 1.460900
21.142800 1.477100
21.174100 1.497100
21.205400 1.520800
21.236700 1.548300
21.268000 1.579600
21.299300 1.665200
21.330600 1.737400
21.361900 1.816100
21.393300 1.882800
21.424600 1.939200
21.455900 1.986500
21.487200 1.980900
21.518500 2.014700
21.549800 1.992100
21.581100 1.983800
21.612400 1.974900
21.643700 1.963800
21.675000 1.950200
21.706300 1.938100
21.737600 1.905700
21.768900 1.871700
21.800200 1.866600
21.831500 1.864400
21.862800 1.869400
21.894100 1.874700
21.925400 1.948800
21.956700 1.930100
21.988000 1.908400
22.019300 1.895300
22.050600 1.892500
22.081900 1.882600
22.113200 1.871300
22.144500 1.837000
22.175800 1.785400
22.207100 1.747300
22.238500 1.739500
22.269800 1.723300
22.301100 1.711000
22.332400 1.703700
22.363700 1.696900
22.395000 1.690700
22.426300 1.686400
22.457600 1.680800
22.488900 1.672700
22.520200 1.666800
22.551500 1.665800
22.582800 1.663100
22.614100 1.658800
22.645400 1.652900
22.676700 1.645300
22.708000 1.636200
22.739300 1.625500
22.770600 1.612500
22.801900 1.596600
22.833200 1.580200
22.864500 1.568900
22.895800 1.557700
22.927100 1.546700
22.958400 1.528800
22.989700 1.477400
23.021000 1.467900
23.052300 1.506700
23.083700 1.727200
23.115000 1.669400
23.146300 1.714200
23.177600 1.702600
23.208900 1.657800
23.240200 1.647200
23.271500 1.650300
23.302800 1.733700
23.334100 2.016600
23.365400 2.095700
23.396700 2.013700
23.428000 1.925300
23.459300 1.810400
