set title 'mp-1184680 - Density of States'
set xlabel 'Energy (eV)'
set ylabel 'DOS (states/eV)'
set grid
set xrange [-10:10]
set yrange [0:8.336]
set xzeroaxis lt -1
set terminal png size 800,600
set output 'mp-1184680_dos_gnuplot.png'
plot '-' using 1:2 with lines title 'DOS'
-6.885200 0.000000
-6.854800 0.000000
-6.824400 0.000000
-6.794000 0.000000
-6.763600 0.000000
-6.733200 0.000000
-6.702800 0.000000
-6.672400 0.000000
-6.642000 0.000000
-6.611600 0.000000
-6.581200 0.000000
-6.550800 0.000000
-6.520400 0.000000
-6.490000 0.000000
-6.459600 0.000000
-6.429200 0.000000
-6.398800 0.000000
-6.368400 0.000000
-6.338000 0.000000
-6.307600 0.000000
-6.277200 0.000000
-6.246800 0.000000
-6.216400 0.000000
-6.186000 0.000000
-6.155600 0.000000
-6.125200 0.000000
-6.094800 0.000000
-6.064400 0.000000
-6.034000 0.000000
-6.003600 0.000000
-5.973200 0.000000
-5.942800 0.000000
-5.912400 0.000000
-5.882000 0.000000
-5.851600 0.000000
-5.821200 0.000000
-5.790800 0.000000
-5.760400 0.000000
-5.730000 0.000000
-5.699600 0.000000
-5.669200 0.000000
-5.638800 0.000000
-5.608400 0.000000
-5.577900 0.000000
-5.547500 0.000000
-5.517100 0.000000
-5.486700 0.000000
-5.456300 0.000000
-5.425900 0.000000
-5.395500 0.000000
-5.365100 0.000000
-5.334700 0.000000
-5.304300 0.000000
-5.273900 0.000000
-5.243500 0.000000
-5.213100 0.000000
-5.182700 0.000000
-5.152300 0.000000
-5.121900 0.000000
-5.091500 0.000000
-5.061100 0.000000
-5.030700 0.000000
-5.000300 0.000000
-4.969900 0.000000
-4.939500 0.000000
-4.909100 0.000000
-4.878700 0.000000
-4.848300 0.000000
-4.817900 0.000000
-4.787500 0.000000
-4.757100 0.000000
-4.726700 0.000000
-4.696300 0.000000
-4.665900 0.000000
-4.635500 0.000000
-4.605100 0.000000
-4.574700 0.000000
-4.544300 0.000000
-4.513900 0.000000
-4.483500 0.000000
-4.453100 0.000000
-4.422700 0.000000
-4.392300 0.000000
-4.361900 0.000000
-4.331500 0.000000
-4.301100 0.000000
-4.270700 0.000000
-4.240300 0.000000
-4.209900 0.000000
-4.179500 0.000000
-4.149100 0.000000
-4.118600 0.000100
-4.088200 0.007500
-4.057800 0.027400
-4.027400 0.056300
-3.997000 0.066500
-3.966600 0.069400
-3.936200 0.075500
-3.905800 0.085400
-3.875400 0.095600
-3.845000 0.106200
-3.814600 0.115300
-3.784200 0.121000
-3.753800 0.124000
-3.723400 0.128200
-3.693000 0.134100
-3.662600 0.140500
-3.632200 0.147000
-3.601800 0.153400
-3.571400 0.159900
-3.541000 0.166600
-3.510600 0.173600
-3.480200 0.179300
-3.449800 0.184300
-3.419400 0.189200
-3.389000 0.194100
-3.358600 0.199300
-3.328200 0.204500
-3.297800 0.209900
-3.267400 0.215300
-3.237000 0.221000
-3.206600 0.227100
-3.176200 0.233300
-3.145800 0.239700
-3.115400 0.246200
-3.085000 0.252500
-3.054600 0.258400
-3.024200 0.279600
-2.993800 0.299900
-2.963400 0.292200
-2.933000 0.296400
-2.902600 0.300700
-2.872200 0.305100
-2.841800 0.309300
-2.811400 0.313400
-2.781000 0.315100
-2.750600 0.316600
-2.720200 0.318900
-2.689800 0.322800
-2.659300 0.326600
-2.628900 0.330400
-2.598500 0.334200
-2.568100 0.338000
-2.537700 0.360600
-2.507300 0.388000
-2.476900 0.386300
-2.446500 0.396300
-2.416100 0.406600
-2.385700 0.417300
-2.355300 0.428400
-2.324900 0.439400
-2.294500 0.447800
-2.264100 0.456200
-2.233700 0.466400
-2.203300 0.477200
-2.172900 0.488300
-2.142500 0.499900
-2.112100 0.512300
-2.081700 0.525800
-2.051300 0.540800
-2.020900 0.555100
-1.990500 0.570700
-1.960100 0.586700
-1.929700 0.603500
-1.899300 0.621000
-1.868900 0.638900
-1.838500 0.657300
-1.808100 0.676000
-1.777700 0.695300
-1.747300 0.717300
-1.716900 0.740100
-1.686500 0.765400
-1.656100 0.793200
-1.625700 0.821700
-1.595300 0.854100
-1.564900 0.892000
-1.534500 0.931900
-1.504100 0.974600
-1.473700 1.021100
-1.443300 1.080100
-1.412900 1.154000
-1.382500 1.227000
-1.352100 1.283300
-1.321700 1.337500
-1.291300 1.404600
-1.260900 1.494500
-1.230500 1.686700
-1.200000 1.909000
-1.169600 2.101900
-1.139200 2.025600
-1.108800 2.020700
-1.078400 2.091700
-1.048000 2.132500
-1.017600 2.125600
-0.987200 2.133300
-0.956800 2.154200
-0.926400 2.275200
-0.896000 2.183500
-0.865600 2.091000
-0.835200 2.151800
-0.804800 2.208400
-0.774400 2.299000
-0.744000 2.511400
-0.713600 2.456600
-0.683200 2.510600
-0.652800 2.568300
-0.622400 2.626200
-0.592000 2.722600
-0.561600 2.826700
-0.531200 2.905500
-0.500800 2.975500
-0.470400 3.121200
-0.440000 3.262500
-0.409600 3.351200
-0.379200 3.411700
-0.348800 3.501300
-0.318400 3.505800
-0.288000 3.041400
-0.257600 2.476800
-0.227200 2.124300
-0.196800 2.042200
-0.166400 1.757300
-0.136000 1.189400
-0.105600 0.000000
-0.075200 0.000000
-0.044800 0.000000
-0.014400 0.000000
0.016000 0.000000
0.046400 0.000000
0.076800 0.000000
0.107200 0.000000
0.137600 0.000000
0.168000 0.000000
0.198400 0.000000
0.228800 0.000000
0.259300 0.000000
0.289700 0.000000
0.320100 0.000000
0.350500 0.000000
0.380900 0.000000
0.411300 0.000000
0.441700 0.000000
0.472100 0.000000
0.502500 0.000000
0.532900 0.000000
0.563300 0.000000
0.593700 0.000000
0.624100 0.000000
0.654500 0.000000
0.684900 0.000000
0.715300 0.000000
0.745700 0.000000
0.776100 0.000000
0.806500 0.000000
0.836900 0.000000
0.867300 0.000000
0.897700 0.000000
0.928100 0.000000
0.958500 0.000000
0.988900 0.000000
1.019300 0.000000
1.049700 0.000000
1.080100 0.000000
1.110500 0.000000
1.140900 0.000000
1.171300 0.000000
1.201700 0.000000
1.232100 0.000000
1.262500 0.000000
1.292900 0.000000
1.323300 0.000000
1.353700 0.000000
1.384100 0.000000
1.414500 0.000000
1.444900 0.000000
1.475300 0.000000
1.505700 0.000000
1.536100 0.000000
1.566500 0.000000
1.596900 0.000000
1.627300 0.000000
1.657700 0.000000
1.688100 0.000000
1.718600 0.000000
1.749000 0.000000
1.779400 0.000000
1.809800 0.000000
1.840200 0.000000
1.870600 0.000000
1.901000 0.000000
1.931400 0.000000
1.961800 0.000000
1.992200 1.728900
2.022600 2.301700
2.053000 2.296400
2.083400 1.835400
2.113800 1.869400
2.144200 1.965700
2.174600 2.058000
2.205000 2.140300
2.235400 2.121900
2.265800 2.118900
2.296200 2.169300
2.326600 2.243700
2.357000 2.486100
2.387400 2.756900
2.417800 3.169800
2.448200 3.315800
2.478600 3.833000
2.509000 4.372100
2.539400 4.294500
2.569800 4.047900
2.600200 3.937600
2.630600 3.978400
2.661000 4.130800
2.691400 3.890500
2.721800 3.954800
2.752200 4.306400
2.782600 4.656800
2.813000 4.133200
2.843400 3.599800
2.873800 3.928700
2.904200 3.938200
2.934600 3.267600
2.965000 3.044300
2.995400 2.767700
3.025800 2.643500
3.056200 2.601300
3.086600 2.582800
3.117000 2.505400
3.147400 2.402200
3.177800 2.267500
3.208300 2.182100
3.238700 1.898600
3.269100 1.288500
3.299500 0.965700
3.329900 0.708400
3.360300 0.524900
3.390700 0.408800
3.421100 0.319300
3.451500 0.264200
3.481900 0.234300
3.512300 0.213300
3.542700 0.191400
3.573100 0.168600
3.603500 0.142700
3.633900 0.210700
3.664300 0.587600
3.694700 0.942900
3.725100 1.470300
3.755500 2.004300
3.785900 2.071400
3.816300 2.187400
3.846700 2.787800
3.877100 3.257500
3.907500 3.700200
3.937900 4.345100
3.968300 5.200200
3.998700 6.781500
4.029100 7.578400
4.059500 6.210800
4.089900 5.123700
4.120300 4.359500
4.150700 4.667400
4.181100 4.822800
4.211500 4.560400
4.241900 4.362200
4.272300 4.251100
4.302700 3.814400
4.333100 3.659200
4.363500 3.272500
4.393900 3.055500
4.424300 2.885400
4.454700 2.756500
4.485100 2.511700
4.515500 2.222800
4.545900 1.996900
4.576300 1.878600
4.606700 1.645000
4.637100 1.524300
4.667600 1.729800
4.698000 1.592500
4.728400 1.567400
4.758800 1.623400
4.789200 1.966600
4.819600 2.348200
4.850000 2.519400
4.880400 2.627400
4.910800 2.665400
4.941200 2.715600
4.971600 2.673700
5.002000 2.557200
5.032400 2.464500
5.062800 2.389500
5.093200 2.344700
5.123600 2.454800
5.154000 2.557500
5.184400 2.448500
5.214800 2.600500
5.245200 2.689700
5.275600 2.672500
5.306000 2.774600
5.336400 2.748100
5.366800 2.873500
5.397200 2.936400
5.427600 2.981200
5.458000 3.070000
5.488400 3.131500
5.518800 3.106500
5.549200 3.047000
5.579600 3.033500
5.610000 3.011900
5.640400 2.997300
5.670800 3.065900
5.701200 3.158900
5.731600 3.264900
5.762000 3.359400
5.792400 3.499300
5.822800 4.022700
5.853200 3.510100
5.883600 3.245900
5.914000 3.168900
5.944400 3.094700
5.974800 2.915000
6.005200 2.692400
6.035600 2.573200
6.066000 2.734600
6.096400 2.493800
6.126900 2.152900
6.157300 2.135100
6.187700 2.267100
6.218100 2.552100
6.248500 2.651400
6.278900 2.755900
6.309300 2.873500
6.339700 3.051900
6.370100 3.868900
6.400500 4.894200
6.430900 4.252700
6.461300 3.841000
6.491700 3.598400
6.522100 3.428600
6.552500 3.376000
6.582900 3.340800
6.613300 3.324800
6.643700 3.241200
6.674100 3.290800
6.704500 3.222100
6.734900 3.171300
6.765300 3.123600
6.795700 3.010900
6.826100 2.892600
6.856500 2.910700
6.886900 3.099700
6.917300 3.142100
6.947700 3.151200
6.978100 3.125400
7.008500 3.291800
7.038900 3.910300
7.069300 3.342800
7.099700 3.303200
7.130100 3.359000
7.160500 3.515400
7.190900 3.870400
7.221300 4.408200
7.251700 4.881400
7.282100 4.701000
7.312500 4.247700
7.342900 4.503000
7.373300 4.534800
7.403700 4.600200
7.434100 4.385700
7.464500 4.107100
7.494900 3.830100
7.525300 3.737200
7.555700 3.868900
7.586200 2.852000
7.616600 2.094000
7.647000 1.951100
7.677400 1.785900
7.707800 1.654300
7.738200 1.573500
7.768600 1.522000
7.799000 1.478100
7.829400 1.444600
7.859800 1.414300
7.890200 1.384500
7.920600 1.355400
7.951000 1.326200
7.981400 1.296700
8.011800 1.267200
8.042200 1.227500
8.072600 1.194100
8.103000 1.173000
8.133400 1.160000
8.163800 1.146000
8.194200 1.133200
8.224600 1.127500
8.255000 1.120700
8.285400 1.113400
8.315800 1.107500
8.346200 1.094200
8.376600 1.082800
8.407000 1.070800
8.437400 1.060000
8.467800 1.050100
8.498200 1.044100
8.528600 1.056400
8.559000 1.067400
8.589400 1.075100
8.619800 1.082000
8.650200 1.087300
8.680600 1.102700
8.711000 1.117100
8.741400 1.119000
8.771800 1.115000
8.802200 1.086700
8.832600 1.028700
8.863000 0.972800
8.893400 0.964300
8.923800 0.956000
8.954200 0.947900
8.984600 0.940100
9.015000 0.933000
9.045500 0.920700
9.075900 0.914300
9.106300 0.908000
9.136700 0.900400
9.167100 0.891600
9.197500 0.881800
9.227900 0.871800
9.258300 0.861800
9.288700 0.855000
9.319100 0.849100
9.349500 0.841800
9.379900 0.834900
9.410300 0.835400
9.440700 0.895900
9.471100 0.946400
9.501500 0.986100
9.531900 0.987600
9.562300 0.983700
9.592700 0.981500
9.623100 0.979900
9.653500 0.982300
9.683900 0.985700
9.714300 0.987900
9.744700 0.990500
9.775100 0.991900
9.805500 0.991900
9.835900 0.980900
9.866300 0.967300
9.896700 0.954800
9.927100 0.942600
9.957500 0.932000
9.987900 0.923100
10.018300 0.913800
10.048700 0.904000
10.079100 0.893900
10.109500 0.885100
10.139900 0.877500
10.170300 0.870400
10.200700 0.863400
10.231100 0.857300
10.261500 0.851100
10.291900 0.847200
10.322300 0.845800
10.352700 0.848200
10.383100 0.852800
10.413500 0.855500
10.443900 0.859200
10.474300 0.863100
10.504800 0.870900
10.535200 0.878100
10.565600 0.875600
10.596000 0.873000
10.626400 0.871100
10.656800 0.869700
10.687200 0.868100
10.717600 0.867000
10.748000 0.865800
10.778400 0.893300
10.808800 0.930600
10.839200 0.939600
10.869600 0.941800
10.900000 0.944200
10.930400 0.938400
10.960800 0.900500
10.991200 0.805000
11.021600 0.747700
11.052000 0.727200
11.082400 0.728500
11.112800 0.762000
11.143200 0.764800
11.173600 0.766700
11.204000 0.607400
11.234400 0.538600
11.264800 0.505700
11.295200 0.476400
11.325600 0.448700
11.356000 0.422400
11.386400 0.398200
11.416800 0.381600
11.447200 0.363000
11.477600 0.327800
11.508000 0.319400
11.538400 0.329000
11.568800 0.338200
11.599200 0.346900
11.629600 0.355200
11.660000 0.362200
11.690400 0.367000
11.720800 0.372300
11.751200 0.378000
11.781600 0.383000
11.812000 0.387200
11.842400 0.390600
11.872800 0.393100
11.903200 0.391500
11.933600 0.393700
11.964100 0.400200
11.994500 0.407900
12.024900 0.415400
12.055300 0.422600
12.085700 0.429500
12.116100 0.435900
12.146500 0.441800
12.176900 0.448100
12.207300 0.454900
12.237700 0.462500
12.268100 0.471100
12.298500 0.480900
12.328900 0.491900
12.359300 0.504000
12.389700 0.517300
12.420100 0.532500
12.450500 0.549100
12.480900 0.571800
12.511300 0.599300
12.541700 0.628700
12.572100 0.657800
12.602500 0.689400
12.632900 0.745300
12.663300 0.798200
12.693700 0.857300
12.724100 0.947900
12.754500 1.053800
12.784900 1.179600
12.815300 1.773600
12.845700 1.885800
12.876100 1.708000
12.906500 1.563800
12.936900 1.417200
12.967300 1.428300
12.997700 1.528200
13.028100 1.705400
13.058500 1.783500
13.088900 1.940000
13.119300 2.013000
13.149700 1.822500
13.180100 1.794000
13.210500 1.531000
13.240900 1.410800
13.271300 1.336000
13.301700 1.269000
13.332100 1.209500
13.362500 1.155500
13.392900 1.093700
13.423400 1.064700
13.453800 1.041100
13.484200 1.022200
13.514600 1.010400
13.545000 1.009600
13.575400 1.025900
13.605800 1.142100
13.636200 1.288200
13.666600 1.372100
13.697000 1.368700
13.727400 1.325300
13.757800 1.255800
13.788200 1.159900
13.818600 1.094600
13.849000 1.033900
13.879400 0.975800
13.909800 0.934100
13.940200 0.908800
13.970600 0.901700
14.001000 0.901700
14.031400 1.034100
14.061800 0.868800
14.092200 0.826000
14.122600 0.805100
14.153000 0.757500
14.183400 0.732100
14.213800 0.709900
14.244200 0.728100
14.274600 0.830000
14.305000 0.611100
14.335400 0.617500
14.365800 0.624300
14.396200 0.631900
14.426600 0.639800
14.457000 0.648700
14.487400 0.660900
14.517800 0.674900
14.548200 0.690000
14.578600 0.709600
14.609000 0.732900
14.639400 0.759000
14.669800 0.796600
14.700200 1.081200
14.730600 0.937800
14.761000 0.910100
14.791400 0.900000
14.821800 0.900900
14.852200 0.896000
14.882700 0.892900
14.913100 0.889900
14.943500 0.891000
14.973900 0.898000
15.004300 0.909500
15.034700 0.923400
15.065100 0.951200
15.095500 1.001500
15.125900 0.996500
15.156300 0.981500
15.186700 0.971900
15.217100 0.978100
15.247500 1.011600
15.277900 1.020600
15.308300 1.001500
15.338700 1.010900
15.369100 0.981000
15.399500 0.945500
15.429900 0.923800
15.460300 0.928100
15.490700 0.937700
15.521100 0.947200
15.551500 0.957400
15.581900 0.973800
15.612300 0.991000
15.642700 1.011700
15.673100 1.033800
15.703500 1.115600
15.733900 1.278200
15.764300 1.284200
15.794700 1.153400
15.825100 1.052400
15.855500 0.996600
15.885900 0.965200
15.916300 0.937300
15.946700 0.913200
15.977100 0.895200
16.007500 0.882400
16.037900 0.867100
16.068300 0.849500
16.098700 0.858700
16.129100 0.864100
16.159500 0.846600
16.189900 0.835500
16.220300 0.834700
16.250700 0.836500
16.281100 0.838300
16.311500 0.856600
16.342000 0.876200
16.372400 0.902600
16.402800 0.915800
16.433200 0.927400
16.463600 0.945600
16.494000 0.976600
16.524400 0.981800
16.554800 0.987000
16.585200 0.991800
16.615600 1.000200
16.646000 1.002300
16.676400 1.003800
16.706800 1.010100
16.737200 1.015200
16.767600 1.013500
16.798000 1.012700
16.828400 1.014500
16.858800 1.021000
16.889200 1.030200
16.919600 1.042600
16.950000 1.058500
16.980400 1.126100
17.010800 1.234300
17.041200 1.200400
17.071600 1.200200
17.102000 1.199300
17.132400 1.204200
17.162800 1.208900
17.193200 1.217800
17.223600 1.211100
17.254000 1.195200
17.284400 1.191800
17.314800 1.192900
17.345200 1.191200
17.375600 1.187000
17.406000 1.173900
17.436400 1.164000
17.466800 1.146300
17.497200 1.115400
17.527600 1.106600
17.558000 1.100400
17.588400 1.115400
17.618800 1.158400
17.649200 1.289400
17.679600 1.280100
17.710000 1.236100
17.740400 1.212800
17.770800 1.216900
17.801300 1.224600
17.831700 1.284000
17.862100 1.297000
17.892500 1.304300
17.922900 1.311200
17.953300 1.383100
17.983700 1.703100
18.014100 1.657500
18.044500 1.383100
18.074900 1.195300
18.105300 1.197900
18.135700 1.239400
18.166100 1.298800
18.196500 1.368200
18.226900 1.434600
18.257300 1.400100
18.287700 1.369100
18.318100 1.332200
18.348500 1.309800
18.378900 1.337300
18.409300 1.361400
18.439700 1.386000
18.470100 1.407100
18.500500 1.566300
18.530900 1.588200
18.561300 1.553700
18.591700 1.365400
18.622100 1.394900
18.652500 1.440600
18.682900 1.430600
18.713300 1.416000
18.743700 1.408000
18.774100 1.419700
18.804500 1.452100
18.834900 1.495000
18.865300 1.494300
18.895700 1.425600
18.926100 1.613000
18.956500 1.524100
18.986900 1.469800
19.017300 1.511200
19.047700 1.566700
19.078100 1.551400
19.108500 1.533100
19.138900 1.473700
19.169300 1.484200
19.199700 1.541300
19.230100 1.547100
19.260600 1.518400
19.291000 1.489800
19.321400 1.449500
19.351800 1.438600
19.382200 1.435600
19.412600 1.455500
19.443000 1.480100
19.473400 1.508200
19.503800 1.509800
19.534200 1.508200
19.564600 1.511300
19.595000 1.510400
19.625400 1.503600
19.655800 1.496100
19.686200 1.490200
19.716600 1.485700
19.747000 1.459300
19.777400 1.429600
19.807800 1.378700
19.838200 1.336800
19.868600 1.302200
19.899000 1.273400
19.929400 1.249500
19.959800 1.229400
19.990200 1.210400
20.020600 1.196600
20.051000 1.180600
20.081400 1.141800
20.111800 1.116100
20.142200 1.092900
20.172600 1.080800
20.203000 1.069100
20.233400 1.054800
20.263800 1.038400
20.294200 1.021600
20.324600 1.006300
20.355000 0.995000
20.385400 0.983100
20.415800 0.873300
20.446200 0.846400
20.476600 0.833500
20.507000 0.819600
20.537400 0.804700
20.567800 0.789600
20.598200 0.775900
20.628600 0.755100
20.659000 0.742000
20.689400 0.734700
20.719900 0.746200
20.750300 0.798700
20.780700 0.754100
20.811100 0.725000
20.841500 0.725800
20.871900 0.726900
20.902300 0.728100
20.932700 0.729100
20.963100 0.729600
20.993500 0.729800
21.023900 0.714500
21.054300 0.712300
21.084700 0.733100
21.115100 0.723500
21.145500 0.711100
21.175900 0.709500
21.206300 0.709200
21.236700 0.708800
21.267100 0.708300
21.297500 0.710100
21.327900 0.716000
21.358300 0.725800
21.388700 0.735800
21.419100 0.745200
21.449500 0.753500
21.479900 0.759400
21.510300 0.763200
21.540700 0.767600
21.571100 0.776500
21.601500 0.803100
21.631900 0.839500
21.662300 0.842400
21.692700 0.852400
21.723100 0.855300
21.753500 0.857800
21.783900 0.866200
21.814300 0.887700
21.844700 0.908600
21.875100 0.938200
21.905500 0.999300
21.935900 1.073900
21.966300 1.156700
21.996700 1.244300
22.027100 1.353500
22.057500 1.461700
22.087900 1.614700
22.118300 1.917100
22.148700 1.628600
22.179200 1.557000
22.209600 1.484700
22.240000 1.404100
22.270400 1.319100
22.300800 1.257500
22.331200 1.211700
22.361600 1.184900
22.392000 1.172300
22.422400 1.155000
22.452800 1.137100
22.483200 1.125900
22.513600 1.126800
22.544000 1.143700
22.574400 1.167700
22.604800 1.196800
22.635200 1.288000
22.665600 1.382500
22.696000 1.500400
22.726400 1.556200
22.756800 1.503100
22.787200 1.441200
22.817600 1.384300
22.848000 1.348500
22.878400 1.344200
22.908800 1.339700
22.939200 1.326200
22.969600 1.321400
23.000000 1.316200
23.030400 1.310800
23.060800 1.305700
23.091200 1.300200
23.121600 1.293300
23.152000 1.284000
23.182400 1.277300
23.212800 1.274700
23.243200 1.275200
23.273600 1.273600
23.304000 1.270500
23.334400 1.268700
23.364800 1.269300
23.395200 1.270600
23.425600 1.269500
23.456000 1.268100
23.486400 1.267100
23.516800 1.266100
23.547200 1.264700
23.577600 1.260200
23.608000 1.257600
23.638500 1.269800
23.668900 1.247000
23.699300 1.212400
23.729700 1.200000
23.760100 1.188400
23.790500 1.177600
23.820900 1.167400
23.851300 1.156300
23.881700 1.144000
23.912100 1.130900
23.942500 1.116500
23.972900 1.098800
24.003300 1.082000
24.033700 1.063400
24.064100 1.047200
24.094500 1.032200
24.124900 1.016600
24.155300 1.000500
24.185700 0.989100
24.216100 0.982400
24.246500 0.981700
24.276900 0.985500
24.307300 0.989500
24.337700 0.997700
24.368100 1.007600
24.398500 1.021800
24.428900 1.038200
24.459300 1.069900
24.489700 1.115500
24.520100 1.151500
24.550500 1.126600
24.580900 1.100900
24.611300 1.078100
24.641700 1.060100
24.672100 1.046700
24.702500 1.037600
24.732900 1.029600
24.763300 1.023500
24.793700 1.025300
24.824100 1.024200
24.854500 1.021000
24.884900 1.010300
24.915300 1.013800
24.945700 1.013800
24.976100 0.997000
25.006500 0.972900
25.036900 0.955200
25.067300 0.939600
25.097800 0.923700
25.128200 0.909600
25.158600 0.898600
