set title 'mp-1104073 - Density of States'
set xlabel 'Energy (eV)'
set ylabel 'DOS (states/eV)'
set grid
set xrange [-10:10]
set yrange [0:10.666]
set xzeroaxis lt -1
set terminal png size 800,600
set output 'mp-1104073_dos_gnuplot.png'
plot '-' using 1:2 with lines title 'DOS'
-15.737100 0.000000
-15.713700 0.000000
-15.690300 0.000000
-15.666800 0.000000
-15.643400 0.000000
-15.620000 0.000000
-15.596500 0.000000
-15.573100 0.000000
-15.549700 0.000000
-15.526200 0.000000
-15.502800 0.000000
-15.479400 0.000000
-15.455900 0.000000
-15.432500 0.000000
-15.409100 0.000000
-15.385700 0.000000
-15.362200 0.000000
-15.338800 0.000000
-15.315400 0.000000
-15.291900 0.000000
-15.268500 0.000000
-15.245100 0.000000
-15.221600 0.000000
-15.198200 0.000000
-15.174800 0.000000
-15.151400 0.000000
-15.127900 0.000000
-15.104500 0.000000
-15.081100 0.000000
-15.057600 0.000000
-15.034200 0.000000
-15.010800 0.000000
-14.987300 0.000000
-14.963900 0.000000
-14.940500 0.000000
-14.917000 0.000000
-14.893600 0.000000
-14.870200 0.000000
-14.846800 0.000000
-14.823300 0.000000
-14.799900 0.000000
-14.776500 0.000000
-14.753000 0.000000
-14.729600 0.000000
-14.706200 0.000000
-14.682700 0.000000
-14.659300 0.000000
-14.635900 0.000000
-14.612400 0.000000
-14.589000 0.000000
-14.565600 0.000000
-14.542200 0.000000
-14.518700 0.000000
-14.495300 0.000000
-14.471900 0.000000
-14.448400 0.000000
-14.425000 0.000000
-14.401600 0.000000
-14.378100 0.000000
-14.354700 0.000000
-14.331300 0.000000
-14.307800 0.000000
-14.284400 0.000000
-14.261000 0.000000
-14.237600 0.000000
-14.214100 0.000000
-14.190700 0.000000
-14.167300 0.000000
-14.143800 0.000000
-14.120400 0.000000
-14.097000 0.000000
-14.073500 0.000000
-14.050100 0.000000
-14.026700 0.000000
-14.003300 0.000000
-13.979800 0.000000
-13.956400 0.000000
-13.933000 0.000000
-13.909500 0.000000
-13.886100 0.000000
-13.862700 0.000000
-13.839200 0.000000
-13.815800 0.000000
-13.792400 0.000000
-13.768900 0.000000
-13.745500 0.000000
-13.722100 0.000000
-13.698700 0.000000
-13.675200 0.000000
-13.651800 0.000000
-13.628400 0.000000
-13.604900 0.211400
-13.581500 0.256200
-13.558100 0.304000
-13.534600 0.354800
-13.511200 0.408500
-13.487800 0.465200
-13.464300 0.524900
-13.440900 0.587600
-13.417500 0.653300
-13.394100 0.754000
-13.370600 0.805300
-13.347200 0.784800
-13.323800 0.804900
-13.300300 0.821900
-13.276900 0.835900
-13.253500 0.846900
-13.230000 0.854800
-13.206600 0.859700
-13.183200 0.861600
-13.159800 0.804700
-13.136300 0.808000
-13.112900 0.811300
-13.089500 0.817600
-13.066000 0.824800
-13.042600 0.832900
-13.019200 0.841900
-12.995700 0.851700
-12.972300 0.862300
-12.948900 0.873800
-12.925400 0.887900
-12.902000 0.903000
-12.878600 0.906400
-12.855200 0.916100
-12.831700 0.925200
-12.808300 0.933800
-12.784900 0.941700
-12.761400 0.949000
-12.738000 0.955800
-12.714600 0.956400
-12.691100 0.964200
-12.667700 0.971900
-12.644300 0.980800
-12.620800 0.990100
-12.597400 0.999600
-12.574000 1.009600
-12.550600 1.019800
-12.527100 1.190400
-12.503700 1.221500
-12.480300 1.254800
-12.456800 1.288100
-12.433400 1.322300
-12.410000 1.357200
-12.386500 1.393000
-12.363100 1.429500
-12.339700 1.850400
-12.316200 1.905600
-12.292800 1.956000
-12.269400 1.939100
-12.246000 1.965000
-12.222500 1.720000
-12.199100 1.696200
-12.175700 1.673000
-12.152200 1.650000
-12.128800 1.627300
-12.105400 1.534200
-12.081900 1.487800
-12.058500 1.444400
-12.035100 1.403800
-12.011700 1.308700
-11.988200 1.310700
-11.964800 1.313000
-11.941400 1.315500
-11.917900 1.416300
-11.894500 1.419700
-11.871100 1.422400
-11.847600 1.424400
-11.824200 1.425800
-11.800800 1.426400
-11.777300 1.426400
-11.753900 1.425700
-11.730500 1.405000
-11.707100 1.400400
-11.683600 1.337100
-11.660200 1.311400
-11.636800 1.293800
-11.613300 1.276700
-11.589900 1.252100
-11.566500 1.242100
-11.543000 1.232000
-11.519600 1.222000
-11.496200 1.212000
-11.472700 1.204000
-11.449300 1.195700
-11.425900 1.188100
-11.402500 1.182500
-11.379000 1.176800
-11.355600 1.171000
-11.332200 1.165000
-11.308700 1.158900
-11.285300 1.152800
-11.261900 1.146500
-11.238400 1.140000
-11.215000 1.133500
-11.191600 1.123100
-11.168200 1.119200
-11.144700 1.312400
-11.121300 1.257800
-11.097900 0.878300
-11.074400 0.888500
-11.051000 0.899100
-11.027600 0.910300
-11.004100 0.922100
-10.980700 1.119100
-10.957300 1.132900
-10.933800 1.148600
-10.910400 1.160800
-10.887000 1.171400
-10.863600 1.180200
-10.840100 1.187400
-10.816700 1.192800
-10.793300 1.196500
-10.769800 1.198500
-10.746400 1.141300
-10.723000 1.140200
-10.699500 1.138000
-10.676100 1.134500
-10.652700 1.107400
-10.629200 1.067900
-10.605800 1.029600
-10.582400 0.992500
-10.559000 0.956500
-10.535500 0.921700
-10.512100 0.888100
-10.488700 0.864700
-10.465200 0.966000
-10.441800 0.976200
-10.418400 0.987000
-10.394900 0.998500
-10.371500 1.479700
-10.348100 1.582200
-10.324600 1.690100
-10.301200 1.824900
-10.277800 1.944000
-10.254400 2.060900
-10.230900 2.190100
-10.207500 2.299100
-10.184100 2.382300
-10.160600 2.465700
-10.137200 2.489100
-10.113800 2.511000
-10.090300 2.529500
-10.066900 2.544600
-10.043500 2.283100
-10.020100 2.269100
-9.996600 2.253600
-9.973200 2.236600
-9.949800 2.218100
-9.926300 2.198000
-9.902900 2.360600
-9.879500 2.254400
-9.856000 1.776300
-9.832600 3.538700
-9.809200 3.660800
-9.785700 3.335800
-9.762300 2.777600
-9.738900 2.103500
-9.715500 2.071700
-9.692000 2.040400
-9.668600 2.009400
-9.645200 1.978900
-9.621700 1.948800
-9.598300 1.867200
-9.574900 1.844700
-9.551400 1.825000
-9.528000 1.808200
-9.504600 1.794200
-9.481100 1.785600
-9.457700 1.812300
-9.434300 1.997800
-9.410900 2.208100
-9.387400 2.302500
-9.364000 2.398100
-9.340600 2.707100
-9.317100 4.076700
-9.293700 4.723800
-9.270300 5.892400
-9.246800 3.201300
-9.223400 3.030300
-9.200000 2.862800
-9.176600 2.699000
-9.153100 2.538700
-9.129700 2.382000
-9.106300 2.228800
-9.082800 2.079300
-9.059400 1.929800
-9.036000 1.786300
-9.012500 1.562300
-8.989100 1.295100
-8.965700 0.943100
-8.942200 0.919200
-8.918800 0.900200
-8.895400 0.881000
-8.872000 0.861600
-8.848500 0.842000
-8.825100 0.822100
-8.801700 0.848900
-8.778200 1.106500
-8.754800 1.137100
-8.731400 1.170900
-8.707900 1.207700
-8.684500 1.247500
-8.661100 1.290400
-8.637600 1.336400
-8.614200 1.385400
-8.590800 1.437400
-8.567400 1.431200
-8.543900 1.500100
-8.520500 1.576100
-8.497100 1.659200
-8.473600 1.749300
-8.450200 2.012400
-8.426800 2.199500
-8.403300 2.397800
-8.379900 2.552900
-8.356500 2.898400
-8.333000 3.177600
-8.309600 3.606100
-8.286200 3.716600
-8.262800 3.818900
-8.239300 4.539500
-8.215900 4.036000
-8.192500 5.210100
-8.169000 4.339800
-8.145600 3.886800
-8.122200 3.498000
-8.098700 3.125600
-8.075300 2.806300
-8.051900 2.374100
-8.028500 2.145800
-8.005000 1.438000
-7.981600 1.352700
-7.958200 1.273000
-7.934700 1.198900
-7.911300 1.130500
-7.887900 1.067700
-7.864400 0.854200
-7.841000 0.837700
-7.817600 0.826500
-7.794100 1.016800
-7.770700 1.054700
-7.747300 1.095800
-7.723900 1.140000
-7.700400 1.874900
-7.677000 2.027800
-7.653600 2.174500
-7.630100 2.860700
-7.606700 3.161000
-7.583300 2.213700
-7.559800 2.239800
-7.536400 2.241500
-7.513000 2.241400
-7.489500 2.257600
-7.466100 2.247600
-7.442700 2.236200
-7.419300 2.223300
-7.395800 2.208900
-7.372400 3.858600
-7.349000 2.801600
-7.325500 2.649400
-7.302100 2.500700
-7.278700 2.024200
-7.255200 1.967300
-7.231800 1.916500
-7.208400 1.871600
-7.185000 1.832700
-7.161500 1.595300
-7.138100 1.596700
-7.114700 1.603100
-7.091200 1.611100
-7.067800 1.863100
-7.044400 1.893000
-7.020900 1.962400
-6.997500 2.036200
-6.974100 1.948500
-6.950600 2.592000
-6.927200 3.030500
-6.903800 3.144600
-6.880400 2.697100
-6.856900 2.639800
-6.833500 2.624100
-6.810100 2.603500
-6.786600 2.439200
-6.763200 2.402700
-6.739800 2.131100
-6.716300 1.739000
-6.692900 1.615000
-6.669500 1.504800
-6.646000 1.500800
-6.622600 1.499900
-6.599200 1.499200
-6.575800 1.498800
-6.552300 1.498600
-6.528900 1.498800
-6.505500 1.499200
-6.482000 1.499800
-6.458600 1.500800
-6.435200 1.502000
-6.411700 1.503400
-6.388300 1.505200
-6.364900 1.507200
-6.341400 1.562100
-6.318000 1.573800
-6.294600 1.858000
-6.271200 2.060800
-6.247700 2.297400
-6.224300 2.508000
-6.200900 2.757700
-6.177400 3.192000
-6.154000 3.475500
-6.130600 3.380500
-6.107100 3.078800
-6.083700 2.809800
-6.060300 2.571500
-6.036900 2.122800
-6.013400 2.328500
-5.990000 2.332300
-5.966600 2.320000
-5.943100 2.293800
-5.919700 2.270100
-5.896300 2.246700
-5.872800 2.222500
-5.849400 4.903700
-5.826000 1.876200
-5.802500 1.852800
-5.779100 1.831600
-5.755700 1.819900
-5.732300 1.807100
-5.708800 1.768300
-5.685400 1.764500
-5.662000 1.759000
-5.638500 1.751800
-5.615100 1.758300
-5.591700 1.757100
-5.568200 1.754300
-5.544800 1.749900
-5.521400 1.743800
-5.497900 1.736200
-5.474500 2.146100
-5.451100 2.040900
-5.427700 1.724800
-5.404200 1.695700
-5.380800 1.668700
-5.357400 1.667300
-5.333900 1.634800
-5.310500 1.270800
-5.287100 1.274600
-5.263600 1.278400
-5.240200 1.282200
-5.216800 1.286100
-5.193400 1.290100
-5.169900 1.294100
-5.146500 1.298200
-5.123100 1.302300
-5.099600 1.306500
-5.076200 1.310700
-5.052800 1.588300
-5.029300 1.681000
-5.005900 1.763700
-4.982500 1.836400
-4.959000 2.811600
-4.935600 2.971700
-4.912200 2.408200
-4.888800 2.323900
-4.865300 2.263400
-4.841900 1.776200
-4.818500 0.619200
-4.795000 0.603200
-4.771600 0.436000
-4.748200 0.425000
-4.724700 0.414000
-4.701300 0.403000
-4.677900 0.392100
-4.654400 0.381100
-4.631000 0.370200
-4.607600 0.359200
-4.584200 0.348300
-4.560700 0.337400
-4.537300 0.326500
-4.513900 0.315600
-4.490400 0.435400
-4.467000 0.448600
-4.443600 0.528100
-4.420100 0.549800
-4.396700 0.838100
-4.373300 0.799600
-4.349800 0.384900
-4.326400 0.423900
-4.303000 0.464400
-4.279600 0.506500
-4.256100 0.550200
-4.232700 0.595500
-4.209300 0.642500
-4.185800 0.691000
-4.162400 0.741100
-4.139000 1.585500
-4.115500 2.205100
-4.092100 1.184600
-4.068700 1.069700
-4.045300 1.000400
-4.021800 1.001200
-3.998400 1.028200
-3.975000 1.056700
-3.951500 1.086800
-3.928100 2.379400
-3.904700 1.952200
-3.881200 2.047900
-3.857800 2.133900
-3.834400 2.299400
-3.810900 2.305100
-3.787500 2.402000
-3.764100 2.509100
-3.740700 3.376000
-3.717200 3.917100
-3.693800 3.534600
-3.670400 3.491700
-3.646900 3.690800
-3.623500 3.586100
-3.600100 3.678200
-3.576600 3.763800
-3.553200 3.842900
-3.529800 3.915500
-3.506300 3.981500
-3.482900 4.041000
-3.459500 4.181000
-3.436100 4.170000
-3.412600 4.175300
-3.389200 5.624200
-3.365800 5.630900
-3.342300 5.580800
-3.318900 5.348800
-3.295500 4.292200
-3.272000 3.979800
-3.248600 3.436300
-3.225200 2.830100
-3.201800 2.792900
-3.178300 2.758700
-3.154900 2.717300
-3.131500 2.801900
-3.108000 2.771800
-3.084600 2.639400
-3.061200 2.628800
-3.037700 2.622500
-3.014300 2.620400
-2.990900 2.783400
-2.967400 2.836100
-2.944000 3.108100
-2.920600 3.195600
-2.897200 3.277300
-2.873700 3.353100
-2.850300 3.423000
-2.826900 3.487000
-2.803400 3.545100
-2.780000 5.065800
-2.756600 6.759100
-2.733100 4.862000
-2.709700 2.790700
-2.686300 2.824800
-2.662800 3.415000
-2.639400 3.044200
-2.616000 1.982000
-2.592600 2.036000
-2.569100 2.094700
-2.545700 2.147000
-2.522300 2.207000
-2.498800 2.265800
-2.475400 2.323200
-2.452000 2.379300
-2.428500 2.435600
-2.405100 2.496600
-2.381700 2.472300
-2.358200 2.486100
-2.334800 2.500300
-2.311400 2.514700
-2.288000 2.538400
-2.264500 2.566300
-2.241100 2.972000
-2.217700 3.097300
-2.194200 3.183100
-2.170800 3.470800
-2.147400 3.708800
-2.123900 3.669600
-2.100500 3.404700
-2.077100 3.255500
-2.053700 3.091300
-2.030200 2.963900
-2.006800 3.055900
-1.983400 2.868500
-1.959900 2.493300
-1.936500 2.474100
-1.913100 2.463100
-1.889600 2.460600
-1.866200 2.455600
-1.842800 2.448200
-1.819300 2.438400
-1.795900 2.426100
-1.772500 2.411100
-1.749100 2.395800
-1.725600 2.295500
-1.702200 2.279000
-1.678800 2.172700
-1.655300 2.152700
-1.631900 1.876100
-1.608500 1.927300
-1.585000 1.935600
-1.561600 1.944200
-1.538200 1.952900
-1.514700 1.961800
-1.491300 1.963000
-1.467900 2.025900
-1.444500 2.085100
-1.421000 2.140500
-1.397600 2.664300
-1.374200 2.584700
-1.350700 2.510300
-1.327300 1.943400
-1.303900 1.975200
-1.280400 2.028400
-1.257000 2.067200
-1.233600 2.107600
-1.210200 2.241600
-1.186700 2.233300
-1.163300 2.226400
-1.139900 2.220900
-1.116400 2.216900
-1.093000 2.214300
-1.069600 2.213100
-1.046100 2.213400
-1.022700 2.252000
-0.999300 2.245000
-0.975800 2.461300
-0.952400 2.584000
-0.929000 2.638200
-0.905600 2.620500
-0.882100 2.443200
-0.858700 2.481800
-0.835300 2.518700
-0.811800 2.554000
-0.788400 2.587500
-0.765000 2.619300
-0.741500 2.649400
-0.718100 2.486700
-0.694700 2.518600
-0.671200 2.482900
-0.647800 2.504200
-0.624400 2.523300
-0.601000 4.089900
-0.577500 4.087400
-0.554100 6.271800
-0.530700 2.992000
-0.507200 2.727700
-0.483800 2.492600
-0.460400 2.286600
-0.436900 2.387800
-0.413500 2.142500
-0.390100 2.290500
-0.366600 2.440400
-0.343200 2.993500
-0.319800 3.412500
-0.296400 3.570700
-0.272900 3.889900
-0.249500 4.711500
-0.226100 5.115600
-0.202600 5.511600
-0.179200 5.531300
-0.155800 5.251600
-0.132300 3.610700
-0.108900 3.364800
-0.085500 3.119700
-0.062100 2.875400
-0.038600 2.581700
-0.015200 2.403900
0.008200 2.313900
0.031700 2.218500
0.055100 2.205800
0.078500 2.201300
0.102000 2.241700
0.125400 2.541900
0.148800 2.929000
0.172300 3.467800
0.195700 4.004400
0.219100 4.552800
0.242500 6.000400
0.266000 4.786100
0.289400 1.673000
0.312800 1.620900
0.336300 2.524200
0.359700 2.512400
0.383100 1.816200
0.406600 1.613400
0.430000 1.720500
0.453400 2.717700
0.476900 3.726000
0.500300 4.014200
0.523700 3.905800
0.547100 3.328700
0.570600 3.440800
0.594000 3.562200
0.617400 3.635300
0.640900 3.642900
0.664300 3.650900
0.687700 6.578100
0.711200 4.554900
0.734600 4.720900
0.758000 4.653600
0.781400 6.915000
0.804900 4.580900
0.828300 4.195200
0.851700 3.834800
0.875200 3.207500
0.898600 2.747800
0.922000 2.449400
0.945500 2.261000
0.968900 1.892200
0.992300 2.117100
1.015800 2.608400
1.039200 3.142400
1.062600 5.675500
1.086000 3.994800
1.109500 4.037300
1.132900 4.214800
1.156300 4.388200
1.179800 4.557300
1.203200 4.722200
1.226600 7.311400
1.250100 3.750900
1.273500 3.904800
1.296900 3.840200
1.320400 4.704400
1.343800 6.233100
1.367200 5.827700
1.390600 4.472400
1.414100 4.148500
1.437500 4.076000
1.460900 3.952700
1.484400 4.233000
1.507800 4.212500
1.531200 3.988700
1.554700 4.076300
1.578100 4.392600
1.601500 4.383600
1.625000 4.414600
1.648400 4.331200
1.671800 4.254700
1.695200 3.976100
1.718700 2.788400
1.742100 2.802300
1.765500 2.875900
1.789000 3.742200
1.812400 4.515900
1.835800 5.915900
1.859300 8.059900
1.882700 9.141100
1.906100 9.696200
1.929500 7.348700
1.953000 6.240800
1.976400 6.129200
1.999800 7.903400
2.023300 8.348100
2.046700 9.605800
2.070100 7.251500
2.093600 6.150700
2.117000 5.568600
2.140400 4.862300
2.163900 5.099600
2.187300 4.116600
2.210700 4.316600
2.234100 4.317000
2.257600 4.521400
2.281000 4.593500
2.304400 4.714000
2.327900 4.863000
2.351300 5.040400
2.374700 5.184500
2.398200 5.305600
2.421600 5.137900
2.445000 4.898200
2.468500 4.688400
2.491900 4.432700
2.515300 4.131000
2.538700 3.788400
2.562200 3.084000
2.585600 3.020900
2.609000 4.053900
2.632500 5.055600
2.655900 4.952300
2.679300 6.090200
2.702800 5.990300
2.726200 7.058600
2.749600 7.398100
2.773100 6.916800
2.796500 6.622300
2.819900 5.282700
2.843300 6.189800
2.866800 6.186400
2.890200 5.203200
2.913600 4.943800
2.937100 4.718500
2.960500 4.282300
2.983900 4.330400
3.007400 4.257900
3.030800 4.182000
3.054200 4.292800
3.077600 4.248800
3.101100 4.147900
3.124500 4.214100
3.147900 4.300100
3.171400 4.397000
3.194800 4.516400
3.218200 4.620500
3.241700 4.410100
3.265100 5.216500
3.288500 5.923100
3.312000 6.395300
3.335400 6.372600
3.358800 6.206900
3.382200 5.996800
3.405700 5.783600
3.429100 5.631900
3.452500 4.937900
3.476000 4.796700
3.499400 4.657300
3.522800 4.519800
3.546300 4.561700
3.569700 4.224200
3.593100 4.290100
3.616600 4.009600
3.640000 3.917100
3.663400 3.535500
3.686800 3.530300
3.710300 3.527900
3.733700 3.645100
3.757100 3.703000
3.780600 3.927300
3.804000 5.069900
3.827400 5.664400
3.850900 6.352000
3.874300 5.273500
3.897700 5.273300
3.921100 5.279700
3.944600 5.148600
3.968000 5.107300
3.991400 4.557100
4.014900 4.177100
4.038300 3.932700
4.061700 3.731800
4.085200 3.378100
4.108600 3.359300
4.132000 3.358000
4.155500 3.599800
4.178900 3.767400
4.202300 3.795000
4.225700 3.818900
4.249200 3.796100
4.272600 3.839600
4.296000 3.786800
4.319500 4.659700
4.342900 5.604700
4.366300 6.312700
4.389800 7.206000
4.413200 5.080100
4.436600 4.632300
4.460100 4.760600
4.483500 4.819700
4.506900 4.848500
4.530300 5.010300
4.553800 5.118400
4.577200 5.013300
4.600600 4.903600
4.624100 5.000800
4.647500 4.849200
4.670900 4.640000
4.694400 4.509100
4.717800 4.306000
4.741200 4.196800
4.764700 3.973700
4.788100 3.961800
4.811500 3.430500
4.834900 3.419900
4.858400 3.537400
4.881800 4.960600
4.905200 5.206300
4.928700 4.108400
4.952100 4.214300
4.975500 5.092600
4.999000 4.675400
5.022400 4.817600
5.045800 4.726300
5.069200 4.484900
5.092700 4.427200
5.116100 4.456600
5.139500 4.309300
5.163000 4.015800
5.186400 6.394400
5.209800 3.730900
5.233300 3.705500
5.256700 3.905700
5.280100 5.868400
5.303600 4.130700
5.327000 3.882100
5.350400 3.638900
5.373800 3.113900
5.397300 3.018100
5.420700 2.932600
5.444100 2.857500
5.467600 2.792700
5.491000 2.738300
5.514400 2.641500
5.537900 2.641300
5.561300 2.561100
5.584700 2.647600
5.608200 2.670700
5.631600 3.713000
5.655000 2.963800
5.678400 2.744300
5.701900 2.779900
5.725300 3.142500
5.748700 2.631200
5.772200 2.489500
5.795600 2.502800
5.819000 2.492900
5.842500 2.492900
5.865900 2.681600
5.889300 2.703300
5.912700 2.719300
5.936200 2.729700
5.959600 2.960600
5.983000 2.963600
6.006500 3.072600
6.029900 2.854100
6.053300 2.729000
6.076800 1.840500
6.100200 1.879500
6.123600 1.908900
6.147100 1.695000
6.170500 1.513000
6.193900 1.395200
6.217300 2.898000
6.240800 4.137800
6.264200 3.706000
6.287600 4.712800
6.311100 4.620400
6.334500 2.933000
6.357900 2.970300
6.381400 3.084100
6.404800 4.030500
6.428200 3.680100
6.451700 3.921000
6.475100 4.151700
6.498500 4.376200
6.521900 4.867000
6.545400 5.246600
6.568800 5.016700
6.592200 4.622000
6.615700 3.256400
6.639100 3.064200
6.662500 2.881300
6.686000 4.753500
6.709400 2.318900
6.732800 1.609300
6.756300 0.563300
6.779700 0.507500
6.803100 0.454400
6.826500 0.404000
6.850000 0.356300
6.873400 0.311300
6.896800 0.269000
6.920300 0.229300
6.943700 0.192400
6.967100 0.000000
6.990600 0.000000
7.014000 0.000000
7.037400 0.000000
7.060800 0.000000
7.084300 0.000000
7.107700 0.000000
7.131100 0.000000
7.154600 0.000000
7.178000 0.000000
7.201400 0.000000
7.224900 0.000000
7.248300 0.000000
7.271700 0.000000
7.295200 0.000000
7.318600 0.000000
7.342000 0.000000
7.365400 0.000000
7.388900 0.000000
7.412300 0.000000
7.435700 0.000000
7.459200 0.678700
7.482600 0.857500
7.506000 1.058200
7.529500 1.033400
7.552900 1.173400
7.576300 1.310500
7.599800 1.444700
7.623200 1.713000
7.646600 1.874700
7.670000 1.974100
7.693500 2.158200
7.716900 2.345700
7.740300 2.536500
7.763800 2.730700
7.787200 2.928300
7.810600 3.006800
7.834100 3.097100
7.857500 3.770100
7.880900 3.116800
7.904300 2.942600
7.927800 2.737100
7.951200 2.543400
7.974600 2.373400
7.998100 2.216400
8.021500 2.072400
8.044900 2.080200
8.068400 2.080300
8.091800 2.098200
8.115200 2.201700
8.138700 2.175500
8.162100 1.905300
8.185500 1.883500
8.208900 1.869700
8.232400 1.864000
8.255800 1.866400
8.279200 1.862800
8.302700 1.881900
8.326100 1.878500
8.349500 1.877100
8.373000 1.810300
8.396400 1.782200
8.419800 1.758100
8.443300 1.735300
8.466700 1.713600
8.490100 1.693100
8.513500 1.627200
8.537000 1.593100
8.560400 1.600200
8.583800 1.607800
8.607300 1.615900
8.630700 1.506600
8.654100 1.532400
8.677600 1.550800
8.701000 1.585500
