set title 'mp-988939 - Density of States'
set xlabel 'Energy (eV)'
set ylabel 'DOS (states/eV)'
set grid
set xrange [-10:10]
set yrange [0:1.556]
set xzeroaxis lt -1
set terminal png size 800,600
set output 'mp-988939_dos_gnuplot.png'
plot '-' using 1:2 with lines title 'DOS'
-11.078800 0.000000
-11.043500 0.000000
-11.008200 0.000000
-10.972800 0.000000
-10.937500 0.000000
-10.902100 0.000000
-10.866800 0.000000
-10.831500 0.000000
-10.796100 0.000000
-10.760800 0.000000
-10.725500 0.000000
-10.690100 0.000000
-10.654800 0.000000
-10.619400 0.000000
-10.584100 0.000000
-10.548800 0.000000
-10.513400 0.000000
-10.478100 0.000000
-10.442800 0.000000
-10.407400 0.000000
-10.372100 0.000000
-10.336700 0.000000
-10.301400 0.000000
-10.266100 0.000000
-10.230700 0.000000
-10.195400 0.000000
-10.160100 0.000000
-10.124700 0.000000
-10.089400 0.000000
-10.054000 0.000000
-10.018700 0.000000
-9.983400 0.000000
-9.948000 0.000000
-9.912700 0.000000
-9.877400 0.000000
-9.842000 0.000000
-9.806700 0.000000
-9.771300 0.000000
-9.736000 0.000000
-9.700700 0.000000
-9.665300 0.000000
-9.630000 0.000000
-9.594700 0.000000
-9.559300 0.000000
-9.524000 0.000000
-9.488600 0.000000
-9.453300 0.000000
-9.418000 0.000000
-9.382600 0.000000
-9.347300 0.000000
-9.312000 0.000000
-9.276600 0.000000
-9.241300 0.000000
-9.205900 0.000000
-9.170600 0.000000
-9.135300 0.000000
-9.099900 0.000000
-9.064600 0.000000
-9.029300 0.000000
-8.993900 0.000000
-8.958600 0.000000
-8.923200 0.000000
-8.887900 0.000000
-8.852600 0.000000
-8.817200 0.000000
-8.781900 0.000000
-8.746600 0.000000
-8.711200 0.000000
-8.675900 0.000000
-8.640600 0.000000
-8.605200 0.000000
-8.569900 0.000000
-8.534500 0.000000
-8.499200 0.000000
-8.463900 0.000000
-8.428500 0.000000
-8.393200 0.000000
-8.357900 0.000000
-8.322500 0.000000
-8.287200 0.000000
-8.251800 0.000000
-8.216500 0.000000
-8.181200 0.000000
-8.145800 0.000000
-8.110500 0.000000
-8.075200 0.000000
-8.039800 0.000000
-8.004500 0.000000
-7.969100 0.000000
-7.933800 0.000000
-7.898500 0.000000
-7.863100 0.000400
-7.827800 0.055100
-7.792500 0.140900
-7.757100 0.177200
-7.721800 0.211700
-7.686400 0.270700
-7.651100 0.349200
-7.615800 0.358400
-7.580400 0.338300
-7.545100 0.343300
-7.509800 0.349600
-7.474400 0.351500
-7.439100 0.344000
-7.403700 0.342600
-7.368400 0.350400
-7.333100 0.354800
-7.297700 0.353800
-7.262400 0.353800
-7.227100 0.354100
-7.191700 0.352700
-7.156400 0.347600
-7.121000 0.346600
-7.085700 0.348900
-7.050400 0.351900
-7.015000 0.355300
-6.979700 0.359400
-6.944400 0.361200
-6.909000 0.360800
-6.873700 0.360800
-6.838300 0.360300
-6.803000 0.358300
-6.767700 0.355500
-6.732300 0.355400
-6.697000 0.356500
-6.661700 0.358200
-6.626300 0.360100
-6.591000 0.362400
-6.555600 0.365200
-6.520300 0.368000
-6.485000 0.370100
-6.449600 0.370300
-6.414300 0.370500
-6.379000 0.370800
-6.343600 0.370600
-6.308300 0.369400
-6.272900 0.369500
-6.237600 0.370600
-6.202300 0.371900
-6.166900 0.373400
-6.131600 0.375000
-6.096300 0.376800
-6.060900 0.378800
-6.025600 0.380900
-5.990200 0.382900
-5.954900 0.385100
-5.919600 0.387000
-5.884200 0.388600
-5.848900 0.390300
-5.813600 0.392100
-5.778200 0.393500
-5.742900 0.395200
-5.707500 0.397100
-5.672200 0.399100
-5.636900 0.401200
-5.601500 0.403300
-5.566200 0.405500
-5.530900 0.407800
-5.495500 0.410100
-5.460200 0.412500
-5.424900 0.414900
-5.389500 0.417400
-5.354200 0.421800
-5.318800 0.427900
-5.283500 0.433900
-5.248200 0.440500
-5.212800 0.448500
-5.177500 0.455500
-5.142200 0.461300
-5.106800 0.466700
-5.071500 0.471800
-5.036100 0.476800
-5.000800 0.481600
-4.965500 0.486100
-4.930100 0.490700
-4.894800 0.497800
-4.859500 0.527800
-4.824100 0.566800
-4.788800 0.605800
-4.753400 0.656300
-4.718100 0.706700
-4.682800 0.731600
-4.647400 0.711800
-4.612100 0.679700
-4.576800 0.641000
-4.541400 0.578000
-4.506100 0.530000
-4.470700 0.500900
-4.435400 0.476500
-4.400100 0.456200
-4.364700 0.438500
-4.329400 0.424800
-4.294100 0.412700
-4.258700 0.399600
-4.223400 0.385600
-4.188000 0.371600
-4.152700 0.359700
-4.117400 0.349600
-4.082000 0.340900
-4.046700 0.334500
-4.011400 0.328800
-3.976000 0.322400
-3.940700 0.315500
-3.905300 0.308100
-3.870000 0.300000
-3.834700 0.291800
-3.799300 0.283500
-3.764000 0.276400
-3.728700 0.270200
-3.693300 0.264700
-3.658000 0.260500
-3.622600 0.256600
-3.587300 0.252800
-3.552000 0.248900
-3.516600 0.245000
-3.481300 0.240600
-3.446000 0.235900
-3.410600 0.230900
-3.375300 0.225600
-3.339900 0.220200
-3.304600 0.214900
-3.269300 0.210400
-3.233900 0.206300
-3.198600 0.202700
-3.163300 0.199800
-3.127900 0.196900
-3.092600 0.194000
-3.057200 0.191200
-3.021900 0.188300
-2.986600 0.185400
-2.951200 0.196600
-2.915900 0.227600
-2.880600 0.233900
-2.845200 0.231800
-2.809900 0.239900
-2.774500 0.248900
-2.739200 0.258800
-2.703900 0.264100
-2.668500 0.265300
-2.633200 0.267700
-2.597900 0.270200
-2.562500 0.273800
-2.527200 0.277300
-2.491800 0.280600
-2.456500 0.284300
-2.421200 0.287400
-2.385800 0.288700
-2.350500 0.290600
-2.315200 0.293600
-2.279800 0.296700
-2.244500 0.299900
-2.209200 0.303500
-2.173800 0.307100
-2.138500 0.310000
-2.103100 0.312600
-2.067800 0.315200
-2.032500 0.317500
-1.997100 0.318000
-1.961800 0.317600
-1.926500 0.318100
-1.891100 0.318700
-1.855800 0.319300
-1.820400 0.320300
-1.785100 0.322800
-1.749800 0.326600
-1.714400 0.332100
-1.679100 0.338500
-1.643800 0.344900
-1.608400 0.351500
-1.573100 0.353500
-1.537700 0.351100
-1.502400 0.345000
-1.467100 0.334300
-1.431700 0.323500
-1.396400 0.313000
-1.361100 0.302800
-1.325700 0.297500
-1.290400 0.296100
-1.255000 0.299400
-1.219700 0.304800
-1.184400 0.310400
-1.149000 0.316000
-1.113700 0.321700
-1.078400 0.327500
-1.043000 0.332900
-1.007700 0.334800
-0.972300 0.334600
-0.937000 0.335500
-0.901700 0.336700
-0.866300 0.337300
-0.831000 0.337000
-0.795700 0.336600
-0.760300 0.336900
-0.725000 0.337500
-0.689600 0.338100
-0.654300 0.338600
-0.619000 0.339000
-0.583600 0.339500
-0.548300 0.339900
-0.513000 0.340100
-0.477600 0.340500
-0.442300 0.341300
-0.406900 0.342100
-0.371600 0.342900
-0.336300 0.343700
-0.300900 0.344600
-0.265600 0.345500
-0.230300 0.346600
-0.194900 0.362000
-0.159600 0.389700
-0.124200 0.415200
-0.088900 0.443300
-0.053600 0.473100
-0.018200 0.505400
0.017100 0.538900
0.052400 0.575400
0.087800 0.615500
0.123100 0.660400
0.158500 0.697500
0.193800 0.734700
0.229100 0.769100
0.264500 0.792200
0.299800 0.807300
0.335100 0.813300
0.370500 0.803700
0.405800 0.781500
0.441200 0.746000
0.476500 0.725400
0.511800 0.710200
0.547200 0.701900
0.582500 0.706500
0.617800 0.718100
0.653200 0.725300
0.688500 0.733200
0.723900 0.742400
0.759200 0.752700
0.794500 0.764800
0.829900 0.776900
0.865200 0.787500
0.900500 0.791400
0.935900 0.792000
0.971200 0.783200
1.006500 0.771100
1.041900 0.767300
1.077200 0.766900
1.112600 0.767500
1.147900 0.769600
1.183200 0.777500
1.218600 0.800700
1.253900 0.808200
1.289200 0.804300
1.324600 0.802100
1.359900 0.801300
1.395300 0.801400
1.430600 0.799900
1.465900 0.798900
1.501300 0.800100
1.536600 0.802900
1.571900 0.806800
1.607300 0.811400
1.642600 0.817000
1.678000 0.823400
1.713300 0.831300
1.748600 0.839900
1.784000 0.848800
1.819300 0.858100
1.854600 0.867800
1.890000 0.877500
1.925300 0.887200
1.960700 0.897100
1.996000 0.909200
2.031300 0.931400
2.066700 0.949800
2.102000 0.957900
2.137300 0.963200
2.172700 0.965900
2.208000 0.962800
2.243400 0.953400
2.278700 0.942000
2.314000 0.954500
2.349400 0.990700
2.384700 1.004900
2.420000 1.013700
2.455400 1.020700
2.490700 1.033500
2.526100 1.075900
2.561400 1.030200
2.596700 0.989800
2.632100 0.955000
2.667400 0.922300
2.702700 0.892700
2.738100 0.867200
2.773400 0.859000
2.808800 0.887400
2.844100 0.858800
2.879400 0.882400
2.914800 0.903100
2.950100 0.911900
2.985400 0.933100
3.020800 0.908200
3.056100 0.926200
3.091500 0.944900
3.126800 0.963400
3.162100 0.975400
3.197500 0.980600
3.232800 0.986600
3.268100 0.974400
3.303500 0.994600
3.338800 1.000500
3.374200 1.005800
3.409500 1.012200
3.444800 1.007700
3.480200 1.005700
3.515500 1.001800
3.550800 0.990700
3.586200 0.974300
3.621500 0.975300
3.656900 0.976600
3.692200 1.003400
3.727500 1.027700
3.762900 1.035000
3.798200 1.040800
3.833500 1.065700
3.868900 1.082100
3.904200 1.082900
3.939600 1.055100
3.974900 1.040200
4.010200 1.031400
4.045600 1.022900
4.080900 1.016400
4.116200 1.012500
4.151600 1.010700
4.186900 1.010100
4.222200 1.011600
4.257600 1.014100
4.292900 1.016500
4.328300 1.018600
4.363600 1.025200
4.398900 1.049000
4.434300 1.049800
4.469600 1.046300
4.504900 1.057300
4.540300 1.086300
4.575600 1.091600
4.611000 1.066600
4.646300 1.053600
4.681600 1.064500
4.717000 1.064800
4.752300 1.066900
4.787600 1.075000
4.823000 1.088500
4.858300 1.104100
4.893700 1.096800
4.929000 1.046600
4.964300 0.976700
4.999700 0.912600
5.035000 0.865200
5.070300 0.833600
5.105700 0.813800
5.141000 0.801100
5.176400 0.783900
5.211700 0.771000
5.247000 0.774900
5.282400 0.777500
5.317700 0.806400
5.353000 0.941000
5.388400 0.863500
5.423700 0.854300
5.459100 0.856800
5.494400 0.864600
5.529700 0.840300
5.565100 0.849700
5.600400 0.824400
5.635700 0.824400
5.671100 0.824100
5.706400 0.828700
5.741800 0.842900
5.777100 0.858200
5.812400 0.845800
5.847800 0.841200
5.883100 0.839200
5.918400 0.830300
5.953800 0.825100
5.989100 0.821200
6.024500 0.833300
6.059800 0.831400
6.095100 0.855900
6.130500 0.833100
6.165800 0.820200
6.201100 0.802100
6.236500 0.796900
6.271800 0.809600
6.307200 0.790200
6.342500 0.779900
6.377800 0.778400
6.413200 0.784000
6.448500 0.790600
6.483800 0.777700
6.519200 0.772100
6.554500 0.766900
6.589900 0.757800
6.625200 0.747100
6.660500 0.739300
6.695900 0.752100
6.731200 0.755300
6.766500 0.769300
6.801900 0.814300
6.837200 0.829600
6.872600 0.835600
6.907900 0.900600
6.943200 0.965100
6.978600 1.080300
7.013900 1.023900
7.049200 1.045500
7.084600 1.111700
7.119900 1.414400
7.155300 1.071400
7.190600 0.979000
7.225900 0.960400
7.261300 0.957700
7.296600 0.957600
7.331900 0.996000
7.367300 1.035600
7.402600 1.076800
7.437900 1.095300
7.473300 1.102900
7.508600 1.103700
7.544000 1.099900
7.579300 1.149600
7.614600 1.216100
7.650000 1.235700
7.685300 1.193900
7.720600 1.129000
7.756000 1.097700
7.791300 1.048300
7.826700 1.024300
7.862000 0.992200
7.897300 0.964800
7.932700 0.926400
7.968000 0.871500
8.003300 0.824000
8.038700 0.784400
8.074000 0.746400
8.109400 0.723800
8.144700 0.709700
8.180000 0.701600
8.215400 0.713300
8.250700 0.713400
8.286000 0.714200
8.321400 0.718100
8.356700 0.661600
8.392100 0.640800
8.427400 0.667800
8.462700 0.666300
8.498100 0.647000
8.533400 0.648000
8.568700 0.675100
8.604100 0.703900
8.639400 0.785900
8.674800 0.792300
8.710100 0.723000
8.745400 0.720300
8.780800 0.721400
8.816100 0.718100
8.851400 0.723900
8.886800 0.741900
8.922100 0.823600
8.957500 0.780600
8.992800 0.764800
9.028100 0.771600
9.063500 0.778500
9.098800 0.832800
9.134100 0.855400
9.169500 0.809400
9.204800 0.816700
9.240200 0.827400
9.275500 0.839600
9.310800 0.857000
9.346200 0.877400
9.381500 0.883900
9.416800 0.878300
9.452200 0.887100
9.487500 0.899800
9.522900 0.903400
9.558200 0.908700
9.593500 0.916600
9.628900 0.927700
9.664200 0.938400
9.699500 0.940900
9.734900 0.955400
9.770200 0.979200
9.805600 1.001800
9.840900 1.023000
9.876200 1.043400
9.911600 1.117400
9.946900 1.147400
9.982200 1.116200
10.017600 1.155500
10.052900 1.208600
10.088300 1.284000
10.123600 1.285200
10.158900 1.283600
10.194300 1.272100
10.229600 1.269100
10.264900 1.280300
10.300300 1.316800
10.335600 1.387200
10.370900 1.386500
10.406300 1.382000
10.441600 1.415700
10.477000 1.452700
10.512300 1.457700
10.547600 1.485100
10.583000 1.529300
10.618300 1.560400
10.653600 1.570500
10.689000 1.559200
10.724300 1.526700
10.759700 1.490800
10.795000 1.466600
10.830300 1.399300
10.865700 1.411500
10.901000 1.402700
10.936300 1.328300
10.971700 1.322400
11.007000 1.300500
11.042400 1.262700
11.077700 1.229300
11.113000 1.193700
11.148400 1.164300
11.183700 1.135200
11.219000 1.107100
11.254400 1.077700
11.289700 1.059700
11.325100 1.044200
11.360400 1.034500
11.395700 1.032500
11.431100 1.027200
11.466400 1.042200
11.501700 1.061400
11.537100 1.015200
11.572400 1.008900
11.607800 1.034000
11.643100 1.028600
11.678400 1.030600
11.713800 1.034300
11.749100 1.039300
11.784400 1.051000
11.819800 1.059300
11.855100 1.037600
11.890500 1.037300
11.925800 1.051800
11.961100 1.091100
11.996500 1.177700
12.031800 1.168600
12.067100 1.177500
12.102500 1.185200
12.137800 1.182500
12.173200 1.149200
12.208500 1.143800
12.243800 1.151600
12.279200 1.149100
12.314500 1.148600
12.349800 1.157000
12.385200 1.177800
12.420500 1.190500
12.455900 1.200300
12.491200 1.246800
12.526500 1.245400
12.561900 1.213100
12.597200 1.214400
12.632500 1.214400
12.667900 1.211000
12.703200 1.204900
12.738600 1.201400
12.773900 1.197200
12.809200 1.205600
12.844600 1.203100
12.879900 1.194600
12.915200 1.136800
12.950600 1.114800
12.985900 1.086100
13.021300 1.062800
13.056600 1.045900
13.091900 1.037500
13.127300 1.034600
13.162600 1.009900
13.197900 0.956000
13.233300 0.939200
13.268600 0.927800
13.304000 0.926700
13.339300 0.957200
13.374600 0.992400
13.410000 1.067400
13.445300 1.048300
13.480600 1.040800
13.516000 1.039600
13.551300 1.041300
13.586600 1.037400
13.622000 1.035600
13.657300 1.038900
13.692700 1.038500
13.728000 1.039700
13.763300 1.085500
13.798700 1.028300
13.834000 1.027200
13.869300 1.054000
13.904700 1.091000
13.940000 1.150100
13.975400 1.039200
14.010700 1.046400
14.046000 1.047900
14.081400 1.041600
14.116700 1.050600
14.152000 1.053800
14.187400 1.064200
14.222700 1.086600
14.258100 1.115200
14.293400 1.145000
14.328700 1.146200
14.364100 1.141500
14.399400 1.141200
14.434700 1.170100
14.470100 1.193700
14.505400 1.207900
14.540800 1.216200
14.576100 1.221300
14.611400 1.222500
14.646800 1.218700
14.682100 1.211700
14.717400 1.197700
14.752800 1.182500
14.788100 1.170600
14.823500 1.162100
14.858800 1.170100
14.894100 1.193000
14.929500 1.156300
14.964800 1.135300
15.000100 1.141200
15.035500 1.130200
15.070800 1.114300
15.106200 1.103900
15.141500 1.096800
15.176800 1.097000
15.212200 1.106200
15.247500 1.129600
15.282800 1.153200
15.318200 1.177700
15.353500 1.202400
15.388900 1.231200
15.424200 1.241900
15.459500 1.247000
15.494900 1.257900
15.530200 1.273400
15.565500 1.239400
15.600900 1.233800
15.636200 1.224100
15.671600 1.209300
15.706900 1.174500
15.742200 1.152500
15.777600 1.142400
15.812900 1.141200
15.848200 1.141900
15.883600 1.146600
15.918900 1.170600
15.954300 1.202300
15.989600 1.190900
16.024900 1.204200
16.060300 1.229000
16.095600 1.270300
16.130900 1.299100
16.166300 1.338200
16.201600 1.384400
16.237000 1.405900
16.272300 1.386900
16.307600 1.363500
16.343000 1.352700
16.378300 1.354200
16.413600 1.354000
16.449000 1.353700
16.484300 1.358000
16.519700 1.371300
16.555000 1.361600
16.590300 1.333700
16.625700 1.306500
16.661000 1.293700
16.696300 1.298000
16.731700 1.308400
16.767000 1.319400
16.802300 1.322900
16.837700 1.312100
16.873000 1.296300
16.908400 1.317300
16.943700 1.370500
16.979000 1.478100
17.014400 1.418000
17.049700 1.415300
17.085000 1.420600
17.120400 1.431200
17.155700 1.450100
17.191100 1.461300
17.226400 1.474300
17.261700 1.482900
17.297100 1.488000
17.332400 1.489000
17.367700 1.475000
17.403100 1.471800
17.438400 1.474600
17.473800 1.469000
17.509100 1.461500
17.544400 1.448900
17.579800 1.431200
17.615100 1.404600
17.650400 1.396200
17.685800 1.383500
17.721100 1.372300
17.756500 1.356200
17.791800 1.344900
17.827100 1.336500
17.862500 1.317200
17.897800 1.319000
17.933100 1.323000
17.968500 1.332000
18.003800 1.341600
18.039200 1.346300
18.074500 1.355600
18.109800 1.364100
18.145200 1.372500
18.180500 1.378900
18.215800 1.383200
18.251200 1.387700
18.286500 1.389900
18.321900 1.389000
18.357200 1.380800
18.392500 1.373500
18.427900 1.367300
18.463200 1.363900
18.498500 1.360800
18.533900 1.361900
18.569200 1.358100
18.604600 1.359200
18.639900 1.349000
18.675200 1.349500
18.710600 1.347600
18.745900 1.346300
18.781200 1.350800
18.816600 1.352600
18.851900 1.360200
18.887300 1.362900
18.922600 1.367200
18.957900 1.378500
18.993300 1.393000
19.028600 1.411100
19.063900 1.429200
19.099300 1.448000
19.134600 1.465800
19.170000 1.485900
19.205300 1.497600
19.240600 1.476900
19.276000 1.490800
19.311300 1.502200
19.346600 1.523700
19.382000 1.538200
19.417300 1.559200
19.452700 1.579400
19.488000 1.580700
19.523300 1.557500
19.558700 1.698500
19.594000 1.538400
19.629300 1.452500
19.664700 1.418400
19.700000 1.393700
19.735400 1.366100
19.770700 1.339500
19.806000 1.324800
19.841400 1.304800
19.876700 1.290000
19.912000 1.279400
19.947400 1.271800
19.982700 1.270900
20.018000 1.277800
20.053400 1.290200
20.088700 1.308800
20.124100 1.339400
20.159400 1.381400
20.194700 1.421600
20.230100 1.455400
20.265400 1.483000
20.300700 1.515700
20.336100 1.545100
20.371400 1.573400
20.406800 1.587500
20.442100 1.591200
20.477400 1.601000
20.512800 1.598100
20.548100 1.588600
20.583400 1.583500
20.618800 1.583500
20.654100 1.577900
20.689500 1.575500
20.724800 1.529200
20.760100 1.508900
20.795500 1.562600
20.830800 1.252000
20.866100 1.167200
20.901500 1.185000
20.936800 1.225800
20.972200 1.268700
21.007500 1.335600
21.042800 1.380400
21.078200 1.436400
21.113500 1.486200
21.148800 1.527400
21.184200 1.562200
21.219500 1.599100
21.254900 1.628000
21.290200 1.623900
21.325500 1.624300
21.360900 1.627600
21.396200 1.751900
21.431500 1.607200
21.466900 1.529000
21.502200 1.527600
21.537600 1.492600
21.572900 1.462800
21.608200 1.459800
21.643600 1.401800
21.678900 1.407500
21.714200 1.349600
21.749600 1.321400
21.784900 1.317500
21.820300 1.331400
21.855600 1.360200
21.890900 1.391200
21.926300 1.414200
21.961600 1.455400
21.996900 1.572600
22.032300 1.609300
22.067600 1.650800
22.103000 1.750200
22.138300 1.828700
22.173600 1.846300
22.209000 1.854600
22.244300 1.784500
22.279600 1.702900
22.315000 1.617900
22.350300 1.588600
22.385700 1.542700
22.421000 1.517100
22.456300 1.522200
22.491700 1.555700
22.527000 1.593600
22.562300 1.640500
22.597700 1.711800
22.633000 1.792500
22.668400 1.821100
22.703700 1.815300
22.739000 1.800700
22.774400 1.784700
22.809700 1.761900
22.845000 1.721200
22.880400 1.658100
22.915700 1.635700
22.951100 1.613000
22.986400 1.604600
23.021700 1.589900
23.057100 1.545600
23.092400 1.521700
23.127700 1.481600
23.163100 1.448100
23.198400 1.417800
23.233700 1.384100
23.269100 1.377500
23.304400 1.375600
23.339800 1.364700
23.375100 1.356300
23.410400 1.359700
23.445800 1.351500
23.481100 1.315500
23.516400 1.313500
23.551800 1.310100
23.587100 1.325400
23.622500 1.329000
23.657800 1.329000
23.693100 1.337600
23.728500 1.348900
23.763800 1.358600
23.799100 1.370200
23.834500 1.393600
23.869800 1.420900
23.905200 1.426200
23.940500 1.430200
23.975800 1.430600
24.011200 1.424500
24.046500 1.422200
24.081800 1.424100
24.117200 1.433100
24.152500 1.449900
24.187900 1.472900
24.223200 1.504000
24.258500 1.535100
24.293900 1.565500
24.329200 1.576900
24.364500 1.568500
24.399900 1.563100
24.435200 1.578200
24.470600 1.599100
24.505900 1.617500
24.541200 1.644100
24.576600 1.672200
24.611900 1.703300
24.647200 1.730900
24.682600 1.763400
24.717900 1.776700
24.753300 1.775500
24.788600 1.779800
24.823900 1.804600
24.859300 1.844800
24.894600 1.846300
24.929900 1.820900
24.965300 1.796800
25.000600 1.796400
25.036000 1.718600
25.071300 1.693000
25.106600 1.672300
25.142000 1.651200
25.177300 1.626200
25.212600 1.598600
25.248000 1.573000
25.283300 1.544700
25.318700 1.538200
25.354000 1.550800
25.389300 1.570400
25.424700 1.571100
25.460000 1.569800
25.495300 1.575300
25.530700 1.639000
25.566000 1.574900
25.601400 1.525600
25.636700 1.504500
25.672000 1.492800
25.707400 1.505100
25.742700 1.519600
25.778000 1.528300
25.813400 1.535600
25.848700 1.539900
25.884100 1.561400
25.919400 1.619100
25.954700 1.551400
25.990100 1.569300
26.025400 1.601000
