set title 'mp-1018152 - Density of States'
set xlabel 'Energy (eV)'
set ylabel 'DOS (states/eV)'
set grid
set xrange [-10:10]
set yrange [0:13.342]
set xzeroaxis lt -1
set terminal png size 800,600
set output 'mp-1018152_dos_gnuplot.png'
plot '-' using 1:2 with lines title 'DOS'
-26.066500 0.000000
-26.024200 0.000000
-25.981900 0.000000
-25.939600 0.000000
-25.897200 0.000000
-25.854900 0.000000
-25.812600 0.000000
-25.770300 0.000000
-25.728000 0.000000
-25.685700 0.000000
-25.643400 0.000000
-25.601100 0.000000
-25.558800 0.000000
-25.516500 0.000000
-25.474200 0.000000
-25.431900 0.000000
-25.389600 0.000000
-25.347300 0.000000
-25.305000 0.000000
-25.262700 0.000000
-25.220400 0.000000
-25.178100 0.000000
-25.135800 0.000000
-25.093500 0.000000
-25.051200 0.000000
-25.008900 0.000000
-24.966600 0.000000
-24.924300 0.000000
-24.882000 0.000000
-24.839700 0.000000
-24.797400 0.000000
-24.755100 0.000000
-24.712800 0.000000
-24.670500 0.000000
-24.628200 0.000000
-24.585900 0.000000
-24.543600 0.000000
-24.501300 0.000000
-24.459000 0.000000
-24.416700 0.000000
-24.374400 0.000000
-24.332000 0.000000
-24.289700 0.000000
-24.247400 0.000000
-24.205100 0.000000
-24.162800 0.000000
-24.120500 0.000000
-24.078200 0.000000
-24.035900 0.000000
-23.993600 0.000000
-23.951300 0.000000
-23.909000 0.000000
-23.866700 0.000000
-23.824400 0.000000
-23.782100 0.000000
-23.739800 0.000000
-23.697500 0.000000
-23.655200 0.000000
-23.612900 0.000000
-23.570600 0.000000
-23.528300 0.000000
-23.486000 0.000000
-23.443700 0.000000
-23.401400 0.000000
-23.359100 0.000000
-23.316800 0.000000
-23.274500 0.000000
-23.232200 0.000000
-23.189900 0.000000
-23.147600 0.000000
-23.105300 0.000000
-23.063000 0.000000
-23.020700 0.000000
-22.978400 0.000000
-22.936100 0.000000
-22.893800 0.000000
-22.851500 0.000000
-22.809200 0.000000
-22.766800 0.000000
-22.724500 0.000000
-22.682200 0.000000
-22.639900 0.000000
-22.597600 0.000000
-22.555300 0.000000
-22.513000 0.000000
-22.470700 0.000000
-22.428400 0.000000
-22.386100 0.000000
-22.343800 0.001400
-22.301500 0.086100
-22.259200 1.550000
-22.216900 8.862300
-22.174600 19.969900
-22.132300 30.710500
-22.090000 40.929300
-22.047700 29.396400
-22.005400 9.171400
-21.963100 1.112300
-21.920800 0.044700
-21.878500 0.000500
-21.836200 0.000000
-21.793900 0.000000
-21.751600 0.000000
-21.709300 0.000000
-21.667000 0.000000
-21.624700 0.000000
-21.582400 0.000000
-21.540100 0.000000
-21.497800 0.000000
-21.455500 0.000000
-21.413200 0.000000
-21.370900 0.000000
-21.328600 0.000000
-21.286300 0.000000
-21.244000 0.000000
-21.201600 0.000000
-21.159300 0.000000
-21.117000 0.000000
-21.074700 0.000000
-21.032400 0.000000
-20.990100 0.000000
-20.947800 0.000000
-20.905500 0.000000
-20.863200 0.000000
-20.820900 0.000000
-20.778600 0.000000
-20.736300 0.000000
-20.694000 0.000000
-20.651700 0.000000
-20.609400 0.000000
-20.567100 0.000000
-20.524800 0.000000
-20.482500 0.000000
-20.440200 0.000000
-20.397900 0.000000
-20.355600 0.000000
-20.313300 0.000000
-20.271000 0.000000
-20.228700 0.000000
-20.186400 0.000000
-20.144100 0.000000
-20.101800 0.000000
-20.059500 0.000000
-20.017200 0.000000
-19.974900 0.000000
-19.932600 0.000000
-19.890300 0.000000
-19.848000 0.000000
-19.805700 0.000000
-19.763400 0.000000
-19.721100 0.000000
-19.678700 0.000000
-19.636400 0.000000
-19.594100 0.000000
-19.551800 0.000000
-19.509500 0.000000
-19.467200 0.000000
-19.424900 0.000000
-19.382600 0.000000
-19.340300 0.000000
-19.298000 0.000000
-19.255700 0.000000
-19.213400 0.000000
-19.171100 0.000000
-19.128800 0.000000
-19.086500 0.000000
-19.044200 0.000000
-19.001900 0.000000
-18.959600 0.000000
-18.917300 0.000000
-18.875000 0.000000
-18.832700 0.000000
-18.790400 0.000000
-18.748100 0.000000
-18.705800 0.000000
-18.663500 0.000000
-18.621200 0.000000
-18.578900 0.000000
-18.536600 0.000000
-18.494300 0.000000
-18.452000 0.000000
-18.409700 0.000000
-18.367400 0.000000
-18.325100 0.000000
-18.282800 0.000000
-18.240500 0.000000
-18.198200 0.000000
-18.155900 0.000000
-18.113500 0.000000
-18.071200 0.000000
-18.028900 0.000000
-17.986600 0.000000
-17.944300 0.000000
-17.902000 0.000000
-17.859700 0.000000
-17.817400 0.000000
-17.775100 0.000000
-17.732800 0.000000
-17.690500 0.000000
-17.648200 0.000000
-17.605900 0.000000
-17.563600 0.000000
-17.521300 0.000000
-17.479000 0.000000
-17.436700 0.000000
-17.394400 0.000000
-17.352100 0.000000
-17.309800 0.000000
-17.267500 0.000000
-17.225200 0.000000
-17.182900 0.000000
-17.140600 0.000000
-17.098300 0.000000
-17.056000 0.000000
-17.013700 0.000000
-16.971400 0.000000
-16.929100 0.000000
-16.886800 0.000000
-16.844500 0.000000
-16.802200 0.000000
-16.759900 0.000000
-16.717600 0.000000
-16.675300 0.000000
-16.633000 0.000000
-16.590700 0.000000
-16.548300 0.000000
-16.506000 0.000000
-16.463700 0.000000
-16.421400 0.000000
-16.379100 0.000000
-16.336800 0.000000
-16.294500 0.000000
-16.252200 0.000000
-16.209900 0.000000
-16.167600 0.000000
-16.125300 0.000000
-16.083000 0.000000
-16.040700 0.000000
-15.998400 0.000000
-15.956100 0.000000
-15.913800 0.000000
-15.871500 0.000000
-15.829200 0.000000
-15.786900 0.000000
-15.744600 0.000000
-15.702300 0.000000
-15.660000 0.000000
-15.617700 0.000000
-15.575400 0.000000
-15.533100 0.000000
-15.490800 0.000000
-15.448500 0.000000
-15.406200 0.000000
-15.363900 0.000000
-15.321600 0.000000
-15.279300 0.000000
-15.237000 0.000000
-15.194700 0.000000
-15.152400 0.000000
-15.110100 0.000000
-15.067800 0.000000
-15.025500 0.000000
-14.983100 0.000000
-14.940800 0.000000
-14.898500 0.000000
-14.856200 0.000000
-14.813900 0.000000
-14.771600 0.000000
-14.729300 0.000000
-14.687000 0.000000
-14.644700 0.000000
-14.602400 0.000000
-14.560100 0.000000
-14.517800 0.000000
-14.475500 0.000000
-14.433200 0.000000
-14.390900 0.000000
-14.348600 0.000000
-14.306300 0.000000
-14.264000 0.000000
-14.221700 0.000000
-14.179400 0.000000
-14.137100 0.000000
-14.094800 0.000000
-14.052500 0.000000
-14.010200 0.000000
-13.967900 0.000000
-13.925600 0.000000
-13.883300 0.000000
-13.841000 0.000000
-13.798700 0.000000
-13.756400 0.000000
-13.714100 0.000000
-13.671800 0.000000
-13.629500 0.000000
-13.587200 0.000000
-13.544900 0.000000
-13.502600 0.000000
-13.460300 0.000000
-13.417900 0.000000
-13.375600 0.000000
-13.333300 0.000000
-13.291000 0.000000
-13.248700 0.000000
-13.206400 0.000000
-13.164100 0.000000
-13.121800 0.000000
-13.079500 0.000000
-13.037200 0.000000
-12.994900 0.000000
-12.952600 0.000000
-12.910300 0.000000
-12.868000 0.000000
-12.825700 0.000000
-12.783400 0.000000
-12.741100 0.000000
-12.698800 0.000000
-12.656500 0.000000
-12.614200 0.000000
-12.571900 0.000000
-12.529600 0.000000
-12.487300 0.000000
-12.445000 0.000000
-12.402700 0.000000
-12.360400 0.000000
-12.318100 0.000000
-12.275800 0.000000
-12.233500 0.000000
-12.191200 0.000000
-12.148900 0.000000
-12.106600 0.000000
-12.064300 0.000000
-12.022000 0.000000
-11.979700 0.000000
-11.937400 0.000000
-11.895000 0.000000
-11.852700 0.000000
-11.810400 0.000000
-11.768100 0.000000
-11.725800 0.000000
-11.683500 0.000000
-11.641200 0.000000
-11.598900 0.000000
-11.556600 0.000000
-11.514300 0.000000
-11.472000 0.000000
-11.429700 0.000000
-11.387400 0.000000
-11.345100 0.000000
-11.302800 0.000000
-11.260500 0.000000
-11.218200 0.000000
-11.175900 0.000000
-11.133600 0.000000
-11.091300 0.000000
-11.049000 0.000000
-11.006700 0.000000
-10.964400 0.000000
-10.922100 0.000000
-10.879800 0.000000
-10.837500 0.000000
-10.795200 0.000000
-10.752900 0.000000
-10.710600 0.000000
-10.668300 0.000000
-10.626000 0.000000
-10.583700 0.000000
-10.541400 0.000000
-10.499100 0.000000
-10.456800 0.000000
-10.414500 0.000000
-10.372200 0.000000
-10.329800 0.000000
-10.287500 0.000000
-10.245200 0.000000
-10.202900 0.000000
-10.160600 0.000000
-10.118300 0.000000
-10.076000 0.000000
-10.033700 0.000000
-9.991400 0.000000
-9.949100 0.000000
-9.906800 0.000000
-9.864500 0.000000
-9.822200 0.000000
-9.779900 0.000000
-9.737600 0.000000
-9.695300 0.000000
-9.653000 0.000000
-9.610700 0.000000
-9.568400 0.000000
-9.526100 0.000000
-9.483800 0.000000
-9.441500 0.000000
-9.399200 0.000000
-9.356900 0.000000
-9.314600 0.000000
-9.272300 0.000000
-9.230000 0.000000
-9.187700 0.000000
-9.145400 0.000000
-9.103100 0.000000
-9.060800 0.000000
-9.018500 0.000000
-8.976200 0.000000
-8.933900 0.000000
-8.891600 0.000000
-8.849300 0.000000
-8.807000 0.000000
-8.764600 0.000000
-8.722300 0.000000
-8.680000 0.000000
-8.637700 0.000000
-8.595400 0.000000
-8.553100 0.000000
-8.510800 0.000000
-8.468500 0.000000
-8.426200 0.000000
-8.383900 0.000000
-8.341600 0.000000
-8.299300 0.000000
-8.257000 0.000000
-8.214700 0.000000
-8.172400 0.000000
-8.130100 0.000000
-8.087800 0.000000
-8.045500 0.000000
-8.003200 0.000000
-7.960900 0.000000
-7.918600 0.000000
-7.876300 0.000000
-7.834000 0.000000
-7.791700 0.000000
-7.749400 0.000000
-7.707100 0.000000
-7.664800 0.000000
-7.622500 0.000000
-7.580200 0.000000
-7.537900 0.000000
-7.495600 0.000000
-7.453300 0.000000
-7.411000 0.000000
-7.368700 0.000000
-7.326400 0.000000
-7.284100 0.000000
-7.241800 0.000000
-7.199400 0.000000
-7.157100 0.000000
-7.114800 0.000000
-7.072500 0.000000
-7.030200 0.000000
-6.987900 0.000000
-6.945600 0.000000
-6.903300 0.000000
-6.861000 0.000000
-6.818700 0.000000
-6.776400 0.000000
-6.734100 0.000000
-6.691800 0.000000
-6.649500 0.000000
-6.607200 0.000000
-6.564900 0.000000
-6.522600 0.000000
-6.480300 0.000000
-6.438000 0.000000
-6.395700 0.000000
-6.353400 0.000000
-6.311100 0.000000
-6.268800 0.000000
-6.226500 0.000000
-6.184200 0.000000
-6.141900 0.000000
-6.099600 0.000000
-6.057300 0.000000
-6.015000 0.000000
-5.972700 0.000000
-5.930400 0.000000
-5.888100 0.000000
-5.845800 0.000000
-5.803500 0.000000
-5.761200 0.000000
-5.718900 0.000000
-5.676500 0.000000
-5.634200 0.000000
-5.591900 0.000000
-5.549600 0.000000
-5.507300 0.000000
-5.465000 0.000000
-5.422700 0.000000
-5.380400 0.000000
-5.338100 0.000000
-5.295800 0.000000
-5.253500 0.000000
-5.211200 0.000000
-5.168900 0.000000
-5.126600 0.000000
-5.084300 0.000000
-5.042000 0.000000
-4.999700 0.000000
-4.957400 0.000000
-4.915100 0.000000
-4.872800 0.000000
-4.830500 0.000000
-4.788200 0.000000
-4.745900 0.000000
-4.703600 0.000000
-4.661300 0.000000
-4.619000 0.000000
-4.576700 0.000000
-4.534400 0.000000
-4.492100 0.000000
-4.449800 0.000000
-4.407500 0.000000
-4.365200 0.000000
-4.322900 0.000000
-4.280600 0.000000
-4.238300 0.000000
-4.196000 0.000000
-4.153700 0.000000
-4.111300 0.000000
-4.069000 0.000000
-4.026700 0.000000
-3.984400 0.000000
-3.942100 0.000000
-3.899800 0.000300
-3.857500 0.004800
-3.815200 0.020200
-3.772900 0.031600
-3.730600 0.050300
-3.688300 0.091000
-3.646000 0.157400
-3.603700 0.178000
-3.561400 0.100500
-3.519100 0.036300
-3.476800 0.097900
-3.434500 0.225700
-3.392200 0.239200
-3.349900 0.174500
-3.307600 0.182200
-3.265300 0.291200
-3.223000 0.303800
-3.180700 0.177400
-3.138400 0.112700
-3.096100 0.173200
-3.053800 0.347400
-3.011500 0.349600
-2.969200 0.224300
-2.926900 0.196300
-2.884600 0.274600
-2.842300 0.350200
-2.800000 0.289300
-2.757700 0.288900
-2.715400 0.473300
-2.673100 0.560300
-2.630800 0.553800
-2.588500 0.426400
-2.546100 0.210900
-2.503800 0.135100
-2.461500 0.245900
-2.419200 0.313300
-2.376900 0.439900
-2.334600 0.604600
-2.292300 0.634600
-2.250000 0.473200
-2.207700 0.575400
-2.165400 0.749900
-2.123100 0.698900
-2.080800 0.610100
-2.038500 0.698400
-1.996200 0.633500
-1.953900 0.543500
-1.911600 0.556800
-1.869300 0.606600
-1.827000 0.805900
-1.784700 1.209700
-1.742400 1.506800
-1.700100 1.535200
-1.657800 1.367400
-1.615500 1.578900
-1.573200 1.750100
-1.530900 1.690700
-1.488600 2.544700
-1.446300 3.416400
-1.404000 3.484700
-1.361700 3.436700
-1.319400 3.958000
-1.277100 5.216200
-1.234800 6.195600
-1.192500 6.693100
-1.150200 6.395900
-1.107900 5.162900
-1.065600 5.409100
-1.023300 6.723200
-0.980900 6.828600
-0.938600 5.932100
-0.896300 5.866400
-0.854000 6.424400
-0.811700 6.973200
-0.769400 8.776900
-0.727100 10.687100
-0.684800 11.114000
-0.642500 9.781800
-0.600200 8.039000
-0.557900 8.252000
-0.515600 9.616900
-0.473300 9.524700
-0.431000 9.360800
-0.388700 9.418400
-0.346400 8.820600
-0.304100 8.412200
-0.261800 7.916100
-0.219500 6.645300
-0.177200 5.487400
-0.134900 4.099200
-0.092600 3.525300
-0.050300 4.637500
-0.008000 4.433600
0.034300 3.072900
0.076600 2.703900
0.118900 3.158600
0.161200 3.942900
0.203500 4.481300
0.245800 4.689300
0.288100 5.467900
0.330400 7.183800
0.372700 8.537100
0.415000 9.492900
0.457300 11.402200
0.499600 12.129300
0.541900 10.204200
0.584300 8.287300
0.626600 6.939600
0.668900 6.147300
0.711200 5.900800
0.753500 6.019400
0.795800 5.530700
0.838100 5.532100
0.880400 6.376100
0.922700 7.323200
0.965000 7.890400
1.007300 7.607200
1.049600 7.988000
1.091900 8.919100
1.134200 8.704100
1.176500 7.720500
1.218800 6.786600
1.261100 6.279200
1.303400 5.783500
1.345700 4.707500
1.388000 4.374700
1.430300 4.243500
1.472600 3.614700
1.514900 2.963500
1.557200 2.368000
1.599500 2.297500
1.641800 2.268400
1.684100 2.450700
1.726400 2.500500
1.768700 2.180100
1.811000 2.453600
1.853300 3.307300
1.895600 3.164400
1.937900 2.228100
1.980200 1.127100
2.022500 0.545400
2.064800 0.786300
2.107200 1.267800
2.149500 1.390000
2.191800 1.148500
2.234100 0.987500
2.276400 1.072400
2.318700 1.234100
2.361000 1.390900
2.403300 1.276500
2.445600 1.012300
2.487900 0.937900
2.530200 1.128200
2.572500 1.394900
2.614800 1.183900
2.657100 0.957600
2.699400 0.873200
2.741700 0.673200
2.784000 0.672000
2.826300 1.065900
2.868600 1.329200
2.910900 1.341700
2.953200 1.004400
2.995500 0.649600
3.037800 0.543900
3.080100 0.751500
3.122400 1.227500
3.164700 1.334800
3.207000 0.921500
3.249300 0.426700
3.291600 0.462100
3.333900 0.711500
3.376200 1.018900
3.418500 1.010500
3.460800 0.750900
3.503100 0.836600
3.545400 1.080200
3.587700 1.156400
3.630000 1.196200
3.672400 1.026900
3.714700 0.599300
3.757000 0.474800
3.799300 0.874600
3.841600 1.340000
3.883900 1.631200
3.926200 1.518500
3.968500 1.243400
4.010800 1.119300
4.053100 1.050900
4.095400 1.166800
4.137700 1.595800
4.180000 1.237400
4.222300 0.810200
4.264600 0.968700
4.306900 1.255100
4.349200 1.434900
4.391500 1.218100
4.433800 0.999400
4.476100 0.802800
4.518400 0.558200
4.560700 0.539700
4.603000 0.553500
4.645300 0.836500
4.687600 1.452600
4.729900 1.226600
4.772200 0.753800
4.814500 0.768100
4.856800 1.306700
4.899100 1.447600
4.941400 1.140600
4.983700 1.295500
5.026000 1.247500
5.068300 1.019100
5.110600 0.754300
5.152900 0.580900
5.195200 0.645900
5.237600 0.549700
5.279900 0.609900
5.322200 0.635000
5.364500 0.633600
5.406800 0.371500
5.449100 0.293300
5.491400 0.549000
5.533700 0.922700
5.576000 1.197900
5.618300 1.073500
5.660600 0.812200
5.702900 0.518200
5.745200 0.342200
5.787500 0.361200
5.829800 0.511700
5.872100 0.710500
5.914400 1.188400
5.956700 1.790700
5.999000 1.880400
6.041300 1.348800
6.083600 1.107400
6.125900 1.236200
6.168200 1.586700
6.210500 1.694500
6.252800 2.003200
6.295100 2.575900
6.337400 2.765200
6.379700 2.590900
6.422000 2.487400
6.464300 2.526700
6.506600 2.200300
6.548900 2.049400
6.591200 1.458500
6.633500 1.415500
6.675800 2.210900
6.718100 2.146600
6.760400 1.767200
6.802800 1.815800
6.845100 1.868600
6.887400 2.224100
6.929700 2.349300
6.972000 2.469700
7.014300 2.389900
7.056600 2.200400
7.098900 2.149400
7.141200 1.912700
7.183500 2.038300
7.225800 2.819000
7.268100 3.424500
7.310400 3.941200
7.352700 3.752100
7.395000 3.697600
7.437300 3.921800
7.479600 4.114000
7.521900 4.217300
7.564200 3.538700
7.606500 2.407100
7.648800 2.137400
7.691100 2.321100
7.733400 2.714600
7.775700 3.477800
7.818000 3.865800
7.860300 3.458000
7.902600 3.640500
7.944900 4.807500
7.987200 4.713600
8.029500 3.329700
8.071800 2.546800
8.114100 2.543300
8.156400 2.401300
8.198700 2.169400
8.241000 1.928100
8.283300 1.657700
8.325700 1.356900
8.368000 1.266300
8.410300 1.312800
8.452600 1.413500
8.494900 1.400200
8.537200 1.080100
8.579500 1.088100
8.621800 1.574300
8.664100 1.547800
8.706400 0.932700
8.748700 0.948100
8.791000 1.668600
8.833300 2.144000
8.875600 1.552500
8.917900 1.441400
8.960200 2.313500
9.002500 2.510200
9.044800 2.116400
9.087100 2.082000
9.129400 1.779400
9.171700 1.931700
9.214000 2.605600
9.256300 2.575100
9.298600 1.909700
9.340900 1.472200
9.383200 1.489100
9.425500 1.587700
9.467800 1.791000
9.510100 1.500000
9.552400 0.987200
9.594700 0.762500
9.637000 0.783900
9.679300 0.754400
9.721600 0.536700
9.763900 0.266100
9.806200 0.102400
9.848500 0.109100
9.890900 0.458500
9.933200 0.865500
9.975500 0.828300
10.017800 0.673800
10.060100 0.745300
10.102400 1.320200
10.144700 1.921100
10.187000 1.863000
10.229300 1.807600
10.271600 1.704000
10.313900 1.943800
10.356200 2.558700
10.398500 2.413600
10.440800 1.836600
10.483100 1.630600
10.525400 1.921400
10.567700 2.162800
10.610000 1.972400
10.652300 1.730900
10.694600 1.430000
10.736900 1.246900
10.779200 1.437600
10.821500 1.264200
10.863800 0.860800
10.906100 0.809100
10.948400 1.048900
10.990700 1.326800
11.033000 1.696000
11.075300 1.415600
11.117600 1.027400
11.159900 1.252900
11.202200 1.356900
11.244500 1.395500
11.286800 1.559900
11.329100 1.329300
11.371400 0.938800
11.413700 1.062600
11.456100 1.512600
11.498400 1.820400
11.540700 1.721300
11.583000 2.050700
11.625300 2.268700
11.667600 2.249800
11.709900 2.395700
11.752200 1.809900
11.794500 1.105600
11.836800 1.011700
11.879100 1.068000
11.921400 1.300300
11.963700 1.369700
12.006000 1.528100
12.048300 1.297500
12.090600 0.995600
12.132900 1.270000
12.175200 1.530600
12.217500 1.634900
12.259800 2.021800
12.302100 2.249700
12.344400 1.629500
12.386700 1.133800
12.429000 1.053000
12.471300 1.081100
12.513600 1.135600
12.555900 1.311700
12.598200 1.581500
12.640500 1.483900
12.682800 1.260900
12.725100 1.287300
12.767400 1.828300
12.809700 2.351200
12.852000 2.378800
12.894300 2.649400
12.936600 2.909300
12.978900 2.435100
13.021300 2.242300
13.063600 2.020100
13.105900 1.532100
13.148200 1.176600
13.190500 1.239600
13.232800 1.877800
13.275100 2.313900
13.317400 1.915900
13.359700 1.267700
13.402000 1.086500
13.444300 1.350300
13.486600 1.745400
13.528900 1.886200
13.571200 1.729000
13.613500 1.264900
13.655800 0.960500
13.698100 0.879100
13.740400 0.869400
13.782700 1.214700
13.825000 1.566000
13.867300 1.457000
13.909600 1.439700
13.951900 1.610800
13.994200 1.289200
14.036500 0.760800
14.078800 0.845900
14.121100 1.257400
14.163400 1.648500
14.205700 1.881300
14.248000 1.920800
14.290300 1.953700
14.332600 1.895400
14.374900 1.517100
14.417200 1.498600
14.459500 1.733700
14.501800 2.026900
14.544100 2.135300
14.586500 1.958300
14.628800 1.749000
14.671100 1.472100
14.713400 1.130400
14.755700 1.098800
14.798000 1.342300
14.840300 1.516800
14.882600 1.405300
14.924900 0.997800
14.967200 1.154100
15.009500 1.457000
15.051800 1.123400
15.094100 1.142800
15.136400 1.342800
15.178700 1.397900
15.221000 1.745400
15.263300 1.957900
15.305600 1.945000
15.347900 1.902100
15.390200 1.828700
15.432500 1.851300
15.474800 2.042300
15.517100 2.153600
15.559400 1.796400
15.601700 1.874900
15.644000 2.395400
15.686300 2.684100
15.728600 2.503300
15.770900 2.113000
15.813200 1.617200
15.855500 1.473900
15.897800 1.854000
15.940100 2.146100
15.982400 2.012100
16.024700 1.559700
16.067000 1.229600
16.109400 1.370300
16.151700 2.123200
16.194000 2.392800
16.236300 1.838100
16.278600 1.317900
16.320900 1.620100
16.363200 2.027700
16.405500 1.734400
16.447800 1.176900
16.490100 1.334200
16.532400 2.098000
16.574700 2.487700
16.617000 2.311400
16.659300 2.205700
16.701600 2.271500
16.743900 2.732700
16.786200 2.624700
16.828500 1.796100
16.870800 1.267900
16.913100 1.400400
16.955400 1.861900
16.997700 2.652800
17.040000 2.974000
17.082300 2.413400
17.124600 2.135700
17.166900 2.248800
17.209200 2.098100
17.251500 1.948800
17.293800 1.984600
17.336100 2.134000
17.378400 2.318700
17.420700 2.401600
