set title 'mp-979254 - Density of States'
set xlabel 'Energy (eV)'
set ylabel 'DOS (states/eV)'
set grid
set xrange [-10:10]
set yrange [0:3.400]
set xzeroaxis lt -1
set terminal png size 800,600
set output 'mp-979254_dos_gnuplot.png'
plot '-' using 1:2 with lines title 'DOS'
-19.943300 0.000000
-19.910300 0.000000
-19.877200 0.000000
-19.844100 0.000000
-19.811000 0.000000
-19.777900 0.000000
-19.744900 0.000000
-19.711800 0.000000
-19.678700 0.000000
-19.645600 0.000000
-19.612500 0.000000
-19.579500 0.000000
-19.546400 0.000000
-19.513300 0.000000
-19.480200 0.000000
-19.447200 0.000000
-19.414100 0.000000
-19.381000 0.000000
-19.347900 0.000000
-19.314800 0.000000
-19.281800 0.000000
-19.248700 0.000000
-19.215600 0.000000
-19.182500 0.000000
-19.149500 0.000000
-19.116400 0.000000
-19.083300 0.000000
-19.050200 0.000000
-19.017100 0.000000
-18.984100 0.000000
-18.951000 0.000000
-18.917900 0.000000
-18.884800 0.000000
-18.851700 0.000000
-18.818700 0.000000
-18.785600 0.000000
-18.752500 0.000000
-18.719400 0.000000
-18.686400 0.000000
-18.653300 0.000000
-18.620200 0.000000
-18.587100 0.000000
-18.554000 0.000000
-18.521000 0.000000
-18.487900 0.000000
-18.454800 0.000000
-18.421700 0.000000
-18.388600 0.000000
-18.355600 0.000000
-18.322500 0.000000
-18.289400 0.000000
-18.256300 0.000000
-18.223300 0.000000
-18.190200 0.000000
-18.157100 0.000000
-18.124000 0.000000
-18.090900 0.000000
-18.057900 0.000000
-18.024800 0.000000
-17.991700 0.000000
-17.958600 0.000000
-17.925600 0.000000
-17.892500 0.000000
-17.859400 0.000000
-17.826300 0.000000
-17.793200 0.000000
-17.760200 0.000000
-17.727100 0.000000
-17.694000 0.000000
-17.660900 0.000000
-17.627800 0.000000
-17.594800 0.000000
-17.561700 0.000000
-17.528600 0.000000
-17.495500 0.000000
-17.462500 0.000000
-17.429400 0.000000
-17.396300 0.000000
-17.363200 0.000000
-17.330100 0.000000
-17.297100 0.000000
-17.264000 0.000000
-17.230900 0.000000
-17.197800 0.000000
-17.164700 0.000000
-17.131700 0.000000
-17.098600 0.000000
-17.065500 0.000000
-17.032400 0.000000
-16.999400 0.000000
-16.966300 0.000000
-16.933200 49.009300
-16.900100 415.613200
-16.867000 357.972100
-16.834000 43.803600
-16.800900 0.000000
-16.767800 0.000000
-16.734700 0.000000
-16.701600 0.000000
-16.668600 0.000000
-16.635500 0.000000
-16.602400 0.000000
-16.569300 0.000000
-16.536300 0.000000
-16.503200 0.000000
-16.470100 0.000000
-16.437000 0.000000
-16.403900 0.000000
-16.370900 0.000000
-16.337800 0.000000
-16.304700 0.000000
-16.271600 0.000000
-16.238600 0.000000
-16.205500 0.000000
-16.172400 0.000000
-16.139300 0.000000
-16.106200 0.000000
-16.073200 0.000000
-16.040100 0.000000
-16.007000 0.000000
-15.973900 0.000000
-15.940800 0.000000
-15.907800 0.000000
-15.874700 0.000000
-15.841600 0.000000
-15.808500 0.000000
-15.775500 0.000000
-15.742400 0.000000
-15.709300 0.000000
-15.676200 0.000000
-15.643100 0.000000
-15.610100 0.000000
-15.577000 0.000000
-15.543900 0.000000
-15.510800 0.000000
-15.477700 0.000000
-15.444700 0.000000
-15.411600 0.000000
-15.378500 0.000000
-15.345400 0.000000
-15.312400 0.000000
-15.279300 0.000000
-15.246200 0.000000
-15.213100 0.000000
-15.180000 0.000000
-15.147000 0.000000
-15.113900 0.000000
-15.080800 0.000000
-15.047700 0.000000
-15.014700 0.000000
-14.981600 0.000000
-14.948500 0.000000
-14.915400 0.000000
-14.882300 0.000000
-14.849300 0.000000
-14.816200 0.000000
-14.783100 0.000000
-14.750000 0.000000
-14.716900 0.000000
-14.683900 0.000000
-14.650800 0.000000
-14.617700 0.000000
-14.584600 0.000000
-14.551600 0.000000
-14.518500 0.000000
-14.485400 0.000000
-14.452300 0.000000
-14.419200 0.000000
-14.386200 0.000000
-14.353100 0.000000
-14.320000 0.000000
-14.286900 0.000000
-14.253800 0.000000
-14.220800 0.000000
-14.187700 0.000000
-14.154600 0.000000
-14.121500 0.000000
-14.088500 0.000000
-14.055400 0.000000
-14.022300 0.000000
-13.989200 0.000000
-13.956100 0.000000
-13.923100 0.000000
-13.890000 0.000000
-13.856900 0.000000
-13.823800 0.000000
-13.790800 0.000000
-13.757700 0.000000
-13.724600 0.000000
-13.691500 0.000000
-13.658400 0.000000
-13.625400 0.000000
-13.592300 0.000000
-13.559200 0.000000
-13.526100 0.000000
-13.493000 0.000000
-13.460000 0.000000
-13.426900 0.000000
-13.393800 0.000000
-13.360700 0.000000
-13.327700 0.000000
-13.294600 0.000000
-13.261500 0.000000
-13.228400 0.000000
-13.195300 0.000000
-13.162300 0.000000
-13.129200 0.000000
-13.096100 0.000000
-13.063000 0.000000
-13.029900 0.000000
-12.996900 0.000000
-12.963800 0.000000
-12.930700 0.000000
-12.897600 0.000000
-12.864600 0.000000
-12.831500 0.000000
-12.798400 0.000000
-12.765300 0.000000
-12.732200 0.000000
-12.699200 0.000000
-12.666100 0.000000
-12.633000 0.000000
-12.599900 0.000000
-12.566900 0.000000
-12.533800 0.000000
-12.500700 0.000000
-12.467600 0.000000
-12.434500 0.000000
-12.401500 0.000000
-12.368400 0.000000
-12.335300 0.000000
-12.302200 0.000000
-12.269100 0.000000
-12.236100 0.000000
-12.203000 0.000000
-12.169900 0.000000
-12.136800 0.000000
-12.103800 0.000000
-12.070700 0.000000
-12.037600 0.000000
-12.004500 0.000000
-11.971400 0.000000
-11.938400 0.000000
-11.905300 0.000000
-11.872200 0.000000
-11.839100 0.000000
-11.806000 0.000000
-11.773000 0.000000
-11.739900 0.000000
-11.706800 0.000000
-11.673700 0.000000
-11.640700 0.000000
-11.607600 0.000000
-11.574500 0.000000
-11.541400 0.000000
-11.508300 0.000000
-11.475300 0.000000
-11.442200 0.000000
-11.409100 0.000000
-11.376000 0.000000
-11.343000 0.000000
-11.309900 0.000000
-11.276800 0.000000
-11.243700 0.000000
-11.210600 0.000000
-11.177600 0.000000
-11.144500 0.000000
-11.111400 0.000000
-11.078300 0.000000
-11.045200 0.000000
-11.012200 0.000000
-10.979100 0.000000
-10.946000 0.000000
-10.912900 0.000000
-10.879900 0.000000
-10.846800 0.000000
-10.813700 0.000000
-10.780600 0.000000
-10.747500 0.000000
-10.714500 0.000000
-10.681400 0.000000
-10.648300 0.000000
-10.615200 0.000000
-10.582100 0.000000
-10.549100 0.000000
-10.516000 0.000000
-10.482900 0.000000
-10.449800 0.000000
-10.416800 0.000000
-10.383700 0.000000
-10.350600 0.000000
-10.317500 0.000000
-10.284400 0.000000
-10.251400 0.000000
-10.218300 0.000000
-10.185200 0.000000
-10.152100 0.000000
-10.119100 0.000000
-10.086000 0.000000
-10.052900 0.000000
-10.019800 0.000000
-9.986700 0.000000
-9.953700 0.000000
-9.920600 0.000000
-9.887500 0.000000
-9.854400 0.000000
-9.821300 0.000000
-9.788300 0.000000
-9.755200 0.000000
-9.722100 0.000000
-9.689000 0.000000
-9.656000 0.000000
-9.622900 0.000000
-9.589800 0.000000
-9.556700 0.000000
-9.523600 0.000000
-9.490600 0.000000
-9.457500 0.000000
-9.424400 0.000000
-9.391300 0.000000
-9.358200 0.000000
-9.325200 0.000000
-9.292100 0.000000
-9.259000 0.000000
-9.225900 0.000000
-9.192900 0.000000
-9.159800 0.000000
-9.126700 0.000000
-9.093600 0.000000
-9.060500 0.000000
-9.027500 0.000000
-8.994400 0.000000
-8.961300 0.000000
-8.928200 0.000000
-8.895200 0.000000
-8.862100 0.000000
-8.829000 0.000000
-8.795900 0.000000
-8.762800 0.000000
-8.729800 0.000000
-8.696700 0.000000
-8.663600 0.000000
-8.630500 0.000000
-8.597400 0.000000
-8.564400 0.000000
-8.531300 0.000000
-8.498200 0.000000
-8.465100 0.000000
-8.432100 0.000000
-8.399000 0.000000
-8.365900 0.000000
-8.332800 0.000000
-8.299700 0.000000
-8.266700 0.000000
-8.233600 0.000000
-8.200500 0.000000
-8.167400 0.000000
-8.134300 0.000000
-8.101300 0.000000
-8.068200 0.000000
-8.035100 0.000000
-8.002000 0.000000
-7.969000 0.000000
-7.935900 0.000000
-7.902800 0.000000
-7.869700 0.000000
-7.836600 0.000000
-7.803600 0.000000
-7.770500 0.000000
-7.737400 0.000000
-7.704300 0.000000
-7.671300 0.000000
-7.638200 0.000000
-7.605100 0.000000
-7.572000 0.000000
-7.538900 0.000000
-7.505900 0.000000
-7.472800 0.000000
-7.439700 0.000000
-7.406600 0.000000
-7.373500 0.000000
-7.340500 0.000000
-7.307400 0.000000
-7.274300 0.000000
-7.241200 0.000000
-7.208200 0.000000
-7.175100 0.000000
-7.142000 0.000000
-7.108900 0.000000
-7.075800 0.000000
-7.042800 0.000000
-7.009700 0.000000
-6.976600 0.000000
-6.943500 0.000000
-6.910400 0.000000
-6.877400 0.000000
-6.844300 0.000000
-6.811200 0.000000
-6.778100 0.000000
-6.745100 0.000000
-6.712000 0.000000
-6.678900 0.000000
-6.645800 0.000000
-6.612700 0.000000
-6.579700 0.000000
-6.546600 0.000000
-6.513500 0.000000
-6.480400 0.000000
-6.447400 0.000000
-6.414300 0.000000
-6.381200 0.000000
-6.348100 0.000000
-6.315000 0.000000
-6.282000 0.000000
-6.248900 0.000000
-6.215800 0.000000
-6.182700 0.000000
-6.149600 0.000000
-6.116600 0.000000
-6.083500 0.000000
-6.050400 0.000000
-6.017300 0.000000
-5.984300 0.000000
-5.951200 0.000000
-5.918100 0.000000
-5.885000 0.000000
-5.851900 0.000000
-5.818900 0.000000
-5.785800 0.000000
-5.752700 0.000000
-5.719600 0.000000
-5.686500 0.000000
-5.653500 0.000000
-5.620400 0.000000
-5.587300 0.000000
-5.554200 0.000000
-5.521200 0.000000
-5.488100 0.000000
-5.455000 0.000000
-5.421900 0.000000
-5.388800 0.000000
-5.355800 0.009700
-5.322700 0.071000
-5.289600 0.161000
-5.256500 0.172400
-5.223500 0.195600
-5.190400 0.225400
-5.157300 0.247700
-5.124200 0.275900
-5.091100 0.302100
-5.058100 0.314400
-5.025000 0.326100
-4.991900 0.344600
-4.958800 0.361200
-4.925700 0.374300
-4.892700 0.386200
-4.859600 0.400700
-4.826500 0.417000
-4.793400 0.435000
-4.760400 0.451000
-4.727300 0.462700
-4.694200 0.474000
-4.661100 0.483200
-4.628000 0.491700
-4.595000 0.501400
-4.561900 0.511100
-4.528800 0.520800
-4.495700 0.532500
-4.462600 0.543800
-4.429600 0.555900
-4.396500 0.568800
-4.363400 0.582000
-4.330300 0.595300
-4.297300 0.606500
-4.264200 0.611900
-4.231100 0.619100
-4.198000 0.626500
-4.164900 0.633800
-4.131900 0.641700
-4.098800 0.650100
-4.065700 0.659000
-4.032600 0.668500
-3.999600 0.678400
-3.966500 0.688500
-3.933400 0.698700
-3.900300 0.708900
-3.867200 0.719300
-3.834200 0.729700
-3.801100 0.742000
-3.768000 0.755900
-3.734900 0.769400
-3.701800 0.779800
-3.668800 0.794300
-3.635700 0.808800
-3.602600 0.820000
-3.569500 0.827700
-3.536500 0.822900
-3.503400 0.817700
-3.470300 0.819900
-3.437200 0.826500
-3.404100 0.842300
-3.371100 0.868300
-3.338000 0.887800
-3.304900 0.910500
-3.271800 0.955700
-3.238700 0.963400
-3.205700 0.972600
-3.172600 0.976200
-3.139500 0.969700
-3.106400 0.968400
-3.073400 0.968700
-3.040300 0.992600
-3.007200 1.070400
-2.974100 1.052300
-2.941000 0.996100
-2.908000 0.948100
-2.874900 0.906200
-2.841800 0.865200
-2.808700 0.830700
-2.775600 0.796400
-2.742600 0.778800
-2.709500 0.784100
-2.676400 0.786200
-2.643300 0.796200
-2.610300 0.841200
-2.577200 0.875200
-2.544100 0.903400
-2.511000 0.925100
-2.477900 0.926700
-2.444900 0.937500
-2.411800 0.961700
-2.378700 0.993300
-2.345600 1.028700
-2.312600 1.067000
-2.279500 1.107200
-2.246400 1.146600
-2.213300 1.156100
-2.180200 1.175600
-2.147200 1.185800
-2.114100 1.169400
-2.081000 1.144100
-2.047900 1.156300
-2.014800 1.217800
-1.981800 1.238600
-1.948700 1.223100
-1.915600 1.202400
-1.882500 1.177700
-1.849500 1.158700
-1.816400 1.151000
-1.783300 1.147100
-1.750200 1.154900
-1.717100 1.165000
-1.684100 1.145300
-1.651000 1.152300
-1.617900 1.159300
-1.584800 1.179100
-1.551700 1.205500
-1.518700 1.246300
-1.485600 1.280300
-1.452500 1.311700
-1.419400 1.340300
-1.386400 1.358000
-1.353300 1.352300
-1.320200 1.349300
-1.287100 1.325900
-1.254000 1.314100
-1.221000 1.305000
-1.187900 1.297100
-1.154800 1.297500
-1.121700 1.298200
-1.088700 1.309300
-1.055600 1.344000
-1.022500 1.389700
-0.989400 1.493500
-0.956300 1.552800
-0.923300 1.568100
-0.890200 1.565900
-0.857100 1.575900
-0.824000 1.531400
-0.790900 1.515300
-0.757900 1.501800
-0.724800 1.495700
-0.691700 1.491000
-0.658600 1.486600
-0.625600 1.487600
-0.592500 1.492700
-0.559400 1.484000
-0.526300 1.486700
-0.493200 1.497900
-0.460200 1.534000
-0.427100 1.528600
-0.394000 1.535200
-0.360900 1.551400
-0.327800 1.571800
-0.294800 1.590700
-0.261700 1.831400
-0.228600 1.807700
-0.195500 1.901100
-0.162500 1.897200
-0.129400 1.904800
-0.096300 1.905700
-0.063200 1.906800
-0.030100 1.910000
0.002900 1.890300
0.036000 1.912000
0.069100 1.906100
0.102200 1.837200
0.135200 1.769600
0.168300 1.693300
0.201400 1.602100
0.234500 1.492700
0.267600 1.433300
0.300600 1.371900
0.333700 1.310300
0.366800 1.293600
0.399900 1.299200
0.433000 1.258200
0.466000 1.230800
0.499100 1.217200
0.532200 1.206200
0.565300 1.202800
0.598300 1.210400
0.631400 1.192500
0.664500 1.163900
0.697600 1.152300
0.730700 1.143900
0.763700 1.142100
0.796800 1.143600
0.829900 1.168300
0.863000 1.188400
0.896100 1.188800
0.929100 1.221700
0.962200 1.279700
0.995300 1.322000
1.028400 1.386900
1.061400 1.491100
1.094500 1.391800
1.127600 1.361500
1.160700 1.333100
1.193800 1.304100
1.226800 1.257000
1.259900 1.280200
1.293000 1.280400
1.326100 1.274000
1.359100 1.272100
1.392200 1.270600
1.425300 1.275200
1.458400 1.311400
1.491500 1.280800
1.524500 1.259100
1.557600 1.235800
1.590700 1.213500
1.623800 1.196100
1.656900 1.184400
1.689900 1.173800
1.723000 1.161400
1.756100 1.159600
1.789200 1.253200
1.822200 1.189400
1.855300 1.114600
1.888400 1.038800
1.921500 0.954800
1.954600 0.841000
1.987600 0.723400
2.020700 0.582200
2.053800 0.489400
2.086900 0.447300
2.120000 0.452500
2.153000 0.437700
2.186100 0.458900
2.219200 0.473200
2.252300 0.485200
2.285300 0.497000
2.318400 0.509000
2.351500 0.521100
2.384600 0.525700
2.417700 0.536800
2.450700 0.560600
2.483800 0.589000
2.516900 0.621700
2.550000 0.629300
2.583000 0.683200
2.616100 0.680600
2.649200 0.693200
2.682300 0.716800
2.715400 0.756600
2.748400 0.926100
2.781500 0.798200
2.814600 0.697000
2.847700 0.650600
2.880800 0.651300
2.913800 0.691400
2.946900 0.723200
2.980000 0.773100
3.013100 0.819400
3.046100 0.860800
3.079200 0.897100
3.112300 0.921300
3.145400 0.940700
3.178500 0.978300
3.211500 1.048100
3.244600 1.092100
3.277700 1.115400
3.310800 1.139700
3.343900 1.177400
3.376900 1.190200
3.410000 1.223800
3.443100 1.258500
3.476200 1.293000
3.509200 1.335300
3.542300 1.430900
3.575400 1.398300
3.608500 1.421700
3.641600 1.441000
3.674600 1.493600
3.707700 1.574600
3.740800 1.667700
3.773900 1.664400
3.806900 1.716900
3.840000 1.781200
3.873100 1.860400
3.906200 1.924900
3.939300 1.995400
3.972300 2.113700
4.005400 2.205800
4.038500 2.294300
4.071600 2.399500
4.104700 2.536100
4.137700 2.611300
4.170800 2.645400
4.203900 2.706700
4.237000 2.602400
4.270000 2.415600
4.303100 2.295100
4.336200 2.238700
4.369300 2.224100
4.402400 2.206100
4.435400 2.162400
4.468500 2.259500
4.501600 2.213300
4.534700 2.159900
4.567800 2.129500
4.600800 2.126900
4.633900 2.124200
4.667000 2.120800
4.700100 2.113600
4.733100 2.237700
4.766200 2.075600
4.799300 2.100100
4.832400 2.026900
4.865500 1.950400
4.898500 1.877200
4.931600 1.812500
4.964700 1.781400
4.997800 1.783300
5.030800 1.841600
5.063900 1.770900
5.097000 1.688700
5.130100 1.669300
5.163200 1.661100
5.196200 1.650800
5.229300 1.647000
5.262400 1.660400
5.295500 1.643300
5.328600 1.592100
5.361600 1.570700
5.394700 1.565600
5.427800 1.588900
5.460900 1.626700
5.493900 1.681200
5.527000 1.693000
5.560100 1.682700
5.593200 1.680900
5.626300 1.678200
5.659300 1.701400
5.692400 1.746100
5.725500 1.727800
5.758600 1.778900
5.791700 1.805100
5.824700 1.820000
5.857800 1.834300
5.890900 1.861900
5.924000 1.881200
5.957000 1.937700
5.990100 1.998600
6.023200 2.058200
6.056300 2.121400
6.089400 2.116100
6.122400 2.160100
6.155500 2.226600
6.188600 2.300100
6.221700 2.335200
6.254700 2.309300
6.287800 2.270700
6.320900 2.212500
6.354000 2.141600
6.387100 2.031300
6.420100 1.932300
6.453200 1.829000
6.486300 1.733500
6.519400 1.673600
6.552500 1.666300
6.585500 1.662200
6.618600 1.657600
6.651700 1.640100
6.684800 1.607200
6.717800 1.587700
6.750900 1.573000
6.784000 1.560300
6.817100 1.549200
6.850200 1.540600
6.883200 1.538800
6.916300 1.547800
6.949400 1.571500
6.982500 1.616500
7.015600 1.673100
7.048600 1.722400
7.081700 1.767500
7.114800 1.799500
7.147900 1.804500
7.180900 1.766900
7.214000 1.687400
7.247100 1.629900
7.280200 1.613400
7.313300 1.621800
7.346300 1.641900
7.379400 1.693400
7.412500 1.772600
7.445600 1.918700
7.478600 2.036000
7.511700 2.152800
7.544800 2.253900
7.577900 2.302400
7.611000 2.285100
7.644000 2.278400
7.677100 2.286600
7.710200 2.275000
7.743300 2.232600
7.776400 2.206700
7.809400 2.200200
7.842500 2.188600
7.875600 2.177500
7.908700 2.163700
7.941700 2.147600
7.974800 2.129900
8.007900 2.118900
8.041000 2.100900
8.074100 2.088500
8.107100 2.122100
8.140200 2.118000
8.173300 2.166000
8.206400 2.232000
8.239500 2.294100
8.272500 2.410200
8.305600 2.560000
8.338700 2.574500
8.371800 2.500800
8.404800 2.542500
8.437900 2.622900
8.471000 2.647400
8.504100 2.636500
8.537200 2.625100
8.570200 2.556400
8.603300 2.471300
8.636400 2.419900
8.669500 2.342000
8.702500 2.249200
8.735600 2.198700
8.768700 2.148700
8.801800 2.085800
8.834900 2.046500
8.867900 2.032300
8.901000 2.051300
8.934100 2.061800
8.967200 2.064500
9.000300 2.186600
9.033300 2.200800
9.066400 2.234700
9.099500 2.273600
9.132600 2.313700
9.165600 2.347600
9.198700 2.439700
9.231800 2.530900
9.264900 2.518800
9.298000 2.491000
9.331000 2.495600
9.364100 2.571900
9.397200 2.623900
9.430300 2.742900
9.463400 2.889400
9.496400 3.005200
9.529500 3.091300
9.562600 2.951800
9.595700 2.845700
9.628700 2.761600
9.661800 2.723500
9.694900 2.682300
9.728000 2.637100
9.761100 2.621500
9.794100 2.590900
9.827200 2.558900
9.860300 2.582600
9.893400 2.586900
9.926400 2.473100
9.959500 2.356600
9.992600 2.329900
10.025700 2.346300
10.058800 2.387500
10.091800 2.430100
10.124900 2.460700
10.158000 2.629300
10.191100 2.706200
10.224200 2.575500
10.257200 2.307100
10.290300 2.316600
10.323400 2.337500
10.356500 2.408900
10.389500 2.352800
10.422600 2.386500
10.455700 2.487500
10.488800 2.635900
10.521900 2.749700
10.554900 2.723400
10.588000 2.666200
10.621100 2.615900
10.654200 2.576900
10.687300 2.534700
10.720300 2.408600
10.753400 2.386900
10.786500 2.391000
10.819600 2.417500
10.852600 2.454900
10.885700 2.461800
10.918800 2.504400
10.951900 2.530700
10.985000 2.535400
11.018000 2.491900
11.051100 2.456100
11.084200 2.429300
11.117300 2.396300
11.150400 2.383900
11.183400 2.396000
11.216500 2.435500
11.249600 2.421100
11.282700 2.402100
11.315700 2.370900
11.348800 2.374600
11.381900 2.391500
11.415000 2.349600
11.448100 2.303300
11.481100 2.265800
11.514200 2.236500
11.547300 2.224400
11.580400 2.217500
11.613400 2.219900
11.646500 2.206800
11.679600 2.111000
11.712700 2.089400
11.745800 2.068000
11.778800 2.062400
11.811900 2.002600
11.845000 1.978700
11.878100 1.954100
11.911200 1.923100
11.944200 1.934600
11.977300 1.955500
12.010400 1.968100
12.043500 1.982100
12.076500 2.009100
12.109600 2.080200
12.142700 2.110300
12.175800 2.089000
12.208900 2.016000
12.241900 2.051800
12.275000 1.985300
12.308100 1.936900
12.341200 1.954800
12.374300 1.967800
12.407300 1.982300
12.440400 1.987800
12.473500 2.030800
12.506600 2.062000
12.539600 2.059600
12.572700 2.027400
12.605800 2.071200
12.638900 2.014800
12.672000 1.952200
12.705000 1.933500
12.738100 1.858800
12.771200 1.790100
12.804300 1.724600
12.837300 1.687200
12.870400 1.656100
12.903500 1.583200
12.936600 1.579800
12.969700 1.582100
13.002700 1.634400
13.035800 1.651300
13.068900 1.609000
13.102000 1.540600
13.135100 1.499600
13.168100 1.523000
13.201200 1.534700
13.234300 1.549000
13.267400 1.567300
13.300400 1.590800
13.333500 1.622600
13.366600 1.661200
13.399700 1.698300
13.432800 1.738700
13.465800 1.801900
13.498900 1.796900
13.532000 1.793500
13.565100 1.802500
13.598200 1.852900
13.631200 1.879700
13.664300 1.869700
13.697400 1.976400
13.730500 2.083200
13.763500 2.158300
13.796600 2.198200
13.829700 2.156800
13.862800 2.100500
13.895900 2.102100
13.928900 2.103200
13.962000 1.985500
13.995100 1.981600
14.028200 1.970500
14.061200 1.968200
14.094300 1.982100
14.127400 2.012300
14.160500 2.055200
14.193600 2.110800
14.226600 2.172100
14.259700 2.180600
14.292800 2.167900
14.325900 2.125100
