set title 'mp-614006 - Density of States'
set xlabel 'Energy (eV)'
set ylabel 'DOS (states/eV)'
set grid
set xrange [-10:10]
set yrange [0:6.458]
set xzeroaxis lt -1
set terminal png size 800,600
set output 'mp-614006_dos_gnuplot.png'
plot '-' using 1:2 with lines title 'DOS'
-23.345200 0.000000
-23.311700 0.000000
-23.278300 0.000000
-23.244800 0.000000
-23.211300 0.000000
-23.177900 0.000000
-23.144400 0.000000
-23.110900 0.000000
-23.077500 0.000000
-23.044000 0.000000
-23.010500 0.000000
-22.977000 0.000000
-22.943600 0.000000
-22.910100 0.000000
-22.876600 0.000000
-22.843200 0.000000
-22.809700 0.000000
-22.776200 0.000000
-22.742800 0.000000
-22.709300 0.000000
-22.675800 0.000000
-22.642400 0.000000
-22.608900 0.000000
-22.575400 0.000000
-22.542000 0.000000
-22.508500 0.000000
-22.475000 0.000000
-22.441600 0.000000
-22.408100 0.000000
-22.374600 0.000000
-22.341100 0.000000
-22.307700 0.000000
-22.274200 0.000000
-22.240700 0.000000
-22.207300 0.000000
-22.173800 0.000000
-22.140300 0.000000
-22.106900 0.000000
-22.073400 0.000000
-22.039900 0.000000
-22.006500 0.000000
-21.973000 0.000000
-21.939500 0.000000
-21.906100 0.000000
-21.872600 0.000000
-21.839100 0.000000
-21.805600 0.000000
-21.772200 0.000000
-21.738700 0.000000
-21.705200 0.000000
-21.671800 0.000000
-21.638300 0.000000
-21.604800 0.000000
-21.571400 0.000000
-21.537900 0.000000
-21.504400 0.000000
-21.471000 0.000000
-21.437500 0.000000
-21.404000 0.000000
-21.370600 0.000000
-21.337100 0.000000
-21.303600 0.000000
-21.270100 0.000000
-21.236700 0.000000
-21.203200 0.000000
-21.169700 0.000000
-21.136300 0.000000
-21.102800 0.000000
-21.069300 0.000000
-21.035900 0.000000
-21.002400 0.000000
-20.968900 0.000000
-20.935500 0.000000
-20.902000 0.000000
-20.868500 0.000000
-20.835100 0.000000
-20.801600 0.000000
-20.768100 0.000000
-20.734700 0.000000
-20.701200 0.000000
-20.667700 0.000000
-20.634200 0.000000
-20.600800 0.000000
-20.567300 0.000000
-20.533800 0.000000
-20.500400 0.000000
-20.466900 0.000000
-20.433400 0.000000
-20.400000 0.000000
-20.366500 0.000000
-20.333000 0.000000
-20.299600 0.059600
-20.266100 0.731300
-20.232600 0.445300
-20.199200 0.503000
-20.165700 0.481400
-20.132200 0.460300
-20.098700 0.481900
-20.065300 0.503500
-20.031800 0.486800
-19.998300 0.485700
-19.964900 0.484600
-19.931400 0.496300
-19.897900 0.508600
-19.864500 0.520800
-19.831000 0.511200
-19.797500 0.507700
-19.764100 0.777700
-19.730600 0.962300
-19.697100 1.037800
-19.663700 1.091500
-19.630200 1.037200
-19.596700 1.060500
-19.563300 1.087900
-19.529800 1.079200
-19.496300 1.085600
-19.462800 1.092800
-19.429400 1.114600
-19.395900 1.137000
-19.362400 1.156700
-19.329000 1.145000
-19.295500 1.157400
-19.262000 1.171400
-19.228600 1.186700
-19.195100 1.206100
-19.161600 1.225600
-19.128200 1.233600
-19.094700 1.245800
-19.061200 1.262400
-19.027800 1.284400
-18.994300 1.305600
-18.960800 1.326700
-18.927300 1.348600
-18.893900 1.369700
-18.860400 1.392400
-18.826900 1.415400
-18.793500 1.439000
-18.760000 1.463100
-18.726500 1.504900
-18.693100 1.539600
-18.659600 1.574400
-18.626100 1.622600
-18.592700 1.665200
-18.559200 1.707400
-18.525700 1.750800
-18.492300 1.794600
-18.458800 1.856100
-18.425300 1.941600
-18.391800 2.044200
-18.358400 2.154500
-18.324900 2.262400
-18.291400 2.389700
-18.258000 2.531100
-18.224500 2.707800
-18.191000 3.081300
-18.157600 8.892100
-18.124100 3.334200
-18.090600 3.040400
-18.057200 3.274600
-18.023700 3.293800
-17.990200 3.867300
-17.956800 4.174800
-17.923300 3.066300
-17.889800 2.949700
-17.856400 2.785000
-17.822900 2.576500
-17.789400 2.119100
-17.755900 2.213400
-17.722500 0.000000
-17.689000 0.000000
-17.655500 0.000000
-17.622100 0.000000
-17.588600 0.000000
-17.555100 0.000000
-17.521700 0.000000
-17.488200 0.000000
-17.454700 0.000000
-17.421300 0.000000
-17.387800 0.000000
-17.354300 0.000000
-17.320900 0.000000
-17.287400 0.000000
-17.253900 0.000000
-17.220400 0.000000
-17.187000 0.000000
-17.153500 0.000000
-17.120000 0.000000
-17.086600 0.000000
-17.053100 0.000000
-17.019600 0.000000
-16.986200 0.000000
-16.952700 0.000000
-16.919200 0.000000
-16.885800 0.000000
-16.852300 0.000000
-16.818800 0.000000
-16.785400 0.000000
-16.751900 0.000000
-16.718400 0.000000
-16.684900 0.000000
-16.651500 0.000000
-16.618000 0.000000
-16.584500 0.000000
-16.551100 0.000000
-16.517600 0.000000
-16.484100 0.000000
-16.450700 0.000000
-16.417200 0.000000
-16.383700 0.000000
-16.350300 0.000000
-16.316800 0.000000
-16.283300 0.000000
-16.249900 0.000000
-16.216400 0.000000
-16.182900 0.000000
-16.149500 0.000000
-16.116000 0.000000
-16.082500 0.000000
-16.049000 0.000000
-16.015600 0.000000
-15.982100 0.000000
-15.948600 0.000000
-15.915200 0.000000
-15.881700 0.000000
-15.848200 0.000000
-15.814800 0.000000
-15.781300 0.000000
-15.747800 0.000000
-15.714400 0.000000
-15.680900 0.000000
-15.647400 0.000000
-15.614000 0.000000
-15.580500 0.000000
-15.547000 0.000000
-15.513500 0.000000
-15.480100 0.000000
-15.446600 0.000000
-15.413100 0.000000
-15.379700 0.000000
-15.346200 0.000000
-15.312700 0.000000
-15.279300 0.000000
-15.245800 0.000000
-15.212300 0.000000
-15.178900 0.000000
-15.145400 0.000000
-15.111900 0.000000
-15.078500 0.000000
-15.045000 0.000000
-15.011500 0.000000
-14.978100 0.000000
-14.944600 0.000000
-14.911100 0.000000
-14.877600 0.000000
-14.844200 0.000000
-14.810700 0.000000
-14.777200 0.000000
-14.743800 0.000000
-14.710300 0.000000
-14.676800 0.000000
-14.643400 0.000000
-14.609900 0.000000
-14.576400 0.000000
-14.543000 0.000000
-14.509500 0.000000
-14.476000 0.000000
-14.442600 0.000000
-14.409100 0.000000
-14.375600 0.000000
-14.342100 0.000000
-14.308700 0.000000
-14.275200 0.000000
-14.241700 0.000000
-14.208300 0.000000
-14.174800 0.000000
-14.141300 0.000000
-14.107900 0.000000
-14.074400 0.000000
-14.040900 0.000000
-14.007500 0.000000
-13.974000 0.000000
-13.940500 0.000000
-13.907100 0.000000
-13.873600 0.000000
-13.840100 0.000000
-13.806600 0.000000
-13.773200 0.000000
-13.739700 0.000000
-13.706200 0.000000
-13.672800 0.000000
-13.639300 0.000000
-13.605800 0.000000
-13.572400 0.000000
-13.538900 0.000000
-13.505400 0.000000
-13.472000 0.000000
-13.438500 0.000000
-13.405000 0.000000
-13.371600 0.000000
-13.338100 0.000000
-13.304600 0.000000
-13.271200 0.000000
-13.237700 0.000000
-13.204200 0.000000
-13.170700 0.000000
-13.137300 0.000000
-13.103800 0.000000
-13.070300 0.000000
-13.036900 0.000000
-13.003400 0.000000
-12.969900 0.000000
-12.936500 0.000000
-12.903000 0.000000
-12.869500 0.000000
-12.836100 0.000000
-12.802600 0.000000
-12.769100 0.000000
-12.735700 0.000000
-12.702200 0.000000
-12.668700 0.000000
-12.635200 0.000000
-12.601800 0.000000
-12.568300 0.000000
-12.534800 0.000000
-12.501400 0.000000
-12.467900 0.000000
-12.434400 0.000000
-12.401000 0.000000
-12.367500 0.000000
-12.334000 0.000000
-12.300600 0.000000
-12.267100 0.000000
-12.233600 0.000000
-12.200200 0.000000
-12.166700 0.000000
-12.133200 0.000000
-12.099700 0.000000
-12.066300 0.000000
-12.032800 0.000000
-11.999300 0.000000
-11.965900 0.000000
-11.932400 0.000000
-11.898900 0.000000
-11.865500 0.000000
-11.832000 0.000000
-11.798500 0.000000
-11.765100 0.000000
-11.731600 0.000000
-11.698100 0.000000
-11.664700 0.000000
-11.631200 0.000000
-11.597700 0.000000
-11.564300 0.000000
-11.530800 0.000000
-11.497300 0.000000
-11.463800 0.000000
-11.430400 0.000000
-11.396900 0.000000
-11.363400 0.000000
-11.330000 0.000000
-11.296500 0.000000
-11.263000 0.000000
-11.229600 0.000000
-11.196100 0.000000
-11.162600 0.000000
-11.129200 0.000000
-11.095700 0.000000
-11.062200 0.000000
-11.028800 0.000000
-10.995300 0.000000
-10.961800 0.000000
-10.928300 0.000000
-10.894900 0.000000
-10.861400 0.000000
-10.827900 0.000000
-10.794500 0.000000
-10.761000 0.000000
-10.727500 0.000000
-10.694100 0.000000
-10.660600 0.000000
-10.627100 0.000000
-10.593700 0.000000
-10.560200 0.000000
-10.526700 0.000000
-10.493300 0.000000
-10.459800 0.000000
-10.426300 0.000000
-10.392900 0.000000
-10.359400 0.000000
-10.325900 0.000000
-10.292400 0.000000
-10.259000 0.000000
-10.225500 0.000000
-10.192000 0.000000
-10.158600 0.000000
-10.125100 0.000000
-10.091600 0.000000
-10.058200 0.000000
-10.024700 0.000000
-9.991200 0.000000
-9.957800 0.000000
-9.924300 0.000000
-9.890800 0.000000
-9.857400 0.000000
-9.823900 0.000000
-9.790400 0.000000
-9.756900 0.000000
-9.723500 0.000000
-9.690000 0.000000
-9.656500 0.000000
-9.623100 0.000000
-9.589600 0.000000
-9.556100 0.000000
-9.522700 0.000000
-9.489200 0.000000
-9.455700 0.000000
-9.422300 0.000000
-9.388800 0.000000
-9.355300 0.000000
-9.321900 0.000000
-9.288400 0.000000
-9.254900 0.000000
-9.221400 0.000000
-9.188000 0.000000
-9.154500 0.000000
-9.121000 0.000000
-9.087600 0.000000
-9.054100 0.000000
-9.020600 0.000000
-8.987200 0.000000
-8.953700 0.000000
-8.920200 0.000000
-8.886800 0.000000
-8.853300 0.000000
-8.819800 0.000000
-8.786400 0.000000
-8.752900 0.000000
-8.719400 0.000000
-8.686000 0.000000
-8.652500 0.000000
-8.619000 0.097700
-8.585500 0.543200
-8.552100 0.846100
-8.518600 1.211600
-8.485100 1.075500
-8.451700 0.990800
-8.418200 1.015100
-8.384700 1.072800
-8.351300 1.141800
-8.317800 1.142200
-8.284300 1.090000
-8.250900 1.100600
-8.217400 1.093200
-8.183900 1.111300
-8.150500 1.533000
-8.117000 2.005000
-8.083500 1.963000
-8.050000 1.852800
-8.016600 1.900800
-7.983100 1.981900
-7.949600 2.056400
-7.916200 2.104400
-7.882700 2.086000
-7.849200 2.079600
-7.815800 2.198900
-7.782300 2.317200
-7.748800 3.011700
-7.715400 2.682000
-7.681900 2.352300
-7.648400 2.310600
-7.615000 2.301400
-7.581500 1.823100
-7.548000 1.836700
-7.514500 1.854000
-7.481100 1.871400
-7.447600 1.892200
-7.414100 1.913600
-7.380700 1.927700
-7.347200 2.079700
-7.313700 2.432200
-7.280300 2.179500
-7.246800 1.928400
-7.213300 1.771500
-7.179900 2.114600
-7.146400 1.938500
-7.112900 1.945200
-7.079500 1.997200
-7.046000 1.839500
-7.012500 1.886900
-6.979100 1.911400
-6.945600 2.013400
-6.912100 1.932700
-6.878600 1.804900
-6.845200 1.669600
-6.811700 1.543800
-6.778200 1.420100
-6.744800 1.342000
-6.711300 1.298200
-6.677800 1.523800
-6.644400 1.708900
-6.610900 1.721600
-6.577400 1.930100
-6.544000 1.908900
-6.510500 1.653800
-6.477000 1.908100
-6.443600 2.073600
-6.410100 2.431400
-6.376600 3.233200
-6.343100 1.130200
-6.309700 0.384800
-6.276200 0.966800
-6.242700 0.992400
-6.209300 1.010400
-6.175800 1.036400
-6.142300 1.062400
-6.108900 1.088300
-6.075400 1.114300
-6.041900 1.140300
-6.008500 1.914800
-5.975000 1.260900
-5.941500 1.099700
-5.908100 1.082600
-5.874600 1.078300
-5.841100 1.074400
-5.807700 1.070500
-5.774200 1.076100
-5.740700 1.082100
-5.707200 1.104600
-5.673800 1.112600
-5.640300 1.120700
-5.606800 1.128000
-5.573400 1.134200
-5.539900 1.175600
-5.506400 1.224100
-5.473000 1.271600
-5.439500 1.318900
-5.406000 1.366300
-5.372600 1.438400
-5.339100 1.536200
-5.305600 1.337700
-5.272200 1.258200
-5.238700 1.179700
-5.205200 1.151500
-5.171700 1.188300
-5.138300 1.225200
-5.104800 1.262100
-5.071300 1.282400
-5.037900 1.263400
-5.004400 1.264400
-4.970900 1.149300
-4.937500 1.204700
-4.904000 2.652100
-4.870500 4.145200
-4.837100 2.784200
-4.803600 2.575700
-4.770100 2.416600
-4.736700 2.615400
-4.703200 2.537400
-4.669700 2.445500
-4.636200 2.364400
-4.602800 2.300400
-4.569300 2.235200
-4.535800 2.117900
-4.502400 2.170500
-4.468900 2.202500
-4.435400 2.105700
-4.402000 2.009200
-4.368500 1.958300
-4.335000 2.015400
-4.301600 2.039300
-4.268100 2.060800
-4.234600 2.101500
-4.201200 2.142200
-4.167700 2.182900
-4.134200 2.279300
-4.100800 2.253400
-4.067300 2.385600
-4.033800 2.461900
-4.000300 2.656200
-3.966900 2.590900
-3.933400 2.476200
-3.899900 2.460600
-3.866500 2.546600
-3.833000 2.732600
-3.799500 2.897900
-3.766100 2.786100
-3.732600 2.940500
-3.699100 3.117100
-3.665700 2.904200
-3.632200 2.716500
-3.598700 2.529600
-3.565300 2.410700
-3.531800 2.432500
-3.498300 2.469500
-3.464800 3.066100
-3.431400 3.098200
-3.397900 2.658300
-3.364400 2.541300
-3.331000 2.453500
-3.297500 2.351200
-3.264000 2.263600
-3.230600 2.188100
-3.197100 2.111900
-3.163600 2.249200
-3.130200 2.203300
-3.096700 2.158900
-3.063200 2.120400
-3.029800 2.334300
-2.996300 2.457000
-2.962800 2.344800
-2.929300 2.232600
-2.895900 2.558800
-2.862400 2.642300
-2.828900 2.104000
-2.795500 1.778500
-2.762000 1.678600
-2.728500 1.639600
-2.695100 2.039300
-2.661600 2.855700
-2.628100 2.823400
-2.594700 1.972700
-2.561200 2.089300
-2.527700 2.518800
-2.494300 1.830000
-2.460800 1.868900
-2.427300 2.940400
-2.393900 3.589400
-2.360400 3.702400
-2.326900 3.597300
-2.293400 3.218400
-2.260000 3.130700
-2.226500 3.240800
-2.193000 3.247300
-2.159600 3.919700
-2.126100 3.391600
-2.092600 3.554900
-2.059200 3.767600
-2.025700 3.818000
-1.992200 4.178400
-1.958800 5.870900
-1.925300 4.541100
-1.891800 4.884700
-1.858400 4.022300
-1.824900 3.834200
-1.791400 3.143500
-1.757900 3.557600
-1.724500 0.468500
-1.691000 0.450700
-1.657500 0.432900
-1.624100 0.415000
-1.590600 0.402700
-1.557100 0.396900
-1.523700 0.391100
-1.490200 0.385300
-1.456700 0.379500
-1.423300 0.373700
-1.389800 0.367900
-1.356300 0.362100
-1.322900 0.356300
-1.289400 0.352400
-1.255900 0.349200
-1.222500 0.345900
-1.189000 0.342700
-1.155500 0.339400
-1.122000 0.336200
-1.088600 0.332900
-1.055100 0.333900
-1.021600 0.339100
-0.988200 0.344300
-0.954700 0.349500
-0.921200 0.354800
-0.887800 0.360200
-0.854300 0.495300
-0.820800 0.490900
-0.787400 0.415100
-0.753900 0.405900
-0.720400 0.396600
-0.687000 0.387400
-0.653500 0.378200
-0.620000 0.380900
-0.586500 0.436300
-0.553100 0.516100
-0.519600 0.510100
-0.486100 0.543400
-0.452700 0.586900
-0.419200 0.646100
-0.385700 0.687000
-0.352300 0.685200
-0.318800 0.687000
-0.285300 0.694900
-0.251900 0.698400
-0.218400 0.697700
-0.184900 0.700800
-0.151500 0.702800
-0.118000 0.706800
-0.084500 0.948000
-0.051000 0.964200
-0.017600 0.978900
0.015900 0.994100
0.049400 1.014100
0.082800 1.227800
0.116300 1.282100
0.149800 1.288100
0.183200 1.270600
0.216700 1.299100
0.250200 1.395000
0.283600 1.511500
0.317100 1.573600
0.350600 1.544600
0.384000 1.859400
0.417500 1.783200
0.451000 2.049800
0.484400 2.964600
0.517900 2.479900
0.551400 2.185900
0.584900 2.009800
0.618300 1.939200
0.651800 1.901400
0.685300 1.871600
0.718700 1.862400
0.752200 1.864200
0.785700 1.868800
0.819100 1.889300
0.852600 1.941500
0.886100 2.022100
0.919500 2.122200
0.953000 2.147800
0.986500 2.111200
1.019900 2.031500
1.053400 2.010200
1.086900 1.565400
1.120400 1.477300
1.153800 1.435700
1.187300 1.396700
1.220800 1.192000
1.254200 1.068500
1.287700 0.948000
1.321200 0.915200
1.354600 0.911000
1.388100 0.905300
1.421600 0.899900
1.455000 0.894800
1.488500 0.890000
1.522000 0.887000
1.555400 0.897600
1.588900 0.916200
1.622400 0.941000
1.655900 0.963700
1.689300 0.979700
1.722800 1.066900
1.756300 1.210900
1.789700 1.386200
1.823200 1.596400
1.856700 1.869500
1.890100 2.586100
1.923600 2.985000
1.957100 2.286300
1.990500 2.006400
2.024000 1.789900
2.057500 0.263200
2.090900 0.265700
2.124400 0.268200
2.157900 0.279600
2.191300 0.285600
2.224800 0.291700
2.258300 0.296400
2.291800 0.301100
2.325200 0.305800
2.358700 0.310500
2.392200 0.315200
2.425600 0.328200
2.459100 0.349500
2.492600 0.370900
2.526000 0.392200
2.559500 0.451800
2.593000 0.597700
2.626400 0.828400
2.659900 1.522900
2.693400 1.762800
2.726800 1.527700
2.760300 1.292600
2.793800 1.095300
2.827300 1.009200
2.860700 0.929400
2.894200 0.850400
2.927700 0.780800
2.961100 0.752400
2.994600 0.765400
3.028100 0.773700
3.061500 0.778300
3.095000 0.782800
3.128500 0.755600
3.161900 0.714100
3.195400 0.718700
3.228900 0.760900
3.262300 0.812700
3.295800 0.883600
3.329300 0.949200
3.362700 0.951800
3.396200 0.953600
3.429700 0.955400
3.463200 0.957200
3.496600 0.911400
3.530100 0.923500
3.563600 0.935600
3.597000 1.043800
3.630500 1.124300
3.664000 1.286600
3.697400 1.250800
3.730900 1.225900
3.764400 1.214000
3.797800 1.199700
3.831300 1.106100
3.864800 0.924700
3.898200 0.851800
3.931700 0.858600
3.965200 0.868500
3.998700 0.967500
4.032100 1.261800
4.065600 1.502500
4.099100 1.361800
4.132500 1.221800
4.166000 1.107100
4.199500 1.079700
4.232900 1.061600
4.266400 1.043400
4.299900 1.025200
4.333300 0.984500
4.366800 0.943800
4.400300 0.932300
4.433700 0.921300
4.467200 0.921300
4.500700 0.920500
4.534200 0.919500
4.567600 0.920400
4.601100 0.921900
4.634600 0.923500
4.668000 0.925000
4.701500 0.935500
4.735000 0.952800
4.768400 0.957200
4.801900 1.294200
4.835400 1.112600
4.868800 0.883800
4.902300 0.857800
4.935800 0.831500
4.969200 0.804500
5.002700 0.777500
5.036200 0.750500
5.069600 0.733500
5.103100 0.716100
5.136600 0.743500
5.170100 0.775400
5.203500 0.813600
5.237000 0.681200
5.270500 0.663300
5.303900 0.646700
5.337400 0.632000
5.370900 0.617300
5.404300 0.602600
5.437800 0.588000
5.471300 0.573300
5.504700 0.558600
5.538200 0.543800
5.571700 0.529000
5.605100 0.514200
5.638600 0.499400
5.672100 0.491700
5.705600 0.491200
5.739000 0.490600
5.772500 0.490100
5.806000 0.494100
5.839400 0.498300
5.872900 0.502400
5.906400 0.429400
5.939800 0.434000
5.973300 0.427900
6.006800 0.420300
6.040200 0.460700
6.073700 0.570700
6.107200 0.713200
6.140600 0.880000
6.174100 0.942600
6.207600 0.965100
6.241100 0.962600
6.274500 0.951800
6.308000 0.936300
6.341500 0.917200
6.374900 0.919100
6.408400 0.932700
6.441900 0.946100
6.475300 0.963900
6.508800 0.914600
6.542300 0.913400
6.575700 0.900600
6.609200 0.902200
6.642700 0.907100
6.676100 0.912400
6.709600 0.917800
6.743100 0.923700
6.776500 0.929900
6.810000 0.933100
6.843500 0.936500
6.877000 0.945000
6.910400 0.958300
6.943900 0.986900
6.977400 1.014400
7.010800 1.040900
7.044300 1.061400
7.077800 1.273100
7.111200 1.174900
7.144700 1.205900
7.178200 1.274600
7.211600 1.399300
7.245100 1.660700
7.278600 1.776000
7.312000 2.368600
7.345500 2.406400
7.379000 2.275700
7.412500 2.278100
7.445900 2.392100
7.479400 2.692100
7.512900 2.507400
7.546300 2.491000
7.579800 2.398500
7.613300 2.308200
7.646700 2.266400
7.680200 2.345000
7.713700 2.080500
7.747100 1.977200
7.780600 1.893100
7.814100 1.906600
7.847500 1.843100
7.881000 1.917800
7.914500 1.943400
7.947900 1.790600
7.981400 1.443900
8.014900 1.175500
8.048400 0.999400
8.081800 1.074800
8.115300 1.321800
8.148800 1.481100
8.182200 1.661300
8.215700 1.282900
8.249200 1.256800
8.282600 1.343200
8.316100 1.507800
8.349600 1.645700
8.383000 1.603100
8.416500 1.545400
8.450000 1.467500
8.483400 1.717000
8.516900 2.180600
8.550400 2.535800
8.583900 2.639200
8.617300 2.662100
8.650800 2.656300
8.684300 2.666300
8.717700 2.736800
8.751200 2.969000
8.784700 3.290700
8.818100 3.371500
8.851600 3.105100
8.885100 2.935800
8.918500 2.616700
8.952000 2.388700
8.985500 2.199700
9.018900 2.063400
9.052400 1.960500
9.085900 1.857300
9.119400 1.625700
9.152800 1.640800
9.186300 1.714000
9.219800 1.774500
9.253200 1.811000
9.286700 1.840500
9.320200 1.907500
9.353600 1.955700
9.387100 2.031900
9.420600 2.059400
9.454000 2.012200
9.487500 1.924300
9.521000 1.857100
9.554400 1.820900
9.587900 1.821900
9.621400 2.221100
9.654800 2.575900
9.688300 2.223900
9.721800 2.044800
9.755300 1.867900
9.788700 1.647400
9.822200 1.367300
9.855700 1.167200
9.889100 0.754400
9.922600 0.509200
9.956100 0.514900
9.989500 0.529700
10.023000 0.552300
10.056500 0.582200
10.089900 0.612200
10.123400 0.642300
10.156900 0.679700
10.190300 0.689500
10.223800 0.746000
10.257300 0.967100
10.290800 1.376700
10.324200 1.648900
10.357700 1.881200
10.391200 2.065500
10.424600 2.367300
10.458100 2.203000
10.491600 2.063700
10.525000 2.029900
10.558500 1.839100
10.592000 1.706400
10.625400 1.790800
10.658900 1.741800
10.692400 1.692900
10.725800 1.645200
10.759300 1.789200
10.792800 1.698200
10.826300 1.612700
10.859700 1.481800
10.893200 1.415700
10.926700 1.401500
10.960100 1.387300
10.993600 1.374100
11.027100 1.371100
11.060500 1.368800
11.094000 1.366600
11.127500 1.365800
11.160900 1.359100
