set title 'mp-8636 - Density of States'
set xlabel 'Energy (eV)'
set ylabel 'DOS (states/eV)'
set grid
set xrange [-10:10]
set yrange [0:2.616]
set xzeroaxis lt -1
set terminal png size 800,600
set output 'mp-8636_dos_gnuplot.png'
plot '-' using 1:2 with lines title 'DOS'
-32.681900 0.000000
-32.613400 0.000000
-32.544800 0.000000
-32.476200 0.000000
-32.407700 0.000000
-32.339100 0.000000
-32.270600 0.000000
-32.202000 0.000000
-32.133500 0.000000
-32.064900 0.000000
-31.996300 0.000000
-31.927800 0.000000
-31.859200 0.000000
-31.790700 0.000000
-31.722100 0.000000
-31.653600 0.000000
-31.585000 0.000000
-31.516400 0.000000
-31.447900 0.000000
-31.379300 0.000000
-31.310800 0.000000
-31.242200 0.000000
-31.173600 0.000000
-31.105100 0.000000
-31.036500 0.000000
-30.968000 0.000000
-30.899400 0.000000
-30.830900 0.000000
-30.762300 0.000000
-30.693700 0.000000
-30.625200 0.000000
-30.556600 0.000000
-30.488100 0.000000
-30.419500 0.000000
-30.351000 0.000000
-30.282400 0.000000
-30.213800 0.000000
-30.145300 0.000000
-30.076700 0.000000
-30.008200 0.000000
-29.939600 0.000000
-29.871100 0.000000
-29.802500 0.000000
-29.733900 0.000000
-29.665400 0.000000
-29.596800 0.000000
-29.528300 0.000000
-29.459700 0.000000
-29.391100 0.000000
-29.322600 0.000000
-29.254000 0.000000
-29.185500 0.000000
-29.116900 0.000000
-29.048400 0.000000
-28.979800 0.000000
-28.911200 0.000000
-28.842700 0.000000
-28.774100 0.000000
-28.705600 0.000000
-28.637000 0.000000
-28.568500 0.000000
-28.499900 0.000000
-28.431300 0.000000
-28.362800 0.000000
-28.294200 0.000000
-28.225700 0.000000
-28.157100 0.000000
-28.088600 0.000000
-28.020000 0.000000
-27.951400 0.000000
-27.882900 0.000000
-27.814300 0.000000
-27.745800 0.000000
-27.677200 0.000000
-27.608600 0.000000
-27.540100 0.000000
-27.471500 0.000000
-27.403000 0.000000
-27.334400 0.000000
-27.265900 0.000000
-27.197300 0.000000
-27.128700 0.000000
-27.060200 0.000000
-26.991600 0.000000
-26.923100 0.000000
-26.854500 0.000000
-26.786000 0.000000
-26.717400 0.000000
-26.648800 0.000000
-26.580300 0.000000
-26.511700 0.000000
-26.443200 0.368700
-26.374600 1.518700
-26.306100 3.846600
-26.237500 8.209500
-26.168900 6.918300
-26.100400 2.687200
-26.031800 2.347000
-25.963300 3.163100
-25.894700 3.659400
-25.826100 4.054600
-25.757600 4.399700
-25.689000 8.613000
-25.620500 9.013900
-25.551900 9.566700
-25.483400 10.366800
-25.414800 6.273300
-25.346200 3.294100
-25.277700 0.000000
-25.209100 0.000000
-25.140600 0.000000
-25.072000 0.000000
-25.003500 0.000000
-24.934900 0.000000
-24.866300 0.000000
-24.797800 0.000000
-24.729200 0.000000
-24.660700 0.000000
-24.592100 0.000000
-24.523600 0.000000
-24.455000 0.000000
-24.386400 0.000000
-24.317900 0.000000
-24.249300 0.000000
-24.180800 0.000000
-24.112200 0.000000
-24.043600 0.000000
-23.975100 0.000000
-23.906500 0.000000
-23.838000 0.000000
-23.769400 0.000000
-23.700900 0.000000
-23.632300 0.000000
-23.563700 0.000000
-23.495200 0.000000
-23.426600 0.000000
-23.358100 0.000000
-23.289500 0.000000
-23.221000 0.000000
-23.152400 0.000000
-23.083800 0.000000
-23.015300 0.000000
-22.946700 0.000000
-22.878200 0.000000
-22.809600 0.000000
-22.741100 0.000000
-22.672500 0.000000
-22.603900 0.000000
-22.535400 0.000000
-22.466800 0.000000
-22.398300 0.000000
-22.329700 0.000000
-22.261100 0.000000
-22.192600 0.000000
-22.124000 0.000000
-22.055500 0.000000
-21.986900 0.000000
-21.918400 0.000000
-21.849800 0.000000
-21.781200 0.000000
-21.712700 0.000000
-21.644100 0.000000
-21.575600 0.000000
-21.507000 0.000000
-21.438500 0.000000
-21.369900 0.000000
-21.301300 0.000000
-21.232800 0.000000
-21.164200 0.000000
-21.095700 0.000000
-21.027100 0.000000
-20.958600 0.000000
-20.890000 0.000000
-20.821400 0.000000
-20.752900 0.000000
-20.684300 0.000000
-20.615800 0.000000
-20.547200 0.000000
-20.478600 0.000000
-20.410100 0.000000
-20.341500 0.000000
-20.273000 0.000000
-20.204400 0.000000
-20.135900 0.000000
-20.067300 0.000000
-19.998700 0.000000
-19.930200 0.000000
-19.861600 0.000000
-19.793100 0.000000
-19.724500 0.000000
-19.656000 0.000000
-19.587400 0.000000
-19.518800 0.000000
-19.450300 0.000000
-19.381700 0.000000
-19.313200 0.000000
-19.244600 0.000000
-19.176100 0.000000
-19.107500 0.000000
-19.038900 0.000000
-18.970400 0.000000
-18.901800 0.000000
-18.833300 0.000000
-18.764700 0.000000
-18.696100 0.000000
-18.627600 0.000000
-18.559000 0.000000
-18.490500 0.000000
-18.421900 0.000000
-18.353400 0.000000
-18.284800 0.000000
-18.216200 0.000000
-18.147700 0.000000
-18.079100 0.000000
-18.010600 0.000000
-17.942000 0.000000
-17.873500 0.000000
-17.804900 0.000000
-17.736300 0.000000
-17.667800 0.000000
-17.599200 0.000000
-17.530700 0.000000
-17.462100 0.000000
-17.393600 0.000000
-17.325000 0.000000
-17.256400 0.000000
-17.187900 0.000000
-17.119300 0.000000
-17.050800 0.000000
-16.982200 0.000000
-16.913600 0.000000
-16.845100 0.000000
-16.776500 0.000000
-16.708000 0.000000
-16.639400 0.000000
-16.570900 0.000000
-16.502300 0.000000
-16.433700 0.000000
-16.365200 0.000000
-16.296600 0.000000
-16.228100 0.000000
-16.159500 0.000000
-16.091000 0.000000
-16.022400 0.000000
-15.953800 0.000000
-15.885300 0.000000
-15.816700 0.000000
-15.748200 0.000000
-15.679600 0.000000
-15.611100 0.000000
-15.542500 0.000000
-15.473900 0.000000
-15.405400 0.000000
-15.336800 0.000000
-15.268300 0.000000
-15.199700 0.000000
-15.131100 0.000000
-15.062600 0.000000
-14.994000 0.000000
-14.925500 0.000000
-14.856900 0.000000
-14.788400 0.000000
-14.719800 0.000000
-14.651200 0.000000
-14.582700 0.000000
-14.514100 0.000000
-14.445600 0.000000
-14.377000 0.000000
-14.308500 0.000000
-14.239900 0.000000
-14.171300 0.000000
-14.102800 0.000000
-14.034200 0.000000
-13.965700 0.000000
-13.897100 0.000000
-13.828600 0.000000
-13.760000 0.000000
-13.691400 0.000000
-13.622900 0.000000
-13.554300 0.000000
-13.485800 0.000000
-13.417200 0.000000
-13.348600 0.000000
-13.280100 0.000000
-13.211500 0.000000
-13.143000 0.000000
-13.074400 0.000000
-13.005900 0.000000
-12.937300 0.000000
-12.868700 0.000000
-12.800200 0.000000
-12.731600 0.000000
-12.663100 0.000000
-12.594500 0.000000
-12.526000 0.000000
-12.457400 0.000000
-12.388800 0.000000
-12.320300 0.000000
-12.251700 0.000000
-12.183200 0.000000
-12.114600 0.000000
-12.046100 0.000000
-11.977500 0.000000
-11.908900 0.000000
-11.840400 0.000000
-11.771800 0.000000
-11.703300 0.000000
-11.634700 0.000000
-11.566100 0.000000
-11.497600 0.000000
-11.429000 0.000000
-11.360500 0.000000
-11.291900 0.000000
-11.223400 0.000000
-11.154800 0.000000
-11.086200 0.000000
-11.017700 0.000000
-10.949100 0.000000
-10.880600 0.000000
-10.812000 0.000000
-10.743500 0.000000
-10.674900 0.000000
-10.606300 0.000000
-10.537800 0.000000
-10.469200 0.000000
-10.400700 0.000000
-10.332100 0.000000
-10.263600 0.000000
-10.195000 0.000000
-10.126400 0.000000
-10.057900 0.000000
-9.989300 0.000000
-9.920800 0.000000
-9.852200 0.000000
-9.783600 0.000000
-9.715100 0.000000
-9.646500 0.000000
-9.578000 0.000000
-9.509400 0.000000
-9.440900 0.000000
-9.372300 0.000000
-9.303700 0.000000
-9.235200 0.000000
-9.166600 0.000000
-9.098100 0.000000
-9.029500 0.000000
-8.961000 0.000000
-8.892400 0.000000
-8.823800 0.000000
-8.755300 0.000000
-8.686700 0.000000
-8.618200 0.000000
-8.549600 0.000000
-8.481100 0.000000
-8.412500 0.000000
-8.343900 0.000000
-8.275400 0.000000
-8.206800 0.000000
-8.138300 0.000000
-8.069700 0.000000
-8.001100 0.000000
-7.932600 0.000000
-7.864000 0.000000
-7.795500 0.000000
-7.726900 0.000000
-7.658400 0.000000
-7.589800 0.000000
-7.521200 0.000000
-7.452700 0.000000
-7.384100 0.000000
-7.315600 0.000000
-7.247000 0.000000
-7.178500 0.000000
-7.109900 0.000000
-7.041300 0.000000
-6.972800 0.000000
-6.904200 0.000000
-6.835700 0.000000
-6.767100 0.000000
-6.698600 0.000000
-6.630000 0.000000
-6.561400 0.000000
-6.492900 0.000000
-6.424300 0.000000
-6.355800 0.000000
-6.287200 0.000000
-6.218600 0.000000
-6.150100 0.000000
-6.081500 0.000000
-6.013000 0.000000
-5.944400 0.000000
-5.875900 0.000000
-5.807300 0.000000
-5.738700 0.000000
-5.670200 0.000000
-5.601600 0.000000
-5.533100 0.000000
-5.464500 0.000000
-5.396000 0.000000
-5.327400 0.000000
-5.258800 0.000000
-5.190300 0.000000
-5.121700 0.000000
-5.053200 0.000000
-4.984600 0.000000
-4.916100 0.000000
-4.847500 0.000000
-4.778900 0.000000
-4.710400 0.000000
-4.641800 0.000000
-4.573300 0.000000
-4.504700 0.000000
-4.436100 0.000000
-4.367600 0.000000
-4.299000 0.000000
-4.230500 0.000000
-4.161900 0.000000
-4.093400 0.000000
-4.024800 0.000000
-3.956200 0.000000
-3.887700 0.000000
-3.819100 0.000000
-3.750600 0.000000
-3.682000 0.000000
-3.613500 0.000000
-3.544900 0.000000
-3.476300 0.000000
-3.407800 0.000000
-3.339200 0.000000
-3.270700 0.000000
-3.202100 0.000000
-3.133600 0.000000
-3.065000 0.000000
-2.996400 0.000000
-2.927900 0.000000
-2.859300 0.000000
-2.790800 0.000000
-2.722200 0.000000
-2.653600 0.000000
-2.585100 0.000000
-2.516500 0.000000
-2.448000 0.000000
-2.379400 0.000000
-2.310900 0.000000
-2.242300 0.000000
-2.173700 0.000000
-2.105200 0.000000
-2.036600 0.000000
-1.968100 0.000000
-1.899500 0.000000
-1.831000 0.000000
-1.762400 0.000000
-1.693800 0.000000
-1.625300 0.000000
-1.556700 0.000000
-1.488200 0.000000
-1.419600 0.000000
-1.351100 0.000000
-1.282500 0.000000
-1.213900 0.007200
-1.145400 0.023300
-1.076800 0.027800
-1.008300 0.035700
-0.939700 0.040600
-0.871100 0.045300
-0.802600 0.051300
-0.734000 0.055900
-0.665500 0.060100
-0.596900 0.064700
-0.528400 0.069800
-0.459800 0.074700
-0.391200 0.078800
-0.322700 0.083300
-0.254100 0.088400
-0.185600 0.093700
-0.117000 0.098500
-0.048500 0.103600
0.020100 0.109100
0.088700 0.114700
0.157200 0.120500
0.225800 0.127200
0.294300 0.133900
0.362900 0.140900
0.431400 0.148200
0.500000 0.156500
0.568600 0.165700
0.637100 0.176000
0.705700 0.186900
0.774200 0.200000
0.842800 0.214900
0.911400 0.231900
0.979900 0.315200
1.048500 0.405400
1.117000 0.491800
1.185600 0.788900
1.254100 0.844200
1.322700 0.912300
1.391300 0.995400
1.459800 1.078100
1.528400 1.088000
1.596900 1.110200
1.665500 1.128300
1.734000 1.260700
1.802600 1.330700
1.871200 1.391700
1.939700 1.454900
2.008300 1.455300
2.076800 1.454900
2.145400 1.436600
2.213900 1.409700
2.282500 1.420400
2.351100 1.440000
2.419600 1.376400
2.488200 1.324300
2.556700 1.260100
2.625300 1.197100
2.693900 1.140700
2.762400 1.093800
2.831000 0.975900
2.899500 0.870000
2.968100 0.843500
3.036600 0.884900
3.105200 1.326200
3.173800 1.452100
3.242300 1.455500
3.310900 1.303600
3.379400 1.152700
3.448000 1.037200
3.516500 0.979300
3.585100 0.978000
3.653700 0.889000
3.722200 1.015700
3.790800 1.042800
3.859300 1.060200
3.927900 1.127600
3.996400 1.209100
4.065000 1.489800
4.133600 1.319000
4.202100 1.342400
4.270700 1.318900
4.339200 1.322200
4.407800 1.311800
4.476400 1.342000
4.544900 1.396500
4.613500 1.502500
4.682000 1.656900
4.750600 1.655700
4.819100 1.658700
4.887700 1.613800
4.956300 1.491300
5.024800 1.463500
5.093400 1.586000
5.161900 1.510200
5.230500 1.546000
5.299000 1.605700
5.367600 1.595300
5.436200 2.377900
5.504700 1.749400
5.573300 1.494500
5.641800 1.302000
5.710400 1.174500
5.778900 1.094300
5.847500 1.047800
5.916100 0.992000
5.984600 0.965200
6.053200 0.944000
6.121700 0.935100
6.190300 0.990700
6.258900 0.898300
6.327400 0.861100
6.396000 0.852800
6.464500 0.854000
6.533100 0.935000
6.601600 1.052200
6.670200 1.144100
6.738800 1.144200
6.807300 1.208000
6.875900 1.275400
6.944400 1.484800
7.013000 1.260800
7.081500 1.147400
7.150100 1.068700
7.218700 1.008400
7.287200 0.946500
7.355800 0.900800
7.424300 0.824700
7.492900 0.824800
7.561400 0.872800
7.630000 0.969700
7.698600 0.935400
7.767100 0.916600
7.835700 0.886000
7.904200 0.884500
7.972800 0.870100
8.041400 0.866000
8.109900 0.864900
8.178500 0.866800
8.247000 0.868600
8.315600 0.873400
8.384100 0.876000
8.452700 0.885100
8.521300 0.898700
8.589800 0.920400
8.658400 0.945800
8.726900 0.974100
8.795500 1.004000
8.864000 1.044300
8.932600 1.098500
9.001200 1.160700
9.069700 1.266800
9.138300 1.425100
9.206800 1.638300
9.275400 1.620800
9.344000 1.639100
9.412500 1.630700
9.481100 1.630300
9.549600 1.321300
9.618200 1.204000
9.686700 1.079100
9.755300 0.943200
9.823900 0.856500
9.892400 0.864800
9.961000 0.735000
10.029500 2.154600
10.098100 0.371300
10.166600 0.372100
10.235200 0.372200
10.303800 0.372600
10.372300 0.373200
10.440900 0.373500
10.509400 0.373300
10.578000 0.372000
10.646500 0.370500
10.715100 0.370100
10.783700 0.370300
10.852200 0.370000
10.920800 0.369900
10.989300 0.369700
11.057900 0.369400
11.126500 0.370500
11.195000 0.369800
11.263600 0.368800
11.332100 0.367800
11.400700 0.367000
11.469200 0.368000
11.537800 0.366700
11.606400 0.365700
11.674900 0.364900
11.743500 0.366200
11.812000 0.365300
11.880600 0.362700
11.949100 0.360600
12.017700 0.359000
12.086300 0.355400
12.154800 0.350900
12.223400 0.347800
12.291900 0.344200
12.360500 0.340200
12.429000 0.335400
12.497600 0.328100
12.566200 0.318100
12.634700 0.310600
12.703300 0.304200
12.771800 0.296200
12.840400 0.289000
12.909000 0.279200
12.977500 0.272400
13.046100 0.261100
13.114600 0.251000
13.183200 0.240600
13.251700 0.234700
13.320300 0.224200
13.388900 0.213700
13.457400 0.202900
13.526000 0.185500
13.594500 0.171800
13.663100 0.147800
13.731600 0.128700
13.800200 0.118800
13.868800 0.109700
13.937300 0.099700
14.005900 0.104300
14.074400 0.088000
14.143000 0.094900
14.211500 0.127700
14.280100 0.165600
14.348700 0.224100
14.417200 0.302500
14.485800 0.454800
14.554300 0.480000
14.622900 0.522900
14.691500 0.525600
14.760000 0.529200
14.828600 0.552000
14.897100 0.543600
14.965700 0.540100
15.034200 0.556300
15.102800 0.559100
15.171400 0.573100
15.239900 0.576500
15.308500 0.561800
15.377000 0.517400
15.445600 0.498300
15.514100 0.484800
15.582700 0.474400
15.651300 0.470600
15.719800 0.464700
15.788400 0.460500
15.856900 0.453500
15.925500 0.447000
15.994000 0.439700
16.062600 0.433000
16.131200 0.427200
16.199700 0.439700
16.268300 0.438700
16.336800 0.441300
16.405400 0.445900
16.474000 0.450900
16.542500 0.451400
16.611100 0.456200
16.679600 0.465200
16.748200 0.507100
16.816700 0.514500
16.885300 0.520200
16.953900 0.519400
17.022400 0.509600
17.091000 0.509800
17.159500 0.512100
17.228100 0.521000
17.296600 0.533600
17.365200 0.557400
17.433800 0.593700
17.502300 0.805400
17.570900 0.601600
17.639400 0.615800
17.708000 0.621800
17.776500 0.630300
17.845100 0.635400
17.913700 0.645400
17.982200 0.660500
18.050800 0.677100
18.119300 0.645300
18.187900 0.643500
18.256500 0.696400
18.325000 0.746500
18.393600 0.782500
18.462100 0.827100
18.530700 0.923400
18.599200 0.939000
18.667800 0.947700
18.736400 0.932100
18.804900 0.928400
18.873500 0.940200
18.942000 0.962900
19.010600 0.987200
19.079100 1.011000
19.147700 1.034800
19.216300 1.067500
19.284800 1.144600
19.353400 1.213300
19.421900 1.210300
19.490500 1.174200
19.559000 1.151400
19.627600 1.108500
19.696200 1.042600
19.764700 0.979600
19.833300 0.908600
19.901800 0.850100
19.970400 0.813300
20.039000 0.791400
20.107500 0.841500
20.176100 0.864400
20.244600 0.869600
20.313200 0.859000
20.381700 0.853100
20.450300 0.842900
20.518900 0.847300
20.587400 0.862700
20.656000 0.888500
20.724500 0.932900
20.793100 0.933900
20.861600 0.924700
20.930200 0.932800
20.998800 0.932900
21.067300 0.955300
21.135900 0.960500
21.204400 0.943100
21.273000 0.875300
21.341500 0.807500
21.410100 0.750500
21.478700 0.665500
21.547200 0.627700
21.615800 0.578600
21.684300 0.533900
21.752900 0.482400
21.821500 0.437700
21.890000 0.398600
21.958600 0.363200
22.027100 0.337200
22.095700 0.313300
22.164200 0.296000
22.232800 0.284700
22.301400 0.276700
22.369900 0.270300
22.438500 0.264600
22.507000 0.344800
22.575600 0.323100
22.644100 0.344300
22.712700 0.368000
22.781300 0.397800
22.849800 0.473000
22.918400 0.527200
22.986900 0.590500
23.055500 0.681400
23.124000 0.846500
23.192600 0.991200
23.261200 0.959500
23.329700 0.879700
23.398300 0.847300
23.466800 0.815600
23.535400 0.809200
23.604000 0.793100
23.672500 0.775900
23.741100 0.765700
23.809600 0.766000
23.878200 0.770000
23.946700 0.776100
24.015300 0.786400
24.083900 0.812400
24.152400 0.854900
24.221000 0.874600
24.289500 0.866700
24.358100 0.848200
24.426600 0.832700
24.495200 0.821400
24.563800 0.807800
24.632300 0.811000
24.700900 0.810700
24.769400 0.823000
24.838000 0.809100
24.906500 0.817300
24.975100 0.829500
25.043700 0.807600
25.112200 0.774900
25.180800 0.748300
25.249300 0.716900
25.317900 0.696500
25.386500 0.646100
25.455000 0.598900
25.523600 0.540700
25.592100 0.475400
25.660700 0.433900
25.729200 0.398500
25.797800 0.368300
25.866400 0.342400
25.934900 0.324900
26.003500 0.310200
26.072000 0.311200
26.140600 0.299100
26.209100 0.297300
26.277700 0.298200
26.346300 0.298500
26.414800 0.301900
26.483400 0.312800
26.551900 0.318000
26.620500 0.322800
26.689000 0.342400
26.757600 0.375300
26.826200 0.449000
26.894700 0.444300
26.963300 0.471800
27.031800 0.498200
27.100400 0.513700
27.169000 0.537600
27.237500 0.556700
27.306100 0.599300
27.374600 0.647900
27.443200 0.703500
27.511700 0.735800
27.580300 0.727000
27.648900 0.691400
27.717400 0.719800
27.786000 0.766900
27.854500 0.838900
27.923100 0.853500
27.991600 0.838300
28.060200 0.814500
28.128800 0.803300
28.197300 0.780200
28.265900 0.780000
28.334400 0.781500
28.403000 0.781600
28.471500 0.809400
28.540100 0.796200
28.608700 0.760200
28.677200 0.690700
28.745800 0.624200
28.814300 0.598900
28.882900 0.592200
28.951500 0.581600
29.020000 0.561100
29.088600 0.561500
29.157100 0.572900
29.225700 0.608000
29.294200 0.617900
29.362800 0.625100
29.431400 0.641300
29.499900 0.650900
29.568500 0.814000
29.637000 0.663300
29.705600 0.659400
29.774100 0.680100
29.842700 0.673000
29.911300 0.670200
29.979800 0.682600
30.048400 0.690000
30.116900 0.705400
30.185500 0.706900
30.254000 0.710700
30.322600 0.717100
30.391200 0.730100
30.459700 0.754100
30.528300 0.806200
30.596800 0.983400
30.665400 1.211500
30.734000 1.322700
30.802500 1.472900
30.871100 1.606700
30.939600 1.675600
31.008200 1.790300
31.076700 2.053500
31.145300 1.688000
31.213900 1.431300
31.282400 1.313900
31.351000 1.236300
31.419500 1.207300
31.488100 1.118400
31.556600 1.020100
31.625200 0.947600
31.693800 0.918100
31.762300 0.912600
31.830900 0.904500
31.899400 0.921100
31.968000 0.928000
32.036500 0.906100
32.105100 0.871000
32.173700 0.801200
32.242200 0.759900
32.310800 0.714900
32.379300 0.689800
32.447900 0.652100
32.516500 0.619800
32.585000 0.581700
32.653600 0.527700
32.722100 0.485900
32.790700 0.472900
32.859200 0.482600
32.927800 0.489100
32.996400 0.496100
33.064900 0.518900
33.133500 0.549800
33.202000 0.582800
33.270600 0.600600
33.339100 0.599300
33.407700 0.596700
33.476300 0.597300
33.544800 0.586600
33.613400 0.580200
33.681900 0.572500
33.750500 0.564900
33.819000 0.559200
33.887600 0.561300
33.956200 0.563400
34.024700 0.571600
34.093300 0.588000
34.161800 0.601000
34.230400 0.616200
34.299000 0.644100
34.367500 0.677600
34.436100 0.738500
34.504600 0.771100
34.573200 0.760400
34.641700 0.744300
34.710300 0.749200
34.778900 0.789800
34.847400 0.855900
34.916000 0.783700
34.984500 0.804000
35.053100 0.781300
35.121600 0.755900
35.190200 0.723100
35.258800 0.689000
35.327300 0.682100
35.395900 0.675900
35.464400 0.687500
35.533000 0.701500
35.601500 0.725700
35.670100 0.740400
35.738700 0.737100
35.807200 0.740000
35.875800 0.756600
35.944300 0.780400
36.012900 0.809800
36.081500 0.905600
36.150000 1.092500
36.218600 1.083600
36.287100 1.016100
36.355700 0.851100
36.424200 0.754300
36.492800 0.717100
36.561400 0.692000
36.629900 0.696500
36.698500 0.699800
36.767000 0.709300
36.835600 0.717500
36.904100 0.733500
36.972700 0.791500
37.041300 0.837100
37.109800 0.751700
37.178400 0.748100
37.246900 0.757300
37.315500 0.773900
37.384000 0.777100
37.452600 0.782200
37.521200 0.781300
37.589700 0.790100
37.658300 0.802300
37.726800 0.812900
