set title 'mp-755169 - Density of States'
set xlabel 'Energy (eV)'
set ylabel 'DOS (states/eV)'
set grid
set xrange [-10:10]
set yrange [0:200.465]
set xzeroaxis lt -1
set terminal png size 800,600
set output 'mp-755169_dos_gnuplot.png'
plot '-' using 1:2 with lines title 'DOS'
-9.632300 0.000000
-9.616700 0.000000
-9.601000 0.000000
-9.585300 0.000000
-9.569700 0.000000
-9.554000 0.000000
-9.538300 0.000000
-9.522700 0.000000
-9.507000 0.000000
-9.491300 0.000000
-9.475700 0.000000
-9.460000 0.000000
-9.444300 0.000000
-9.428700 0.000000
-9.413000 0.000000
-9.397300 0.000000
-9.381700 0.000000
-9.366000 0.000000
-9.350300 0.000000
-9.334700 0.000000
-9.319000 0.000000
-9.303300 0.000000
-9.287700 0.000000
-9.272000 0.000000
-9.256400 0.000000
-9.240700 0.000000
-9.225000 0.000000
-9.209400 0.000000
-9.193700 0.000000
-9.178000 0.000000
-9.162400 0.000000
-9.146700 0.000000
-9.131000 0.000000
-9.115400 0.000000
-9.099700 0.000000
-9.084000 0.000000
-9.068400 0.000000
-9.052700 0.000000
-9.037000 0.000000
-9.021400 0.000000
-9.005700 0.000000
-8.990000 0.000000
-8.974400 0.000000
-8.958700 0.000000
-8.943000 0.000000
-8.927400 0.000000
-8.911700 0.000000
-8.896000 0.000000
-8.880400 0.000000
-8.864700 0.000000
-8.849000 0.000000
-8.833400 0.000000
-8.817700 0.000000
-8.802000 0.000000
-8.786400 0.000000
-8.770700 0.000000
-8.755000 0.000000
-8.739400 0.000000
-8.723700 0.000000
-8.708000 0.000000
-8.692400 0.000000
-8.676700 0.000000
-8.661100 0.000000
-8.645400 0.000000
-8.629700 0.000000
-8.614100 0.000000
-8.598400 0.000000
-8.582700 0.000000
-8.567100 0.000000
-8.551400 0.000000
-8.535700 0.000000
-8.520100 0.000000
-8.504400 0.000000
-8.488700 0.000000
-8.473100 0.000000
-8.457400 0.000000
-8.441700 0.000000
-8.426100 0.000000
-8.410400 0.000000
-8.394700 0.000000
-8.379100 0.000000
-8.363400 0.000000
-8.347700 0.000000
-8.332100 0.000000
-8.316400 0.000000
-8.300700 0.000000
-8.285100 0.000000
-8.269400 0.000000
-8.253700 0.000000
-8.238100 0.000000
-8.222400 0.000000
-8.206700 0.210100
-8.191100 13.434300
-8.175400 129.529900
-8.159700 17.006500
-8.144100 0.000000
-8.128400 0.000000
-8.112800 0.000000
-8.097100 0.000000
-8.081400 0.000000
-8.065800 0.000000
-8.050100 0.000000
-8.034400 0.000000
-8.018800 0.000000
-8.003100 0.000000
-7.987400 0.000000
-7.971800 0.000000
-7.956100 0.000000
-7.940400 0.000000
-7.924800 0.000000
-7.909100 0.000000
-7.893400 0.000000
-7.877800 0.000000
-7.862100 0.000000
-7.846400 0.000000
-7.830800 0.000000
-7.815100 0.000000
-7.799400 0.000000
-7.783800 0.000000
-7.768100 0.000000
-7.752400 0.000000
-7.736800 0.000000
-7.721100 0.000000
-7.705400 0.000000
-7.689800 0.000000
-7.674100 0.000000
-7.658400 0.000000
-7.642800 0.000000
-7.627100 0.000000
-7.611400 0.000000
-7.595800 0.000000
-7.580100 0.000000
-7.564500 0.000000
-7.548800 0.000000
-7.533100 0.000000
-7.517500 0.000000
-7.501800 0.000000
-7.486100 0.000000
-7.470500 0.000000
-7.454800 0.000000
-7.439100 0.000000
-7.423500 0.000000
-7.407800 0.000000
-7.392100 0.000000
-7.376500 0.000000
-7.360800 0.000000
-7.345100 0.000000
-7.329500 0.000000
-7.313800 0.000000
-7.298100 0.000000
-7.282500 0.000000
-7.266800 0.000000
-7.251100 0.000000
-7.235500 0.000000
-7.219800 0.000000
-7.204100 0.000000
-7.188500 0.000000
-7.172800 0.000000
-7.157100 0.000000
-7.141500 0.000000
-7.125800 0.000000
-7.110100 0.000000
-7.094500 0.000000
-7.078800 0.000000
-7.063100 0.000000
-7.047500 0.000000
-7.031800 0.000000
-7.016200 0.000000
-7.000500 0.000000
-6.984800 0.000000
-6.969200 0.000000
-6.953500 0.000000
-6.937800 0.000000
-6.922200 0.000000
-6.906500 0.000000
-6.890800 0.000000
-6.875200 0.000000
-6.859500 0.000000
-6.843800 0.000000
-6.828200 0.000000
-6.812500 0.000000
-6.796800 0.000000
-6.781200 0.000000
-6.765500 0.000000
-6.749800 0.000000
-6.734200 0.000000
-6.718500 26.423300
-6.702800 83.338000
-6.687200 107.429000
-6.671500 32.460400
-6.655800 68.823900
-6.640200 95.171400
-6.624500 99.149100
-6.608800 96.487200
-6.593200 105.607200
-6.577500 117.923900
-6.561800 157.231000
-6.546200 153.902300
-6.530500 87.876700
-6.514800 53.216200
-6.499200 99.342900
-6.483500 167.251700
-6.467900 66.631600
-6.452200 157.663000
-6.436500 124.876200
-6.420900 69.445500
-6.405200 122.495600
-6.389500 133.575200
-6.373900 118.479500
-6.358200 147.960300
-6.342500 132.822700
-6.326900 175.876300
-6.311200 162.555400
-6.295500 109.177400
-6.279900 182.241200
-6.264200 112.088200
-6.248500 126.614200
-6.232900 120.382000
-6.217200 99.493400
-6.201500 0.000000
-6.185900 0.000000
-6.170200 0.000000
-6.154500 0.000000
-6.138900 0.000000
-6.123200 0.000000
-6.107500 0.000000
-6.091900 0.211300
-6.076200 1.754400
-6.060500 3.040700
-6.044900 4.759000
-6.029200 7.464300
-6.013500 11.963000
-5.997900 24.112600
-5.982200 31.489800
-5.966500 26.381000
-5.950900 2.821700
-5.935200 0.000000
-5.919600 0.000000
-5.903900 0.000000
-5.888200 0.000000
-5.872600 0.000000
-5.856900 0.000000
-5.841200 0.000000
-5.825600 0.000000
-5.809900 0.000000
-5.794200 0.000000
-5.778600 0.000000
-5.762900 0.000000
-5.747200 0.000000
-5.731600 0.000000
-5.715900 0.000000
-5.700200 0.000000
-5.684600 0.000000
-5.668900 0.000000
-5.653200 0.000000
-5.637600 0.000000
-5.621900 0.000000
-5.606200 0.000000
-5.590600 0.000000
-5.574900 0.000000
-5.559200 0.000000
-5.543600 0.000000
-5.527900 0.000000
-5.512200 0.000000
-5.496600 0.000000
-5.480900 0.000000
-5.465200 0.000000
-5.449600 0.000000
-5.433900 0.000000
-5.418200 0.000000
-5.402600 0.000000
-5.386900 0.000000
-5.371300 0.000000
-5.355600 0.000000
-5.339900 0.000000
-5.324300 0.000000
-5.308600 0.000000
-5.292900 0.000000
-5.277300 0.000000
-5.261600 0.000000
-5.245900 0.000000
-5.230300 0.000000
-5.214600 0.000000
-5.198900 0.000000
-5.183300 0.000000
-5.167600 0.000000
-5.151900 0.000000
-5.136300 0.000000
-5.120600 0.000000
-5.104900 0.000000
-5.089300 0.000000
-5.073600 0.000000
-5.057900 0.000000
-5.042300 0.000000
-5.026600 0.000000
-5.010900 0.000000
-4.995300 0.000000
-4.979600 0.000000
-4.963900 0.000000
-4.948300 0.000000
-4.932600 0.000000
-4.916900 0.000000
-4.901300 0.000000
-4.885600 0.000000
-4.869900 0.000000
-4.854300 0.000000
-4.838600 0.000000
-4.823000 0.000000
-4.807300 0.000000
-4.791600 0.000000
-4.776000 0.000000
-4.760300 0.000000
-4.744600 0.000000
-4.729000 0.000000
-4.713300 0.000000
-4.697600 0.000000
-4.682000 0.000000
-4.666300 0.000000
-4.650600 0.000000
-4.635000 0.000000
-4.619300 0.000000
-4.603600 0.000000
-4.588000 0.000000
-4.572300 0.000000
-4.556600 0.000000
-4.541000 0.000000
-4.525300 0.000000
-4.509600 0.000000
-4.494000 0.000000
-4.478300 0.000000
-4.462600 0.000000
-4.447000 0.000000
-4.431300 0.000000
-4.415600 0.000000
-4.400000 0.000000
-4.384300 0.000000
-4.368600 0.000000
-4.353000 0.000000
-4.337300 0.000000
-4.321600 0.000000
-4.306000 0.000000
-4.290300 0.000000
-4.274700 0.000000
-4.259000 0.000000
-4.243300 0.000000
-4.227700 0.000000
-4.212000 0.000000
-4.196300 0.000000
-4.180700 0.000000
-4.165000 0.000000
-4.149300 0.000000
-4.133700 0.000000
-4.118000 0.000000
-4.102300 0.000000
-4.086700 0.000000
-4.071000 0.000000
-4.055300 0.000000
-4.039700 0.000000
-4.024000 0.000000
-4.008300 0.000000
-3.992700 0.000000
-3.977000 0.000000
-3.961300 0.000000
-3.945700 0.000000
-3.930000 0.000000
-3.914300 0.000000
-3.898700 0.000000
-3.883000 0.000000
-3.867300 0.000000
-3.851700 0.000000
-3.836000 0.000000
-3.820300 0.000000
-3.804700 0.000000
-3.789000 0.000000
-3.773300 0.000000
-3.757700 0.000000
-3.742000 0.000000
-3.726400 0.000000
-3.710700 0.000000
-3.695000 0.000000
-3.679400 0.000000
-3.663700 0.000000
-3.648000 0.000000
-3.632400 0.000000
-3.616700 0.000000
-3.601000 0.000000
-3.585400 0.000000
-3.569700 0.000000
-3.554000 0.000000
-3.538400 0.000000
-3.522700 0.000000
-3.507000 0.000000
-3.491400 0.000000
-3.475700 0.000000
-3.460000 0.000000
-3.444400 0.000000
-3.428700 0.000000
-3.413000 0.000000
-3.397400 0.000000
-3.381700 0.000000
-3.366000 0.000000
-3.350400 0.000000
-3.334700 0.000000
-3.319000 0.000000
-3.303400 0.000000
-3.287700 0.000000
-3.272000 0.000000
-3.256400 0.000000
-3.240700 0.000000
-3.225000 0.000000
-3.209400 0.000000
-3.193700 0.000000
-3.178100 0.000000
-3.162400 0.000000
-3.146700 0.000000
-3.131100 0.000000
-3.115400 0.000000
-3.099700 0.000000
-3.084100 0.000000
-3.068400 0.000000
-3.052700 1.856600
-3.037100 3.861000
-3.021400 3.490300
-3.005700 3.817000
-2.990100 4.233700
-2.974400 4.494200
-2.958700 4.561600
-2.943100 4.453100
-2.927400 4.154900
-2.911700 3.957500
-2.896100 3.879100
-2.880400 3.815100
-2.864700 3.685200
-2.849100 3.582000
-2.833400 3.490300
-2.817700 3.355800
-2.802100 3.250000
-2.786400 3.259500
-2.770700 3.062300
-2.755100 2.866700
-2.739400 2.629400
-2.723700 2.359400
-2.708100 2.249200
-2.692400 2.153400
-2.676700 2.071700
-2.661100 2.004100
-2.645400 1.941500
-2.629800 1.879200
-2.614100 1.817200
-2.598400 1.755300
-2.582800 1.693500
-2.567100 1.632000
-2.551400 1.570600
-2.535800 1.497800
-2.520100 1.449300
-2.504400 1.395400
-2.488800 1.343100
-2.473100 1.302200
-2.457400 1.269000
-2.441800 1.241600
-2.426100 1.213500
-2.410400 1.184600
-2.394800 1.154600
-2.379100 1.123800
-2.363400 1.092000
-2.347800 1.253100
-2.332100 1.275400
-2.316400 1.297400
-2.300800 1.319100
-2.285100 1.213200
-2.269400 1.193500
-2.253800 1.175200
-2.238100 1.162200
-2.222400 1.151200
-2.206800 1.137700
-2.191100 1.123000
-2.175400 1.107000
-2.159800 1.086300
-2.144100 1.045500
-2.128400 1.012100
-2.112800 0.975100
-2.097100 0.954800
-2.081400 0.931300
-2.065800 0.925400
-2.050100 0.931100
-2.034500 0.946800
-2.018800 0.966100
-2.003100 0.987900
-1.987500 1.012100
-1.971800 1.038700
-1.956100 1.067700
-1.940500 1.068800
-1.924800 1.137800
-1.909100 1.382300
-1.893500 1.818900
-1.877800 2.185800
-1.862100 2.527500
-1.846500 2.853500
-1.830800 3.160700
-1.815100 3.489600
-1.799500 3.800000
-1.783800 4.107200
-1.768100 4.469200
-1.752500 4.805100
-1.736800 5.125300
-1.721100 5.463000
-1.705500 6.222400
-1.689800 6.446800
-1.674100 4.166200
-1.658500 2.973100
-1.642800 2.585700
-1.627100 2.305200
-1.611500 2.149600
-1.595800 2.019500
-1.580100 1.903000
-1.564500 1.814200
-1.548800 1.757200
-1.533100 1.731800
-1.517500 1.781800
-1.501800 1.755400
-1.486200 1.737600
-1.470500 1.727900
-1.454800 1.726500
-1.439200 1.733900
-1.423500 1.753200
-1.407800 1.784400
-1.392200 1.826300
-1.376500 1.869200
-1.360800 1.900000
-1.345200 2.007400
-1.329500 2.177500
-1.313800 2.346900
-1.298200 2.413400
-1.282500 2.435800
-1.266800 2.555600
-1.251200 2.727600
-1.235500 2.898100
-1.219800 2.874300
-1.204200 2.962300
-1.188500 3.159400
-1.172800 3.413100
-1.157200 3.769600
-1.141500 4.445300
-1.125800 4.752000
-1.110200 5.015500
-1.094500 5.246100
-1.078800 5.441600
-1.063200 5.572700
-1.047500 5.833100
-1.031800 5.943400
-1.016200 5.878200
-1.000500 5.767400
-0.984800 5.595800
-0.969200 5.769500
-0.953500 4.947700
-0.937900 4.448000
-0.922200 4.057300
-0.906500 3.781700
-0.890900 3.596100
-0.875200 3.480600
-0.859500 3.347700
-0.843900 3.219500
-0.828200 3.083200
-0.812500 2.992300
-0.796900 3.112300
-0.781200 3.249700
-0.765500 3.385600
-0.749900 3.342400
-0.734200 3.382000
-0.718500 3.402100
-0.702900 3.492300
-0.687200 3.836800
-0.671500 4.270200
-0.655900 4.681000
-0.640200 4.878700
-0.624500 4.989100
-0.608900 5.011700
-0.593200 4.983700
-0.577500 4.940500
-0.561900 4.899500
-0.546200 4.908500
-0.530500 5.031700
-0.514900 5.280600
-0.499200 5.551500
-0.483500 5.337300
-0.467900 4.899300
-0.452200 4.715100
-0.436500 4.537800
-0.420900 4.363500
-0.405200 4.230800
-0.389600 4.220300
-0.373900 4.177200
-0.358200 4.137000
-0.342600 4.099200
-0.326900 4.037700
-0.311200 4.120200
-0.295600 4.344200
-0.279900 4.417500
-0.264200 4.240700
-0.248600 3.777900
-0.232900 2.758700
-0.217200 2.660100
-0.201600 2.581200
-0.185900 2.534500
-0.170200 2.492500
-0.154600 2.472300
-0.138900 2.486300
-0.123200 2.535400
-0.107600 2.618900
-0.091900 2.736800
-0.076200 2.878200
-0.060600 3.137400
-0.044900 3.562600
-0.029200 3.849400
-0.013600 4.114300
0.002100 4.278700
0.017800 4.350000
0.033400 4.378100
0.049100 4.355800
0.064800 4.619900
0.080400 4.867700
0.096100 5.091500
0.111800 5.253600
0.127400 5.356700
0.143100 5.411000
0.158700 5.356200
0.174400 5.157600
0.190100 5.118900
0.205700 5.109200
0.221400 5.096500
0.237100 5.083500
0.252700 5.110400
0.268400 5.163600
0.284100 5.232600
0.299700 5.312200
0.315400 5.466900
0.331100 5.297800
0.346700 4.570400
0.362400 4.233200
0.378100 2.620000
0.393700 2.515200
0.409400 2.445400
0.425100 2.386700
0.440700 2.338900
0.456400 2.302100
0.472100 2.283400
0.487700 2.306000
0.503400 2.559100
0.519100 2.808500
0.534700 2.814800
0.550400 2.678300
0.566100 2.454200
0.581700 2.416500
0.597400 2.429200
0.613100 2.533300
0.628700 2.570100
0.644400 2.579900
0.660100 2.562800
0.675700 2.422400
0.691400 2.161200
0.707000 2.064500
0.722700 1.343500
0.738400 1.237100
0.754000 1.135700
0.769700 1.039300
0.785400 0.948800
0.801000 0.886200
0.816700 0.861600
0.832400 0.831900
0.848000 0.651600
0.863700 0.395900
0.879400 0.081100
0.895000 0.000000
0.910700 0.000000
0.926400 0.000000
0.942000 0.000000
0.957700 0.000000
0.973400 0.000000
0.989000 0.000000
1.004700 0.000000
1.020400 0.000000
1.036000 0.000000
1.051700 0.000000
1.067400 0.000000
1.083000 0.000000
1.098700 0.000000
1.114400 0.000000
1.130000 0.000000
1.145700 0.000000
1.161400 0.000000
1.177000 0.000000
1.192700 0.000000
1.208400 0.000000
1.224000 0.000000
1.239700 0.000000
1.255300 0.000000
1.271000 0.000000
1.286700 0.000000
1.302300 0.000000
1.318000 0.000000
1.333700 0.000000
1.349300 0.000000
1.365000 0.000000
1.380700 0.000000
1.396300 0.000000
1.412000 0.000000
1.427700 0.000000
1.443300 0.000000
1.459000 0.000000
1.474700 0.000000
1.490300 0.000000
1.506000 0.000000
1.521700 0.000000
1.537300 0.000000
1.553000 0.000000
1.568700 0.000000
1.584300 0.000000
1.600000 0.000000
1.615700 0.000000
1.631300 0.000000
1.647000 0.000000
1.662700 0.000000
1.678300 0.000000
1.694000 0.000000
1.709700 0.000000
1.725300 0.000000
1.741000 0.000000
1.756700 0.015300
1.772300 0.096200
1.788000 0.240200
1.803600 0.447300
1.819300 0.765700
1.835000 1.220200
1.850600 1.561500
1.866300 2.025500
1.882000 2.386400
1.897600 2.674200
1.913300 2.795300
1.929000 2.971900
1.944600 3.106200
1.960300 3.198200
1.976000 3.851000
1.991600 3.757900
2.007300 3.202300
2.023000 2.900200
2.038600 2.796800
2.054300 2.777600
2.070000 2.799000
2.085600 2.883900
2.101300 3.001100
2.117000 3.244600
2.132600 3.380600
2.148300 3.600500
2.164000 3.762900
2.179600 3.869300
2.195300 4.252000
2.211000 4.662800
2.226600 4.948300
2.242300 5.108500
2.258000 4.542500
2.273600 4.352100
2.289300 4.247500
2.305000 4.222200
2.320600 4.233500
2.336300 4.263000
2.351900 4.311300
2.367600 4.378600
2.383300 5.049200
2.398900 4.370900
2.414600 4.317000
2.430300 4.262800
2.445900 4.209700
2.461600 4.149800
2.477300 4.073800
2.492900 4.017600
2.508600 4.017100
2.524300 4.112900
2.539900 4.204000
2.555600 4.314200
2.571300 4.242800
2.586900 4.055300
2.602600 4.005000
2.618300 3.955300
2.633900 3.906300
2.649600 3.855700
2.665300 3.815300
2.680900 3.837700
2.696600 3.916400
2.712300 4.045500
2.727900 4.057000
2.743600 4.082000
2.759300 4.239000
2.774900 4.453200
2.790600 4.617400
2.806300 4.733400
2.821900 4.818400
2.837600 4.846500
2.853300 4.746000
2.868900 4.712200
2.884600 4.684300
2.900200 4.595800
2.915900 4.880900
2.931600 4.619800
2.947200 4.108200
2.962900 4.073900
2.978600 4.068300
2.994200 4.120300
3.009900 4.107400
3.025600 4.019300
3.041200 4.037800
3.056900 4.131600
3.072600 4.371800
3.088200 4.712100
3.103900 5.058100
3.119600 5.527900
3.135200 5.412100
3.150900 5.248500
3.166600 5.054000
3.182200 4.847600
3.197900 4.695300
3.213600 4.509600
3.229200 4.229200
3.244900 3.828100
3.260600 3.314000
3.276200 2.752000
3.291900 1.659300
3.307600 1.655500
3.323200 0.849800
3.338900 0.795100
3.354600 0.782700
3.370200 0.812800
3.385900 0.948400
3.401600 0.800000
3.417200 0.572000
3.432900 0.321400
3.448500 0.048200
3.464200 0.004500
3.479900 0.023600
3.495500 0.057700
3.511200 0.106700
3.526900 0.160300
3.542500 0.186000
3.558200 0.208200
3.573900 0.226800
3.589500 0.243300
3.605200 0.262700
3.620900 0.285400
3.636500 0.311300
3.652200 0.340500
3.667900 0.373000
3.683500 0.408800
3.699200 0.448700
3.714900 0.492500
3.730500 0.540400
3.746200 0.592300
3.761900 0.691100
3.777500 0.731700
3.793200 0.774400
3.808900 0.811400
3.824500 0.840000
3.840200 0.860000
3.855900 0.871700
3.871500 0.901600
3.887200 0.954800
3.902900 1.011300
3.918500 1.124300
3.934200 1.337500
3.949900 1.717800
3.965500 2.109900
3.981200 2.444100
3.996900 2.805000
4.012500 3.193900
4.028200 3.635100
4.043800 4.167500
4.059500 5.174200
4.075200 5.136800
4.090800 4.619800
4.106500 4.487600
4.122200 4.368500
4.137800 4.262900
4.153500 4.008400
4.169200 3.884400
4.184800 3.777200
4.200500 3.669600
4.216200 3.578900
4.231800 3.509800
4.247500 3.421600
4.263200 3.347200
4.278800 3.288000
4.294500 3.259100
4.310200 3.198300
4.325800 3.147600
4.341500 3.092700
4.357200 2.974700
4.372800 2.871600
4.388500 2.841500
4.404200 2.627800
4.419800 2.574100
4.435500 2.528400
4.451200 2.491000
4.466800 2.456700
4.482500 2.575100
4.498200 2.752300
4.513800 2.824600
4.529500 2.907600
4.545200 3.009900
4.560800 3.131500
4.576500 3.205700
4.592100 3.250500
4.607800 3.283500
4.623500 3.117000
4.639100 2.971700
4.654800 2.830000
4.670500 2.799900
4.686100 2.766600
4.701800 2.730700
4.717500 2.849500
4.733100 2.546100
4.748800 2.546900
4.764500 2.550300
4.780100 2.558700
4.795800 2.572700
4.811500 2.581900
4.827100 2.558600
4.842800 2.554400
4.858500 2.571700
4.874100 2.555000
4.889800 2.532600
4.905500 2.542600
4.921100 2.564100
4.936800 2.591700
4.952500 2.620600
4.968100 2.647800
4.983800 2.673500
4.999500 2.697700
5.015100 2.691400
5.030800 2.727000
5.046500 2.819500
5.062100 2.900700
5.077800 2.984500
5.093500 3.067600
5.109100 3.148500
5.124800 3.227000
5.140400 3.303100
5.156100 3.439500
5.171800 3.476400
5.187400 3.461300
5.203100 3.360800
5.218800 3.268800
5.234400 3.181100
5.250100 3.154500
5.265800 3.135400
5.281400 3.123900
5.297100 3.078000
5.312800 3.394000
5.328400 3.802000
5.344100 4.132300
5.359800 4.498400
5.375400 4.332400
5.391100 4.070000
5.406800 3.821200
5.422400 3.586500
5.438100 3.328700
5.453800 3.154200
5.469400 3.128400
5.485100 2.996700
5.500800 2.871000
5.516400 2.934400
5.532100 3.045800
5.547800 3.183500
5.563400 3.334000
5.579100 3.512300
5.594800 3.767400
5.610400 4.070900
5.626100 4.416200
5.641800 4.840400
5.657400 5.383700
5.673100 6.105800
5.688700 6.574300
5.704400 6.199900
5.720100 5.932400
5.735700 6.012000
5.751400 6.080800
5.767100 5.766600
5.782700 5.847500
5.798400 5.173000
5.814100 4.826900
5.829700 4.530000
5.845400 4.241100
5.861100 4.860900
5.876700 4.067500
5.892400 3.976600
5.908100 3.418300
5.923700 3.151100
5.939400 2.988600
5.955100 3.528100
5.970700 3.403300
5.986400 3.352200
6.002100 3.708700
6.017700 4.277400
6.033400 4.850800
6.049100 5.917900
6.064700 4.313400
6.080400 4.346200
6.096100 4.329400
6.111700 4.021400
6.127400 3.791400
6.143100 3.507600
6.158700 3.272300
6.174400 2.969600
6.190100 2.799800
6.205700 2.668100
6.221400 2.696600
6.237000 2.700600
6.252700 2.570700
6.268400 2.610400
6.284000 3.174300
6.299700 4.054800
6.315400 4.464100
6.331000 4.821400
6.346700 4.531400
6.362400 4.432900
6.378000 4.402400
6.393700 4.441800
6.409400 5.395400
6.425000 5.121000
6.440700 5.217500
6.456400 5.038600
6.472000 4.853600
6.487700 4.756600
6.503400 4.830000
6.519000 4.910900
6.534700 4.981400
6.550400 5.068100
6.566000 4.726200
6.581700 4.216600
6.597400 3.940000
6.613000 3.697600
6.628700 3.595000
6.644400 3.649300
6.660000 3.727000
6.675700 3.730900
6.691400 3.758500
6.707000 3.795700
6.722700 3.834700
6.738400 5.597700
6.754000 4.248300
6.769700 4.267200
6.785300 4.259400
6.801000 4.222900
6.816700 4.156300
6.832300 4.041600
6.848000 3.793100
6.863700 3.560800
6.879300 3.349500
6.895000 3.158600
6.910700 3.004400
6.926300 2.856500
