set title 'mp-1226001 - Density of States'
set xlabel 'Energy (eV)'
set ylabel 'DOS (states/eV)'
set grid
set xrange [-10:10]
set yrange [0:3.889]
set xzeroaxis lt -1
set terminal png size 800,600
set output 'mp-1226001_dos_gnuplot.png'
plot '-' using 1:2 with lines title 'DOS'
-6.583300 0.000000
-6.543000 0.000000
-6.502800 0.000000
-6.462500 0.000000
-6.422300 0.000000
-6.382000 0.000000
-6.341800 0.000000
-6.301500 0.000000
-6.261300 0.000000
-6.221000 0.000000
-6.180700 0.000000
-6.140500 0.000000
-6.100200 0.000000
-6.060000 0.000000
-6.019700 0.000000
-5.979500 0.000000
-5.939200 0.000000
-5.899000 0.000000
-5.858700 0.000000
-5.818400 0.000000
-5.778200 0.000000
-5.737900 0.000000
-5.697700 0.000000
-5.657400 0.000000
-5.617200 0.000000
-5.576900 0.000000
-5.536700 0.000000
-5.496400 0.000000
-5.456100 0.000000
-5.415900 0.000000
-5.375600 0.000000
-5.335400 0.000000
-5.295100 0.000000
-5.254900 0.000000
-5.214600 0.000000
-5.174400 0.000000
-5.134100 0.000000
-5.093900 0.000000
-5.053600 0.000000
-5.013300 0.000000
-4.973100 0.000000
-4.932800 0.000000
-4.892600 0.000000
-4.852300 0.000000
-4.812100 0.000000
-4.771800 0.000000
-4.731600 0.000000
-4.691300 0.000000
-4.651000 0.000000
-4.610800 0.000000
-4.570500 0.000000
-4.530300 0.000000
-4.490000 0.000000
-4.449800 0.000000
-4.409500 0.000000
-4.369300 0.000000
-4.329000 0.000000
-4.288700 0.000000
-4.248500 0.000000
-4.208200 0.000000
-4.168000 0.000000
-4.127700 0.000000
-4.087500 0.000000
-4.047200 0.000000
-4.007000 0.000000
-3.966700 0.000000
-3.926400 0.000000
-3.886200 0.000000
-3.845900 0.000000
-3.805700 0.000000
-3.765400 0.000000
-3.725200 0.000000
-3.684900 0.000000
-3.644700 0.000000
-3.604400 0.000000
-3.564200 0.000000
-3.523900 0.000000
-3.483600 0.000000
-3.443400 0.000000
-3.403100 0.000000
-3.362900 0.000000
-3.322600 0.000000
-3.282400 0.000000
-3.242100 0.000000
-3.201900 0.000000
-3.161600 0.000000
-3.121300 0.000000
-3.081100 0.000000
-3.040800 0.000000
-3.000600 0.000000
-2.960300 0.000000
-2.920100 0.000000
-2.879800 0.006200
-2.839600 0.016500
-2.799300 0.026900
-2.759000 0.026800
-2.718800 0.030800
-2.678500 0.034700
-2.638300 0.038000
-2.598000 0.041900
-2.557800 0.045900
-2.517500 0.049200
-2.477300 0.051500
-2.437000 0.053300
-2.396700 0.055600
-2.356500 0.058200
-2.316200 0.060900
-2.276000 0.063700
-2.235700 0.066600
-2.195500 0.069200
-2.155200 0.072000
-2.115000 0.074900
-2.074700 0.077200
-2.034500 0.079600
-1.994200 0.082000
-1.953900 0.084500
-1.913700 0.087000
-1.873400 0.089400
-1.833200 0.092100
-1.792900 0.094900
-1.752700 0.097800
-1.712400 0.100700
-1.672200 0.103800
-1.631900 0.106900
-1.591600 0.110000
-1.551400 0.113300
-1.511100 0.116600
-1.470900 0.119900
-1.430600 0.123400
-1.390400 0.127100
-1.350100 0.131000
-1.309900 0.135100
-1.269600 0.139700
-1.229300 0.145400
-1.189100 0.152200
-1.148800 0.157900
-1.108600 0.162200
-1.068300 0.165000
-1.028100 0.169000
-0.987800 0.174000
-0.947600 0.179200
-0.907300 0.184500
-0.867100 0.190200
-0.826800 0.197100
-0.786500 0.212300
-0.746300 0.235100
-0.706000 0.354100
-0.665800 0.470100
-0.625500 0.583400
-0.585300 0.694000
-0.545000 0.740200
-0.504800 0.754600
-0.464500 0.923700
-0.424200 1.147500
-0.384000 1.211100
-0.343700 1.362500
-0.303500 1.489700
-0.263200 1.601700
-0.223000 1.741800
-0.182700 1.658500
-0.142500 1.692700
-0.102200 1.425200
-0.061900 1.356800
-0.021700 1.346600
0.018600 1.369600
0.058800 1.353800
0.099100 1.367500
0.139300 1.393000
0.179600 1.393600
0.219800 1.379700
0.260100 1.390100
0.300400 1.404300
0.340600 1.529000
0.380900 1.789800
0.421100 1.898700
0.461400 1.811900
0.501600 1.736700
0.541900 1.707800
0.582100 1.722300
0.622400 1.787000
0.662600 1.895500
0.702900 1.652500
0.743200 1.662000
0.783400 1.612900
0.823700 1.590800
0.863900 1.469200
0.904200 1.309800
0.944400 1.307200
0.984700 1.257700
1.024900 1.273500
1.065200 1.330100
1.105500 1.289300
1.145700 1.387400
1.186000 1.632400
1.226200 1.796100
1.266500 1.923100
1.306700 1.686800
1.347000 1.599000
1.387200 1.729600
1.427500 1.792500
1.467800 1.858300
1.508000 1.922600
1.548300 1.793400
1.588500 1.721700
1.628800 1.754400
1.669000 1.683400
1.709300 1.589200
1.749500 1.760700
1.789800 1.813700
1.830100 2.029700
1.870300 2.351500
1.910600 2.416500
1.950800 2.320100
1.991100 2.470500
2.031300 2.857400
2.071600 3.073100
2.111800 2.603600
2.152100 2.851000
2.192300 3.121300
2.232600 2.934000
2.272900 3.014200
2.313100 3.373800
2.353400 3.322400
2.393600 2.889700
2.433900 2.084300
2.474100 2.498900
2.514400 2.685000
2.554600 2.913800
2.594900 2.134600
2.635200 2.170400
2.675400 1.885300
2.715700 2.265300
2.755900 2.100000
2.796200 2.300900
2.836400 2.272900
2.876700 2.311700
2.916900 2.404100
2.957200 2.491800
2.997500 2.817800
3.037700 2.694100
3.078000 2.713500
3.118200 2.434000
3.158500 2.418600
3.198700 2.842700
3.239000 3.077200
3.279200 2.522800
3.319500 2.551000
3.359800 2.438600
3.400000 2.243100
3.440300 2.105400
3.480500 2.039200
3.520800 2.008100
3.561000 1.996700
3.601300 2.054500
3.641500 2.233300
3.681800 2.383400
3.722000 2.403900
3.762300 2.540300
3.802600 3.054300
3.842800 3.535600
3.883100 2.789000
3.923300 2.839000
3.963600 2.461500
4.003800 1.908000
4.044100 2.017000
4.084300 2.222500
4.124600 2.534900
4.164900 2.514300
4.205100 2.500300
4.245400 2.138100
4.285600 1.771500
4.325900 1.307800
4.366100 1.218100
4.406400 1.079000
4.446600 0.788800
4.486900 0.652200
4.527200 0.569500
4.567400 0.536900
4.607700 0.520400
4.647900 0.504300
4.688200 0.486400
4.728400 0.424000
4.768700 0.352200
4.808900 0.283600
4.849200 0.272200
4.889500 0.273800
4.929700 0.275500
4.970000 0.276800
5.010200 0.277500
5.050500 0.277000
5.090700 0.276800
5.131000 0.277100
5.171200 0.277800
5.211500 0.278500
5.251700 0.279100
5.292000 0.279900
5.332300 0.281000
5.372500 0.281700
5.412800 0.281600
5.453000 0.278800
5.493300 0.278800
5.533500 0.279100
5.573800 0.279600
5.614000 0.278100
5.654300 0.278100
5.694600 0.277700
5.734800 0.277200
5.775100 0.277000
5.815300 0.277300
5.855600 0.278000
5.895800 0.278700
5.936100 0.279300
5.976300 0.279700
6.016600 0.279700
6.056900 0.279500
6.097100 0.279600
6.137400 0.279900
6.177600 0.280400
6.217900 0.280900
6.258100 0.281600
6.298400 0.282300
6.338600 0.282300
6.378900 0.280300
6.419200 0.279000
6.459400 0.278000
6.499700 0.277200
6.539900 0.276500
6.580200 0.276300
6.620400 0.276600
6.660700 0.277300
6.700900 0.278700
6.741200 0.281200
6.781400 0.288500
6.821700 0.292100
6.862000 0.290100
6.902200 0.283000
6.942500 0.270100
6.982700 0.263500
7.023000 0.261100
7.063200 0.259700
7.103500 0.257800
7.143700 0.255600
7.184000 0.254200
7.224300 0.252800
7.264500 0.250600
7.304800 0.248100
7.345000 0.246100
7.385300 0.244400
7.425500 0.243100
7.465800 0.242000
7.506000 0.241200
7.546300 0.241200
7.586600 0.242200
7.626800 0.244700
7.667100 0.249500
7.707300 0.259200
7.747600 0.263300
7.787800 0.251400
7.828100 0.251000
7.868300 0.244500
7.908600 0.240400
7.948800 0.238700
7.989100 0.237300
8.029400 0.236500
8.069600 0.236600
8.109900 0.237700
8.150100 0.239900
8.190400 0.242100
8.230600 0.243600
8.270900 0.244800
8.311100 0.247100
8.351400 0.248700
8.391700 0.250000
8.431900 0.251000
8.472200 0.251500
8.512400 0.251500
8.552700 0.250800
8.592900 0.248600
8.633200 0.244900
8.673400 0.239900
8.713700 0.233600
8.754000 0.230400
8.794200 0.231900
8.834500 0.237700
8.874700 0.252600
8.915000 0.258000
8.955200 0.234100
8.995500 0.221700
9.035700 0.216500
9.076000 0.212300
9.116300 0.208400
9.156500 0.203900
9.196800 0.201800
9.237000 0.203700
9.277300 0.205400
9.317500 0.201000
9.357800 0.194000
9.398000 0.186400
9.438300 0.182400
9.478500 0.179800
9.518800 0.177900
9.559100 0.176800
9.599300 0.176000
9.639600 0.175500
9.679800 0.175200
9.720100 0.175300
9.760300 0.175600
9.800600 0.175300
9.840800 0.174500
9.881100 0.173800
9.921400 0.173200
9.961600 0.172800
10.001900 0.172500
10.042100 0.172300
10.082400 0.172200
10.122600 0.172400
10.162900 0.172200
10.203100 0.171300
10.243400 0.169600
10.283700 0.167200
10.323900 0.189200
10.364200 0.205600
10.404400 0.203500
10.444700 0.182600
10.484900 0.161900
10.525200 0.151900
10.565400 0.144700
10.605700 0.141200
10.646000 0.138800
10.686200 0.135400
10.726500 0.130900
10.766700 0.125200
10.807000 0.120000
10.847200 0.115400
10.887500 0.110700
10.927700 0.107000
10.968000 0.115900
11.008200 0.156400
11.048500 0.191900
11.088800 0.222500
11.129000 0.243200
11.169300 0.253600
11.209500 0.253200
11.249800 0.260200
11.290000 0.261200
11.330300 0.248800
11.370500 0.247600
11.410800 0.266600
11.451100 0.297900
11.491300 0.328900
11.531600 0.353100
11.571800 0.345700
11.612100 0.338200
11.652300 0.331700
11.692600 0.333500
11.732800 0.328100
11.773100 0.321700
11.813400 0.317500
11.853600 0.312400
11.893900 0.311000
11.934100 0.312000
11.974400 0.312100
12.014600 0.306300
12.054900 0.312100
12.095100 0.323000
12.135400 0.326800
12.175700 0.328100
12.215900 0.327200
12.256200 0.324900
12.296400 0.322300
12.336700 0.320500
12.376900 0.319000
12.417200 0.316700
12.457400 0.315000
12.497700 0.314900
12.537900 0.315400
12.578200 0.315800
12.618500 0.310800
12.658700 0.305900
12.699000 0.305000
12.739200 0.305800
12.779500 0.306400
12.819700 0.305900
12.860000 0.329900
12.900200 0.319700
12.940500 0.332800
12.980800 0.292600
13.021000 0.286400
13.061300 0.281100
13.101500 0.277700
13.141800 0.275000
13.182000 0.270200
13.222300 0.263300
13.262500 0.253000
13.302800 0.248200
13.343100 0.243700
13.383300 0.239400
13.423600 0.235900
13.463800 0.233100
13.504100 0.230500
13.544300 0.227700
13.584600 0.224000
13.624800 0.219200
13.665100 0.214200
13.705400 0.210500
13.745600 0.207200
13.785900 0.204200
13.826100 0.201600
13.866400 0.200400
13.906600 0.200600
13.946900 0.200800
13.987100 0.201300
14.027400 0.200900
14.067600 0.200700
14.107900 0.200800
14.148200 0.201200
14.188400 0.201800
14.228700 0.202300
14.268900 0.201800
14.309200 0.199700
14.349400 0.198300
14.389700 0.203500
14.429900 0.211900
14.470200 0.221800
14.510500 0.232600
14.550700 0.244500
14.591000 0.270700
14.631200 0.331600
14.671500 0.383700
14.711700 0.411900
14.752000 0.418200
14.792200 0.440300
14.832500 0.421400
14.872800 0.414500
14.913000 0.406000
14.953300 0.404900
14.993500 0.414300
15.033800 0.441500
15.074000 0.426300
15.114300 0.410400
15.154500 0.411600
15.194800 0.400800
15.235100 0.403600
15.275300 0.401700
15.315600 0.405200
15.355800 0.413100
15.396100 0.423900
15.436300 0.433300
15.476600 0.443300
15.516800 0.451500
15.557100 0.459400
15.597300 0.538400
15.637600 0.480000
15.677900 0.475300
15.718100 0.469200
15.758400 0.461400
15.798600 0.458600
15.838900 0.459200
15.879100 0.456000
15.919400 0.449600
15.959600 0.438800
15.999900 0.427700
16.040200 0.421600
16.080400 0.420300
16.120700 0.421400
16.160900 0.423700
16.201200 0.424900
16.241400 0.422300
16.281700 0.418500
16.321900 0.415600
16.362200 0.431900
16.402500 0.432700
16.442700 0.426300
16.483000 0.426500
16.523200 0.427400
16.563500 0.429100
16.603700 0.428600
16.644000 0.427900
16.684200 0.427900
16.724500 0.428600
16.764700 0.431100
16.805000 0.432400
16.845300 0.434900
16.885500 0.441700
16.925800 0.442800
16.966000 0.443400
17.006300 0.442500
17.046500 0.440700
17.086800 0.440000
17.127000 0.438900
17.167300 0.438600
17.207600 0.442900
17.247800 0.444100
17.288100 0.445000
17.328300 0.444000
17.368600 0.443400
17.408800 0.444300
17.449100 0.446400
17.489300 0.449200
17.529600 0.452300
17.569900 0.455700
17.610100 0.459500
17.650400 0.467700
17.690600 0.474300
17.730900 0.476200
17.771100 0.479700
17.811400 0.484300
17.851600 0.491600
17.891900 0.498900
17.932200 0.497800
17.972400 0.490700
18.012700 0.485300
18.052900 0.484100
18.093200 0.484700
18.133400 0.486400
18.173700 0.489200
18.213900 0.482800
18.254200 0.486200
18.294400 0.488700
18.334700 0.489900
18.375000 0.489900
18.415200 0.488700
18.455500 0.488900
18.495700 0.489900
18.536000 0.499600
18.576200 0.495800
18.616500 0.494800
18.656700 0.495200
18.697000 0.494800
18.737300 0.493200
18.777500 0.490500
18.817800 0.501100
18.858000 0.487600
18.898300 0.485900
18.938500 0.487100
18.978800 0.493100
19.019000 0.483400
19.059300 0.473500
19.099600 0.467200
19.139800 0.463100
19.180100 0.458900
19.220300 0.455500
19.260600 0.452900
19.300800 0.450100
19.341100 0.449400
19.381300 0.450800
19.421600 0.450000
19.461900 0.446000
19.502100 0.443500
19.542400 0.442300
19.582600 0.439900
19.622900 0.436300
19.663100 0.433400
19.703400 0.432500
19.743600 0.434400
19.783900 0.437200
19.824100 0.434600
19.864400 0.432500
19.904700 0.430800
19.944900 0.429800
19.985200 0.432200
20.025400 0.440500
20.065700 0.456800
20.105900 0.420400
20.146200 0.407500
20.186400 0.399200
20.226700 0.395100
20.267000 0.394100
20.307200 0.393400
20.347500 0.393100
20.387700 0.392300
20.428000 0.390700
20.468200 0.389600
20.508500 0.392300
20.548700 0.399500
20.589000 0.402500
20.629300 0.405500
20.669500 0.408600
20.709800 0.409900
20.750000 0.413100
20.790300 0.417100
20.830500 0.430600
20.870800 0.413500
20.911000 0.418800
20.951300 0.425900
20.991600 0.440300
21.031800 0.447200
21.072100 0.446400
21.112300 0.430700
21.152600 0.429500
21.192800 0.426700
21.233100 0.431000
21.273300 0.441500
21.313600 0.443000
21.353800 0.440400
21.394100 0.436300
21.434400 0.445800
21.474600 0.439100
21.514900 0.438900
21.555100 0.439200
21.595400 0.439900
21.635600 0.440800
21.675900 0.442800
21.716100 0.449400
21.756400 0.451600
21.796700 0.448000
21.836900 0.448200
21.877200 0.448300
21.917400 0.447000
21.957700 0.444100
21.997900 0.441800
22.038200 0.444300
22.078400 0.444700
22.118700 0.445900
22.159000 0.446900
22.199200 0.447900
22.239500 0.448600
22.279700 0.448500
22.320000 0.447100
22.360200 0.444600
22.400500 0.443700
22.440700 0.447000
22.481000 0.446400
22.521300 0.445200
22.561500 0.443500
22.601800 0.441700
22.642000 0.439800
22.682300 0.440100
22.722500 0.446700
22.762800 0.446000
22.803000 0.443800
22.843300 0.440700
22.883500 0.439500
22.923800 0.439700
22.964100 0.440500
23.004300 0.441500
23.044600 0.459400
23.084800 0.464400
23.125100 0.457100
23.165300 0.450800
23.205600 0.448300
23.245800 0.445800
23.286100 0.443900
23.326400 0.441900
23.366600 0.440500
23.406900 0.438200
23.447100 0.435600
23.487400 0.438100
23.527600 0.443700
23.567900 0.450400
23.608100 0.455700
23.648400 0.461500
23.688700 0.470300
23.728900 0.470800
23.769200 0.452800
23.809400 0.438700
23.849700 0.429700
23.889900 0.423700
23.930200 0.418800
23.970400 0.412900
24.010700 0.408000
24.051000 0.404100
24.091200 0.401600
24.131500 0.399300
24.171700 0.399300
24.212000 0.405300
24.252200 0.394000
24.292500 0.387500
24.332700 0.388300
24.373000 0.390500
24.413200 0.394700
24.453500 0.399600
24.493800 0.405700
24.534000 0.413500
24.574300 0.420400
24.614500 0.428100
24.654800 0.436800
24.695000 0.441800
24.735300 0.449800
24.775500 0.467400
24.815800 0.483200
24.856100 0.506700
24.896300 0.530100
24.936600 0.537600
24.976800 0.515500
25.017100 0.481300
25.057300 0.469900
25.097600 0.459900
25.137800 0.456900
25.178100 0.455800
25.218400 0.462100
25.258600 0.465800
25.298900 0.476000
25.339100 0.498400
25.379400 0.510200
25.419600 0.535100
25.459900 0.591300
25.500100 0.637400
25.540400 0.685100
25.580600 0.763800
25.620900 0.847800
25.661200 0.828800
25.701400 0.860300
25.741700 0.873000
25.781900 0.859600
25.822200 0.837600
25.862400 0.834000
25.902700 0.841700
25.942900 0.864700
25.983200 0.897700
26.023500 0.940500
26.063700 0.999300
26.104000 1.080000
26.144200 1.199600
26.184500 1.394600
26.224700 1.855700
26.265000 6.334200
26.305200 6.144100
26.345500 6.783200
26.385800 3.579000
26.426000 1.891600
26.466300 1.446400
26.506500 1.248600
26.546800 1.134500
26.587000 1.054600
26.627300 0.995900
26.667500 0.938300
26.707800 0.888400
26.748100 0.843400
26.788300 0.807000
26.828600 0.776300
26.868800 0.756000
26.909100 0.741800
26.949300 0.729700
26.989600 0.723100
27.029800 0.716100
27.070100 0.705100
27.110300 0.691600
27.150600 0.679500
27.190900 0.660700
27.231100 0.643800
27.271400 0.628000
27.311600 0.616800
27.351900 0.603000
27.392100 0.583500
27.432400 0.575700
27.472600 0.565400
27.512900 0.557600
27.553200 0.556000
27.593400 0.556300
27.633700 0.557900
27.673900 0.557800
27.714200 0.546600
27.754400 0.537800
27.794700 0.530900
27.834900 0.528100
27.875200 0.527400
27.915500 0.526100
27.955700 0.524200
27.996000 0.523500
28.036200 0.525100
28.076500 0.531100
28.116700 0.537800
28.157000 0.541000
28.197200 0.541600
28.237500 0.540400
28.277800 0.535400
28.318000 0.535400
28.358300 0.537800
28.398500 0.535300
28.438800 0.532100
28.479000 0.527400
28.519300 0.521300
28.559500 0.517400
28.599800 0.507100
28.640000 0.497300
28.680300 0.485300
28.720600 0.482200
28.760800 0.476700
28.801100 0.467200
28.841300 0.454400
28.881600 0.441600
28.921800 0.432400
28.962100 0.422400
29.002300 0.413400
29.042600 0.404300
29.082900 0.399900
29.123100 0.399100
29.163400 0.398300
29.203600 0.394700
29.243900 0.391600
29.284100 0.390300
29.324400 0.390400
29.364600 0.389700
29.404900 0.389000
29.445200 0.387200
29.485400 0.386900
29.525700 0.393800
29.565900 0.398500
29.606200 0.391500
29.646400 0.384400
29.686700 0.386100
29.726900 0.390300
29.767200 0.397800
29.807500 0.409900
29.847700 0.412800
29.888000 0.401300
29.928200 0.385200
29.968500 0.369000
30.008700 0.339500
30.049000 0.311100
30.089200 0.289400
30.129500 0.275700
30.169700 0.262900
30.210000 0.251800
30.250300 0.244500
30.290500 0.239100
30.330800 0.234900
30.371000 0.231600
30.411300 0.229800
30.451500 0.231800
30.491800 0.234900
30.532000 0.238900
30.572300 0.242100
30.612600 0.245700
30.652800 0.250600
30.693100 0.254400
30.733300 0.256500
30.773600 0.261900
30.813800 0.277800
30.854100 0.297900
30.894300 0.321400
30.934600 0.347900
30.974900 0.381700
31.015100 0.382000
31.055400 0.396700
31.095600 0.421900
31.135900 0.456700
31.176100 0.511600
31.216400 0.542000
31.256600 0.566200
31.296900 0.589600
31.337200 0.567100
31.377400 0.552800
31.417700 0.559600
31.457900 0.570100
31.498200 0.585100
31.538400 0.604500
31.578700 0.618700
31.618900 0.625900
31.659200 0.632400
31.699400 0.616400
31.739700 0.583100
31.780000 0.559900
31.820200 0.599200
31.860500 0.546000
31.900700 0.536000
31.941000 0.546700
31.981200 0.537200
32.021500 0.553900
32.061700 0.573400
32.102000 0.592800
32.142300 0.608100
32.182500 0.632900
32.222800 0.675700
32.263000 0.719800
32.303300 0.747900
32.343500 0.755700
32.383800 0.761500
32.424000 0.755600
32.464300 0.762800
32.504600 0.769900
32.544800 0.772200
32.585100 0.758800
32.625300 0.724000
32.665600 0.706200
32.705800 0.715000
32.746100 0.726900
32.786300 0.746600
32.826600 0.732600
32.866900 0.687200
32.907100 0.659100
32.947400 0.639800
32.987600 0.627800
33.027900 0.618000
33.068100 0.611900
33.108400 0.605500
33.148600 0.596300
33.188900 0.584900
33.229100 0.566900
33.269400 0.542700
33.309700 0.525000
33.349900 0.510600
33.390200 0.499300
33.430400 0.495600
33.470700 0.499000
33.510900 0.496800
33.551200 0.489300
33.591400 0.481200
33.631700 0.482000
33.672000 0.483900
33.712200 0.485700
33.752500 0.519000
33.792700 0.496300
33.833000 0.500500
33.873200 0.506200
33.913500 0.509400
33.953700 0.515200
33.994000 0.523400
34.034300 0.534100
34.074500 0.544800
34.114800 0.550600
34.155000 0.554000
34.195300 0.551700
34.235500 0.545400
34.275800 0.542200
34.316000 0.542000
34.356300 0.540800
34.396500 0.524500
34.436800 0.513100
34.477100 0.503100
34.517300 0.502700
34.557600 0.504900
34.597800 0.509500
34.638100 0.513100
34.678300 0.515700
34.718600 0.535400
34.758800 0.526300
34.799100 0.528900
34.839400 0.537800
34.879600 0.548500
34.919900 0.561000
34.960100 0.574800
35.000400 0.585500
35.040600 0.593700
35.080900 0.597400
35.121100 0.598700
35.161400 0.601000
35.201700 0.607500
35.241900 0.610200
35.282200 0.612300
35.322400 0.609500
35.362700 0.600000
35.402900 0.600500
35.443200 0.602700
35.483400 0.604700
35.523700 0.609500
35.564000 0.618800
35.604200 0.628100
35.644500 0.621200
35.684700 0.624300
