set title 'mp-973461 - Density of States'
set xlabel 'Energy (eV)'
set ylabel 'DOS (states/eV)'
set grid
set xrange [-10:10]
set yrange [0:23.871]
set xzeroaxis lt -1
set terminal png size 800,600
set output 'mp-973461_dos_gnuplot.png'
plot '-' using 1:2 with lines title 'DOS'
-9.627800 0.000000
-9.606700 0.000000
-9.585600 0.000000
-9.564500 0.000000
-9.543500 0.000000
-9.522400 0.000000
-9.501300 0.000000
-9.480200 0.000000
-9.459100 0.000000
-9.438000 0.000000
-9.416900 0.000000
-9.395800 0.000000
-9.374700 0.000000
-9.353600 0.000000
-9.332500 0.000000
-9.311500 0.000000
-9.290400 0.000000
-9.269300 0.000000
-9.248200 0.000000
-9.227100 0.000000
-9.206000 0.000000
-9.184900 0.000000
-9.163800 0.000000
-9.142700 0.000000
-9.121600 0.000000
-9.100600 0.000000
-9.079500 0.000000
-9.058400 0.000000
-9.037300 0.000000
-9.016200 0.000000
-8.995100 0.000000
-8.974000 0.000000
-8.952900 0.000000
-8.931800 0.000000
-8.910700 0.000000
-8.889700 0.000000
-8.868600 0.000000
-8.847500 0.000000
-8.826400 0.000000
-8.805300 0.000000
-8.784200 0.000000
-8.763100 0.000000
-8.742000 0.000000
-8.720900 0.000000
-8.699800 0.000000
-8.678800 0.000000
-8.657700 0.000000
-8.636600 0.000000
-8.615500 0.000000
-8.594400 0.000000
-8.573300 0.000000
-8.552200 0.000000
-8.531100 0.000000
-8.510000 0.000000
-8.488900 0.000000
-8.467800 0.000000
-8.446800 0.000000
-8.425700 0.000000
-8.404600 0.000000
-8.383500 0.000000
-8.362400 0.000000
-8.341300 0.000000
-8.320200 0.000000
-8.299100 0.000000
-8.278000 0.000000
-8.256900 0.000000
-8.235900 0.000000
-8.214800 0.000000
-8.193700 0.000000
-8.172600 0.000000
-8.151500 0.000000
-8.130400 0.000000
-8.109300 0.000000
-8.088200 0.000000
-8.067100 0.000000
-8.046000 0.000000
-8.025000 0.000000
-8.003900 0.000000
-7.982800 0.000000
-7.961700 0.000000
-7.940600 0.000000
-7.919500 0.000000
-7.898400 0.000000
-7.877300 0.000000
-7.856200 0.000000
-7.835100 0.000000
-7.814100 0.000000
-7.793000 0.000000
-7.771900 0.000000
-7.750800 0.000000
-7.729700 0.000000
-7.708600 0.000100
-7.687500 0.018000
-7.666400 0.066300
-7.645300 0.139000
-7.624200 0.184300
-7.603100 0.196200
-7.582100 0.216000
-7.561000 0.240400
-7.539900 0.269100
-7.518800 0.290800
-7.497700 0.318900
-7.476600 0.347900
-7.455500 0.371000
-7.434400 0.385500
-7.413300 0.402400
-7.392200 0.424200
-7.371200 0.446800
-7.350100 0.469300
-7.329000 0.491500
-7.307900 0.513900
-7.286800 0.537600
-7.265700 0.562200
-7.244600 0.589400
-7.223500 0.619300
-7.202400 0.648900
-7.181300 0.676900
-7.160300 0.705500
-7.139200 0.735000
-7.118100 0.770600
-7.097000 0.806200
-7.075900 0.843200
-7.054800 0.881500
-7.033700 0.931300
-7.012600 0.979400
-6.991500 1.029800
-6.970400 1.081600
-6.949300 1.135300
-6.928300 1.193000
-6.907200 1.275300
-6.886100 1.368900
-6.865000 1.481400
-6.843900 1.611100
-6.822800 1.764400
-6.801700 1.943100
-6.780600 2.170400
-6.759500 2.351700
-6.738400 2.538400
-6.717400 2.921200
-6.696300 3.316300
-6.675200 3.758900
-6.654100 4.795100
-6.633000 11.458900
-6.611900 10.006300
-6.590800 8.133800
-6.569700 7.026500
-6.548600 3.970200
-6.527500 2.064300
-6.506500 0.000000
-6.485400 0.000000
-6.464300 0.000000
-6.443200 0.000000
-6.422100 0.000000
-6.401000 0.000000
-6.379900 0.000000
-6.358800 0.000000
-6.337700 0.000000
-6.316600 0.000000
-6.295600 0.000000
-6.274500 0.000000
-6.253400 0.000000
-6.232300 0.000000
-6.211200 0.000000
-6.190100 0.000000
-6.169000 0.000000
-6.147900 0.000000
-6.126800 0.000000
-6.105700 0.000000
-6.084600 0.000000
-6.063600 0.000000
-6.042500 0.000000
-6.021400 0.000000
-6.000300 0.000000
-5.979200 0.000000
-5.958100 0.000000
-5.937000 0.000000
-5.915900 0.000000
-5.894800 0.000000
-5.873700 0.000000
-5.852700 0.000000
-5.831600 0.000000
-5.810500 0.000000
-5.789400 0.000000
-5.768300 0.000000
-5.747200 0.000000
-5.726100 0.000000
-5.705000 0.000000
-5.683900 0.000000
-5.662800 0.000000
-5.641800 0.000000
-5.620700 0.182300
-5.599600 0.330100
-5.578500 0.471700
-5.557400 0.539300
-5.536300 0.644100
-5.515200 0.760100
-5.494100 0.895300
-5.473000 1.031000
-5.451900 1.164600
-5.430900 1.364200
-5.409800 1.560200
-5.388700 1.927900
-5.367600 2.409000
-5.346500 3.993800
-5.325400 6.103300
-5.304300 5.496300
-5.283200 5.583500
-5.262100 5.873300
-5.241000 5.891600
-5.219900 6.549800
-5.198900 7.353300
-5.177800 8.433600
-5.156700 8.792000
-5.135600 10.151700
-5.114500 8.725200
-5.093400 9.903000
-5.072300 10.194500
-5.051200 12.215700
-5.030100 11.976700
-5.009000 13.001300
-4.988000 11.302000
-4.966900 10.321600
-4.945800 10.356500
-4.924700 10.960900
-4.903600 11.890200
-4.882500 12.626700
-4.861400 11.516800
-4.840300 13.353000
-4.819200 14.701600
-4.798100 13.402200
-4.777100 11.757600
-4.756000 13.384700
-4.734900 12.090400
-4.713800 10.034000
-4.692700 12.175900
-4.671600 11.003200
-4.650500 12.085500
-4.629400 14.319600
-4.608300 14.300200
-4.587200 14.154200
-4.566200 13.165400
-4.545100 11.475000
-4.524000 11.568600
-4.502900 15.240800
-4.481800 11.665600
-4.460700 8.248700
-4.439600 7.268800
-4.418500 7.410500
-4.397400 9.148400
-4.376300 10.919800
-4.355200 10.057800
-4.334200 10.006100
-4.313100 10.528200
-4.292000 13.051300
-4.270900 18.917100
-4.249800 10.728200
-4.228700 9.515100
-4.207600 12.012700
-4.186500 12.604200
-4.165400 11.246500
-4.144300 10.626700
-4.123300 9.128300
-4.102200 9.419900
-4.081100 9.250200
-4.060000 10.681200
-4.038900 10.777600
-4.017800 10.775700
-3.996700 10.453100
-3.975600 11.731200
-3.954500 13.840900
-3.933400 12.758000
-3.912400 12.500700
-3.891300 13.491900
-3.870200 13.078600
-3.849100 12.520600
-3.828000 14.313600
-3.806900 17.670000
-3.785800 14.883100
-3.764700 15.308600
-3.743600 13.710400
-3.722500 13.136000
-3.701500 14.177500
-3.680400 18.717900
-3.659300 19.073200
-3.638200 18.148300
-3.617100 14.163000
-3.596000 13.598900
-3.574900 15.175900
-3.553800 17.991300
-3.532700 16.164700
-3.511600 14.905600
-3.490500 20.381500
-3.469500 21.701200
-3.448400 18.642000
-3.427300 15.708400
-3.406200 18.700900
-3.385100 21.433800
-3.364000 16.000500
-3.342900 13.003300
-3.321800 11.494600
-3.300700 10.332600
-3.279600 9.627800
-3.258600 9.776100
-3.237500 9.355700
-3.216400 8.799000
-3.195300 6.619100
-3.174200 6.395200
-3.153100 6.597100
-3.132000 6.888600
-3.110900 7.849400
-3.089800 8.183700
-3.068700 8.613300
-3.047700 6.605500
-3.026600 4.990300
-3.005500 4.829100
-2.984400 12.154000
-2.963300 16.475100
-2.942200 20.570700
-2.921100 15.566900
-2.900000 12.418800
-2.878900 7.927900
-2.857800 6.074500
-2.836800 4.445900
-2.815700 2.552200
-2.794600 1.729500
-2.773500 1.435800
-2.752400 1.310600
-2.731300 1.417000
-2.710200 1.671300
-2.689100 1.313900
-2.668000 0.915300
-2.646900 0.543100
-2.625800 0.442600
-2.604800 0.444100
-2.583700 0.449000
-2.562600 0.454500
-2.541500 0.470900
-2.520400 0.497000
-2.499300 0.527700
-2.478200 0.561500
-2.457100 0.602300
-2.436000 0.663500
-2.414900 0.728900
-2.393900 0.794500
-2.372800 0.891400
-2.351700 1.012500
-2.330600 1.150200
-2.309500 1.317600
-2.288400 1.656400
-2.267300 5.048700
-2.246200 6.922200
-2.225100 13.572300
-2.204000 7.615300
-2.183000 5.415200
-2.161900 4.594800
-2.140800 3.421400
-2.119700 2.932100
-2.098600 2.551900
-2.077500 2.197600
-2.056400 1.881800
-2.035300 1.641000
-2.014200 1.435800
-1.993100 1.226300
-1.972000 1.099700
-1.951000 1.019100
-1.929900 0.957100
-1.908800 0.909800
-1.887700 0.875300
-1.866600 0.838100
-1.845500 0.804700
-1.824400 0.776200
-1.803300 0.751400
-1.782200 0.729900
-1.761100 0.713500
-1.740100 0.695000
-1.719000 0.671300
-1.697900 0.658500
-1.676800 0.653000
-1.655700 0.649300
-1.634600 0.647300
-1.613500 0.647600
-1.592400 0.654000
-1.571300 0.665700
-1.550200 0.675100
-1.529200 0.680800
-1.508100 0.683200
-1.487000 0.682100
-1.465900 0.687900
-1.444800 0.693500
-1.423700 0.703800
-1.402600 0.713500
-1.381500 0.727000
-1.360400 0.739500
-1.339300 0.750900
-1.318300 0.761300
-1.297200 0.770700
-1.276100 0.870400
-1.255000 0.813200
-1.233900 0.790100
-1.212800 0.793200
-1.191700 0.797200
-1.170600 0.804200
-1.149500 0.811300
-1.128400 0.824800
-1.107300 0.840900
-1.086300 0.855100
-1.065200 0.870100
-1.044100 0.895100
-1.023000 0.919800
-1.001900 0.952700
-0.980800 0.972100
-0.959700 0.991500
-0.938600 1.008000
-0.917500 1.001400
-0.896400 0.995500
-0.875400 0.989200
-0.854300 0.982500
-0.833200 0.976100
-0.812100 0.972600
-0.791000 0.976500
-0.769900 0.986500
-0.748800 0.995600
-0.727700 1.003600
-0.706600 1.011800
-0.685500 1.012200
-0.664500 1.024900
-0.643400 1.037500
-0.622300 1.072600
-0.601200 1.118700
-0.580100 1.165100
-0.559000 1.212000
-0.537900 1.232700
-0.516800 1.229900
-0.495700 1.243500
-0.474600 1.293400
-0.453600 1.369900
-0.432500 1.375500
-0.411400 1.387200
-0.390300 1.376800
-0.369200 1.351900
-0.348100 1.311000
-0.327000 1.212500
-0.305900 1.167700
-0.284800 1.125600
-0.263700 1.086200
-0.242600 1.054800
-0.221600 1.027900
-0.200500 1.005800
-0.179400 1.009600
-0.158300 1.011600
-0.137200 0.997300
-0.116100 0.990000
-0.095000 0.987000
-0.073900 0.988600
-0.052800 0.993500
-0.031700 0.992400
-0.010700 0.945700
0.010400 0.939200
0.031500 0.936100
0.052600 0.936400
0.073700 0.938700
0.094800 0.940000
0.115900 0.969700
0.137000 0.963400
0.158100 0.966100
0.179200 0.974700
0.200200 0.989400
0.221300 1.010000
0.242400 1.038500
0.263500 1.093700
0.284600 1.093100
0.305700 1.034600
0.326800 1.008400
0.347900 0.979500
0.369000 0.970400
0.390100 0.967500
0.411100 0.964700
0.432200 0.961900
0.453300 0.959300
0.474400 0.958300
0.495500 0.957900
0.516600 0.958000
0.537700 0.958700
0.558800 0.965400
0.579900 0.977800
0.601000 0.987100
0.622100 1.004800
0.643100 0.990300
0.664200 0.999300
0.685300 1.016800
0.706400 1.049000
0.727500 1.082500
0.748600 1.201200
0.769700 1.095500
0.790800 1.092100
0.811900 1.094900
0.833000 1.092000
0.854000 1.085600
0.875100 1.095000
0.896200 1.110100
0.917300 1.127900
0.938400 1.141700
0.959500 1.156600
0.980600 1.167900
1.001700 1.173500
1.022800 1.183600
1.043900 1.199800
1.064900 1.217100
1.086000 1.236300
1.107100 1.269800
1.128200 1.321600
1.149300 1.372400
1.170400 1.406700
1.191500 1.442500
1.212600 1.479800
1.233700 1.504400
1.254800 1.550100
1.275800 1.602600
1.296900 1.656800
1.318000 1.713600
1.339100 1.780900
1.360200 1.867500
1.381300 1.969800
1.402400 2.090500
1.423500 2.240500
1.444600 2.517200
1.465700 2.729400
1.486800 3.668900
1.507800 3.215300
1.528900 2.965700
1.550000 2.775400
1.571100 2.623800
1.592200 2.490000
1.613300 2.309500
1.634400 2.184800
1.655500 2.049200
1.676600 1.901700
1.697700 1.773200
1.718700 1.670400
1.739800 1.593200
1.760900 1.527500
1.782000 1.527900
1.803100 1.468900
1.824200 1.427600
1.845300 1.355500
1.866400 1.283900
1.887500 1.217600
1.908600 1.213500
1.929600 1.209500
1.950700 1.206000
1.971800 1.242400
1.992900 1.422600
2.014000 1.120200
2.035100 1.115700
2.056200 1.114200
2.077300 1.115300
2.098400 1.118400
2.119500 1.122100
2.140500 1.130100
2.161600 1.144200
2.182700 1.165300
2.203800 1.189400
2.224900 1.206400
2.246000 1.198100
2.267100 1.234500
2.288200 1.278600
2.309300 1.329400
2.330400 1.374600
2.351500 1.432300
2.372500 1.461600
2.393600 1.495900
2.414700 1.546400
2.435800 1.642000
2.456900 1.741100
2.478000 1.849900
2.499100 1.968800
2.520200 2.106300
2.541300 2.228300
2.562400 2.344100
2.583400 2.463500
2.604500 2.963500
2.625600 2.950600
2.646700 2.936400
2.667800 2.907400
2.688900 2.880000
2.710000 2.849800
2.731100 2.904100
2.752200 2.982400
2.773300 2.999900
2.794300 2.809100
2.815400 2.499700
2.836500 2.304300
2.857600 2.159700
2.878700 2.032700
2.899800 1.944700
2.920900 1.901900
2.942000 1.876300
2.963100 1.867800
2.984200 1.867900
3.005200 1.846000
3.026300 1.795000
3.047400 1.769100
3.068500 1.730900
3.089600 1.685700
3.110700 1.642200
3.131800 1.592200
3.152900 1.571400
3.174000 1.577000
3.195100 1.603700
3.216200 1.670900
3.237200 1.798000
3.258300 1.792100
3.279400 1.823400
3.300500 1.823000
3.321600 1.818800
3.342700 1.852500
3.363800 1.658900
3.384900 1.531800
3.406000 1.546100
3.427100 1.564300
3.448100 1.585200
3.469200 1.612700
3.490300 1.630000
3.511400 1.702000
3.532500 1.751900
3.553600 1.806200
3.574700 1.860300
3.595800 1.893800
3.616900 1.948100
3.638000 1.963100
3.659000 1.991600
3.680100 1.987700
3.701200 2.016400
3.722300 2.053900
3.743400 2.103300
3.764500 2.158400
3.785600 2.217900
3.806700 2.281400
3.827800 2.350000
3.848900 2.425300
3.870000 2.511700
3.891000 2.625400
3.912100 2.745300
3.933200 2.884900
3.954300 3.049200
3.975400 3.421800
3.996500 4.014600
4.017600 4.365400
4.038700 4.530400
4.059800 3.880500
4.080900 3.776900
4.101900 3.447800
4.123000 3.250800
4.144100 3.235900
4.165200 3.241200
4.186300 3.295800
4.207400 3.332300
4.228500 3.604900
4.249600 2.986600
4.270700 3.040500
4.291800 3.177400
4.312800 3.375200
4.333900 3.659700
4.355000 4.108000
4.376100 9.146100
4.397200 6.133000
4.418300 4.741600
4.439400 3.557900
4.460500 2.861900
4.481600 2.310600
4.502700 1.776300
4.523700 1.365200
4.544800 1.106000
4.565900 0.906500
4.587000 0.684800
4.608100 0.495100
4.629200 0.386300
4.650300 0.317400
4.671400 0.306200
4.692500 0.318600
4.713600 0.331400
4.734700 0.344500
4.755700 0.357200
4.776800 0.369600
4.797900 0.382300
4.819000 0.398000
4.840100 0.420800
4.861200 0.449900
4.882300 0.486000
4.903400 0.529300
4.924500 0.579900
4.945600 0.638600
4.966600 0.856400
4.987700 0.780600
5.008800 0.610600
5.029900 0.581200
5.051000 0.588100
5.072100 0.611200
5.093200 0.628500
5.114300 0.640000
5.135400 0.669100
5.156500 0.674700
5.177500 0.665200
5.198600 0.674900
5.219700 0.687000
5.240800 0.700800
5.261900 0.713200
5.283000 0.726500
5.304100 0.741000
5.325200 0.756800
5.346300 0.776700
5.367400 0.799100
5.388400 0.822600
5.409500 0.847200
5.430600 0.872900
5.451700 0.899700
5.472800 0.930600
5.493900 0.985100
5.515000 1.026600
5.536100 1.070000
5.557200 1.115200
5.578300 1.163300
5.599400 1.217200
5.620400 1.269400
5.641500 1.319600
5.662600 1.369600
5.683700 1.420500
5.704800 1.495200
5.725900 1.506900
5.747000 1.486300
5.768100 1.481600
5.789200 1.447600
5.810300 1.421000
5.831300 1.384100
5.852400 1.341700
5.873500 1.313900
5.894600 1.297200
5.915700 1.295400
5.936800 1.281700
5.957900 1.286100
5.979000 1.367800
6.000100 1.399200
6.021200 1.325000
6.042200 1.264000
6.063300 1.216900
6.084400 1.180100
6.105500 1.154000
6.126600 1.134000
6.147700 1.112900
6.168800 1.092000
6.189900 1.075300
6.211000 1.074200
6.232100 1.085400
6.253100 1.167900
6.274200 1.218500
6.295300 1.283400
6.316400 1.409400
6.337500 1.301400
6.358600 1.190500
6.379700 1.150300
6.400800 1.110600
6.421900 1.071200
6.443000 1.031800
6.464100 0.992400
6.485100 0.954900
6.506200 0.944200
6.527300 0.910500
6.548400 0.849000
6.569500 0.863900
6.590600 0.917400
6.611700 1.009300
6.632800 0.949800
6.653900 0.945600
6.675000 0.919000
6.696000 0.933500
6.717100 0.958500
6.738200 0.986800
6.759300 1.021300
6.780400 1.073500
6.801500 1.156900
6.822600 1.193900
6.843700 1.256100
6.864800 1.326600
6.885900 1.397600
6.906900 1.480000
6.928000 1.598800
6.949100 1.670200
6.970200 1.735200
6.991300 1.794000
7.012400 1.852800
7.033500 1.910500
7.054600 1.966800
7.075700 2.022000
7.096800 2.074300
7.117800 2.146300
7.138900 2.252500
7.160000 2.371200
7.181100 2.459700
7.202200 2.544300
7.223300 2.610500
7.244400 2.695400
7.265500 2.816200
7.286600 2.896700
7.307700 2.537200
7.328800 2.285800
7.349800 2.128800
7.370900 1.996600
7.392000 1.905200
7.413100 1.767700
7.434200 1.700200
7.455300 1.621800
7.476400 1.631700
7.497500 1.585000
7.518600 1.496700
7.539700 1.409800
7.560700 1.331700
7.581800 1.308400
7.602900 1.236100
7.624000 1.166800
7.645100 1.107300
7.666200 1.008700
7.687300 0.968300
7.708400 0.930600
7.729500 0.903000
7.750600 0.889000
7.771600 0.892600
7.792700 0.933800
7.813800 1.021400
7.834900 1.216000
7.856000 1.805800
7.877100 2.675100
7.898200 3.356500
7.919300 3.777500
7.940400 3.640900
7.961500 3.451500
7.982500 3.015400
8.003600 2.955900
8.024700 2.952700
8.045800 2.729100
8.066900 2.351500
8.088000 2.172600
8.109100 2.073800
8.130200 2.002200
8.151300 1.942000
8.172400 1.864200
8.193500 1.791300
8.214500 1.722900
8.235600 1.680100
8.256700 1.595500
8.277800 1.553700
8.298900 1.523000
8.320000 1.492400
8.341100 1.473200
8.362200 1.457200
8.383300 1.445500
8.404400 1.442000
8.425400 1.454200
8.446500 1.479700
8.467600 1.514500
8.488700 1.529000
8.509800 1.512500
8.530900 1.504500
8.552000 1.479700
8.573100 1.470800
8.594200 1.475300
8.615300 1.502100
8.636300 1.549700
8.657400 1.592200
8.678500 1.618500
8.699600 1.569700
8.720700 1.561000
8.741800 1.553700
8.762900 1.547900
8.784000 1.544300
8.805100 1.542700
8.826200 1.545100
8.847300 1.549700
8.868300 1.562200
8.889400 1.581900
8.910500 1.612500
8.931600 1.647600
8.952700 1.695500
8.973800 1.758500
8.994900 1.801600
9.016000 1.753200
9.037100 1.811200
9.058200 1.876100
9.079200 1.911800
9.100300 1.937000
9.121400 1.947400
9.142500 1.953400
9.163600 1.950200
9.184700 1.911700
9.205800 1.877900
9.226900 1.959200
9.248000 1.849900
9.269100 1.729300
9.290100 1.667200
9.311200 1.638800
9.332300 1.608400
9.353400 1.582000
9.374500 1.554400
9.395600 1.524700
9.416700 1.516000
9.437800 1.487100
9.458900 1.449600
9.480000 1.417500
9.501000 1.405900
9.522100 1.389700
9.543200 1.371000
9.564300 1.356000
9.585400 1.341700
9.606500 1.323300
9.627600 1.311000
9.648700 1.286600
9.669800 1.266800
9.690900 1.262900
9.712000 1.268000
9.733000 1.281000
9.754100 1.300100
9.775200 1.321800
9.796300 1.345600
9.817400 1.375900
9.838500 1.410700
9.859600 1.441300
9.880700 1.535900
9.901800 1.366300
9.922900 1.360600
9.943900 1.352900
9.965000 1.339700
9.986100 1.316800
10.007200 1.292000
10.028300 1.279600
10.049400 1.279800
10.070500 1.236700
10.091600 1.190600
10.112700 1.151500
10.133800 1.116700
10.154800 1.086000
10.175900 1.058600
10.197000 1.048200
10.218100 1.053400
10.239200 1.051900
10.260300 1.056600
10.281400 1.071200
10.302500 1.093700
10.323600 1.136100
10.344700 1.178700
10.365700 1.196000
10.386800 1.199200
10.407900 1.215300
10.429000 1.223400
10.450100 1.230300
10.471200 1.237200
10.492300 1.244700
10.513400 1.252800
10.534500 1.261800
10.555600 1.281400
10.576700 1.282300
10.597700 1.283300
10.618800 1.284200
10.639900 1.284300
10.661000 1.274700
10.682100 1.260700
10.703200 1.251100
10.724300 1.248100
10.745400 1.254600
10.766500 1.270300
10.787600 1.293500
10.808600 1.319400
10.829700 1.342900
10.850800 1.368200
10.871900 1.396300
10.893000 1.425500
10.914100 1.457100
10.935200 1.491100
10.956300 1.488700
10.977400 1.474600
10.998500 1.462900
11.019500 1.459800
11.040600 1.469900
11.061700 1.489300
11.082800 1.513600
11.103900 1.517300
11.125000 1.502700
11.146100 1.467000
11.167200 1.465800
11.188300 1.464300
11.209400 1.463400
11.230400 1.465900
11.251500 1.472100
11.272600 1.486000
11.293700 1.502200
11.314800 1.518400
11.335900 1.541700
11.357000 1.570300
11.378100 1.585600
11.399200 1.595100
11.420300 1.595400
11.441400 1.612100
11.462400 1.630700
11.483500 1.650300
11.504600 1.659200
11.525700 1.664800
11.546800 1.669100
11.567900 1.672200
11.589000 1.679500
11.610100 1.687400
11.631200 1.678700
11.652300 1.679600
11.673300 1.684500
11.694400 1.678600
11.715500 1.762400
11.736600 1.793900
11.757700 1.752000
11.778800 1.717100
11.799900 1.731400
11.821000 1.808300
11.842100 1.784000
11.863200 1.764300
11.884200 1.813200
11.905300 1.907300
11.926400 1.974400
11.947500 2.014100
11.968600 2.029300
11.989700 2.022600
12.010800 2.023100
12.031900 2.024700
12.053000 2.026000
12.074100 2.047900
12.095100 2.031500
12.116200 1.966300
12.137300 2.003000
12.158400 2.182200
12.179500 2.172100
12.200600 2.140200
12.221700 2.103300
12.242800 2.079900
12.263900 2.060600
12.285000 2.269400
12.306100 2.210600
12.327100 2.114000
12.348200 2.021100
12.369300 1.954400
12.390400 1.912700
12.411500 1.845600
12.432600 1.774800
12.453700 1.708000
12.474800 1.644900
12.495900 1.601600
12.517000 1.573200
12.538000 1.558800
12.559100 1.552000
12.580200 1.551600
12.601300 1.566000
12.622400 1.622000
12.643500 1.766200
12.664600 2.017200
