set title 'mp-988 - Density of States'
set xlabel 'Energy (eV)'
set ylabel 'DOS (states/eV)'
set grid
set xrange [-10:10]
set yrange [0:28.497]
set xzeroaxis lt -1
set terminal png size 800,600
set output 'mp-988_dos_gnuplot.png'
plot '-' using 1:2 with lines title 'DOS'
-14.175000 0.000000
-14.145800 0.000000
-14.116600 0.000000
-14.087500 0.000000
-14.058300 0.000000
-14.029100 0.000000
-13.999900 0.000000
-13.970700 0.000000
-13.941500 0.000000
-13.912300 0.000000
-13.883100 0.000000
-13.853900 0.000000
-13.824700 0.000000
-13.795500 0.000000
-13.766300 0.000000
-13.737100 0.000000
-13.707900 0.000000
-13.678700 0.000000
-13.649500 0.000000
-13.620300 0.000000
-13.591200 0.000000
-13.562000 0.000000
-13.532800 0.000000
-13.503600 0.000000
-13.474400 0.000000
-13.445200 0.000000
-13.416000 0.000000
-13.386800 0.000000
-13.357600 0.000000
-13.328400 0.000000
-13.299200 0.000000
-13.270000 0.000000
-13.240800 0.000000
-13.211600 0.000000
-13.182400 0.000000
-13.153200 0.000000
-13.124000 0.000000
-13.094900 0.000000
-13.065700 0.000000
-13.036500 0.000000
-13.007300 0.000000
-12.978100 0.000000
-12.948900 0.000000
-12.919700 0.000000
-12.890500 0.000000
-12.861300 0.000000
-12.832100 0.000000
-12.802900 0.000000
-12.773700 0.000000
-12.744500 0.000000
-12.715300 0.000000
-12.686100 0.000000
-12.656900 0.000000
-12.627700 0.000000
-12.598600 0.000000
-12.569400 0.000000
-12.540200 0.000000
-12.511000 0.000000
-12.481800 0.000000
-12.452600 0.000000
-12.423400 0.000000
-12.394200 0.000000
-12.365000 0.000000
-12.335800 0.000000
-12.306600 0.000000
-12.277400 0.000000
-12.248200 0.000000
-12.219000 0.000000
-12.189800 0.000000
-12.160600 0.000000
-12.131400 0.000000
-12.102300 0.000000
-12.073100 0.000000
-12.043900 0.000000
-12.014700 0.000000
-11.985500 0.000000
-11.956300 0.000000
-11.927100 0.000000
-11.897900 0.000000
-11.868700 0.000000
-11.839500 0.000000
-11.810300 0.000000
-11.781100 0.000000
-11.751900 0.000000
-11.722700 0.000000
-11.693500 0.000000
-11.664300 0.000000
-11.635100 0.000000
-11.606000 0.000000
-11.576800 0.000000
-11.547600 0.000000
-11.518400 0.000100
-11.489200 0.021400
-11.460000 0.078700
-11.430800 0.172000
-11.401600 0.301200
-11.372400 0.454100
-11.343200 0.620100
-11.314000 0.799100
-11.284800 0.997700
-11.255600 1.208600
-11.226400 1.370400
-11.197200 1.483000
-11.168000 1.542100
-11.138800 1.556000
-11.109700 1.560900
-11.080500 1.556800
-11.051300 1.543500
-11.022100 1.518100
-10.992900 1.478900
-10.963700 1.425900
-10.934500 1.359100
-10.905300 1.278600
-10.876100 1.195100
-10.846900 1.170400
-10.817700 1.218500
-10.788500 1.338000
-10.759300 1.514500
-10.730100 1.715900
-10.700900 1.942400
-10.671700 2.206600
-10.642500 2.510600
-10.613400 2.754800
-10.584200 2.704800
-10.555000 2.621400
-10.525800 2.503400
-10.496600 2.468700
-10.467400 2.571000
-10.438200 2.675900
-10.409000 2.776500
-10.379800 2.872500
-10.350600 2.963800
-10.321400 3.050400
-10.292200 3.129500
-10.263000 3.202900
-10.233800 3.274400
-10.204600 3.514100
-10.175400 3.673200
-10.146200 3.716400
-10.117100 3.602300
-10.087900 3.253000
-10.058700 2.968600
-10.029500 2.776700
-10.000300 2.677200
-9.971100 2.640700
-9.941900 2.605000
-9.912700 2.566400
-9.883500 2.525000
-9.854300 2.480700
-9.825100 2.433500
-9.795900 2.874700
-9.766700 3.317200
-9.737500 3.736100
-9.708300 3.892500
-9.679100 3.955800
-9.649900 4.011300
-9.620800 4.057400
-9.591600 4.087000
-9.562400 4.100000
-9.533200 4.096500
-9.504000 4.076400
-9.474800 4.039800
-9.445600 3.968600
-9.416400 3.880400
-9.387200 3.795000
-9.358000 3.731100
-9.328800 3.692000
-9.299600 3.701700
-9.270400 3.829000
-9.241200 4.105000
-9.212000 4.519800
-9.182800 5.028900
-9.153600 5.724300
-9.124500 7.468200
-9.095300 7.911000
-9.066100 5.954100
-9.036900 5.696300
-9.007700 5.472700
-8.978500 4.915900
-8.949300 4.328700
-8.920100 4.201300
-8.890900 4.174300
-8.861700 4.147200
-8.832500 4.125500
-8.803300 4.121800
-8.774100 4.201200
-8.744900 4.260300
-8.715700 4.198300
-8.686500 4.412700
-8.657300 4.582600
-8.628200 4.703900
-8.599000 4.832700
-8.569800 4.985500
-8.540600 5.974400
-8.511400 6.876600
-8.482200 7.385200
-8.453000 6.785900
-8.423800 7.069600
-8.394600 10.439400
-8.365400 9.762800
-8.336200 8.482000
-8.307000 6.366000
-8.277800 3.639900
-8.248600 3.500500
-8.219400 3.362000
-8.190200 3.224500
-8.161000 3.087900
-8.131900 3.957500
-8.102700 5.386900
-8.073500 8.231300
-8.044300 8.808200
-8.015100 5.911500
-7.985900 9.575600
-7.956700 11.000600
-7.927500 25.906400
-7.898300 18.607200
-7.869100 16.346000
-7.839900 14.110400
-7.810700 23.877300
-7.781500 3.450900
-7.752300 0.000000
-7.723100 0.000000
-7.693900 0.000000
-7.664700 0.000000
-7.635600 0.000000
-7.606400 0.000000
-7.577200 0.000000
-7.548000 0.000000
-7.518800 0.000000
-7.489600 0.000000
-7.460400 0.000000
-7.431200 0.000000
-7.402000 0.000000
-7.372800 0.000000
-7.343600 0.000000
-7.314400 0.000000
-7.285200 0.000000
-7.256000 0.000000
-7.226800 0.000000
-7.197600 0.000000
-7.168400 0.000000
-7.139300 0.000000
-7.110100 0.000000
-7.080900 0.000000
-7.051700 0.000000
-7.022500 0.000000
-6.993300 0.000000
-6.964100 0.000000
-6.934900 0.000000
-6.905700 0.000000
-6.876500 0.000000
-6.847300 0.000000
-6.818100 0.000000
-6.788900 0.000000
-6.759700 0.000000
-6.730500 0.000000
-6.701300 0.000000
-6.672100 0.000000
-6.643000 0.000000
-6.613800 0.000000
-6.584600 0.000000
-6.555400 0.000000
-6.526200 0.000000
-6.497000 0.000000
-6.467800 0.000000
-6.438600 0.000000
-6.409400 0.000000
-6.380200 0.000000
-6.351000 0.000000
-6.321800 0.000000
-6.292600 0.000000
-6.263400 0.000000
-6.234200 0.000000
-6.205000 0.000000
-6.175800 0.000000
-6.146700 0.000000
-6.117500 0.000000
-6.088300 0.000000
-6.059100 0.000000
-6.029900 0.000000
-6.000700 0.000000
-5.971500 0.000000
-5.942300 0.000000
-5.913100 0.000000
-5.883900 0.000000
-5.854700 0.000000
-5.825500 0.000000
-5.796300 0.000000
-5.767100 0.000000
-5.737900 0.000000
-5.708700 0.000000
-5.679500 0.000000
-5.650400 0.000000
-5.621200 0.000000
-5.592000 0.000000
-5.562800 0.000000
-5.533600 0.000000
-5.504400 0.000000
-5.475200 0.000000
-5.446000 0.000000
-5.416800 0.000000
-5.387600 0.000000
-5.358400 0.000000
-5.329200 0.000000
-5.300000 0.000000
-5.270800 0.000000
-5.241600 0.000000
-5.212400 0.000000
-5.183200 0.000000
-5.154100 0.000000
-5.124900 0.000000
-5.095700 0.000000
-5.066500 0.000000
-5.037300 0.000000
-5.008100 0.000000
-4.978900 0.000000
-4.949700 0.000000
-4.920500 0.000000
-4.891300 0.000000
-4.862100 0.000000
-4.832900 0.000000
-4.803700 0.000000
-4.774500 0.000000
-4.745300 0.000000
-4.716100 0.000000
-4.686900 0.000000
-4.657800 0.000000
-4.628600 0.000000
-4.599400 0.000000
-4.570200 0.000000
-4.541000 0.000000
-4.511800 0.000000
-4.482600 0.000000
-4.453400 0.000000
-4.424200 0.000000
-4.395000 0.000000
-4.365800 0.000000
-4.336600 0.000000
-4.307400 0.000000
-4.278200 0.000000
-4.249000 0.000000
-4.219800 0.000000
-4.190600 0.000000
-4.161500 0.000000
-4.132300 0.000000
-4.103100 0.000000
-4.073900 0.000000
-4.044700 0.000000
-4.015500 0.000000
-3.986300 0.000000
-3.957100 0.000000
-3.927900 0.000000
-3.898700 0.000000
-3.869500 0.000000
-3.840300 0.000000
-3.811100 0.000000
-3.781900 0.000000
-3.752700 0.000000
-3.723500 0.000000
-3.694300 0.000000
-3.665200 0.000000
-3.636000 0.000000
-3.606800 0.000000
-3.577600 0.000000
-3.548400 0.000000
-3.519200 0.000000
-3.490000 0.000000
-3.460800 0.000000
-3.431600 0.000000
-3.402400 0.000000
-3.373200 0.000000
-3.344000 0.000000
-3.314800 0.000000
-3.285600 0.000000
-3.256400 0.000000
-3.227200 0.000000
-3.198000 0.000000
-3.168900 0.000000
-3.139700 0.002400
-3.110500 0.028100
-3.081300 0.082100
-3.052100 0.164500
-3.022900 0.270500
-2.993700 0.388800
-2.964500 0.518900
-2.935300 0.660600
-2.906100 0.814200
-2.876900 0.979400
-2.847700 1.156500
-2.818500 1.345200
-2.789300 1.545800
-2.760100 1.758000
-2.730900 1.620900
-2.701700 1.460900
-2.672600 1.292300
-2.643400 1.263900
-2.614200 1.463600
-2.585000 4.711700
-2.555800 7.807500
-2.526600 5.635200
-2.497400 5.206900
-2.468200 5.052800
-2.439000 4.913900
-2.409800 4.953500
-2.380600 4.933800
-2.351400 4.885500
-2.322200 4.831100
-2.293000 4.886400
-2.263800 4.445700
-2.234600 4.252300
-2.205400 4.160700
-2.176300 4.270800
-2.147100 4.400700
-2.117900 4.505000
-2.088700 4.533100
-2.059500 4.473600
-2.030300 4.326600
-2.001100 4.046500
-1.971900 4.232900
-1.942700 5.918900
-1.913500 7.934100
-1.884300 7.018500
-1.855100 6.125600
-1.825900 5.264000
-1.796700 4.439700
-1.767500 3.652700
-1.738300 2.944500
-1.709100 2.469800
-1.680000 2.209000
-1.650800 2.106000
-1.621600 2.160700
-1.592400 2.266500
-1.563200 2.402400
-1.534000 2.568600
-1.504800 2.774800
-1.475600 3.031800
-1.446400 3.358800
-1.417200 3.710900
-1.388000 4.152400
-1.358800 4.884400
-1.329600 6.099100
-1.300400 9.347000
-1.271200 6.529000
-1.242000 5.672100
-1.212800 5.427700
-1.183700 5.087400
-1.154500 4.723100
-1.125300 4.333500
-1.096100 2.168700
-1.066900 2.133900
-1.037700 2.095700
-1.008500 2.054300
-0.979300 2.013600
-0.950100 1.984100
-0.920900 1.966500
-0.891700 1.960600
-0.862500 1.966500
-0.833300 1.983400
-0.804100 2.027300
-0.774900 2.109200
-0.745700 2.189000
-0.716500 2.244400
-0.687400 2.283500
-0.658200 2.269000
-0.629000 2.497700
-0.599800 2.941700
-0.570600 3.388500
-0.541400 3.838200
-0.512200 4.104800
-0.483000 4.095500
-0.453800 3.869200
-0.424600 3.654100
-0.395400 3.633700
-0.366200 3.823500
-0.337000 4.064300
-0.307800 4.259100
-0.278600 4.407700
-0.249400 4.510300
-0.220200 4.569200
-0.191100 4.593200
-0.161900 6.322600
-0.132700 7.992700
-0.103500 4.692000
-0.074300 2.884400
-0.045100 2.729000
-0.015900 2.839800
0.013300 2.936400
0.042500 3.010400
0.071700 3.070300
0.100900 3.156500
0.130100 3.224000
0.159300 3.356600
0.188500 3.653800
0.217700 4.115600
0.246900 4.741900
0.276100 5.540800
0.305200 6.606700
0.334400 5.710900
0.363600 4.745700
0.392800 4.548900
0.422000 4.593200
0.451200 4.654200
0.480400 4.724100
0.509600 4.802800
0.538800 4.888000
0.568000 4.978400
0.597200 5.074100
0.626400 5.175100
0.655600 5.282300
0.684800 5.089400
0.714000 5.189900
0.743200 5.136300
0.772400 5.051900
0.801500 4.940300
0.830700 5.252100
0.859900 6.654000
0.889100 7.315500
0.918300 7.381300
0.947500 6.423400
0.976700 5.715100
1.005900 5.256200
1.035100 5.008700
1.064300 4.982200
1.093500 5.927100
1.122700 6.925900
1.151900 5.459600
1.181100 5.134000
1.210300 4.872200
1.239500 5.035200
1.268700 5.581300
1.297800 5.861200
1.327000 5.999800
1.356200 6.261200
1.385400 6.417600
1.414600 6.470000
1.443800 6.415200
1.473000 6.754900
1.502200 7.356000
1.531400 7.968100
1.560600 9.421000
1.589800 11.813400
1.619000 9.668800
1.648200 9.296800
1.677400 9.278900
1.706600 9.010100
1.735800 8.566700
1.765000 8.298500
1.794100 8.257800
1.823300 15.384800
1.852500 10.424200
1.881700 9.580800
1.910900 9.201200
1.940100 9.109800
1.969300 9.542900
1.998500 11.033000
2.027700 12.558600
2.056900 9.922500
2.086100 6.790000
2.115300 5.689900
2.144500 5.059300
2.173700 4.873300
2.202900 5.086300
2.232100 5.731100
2.261300 6.706500
2.290400 7.935300
2.319600 9.427900
2.348800 8.798400
2.378000 7.961700
2.407200 7.412900
2.436400 7.269200
2.465600 7.050500
2.494800 6.130200
2.524000 5.400200
2.553200 5.109900
2.582400 4.869000
2.611600 4.600600
2.640800 4.427500
2.670000 4.613200
2.699200 4.976900
2.728400 5.048000
2.757600 4.951000
2.786700 4.674400
2.815900 4.207900
2.845100 4.168400
2.874300 4.126100
2.903500 4.081000
2.932700 4.033100
2.961900 4.030900
2.991100 4.359400
3.020300 5.253100
3.049500 4.842300
3.078700 5.764000
3.107900 5.959000
3.137100 6.046100
3.166300 6.950000
3.195500 7.794000
3.224700 8.318500
3.253900 7.260200
3.283000 6.219600
3.312200 6.036800
3.341400 5.543800
3.370600 3.809100
3.399800 4.902200
3.429000 4.248200
3.458200 4.320900
3.487400 4.429100
3.516600 4.568800
3.545800 4.738200
3.575000 4.927200
3.604200 5.125200
3.633400 7.023900
3.662600 8.254100
3.691800 9.026400
3.721000 8.604900
3.750200 9.937500
3.779300 6.228500
3.808500 4.060700
3.837700 2.638600
3.866900 2.275100
3.896100 2.219600
3.925300 2.091300
3.954500 1.890100
3.983700 1.778100
4.012900 1.828900
4.042100 1.928300
4.071300 2.027500
4.100500 2.126400
4.129700 2.225200
4.158900 2.323800
4.188100 2.422200
4.217300 2.524000
4.246500 2.631400
4.275600 2.550100
4.304800 2.310800
4.334000 2.048400
4.363200 1.489000
4.392400 1.523400
4.421600 1.569600
4.450800 1.639400
4.480000 1.978500
4.509200 2.684000
4.538400 4.250100
4.567600 5.981600
4.596800 7.307500
4.626000 8.345800
4.655200 9.323800
4.684400 7.932700
4.713600 9.876600
4.742800 12.578500
4.771900 14.905400
4.801100 8.479700
4.830300 7.101800
4.859500 6.860300
4.888700 7.111900
4.917900 13.536200
4.947100 16.085500
4.976300 9.525800
5.005500 7.672500
5.034700 6.608900
5.063900 6.463000
5.093100 6.468600
5.122300 6.229800
5.151500 6.187100
5.180700 6.667300
5.209900 7.755800
5.239100 12.673300
5.268200 15.108500
5.297400 10.436100
5.326600 6.926500
5.355800 5.073800
5.385000 5.687200
5.414200 6.462900
5.443400 7.331200
5.472600 8.073400
5.501800 7.201600
5.531000 6.046400
5.560200 5.323900
5.589400 4.976300
5.618600 4.674500
5.647800 4.418100
5.677000 4.207300
5.706200 4.173100
5.735400 4.105400
5.764500 3.987200
5.793700 3.868700
5.822900 3.723500
5.852100 3.674600
5.881300 3.625400
5.910500 3.575500
5.939700 3.610100
5.968900 3.668400
5.998100 3.709700
6.027300 3.734000
6.056500 3.775900
6.085700 3.917300
6.114900 4.139700
6.144100 4.417100
6.173300 4.642100
6.202500 4.223900
6.231700 3.499700
6.260800 3.689700
6.290000 4.175900
6.319200 3.245200
6.348400 1.712100
6.377600 1.188800
6.406800 0.829200
6.436000 0.533500
6.465200 0.301700
6.494400 0.133600
6.523600 0.030200
6.552800 0.000000
6.582000 0.000000
6.611200 0.000000
6.640400 0.000000
6.669600 0.000000
6.698800 0.000000
6.728000 0.000000
6.757100 0.000000
6.786300 0.000000
6.815500 0.000000
6.844700 0.000000
6.873900 0.000000
6.903100 0.000000
6.932300 0.000000
6.961500 0.000000
6.990700 0.000000
7.019900 0.000000
7.049100 0.000000
7.078300 0.000000
7.107500 0.000000
7.136700 0.000000
7.165900 0.000000
7.195100 0.000000
7.224300 0.000000
7.253400 0.000000
7.282600 0.000000
7.311800 0.000000
7.341000 0.000000
7.370200 0.000000
7.399400 0.000000
7.428600 0.000000
7.457800 0.000000
7.487000 0.000000
7.516200 0.000000
7.545400 0.000000
7.574600 0.000000
7.603800 0.000000
7.633000 0.000000
7.662200 0.000000
7.691400 0.000000
7.720600 0.000000
7.749700 0.000000
7.778900 0.000000
7.808100 0.000000
7.837300 0.000000
7.866500 0.000000
7.895700 0.000000
7.924900 0.000000
7.954100 0.000000
7.983300 0.000000
8.012500 0.000000
8.041700 0.000000
8.070900 0.000000
8.100100 0.000000
8.129300 0.000000
8.158500 0.000000
8.187700 0.000000
8.216900 0.000000
8.246000 0.000000
8.275200 0.000000
8.304400 0.000000
8.333600 0.000000
8.362800 0.000000
8.392000 0.000000
8.421200 0.000000
8.450400 0.000000
8.479600 0.000000
8.508800 0.000000
8.538000 0.000000
8.567200 0.000000
8.596400 0.000000
8.625600 0.000000
8.654800 0.000000
8.684000 0.000000
8.713200 0.000000
8.742300 0.000000
8.771500 0.000000
8.800700 0.000000
8.829900 0.000000
8.859100 0.000000
8.888300 0.000000
8.917500 0.000000
8.946700 0.000000
8.975900 0.000000
9.005100 0.000000
9.034300 0.000000
9.063500 0.000000
9.092700 0.000000
9.121900 0.000000
9.151100 0.000000
9.180300 0.000000
9.209500 0.000000
9.238600 0.000000
9.267800 0.000000
9.297000 0.000000
9.326200 0.000000
9.355400 0.000000
9.384600 0.000000
9.413800 0.000000
9.443000 0.000000
9.472200 0.000000
9.501400 0.000000
9.530600 0.000000
9.559800 0.000000
9.589000 0.000000
9.618200 0.000000
9.647400 0.000000
9.676600 0.000000
9.705800 0.000000
9.734900 0.000000
9.764100 0.000000
9.793300 0.000000
9.822500 0.000000
9.851700 0.000000
9.880900 0.000000
9.910100 0.000000
9.939300 0.000000
9.968500 0.000000
9.997700 0.000000
10.026900 0.000000
10.056100 0.000000
10.085300 0.000000
10.114500 0.000000
10.143700 0.000000
10.172900 0.000000
10.202100 0.000000
10.231200 0.000000
10.260400 0.000000
10.289600 0.000000
10.318800 0.000000
10.348000 0.000000
10.377200 0.000000
10.406400 0.000000
10.435600 0.000000
10.464800 0.000000
10.494000 0.000000
10.523200 0.000000
10.552400 0.000000
10.581600 0.000000
10.610800 0.000000
10.640000 0.000000
10.669200 0.000000
10.698400 0.000000
10.727500 0.000000
10.756700 0.000000
10.785900 0.000000
10.815100 0.000300
10.844300 0.005500
10.873500 0.017500
10.902700 0.036300
10.931900 0.061900
10.961100 0.094300
10.990300 0.133400
11.019500 0.179300
11.048700 0.306200
11.077900 0.482200
11.107100 0.604700
11.136300 0.673600
11.165500 1.063600
11.194700 1.187600
11.223800 6.487200
11.253000 3.967200
11.282200 4.099600
11.311400 4.175400
11.340600 4.297200
11.369800 4.706700
11.399000 4.881100
11.428200 4.843800
11.457400 4.783900
11.486600 4.711800
11.515800 4.690000
11.545000 4.729200
11.574200 5.139100
11.603400 5.177400
11.632600 5.508500
11.661800 5.685400
11.691000 5.790300
11.720100 5.941000
11.749300 6.139400
11.778500 6.323700
11.807700 7.893500
11.836900 8.760400
11.866100 9.107300
11.895300 8.736600
11.924500 7.749200
11.953700 7.450300
11.982900 7.220700
12.012100 7.623100
12.041300 7.216400
12.070500 7.022000
12.099700 6.920600
12.128900 6.913400
12.158100 7.013000
12.187300 7.071300
12.216400 6.673600
12.245600 6.155600
12.274800 5.771700
12.304000 5.411200
12.333200 5.090700
12.362400 4.875900
12.391600 4.749700
12.420800 4.699300
12.450000 4.712900
12.479200 4.547600
12.508400 4.582000
12.537600 4.572800
12.566800 4.530000
12.596000 4.423500
12.625200 4.407100
12.654400 4.737500
12.683600 5.354200
12.712700 6.782300
12.741900 7.704900
12.771100 7.798700
12.800300 7.842500
12.829500 7.867300
12.858700 7.340100
12.887900 5.386700
12.917100 4.880700
12.946300 4.843700
12.975500 5.417900
13.004700 6.021400
13.033900 6.531600
13.063100 6.819900
13.092300 5.854900
13.121500 5.592900
13.150700 5.346100
13.179900 5.106800
13.209000 5.005500
13.238200 4.967400
13.267400 4.995700
13.296600 5.091800
13.325800 5.256000
13.355000 5.300400
13.384200 5.459300
13.413400 5.847700
13.442600 6.431100
13.471800 7.270900
13.501000 8.141000
13.530200 8.464000
13.559400 8.546400
13.588600 8.440800
13.617800 8.098500
13.647000 8.181700
13.676200 8.823100
13.705300 8.866900
13.734500 6.846700
13.763700 6.511800
13.792900 6.557900
13.822100 6.540000
13.851300 6.466000
13.880500 8.220300
13.909700 9.193700
13.938900 6.863000
13.968100 6.347700
13.997300 6.446000
14.026500 7.114200
14.055700 7.972800
14.084900 9.085300
14.114100 8.932200
14.143300 7.502500
14.172500 6.288400
14.201600 5.388400
14.230800 4.802400
14.260000 4.588600
14.289200 4.490400
14.318400 4.669200
14.347600 18.215500
14.376800 11.979300
14.406000 8.743300
14.435200 5.256700
14.464400 4.300200
14.493600 4.655400
14.522800 4.848400
14.552000 5.018400
14.581200 5.165400
14.610400 5.288900
14.639600 5.757600
14.668800 7.233100
14.697900 7.465800
14.727100 7.564900
14.756300 6.372800
14.785500 5.389700
14.814700 4.687200
14.843900 4.154600
14.873100 3.504000
14.902300 2.792200
14.931500 2.106500
14.960700 1.329100
14.989900 1.391000
15.019100 2.632100
15.048300 3.385600
15.077500 4.110700
15.106700 5.537600
15.135900 5.529600
15.165100 5.523000
15.194200 5.510900
15.223400 5.140000
15.252600 5.104400
15.281800 5.070900
15.311000 5.084500
15.340200 5.350500
15.369400 5.628900
15.398600 6.318500
15.427800 6.981200
15.457000 7.401700
15.486200 7.387000
15.515400 7.673000
15.544600 8.361200
15.573800 9.551400
15.603000 13.639300
15.632200 8.416800
15.661300 7.950600
15.690500 8.486400
15.719700 9.881300
15.748900 8.841800
15.778100 8.416300
15.807300 7.750700
15.836500 9.159800
15.865700 9.137400
15.894900 8.544800
15.924100 6.406400
15.953300 6.927900
15.982500 8.272300
16.011700 9.549000
16.040900 9.166100
16.070100 9.813800
16.099300 9.629900
16.128500 9.143100
16.157600 8.849100
16.186800 8.921400
16.216000 11.931400
16.245200 11.076100
16.274400 8.105600
16.303600 6.897600
16.332800 6.143000
16.362000 5.809800
