set title 'mp-23224 - Density of States'
set xlabel 'Energy (eV)'
set ylabel 'DOS (states/eV)'
set grid
set xrange [-10:10]
set yrange [0:22.754]
set xzeroaxis lt -1
set terminal png size 800,600
set output 'mp-23224_dos_gnuplot.png'
plot '-' using 1:2 with lines title 'DOS'
-8.966500 0.000000
-8.956800 0.000000
-8.947200 0.000000
-8.937500 0.000000
-8.927900 0.000000
-8.918200 0.000000
-8.908600 0.000000
-8.898900 0.000000
-8.889300 0.000000
-8.879600 0.000000
-8.870000 0.000000
-8.860300 0.000000
-8.850700 0.000000
-8.841000 0.000000
-8.831400 0.000000
-8.821700 0.000000
-8.812100 0.000000
-8.802400 0.000000
-8.792700 0.000000
-8.783100 0.000000
-8.773400 0.000000
-8.763800 0.000000
-8.754100 0.000000
-8.744500 0.000000
-8.734800 0.000000
-8.725200 0.000000
-8.715500 0.000000
-8.705900 0.000000
-8.696200 0.000000
-8.686600 0.000000
-8.676900 0.000000
-8.667300 0.000000
-8.657600 0.000000
-8.648000 0.000000
-8.638300 0.000000
-8.628700 0.000000
-8.619000 0.000000
-8.609400 0.000000
-8.599700 0.000000
-8.590100 0.000000
-8.580400 0.000000
-8.570800 0.000000
-8.561100 0.000000
-8.551500 0.000000
-8.541800 0.000000
-8.532100 0.000000
-8.522500 0.000000
-8.512800 0.000000
-8.503200 0.000000
-8.493500 0.000000
-8.483900 0.000000
-8.474200 0.000000
-8.464600 0.000000
-8.454900 0.000000
-8.445300 0.000000
-8.435600 0.000000
-8.426000 0.000000
-8.416300 0.000000
-8.406700 0.000000
-8.397000 0.000000
-8.387400 0.000000
-8.377700 0.000000
-8.368100 0.000000
-8.358400 0.000000
-8.348800 0.000000
-8.339100 0.000000
-8.329500 0.000000
-8.319800 0.000000
-8.310200 0.000000
-8.300500 0.000000
-8.290800 0.000000
-8.281200 0.000000
-8.271500 0.000000
-8.261900 0.000000
-8.252200 0.000000
-8.242600 0.000000
-8.232900 0.000000
-8.223300 0.000000
-8.213600 0.000000
-8.204000 0.000000
-8.194300 0.000000
-8.184700 0.000000
-8.175000 0.000000
-8.165400 0.000000
-8.155700 0.000000
-8.146100 0.000000
-8.136400 0.000000
-8.126800 0.000000
-8.117100 0.000000
-8.107500 0.000000
-8.097800 0.000000
-8.088200 0.002000
-8.078500 0.251400
-8.068900 0.597400
-8.059200 0.943500
-8.049500 1.398300
-8.039900 1.209300
-8.030200 1.587900
-8.020600 1.966700
-8.010900 1.908800
-8.001300 1.655000
-7.991600 1.714200
-7.982000 1.773400
-7.972300 1.832500
-7.962700 1.888000
-7.953000 1.891200
-7.943400 1.886300
-7.933700 1.881400
-7.924100 1.840600
-7.914400 1.802900
-7.904800 1.778800
-7.895100 1.754700
-7.885500 1.747000
-7.875800 1.768400
-7.866200 1.790100
-7.856500 1.811800
-7.846900 1.833600
-7.837200 1.855300
-7.827600 1.877000
-7.817900 1.898700
-7.808300 1.920400
-7.798600 1.893800
-7.788900 1.881000
-7.779300 1.890700
-7.769600 1.878600
-7.760000 1.830600
-7.750300 1.828300
-7.740700 1.825900
-7.731000 1.823600
-7.721400 1.821400
-7.711700 1.824900
-7.702100 1.829800
-7.692400 1.834600
-7.682800 1.843700
-7.673100 1.855800
-7.663500 1.867800
-7.653800 1.904300
-7.644200 2.055900
-7.634500 2.330900
-7.624900 2.720500
-7.615200 2.959900
-7.605600 2.993600
-7.595900 2.901700
-7.586300 2.814600
-7.576600 2.926400
-7.567000 3.150200
-7.557300 3.486900
-7.547600 3.865100
-7.538000 3.980500
-7.528300 3.965200
-7.518700 3.822100
-7.509000 3.790600
-7.499400 3.796500
-7.489700 3.819500
-7.480100 3.860100
-7.470400 3.911400
-7.460800 3.944200
-7.451100 3.953800
-7.441500 3.941600
-7.431800 3.923300
-7.422200 3.919900
-7.412500 3.934700
-7.402900 3.966600
-7.393200 3.999100
-7.383600 4.006000
-7.373900 4.008100
-7.364300 4.013900
-7.354600 4.036000
-7.345000 4.058100
-7.335300 4.080200
-7.325700 4.078200
-7.316000 4.069200
-7.306400 4.058200
-7.296700 4.025700
-7.287000 4.033000
-7.277400 4.040300
-7.267700 4.047500
-7.258100 4.054900
-7.248400 4.065800
-7.238800 4.079700
-7.229100 4.097200
-7.219500 4.119600
-7.209800 4.141800
-7.200200 4.158500
-7.190500 4.167600
-7.180900 4.171500
-7.171200 4.176700
-7.161600 4.187900
-7.151900 4.205300
-7.142300 4.223000
-7.132600 4.234200
-7.123000 4.238200
-7.113300 4.238400
-7.103700 4.242600
-7.094000 4.253000
-7.084400 4.269000
-7.074700 4.286200
-7.065100 4.304100
-7.055400 4.323200
-7.045700 4.342900
-7.036100 4.362500
-7.026400 4.377900
-7.016800 4.391700
-7.007100 4.404900
-6.997500 4.416600
-6.987800 4.432400
-6.978200 4.453200
-6.968500 4.719500
-6.958900 5.107400
-6.949200 5.496400
-6.939600 5.850900
-6.929900 5.323200
-6.920300 5.373000
-6.910600 5.421700
-6.901000 5.465700
-6.891300 5.513000
-6.881700 5.567000
-6.872000 5.623500
-6.862400 5.680000
-6.852700 5.705500
-6.843100 5.694200
-6.833400 5.685900
-6.823800 5.678200
-6.814100 5.691800
-6.804500 5.732900
-6.794800 5.774100
-6.785100 5.815500
-6.775500 5.858800
-6.765800 5.902300
-6.756200 5.945700
-6.746500 5.992400
-6.736900 6.039900
-6.727200 6.093400
-6.717600 6.148900
-6.707900 6.203400
-6.698300 6.183300
-6.688600 6.224900
-6.679000 6.271100
-6.669300 6.322000
-6.659700 6.374300
-6.650000 6.429400
-6.640400 6.486600
-6.630700 6.557000
-6.621100 6.641000
-6.611400 6.752500
-6.601800 6.864200
-6.592100 6.975900
-6.582500 7.087700
-6.572800 7.212200
-6.563200 7.350300
-6.553500 8.447400
-6.543800 9.504400
-6.534200 9.157000
-6.524500 8.831500
-6.514900 8.570400
-6.505200 8.299500
-6.495600 8.040800
-6.485900 7.973900
-6.476300 8.240400
-6.466600 8.577800
-6.457000 8.919400
-6.447300 9.086800
-6.437700 9.126700
-6.428000 9.188700
-6.418400 8.861900
-6.408700 8.096400
-6.399100 8.283600
-6.389400 8.386900
-6.379800 7.721800
-6.370100 7.041900
-6.360500 6.739000
-6.350800 7.174600
-6.341200 7.814000
-6.331500 6.291100
-6.321900 4.959800
-6.312200 4.883500
-6.302600 4.807200
-6.292900 4.731000
-6.283200 4.654700
-6.273600 4.568800
-6.263900 4.485700
-6.254300 4.406700
-6.244600 4.327700
-6.235000 4.248800
-6.225300 4.169800
-6.215700 4.090900
-6.206000 3.931900
-6.196400 3.854800
-6.186700 3.864800
-6.177100 3.874900
-6.167400 3.885000
-6.157800 3.865400
-6.148100 3.820300
-6.138500 3.759800
-6.128800 3.665800
-6.119200 3.571900
-6.109500 3.478000
-6.099900 3.384100
-6.090200 3.294500
-6.080600 3.205700
-6.070900 3.145600
-6.061300 3.216200
-6.051600 3.169500
-6.041900 3.068900
-6.032300 2.741100
-6.022600 2.409300
-6.013000 2.655900
-6.003300 2.919700
-5.993700 3.150900
-5.984000 3.248200
-5.974400 3.264700
-5.964700 3.353200
-5.955100 3.538000
-5.945400 3.869100
-5.935800 4.183900
-5.926100 4.737400
-5.916500 5.909800
-5.906800 7.162400
-5.897200 8.422200
-5.887500 9.983400
-5.877900 11.655600
-5.868200 10.396000
-5.858600 8.865900
-5.848900 9.628800
-5.839300 12.671500
-5.829600 9.521100
-5.820000 9.671900
-5.810300 9.847900
-5.800700 10.052500
-5.791000 10.290900
-5.781300 10.817600
-5.771700 12.010100
-5.762000 13.278200
-5.752400 13.535500
-5.742700 13.921100
-5.733100 15.546800
-5.723400 18.923100
-5.713800 17.694100
-5.704100 15.705700
-5.694500 15.113100
-5.684800 15.322100
-5.675200 15.886000
-5.665500 19.756600
-5.655900 17.832100
-5.646200 18.503000
-5.636600 16.482900
-5.626900 20.685700
-5.617300 12.845100
-5.607600 8.188100
-5.598000 7.405900
-5.588300 6.917500
-5.578700 6.658100
-5.569000 6.299000
-5.559400 5.848700
-5.549700 6.063700
-5.540000 5.566400
-5.530400 6.252900
-5.520700 6.958300
-5.511100 6.890000
-5.501400 3.250700
-5.491800 2.204700
-5.482100 2.306500
-5.472500 2.325100
-5.462800 2.528500
-5.453200 2.946400
-5.443500 3.410800
-5.433900 3.095600
-5.424200 3.150500
-5.414600 3.255800
-5.404900 3.411500
-5.395300 3.590100
-5.385600 4.088200
-5.376000 5.480700
-5.366300 5.939400
-5.356700 6.580600
-5.347000 6.722700
-5.337400 6.542400
-5.327700 5.796100
-5.318100 5.843400
-5.308400 5.927800
-5.298800 6.146400
-5.289100 6.724300
-5.279400 7.517600
-5.269800 7.818200
-5.260100 7.714700
-5.250500 6.803800
-5.240800 6.681600
-5.231200 6.603700
-5.221500 6.533600
-5.211900 8.135100
-5.202200 7.288800
-5.192600 6.473800
-5.182900 5.334000
-5.173300 5.270800
-5.163600 5.213600
-5.154000 5.181400
-5.144300 5.154800
-5.134700 5.134000
-5.125000 5.116600
-5.115400 5.100400
-5.105700 5.085500
-5.096100 5.071800
-5.086400 5.059400
-5.076800 5.048800
-5.067100 5.041500
-5.057500 5.046600
-5.047800 5.077900
-5.038100 5.123700
-5.028500 5.181900
-5.018800 5.242000
-5.009200 5.295800
-4.999500 5.380900
-4.989900 5.473100
-4.980200 5.565800
-4.970600 5.658900
-4.960900 5.704000
-4.951300 5.739200
-4.941600 5.774000
-4.932000 5.808300
-4.922300 5.842400
-4.912700 5.844100
-4.903000 6.753800
-4.893400 6.931600
-4.883700 6.808800
-4.874100 6.697800
-4.864400 6.915500
-4.854800 6.847400
-4.845100 6.786600
-4.835500 8.592000
-4.825800 7.831200
-4.816200 7.601100
-4.806500 7.397100
-4.796900 7.222800
-4.787200 7.081800
-4.777500 6.955000
-4.767900 6.835800
-4.758200 6.727100
-4.748600 6.623000
-4.738900 6.523100
-4.729300 6.438600
-4.719600 6.364600
-4.710000 6.299100
-4.700300 6.284000
-4.690700 6.284400
-4.681000 6.276300
-4.671400 6.256300
-4.661700 6.194500
-4.652100 6.139900
-4.642400 6.104900
-4.632800 6.073800
-4.623100 6.360700
-4.613500 6.355800
-4.603800 6.422800
-4.594200 6.485100
-4.584500 6.530000
-4.574900 6.557400
-4.565200 6.647000
-4.555600 6.788500
-4.545900 6.894100
-4.536200 7.009500
-4.526600 6.848800
-4.516900 6.683800
-4.507300 6.535100
-4.497600 6.414900
-4.488000 6.285200
-4.478300 6.156400
-4.468700 6.048300
-4.459000 5.974600
-4.449400 5.940900
-4.439700 5.885200
-4.430100 5.806200
-4.420400 5.722100
-4.410800 5.639300
-4.401100 5.560800
-4.391500 5.487200
-4.381800 5.568900
-4.372200 5.729400
-4.362500 5.700400
-4.352900 5.592200
-4.343200 5.425700
-4.333600 5.263000
-4.323900 5.103200
-4.314300 4.946000
-4.304600 4.791300
-4.295000 4.644800
-4.285300 4.498200
-4.275600 4.352600
-4.266000 4.209200
-4.256300 4.068300
-4.246700 3.932100
-4.237000 3.807600
-4.227400 3.679600
-4.217700 3.555400
-4.208100 3.436700
-4.198400 3.323700
-4.188800 3.216100
-4.179100 3.084000
-4.169500 2.972800
-4.159800 2.923000
-4.150200 2.891800
-4.140500 2.869000
-4.130900 2.846900
-4.121200 2.825300
-4.111600 2.804100
-4.101900 2.783200
-4.092300 2.763500
-4.082600 2.750800
-4.073000 2.743600
-4.063300 2.732400
-4.053700 2.722400
-4.044000 2.711100
-4.034300 2.698500
-4.024700 2.684600
-4.015000 2.669400
-4.005400 2.652900
-3.995700 2.635300
-3.986100 2.617700
-3.976400 2.606900
-3.966800 2.598100
-3.957100 2.588000
-3.947500 2.576400
-3.937800 2.563500
-3.928200 2.549100
-3.918500 2.533500
-3.908900 2.518200
-3.899200 2.504400
-3.889600 2.492300
-3.879900 2.481800
-3.870300 2.472900
-3.860600 2.464900
-3.851000 2.455400
-3.841300 2.446300
-3.831700 2.443600
-3.822000 2.440200
-3.812400 2.436000
-3.802700 2.430900
-3.793100 2.425000
-3.783400 2.418200
-3.773700 2.411800
-3.764100 2.405000
-3.754400 2.398600
-3.744800 2.392700
-3.735100 2.386800
-3.725500 2.368400
-3.715800 2.347200
-3.706200 2.327500
-3.696500 2.315100
-3.686900 2.316200
-3.677200 2.324800
-3.667600 2.337100
-3.657900 2.346800
-3.648300 2.353700
-3.638600 2.358100
-3.629000 2.359700
-3.619300 2.358500
-3.609700 2.352900
-3.600000 2.340100
-3.590400 2.350000
-3.580700 2.352300
-3.571100 2.333100
-3.561400 2.292200
-3.551800 2.237300
-3.542100 2.181900
-3.532400 2.126200
-3.522800 2.072900
-3.513100 2.022600
-3.503500 1.974900
-3.493800 1.930400
-3.484200 1.888700
-3.474500 1.846300
-3.464900 1.803800
-3.455200 1.761100
-3.445600 1.718300
-3.435900 1.675400
-3.426300 1.632300
-3.416600 1.589000
-3.407000 1.531700
-3.397300 1.465600
-3.387700 1.412000
-3.378000 1.371200
-3.368400 1.343000
-3.358700 1.336500
-3.349100 1.333600
-3.339400 1.328300
-3.329800 1.316400
-3.320100 1.296300
-3.310500 1.267900
-3.300800 1.231700
-3.291200 1.194100
-3.281500 1.157200
-3.271800 1.121100
-3.262200 1.085700
-3.252500 1.051100
-3.242900 1.036000
-3.233200 1.000000
-3.223600 0.964800
-3.213900 0.930300
-3.204300 0.896600
-3.194600 0.851400
-3.185000 0.803900
-3.175300 0.762800
-3.165700 0.727900
-3.156000 0.699200
-3.146400 0.676800
-3.136700 0.660700
-3.127100 0.650800
-3.117400 0.643900
-3.107800 0.636900
-3.098100 0.630000
-3.088500 0.623000
-3.078800 0.620500
-3.069200 0.627300
-3.059500 0.635100
-3.049900 0.642700
-3.040200 0.650100
-3.030500 0.657300
-3.020900 0.658500
-3.011200 0.648600
-3.001600 0.634900
-2.991900 0.621100
-2.982300 0.607300
-2.972600 0.593600
-2.963000 0.579800
-2.953300 0.566100
-2.943700 0.552300
-2.934000 0.538600
-2.924400 0.524800
-2.914700 0.511100
-2.905100 0.575900
-2.895400 0.669000
-2.885800 0.717600
-2.876100 0.640300
-2.866500 0.500000
-2.856800 0.364500
-2.847200 0.233800
-2.837500 0.123500
-2.827900 0.048100
-2.818200 0.007600
-2.808600 0.000000
-2.798900 0.000000
-2.789300 0.000000
-2.779600 0.000000
-2.769900 0.000000
-2.760300 0.000000
-2.750600 0.000000
-2.741000 0.000000
-2.731300 0.000000
-2.721700 0.000000
-2.712000 0.000000
-2.702400 0.000000
-2.692700 0.000000
-2.683100 0.000000
-2.673400 0.000000
-2.663800 0.000000
-2.654100 0.000000
-2.644500 0.000000
-2.634800 0.000000
-2.625200 0.000000
-2.615500 0.000000
-2.605900 0.000000
-2.596200 0.000000
-2.586600 0.000000
-2.576900 0.000000
-2.567300 0.000000
-2.557600 0.000000
-2.548000 0.000000
-2.538300 0.000000
-2.528600 0.000000
-2.519000 0.000000
-2.509300 0.000000
-2.499700 0.000000
-2.490000 0.000000
-2.480400 0.000000
-2.470700 0.000000
-2.461100 0.000000
-2.451400 0.000000
-2.441800 0.000000
-2.432100 0.000000
-2.422500 0.000000
-2.412800 0.000000
-2.403200 0.000000
-2.393500 0.000000
-2.383900 0.000000
-2.374200 0.000000
-2.364600 0.000000
-2.354900 0.000000
-2.345300 0.000000
-2.335600 0.000000
-2.326000 0.000000
-2.316300 0.000000
-2.306700 0.000000
-2.297000 0.000000
-2.287400 0.000000
-2.277700 0.000000
-2.268000 0.000000
-2.258400 0.000000
-2.248700 0.000000
-2.239100 0.000000
-2.229400 0.000000
-2.219800 0.000000
-2.210100 0.000000
-2.200500 0.000000
-2.190800 0.000000
-2.181200 0.000000
-2.171500 0.000000
-2.161900 0.000000
-2.152200 0.000000
-2.142600 0.000000
-2.132900 0.000000
-2.123300 0.000000
-2.113600 0.000000
-2.104000 0.000000
-2.094300 0.000000
-2.084700 0.000000
-2.075000 0.000000
-2.065400 0.000000
-2.055700 0.000000
-2.046100 0.000000
-2.036400 0.000000
-2.026700 0.000000
-2.017100 0.000000
-2.007400 0.000000
-1.997800 0.000000
-1.988100 0.000000
-1.978500 0.000000
-1.968800 0.000000
-1.959200 0.000000
-1.949500 0.000000
-1.939900 0.000000
-1.930200 0.000000
-1.920600 0.000000
-1.910900 0.000000
-1.901300 0.000000
-1.891600 0.000000
-1.882000 0.000000
-1.872300 0.000000
-1.862700 0.000000
-1.853000 0.000000
-1.843400 0.000000
-1.833700 0.000000
-1.824100 0.000000
-1.814400 0.000000
-1.804800 0.000000
-1.795100 0.000000
-1.785500 0.000000
-1.775800 0.000000
-1.766100 0.000000
-1.756500 0.000000
-1.746800 0.000000
-1.737200 0.000000
-1.727500 0.000000
-1.717900 0.000000
-1.708200 0.000000
-1.698600 0.000000
-1.688900 0.000000
-1.679300 0.000000
-1.669600 0.000000
-1.660000 0.000000
-1.650300 0.000000
-1.640700 0.000000
-1.631000 0.000000
-1.621400 0.000000
-1.611700 0.000000
-1.602100 0.000000
-1.592400 0.000000
-1.582800 0.000000
-1.573100 0.000000
-1.563500 0.000000
-1.553800 0.000000
-1.544200 0.000000
-1.534500 0.000000
-1.524800 0.000000
-1.515200 0.000000
-1.505500 0.000000
-1.495900 0.000000
-1.486200 0.000000
-1.476600 0.000000
-1.466900 0.000000
-1.457300 0.000000
-1.447600 0.000000
-1.438000 0.000000
-1.428300 0.000000
-1.418700 0.000000
-1.409000 0.000000
-1.399400 0.000000
-1.389700 0.000000
-1.380100 0.000000
-1.370400 0.000000
-1.360800 0.000000
-1.351100 0.000000
-1.341500 0.000000
-1.331800 0.000000
-1.322200 0.000000
-1.312500 0.000000
-1.302900 0.000000
-1.293200 0.000000
-1.283500 0.000000
-1.273900 0.000000
-1.264200 0.000000
-1.254600 0.000000
-1.244900 0.000000
-1.235300 0.000000
-1.225600 0.000000
-1.216000 0.000000
-1.206300 0.000000
-1.196700 0.000000
-1.187000 0.000000
-1.177400 0.000000
-1.167700 0.000000
-1.158100 0.000000
-1.148400 0.000000
-1.138800 0.000000
-1.129100 0.000000
-1.119500 0.000000
-1.109800 0.000000
-1.100200 0.000000
-1.090500 0.000000
-1.080900 0.000000
-1.071200 0.000000
-1.061600 0.000000
-1.051900 0.000000
-1.042300 0.000000
-1.032600 0.000000
-1.022900 0.000000
-1.013300 0.000000
-1.003600 0.000000
-0.994000 0.000000
-0.984300 0.000000
-0.974700 0.000000
-0.965000 0.000000
-0.955400 0.000000
-0.945700 0.000000
-0.936100 0.000000
-0.926400 0.000000
-0.916800 0.000000
-0.907100 0.000000
-0.897500 0.000000
-0.887800 0.000000
-0.878200 0.000000
-0.868500 0.000000
-0.858900 0.000000
-0.849200 0.000000
-0.839600 0.000000
-0.829900 0.000000
-0.820300 0.000000
-0.810600 0.000000
-0.801000 0.000000
-0.791300 0.000000
-0.781600 0.000000
-0.772000 0.000000
-0.762300 0.000000
-0.752700 0.000000
-0.743000 0.000000
-0.733400 0.000000
-0.723700 0.000000
-0.714100 0.000000
-0.704400 0.000000
-0.694800 0.000000
-0.685100 0.000000
-0.675500 0.000000
-0.665800 0.000000
-0.656200 0.000000
-0.646500 0.000000
-0.636900 0.000000
-0.627200 0.000000
-0.617600 0.000000
-0.607900 0.000000
-0.598300 0.000000
-0.588600 0.000000
-0.579000 0.000000
-0.569300 0.000000
-0.559700 0.000000
-0.550000 0.000000
-0.540400 0.000000
-0.530700 0.000000
-0.521000 0.000000
-0.511400 0.000000
-0.501700 0.000000
-0.492100 0.000000
-0.482400 0.000000
-0.472800 0.000000
-0.463100 0.000000
-0.453500 0.000000
-0.443800 0.000000
-0.434200 0.000000
-0.424500 0.000000
-0.414900 0.000000
-0.405200 0.000000
-0.395600 0.000000
-0.385900 0.000000
-0.376300 0.000000
-0.366600 0.000000
-0.357000 0.000000
-0.347300 0.000000
-0.337700 0.000000
-0.328000 0.000000
-0.318400 0.000000
-0.308700 0.000000
-0.299100 0.000000
-0.289400 0.000000
-0.279700 0.000000
-0.270100 0.000000
-0.260400 0.000000
-0.250800 0.000000
-0.241100 0.000000
-0.231500 0.000000
-0.221800 0.000000
-0.212200 0.000000
-0.202500 0.000000
-0.192900 0.000000
-0.183200 0.000000
-0.173600 0.000000
-0.163900 0.000000
-0.154300 0.000000
-0.144600 0.000000
-0.135000 0.000000
-0.125300 0.000000
-0.115700 0.000000
-0.106000 0.000000
-0.096400 0.000000
-0.086700 0.000000
-0.077100 0.000000
-0.067400 0.000000
-0.057800 0.000000
-0.048100 0.000000
-0.038500 0.000000
-0.028800 0.000000
-0.019100 0.000000
-0.009500 0.000000
0.000200 0.000000
0.009800 0.000000
0.019500 0.000000
0.029100 0.000000
0.038800 0.000000
0.048400 0.000000
0.058100 0.042700
0.067700 0.242700
0.077400 0.606300
0.087000 1.133800
0.096700 1.834100
0.106300 2.676600
0.116000 2.659600
0.125600 2.261400
0.135300 2.042000
0.144900 1.925200
0.154600 1.964500
0.164200 2.129000
0.173900 2.377900
0.183500 2.710100
0.193200 3.125600
0.202800 3.716800
0.212500 4.553300
0.222200 4.917800
0.231800 4.661300
0.241500 4.495400
0.251100 4.337500
0.260800 4.230100
0.270400 4.194200
0.280100 4.198500
0.289700 4.226000
0.299400 4.257300
0.309000 4.291400
0.318700 4.409500
0.328300 4.565900
0.338000 4.656100
0.347600 4.722100
0.357300 4.720400
0.366900 4.711100
0.376600 4.700000
0.386200 4.699900
0.395900 4.718600
0.405500 4.753000
0.415200 5.451900
0.424800 6.116900
0.434500 5.945000
0.444100 5.877300
0.453800 5.675500
0.463400 6.089600
0.473100 6.164000
0.482800 6.705700
0.492400 5.841100
0.502100 4.759400
0.511700 4.541800
0.521400 4.330200
0.531000 4.124700
0.540700 3.925300
0.550300 4.382000
0.560000 4.137400
0.569600 3.852500
0.579300 3.655500
0.588900 3.336700
0.598600 2.788100
0.608200 2.736000
0.617900 2.712800
0.627500 2.720000
0.637200 2.756900
0.646800 2.804000
0.656500 2.851800
0.666100 2.900700
0.675800 2.951200
0.685400 3.003300
0.695100 3.057100
0.704700 3.112100
0.714400 3.200900
0.724100 3.347500
0.733700 3.586100
0.743400 3.884700
0.753000 4.206700
0.762700 4.540900
0.772300 5.019500
0.782000 5.403300
0.791600 5.307800
0.801300 5.730000
0.810900 5.473800
0.820600 4.922100
0.830200 4.833900
0.839900 4.747800
0.849500 4.743100
0.859200 4.591400
0.868800 5.749500
0.878500 5.145300
0.888100 4.621200
0.897800 4.340200
0.907400 4.199000
0.917100 4.098400
0.926700 4.177600
0.936400 4.131700
0.946000 4.126800
0.955700 4.185200
0.965300 4.256300
0.975000 4.365000
0.984700 4.347400
0.994300 4.542700
1.004000 5.027700
1.013600 5.430500
1.023300 6.308500
1.032900 6.898000
1.042600 7.478400
1.052200 7.818900
1.061900 8.311100
1.071500 8.840400
1.081200 9.416200
