set title 'mp-990448 - Density of States'
set xlabel 'Energy (eV)'
set ylabel 'DOS (states/eV)'
set grid
set xrange [-10:10]
set yrange [0:3.250]
set xzeroaxis lt -1
set terminal png size 800,600
set output 'mp-990448_dos_gnuplot.png'
plot '-' using 1:2 with lines title 'DOS'
-24.442500 0.000000
-24.401800 0.000000
-24.361100 0.000000
-24.320500 0.000000
-24.279800 0.000000
-24.239100 0.000000
-24.198500 0.000000
-24.157800 0.000000
-24.117100 0.000000
-24.076500 0.000000
-24.035800 0.000000
-23.995100 0.000000
-23.954500 0.000000
-23.913800 0.000000
-23.873100 0.000000
-23.832500 0.000000
-23.791800 0.000000
-23.751100 0.000000
-23.710500 0.000000
-23.669800 0.000000
-23.629100 0.000000
-23.588500 0.000000
-23.547800 0.000000
-23.507100 0.000000
-23.466500 0.000000
-23.425800 0.000000
-23.385100 0.000000
-23.344500 0.000000
-23.303800 0.000000
-23.263100 0.000000
-23.222500 0.000000
-23.181800 0.000000
-23.141100 0.000000
-23.100500 0.000000
-23.059800 0.000000
-23.019100 0.000000
-22.978500 0.000000
-22.937800 0.000000
-22.897100 0.000000
-22.856500 0.000000
-22.815800 0.000000
-22.775100 0.000000
-22.734500 0.000000
-22.693800 0.000000
-22.653100 0.000000
-22.612500 0.000000
-22.571800 0.000000
-22.531100 0.000000
-22.490500 0.000000
-22.449800 0.000000
-22.409100 0.000000
-22.368500 0.000000
-22.327800 0.000000
-22.287100 0.000000
-22.246500 0.000000
-22.205800 0.000000
-22.165100 0.000000
-22.124500 0.000000
-22.083800 0.000000
-22.043100 0.000000
-22.002500 0.000000
-21.961800 0.000000
-21.921100 0.000000
-21.880500 0.000000
-21.839800 0.000000
-21.799100 0.000000
-21.758500 0.000000
-21.717800 0.000000
-21.677100 0.000000
-21.636500 0.000000
-21.595800 0.000000
-21.555100 0.000000
-21.514500 0.000000
-21.473800 0.000000
-21.433100 0.000000
-21.392500 0.000000
-21.351800 0.000000
-21.311100 0.000000
-21.270500 0.000000
-21.229800 0.000000
-21.189100 0.000000
-21.148500 0.000000
-21.107800 0.000000
-21.067100 0.000000
-21.026500 0.000000
-20.985800 0.000000
-20.945100 0.000000
-20.904500 0.000000
-20.863800 0.000000
-20.823100 0.000000
-20.782500 0.000000
-20.741800 0.035000
-20.701100 0.421800
-20.660500 0.279600
-20.619800 0.311900
-20.579100 0.333600
-20.538500 0.293500
-20.497800 0.296300
-20.457100 0.307700
-20.416500 0.319100
-20.375800 0.330500
-20.335100 0.304200
-20.294500 0.301800
-20.253800 0.301700
-20.213100 0.307500
-20.172500 0.313300
-20.131800 0.319100
-20.091100 0.317600
-20.050500 0.303600
-20.009800 0.304700
-19.969100 0.305800
-19.928500 0.307000
-19.887800 0.308400
-19.847100 0.312000
-19.806500 0.315500
-19.765800 0.319100
-19.725100 0.312400
-19.684500 0.309800
-19.643800 0.307200
-19.603100 0.307200
-19.562500 0.308600
-19.521800 0.310100
-19.481200 0.311600
-19.440500 0.313000
-19.399800 0.314900
-19.359200 0.317300
-19.318500 0.319800
-19.277800 0.314400
-19.237200 0.311300
-19.196500 0.311100
-19.155800 0.310900
-19.115200 0.310600
-19.074500 0.311500
-19.033800 0.312800
-18.993200 0.314200
-18.952500 0.315500
-18.911800 0.316800
-18.871200 0.318200
-18.830500 0.319600
-18.789800 0.321400
-18.749200 0.315800
-18.708500 0.314400
-18.667800 0.313800
-18.627200 0.314200
-18.586500 0.314700
-18.545800 0.315100
-18.505200 0.315600
-18.464500 0.316200
-18.423800 0.317400
-18.383200 0.318600
-18.342500 0.319700
-18.301800 0.320900
-18.261200 0.322100
-18.220500 0.323200
-18.179800 0.319800
-18.139200 0.318600
-18.098500 0.318500
-18.057800 0.318400
-18.017200 0.318300
-17.976500 0.318900
-17.935800 0.319600
-17.895200 0.320300
-17.854500 0.320900
-17.813800 0.321600
-17.773200 0.322300
-17.732500 0.323200
-17.691800 0.324200
-17.651200 0.325300
-17.610500 0.326400
-17.569800 0.327400
-17.529200 0.325300
-17.488500 0.324600
-17.447800 0.324100
-17.407200 0.324400
-17.366500 0.324900
-17.325800 0.325300
-17.285200 0.325800
-17.244500 0.326300
-17.203800 0.327200
-17.163200 0.328100
-17.122500 0.329000
-17.081800 0.329800
-17.041200 0.330700
-17.000500 0.331600
-16.959800 0.332500
-16.919200 0.333600
-16.878500 0.334800
-16.837800 0.335300
-16.797200 0.334300
-16.756500 0.334900
-16.715800 0.335500
-16.675200 0.336000
-16.634500 0.336800
-16.593800 0.337900
-16.553200 0.339000
-16.512500 0.340400
-16.471800 0.341800
-16.431200 0.343200
-16.390500 0.344900
-16.349800 0.347100
-16.309200 0.349200
-16.268500 0.351300
-16.227800 0.353400
-16.187200 0.355600
-16.146500 0.357700
-16.105800 0.359800
-16.065200 0.363800
-16.024500 0.370000
-15.983800 0.376200
-15.943200 0.383300
-15.902500 0.390600
-15.861800 0.397900
-15.821200 0.405100
-15.780500 0.415400
-15.739800 0.428100
-15.699200 0.530400
-15.658500 0.506200
-15.617800 0.482000
-15.577200 0.767300
-15.536500 0.574300
-15.495800 0.381300
-15.455200 0.313500
-15.414500 0.299000
-15.373800 0.284600
-15.333200 0.270100
-15.292500 0.255700
-15.251800 0.243900
-15.211200 0.242400
-15.170500 0.793800
-15.129800 0.215700
-15.089200 0.207000
-15.048500 0.198400
-15.007800 0.189700
-14.967200 0.181100
-14.926500 0.172400
-14.885800 0.163800
-14.845200 0.155100
-14.804500 0.146500
-14.763800 0.137800
-14.723200 0.129200
-14.682500 0.120500
-14.641800 0.124000
-14.601200 0.144100
-14.560500 0.164200
-14.519800 0.184300
-14.479200 0.081600
-14.438500 0.076400
-14.397800 0.129600
-14.357200 0.191600
-14.316500 0.253600
-14.275800 0.315600
-14.235200 0.229900
-14.194500 0.243300
-14.153800 0.408800
-14.113200 0.780000
-14.072500 0.292200
-14.031800 0.294400
-13.991200 0.296700
-13.950500 0.298900
-13.909800 0.301200
-13.869200 0.303400
-13.828500 0.310000
-13.787800 0.329500
-13.747200 0.349300
-13.706500 0.394000
-13.665800 0.419200
-13.625200 0.444400
-13.584500 0.469600
-13.543800 0.494800
-13.503200 0.520300
-13.462500 0.550300
-13.421800 0.580300
-13.381200 0.413700
-13.340500 0.406600
-13.299800 0.399600
-13.259200 0.392600
-13.218500 0.385800
-13.177800 0.379000
-13.137200 0.372300
-13.096500 0.366300
-13.055800 0.360600
-13.015200 0.354900
-12.974500 0.349200
-12.933800 0.343500
-12.893200 0.337800
-12.852500 0.332100
-12.811800 0.326300
-12.771200 0.320300
-12.730500 0.316800
-12.689800 0.315100
-12.649200 0.313400
-12.608500 0.311800
-12.567800 0.310100
-12.527200 0.308500
-12.486500 0.306900
-12.445800 0.305300
-12.405200 0.303600
-12.364500 0.301800
-12.323800 0.300100
-12.283200 0.298300
-12.242500 0.296600
-12.201800 0.277500
-12.161200 0.276700
-12.120500 0.275900
-12.079800 0.275100
-12.039200 0.274400
-11.998500 0.273600
-11.957800 0.272800
-11.917200 0.271900
-11.876500 0.271100
-11.835800 0.270300
-11.795200 0.269400
-11.754500 0.281800
-11.713800 0.298800
-11.673200 0.315900
-11.632500 0.332900
-11.591900 0.349900
-11.551200 0.367000
-11.510500 0.384000
-11.469900 0.401000
-11.429200 0.360900
-11.388500 0.360700
-11.347900 0.361200
-11.307200 0.361500
-11.266500 0.361400
-11.225900 0.361300
-11.185200 0.361200
-11.144500 0.361200
-11.103900 0.361100
-11.063200 0.364400
-11.022500 0.368000
-10.981900 0.371600
-10.941200 0.375200
-10.900500 0.378800
-10.859900 0.382400
-10.819200 0.386000
-10.778500 0.389400
-10.737900 0.378300
-10.697200 0.377800
-10.656500 0.377800
-10.615900 0.378100
-10.575200 0.378300
-10.534500 0.378500
-10.493900 0.378800
-10.453200 0.379000
-10.412500 0.379300
-10.371900 0.391600
-10.331200 0.393000
-10.290500 0.394500
-10.249900 0.395900
-10.209200 0.397200
-10.168500 0.398000
-10.127900 0.397700
-10.087200 0.397500
-10.046500 0.397200
-10.005900 0.397000
-9.965200 0.396700
-9.924500 0.396500
-9.883900 0.398200
-9.843200 0.400000
-9.802500 0.404300
-9.761900 0.408700
-9.721200 0.411900
-9.680500 0.415100
-9.639900 0.418200
-9.599200 0.421400
-9.558500 0.424100
-9.517900 0.426800
-9.477200 0.429000
-9.436500 0.430000
-9.395900 0.431000
-9.355200 0.432000
-9.314500 0.433000
-9.273900 0.434000
-9.233200 0.434900
-9.192500 0.435900
-9.151900 0.436900
-9.111200 0.437900
-9.070500 0.431800
-9.029900 0.448700
-8.989200 0.458300
-8.948500 0.463100
-8.907900 0.467900
-8.867200 0.472700
-8.826500 0.587200
-8.785900 0.861700
-8.745200 0.716400
-8.704500 0.742400
-8.663900 0.768400
-8.623200 0.759000
-8.582500 0.739300
-8.541900 0.750700
-8.501200 0.761000
-8.460500 0.771300
-8.419900 0.781600
-8.379200 0.770800
-8.338500 0.778600
-8.297900 0.815800
-8.257200 0.841300
-8.216500 0.870600
-8.175900 0.892800
-8.135200 0.914300
-8.094500 0.932300
-8.053900 0.940000
-8.013200 0.951000
-7.972500 0.998800
-7.931900 1.045600
-7.891200 1.092400
-7.850500 1.139200
-7.809900 1.181400
-7.769200 1.119100
-7.728500 1.086900
-7.687900 1.056000
-7.647200 0.880800
-7.606500 0.691400
-7.565900 0.639700
-7.525200 0.590400
-7.484500 0.666800
-7.443900 0.750700
-7.403200 0.834600
-7.362500 0.914300
-7.321900 1.154200
-7.281200 1.202200
-7.240500 1.182300
-7.199900 1.157900
-7.159200 1.133500
-7.118500 0.935100
-7.077900 0.759700
-7.037200 0.701600
-6.996500 0.621800
-6.955900 0.545600
-6.915200 0.481500
-6.874500 0.493400
-6.833900 0.507800
-6.793200 0.522300
-6.752500 0.537200
-6.711900 0.553500
-6.671200 0.569800
-6.630500 0.593700
-6.589900 0.841000
-6.549200 0.933100
-6.508500 0.857800
-6.467900 0.810500
-6.427200 0.764800
-6.386500 0.740400
-6.345900 0.716600
-6.305200 0.692900
-6.264500 0.669100
-6.223900 0.645300
-6.183200 0.637300
-6.142500 0.635700
-6.101900 0.634100
-6.061200 0.631300
-6.020500 0.627600
-5.979900 0.623800
-5.939200 0.620100
-5.898500 0.616300
-5.857900 0.609700
-5.817200 0.604400
-5.776500 0.599900
-5.735900 0.595500
-5.695200 0.591100
-5.654500 0.588000
-5.613900 0.586200
-5.573200 0.593100
-5.532500 0.597000
-5.491900 0.592900
-5.451200 0.588800
-5.410500 0.584700
-5.369900 0.580900
-5.329200 0.577200
-5.288500 0.573500
-5.247900 0.569800
-5.207200 0.566000
-5.166500 0.563000
-5.125900 0.562500
-5.085200 0.564400
-5.044500 0.579800
-5.003900 0.576800
-4.963200 0.573800
-4.922500 0.570800
-4.881900 0.565500
-4.841200 0.560200
-4.800500 0.555100
-4.759900 0.549900
-4.719200 0.547500
-4.678500 0.560700
-4.637900 0.572700
-4.597200 0.563300
-4.556500 0.554700
-4.515900 0.546200
-4.475200 0.574400
-4.434500 0.545100
-4.393900 0.606300
-4.353200 0.503000
-4.312500 0.400500
-4.271900 0.354600
-4.231200 0.359000
-4.190500 0.365300
-4.149900 0.371500
-4.109200 0.377800
-4.068500 0.384100
-4.027900 0.393700
-3.987200 0.403300
-3.946500 0.412900
-3.905900 0.422500
-3.865200 0.435700
-3.824500 0.463000
-3.783900 0.490200
-3.743200 0.517500
-3.702600 0.544800
-3.661900 0.698200
-3.621200 0.598200
-3.580600 0.498300
-3.539900 0.489000
-3.499200 0.742800
-3.458600 0.421200
-3.417900 0.399400
-3.377200 0.377500
-3.336600 0.355700
-3.295900 0.333900
-3.255200 0.312000
-3.214600 0.290200
-3.173900 0.268300
-3.133200 0.261600
-3.092600 0.261500
-3.051900 0.261400
-3.011200 0.261300
-2.970600 0.261200
-2.929900 0.261100
-2.889200 0.201200
-2.848600 0.204200
-2.807900 0.207300
-2.767200 0.206200
-2.726600 0.199200
-2.685900 0.190300
-2.645200 0.181300
-2.604600 0.172400
-2.563900 0.163400
-2.523200 0.154400
-2.482600 0.145500
-2.441900 0.136500
-2.401200 0.127500
-2.360600 0.123700
-2.319900 0.122100
-2.279200 0.120500
-2.238600 0.118900
-2.197900 0.117400
-2.157200 0.115800
-2.116600 0.114200
-2.075900 0.112600
-2.035200 0.111100
-1.994600 0.068600
-1.953900 0.064900
-1.913200 0.061200
-1.872600 0.057500
-1.831900 0.053700
-1.791200 0.050000
-1.750600 0.046300
-1.709900 0.042600
-1.669200 0.038800
-1.628600 0.035100
-1.587900 0.031400
-1.547200 0.027600
-1.506600 0.023900
-1.465900 0.020200
-1.425200 0.016500
-1.384600 0.012700
-1.343900 0.009000
-1.303200 0.005300
-1.262600 0.001600
-1.221900 0.002300
-1.181200 0.006200
-1.140600 0.010100
-1.099900 0.014100
-1.059200 0.018000
-1.018600 0.022000
-0.977900 0.025900
-0.937200 0.029800
-0.896600 0.033800
-0.855900 0.037700
-0.815200 0.041600
-0.774600 0.045600
-0.733900 0.049500
-0.693200 0.053400
-0.652600 0.057400
-0.611900 0.061300
-0.571200 0.065200
-0.530600 0.069200
-0.489900 0.129400
-0.449200 0.129200
-0.408600 0.128900
-0.367900 0.128700
-0.327200 0.128400
-0.286600 0.128200
-0.245900 0.127900
-0.205200 0.127700
-0.164600 0.140400
-0.123900 0.154300
-0.083200 0.168300
-0.042600 0.182200
-0.001900 0.196100
0.038800 0.210100
0.079400 0.224000
0.120100 0.238000
0.160800 0.251900
0.201400 0.265900
0.242100 0.417500
0.282800 0.266400
0.323400 0.313000
0.364100 0.359700
0.404800 0.406300
0.445400 0.764300
0.486100 0.700800
0.526800 0.798400
0.567400 0.570700
0.608100 0.535600
0.648800 0.500500
0.689400 0.466900
0.730100 0.444600
0.770800 0.422300
0.811400 0.399900
0.852100 0.386600
0.892800 0.376500
0.933400 0.366800
0.974100 0.358100
1.014800 0.349400
1.055400 0.340600
1.096100 0.328900
1.136800 0.322800
1.177400 0.316700
1.218100 0.311000
1.258800 0.306700
1.299400 0.303100
1.340100 0.299700
1.380800 0.296400
1.421400 0.293000
1.462100 0.289700
1.502800 0.286400
1.543400 0.283000
1.584100 0.279700
1.624800 0.276400
1.665400 0.273300
1.706100 0.270200
1.746800 0.267100
1.787400 0.264000
1.828100 0.261400
1.868800 0.258800
1.909400 0.269300
1.950100 0.321700
1.990800 0.349100
2.031400 0.354500
2.072100 0.375500
2.112800 0.397400
2.153400 0.414000
2.194100 0.455700
2.234800 0.449900
2.275400 0.455300
2.316100 0.460000
2.356800 0.463700
2.397400 0.461800
2.438100 0.454000
2.478800 0.451500
2.519400 0.451200
2.560100 0.450400
2.600800 0.450000
2.641400 0.449700
2.682100 0.445400
2.722800 0.472400
2.763400 0.521900
2.804100 0.501200
2.844800 0.509400
2.885400 0.518800
2.926100 0.527800
2.966800 0.530300
3.007400 0.531700
3.048100 0.538500
3.088800 0.545200
3.129400 0.554400
3.170100 0.564700
3.210800 0.574300
3.251400 0.586100
3.292100 0.596300
3.332800 0.605800
3.373400 0.616400
3.414100 0.627300
3.454800 0.638000
3.495400 0.647200
3.536100 0.645500
3.576800 0.645200
3.617400 0.643800
3.658100 0.642100
3.698800 0.641900
3.739400 0.642400
3.780100 0.644000
3.820800 0.645500
3.861400 0.646700
3.902100 0.647000
3.942800 0.651800
3.983400 0.658000
4.024100 0.665400
4.064800 0.671600
4.105400 0.671600
4.146100 0.672700
4.186700 0.688400
4.227400 0.728100
4.268100 0.807600
4.308700 0.818200
4.349400 0.813700
4.390100 0.794500
4.430700 0.746600
4.471400 0.695700
4.512100 0.646100
4.552700 0.605700
4.593400 0.561000
4.634100 0.502200
4.674700 0.447900
4.715400 0.400200
4.756100 0.374200
4.796700 0.377600
4.837400 0.413800
4.878100 0.493100
4.918700 0.574400
4.959400 0.710200
5.000100 0.812900
5.040700 0.867700
5.081400 1.079700
5.122100 0.864400
5.162700 0.783600
5.203400 0.719000
5.244100 0.649300
5.284700 0.582500
5.325400 0.531700
5.366100 0.487900
5.406700 0.463600
5.447400 0.445700
5.488100 0.460800
5.528700 0.491000
5.569400 0.535600
5.610100 0.622100
5.650700 0.677000
5.691400 0.710000
5.732100 0.745500
5.772700 0.781600
5.813400 0.818200
5.854100 0.863200
5.894700 0.957600
5.935400 1.017600
5.976100 1.085100
6.016700 1.101000
6.057400 1.204300
6.098100 1.339600
6.138700 1.462800
6.179400 1.497300
6.220100 1.602600
6.260700 1.626000
6.301400 1.560500
6.342100 1.426000
6.382700 1.217600
6.423400 1.072300
6.464100 1.060000
6.504700 1.096300
6.545400 1.144500
6.586100 1.181100
6.626700 1.193000
6.667400 1.305200
6.708100 1.397100
6.748700 1.442700
6.789400 1.496900
6.830100 1.571800
6.870700 1.482300
6.911400 1.391900
6.952100 1.391600
6.992700 1.407400
7.033400 1.452900
7.074100 2.054100
7.114700 2.954800
7.155400 2.474800
7.196100 2.360900
7.236700 2.042400
7.277400 1.689200
7.318100 1.622800
7.358700 1.552400
7.399400 1.481600
7.440100 1.432200
7.480700 1.385800
7.521400 1.351000
7.562100 1.350900
7.602700 1.336900
7.643400 1.330000
7.684100 1.332900
7.724700 1.436300
7.765400 1.468900
7.806100 1.467000
7.846700 1.469700
7.887400 1.472900
7.928100 1.475900
7.968700 1.473100
8.009400 1.470900
8.050100 1.475900
8.090700 1.487500
8.131400 1.503300
8.172100 1.513200
8.212700 1.522400
8.253400 1.459300
8.294100 1.429100
8.334700 1.385100
8.375400 1.338100
8.416100 1.274500
8.456700 1.256300
8.497400 1.247700
8.538100 1.175700
8.578700 1.176700
8.619400 1.180400
8.660100 1.178100
8.700700 1.181900
8.741400 1.187400
8.782100 1.192700
8.822700 1.196700
8.863400 1.200200
8.904100 1.205800
8.944700 1.504900
8.985400 1.429600
9.026100 1.438000
9.066700 1.446400
9.107400 1.455400
9.148100 1.476200
9.188700 1.493900
9.229400 1.509600
9.270100 1.532300
9.310700 1.599800
9.351400 1.652200
9.392100 1.812100
9.432700 1.999500
9.473400 2.507400
9.514100 2.050900
9.554700 1.973000
9.595400 1.899200
9.636100 1.797000
9.676700 1.728400
9.717400 1.566100
9.758100 1.434100
9.798700 1.402200
9.839400 1.375400
9.880100 1.361100
9.920700 1.382500
9.961400 1.546100
10.002100 1.559800
10.042700 1.506300
10.083400 1.518800
10.124100 1.509400
10.164700 1.442600
10.205400 1.372200
10.246100 1.306200
10.286700 1.241700
10.327400 1.199000
10.368100 1.191900
10.408700 1.107700
10.449400 1.085200
10.490100 1.064500
10.530700 1.314600
10.571400 1.048800
10.612100 1.122700
10.652700 1.305300
10.693400 1.368400
10.734100 1.397700
10.774700 1.433400
10.815400 1.493600
10.856100 1.465400
10.896700 1.449000
10.937400 1.423300
10.978100 1.382200
11.018700 1.373600
11.059400 1.366000
11.100100 1.359500
11.140700 1.358700
11.181400 1.387300
11.222100 1.712000
11.262700 2.107900
11.303400 1.841600
11.344100 1.990400
11.384700 1.926500
11.425400 1.784700
11.466100 1.617800
11.506700 1.511200
11.547400 1.437700
11.588100 1.792200
11.628700 1.345200
11.669400 1.381900
11.710100 1.444400
11.750700 1.478800
11.791400 1.497400
11.832100 1.521900
11.872700 1.701000
11.913400 1.920300
11.954100 1.688800
11.994700 1.746800
12.035400 1.807500
12.076000 1.841000
12.116700 1.872200
12.157400 1.852600
12.198000 1.863600
12.238700 1.809900
12.279400 1.739500
12.320000 1.689700
12.360700 1.776400
12.401400 1.791900
12.442000 1.869000
12.482700 1.952100
12.523400 1.988100
12.564000 2.006400
12.604700 2.038800
12.645400 1.920900
12.686000 1.869100
12.726700 1.773800
12.767400 1.693100
12.808000 1.620500
12.848700 1.580200
12.889400 1.525800
12.930000 1.448900
12.970700 1.304900
13.011400 1.202400
13.052000 1.152400
13.092700 1.101300
13.133400 1.055200
13.174000 1.024200
13.214700 1.010700
13.255400 0.999500
13.296000 1.020000
13.336700 1.014000
13.377400 1.018500
13.418000 1.037500
13.458700 1.067700
13.499400 1.062100
13.540000 1.100600
13.580700 1.189700
13.621400 1.291700
13.662000 1.400200
13.702700 1.455800
13.743400 1.550900
13.784000 1.570300
13.824700 1.599500
13.865400 1.620100
13.906000 1.616600
13.946700 1.535500
13.987400 1.511100
14.028000 1.476800
14.068700 1.448700
14.109400 1.463400
14.150000 1.490200
14.190700 1.527200
14.231400 1.538800
14.272000 1.480700
14.312700 1.485700
14.353400 1.509400
14.394000 1.532400
14.434700 1.533200
14.475400 1.521800
14.516000 1.535800
14.556700 1.552800
14.597400 1.566600
14.638000 1.534900
14.678700 1.632600
14.719400 1.762300
14.760000 1.980000
14.800700 2.174700
14.841400 2.316700
14.882000 2.261300
14.922700 2.194400
14.963400 2.056100
15.004000 1.962100
15.044700 1.803300
15.085400 1.715600
15.126000 1.397300
15.166700 1.246300
15.207400 1.269500
15.248000 1.103400
15.288700 1.042300
15.329400 0.992100
15.370000 0.984100
15.410700 1.171900
15.451400 1.195900
15.492000 1.181600
15.532700 1.187300
15.573400 1.220600
15.614000 1.270900
15.654700 1.368600
15.695400 1.360100
15.736000 1.371300
15.776700 1.384400
15.817400 1.359500
15.858000 1.373500
15.898700 1.385300
15.939400 1.400100
15.980000 1.442200
16.020700 1.498600
16.061400 1.497300
16.102000 1.550000
16.142700 1.587600
16.183400 1.677100
16.224000 1.691500
16.264700 1.676100
16.305400 1.730600
16.346000 1.813200
16.386700 1.716400
16.427400 1.619400
16.468000 1.634100
16.508700 1.709400
16.549400 1.512100
16.590000 1.476900
16.630700 1.489600
16.671400 1.324000
16.712000 1.299400
16.752700 1.280300
16.793400 1.259600
16.834000 1.244800
16.874700 1.259200
16.915400 1.282700
16.956000 1.314400
16.996700 1.372300
17.037400 1.450300
17.078000 1.582400
17.118700 1.790200
17.159400 1.925700
17.200000 1.782000
17.240700 1.744000
17.281400 1.662500
17.322000 1.660900
17.362700 1.686800
17.403400 2.000100
17.444000 1.924800
17.484700 1.934300
