set title 'mp-23152 - Density of States'
set xlabel 'Energy (eV)'
set ylabel 'DOS (states/eV)'
set grid
set xrange [-10:10]
set yrange [0:2.574]
set xzeroaxis lt -1
set terminal png size 800,600
set output 'mp-23152_dos_gnuplot.png'
plot '-' using 1:2 with lines title 'DOS'
-9.484000 0.000000
-9.467900 0.000000
-9.451800 0.000000
-9.435600 0.000000
-9.419500 0.000000
-9.403400 0.000000
-9.387200 0.000000
-9.371100 0.000000
-9.355000 0.000000
-9.338800 0.000000
-9.322700 0.000000
-9.306600 0.000000
-9.290400 0.000000
-9.274300 0.000000
-9.258200 0.000000
-9.242000 0.000000
-9.225900 0.000000
-9.209700 0.000000
-9.193600 0.000000
-9.177500 0.000000
-9.161300 0.000000
-9.145200 0.000000
-9.129100 0.000000
-9.112900 0.000000
-9.096800 0.000000
-9.080700 0.000000
-9.064500 0.000000
-9.048400 0.000000
-9.032300 0.000000
-9.016100 0.000000
-9.000000 0.000000
-8.983900 0.000000
-8.967700 0.000000
-8.951600 0.000000
-8.935500 0.000000
-8.919300 0.000000
-8.903200 0.000000
-8.887100 0.000000
-8.870900 0.000000
-8.854800 0.000000
-8.838700 0.000000
-8.822500 0.000000
-8.806400 0.000000
-8.790200 0.000000
-8.774100 0.000000
-8.758000 0.000000
-8.741800 0.000000
-8.725700 0.000000
-8.709600 0.000000
-8.693400 0.000000
-8.677300 0.000000
-8.661200 0.000000
-8.645000 0.000000
-8.628900 0.000000
-8.612800 0.000000
-8.596600 0.000000
-8.580500 0.000000
-8.564400 0.000000
-8.548200 0.000000
-8.532100 0.000000
-8.516000 0.000000
-8.499800 0.000000
-8.483700 0.000000
-8.467600 0.000000
-8.451400 0.000000
-8.435300 0.000000
-8.419200 0.000000
-8.403000 0.000000
-8.386900 0.000000
-8.370700 0.000000
-8.354600 0.000000
-8.338500 0.000000
-8.322300 0.000000
-8.306200 0.000000
-8.290100 0.000000
-8.273900 0.000000
-8.257800 0.000000
-8.241700 0.000000
-8.225500 0.000000
-8.209400 0.000000
-8.193300 0.000000
-8.177100 0.000000
-8.161000 0.000000
-8.144900 0.000000
-8.128700 0.000000
-8.112600 0.000000
-8.096500 0.000000
-8.080300 0.000000
-8.064200 0.000000
-8.048100 0.000000
-8.031900 0.000000
-8.015800 0.000200
-7.999700 0.030100
-7.983500 0.110700
-7.967400 0.126200
-7.951200 0.149000
-7.935100 0.174700
-7.919000 0.202100
-7.902800 0.227700
-7.886700 0.242200
-7.870600 0.249500
-7.854400 0.262900
-7.838300 0.278800
-7.822200 0.295100
-7.806000 0.311700
-7.789900 0.328600
-7.773800 0.342600
-7.757600 0.353000
-7.741500 0.363400
-7.725400 0.374000
-7.709200 0.384600
-7.693100 0.395500
-7.677000 0.407100
-7.660800 0.419600
-7.644700 0.432600
-7.628600 0.445600
-7.612400 0.457700
-7.596300 0.469200
-7.580200 0.479900
-7.564000 0.489300
-7.547900 0.498200
-7.531700 0.508300
-7.515600 0.518600
-7.499500 0.529200
-7.483300 0.539900
-7.467200 0.550800
-7.451100 0.561800
-7.434900 0.573200
-7.418800 0.584500
-7.402700 0.595600
-7.386500 0.607000
-7.370400 0.618300
-7.354300 0.629900
-7.338100 0.640100
-7.322000 0.650700
-7.305900 0.661400
-7.289700 0.672100
-7.273600 0.683100
-7.257500 0.694500
-7.241300 0.706300
-7.225200 0.718200
-7.209100 0.730200
-7.192900 0.742600
-7.176800 0.755300
-7.160700 0.768400
-7.144500 0.782100
-7.128400 0.796200
-7.112200 0.810800
-7.096100 0.825800
-7.080000 0.841200
-7.063800 0.856400
-7.047700 0.871700
-7.031600 0.887900
-7.015400 0.905000
-6.999300 0.923100
-6.983200 0.942000
-6.967000 0.962000
-6.950900 0.986200
-6.934800 1.013800
-6.918600 1.067800
-6.902500 1.137900
-6.886400 1.105200
-6.870200 1.115300
-6.854100 1.125000
-6.838000 1.131900
-6.821800 1.124600
-6.805700 1.133400
-6.789600 1.147000
-6.773400 1.159800
-6.757300 1.170600
-6.741200 1.175500
-6.725000 1.176900
-6.708900 1.186300
-6.692700 1.197100
-6.676600 1.209000
-6.660500 1.222100
-6.644300 1.234600
-6.628200 1.246600
-6.612100 1.258000
-6.595900 1.268700
-6.579800 1.279300
-6.563700 1.295800
-6.547500 1.313200
-6.531400 1.331200
-6.515300 1.351000
-6.499100 1.373200
-6.483000 1.396900
-6.466900 1.422300
-6.450700 1.449400
-6.434600 1.476000
-6.418500 1.510000
-6.402300 1.551500
-6.386200 1.606500
-6.370100 1.680400
-6.353900 1.780100
-6.337800 1.869100
-6.321700 1.945700
-6.305500 1.993100
-6.289400 2.024500
-6.273200 2.069900
-6.257100 2.101300
-6.241000 2.166200
-6.224800 2.150400
-6.208700 2.110900
-6.192600 1.940500
-6.176400 1.695100
-6.160300 1.523400
-6.144200 1.462000
-6.128000 1.390000
-6.111900 1.222300
-6.095800 1.177700
-6.079600 1.113600
-6.063500 1.027300
-6.047400 0.946300
-6.031200 0.903400
-6.015100 0.862600
-5.999000 0.799800
-5.982800 0.731700
-5.966700 0.671400
-5.950600 0.622500
-5.934400 0.575700
-5.918300 0.532700
-5.902200 0.496200
-5.886000 0.462200
-5.869900 0.425600
-5.853700 0.363900
-5.837600 0.291500
-5.821500 0.252200
-5.805300 0.212500
-5.789200 0.172500
-5.773100 0.132000
-5.756900 0.091200
-5.740800 0.050000
-5.724700 0.009600
-5.708500 0.000000
-5.692400 0.000000
-5.676300 0.002400
-5.660100 0.032400
-5.644000 0.069400
-5.627900 0.106500
-5.611700 0.143600
-5.595600 0.180700
-5.579500 0.218100
-5.563300 0.281200
-5.547200 0.417500
-5.531100 0.646500
-5.514900 0.838800
-5.498800 0.962600
-5.482700 0.997300
-5.466500 1.016900
-5.450400 1.076400
-5.434200 1.125200
-5.418100 1.105200
-5.402000 1.114800
-5.385800 1.116000
-5.369700 1.111300
-5.353600 1.131900
-5.337400 1.150700
-5.321300 1.176000
-5.305200 1.193000
-5.289000 1.197200
-5.272900 1.202400
-5.256800 1.211700
-5.240600 1.222800
-5.224500 1.232700
-5.208400 1.243300
-5.192200 1.257700
-5.176100 1.277100
-5.160000 1.301400
-5.143800 1.322600
-5.127700 1.334500
-5.111600 1.345500
-5.095400 1.358400
-5.079300 1.371500
-5.063200 1.382900
-5.047000 1.406900
-5.030900 1.439700
-5.014700 1.468900
-4.998600 1.491700
-4.982500 1.500800
-4.966300 1.518800
-4.950200 1.552000
-4.934100 1.629600
-4.917900 1.639000
-4.901800 1.687200
-4.885700 1.863900
-4.869500 2.339700
-4.853400 1.968500
-4.837300 1.801900
-4.821100 1.697700
-4.805000 1.619900
-4.788900 1.544600
-4.772700 1.504700
-4.756600 1.485000
-4.740500 1.456200
-4.724300 1.432500
-4.708200 1.423200
-4.692100 1.415800
-4.675900 1.398300
-4.659800 1.361900
-4.643700 1.288200
-4.627500 1.194000
-4.611400 1.136900
-4.595200 1.096000
-4.579100 1.061900
-4.563000 1.028000
-4.546800 0.998000
-4.530700 0.971100
-4.514600 0.947100
-4.498400 0.927100
-4.482300 0.907500
-4.466200 0.887900
-4.450000 0.867900
-4.433900 0.848000
-4.417800 0.828100
-4.401600 0.808100
-4.385500 0.788200
-4.369400 0.767500
-4.353200 0.744700
-4.337100 0.724100
-4.321000 0.706100
-4.304800 0.690100
-4.288700 0.676000
-4.272600 0.660400
-4.256400 0.646000
-4.240300 0.632600
-4.224200 0.622000
-4.208000 0.611700
-4.191900 0.601300
-4.175700 0.590900
-4.159600 0.580400
-4.143500 0.569700
-4.127300 0.558800
-4.111200 0.548000
-4.095100 0.537200
-4.078900 0.526500
-4.062800 0.515800
-4.046700 0.505100
-4.030500 0.493800
-4.014400 0.481900
-3.998300 0.470400
-3.982100 0.459100
-3.966000 0.448200
-3.949900 0.439200
-3.933700 0.430500
-3.917600 0.422000
-3.901500 0.414800
-3.885300 0.407900
-3.869200 0.401000
-3.853100 0.394200
-3.836900 0.387300
-3.820800 0.380500
-3.804700 0.373500
-3.788500 0.366400
-3.772400 0.359300
-3.756200 0.352100
-3.740100 0.345000
-3.724000 0.337900
-3.707800 0.330900
-3.691700 0.323900
-3.675600 0.316900
-3.659400 0.309700
-3.643300 0.302300
-3.627200 0.295000
-3.611000 0.288000
-3.594900 0.281500
-3.578800 0.275700
-3.562600 0.270300
-3.546500 0.265000
-3.530400 0.259700
-3.514200 0.254400
-3.498100 0.249100
-3.482000 0.243900
-3.465800 0.238700
-3.449700 0.233500
-3.433600 0.228300
-3.417400 0.223100
-3.401300 0.217800
-3.385200 0.212600
-3.369000 0.207400
-3.352900 0.202200
-3.336700 0.197100
-3.320600 0.192000
-3.304500 0.186900
-3.288300 0.181900
-3.272200 0.176900
-3.256100 0.172000
-3.239900 0.167100
-3.223800 0.162200
-3.207700 0.157400
-3.191500 0.152600
-3.175400 0.147900
-3.159300 0.143200
-3.143100 0.138500
-3.127000 0.133900
-3.110900 0.129400
-3.094700 0.125100
-3.078600 0.121200
-3.062500 0.117700
-3.046300 0.114000
-3.030200 0.109600
-3.014100 0.104700
-2.997900 0.099100
-2.981800 0.093100
-2.965700 0.087200
-2.949500 0.081400
-2.933400 0.075800
-2.917300 0.070200
-2.901100 0.064900
-2.885000 0.059600
-2.868800 0.055700
-2.852700 0.061400
-2.836600 0.047400
-2.820400 0.030200
-2.804300 0.016900
-2.788200 0.007400
-2.772000 0.001800
-2.755900 0.000000
-2.739800 0.000000
-2.723600 0.000000
-2.707500 0.000000
-2.691400 0.000000
-2.675200 0.000000
-2.659100 0.000000
-2.643000 0.000000
-2.626800 0.000000
-2.610700 0.000000
-2.594600 0.000000
-2.578400 0.000000
-2.562300 0.000000
-2.546200 0.000000
-2.530000 0.000000
-2.513900 0.000000
-2.497800 0.000000
-2.481600 0.000000
-2.465500 0.000000
-2.449300 0.000000
-2.433200 0.000000
-2.417100 0.000000
-2.400900 0.000000
-2.384800 0.000000
-2.368700 0.000000
-2.352500 0.000000
-2.336400 0.000000
-2.320300 0.000000
-2.304100 0.000000
-2.288000 0.000000
-2.271900 0.000000
-2.255700 0.000000
-2.239600 0.000000
-2.223500 0.000000
-2.207300 0.000000
-2.191200 0.000000
-2.175100 0.000000
-2.158900 0.000000
-2.142800 0.000000
-2.126700 0.000000
-2.110500 0.000000
-2.094400 0.000000
-2.078300 0.000000
-2.062100 0.000000
-2.046000 0.000000
-2.029800 0.000000
-2.013700 0.000000
-1.997600 0.000000
-1.981400 0.000000
-1.965300 0.000000
-1.949200 0.000000
-1.933000 0.000000
-1.916900 0.000000
-1.900800 0.000000
-1.884600 0.000000
-1.868500 0.000000
-1.852400 0.000000
-1.836200 0.000000
-1.820100 0.000000
-1.804000 0.000000
-1.787800 0.000000
-1.771700 0.000000
-1.755600 0.000000
-1.739400 0.000000
-1.723300 0.000000
-1.707200 0.000000
-1.691000 0.000000
-1.674900 0.000000
-1.658800 0.000000
-1.642600 0.000000
-1.626500 0.000000
-1.610300 0.000000
-1.594200 0.000000
-1.578100 0.000000
-1.561900 0.000000
-1.545800 0.000000
-1.529700 0.000000
-1.513500 0.000000
-1.497400 0.000000
-1.481300 0.000000
-1.465100 0.000000
-1.449000 0.000000
-1.432900 0.000000
-1.416700 0.000000
-1.400600 0.000000
-1.384500 0.000000
-1.368300 0.000000
-1.352200 0.000000
-1.336100 0.000000
-1.319900 0.000000
-1.303800 0.000000
-1.287700 0.000000
-1.271500 0.000000
-1.255400 0.000000
-1.239300 0.000000
-1.223100 0.000000
-1.207000 0.000000
-1.190800 0.000000
-1.174700 0.000000
-1.158600 0.000000
-1.142400 0.000000
-1.126300 0.000000
-1.110200 0.000000
-1.094000 0.000000
-1.077900 0.000000
-1.061800 0.000000
-1.045600 0.000000
-1.029500 0.000000
-1.013400 0.000000
-0.997200 0.000000
-0.981100 0.000000
-0.965000 0.000000
-0.948800 0.000000
-0.932700 0.000000
-0.916600 0.000000
-0.900400 0.000000
-0.884300 0.000000
-0.868200 0.000000
-0.852000 0.000000
-0.835900 0.000000
-0.819800 0.000000
-0.803600 0.000000
-0.787500 0.000000
-0.771300 0.000000
-0.755200 0.000000
-0.739100 0.000000
-0.722900 0.000000
-0.706800 0.000000
-0.690700 0.000000
-0.674500 0.000000
-0.658400 0.000000
-0.642300 0.000000
-0.626100 0.000000
-0.610000 0.000000
-0.593900 0.000000
-0.577700 0.000000
-0.561600 0.000000
-0.545500 0.000000
-0.529300 0.000000
-0.513200 0.000000
-0.497100 0.000000
-0.480900 0.000000
-0.464800 0.000000
-0.448700 0.000000
-0.432500 0.000000
-0.416400 0.000000
-0.400300 0.000000
-0.384100 0.000000
-0.368000 0.000000
-0.351800 0.000000
-0.335700 0.000000
-0.319600 0.000000
-0.303400 0.000000
-0.287300 0.000000
-0.271200 0.000000
-0.255000 0.000000
-0.238900 0.000000
-0.222800 0.000000
-0.206600 0.000000
-0.190500 0.000000
-0.174400 0.000000
-0.158200 0.000000
-0.142100 0.000000
-0.126000 0.000000
-0.109800 0.000000
-0.093700 0.000000
-0.077600 0.000000
-0.061400 0.000000
-0.045300 0.000000
-0.029200 0.000000
-0.013000 0.000000
0.003100 0.000000
0.019200 0.000000
0.035400 0.000000
0.051500 0.000000
0.067700 0.000000
0.083800 0.000000
0.099900 0.000000
0.116100 0.000000
0.132200 0.000000
0.148300 0.000000
0.164500 0.000000
0.180600 0.000000
0.196700 0.000000
0.212900 0.000000
0.229000 0.000000
0.245100 0.000000
0.261300 0.000000
0.277400 0.000000
0.293500 0.000000
0.309700 0.000000
0.325800 0.000000
0.341900 0.000000
0.358100 0.000000
0.374200 0.000000
0.390300 0.000000
0.406500 0.082300
0.422600 0.179200
0.438700 0.253700
0.454900 0.337800
0.471000 0.397500
0.487200 0.386500
0.503300 0.413800
0.519400 0.443200
0.535600 0.474800
0.551700 0.497900
0.567800 0.523800
0.584000 0.560800
0.600100 0.584400
0.616200 0.585800
0.632400 0.602800
0.648500 0.618400
0.664600 0.633300
0.680800 0.650100
0.696900 0.666300
0.713000 0.681100
0.729200 0.698600
0.745300 0.721900
0.761400 0.742800
0.777600 0.766200
0.793700 0.792000
0.809800 0.818800
0.826000 0.846800
0.842100 0.882100
0.858200 0.925900
0.874400 0.976000
0.890500 1.019100
0.906700 1.037000
0.922800 1.025900
0.938900 1.003200
0.955100 0.979800
0.971200 0.966200
0.987300 0.957800
1.003500 0.951000
1.019600 0.945200
1.035700 0.942400
1.051900 0.940700
1.068000 0.937000
1.084100 0.933900
1.100300 0.923400
1.116400 0.912100
1.132500 0.917500
1.148700 0.938000
1.164800 0.966700
1.180900 0.982300
1.197100 0.984600
1.213200 0.990100
1.229300 0.998100
1.245500 1.007400
1.261600 1.017000
1.277700 1.026300
1.293900 1.034700
1.310000 1.042700
1.326200 1.051100
1.342300 1.059400
1.358400 1.067100
1.374600 1.074200
1.390700 1.078700
1.406800 1.086300
1.423000 1.095400
1.439100 1.104600
1.455200 1.113300
1.471400 1.124700
1.487500 1.137000
1.503600 1.148900
1.519800 1.159200
1.535900 1.168500
1.552000 1.177600
1.568200 1.187700
1.584300 1.201900
1.600400 1.214900
1.616600 1.227400
1.632700 1.239400
1.648800 1.252600
1.665000 1.267700
1.681100 1.282600
1.697200 1.296600
1.713400 1.310000
1.729500 1.323700
1.745700 1.338100
1.761800 1.353600
1.777900 1.370000
1.794100 1.387100
1.810200 1.404700
1.826300 1.423700
1.842500 1.444100
1.858600 1.465300
1.874700 1.485000
1.890900 1.504700
1.907000 1.525700
1.923100 1.553500
1.939300 1.582900
1.955400 1.641900
1.971500 1.757800
1.987700 1.820000
2.003800 1.838500
2.019900 1.861300
2.036100 1.860200
2.052200 1.847400
2.068300 1.830200
2.084500 1.854600
2.100600 1.875700
2.116700 1.882500
2.132900 1.881700
2.149000 1.881300
2.165200 1.880500
2.181300 1.878600
2.197400 1.870800
2.213600 1.864400
2.229700 1.853000
2.245800 1.846000
2.262000 1.844300
2.278100 1.843800
2.294200 1.840100
2.310400 1.839100
2.326500 1.840500
2.342600 1.844100
2.358800 1.847400
2.374900 1.849400
2.391000 1.852100
2.407200 1.852800
2.423300 1.849200
2.439400 1.843200
2.455600 1.837300
2.471700 1.834300
2.487800 1.830500
2.504000 1.824400
2.520100 1.819600
2.536200 1.816700
2.552400 1.815500
2.568500 1.814200
2.584700 1.812500
2.600800 1.810600
2.616900 1.808700
2.633100 1.807100
2.649200 1.806800
2.665300 1.807600
2.681500 1.808500
2.697600 1.810000
2.713700 1.811600
2.729900 1.814000
2.746000 1.816900
2.762100 1.818300
2.778300 1.818500
2.794400 1.817100
2.810500 1.815300
2.826700 1.814000
2.842800 1.813200
2.858900 1.814000
2.875100 1.819800
2.891200 1.823500
2.907300 1.825600
2.923500 1.826800
2.939600 1.827400
2.955700 1.829500
2.971900 1.832200
2.988000 1.834700
3.004200 1.834400
3.020300 1.831000
3.036400 1.830900
3.052600 1.833400
3.068700 1.836900
3.084800 1.840400
3.101000 1.840700
3.117100 1.836900
3.133200 1.832200
3.149400 1.828600
3.165500 1.828700
3.181600 1.831500
3.197800 1.835600
3.213900 1.839700
3.230000 1.840700
3.246200 1.840600
3.262300 1.841600
3.278400 1.843400
3.294600 1.847200
3.310700 1.856700
3.326800 1.874300
3.343000 1.878900
3.359100 1.879700
3.375200 1.880400
3.391400 1.878000
3.407500 1.878200
3.423700 1.881600
3.439800 1.890900
3.455900 1.902500
3.472100 1.913500
3.488200 1.927900
3.504300 1.923600
3.520500 1.886100
3.536600 1.918400
3.552700 1.961800
3.568900 1.996800
3.585000 2.034200
3.601100 2.081600
3.617300 2.069500
3.633400 1.993200
3.649500 1.905000
3.665700 1.820000
3.681800 1.787100
3.697900 1.772900
3.714100 1.754900
3.730200 1.713600
3.746300 1.688200
3.762500 1.667600
3.778600 1.649000
3.794700 1.635300
3.810900 1.625500
3.827000 1.617000
3.843200 1.608200
3.859300 1.607100
3.875400 1.611800
3.891600 1.624900
3.907700 1.638400
3.923800 1.641100
3.940000 1.646200
3.956100 1.664500
3.972200 1.687700
3.988400 1.706000
4.004500 1.712600
4.020600 1.707000
4.036800 1.691300
4.052900 1.678700
4.069000 1.655600
4.085200 1.623800
4.101300 1.592600
4.117400 1.549100
4.133600 1.492800
4.149700 1.442800
4.165800 1.390200
4.182000 1.330900
4.198100 1.285800
4.214200 1.246900
4.230400 1.205800
4.246500 1.200500
4.262700 1.208900
4.278800 1.184700
4.294900 1.174000
4.311100 1.162100
4.327200 1.134500
4.343300 1.097800
4.359500 1.057900
4.375600 1.017000
4.391700 0.979700
4.407900 0.956400
4.424000 0.939100
4.440100 0.930500
4.456300 0.916100
4.472400 0.890200
4.488500 0.864300
4.504700 0.850700
4.520800 0.826500
4.536900 0.788400
4.553100 0.735100
4.569200 0.669900
4.585300 0.611500
4.601500 0.602600
4.617600 0.636800
4.633700 0.585000
4.649900 0.503900
4.666000 0.379100
4.682200 0.257800
4.698300 0.137600
4.714400 0.051500
4.730600 0.016900
4.746700 0.009500
4.762800 0.008200
4.779000 0.009900
4.795100 0.012700
4.811200 0.016300
4.827400 0.020800
4.843500 0.026300
4.859600 0.032900
4.875800 0.040600
4.891900 0.049200
4.908000 0.058100
4.924200 0.067600
4.940300 0.077900
4.956400 0.088900
4.972600 0.100800
4.988700 0.114300
5.004800 0.129400
5.021000 0.145900
5.037100 0.164100
5.053200 0.184500
5.069400 0.210400
5.085500 0.249800
5.101700 0.347900
5.117800 0.346800
5.133900 0.354100
5.150100 0.389400
5.166200 0.417300
5.182300 0.451400
5.198500 0.497000
5.214600 0.550500
5.230700 0.646600
5.246900 0.813100
5.263000 0.821700
5.279100 0.820600
5.295300 0.788900
5.311400 0.731000
5.327500 0.684000
5.343700 0.687300
5.359800 0.700400
5.375900 0.721200
5.392100 0.749000
5.408200 0.793400
5.424300 0.855300
5.440500 0.931200
5.456600 1.005300
5.472700 1.082900
5.488900 1.159400
5.505000 1.203100
5.521200 1.273700
5.537300 1.344300
5.553400 1.405600
5.569600 1.462200
5.585700 1.536200
5.601800 1.613600
5.618000 1.690400
5.634100 1.765700
5.650200 1.832100
5.666400 1.876300
5.682500 1.897200
5.698600 1.900400
5.714800 1.884400
5.730900 1.855600
5.747000 1.814000
5.763200 1.761400
5.779300 1.706500
5.795400 1.651900
5.811600 1.600800
5.827700 1.555200
5.843800 1.514700
5.860000 1.478600
5.876100 1.446200
5.892200 1.417300
5.908400 1.391400
5.924500 1.371100
5.940700 1.354700
5.956800 1.340100
5.972900 1.329500
5.989100 1.322400
6.005200 1.318100
6.021300 1.318600
6.037500 1.319500
6.053600 1.320100
6.069700 1.319900
6.085900 1.319100
6.102000 1.318000
6.118100 1.316900
6.134300 1.315700
6.150400 1.314600
6.166500 1.313300
6.182700 1.311800
6.198800 1.310300
6.214900 1.309000
6.231100 1.307900
6.247200 1.307000
6.263300 1.306200
6.279500 1.305500
6.295600 1.304900
6.311700 1.304500
6.327900 1.304100
6.344000 1.303800
6.360200 1.303400
6.376300 1.303000
6.392400 1.302600
6.408600 1.301900
6.424700 1.300300
6.440800 1.298500
6.457000 1.295900
6.473100 1.291900
6.489200 1.287300
6.505400 1.282500
6.521500 1.278700
6.537600 1.276400
6.553800 1.274800
6.569900 1.273700
6.586000 1.273000
6.602200 1.272600
6.618300 1.272600
6.634400 1.272900
6.650600 1.273500
6.666700 1.274400
6.682800 1.275600
6.699000 1.277100
6.715100 1.278700
6.731200 1.280900
6.747400 1.283300
6.763500 1.286200
6.779700 1.289300
6.795800 1.292600
6.811900 1.296100
6.828100 1.300100
6.844200 1.304400
6.860300 1.309100
6.876500 1.313900
6.892600 1.319000
6.908700 1.324200
6.924900 1.329800
6.941000 1.335900
6.957100 1.342800
6.973300 1.350300
6.989400 1.360700
7.005500 1.369300
7.021700 1.377400
7.037800 1.385000
7.053900 1.392500
7.070100 1.399000
7.086200 1.404700
7.102300 1.409600
7.118500 1.410600
7.134600 1.413800
7.150700 1.421500
7.166900 1.433200
7.183000 1.448300
7.199200 1.499900
7.215300 1.553400
7.231400 1.617900
7.247600 1.693500
7.263700 1.779000
7.279800 1.878700
7.296000 2.003400
7.312100 2.130900
7.328200 2.260800
7.344400 2.282100
7.360500 2.252900
7.376600 2.249800
7.392800 2.304300
7.408900 2.338900
7.425000 2.174600
7.441200 1.842800
7.457300 1.706200
7.473400 1.636500
7.489600 1.584300
7.505700 1.548000
7.521800 1.466900
7.538000 1.409200
7.554100 1.367400
7.570200 1.337500
7.586400 1.333400
7.602500 1.303000
7.618700 1.263500
7.634800 1.258700
7.650900 1.257600
