set title 'mp-567505 - Density of States'
set xlabel 'Energy (eV)'
set ylabel 'DOS (states/eV)'
set grid
set xrange [-10:10]
set yrange [0:18.432]
set xzeroaxis lt -1
set terminal png size 800,600
set output 'mp-567505_dos_gnuplot.png'
plot '-' using 1:2 with lines title 'DOS'
-8.999700 0.000000
-8.981500 0.000000
-8.963300 0.000000
-8.945100 0.000000
-8.926900 0.000000
-8.908700 0.000000
-8.890500 0.000000
-8.872300 0.000000
-8.854100 0.000000
-8.835900 0.000000
-8.817700 0.000000
-8.799600 0.000000
-8.781400 0.000000
-8.763200 0.000000
-8.745000 0.000000
-8.726800 0.000000
-8.708600 0.000000
-8.690400 0.000000
-8.672200 0.000000
-8.654000 0.000000
-8.635800 0.000000
-8.617600 0.000000
-8.599400 0.000000
-8.581200 0.000000
-8.563000 0.000000
-8.544800 0.000000
-8.526600 0.000000
-8.508400 0.000000
-8.490200 0.000000
-8.472000 0.000000
-8.453900 0.000000
-8.435700 0.000000
-8.417500 0.000000
-8.399300 0.000000
-8.381100 0.000000
-8.362900 0.000000
-8.344700 0.000000
-8.326500 0.000000
-8.308300 0.000000
-8.290100 0.000000
-8.271900 0.000000
-8.253700 0.000000
-8.235500 0.000000
-8.217300 0.000000
-8.199100 0.000000
-8.180900 0.000000
-8.162700 0.000000
-8.144500 0.000000
-8.126400 0.000000
-8.108200 0.000000
-8.090000 0.000000
-8.071800 0.000000
-8.053600 0.000000
-8.035400 0.000000
-8.017200 0.000000
-7.999000 0.000000
-7.980800 0.000000
-7.962600 0.000000
-7.944400 0.000000
-7.926200 0.000000
-7.908000 0.000000
-7.889800 0.000000
-7.871600 0.000000
-7.853400 0.000000
-7.835200 0.000000
-7.817000 0.000000
-7.798800 0.000000
-7.780700 0.000000
-7.762500 0.000000
-7.744300 0.000000
-7.726100 0.000000
-7.707900 0.000000
-7.689700 0.000000
-7.671500 0.000000
-7.653300 0.000000
-7.635100 0.000000
-7.616900 0.000000
-7.598700 0.000000
-7.580500 0.000000
-7.562300 0.000000
-7.544100 0.000000
-7.525900 0.000000
-7.507700 0.000000
-7.489500 0.000000
-7.471300 0.000000
-7.453100 0.000000
-7.435000 0.000000
-7.416800 0.000000
-7.398600 0.000000
-7.380400 0.000000
-7.362200 0.000000
-7.344000 0.005500
-7.325800 0.065700
-7.307600 0.125800
-7.289400 0.186000
-7.271200 0.246200
-7.253000 0.306400
-7.234800 0.366600
-7.216600 0.426800
-7.198400 0.487000
-7.180200 0.547100
-7.162000 0.607300
-7.143800 0.667500
-7.125600 0.356300
-7.107400 0.361500
-7.089300 0.366800
-7.071100 0.372000
-7.052900 0.421500
-7.034700 0.488000
-7.016500 0.573900
-6.998300 0.701300
-6.980100 0.828700
-6.961900 0.956100
-6.943700 1.083500
-6.925500 1.210900
-6.907300 1.338300
-6.889100 1.465700
-6.870900 1.593100
-6.852700 1.361000
-6.834500 1.432500
-6.816300 1.504000
-6.798100 1.185300
-6.779900 1.201200
-6.761700 1.217000
-6.743600 1.232900
-6.725400 1.248700
-6.707200 1.259700
-6.689000 1.264700
-6.670800 1.269700
-6.652600 1.274700
-6.634400 1.279700
-6.616200 1.284700
-6.598000 1.289700
-6.579800 1.294700
-6.561600 1.299700
-6.543400 1.304700
-6.525200 1.309700
-6.507000 1.315500
-6.488800 1.328300
-6.470600 1.341000
-6.452400 1.353700
-6.434200 1.361800
-6.416100 1.363500
-6.397900 1.365300
-6.379700 1.357000
-6.361500 1.347700
-6.343300 1.338500
-6.325100 1.329300
-6.306900 1.320100
-6.288700 1.310900
-6.270500 1.301600
-6.252300 1.292400
-6.234100 1.284800
-6.215900 1.283400
-6.197700 1.281900
-6.179500 1.285600
-6.161300 1.330100
-6.143100 1.448300
-6.124900 1.583300
-6.106700 1.718300
-6.088500 1.853300
-6.070400 1.988300
-6.052200 2.123300
-6.034000 2.258200
-6.015800 2.393200
-5.997600 2.528200
-5.979400 2.663200
-5.961200 2.421200
-5.943000 2.114200
-5.924800 2.132000
-5.906600 2.149700
-5.888400 2.138200
-5.870200 2.154200
-5.852000 2.170300
-5.833800 2.186300
-5.815600 2.202300
-5.797400 2.218400
-5.779200 2.234400
-5.761000 2.250500
-5.742800 2.266500
-5.724700 2.282600
-5.706500 2.298600
-5.688300 2.314600
-5.670100 2.330700
-5.651900 2.346700
-5.633700 2.335400
-5.615500 2.349800
-5.597300 2.364300
-5.579100 2.350600
-5.560900 2.360600
-5.542700 2.358800
-5.524500 2.349100
-5.506300 2.339800
-5.488100 2.331300
-5.469900 2.322900
-5.451700 2.314400
-5.433500 2.306000
-5.415300 2.297500
-5.397100 2.289100
-5.379000 2.280600
-5.360800 2.275700
-5.342600 2.278800
-5.324400 2.286500
-5.306200 2.294100
-5.288000 2.301700
-5.269800 2.309300
-5.251600 2.317500
-5.233400 2.326400
-5.215200 2.335400
-5.197000 2.345000
-5.178800 2.355200
-5.160600 2.365500
-5.142400 2.375700
-5.124200 2.386000
-5.106000 2.396200
-5.087800 2.406400
-5.069600 2.416700
-5.051400 2.426900
-5.033300 2.437200
-5.015100 2.447400
-4.996900 2.457600
-4.978700 2.467900
-4.960500 2.478100
-4.942300 2.488400
-4.924100 2.498100
-4.905900 2.507600
-4.887700 2.517200
-4.869500 2.526800
-4.851300 2.536300
-4.833100 2.586100
-4.814900 2.677200
-4.796700 2.831600
-4.778500 2.962900
-4.760300 3.094800
-4.742100 3.251200
-4.723900 3.407600
-4.705800 3.564000
-4.687600 3.720800
-4.669400 3.877800
-4.651200 4.034900
-4.633000 3.756000
-4.614800 3.439800
-4.596600 3.465600
-4.578400 3.491400
-4.560200 3.517200
-4.542000 3.542900
-4.523800 3.573900
-4.505600 3.605700
-4.487400 3.637600
-4.469200 3.671600
-4.451000 3.707800
-4.432800 3.744900
-4.414600 3.783200
-4.396400 3.822900
-4.378200 3.862500
-4.360100 3.902200
-4.341900 3.941800
-4.323700 3.981500
-4.305500 4.021200
-4.287300 4.328200
-4.269100 4.341700
-4.250900 4.347100
-4.232700 4.342400
-4.214500 4.336300
-4.196300 4.330100
-4.178100 4.323900
-4.159900 4.317800
-4.141700 4.311600
-4.123500 4.305400
-4.105300 4.640900
-4.087100 4.599300
-4.068900 4.563000
-4.050700 4.534700
-4.032500 4.824100
-4.014400 4.767900
-3.996200 4.711700
-3.978000 4.655600
-3.959800 4.599400
-3.941600 4.543200
-3.923400 4.488200
-3.905200 4.441400
-3.887000 4.400300
-3.868800 4.361800
-3.850600 4.323300
-3.832400 4.299700
-3.814200 4.347100
-3.796000 4.398200
-3.777800 4.369100
-3.759600 4.451000
-3.741400 4.538800
-3.723200 4.659400
-3.705000 4.941100
-3.686800 5.222900
-3.668700 5.504700
-3.650500 5.353300
-3.632300 5.557600
-3.614100 4.678500
-3.595900 4.708900
-3.577700 4.738100
-3.559500 6.082500
-3.541300 8.177900
-3.523100 4.823000
-3.504900 5.492000
-3.486700 5.388200
-3.468500 5.284400
-3.450300 5.752000
-3.432100 5.544900
-3.413900 5.337900
-3.395700 5.130800
-3.377500 4.923800
-3.359300 4.716700
-3.341100 4.509700
-3.323000 4.360200
-3.304800 4.275500
-3.286600 4.189300
-3.268400 4.109200
-3.250200 4.033500
-3.232000 3.958800
-3.213800 3.939700
-3.195600 3.984400
-3.177400 4.029000
-3.159200 4.074200
-3.141000 4.127800
-3.122800 4.181400
-3.104600 4.234900
-3.086400 4.399800
-3.068200 4.393800
-3.050000 4.387700
-3.031800 4.322200
-3.013600 4.213800
-2.995500 4.105400
-2.977300 3.997000
-2.959100 3.888600
-2.940900 3.780200
-2.922700 3.671800
-2.904500 3.563400
-2.886300 3.455000
-2.868100 3.501900
-2.849900 3.704500
-2.831700 4.006700
-2.813500 7.396100
-2.795300 16.756200
-2.777100 5.678100
-2.758900 6.175900
-2.740700 7.495400
-2.722500 6.481900
-2.704300 5.423000
-2.686100 4.745400
-2.667900 4.989700
-2.649800 5.233900
-2.631600 5.478100
-2.613400 5.722300
-2.595200 5.966600
-2.577000 6.210800
-2.558800 6.455000
-2.540600 4.118100
-2.522400 4.300300
-2.504200 1.593900
-2.486000 1.744400
-2.467800 1.894900
-2.449600 2.045400
-2.431400 2.195900
-2.413200 2.346400
-2.395000 5.755200
-2.376800 5.969400
-2.358600 5.930200
-2.340400 5.891100
-2.322200 5.851900
-2.304100 5.812800
-2.285900 8.402200
-2.267700 5.103700
-2.249500 0.000000
-2.231300 0.000000
-2.213100 0.000000
-2.194900 0.000000
-2.176700 0.000000
-2.158500 0.000000
-2.140300 0.000000
-2.122100 0.000000
-2.103900 0.000000
-2.085700 0.000000
-2.067500 0.000000
-2.049300 0.000000
-2.031100 0.000000
-2.012900 0.000000
-1.994700 0.000000
-1.976500 0.000000
-1.958400 0.000000
-1.940200 0.000000
-1.922000 0.000000
-1.903800 0.000000
-1.885600 0.000000
-1.867400 0.000000
-1.849200 0.000000
-1.831000 0.000000
-1.812800 0.000000
-1.794600 0.000000
-1.776400 0.000000
-1.758200 0.000000
-1.740000 0.000000
-1.721800 0.000000
-1.703600 0.000000
-1.685400 0.000000
-1.667200 0.000000
-1.649000 0.000000
-1.630800 0.000000
-1.612700 0.000000
-1.594500 0.000000
-1.576300 0.000000
-1.558100 0.000000
-1.539900 0.000000
-1.521700 0.000000
-1.503500 0.000000
-1.485300 0.000000
-1.467100 0.000000
-1.448900 0.000000
-1.430700 0.000000
-1.412500 0.000000
-1.394300 0.000000
-1.376100 0.000000
-1.357900 0.000000
-1.339700 0.000000
-1.321500 0.000000
-1.303300 0.000000
-1.285200 0.000000
-1.267000 0.000000
-1.248800 0.000000
-1.230600 0.000000
-1.212400 0.000000
-1.194200 0.000000
-1.176000 0.000000
-1.157800 0.000000
-1.139600 0.000000
-1.121400 0.000000
-1.103200 0.000000
-1.085000 0.000000
-1.066800 0.000000
-1.048600 0.000000
-1.030400 0.000000
-1.012200 0.000000
-0.994000 0.000000
-0.975800 0.000000
-0.957600 0.000000
-0.939500 0.000000
-0.921300 0.000000
-0.903100 0.000000
-0.884900 0.000000
-0.866700 0.000000
-0.848500 0.000000
-0.830300 0.000000
-0.812100 0.000000
-0.793900 0.000000
-0.775700 0.000000
-0.757500 0.000000
-0.739300 0.000000
-0.721100 0.000000
-0.702900 0.000000
-0.684700 0.000000
-0.666500 0.000000
-0.648300 0.000000
-0.630100 0.000000
-0.611900 0.000000
-0.593800 0.000000
-0.575600 0.000000
-0.557400 0.000000
-0.539200 0.000000
-0.521000 0.000000
-0.502800 0.028400
-0.484600 0.101800
-0.466400 0.175100
-0.448200 0.248400
-0.430000 0.321700
-0.411800 0.395000
-0.393600 0.468300
-0.375400 0.541600
-0.357200 0.614900
-0.339000 0.688200
-0.320800 0.761500
-0.302600 0.823900
-0.284400 1.611500
-0.266200 2.399100
-0.248100 3.186700
-0.229900 0.976900
-0.211700 1.002500
-0.193500 1.028200
-0.175300 1.053900
-0.157100 1.079500
-0.138900 1.214900
-0.120700 1.759200
-0.102500 2.303500
-0.084300 2.847800
-0.066100 3.392200
-0.047900 1.837900
-0.029700 1.882600
-0.011500 1.927300
0.006700 1.972000
0.024900 2.016700
0.043100 2.061400
0.061300 2.101600
0.079500 2.140000
0.097600 2.178300
0.115800 2.216700
0.134000 2.255000
0.152200 2.293400
0.170400 4.124900
0.188600 3.703000
0.206800 3.281200
0.225000 3.019300
0.243200 3.696200
0.261400 3.782600
0.279600 4.746800
0.297800 4.745700
0.316000 4.744700
0.334200 4.743700
0.352400 4.742600
0.370600 4.774800
0.388800 4.834900
0.407000 6.568300
0.425100 6.405300
0.443300 6.242400
0.461500 6.079400
0.479700 5.915800
0.497900 5.784700
0.516100 5.767500
0.534300 5.773600
0.552500 5.880100
0.570700 6.077600
0.588900 6.441100
0.607100 6.804600
0.625300 9.813000
0.643500 9.576200
0.661700 9.030700
0.679900 12.621500
0.698100 8.846200
0.716300 5.583200
0.734500 5.522500
0.752700 5.538400
0.770800 5.554200
0.789000 5.614900
0.807200 5.155600
0.825400 5.280700
0.843600 5.509900
0.861800 5.739100
0.880000 5.968200
0.898200 6.197400
0.916400 6.426600
0.934600 6.661700
0.952800 6.997300
0.971000 5.933500
0.989200 5.435400
1.007400 5.731200
1.025600 6.062600
1.043800 6.394100
1.062000 4.927000
1.080200 5.097100
1.098400 8.656800
1.116500 5.530100
1.134700 5.593800
1.152900 5.390100
1.171100 5.536800
1.189300 5.683500
1.207500 5.830100
1.225700 5.976800
1.243900 6.123500
1.262100 6.270200
1.280300 9.072300
1.298500 5.930700
1.316700 5.982800
1.334900 6.034800
1.353100 6.086800
1.371300 6.139300
1.389500 6.593500
1.407700 7.101500
1.425900 7.994700
1.444100 9.050900
1.462200 10.139400
1.480400 9.758100
1.498600 8.856500
1.516800 6.016400
1.535000 4.802500
1.553200 3.325000
1.571400 3.433700
1.589600 3.542300
1.607800 3.651000
1.626000 3.760200
1.644200 3.873100
1.662400 3.985900
1.680600 2.792700
1.698800 2.798200
1.717000 2.803800
1.735200 2.809300
1.753400 2.814800
1.771600 2.820600
1.789700 2.828200
1.807900 2.835900
1.826100 2.843500
1.844300 2.851100
1.862500 2.858800
1.880700 2.520000
1.898900 2.505500
1.917100 2.499400
1.935300 2.493900
1.953500 2.488400
1.971700 2.483000
1.989900 2.477500
2.008100 2.472000
2.026300 2.466600
2.044500 2.461100
2.062700 2.455600
2.080900 2.452300
2.099100 2.448900
2.117300 2.445600
2.135400 2.442300
2.153600 2.439000
2.171800 2.435700
2.190000 2.432400
2.208200 2.431000
2.226400 2.436700
2.244600 2.442300
2.262800 2.448000
2.281000 2.453600
2.299200 2.459300
2.317400 2.465000
2.335600 2.477400
2.353800 2.518800
2.372000 2.560300
2.390200 2.574500
2.408400 2.616900
2.426600 2.659200
2.444800 2.701500
2.463000 2.743800
2.481100 2.786100
2.499300 2.828400
2.517500 2.842000
2.535700 2.882000
2.553900 2.946400
2.572100 3.010700
2.590300 3.075100
2.608500 3.141600
2.626700 3.904400
2.644900 4.817600
2.663100 5.730800
2.681300 7.458600
2.699500 6.735700
2.717700 5.578400
2.735900 4.820600
2.754100 4.062800
2.772300 4.120800
2.790500 4.181700
2.808700 4.242600
2.826800 4.303400
2.845000 4.364300
2.863200 4.425200
2.881400 4.393200
2.899600 4.456000
2.917800 4.823400
2.936000 4.794900
2.954200 4.766400
2.972400 4.737900
2.990600 4.709400
3.008800 4.680900
3.027000 4.466100
3.045200 4.422600
3.063400 4.385700
3.081600 4.357700
3.099800 4.329700
3.118000 4.301600
3.136200 4.281300
3.154400 4.285700
3.172500 4.290100
3.190700 4.294500
3.208900 4.256500
3.227100 4.257100
3.245300 4.268900
3.263500 4.280700
3.281700 4.292500
3.299900 4.349500
3.318100 4.409700
3.336300 4.506400
3.354500 4.637800
3.372700 4.759500
3.390900 4.891700
3.409100 5.023900
3.427300 5.156000
3.445500 5.288200
3.463700 5.421500
3.481900 5.685000
3.500000 6.022400
3.518200 6.415000
3.536400 6.807600
3.554600 7.200100
3.572800 7.510600
3.591000 7.905400
3.609200 8.336000
3.627400 8.447700
3.645600 8.466700
3.663800 8.376800
3.682000 8.858400
3.700200 10.904000
3.718400 13.408200
3.736600 10.853500
3.754800 7.350900
3.773000 7.683400
3.791200 7.961800
3.809400 8.139100
3.827600 8.314600
3.845700 8.379100
3.863900 8.443600
3.882100 8.508100
3.900300 8.572500
3.918500 7.521300
3.936700 7.364300
3.954900 7.207300
3.973100 7.055300
3.991300 6.905500
4.009500 6.110500
4.027700 6.015800
4.045900 5.921200
4.064100 5.826600
4.082300 5.731900
4.100500 5.637300
4.118700 5.411300
4.136900 5.374500
4.155100 5.337700
4.173300 6.133800
4.191400 7.192600
4.209600 6.555300
4.227800 6.451000
4.246000 6.346800
4.264200 6.242000
4.282400 6.136300
4.300600 4.801900
4.318800 4.801500
4.337000 4.802300
4.355200 4.805200
4.373400 4.809200
4.391600 4.813100
4.409800 4.817000
4.428000 4.820900
4.446200 4.825200
4.464400 4.842500
4.482600 4.861700
4.500800 4.882500
4.519000 4.904700
4.537100 4.927500
4.555300 4.951400
4.573500 4.975300
4.591700 5.385300
4.609900 9.082600
4.628100 12.783100
4.646300 7.120700
4.664500 7.465800
4.682700 7.839300
4.700900 8.213800
4.719100 8.588300
4.737300 7.360100
4.755500 7.394100
4.773700 7.428000
4.791900 7.462000
4.810100 7.497000
4.828300 7.533500
4.846500 7.324500
4.864700 7.496900
4.882800 7.544600
4.901000 7.592200
4.919200 7.639800
4.937400 7.687400
4.955600 7.736600
4.973800 9.999700
4.992000 9.940500
5.010200 9.881300
5.028400 9.820300
5.046600 9.690800
5.064800 9.594000
5.083000 9.534700
5.101200 9.177200
5.119400 9.050200
5.137600 8.923200
5.155800 10.535000
5.174000 10.046400
5.192200 9.914800
5.210300 9.805100
5.228500 9.695300
5.246700 9.585600
5.264900 9.470200
5.283100 9.350300
5.301300 9.232700
5.319500 9.115500
5.337700 8.998000
5.355900 8.879000
5.374100 8.770200
5.392300 8.668100
5.410500 8.299300
5.428700 8.232100
5.446900 8.164900
5.465100 8.185800
5.483300 8.242200
5.501500 8.280000
5.519700 8.267100
5.537900 8.450000
5.556000 8.635300
5.574200 8.546200
5.592400 8.687700
5.610600 8.756500
5.628800 8.825300
5.647000 8.897400
5.665200 9.021900
5.683400 9.146300
5.701600 8.957300
5.719800 8.454700
5.738000 8.710800
5.756200 10.394200
5.774400 12.001200
5.792600 8.919800
5.810800 8.953200
5.829000 8.498300
5.847200 8.460700
5.865400 8.483000
5.883600 8.632600
5.901700 8.648300
5.919900 8.664100
5.938100 8.679800
5.956300 8.703300
5.974500 8.770200
5.992700 8.794600
6.010900 8.844200
6.029100 8.922900
6.047300 9.001700
6.065500 9.081700
6.083700 8.597600
6.101900 8.603100
6.120100 8.608600
6.138300 8.753600
6.156500 8.789800
6.174700 8.838300
6.192900 8.939700
6.211100 8.771600
6.229300 8.780800
6.247400 8.790100
6.265600 8.799400
6.283800 8.808700
6.302000 8.818000
6.320200 8.803600
6.338400 8.781200
6.356600 8.758800
6.374800 9.409200
6.393000 9.379600
6.411200 9.349900
6.429400 9.400600
6.447600 9.538500
6.465800 9.679300
6.484000 10.000000
6.502200 9.715200
6.520400 9.816900
6.538600 9.532400
6.556800 9.815900
6.575000 9.951800
6.593100 10.269800
6.611300 9.586200
6.629500 9.344900
6.647700 9.100100
6.665900 8.896400
6.684100 8.782300
6.702300 8.740400
6.720500 8.638300
6.738700 8.486100
6.756900 8.334100
6.775100 8.117900
6.793300 7.974900
6.811500 7.970500
6.829700 7.847400
6.847900 7.724400
6.866100 7.604300
6.884300 7.489700
6.902500 7.375100
6.920600 7.260500
6.938800 6.750400
6.957000 6.537100
6.975200 6.299700
6.993400 6.062300
7.011600 5.752800
7.029800 5.607200
7.048000 5.466200
7.066200 5.347600
7.084400 5.611100
7.102600 5.446500
7.120800 4.978200
7.139000 4.815600
7.157200 4.652900
7.175400 4.506200
7.193600 4.406100
7.211800 4.302300
7.230000 4.316400
7.248200 4.226200
7.266300 4.117200
7.284500 4.008100
7.302700 3.899000
7.320900 3.865900
7.339100 3.710800
7.357300 3.556200
7.375500 3.401700
7.393700 3.268900
7.411900 3.170000
7.430100 3.071100
7.448300 2.972200
7.466500 2.879300
7.484700 2.788200
7.502900 2.697200
7.521100 2.606100
7.539300 2.515000
7.557500 2.423900
7.575700 2.351000
7.593900 2.282900
7.612000 2.214700
7.630200 2.626900
7.648400 2.497800
7.666600 2.501800
7.684800 2.358200
7.703000 2.214700
7.721200 2.071100
7.739400 1.926400
7.757600 1.786500
7.775800 1.654500
7.794000 1.522400
7.812200 1.436000
7.830400 2.016300
7.848600 1.879700
7.866800 1.743000
7.885000 1.606300
7.903200 1.933900
7.921400 1.471500
7.939600 1.009200
7.957700 0.555300
7.975900 0.122600
7.994100 0.000000
8.012300 0.000000
8.030500 0.000000
8.048700 0.000000
8.066900 0.000000
8.085100 0.000000
8.103300 0.000000
8.121500 0.000000
8.139700 0.000000
8.157900 0.000000
8.176100 0.000000
8.194300 0.000000
8.212500 0.000000
8.230700 0.000000
8.248900 0.000000
8.267100 0.000000
8.285300 0.000000
8.303400 0.000000
8.321600 0.000000
8.339800 0.000000
8.358000 0.000000
8.376200 0.000000
8.394400 0.000000
8.412600 0.000000
8.430800 0.000000
8.449000 0.000000
8.467200 0.000000
8.485400 0.000000
8.503600 0.000000
8.521800 0.000000
8.540000 0.000000
8.558200 0.000000
8.576400 0.000000
8.594600 0.000000
8.612800 0.000000
8.630900 0.000000
8.649100 0.000000
8.667300 0.000000
8.685500 0.000000
8.703700 0.000000
8.721900 0.000000
8.740100 0.000000
8.758300 0.000000
8.776500 0.000000
8.794700 0.000000
8.812900 0.000000
8.831100 0.000000
8.849300 0.000000
8.867500 0.000000
8.885700 0.000000
8.903900 0.000000
8.922100 0.000000
8.940300 0.000000
8.958500 0.000000
8.976600 0.000000
8.994800 0.000000
9.013000 0.000000
9.031200 0.000000
9.049400 0.000000
9.067600 0.000000
9.085800 0.000000
9.104000 0.000000
9.122200 0.000000
9.140400 0.000000
9.158600 0.000000
9.176800 0.000000
9.195000 0.000000
9.213200 0.000000
9.231400 0.000000
9.249600 0.000000
9.267800 0.000000
9.286000 0.000000
9.304200 0.000000
9.322300 0.000000
9.340500 0.000000
9.358700 0.000000
9.376900 0.000000
9.395100 0.000000
9.413300 0.000000
9.431500 0.000000
9.449700 0.000000
9.467900 0.000000
9.486100 0.000000
9.504300 0.000000
9.522500 0.000000
9.540700 0.000000
9.558900 0.000000
9.577100 0.000000
9.595300 0.000000
9.613500 0.000000
9.631700 0.000000
9.649900 0.000000
9.668000 0.000000
9.686200 0.000000
9.704400 0.000000
9.722600 0.000000
9.740800 0.000000
9.759000 0.000000
9.777200 0.000000
9.795400 0.000000
9.813600 0.000000
9.831800 0.000000
9.850000 0.000000
9.868200 0.000000
9.886400 0.311600
9.904600 0.320000
9.922800 0.328400
9.941000 0.336800
9.959200 0.345200
9.977400 0.353600
9.995600 0.362000
10.013700 0.370400
10.031900 0.378800
10.050100 0.618800
10.068300 0.636500
10.086500 0.654200
10.104700 0.671900
10.122900 0.689600
10.141100 0.707300
10.159300 0.724900
10.177500 0.742600
10.195700 0.760300
10.213900 0.778000
10.232100 0.795700
10.250300 0.813400
10.268500 0.831100
10.286700 0.848800
10.304900 0.866500
10.323100 0.884200
10.341200 0.901900
10.359400 0.920100
10.377600 0.941800
