set title 'mp-985299 - Density of States'
set xlabel 'Energy (eV)'
set ylabel 'DOS (states/eV)'
set grid
set xrange [-10:10]
set yrange [0:9.097]
set xzeroaxis lt -1
set terminal png size 800,600
set output 'mp-985299_dos_gnuplot.png'
plot '-' using 1:2 with lines title 'DOS'
-12.477300 0.000000
-12.451900 0.000000
-12.426500 0.000000
-12.401000 0.000000
-12.375600 0.000000
-12.350200 0.000000
-12.324700 0.000000
-12.299300 0.000000
-12.273900 0.000000
-12.248400 0.000000
-12.223000 0.000000
-12.197600 0.000000
-12.172100 0.000000
-12.146700 0.000000
-12.121300 0.000000
-12.095800 0.000000
-12.070400 0.000000
-12.045000 0.000000
-12.019500 0.000000
-11.994100 0.000000
-11.968700 0.000000
-11.943200 0.000000
-11.917800 0.000000
-11.892400 0.000000
-11.866900 0.000000
-11.841500 0.000000
-11.816100 0.000000
-11.790600 0.000000
-11.765200 0.000000
-11.739800 0.000000
-11.714300 0.000000
-11.688900 0.000000
-11.663500 0.000000
-11.638000 0.000000
-11.612600 0.000000
-11.587200 0.000000
-11.561700 0.000000
-11.536300 0.000000
-11.510900 0.000000
-11.485400 0.000000
-11.460000 0.000000
-11.434600 0.000000
-11.409100 0.000000
-11.383700 0.000000
-11.358300 0.000000
-11.332800 0.000000
-11.307400 0.000000
-11.282000 0.000000
-11.256500 0.000000
-11.231100 0.000000
-11.205700 0.000000
-11.180200 0.000000
-11.154800 0.000000
-11.129400 0.000000
-11.103900 0.000000
-11.078500 0.000000
-11.053100 0.000000
-11.027600 0.000000
-11.002200 0.000000
-10.976800 0.000000
-10.951300 0.000000
-10.925900 0.000000
-10.900500 0.000000
-10.875000 0.000000
-10.849600 0.000000
-10.824200 0.000000
-10.798700 0.000000
-10.773300 0.000000
-10.747900 0.000000
-10.722400 0.000000
-10.697000 0.000000
-10.671600 0.000000
-10.646100 0.000000
-10.620700 0.000000
-10.595300 0.000000
-10.569800 0.000000
-10.544400 0.000000
-10.519000 0.000000
-10.493500 0.000000
-10.468100 0.000000
-10.442700 0.000000
-10.417200 0.000000
-10.391800 0.000000
-10.366400 0.000000
-10.340900 0.000000
-10.315500 0.000000
-10.290100 0.000000
-10.264600 0.000100
-10.239200 0.000900
-10.213700 0.005800
-10.188300 0.026400
-10.162900 0.082100
-10.137400 0.183600
-10.112000 0.319900
-10.086600 0.472800
-10.061100 0.631100
-10.035700 0.800600
-10.010300 1.014100
-9.984800 1.288800
-9.959400 1.610700
-9.934000 1.980300
-9.908500 2.422200
-9.883100 3.011700
-9.857700 3.894200
-9.832200 5.005900
-9.806800 5.704200
-9.781400 5.165100
-9.755900 3.449300
-9.730500 1.615600
-9.705100 0.511300
-9.679600 0.106200
-9.654200 0.014200
-9.628800 0.001200
-9.603300 0.000100
-9.577900 0.000000
-9.552500 0.000000
-9.527000 0.000000
-9.501600 0.000000
-9.476200 0.000000
-9.450700 0.000000
-9.425300 0.000000
-9.399900 0.000000
-9.374400 0.000000
-9.349000 0.000000
-9.323600 0.000000
-9.298100 0.000000
-9.272700 0.000000
-9.247300 0.000000
-9.221800 0.000000
-9.196400 0.000000
-9.171000 0.000000
-9.145500 0.000000
-9.120100 0.000000
-9.094700 0.000000
-9.069200 0.000000
-9.043800 0.000000
-9.018400 0.000000
-8.992900 0.000000
-8.967500 0.000000
-8.942100 0.000000
-8.916600 0.000000
-8.891200 0.000000
-8.865800 0.000000
-8.840300 0.000000
-8.814900 0.000000
-8.789500 0.000000
-8.764000 0.000000
-8.738600 0.000000
-8.713200 0.000000
-8.687700 0.000000
-8.662300 0.000000
-8.636900 0.000000
-8.611400 0.000000
-8.586000 0.000000
-8.560600 0.000000
-8.535100 0.000000
-8.509700 0.000000
-8.484300 0.000000
-8.458800 0.000000
-8.433400 0.000000
-8.408000 0.000000
-8.382500 0.000000
-8.357100 0.000000
-8.331700 0.000000
-8.306200 0.000000
-8.280800 0.000000
-8.255400 0.000000
-8.229900 0.000000
-8.204500 0.000000
-8.179100 0.000000
-8.153600 0.000000
-8.128200 0.000000
-8.102800 0.000000
-8.077300 0.000000
-8.051900 0.000000
-8.026500 0.000000
-8.001000 0.000000
-7.975600 0.000000
-7.950200 0.000000
-7.924700 0.000000
-7.899300 0.000000
-7.873900 0.000000
-7.848400 0.000000
-7.823000 0.000000
-7.797600 0.000000
-7.772100 0.000000
-7.746700 0.000000
-7.721300 0.000000
-7.695800 0.000000
-7.670400 0.000000
-7.645000 0.000000
-7.619500 0.000000
-7.594100 0.000000
-7.568700 0.000000
-7.543200 0.000000
-7.517800 0.000000
-7.492400 0.000000
-7.466900 0.000000
-7.441500 0.000000
-7.416100 0.000000
-7.390600 0.000000
-7.365200 0.000000
-7.339800 0.000000
-7.314300 0.000000
-7.288900 0.000000
-7.263500 0.000000
-7.238000 0.000000
-7.212600 0.000000
-7.187200 0.000000
-7.161700 0.000000
-7.136300 0.000000
-7.110900 0.000000
-7.085400 0.000000
-7.060000 0.000000
-7.034600 0.000000
-7.009100 0.000000
-6.983700 0.000000
-6.958300 0.000000
-6.932800 0.000000
-6.907400 0.000000
-6.882000 0.000000
-6.856500 0.000000
-6.831100 0.000000
-6.805700 0.000000
-6.780200 0.000000
-6.754800 0.000000
-6.729400 0.000000
-6.703900 0.000000
-6.678500 0.000000
-6.653000 0.000000
-6.627600 0.000000
-6.602200 0.000000
-6.576700 0.000000
-6.551300 0.000000
-6.525900 0.000000
-6.500400 0.000000
-6.475000 0.000000
-6.449600 0.000000
-6.424100 0.000000
-6.398700 0.000000
-6.373300 0.000000
-6.347800 0.000000
-6.322400 0.000000
-6.297000 0.000000
-6.271500 0.000000
-6.246100 0.000000
-6.220700 0.000000
-6.195200 0.000000
-6.169800 0.000000
-6.144400 0.000000
-6.118900 0.000000
-6.093500 0.000000
-6.068100 0.000000
-6.042600 0.000000
-6.017200 0.000000
-5.991800 0.000000
-5.966300 0.000000
-5.940900 0.000000
-5.915500 0.000000
-5.890000 0.000000
-5.864600 0.000000
-5.839200 0.000000
-5.813700 0.000000
-5.788300 0.000000
-5.762900 0.000000
-5.737400 0.000000
-5.712000 0.000000
-5.686600 0.000000
-5.661100 0.000000
-5.635700 0.000000
-5.610300 0.000000
-5.584800 0.000000
-5.559400 0.000000
-5.534000 0.000000
-5.508500 0.000000
-5.483100 0.000000
-5.457700 0.000000
-5.432200 0.000000
-5.406800 0.000000
-5.381400 0.000000
-5.355900 0.000000
-5.330500 0.000000
-5.305100 0.000000
-5.279600 0.000000
-5.254200 0.000000
-5.228800 0.000000
-5.203300 0.000000
-5.177900 0.000000
-5.152500 0.000000
-5.127000 0.000000
-5.101600 0.000000
-5.076200 0.000000
-5.050700 0.000000
-5.025300 0.000000
-4.999900 0.000000
-4.974400 0.000000
-4.949000 0.000000
-4.923600 0.000000
-4.898100 0.000000
-4.872700 0.000000
-4.847300 0.000000
-4.821800 0.000000
-4.796400 0.000000
-4.771000 0.000000
-4.745500 0.000000
-4.720100 0.000000
-4.694700 0.000000
-4.669200 0.000000
-4.643800 0.000000
-4.618400 0.000000
-4.592900 0.000000
-4.567500 0.000000
-4.542100 0.000000
-4.516600 0.000000
-4.491200 0.000000
-4.465800 0.000000
-4.440300 0.000000
-4.414900 0.000000
-4.389500 0.000000
-4.364000 0.000000
-4.338600 0.000000
-4.313200 0.000000
-4.287700 0.000000
-4.262300 0.000000
-4.236900 0.000000
-4.211400 0.000000
-4.186000 0.000000
-4.160600 0.000000
-4.135100 0.000000
-4.109700 0.000000
-4.084300 0.000000
-4.058800 0.000000
-4.033400 0.000000
-4.008000 0.000000
-3.982500 0.000000
-3.957100 0.000000
-3.931700 0.000000
-3.906200 0.000000
-3.880800 0.000000
-3.855400 0.000000
-3.829900 0.000000
-3.804500 0.000000
-3.779100 0.000000
-3.753600 0.000000
-3.728200 0.000400
-3.702800 0.002300
-3.677300 0.008700
-3.651900 0.024500
-3.626500 0.056400
-3.601000 0.107000
-3.575600 0.162200
-3.550200 0.200700
-3.524700 0.219100
-3.499300 0.226800
-3.473900 0.240900
-3.448400 0.289300
-3.423000 0.379700
-3.397600 0.468900
-3.372100 0.493000
-3.346700 0.457300
-3.321300 0.441600
-3.295800 0.489200
-3.270400 0.564500
-3.245000 0.645000
-3.219500 0.766500
-3.194100 0.944700
-3.168700 1.140200
-3.143200 1.309100
-3.117800 1.408000
-3.092400 1.387600
-3.066900 1.262800
-3.041500 1.170300
-3.016000 1.285600
-2.990600 1.593800
-2.965200 1.872600
-2.939700 2.011300
-2.914300 2.075300
-2.888900 2.103000
-2.863400 2.167800
-2.838000 2.416800
-2.812600 2.872500
-2.787100 3.422500
-2.761700 3.884900
-2.736300 4.043400
-2.710800 3.889400
-2.685400 3.706500
-2.660000 3.796700
-2.634500 4.152100
-2.609100 4.412700
-2.583700 4.362900
-2.558200 4.309900
-2.532800 4.620800
-2.507400 5.217400
-2.481900 5.773300
-2.456500 6.079600
-2.431100 6.096800
-2.405600 5.969500
-2.380200 5.923000
-2.354800 5.928100
-2.329300 5.911200
-2.303900 5.967400
-2.278500 6.066400
-2.253000 6.181400
-2.227600 6.334300
-2.202200 6.283100
-2.176700 5.845800
-2.151300 5.305800
-2.125900 4.954700
-2.100400 4.673800
-2.075000 4.329200
-2.049600 4.015900
-2.024100 3.830400
-1.998700 3.755200
-1.973300 3.712100
-1.947800 3.600900
-1.922400 3.337900
-1.897000 2.959600
-1.871500 2.616300
-1.846100 2.477100
-1.820700 2.670000
-1.795200 3.184300
-1.769800 3.790200
-1.744400 4.196000
-1.718900 4.304700
-1.693500 4.167000
-1.668100 3.933700
-1.642600 3.962400
-1.617200 4.403000
-1.591800 4.822400
-1.566300 4.890900
-1.540900 4.855300
-1.515500 4.968100
-1.490000 5.228900
-1.464600 5.582400
-1.439200 5.882800
-1.413700 5.941000
-1.388300 5.738000
-1.362900 5.381800
-1.337400 4.870300
-1.312000 4.199300
-1.286600 3.709200
-1.261100 3.751300
-1.235700 4.136400
-1.210300 4.437300
-1.184800 4.494000
-1.159400 4.374000
-1.134000 4.200000
-1.108500 4.086800
-1.083100 4.028700
-1.057700 3.966600
-1.032200 3.901400
-1.006800 3.886700
-0.981400 4.014100
-0.955900 4.293400
-0.930500 4.635000
-0.905100 4.934900
-0.879600 5.019700
-0.854200 4.785500
-0.828800 4.414600
-0.803300 4.202600
-0.777900 4.288000
-0.752500 4.641500
-0.727000 5.124800
-0.701600 5.613800
-0.676200 6.140100
-0.650700 6.784500
-0.625300 7.503500
-0.599900 8.094300
-0.574400 8.269800
-0.549000 7.911500
-0.523600 7.188400
-0.498100 6.303400
-0.472700 5.475600
-0.447300 5.025400
-0.421800 4.963100
-0.396400 4.889200
-0.371000 4.636800
-0.345500 4.455300
-0.320100 4.378900
-0.294700 4.110600
-0.269200 3.640300
-0.243800 3.288600
-0.218400 3.155300
-0.192900 3.080600
-0.167500 3.033300
-0.142100 3.132300
-0.116600 3.299600
-0.091200 3.306300
-0.065800 3.163200
-0.040300 3.063300
-0.014900 3.065600
0.010500 3.076900
0.036000 3.018100
0.061400 2.916900
0.086800 2.985300
0.112300 3.567200
0.137700 4.730200
0.163100 5.996700
0.188600 6.639200
0.214000 6.245200
0.239400 5.170200
0.264900 4.277800
0.290300 4.080000
0.315700 4.292200
0.341200 4.289400
0.366600 3.840200
0.392000 3.234900
0.417500 2.843500
0.442900 2.668600
0.468300 2.399100
0.493800 1.896800
0.519200 1.402500
0.544700 1.168600
0.570100 1.124700
0.595500 1.059700
0.621000 0.921800
0.646400 0.770200
0.671800 0.648800
0.697300 0.587700
0.722700 0.540600
0.748100 0.434400
0.773600 0.349700
0.799000 0.430400
0.824400 0.636300
0.849900 0.778300
0.875300 0.752400
0.900700 0.599800
0.926200 0.430300
0.951600 0.369200
0.977000 0.463100
1.002500 0.606300
1.027900 0.650400
1.053300 0.593600
1.078800 0.544700
1.104200 0.535700
1.129600 0.540500
1.155100 0.593600
1.180500 0.718200
1.205900 0.824400
1.231400 0.812800
1.256800 0.732400
1.282200 0.724800
1.307700 0.894200
1.333100 1.231400
1.358500 1.535000
1.384000 1.584100
1.409400 1.450700
1.434800 1.387800
1.460300 1.455600
1.485700 1.507600
1.511100 1.487600
1.536600 1.451000
1.562000 1.452800
1.587400 1.568600
1.612900 1.750700
1.638300 1.823900
1.663700 1.742600
1.689200 1.538600
1.714600 1.207000
1.740000 0.887300
1.765500 0.812200
1.790900 0.973700
1.816300 1.138200
1.841800 1.209000
1.867200 1.265400
1.892600 1.326100
1.918100 1.355400
1.943500 1.345200
1.968900 1.276200
1.994400 1.163200
2.019800 1.142000
2.045200 1.306700
2.070700 1.512400
2.096100 1.585300
2.121500 1.576300
2.147000 1.630000
2.172400 1.738600
2.197800 1.721900
2.223300 1.488200
2.248700 1.199300
2.274100 1.048300
2.299600 1.034400
2.325000 1.042500
2.350400 1.005400
2.375900 0.929700
2.401300 0.845800
2.426700 0.762400
2.452200 0.690300
2.477600 0.690600
2.503000 0.758000
2.528500 0.793400
2.553900 0.770600
2.579300 0.713600
2.604800 0.610100
2.630200 0.476800
2.655600 0.360500
2.681100 0.286500
2.706500 0.280100
2.731900 0.372000
2.757400 0.545200
2.782800 0.705400
2.808200 0.756700
2.833700 0.742500
2.859100 0.828200
2.884500 1.044900
2.910000 1.171100
2.935400 1.037700
2.960800 0.772500
2.986300 0.597200
3.011700 0.597900
3.037100 0.696200
3.062600 0.729200
3.088000 0.635400
3.113400 0.521200
3.138900 0.483300
3.164300 0.511300
3.189700 0.565600
3.215200 0.657000
3.240600 0.805900
3.266000 0.943100
3.291500 0.980500
3.316900 0.918200
3.342300 0.798300
3.367800 0.682500
3.393200 0.637300
3.418600 0.672500
3.444100 0.753900
3.469500 0.837400
3.494900 0.899300
3.520400 0.941300
3.545800 0.948200
3.571200 0.916300
3.596700 0.852400
3.622100 0.744700
3.647500 0.632200
3.673000 0.602100
3.698400 0.646400
3.723800 0.642700
3.749300 0.560000
3.774700 0.506100
3.800100 0.511900
3.825600 0.490600
3.851000 0.408800
3.876400 0.341100
3.901900 0.343600
3.927300 0.352200
3.952700 0.302900
3.978200 0.244600
4.003600 0.227200
4.029000 0.225900
4.054500 0.221200
4.079900 0.219500
4.105400 0.206600
4.130800 0.186300
4.156200 0.210400
4.181700 0.280500
4.207100 0.311900
4.232500 0.279200
4.258000 0.270800
4.283400 0.325100
4.308800 0.371200
4.334300 0.373400
4.359700 0.370900
4.385100 0.371000
4.410600 0.339900
4.436000 0.265700
4.461400 0.180900
4.486900 0.134700
4.512300 0.163500
4.537700 0.262500
4.563200 0.356100
4.588600 0.374700
4.614000 0.343400
4.639500 0.307300
4.664900 0.270900
4.690300 0.279800
4.715800 0.410900
4.741200 0.616600
4.766600 0.745600
4.792100 0.763200
4.817500 0.785500
4.842900 0.858000
4.868400 0.894100
4.893800 0.887000
4.919200 0.921600
4.944700 1.006300
4.970100 1.122100
4.995500 1.235100
5.021000 1.217900
5.046400 1.034400
5.071800 0.866200
5.097300 0.841400
5.122700 0.875900
5.148100 0.875600
5.173600 0.881300
5.199000 0.967900
5.224400 1.074100
5.249900 1.053600
5.275300 0.896500
5.300700 0.772900
5.326200 0.803500
5.351600 0.897800
5.377000 0.924900
5.402500 0.920600
5.427900 0.985700
5.453300 1.077900
5.478800 1.047800
5.504200 0.867900
5.529600 0.651500
5.555100 0.462700
5.580500 0.306300
5.605900 0.216900
5.631400 0.217700
5.656800 0.262600
5.682200 0.290400
5.707700 0.289500
5.733100 0.264100
5.758500 0.237200
5.784000 0.247200
5.809400 0.261300
5.834800 0.226900
5.860300 0.177700
5.885700 0.156900
5.911100 0.140000
5.936600 0.105700
5.962000 0.084000
5.987400 0.110700
6.012900 0.182100
6.038300 0.262700
6.063700 0.322700
6.089200 0.334100
6.114600 0.282400
6.140000 0.210700
6.165500 0.166700
6.190900 0.145300
6.216300 0.141400
6.241800 0.179800
6.267200 0.268000
6.292600 0.372500
6.318100 0.436700
6.343500 0.441600
6.368900 0.442000
6.394400 0.456900
6.419800 0.426800
6.445200 0.345100
6.470700 0.264700
6.496100 0.203400
6.521500 0.151100
6.547000 0.115000
6.572400 0.121700
6.597800 0.194600
6.623300 0.303500
6.648700 0.355700
6.674100 0.295800
6.699600 0.188700
6.725000 0.151700
6.750400 0.238700
6.775900 0.427900
6.801300 0.684700
6.826700 0.976900
6.852200 1.239200
6.877600 1.376600
6.903000 1.311700
6.928500 1.057500
6.953900 0.768900
6.979300 0.625100
7.004800 0.658900
7.030200 0.773400
7.055600 0.860500
7.081100 0.895400
7.106500 0.925400
7.131900 0.966200
7.157400 0.948200
7.182800 0.807200
7.208200 0.626800
7.233700 0.561800
7.259100 0.609900
7.284500 0.632000
7.310000 0.584000
7.335400 0.517900
7.360800 0.478400
7.386300 0.512100
7.411700 0.621200
7.437100 0.750800
7.462600 0.853900
7.488000 0.898200
7.513400 0.910500
7.538900 0.974800
7.564300 1.065600
7.589700 1.025500
7.615200 0.786100
7.640600 0.471000
7.666000 0.242800
7.691500 0.162000
7.716900 0.197900
7.742400 0.284100
7.767800 0.347500
7.793200 0.358300
7.818700 0.355600
7.844100 0.366700
7.869500 0.358400
7.895000 0.321100
7.920400 0.310600
7.945800 0.392200
7.971300 0.583400
7.996700 0.789500
8.022100 0.882300
8.047600 0.865000
8.073000 0.782100
8.098400 0.637000
8.123900 0.485600
8.149300 0.401700
8.174700 0.422100
8.200200 0.567900
8.225600 0.798000
8.251000 0.979300
8.276500 0.998500
8.301900 0.872200
8.327300 0.719200
8.352800 0.660800
8.378200 0.694600
8.403600 0.691500
8.429100 0.576900
8.454500 0.448400
8.479900 0.456800
8.505400 0.597800
8.530800 0.732300
8.556200 0.764300
8.581700 0.698400
8.607100 0.583400
8.632500 0.441100
8.658000 0.286400
8.683400 0.179300
8.708800 0.180400
8.734300 0.308200
8.759700 0.551300
8.785100 0.825500
8.810600 0.977400
8.836000 0.948500
8.861400 0.849000
8.886900 0.791800
8.912300 0.753400
8.937700 0.664800
8.963200 0.552200
8.988600 0.478900
9.014000 0.433300
9.039500 0.397200
9.064900 0.407900
9.090300 0.479000
9.115800 0.574700
9.141200 0.650200
9.166600 0.711900
9.192100 0.822800
9.217500 0.958300
9.242900 1.050300
9.268400 1.143300
9.293800 1.216600
9.319200 1.114000
9.344700 0.847800
9.370100 0.607600
9.395500 0.453100
9.421000 0.333700
9.446400 0.268600
9.471800 0.288700
9.497300 0.353800
9.522700 0.407900
9.548100 0.469000
9.573600 0.616900
9.599000 0.830200
9.624400 0.939600
9.649900 0.868400
9.675300 0.750800
9.700700 0.695700
9.726200 0.622100
9.751600 0.473200
9.777000 0.356000
9.802500 0.332900
9.827900 0.328000
9.853300 0.317800
9.878800 0.388900
9.904200 0.548100
9.929600 0.667100
9.955100 0.675300
9.980500 0.660600
10.005900 0.727600
10.031400 0.861200
10.056800 0.953600
10.082200 0.971500
10.107700 1.022100
10.133100 1.170500
10.158500 1.330500
10.184000 1.386300
10.209400 1.302200
10.234800 1.096300
10.260300 0.840800
10.285700 0.660100
10.311100 0.608800
10.336600 0.640000
10.362000 0.699500
10.387400 0.729400
10.412900 0.684300
10.438300 0.592000
10.463700 0.514600
10.489200 0.462200
10.514600 0.412600
10.540000 0.385500
10.565500 0.421900
10.590900 0.519600
10.616300 0.643600
10.641800 0.720400
10.667200 0.654300
10.692600 0.508200
10.718100 0.472300
10.743500 0.618600
10.768900 0.872400
10.794400 1.078800
10.819800 1.081800
10.845200 0.894300
10.870700 0.700900
10.896100 0.639400
10.921500 0.690000
10.947000 0.772200
10.972400 0.806000
10.997800 0.731400
11.023300 0.590000
11.048700 0.518100
11.074100 0.589100
11.099600 0.719700
11.125000 0.774800
11.150400 0.723300
11.175900 0.642100
11.201300 0.600200
11.226700 0.626300
11.252200 0.715300
11.277600 0.789500
11.303100 0.791400
11.328500 0.742500
11.353900 0.654000
11.379400 0.535600
11.404800 0.460000
11.430200 0.475000
11.455700 0.515300
11.481100 0.511300
11.506500 0.486000
11.532000 0.498100
11.557400 0.547800
11.582800 0.568100
11.608300 0.554500
11.633700 0.601800
11.659100 0.736200
11.684600 0.862900
11.710000 0.884100
11.735400 0.787300
11.760900 0.679100
11.786300 0.680300
11.811700 0.789800
11.837200 0.885400
11.862600 0.849900
11.888000 0.723100
11.913500 0.617600
11.938900 0.561300
11.964300 0.537200
11.989800 0.567200
12.015200 0.661000
12.040600 0.734900
12.066100 0.732400
12.091500 0.735500
12.116900 0.779900
12.142400 0.764300
12.167800 0.664700
12.193200 0.587700
12.218700 0.567900
12.244100 0.543800
12.269500 0.505800
12.295000 0.482000
12.320400 0.478000
12.345800 0.515800
12.371300 0.622200
12.396700 0.774300
12.422100 0.898200
12.447600 0.940400
12.473000 0.912000
12.498400 0.857100
12.523900 0.830700
12.549300 0.824900
12.574700 0.754700
12.600200 0.583600
12.625600 0.381200
12.651000 0.267200
12.676500 0.290300
12.701900 0.384900
12.727300 0.499600
12.752800 0.673000
12.778200 0.891800
12.803600 1.003000
12.829100 0.900500
12.854500 0.671600
12.879900 0.500400
12.905400 0.482400
12.930800 0.541400
12.956200 0.571800
12.981700 0.560400
13.007100 0.531900
13.032500 0.496300
13.058000 0.452800
13.083400 0.424700
13.108800 0.439600
13.134300 0.460600
13.159700 0.442100
13.185100 0.440000
13.210600 0.531300
13.236000 0.659400
13.261400 0.725800
13.286900 0.735100
13.312300 0.712100
13.337700 0.661200
13.363200 0.611500
13.388600 0.578200
13.414000 0.548300
13.439500 0.537900
13.464900 0.580600
13.490300 0.665100
13.515800 0.711600
13.541200 0.631900
13.566600 0.457900
13.592100 0.323500
13.617500 0.302600
13.642900 0.346900
13.668400 0.374700
13.693800 0.378900
13.719200 0.439000
13.744700 0.599600
13.770100 0.739700
13.795500 0.696000
13.821000 0.505000
13.846400 0.337300
13.871800 0.275100
13.897300 0.304500
13.922700 0.408100
13.948100 0.531900
13.973600 0.583800
13.999000 0.547000
14.024400 0.510500
14.049900 0.527700
14.075300 0.550400
14.100700 0.571500
14.126200 0.647300
14.151600 0.759700
14.177000 0.797600
14.202500 0.694600
14.227900 0.538700
14.253300 0.455600
14.278800 0.428600
