set title 'mp-1056985 - Density of States'
set xlabel 'Energy (eV)'
set ylabel 'DOS (states/eV)'
set grid
set xrange [-10:10]
set yrange [0:6.148]
set xzeroaxis lt -1
set terminal png size 800,600
set output 'mp-1056985_dos_gnuplot.png'
plot '-' using 1:2 with lines title 'DOS'
-31.651000 0.000000
-31.604000 0.000000
-31.556900 0.000000
-31.509900 0.000000
-31.462900 0.000000
-31.415900 0.000000
-31.368800 0.000000
-31.321800 0.000000
-31.274800 0.000000
-31.227800 0.000000
-31.180800 0.000000
-31.133700 0.000000
-31.086700 0.000000
-31.039700 0.000000
-30.992700 0.000000
-30.945600 0.000000
-30.898600 0.000000
-30.851600 0.000000
-30.804600 0.000000
-30.757600 0.000000
-30.710500 0.000000
-30.663500 0.000000
-30.616500 0.000000
-30.569500 0.000000
-30.522400 0.000000
-30.475400 0.000000
-30.428400 0.000000
-30.381400 0.000000
-30.334400 0.000000
-30.287300 0.000000
-30.240300 0.000000
-30.193300 0.000000
-30.146300 0.000000
-30.099200 0.000000
-30.052200 0.000000
-30.005200 0.000000
-29.958200 0.000000
-29.911100 0.000000
-29.864100 0.000000
-29.817100 0.000000
-29.770100 0.000000
-29.723100 0.000000
-29.676000 0.000000
-29.629000 0.000000
-29.582000 0.000000
-29.535000 0.000000
-29.487900 0.000000
-29.440900 0.000000
-29.393900 0.000000
-29.346900 0.000000
-29.299900 0.000000
-29.252800 0.000000
-29.205800 0.000000
-29.158800 0.000000
-29.111800 0.000000
-29.064700 0.000000
-29.017700 0.000000
-28.970700 0.000000
-28.923700 0.000000
-28.876700 0.000000
-28.829600 0.000000
-28.782600 0.000000
-28.735600 0.000000
-28.688600 0.000000
-28.641500 0.000000
-28.594500 0.000000
-28.547500 0.000000
-28.500500 0.000000
-28.453500 0.000000
-28.406400 0.000000
-28.359400 0.000000
-28.312400 0.000000
-28.265400 0.000000
-28.218300 0.000000
-28.171300 0.000000
-28.124300 0.000000
-28.077300 0.000000
-28.030300 0.000000
-27.983200 0.000000
-27.936200 0.000000
-27.889200 0.000000
-27.842200 0.000000
-27.795100 0.000000
-27.748100 0.000000
-27.701100 0.000000
-27.654100 0.000000
-27.607100 0.000000
-27.560000 0.000000
-27.513000 0.000000
-27.466000 0.000000
-27.419000 0.000000
-27.371900 4.764600
-27.324900 12.624900
-27.277900 24.041900
-27.230900 34.821500
-27.183900 8.612900
-27.136800 5.879600
-27.089800 6.001100
-27.042800 9.737400
-26.995800 17.862900
-26.948700 17.303000
-26.901700 4.133200
-26.854700 0.000000
-26.807700 0.000000
-26.760700 0.000000
-26.713600 0.000000
-26.666600 0.000000
-26.619600 0.000000
-26.572600 0.000000
-26.525500 0.000000
-26.478500 0.000000
-26.431500 0.000000
-26.384500 0.000000
-26.337500 0.000000
-26.290400 0.000000
-26.243400 0.000000
-26.196400 0.000000
-26.149400 0.000000
-26.102300 0.000000
-26.055300 0.000000
-26.008300 0.000000
-25.961300 0.000000
-25.914300 0.000000
-25.867200 0.000000
-25.820200 0.000000
-25.773200 0.000000
-25.726200 0.000000
-25.679100 0.000000
-25.632100 0.000000
-25.585100 0.000000
-25.538100 0.000000
-25.491100 0.000000
-25.444000 0.000000
-25.397000 0.000000
-25.350000 0.000000
-25.303000 0.000000
-25.255900 0.000000
-25.208900 0.000000
-25.161900 0.000000
-25.114900 0.000000
-25.067900 0.000000
-25.020800 0.000000
-24.973800 0.000000
-24.926800 0.000000
-24.879800 0.000000
-24.832700 0.000000
-24.785700 0.000000
-24.738700 0.000000
-24.691700 0.000000
-24.644700 0.000000
-24.597600 0.000000
-24.550600 0.000000
-24.503600 0.000000
-24.456600 0.000000
-24.409500 0.000000
-24.362500 0.000000
-24.315500 0.000000
-24.268500 0.000000
-24.221500 0.000000
-24.174400 0.000000
-24.127400 0.000000
-24.080400 0.000000
-24.033400 0.000000
-23.986300 0.000000
-23.939300 0.000000
-23.892300 0.000000
-23.845300 0.000000
-23.798300 0.000000
-23.751200 0.000000
-23.704200 0.000000
-23.657200 0.000000
-23.610200 0.000000
-23.563100 0.000000
-23.516100 0.000000
-23.469100 0.000000
-23.422100 0.000000
-23.375100 0.000000
-23.328000 0.000000
-23.281000 0.000000
-23.234000 0.000000
-23.187000 0.000000
-23.139900 0.000000
-23.092900 0.000000
-23.045900 0.000000
-22.998900 0.000000
-22.951900 0.000000
-22.904800 0.000000
-22.857800 0.000000
-22.810800 0.000000
-22.763800 0.000000
-22.716700 0.000000
-22.669700 0.000000
-22.622700 0.000000
-22.575700 0.000000
-22.528700 0.000000
-22.481600 0.000000
-22.434600 0.000000
-22.387600 0.000000
-22.340600 0.000000
-22.293500 0.000000
-22.246500 0.000000
-22.199500 0.000000
-22.152500 0.000000
-22.105500 0.000000
-22.058400 0.000000
-22.011400 0.000000
-21.964400 0.000000
-21.917400 0.000000
-21.870300 0.000000
-21.823300 0.000000
-21.776300 0.000000
-21.729300 0.000000
-21.682300 0.000000
-21.635200 0.000000
-21.588200 0.000000
-21.541200 0.000000
-21.494200 0.000000
-21.447100 0.000000
-21.400100 0.000000
-21.353100 0.000000
-21.306100 0.000000
-21.259100 0.000000
-21.212000 0.000000
-21.165000 0.000000
-21.118000 0.000000
-21.071000 0.000000
-21.023900 0.000000
-20.976900 0.000000
-20.929900 0.000000
-20.882900 0.000000
-20.835900 0.000000
-20.788800 0.000000
-20.741800 0.000000
-20.694800 0.000000
-20.647800 0.000000
-20.600700 0.000000
-20.553700 0.000000
-20.506700 0.000000
-20.459700 0.000000
-20.412700 0.000000
-20.365600 0.000000
-20.318600 0.000000
-20.271600 0.000000
-20.224600 0.000000
-20.177500 0.000000
-20.130500 0.000000
-20.083500 0.000000
-20.036500 0.000000
-19.989500 0.000000
-19.942400 0.000000
-19.895400 0.000000
-19.848400 0.000000
-19.801400 0.000000
-19.754300 0.000000
-19.707300 0.000000
-19.660300 0.000000
-19.613300 0.000000
-19.566300 0.000000
-19.519200 0.000000
-19.472200 0.000000
-19.425200 0.000000
-19.378200 0.000000
-19.331100 0.000000
-19.284100 0.000000
-19.237100 0.000000
-19.190100 0.000000
-19.143100 0.000000
-19.096000 0.000000
-19.049000 0.000000
-19.002000 0.000000
-18.955000 0.000000
-18.907900 0.000000
-18.860900 0.000000
-18.813900 0.000000
-18.766900 0.000000
-18.719800 0.000000
-18.672800 0.000000
-18.625800 0.000000
-18.578800 0.000000
-18.531800 0.000000
-18.484700 0.000000
-18.437700 0.000000
-18.390700 0.000000
-18.343700 0.000000
-18.296600 0.000000
-18.249600 0.000000
-18.202600 0.000000
-18.155600 0.000000
-18.108600 0.000000
-18.061500 0.000000
-18.014500 0.000000
-17.967500 0.000000
-17.920500 0.000000
-17.873400 0.000000
-17.826400 0.000000
-17.779400 0.000000
-17.732400 0.000000
-17.685400 0.000000
-17.638300 0.000000
-17.591300 0.000000
-17.544300 0.000000
-17.497300 0.000000
-17.450200 0.000000
-17.403200 0.000000
-17.356200 0.000000
-17.309200 0.000000
-17.262200 0.000000
-17.215100 0.000000
-17.168100 0.000000
-17.121100 0.000000
-17.074100 0.000000
-17.027000 0.000000
-16.980000 0.000000
-16.933000 0.000000
-16.886000 0.000000
-16.839000 0.000000
-16.791900 0.000000
-16.744900 0.000000
-16.697900 0.000000
-16.650900 0.000000
-16.603800 0.000000
-16.556800 0.000000
-16.509800 0.000000
-16.462800 0.000000
-16.415800 0.000000
-16.368700 0.000000
-16.321700 0.000000
-16.274700 0.000000
-16.227700 0.000000
-16.180600 0.000000
-16.133600 0.000000
-16.086600 0.000000
-16.039600 0.000000
-15.992600 0.000000
-15.945500 0.000000
-15.898500 0.000000
-15.851500 0.000000
-15.804500 0.000000
-15.757400 0.000000
-15.710400 0.000000
-15.663400 0.000000
-15.616400 0.000000
-15.569400 0.000000
-15.522300 0.000000
-15.475300 0.000000
-15.428300 0.000000
-15.381300 0.000000
-15.334200 0.000000
-15.287200 0.000000
-15.240200 0.000000
-15.193200 0.000000
-15.146200 0.000000
-15.099100 0.000000
-15.052100 0.000000
-15.005100 0.000000
-14.958100 0.000000
-14.911000 0.000000
-14.864000 0.000000
-14.817000 0.000000
-14.770000 0.000000
-14.723000 0.000000
-14.675900 0.000000
-14.628900 0.000000
-14.581900 0.000000
-14.534900 0.000000
-14.487800 0.000000
-14.440800 0.000000
-14.393800 0.000000
-14.346800 0.000000
-14.299800 0.000000
-14.252700 0.000000
-14.205700 0.000000
-14.158700 0.000000
-14.111700 0.000000
-14.064600 0.000000
-14.017600 0.000000
-13.970600 0.000000
-13.923600 0.000000
-13.876600 0.000000
-13.829500 0.000000
-13.782500 0.000000
-13.735500 0.000000
-13.688500 0.000000
-13.641400 0.000000
-13.594400 0.000000
-13.547400 0.000000
-13.500400 0.000000
-13.453400 0.000000
-13.406300 0.000000
-13.359300 0.000000
-13.312300 0.000000
-13.265300 0.000000
-13.218200 0.000000
-13.171200 0.000000
-13.124200 0.000000
-13.077200 0.000000
-13.030200 0.000000
-12.983100 0.000000
-12.936100 0.000000
-12.889100 0.000000
-12.842100 0.000000
-12.795000 0.000000
-12.748000 0.000000
-12.701000 0.000000
-12.654000 0.000000
-12.607000 0.000000
-12.559900 0.000000
-12.512900 0.000000
-12.465900 0.000000
-12.418900 0.000000
-12.371800 0.000000
-12.324800 0.000000
-12.277800 0.000000
-12.230800 0.000000
-12.183800 0.000000
-12.136700 0.000000
-12.089700 0.000000
-12.042700 0.000000
-11.995700 0.000000
-11.948600 0.000000
-11.901600 0.000000
-11.854600 0.000000
-11.807600 0.000000
-11.760600 0.000000
-11.713500 0.000000
-11.666500 0.000000
-11.619500 0.000000
-11.572500 0.000000
-11.525400 0.000000
-11.478400 0.000000
-11.431400 0.000000
-11.384400 0.000000
-11.337400 0.000000
-11.290300 0.000000
-11.243300 0.000000
-11.196300 0.000000
-11.149300 0.000000
-11.102200 0.000000
-11.055200 0.000000
-11.008200 0.000000
-10.961200 0.000000
-10.914200 0.000000
-10.867100 0.000000
-10.820100 0.000000
-10.773100 0.000000
-10.726100 0.000000
-10.679000 0.000000
-10.632000 0.000000
-10.585000 0.000000
-10.538000 0.000000
-10.491000 0.000000
-10.443900 0.000000
-10.396900 0.000000
-10.349900 0.000000
-10.302900 0.000000
-10.255800 0.000000
-10.208800 0.000000
-10.161800 0.000000
-10.114800 0.000000
-10.067800 0.000000
-10.020700 0.000000
-9.973700 0.000000
-9.926700 0.000000
-9.879700 0.000000
-9.832600 0.000000
-9.785600 0.000000
-9.738600 0.000000
-9.691600 0.000000
-9.644600 0.000000
-9.597500 0.000000
-9.550500 0.000000
-9.503500 0.000000
-9.456500 0.000000
-9.409400 0.000000
-9.362400 0.000000
-9.315400 0.000000
-9.268400 0.000000
-9.221400 0.000000
-9.174300 0.000000
-9.127300 0.000000
-9.080300 0.000000
-9.033300 0.000000
-8.986200 0.000000
-8.939200 0.000000
-8.892200 0.000000
-8.845200 0.000000
-8.798200 0.000000
-8.751100 0.000000
-8.704100 0.000000
-8.657100 0.000000
-8.610100 0.000000
-8.563000 0.000000
-8.516000 0.000000
-8.469000 0.000000
-8.422000 0.000000
-8.375000 0.000000
-8.327900 0.000000
-8.280900 0.000000
-8.233900 0.000000
-8.186900 0.000000
-8.139800 0.000000
-8.092800 0.000000
-8.045800 0.000000
-7.998800 0.000000
-7.951800 0.000000
-7.904700 0.000000
-7.857700 0.000000
-7.810700 0.000000
-7.763700 0.000000
-7.716600 0.000000
-7.669600 0.000000
-7.622600 0.000000
-7.575600 0.000000
-7.528500 0.000000
-7.481500 0.000000
-7.434500 0.000000
-7.387500 0.000000
-7.340500 0.000000
-7.293400 0.000000
-7.246400 0.000000
-7.199400 0.000000
-7.152400 0.000000
-7.105300 0.000000
-7.058300 0.000000
-7.011300 0.000000
-6.964300 0.000000
-6.917300 0.000000
-6.870200 0.000000
-6.823200 0.000000
-6.776200 0.000000
-6.729200 0.000000
-6.682100 0.000000
-6.635100 0.000000
-6.588100 0.000000
-6.541100 0.000000
-6.494100 0.000000
-6.447000 0.000000
-6.400000 0.000000
-6.353000 0.000000
-6.306000 0.000000
-6.258900 0.000000
-6.211900 0.000000
-6.164900 0.000000
-6.117900 0.000000
-6.070900 0.000000
-6.023800 0.000000
-5.976800 0.000000
-5.929800 0.000000
-5.882800 0.000000
-5.835700 0.000000
-5.788700 0.000000
-5.741700 0.000000
-5.694700 0.000000
-5.647700 0.000000
-5.600600 0.000000
-5.553600 0.000000
-5.506600 0.000000
-5.459600 0.000000
-5.412500 0.000000
-5.365500 0.000000
-5.318500 0.000000
-5.271500 0.000000
-5.224500 0.000000
-5.177400 0.000000
-5.130400 0.000000
-5.083400 0.000000
-5.036400 0.000000
-4.989300 0.000000
-4.942300 0.000000
-4.895300 0.000000
-4.848300 0.000000
-4.801300 0.000000
-4.754200 0.000000
-4.707200 0.000000
-4.660200 0.000000
-4.613200 0.000000
-4.566100 0.000000
-4.519100 0.000000
-4.472100 0.000000
-4.425100 0.000000
-4.378100 0.000000
-4.331000 0.000000
-4.284000 0.000000
-4.237000 0.000000
-4.190000 0.000000
-4.142900 0.000000
-4.095900 0.000000
-4.048900 0.000000
-4.001900 0.000000
-3.954900 0.000000
-3.907800 0.000000
-3.860800 0.000000
-3.813800 0.000000
-3.766800 0.000000
-3.719700 0.000000
-3.672700 0.000000
-3.625700 0.000000
-3.578700 0.000000
-3.531700 0.000000
-3.484600 0.000000
-3.437600 0.000000
-3.390600 0.000000
-3.343600 0.000000
-3.296500 0.000000
-3.249500 0.000000
-3.202500 0.000000
-3.155500 0.000000
-3.108500 0.000000
-3.061400 0.000000
-3.014400 0.000000
-2.967400 0.000000
-2.920400 0.000000
-2.873300 0.000000
-2.826300 0.000000
-2.779300 0.000000
-2.732300 0.000000
-2.685300 0.000000
-2.638200 0.000000
-2.591200 0.000000
-2.544200 0.000000
-2.497200 0.000000
-2.450100 0.000000
-2.403100 0.000000
-2.356100 0.000000
-2.309100 0.000000
-2.262100 0.000000
-2.215000 0.000000
-2.168000 0.000000
-2.121000 0.000000
-2.074000 0.000000
-2.026900 0.000000
-1.979900 0.000000
-1.932900 0.000000
-1.885900 0.000000
-1.838900 0.000000
-1.791800 0.000000
-1.744800 0.000000
-1.697800 0.000000
-1.650800 0.000000
-1.603700 0.000000
-1.556700 0.000000
-1.509700 0.000000
-1.462700 0.000000
-1.415700 0.000000
-1.368600 0.000000
-1.321600 0.000000
-1.274600 0.000000
-1.227600 0.000000
-1.180500 0.000000
-1.133500 0.000000
-1.086500 0.000000
-1.039500 0.000000
-0.992500 0.006900
-0.945400 0.032900
-0.898400 0.054700
-0.851400 0.059400
-0.804400 0.066300
-0.757300 0.078500
-0.710300 0.091700
-0.663300 0.101000
-0.616300 0.104500
-0.569300 0.110300
-0.522200 0.118000
-0.475200 0.125600
-0.428200 0.133100
-0.381200 0.140900
-0.334100 0.150100
-0.287100 0.158000
-0.240100 0.164100
-0.193100 0.170900
-0.146100 0.178100
-0.099000 0.185200
-0.052000 0.192500
-0.005000 0.201700
0.042000 0.211300
0.089100 0.220800
0.136100 0.230800
0.183100 0.240900
0.230100 0.251300
0.277100 0.262100
0.324200 0.275100
0.371200 0.289600
0.418200 0.304200
0.465200 0.318800
0.512300 0.334000
0.559300 0.356600
0.606300 0.387100
0.653300 0.420600
0.700300 0.517900
0.747400 0.580500
0.794400 0.649800
0.841400 0.702700
0.888400 0.771700
0.935500 0.857600
0.982500 1.150800
1.029500 1.454600
1.076500 1.885600
1.123500 2.255300
1.170600 2.409500
1.217600 2.711500
1.264600 3.026600
1.311600 3.283200
1.358700 3.532900
1.405700 3.881100
1.452700 4.580700
1.499700 4.904100
1.546700 4.787500
1.593800 4.768900
1.640800 4.435200
1.687800 4.312100
1.734800 4.330000
1.781900 4.490200
1.828900 4.828700
1.875900 5.011300
1.922900 5.198400
1.969900 5.088200
2.017000 4.461700
2.064000 3.736400
2.111000 3.197000
2.158000 3.304500
2.205100 3.576400
2.252100 3.642200
2.299100 2.738000
2.346100 2.629800
2.393100 3.407900
2.440200 3.712300
2.487200 3.304000
2.534200 2.708200
2.581200 2.369500
2.628300 2.483800
2.675300 2.773800
2.722300 3.142800
2.769300 3.449200
2.816300 3.927000
2.863400 4.093400
2.910400 3.897900
2.957400 3.550400
3.004400 3.509300
3.051500 3.789000
3.098500 3.681400
3.145500 3.857800
3.192500 4.416400
3.239500 4.205100
3.286600 4.653500
3.333600 4.732000
3.380600 4.666900
3.427600 3.408300
3.474700 2.931900
3.521700 2.509000
3.568700 2.761000
3.615700 2.782300
3.662800 2.091400
3.709800 1.908400
3.756800 1.781900
3.803800 1.655200
3.850800 1.516000
3.897900 1.425100
3.944900 1.382500
3.991900 1.349900
4.038900 1.355100
4.086000 1.384100
4.133000 1.367800
4.180000 1.308000
4.227000 1.318700
4.274000 0.920300
4.321100 0.825800
4.368100 0.847300
4.415100 0.867900
4.462100 0.875000
4.509200 0.883200
4.556200 0.892500
4.603200 0.899400
4.650200 0.923000
4.697200 0.957300
4.744300 1.006100
4.791300 1.078800
4.838300 1.163200
4.885300 1.192700
4.932400 1.175300
4.979400 1.177000
5.026400 1.175200
5.073400 1.188200
5.120400 1.306700
5.167500 1.223800
5.214500 1.243100
5.261500 1.282700
5.308500 1.326100
5.355600 1.379500
5.402600 1.455000
5.449600 1.633900
5.496600 1.818600
5.543600 2.086900
5.590700 2.311600
5.637700 2.392000
5.684700 2.436200
5.731700 2.607500
5.778800 2.742500
5.825800 2.656000
5.872800 2.484000
5.919800 2.412900
5.966800 2.217600
6.013900 2.259000
6.060900 2.314700
6.107900 2.393000
6.154900 2.472400
6.202000 2.494700
6.249000 2.543300
6.296000 2.588800
6.343000 2.684400
6.390000 2.974500
6.437100 2.725100
6.484100 2.393100
6.531100 2.337300
6.578100 2.256400
6.625200 2.109500
6.672200 2.239200
6.719200 2.190700
6.766200 2.132500
6.813200 2.007200
6.860300 1.852500
6.907300 1.749800
6.954300 1.640200
7.001300 1.643200
7.048400 2.183700
7.095400 2.454100
7.142400 2.784000
7.189400 3.330000
7.236400 4.445300
7.283500 4.397200
7.330500 3.505800
7.377500 2.846800
7.424500 2.183900
7.471600 1.751000
7.518600 1.218200
7.565600 1.172000
7.612600 1.509100
7.659600 1.564300
7.706700 1.729100
7.753700 1.994500
7.800700 2.252900
7.847700 2.536400
7.894800 2.606600
7.941800 2.614400
7.988800 2.749900
8.035800 2.931100
8.082800 3.100100
8.129900 3.354200
8.176900 2.945400
8.223900 3.398500
8.270900 3.891500
8.318000 4.297200
8.365000 5.589100
8.412000 4.843100
8.459000 4.407400
8.506000 4.083000
8.553100 3.692600
8.600100 3.180400
8.647100 2.796200
8.694100 2.488700
8.741200 2.163700
8.788200 2.017100
8.835200 1.874700
8.882200 1.699100
8.929200 1.377000
8.976300 1.173300
9.023300 1.040200
9.070300 0.979700
9.117300 0.920900
9.164400 0.874000
9.211400 0.833900
9.258400 0.807600
9.305400 0.783700
9.352400 0.760600
9.399500 0.741600
9.446500 0.730200
9.493500 0.708800
9.540500 0.687700
9.587600 0.668800
9.634600 0.660500
9.681600 0.674700
9.728600 0.567200
9.775600 0.564100
9.822700 0.560500
9.869700 0.556500
9.916700 0.569800
9.963700 0.575100
10.010800 0.567800
10.057800 0.568400
10.104800 0.569400
10.151800 0.577600
10.198800 0.583900
10.245900 0.590900
10.292900 0.601600
10.339900 0.615900
10.386900 0.628000
10.434000 0.647600
10.481000 0.685400
10.528000 0.740300
10.575000 0.793100
10.622000 1.084100
10.669100 0.885700
10.716100 0.828400
10.763100 0.816700
10.810100 0.801900
10.857200 0.770100
10.904200 0.749300
10.951200 0.725400
10.998200 0.700200
11.045200 0.681500
11.092300 0.666100
11.139300 0.650500
11.186300 0.635000
11.233300 0.621300
11.280400 0.608400
11.327400 0.596700
11.374400 0.586600
11.421400 0.577700
11.468400 0.569000
11.515500 0.559200
11.562500 0.548400
11.609500 0.539400
11.656500 0.528100
11.703600 0.517300
11.750600 0.507300
11.797600 0.496800
11.844600 0.486100
11.891600 0.476100
11.938700 0.466900
11.985700 0.457900
12.032700 0.448800
12.079700 0.439800
12.126800 0.431200
12.173800 0.423600
12.220800 0.415300
12.267800 0.405500
12.314800 0.396000
12.361900 0.386800
12.408900 0.378500
12.455900 0.372600
12.502900 0.371000
12.550000 0.368800
12.597000 0.362400
12.644000 0.350800
12.691000 0.337500
12.738000 0.323600
12.785100 0.308300
12.832100 0.290400
12.879100 0.270900
12.926100 0.250000
12.973200 0.228900
13.020200 0.208300
13.067200 0.190200
13.114200 0.174300
13.161200 0.160300
13.208300 0.264100
13.255300 0.388700
13.302300 0.388100
13.349300 0.360900
13.396400 0.381600
13.443400 0.426300
13.490400 0.462600
13.537400 0.549500
13.584400 0.778100
13.631500 0.821200
13.678500 0.819000
13.725500 0.867700
13.772500 0.927400
13.819600 0.842200
13.866600 0.820500
13.913600 0.811800
13.960600 0.806700
14.007600 0.798900
14.054700 0.809200
14.101700 0.767700
14.148700 0.731700
14.195700 0.705200
14.242800 0.684000
14.289800 0.666100
14.336800 0.751900
14.383800 0.800100
14.430800 0.816000
14.477900 0.797700
14.524900 0.755200
14.571900 0.747500
14.618900 0.757400
14.666000 0.747500
14.713000 0.730400
14.760000 0.719200
14.807000 0.713200
14.854100 0.707600
14.901100 0.702300
14.948100 0.686100
14.995100 0.675500
15.042100 0.668200
15.089200 0.661700
15.136200 0.657300
15.183200 0.654700
15.230200 0.654800
15.277300 0.654400
15.324300 0.653800
15.371300 0.653100
15.418300 0.651600
15.465300 0.650300
15.512400 0.654200
15.559400 0.660300
15.606400 0.668000
15.653400 0.677000
15.700500 0.702500
15.747500 0.698000
15.794500 0.702200
15.841500 0.705200
15.888500 0.706500
15.935600 0.707800
15.982600 0.710000
16.029600 0.744600
16.076600 0.734100
16.123700 0.750700
16.170700 0.775100
16.217700 0.798500
16.264700 0.793000
16.311700 0.790400
16.358800 0.808100
16.405800 0.827100
16.452800 0.847400
