set title 'mp-1184013 - Density of States'
set xlabel 'Energy (eV)'
set ylabel 'DOS (states/eV)'
set grid
set xrange [-10:10]
set yrange [0:31.077]
set xzeroaxis lt -1
set terminal png size 800,600
set output 'mp-1184013_dos_gnuplot.png'
plot '-' using 1:2 with lines title 'DOS'
-14.688000 0.000000
-14.667800 0.000000
-14.647600 0.000000
-14.627400 0.000000
-14.607200 0.000000
-14.587000 0.000000
-14.566800 0.000000
-14.546600 0.000000
-14.526500 0.000000
-14.506300 0.000000
-14.486100 0.000000
-14.465900 0.000000
-14.445700 0.000000
-14.425500 0.000000
-14.405300 0.000000
-14.385200 0.000000
-14.365000 0.000000
-14.344800 0.000000
-14.324600 0.000000
-14.304400 0.000000
-14.284200 0.000000
-14.264000 0.000000
-14.243800 0.000000
-14.223700 0.000000
-14.203500 0.000000
-14.183300 0.000000
-14.163100 0.000000
-14.142900 0.000000
-14.122700 0.000000
-14.102500 0.000000
-14.082300 0.000000
-14.062200 0.000000
-14.042000 0.000000
-14.021800 0.000000
-14.001600 0.000000
-13.981400 0.000000
-13.961200 0.000000
-13.941000 0.000000
-13.920900 0.000000
-13.900700 0.000000
-13.880500 0.000000
-13.860300 0.000000
-13.840100 0.000000
-13.819900 0.000000
-13.799700 0.000000
-13.779500 0.000000
-13.759400 0.000000
-13.739200 0.000000
-13.719000 0.000000
-13.698800 0.000000
-13.678600 0.000000
-13.658400 0.000000
-13.638200 0.000000
-13.618100 0.000000
-13.597900 0.000000
-13.577700 0.000000
-13.557500 0.000000
-13.537300 0.000000
-13.517100 0.000000
-13.496900 0.000000
-13.476700 0.000000
-13.456600 0.000000
-13.436400 0.000000
-13.416200 0.000000
-13.396000 0.000000
-13.375800 0.000000
-13.355600 0.000000
-13.335400 0.000000
-13.315200 0.000000
-13.295100 0.000000
-13.274900 0.000000
-13.254700 0.000000
-13.234500 0.000000
-13.214300 0.000000
-13.194100 0.000000
-13.173900 0.000000
-13.153800 0.000000
-13.133600 0.000000
-13.113400 0.000000
-13.093200 0.000000
-13.073000 0.000000
-13.052800 0.000000
-13.032600 0.000000
-13.012400 0.000600
-12.992300 0.008100
-12.972100 0.080600
-12.951900 0.582500
-12.931700 3.067500
-12.911500 11.779300
-12.891300 32.998700
-12.871100 67.472300
-12.851000 100.736800
-12.830800 109.859600
-12.810600 87.538600
-12.790400 50.976000
-12.770200 21.696900
-12.750000 6.750400
-12.729800 1.535200
-12.709600 0.255200
-12.689500 0.031000
-12.669300 0.002800
-12.649100 0.000200
-12.628900 0.000000
-12.608700 0.000000
-12.588500 0.000000
-12.568300 0.000000
-12.548100 0.000000
-12.528000 0.000000
-12.507800 0.000000
-12.487600 0.000000
-12.467400 0.000000
-12.447200 0.000000
-12.427000 0.000000
-12.406800 0.000000
-12.386700 0.000000
-12.366500 0.000000
-12.346300 0.000000
-12.326100 0.000000
-12.305900 0.000000
-12.285700 0.000000
-12.265500 0.000000
-12.245300 0.000000
-12.225200 0.000000
-12.205000 0.000000
-12.184800 0.000000
-12.164600 0.000000
-12.144400 0.000000
-12.124200 0.000000
-12.104000 0.000000
-12.083900 0.000000
-12.063700 0.000000
-12.043500 0.000000
-12.023300 0.000000
-12.003100 0.000000
-11.982900 0.000000
-11.962700 0.000000
-11.942500 0.000000
-11.922400 0.000000
-11.902200 0.000000
-11.882000 0.000000
-11.861800 0.000000
-11.841600 0.000000
-11.821400 0.000000
-11.801200 0.000000
-11.781000 0.000000
-11.760900 0.000000
-11.740700 0.000000
-11.720500 0.000000
-11.700300 0.000000
-11.680100 0.000000
-11.659900 0.000000
-11.639700 0.000000
-11.619600 0.000000
-11.599400 0.000000
-11.579200 0.000000
-11.559000 0.000000
-11.538800 0.000000
-11.518600 0.000000
-11.498400 0.000000
-11.478200 0.000000
-11.458100 0.000000
-11.437900 0.000000
-11.417700 0.000000
-11.397500 0.000000
-11.377300 0.000000
-11.357100 0.000000
-11.336900 0.000000
-11.316800 0.000000
-11.296600 0.000000
-11.276400 0.000000
-11.256200 0.000000
-11.236000 0.000000
-11.215800 0.000000
-11.195600 0.000000
-11.175400 0.000000
-11.155300 0.000000
-11.135100 0.000000
-11.114900 0.000000
-11.094700 0.000000
-11.074500 0.000000
-11.054300 0.000000
-11.034100 0.000000
-11.013900 0.000000
-10.993800 0.000000
-10.973600 0.000000
-10.953400 0.000000
-10.933200 0.000000
-10.913000 0.000000
-10.892800 0.000000
-10.872600 0.000000
-10.852500 0.000000
-10.832300 0.000000
-10.812100 0.000000
-10.791900 0.000000
-10.771700 0.000000
-10.751500 0.000000
-10.731300 0.000000
-10.711100 0.000000
-10.691000 0.000000
-10.670800 0.000000
-10.650600 0.000000
-10.630400 0.000000
-10.610200 0.000000
-10.590000 0.000000
-10.569800 0.000000
-10.549700 0.000000
-10.529500 0.000000
-10.509300 0.000000
-10.489100 0.000000
-10.468900 0.000000
-10.448700 0.000000
-10.428500 0.000000
-10.408300 0.000000
-10.388200 0.000000
-10.368000 0.000000
-10.347800 0.000000
-10.327600 0.000000
-10.307400 0.000000
-10.287200 0.000000
-10.267000 0.000000
-10.246800 0.000000
-10.226700 0.000000
-10.206500 0.000000
-10.186300 0.000000
-10.166100 0.000000
-10.145900 0.000000
-10.125700 0.000000
-10.105500 0.000000
-10.085400 0.000000
-10.065200 0.000000
-10.045000 0.000000
-10.024800 0.000000
-10.004600 0.000000
-9.984400 0.000000
-9.964200 0.000000
-9.944000 0.000000
-9.923900 0.000000
-9.903700 0.000000
-9.883500 0.000000
-9.863300 0.000000
-9.843100 0.000000
-9.822900 0.000000
-9.802700 0.000000
-9.782600 0.000000
-9.762400 0.000000
-9.742200 0.000000
-9.722000 0.000000
-9.701800 0.000000
-9.681600 0.000000
-9.661400 0.000000
-9.641200 0.000000
-9.621100 0.000000
-9.600900 0.000000
-9.580700 0.000000
-9.560500 0.000000
-9.540300 0.000000
-9.520100 0.000000
-9.499900 0.000000
-9.479700 0.000000
-9.459600 0.000000
-9.439400 0.000000
-9.419200 0.000000
-9.399000 0.000000
-9.378800 0.000000
-9.358600 0.000000
-9.338400 0.000000
-9.318300 0.000000
-9.298100 0.000000
-9.277900 0.000000
-9.257700 0.000000
-9.237500 0.000000
-9.217300 0.000000
-9.197100 0.000000
-9.176900 0.000000
-9.156800 0.000000
-9.136600 0.000000
-9.116400 0.000000
-9.096200 0.000000
-9.076000 0.000000
-9.055800 0.000000
-9.035600 0.000000
-9.015500 0.000000
-8.995300 0.000000
-8.975100 0.000000
-8.954900 0.000000
-8.934700 0.000000
-8.914500 0.000000
-8.894300 0.000000
-8.874100 0.000000
-8.854000 0.000000
-8.833800 0.000000
-8.813600 0.000000
-8.793400 0.000000
-8.773200 0.000000
-8.753000 0.000000
-8.732800 0.000000
-8.712700 0.000000
-8.692500 0.000000
-8.672300 0.000000
-8.652100 0.000000
-8.631900 0.000000
-8.611700 0.000000
-8.591500 0.000000
-8.571300 0.000000
-8.551200 0.000000
-8.531000 0.000000
-8.510800 0.000000
-8.490600 0.000000
-8.470400 0.000000
-8.450200 0.000000
-8.430000 0.000000
-8.409800 0.000000
-8.389700 0.000000
-8.369500 0.000000
-8.349300 0.000000
-8.329100 0.000000
-8.308900 0.000000
-8.288700 0.000000
-8.268500 0.000000
-8.248400 0.000000
-8.228200 0.000000
-8.208000 0.000000
-8.187800 0.000000
-8.167600 0.000000
-8.147400 0.000000
-8.127200 0.000000
-8.107000 0.000000
-8.086900 0.000000
-8.066700 0.000000
-8.046500 0.000000
-8.026300 0.000000
-8.006100 0.000000
-7.985900 0.000000
-7.965700 0.000000
-7.945600 0.000000
-7.925400 0.000000
-7.905200 0.000000
-7.885000 0.000000
-7.864800 0.000000
-7.844600 0.000000
-7.824400 0.000000
-7.804200 0.000000
-7.784100 0.000000
-7.763900 0.000000
-7.743700 0.000000
-7.723500 0.000000
-7.703300 0.000000
-7.683100 0.000000
-7.662900 0.000000
-7.642700 0.000000
-7.622600 0.000000
-7.602400 0.000000
-7.582200 0.000000
-7.562000 0.000000
-7.541800 0.000000
-7.521600 0.000000
-7.501400 0.000000
-7.481300 0.000000
-7.461100 0.000000
-7.440900 0.000000
-7.420700 0.000000
-7.400500 0.000000
-7.380300 0.000000
-7.360100 0.000000
-7.339900 0.000000
-7.319800 0.000000
-7.299600 0.000000
-7.279400 0.000000
-7.259200 0.000000
-7.239000 0.000000
-7.218800 0.000000
-7.198600 0.000000
-7.178500 0.000000
-7.158300 0.000000
-7.138100 0.000000
-7.117900 0.000000
-7.097700 0.000000
-7.077500 0.000000
-7.057300 0.000000
-7.037100 0.000000
-7.017000 0.000000
-6.996800 0.000000
-6.976600 0.000000
-6.956400 0.000000
-6.936200 0.000000
-6.916000 0.000000
-6.895800 0.000000
-6.875600 0.000000
-6.855500 0.000000
-6.835300 0.000000
-6.815100 0.000000
-6.794900 0.000000
-6.774700 0.000000
-6.754500 0.000000
-6.734300 0.000000
-6.714200 0.000000
-6.694000 0.000000
-6.673800 0.000100
-6.653600 0.000400
-6.633400 0.002000
-6.613200 0.007100
-6.593000 0.018300
-6.572800 0.035500
-6.552700 0.054800
-6.532500 0.073700
-6.512300 0.095300
-6.492100 0.124300
-6.471900 0.167000
-6.451700 0.232700
-6.431500 0.315100
-6.411400 0.372100
-6.391200 0.356600
-6.371000 0.269800
-6.350800 0.164400
-6.330600 0.101600
-6.310400 0.116200
-6.290200 0.210500
-6.270000 0.352800
-6.249900 0.479800
-6.229700 0.531700
-6.209500 0.506300
-6.189300 0.462400
-6.169100 0.462600
-6.148900 0.522800
-6.128700 0.596900
-6.108500 0.600500
-6.088400 0.499300
-6.068200 0.361300
-6.048000 0.275800
-6.027800 0.264900
-6.007600 0.321100
-5.987400 0.456700
-5.967200 0.644400
-5.947100 0.773600
-5.926900 0.764500
-5.906700 0.676700
-5.886500 0.621600
-5.866300 0.629300
-5.846100 0.664800
-5.825900 0.692800
-5.805700 0.683800
-5.785600 0.639700
-5.765400 0.646200
-5.745200 0.804600
-5.725000 1.077400
-5.704800 1.296500
-5.684600 1.364200
-5.664400 1.355600
-5.644300 1.397500
-5.624100 1.569100
-5.603900 1.932100
-5.583700 2.494500
-5.563500 3.130400
-5.543300 3.706000
-5.523100 4.260200
-5.502900 4.815600
-5.482800 5.107900
-5.462600 4.905000
-5.442400 4.514500
-5.422200 4.482400
-5.402000 4.875800
-5.381800 5.322600
-5.361600 5.638400
-5.341400 6.048600
-5.321300 6.852300
-5.301100 8.001700
-5.280900 9.045800
-5.260700 9.636700
-5.240500 9.998200
-5.220300 10.563800
-5.200100 11.286400
-5.180000 11.748800
-5.159800 11.910300
-5.139600 12.289700
-5.119400 13.328400
-5.099200 14.954800
-5.079000 16.863100
-5.058800 18.852400
-5.038600 20.767900
-5.018500 22.364400
-4.998300 23.411800
-4.978100 23.896400
-4.957900 23.978200
-4.937700 23.739600
-4.917500 23.164700
-4.897300 22.401700
-4.877200 21.812600
-4.857000 21.649700
-4.836800 21.766600
-4.816600 21.697200
-4.796400 21.053800
-4.776200 19.846700
-4.756000 18.370400
-4.735800 16.946600
-4.715700 15.995500
-4.695500 16.037900
-4.675300 17.115300
-4.655100 18.416300
-4.634900 19.089900
-4.614700 19.312200
-4.594500 19.923600
-4.574300 21.092000
-4.554200 21.971200
-4.534000 21.758500
-4.513800 20.673700
-4.493600 19.775900
-4.473400 19.976600
-4.453200 21.233400
-4.433000 22.684100
-4.412900 23.631300
-4.392700 24.180500
-4.372500 24.805600
-4.352300 25.750600
-4.332100 26.961200
-4.311900 28.030500
-4.291700 28.251500
-4.271500 27.327700
-4.251400 25.803700
-4.231200 24.322600
-4.211000 22.933900
-4.190800 21.424100
-4.170600 19.801800
-4.150400 18.307600
-4.130200 17.246000
-4.110100 16.843600
-4.089900 17.116400
-4.069700 17.770500
-4.049500 18.329900
-4.029300 18.565900
-4.009100 18.739200
-3.988900 19.185300
-3.968700 19.798100
-3.948600 20.067200
-3.928400 19.346200
-3.908200 17.220700
-3.888000 14.078900
-3.867800 11.071400
-3.847600 9.116700
-3.827400 8.162700
-3.807200 7.565500
-3.787100 6.891700
-3.766900 6.167000
-3.746700 5.537000
-3.726500 4.969800
-3.706300 4.355000
-3.686100 3.699700
-3.665900 3.093800
-3.645800 2.603400
-3.625600 2.287100
-3.605400 2.209100
-3.585200 2.343700
-3.565000 2.501100
-3.544800 2.446000
-3.524600 2.154900
-3.504400 1.858900
-3.484300 1.742800
-3.464100 1.724800
-3.443900 1.607800
-3.423700 1.336300
-3.403500 1.021100
-3.383300 0.774600
-3.363100 0.626400
-3.343000 0.570700
-3.322800 0.589100
-3.302600 0.635200
-3.282400 0.657300
-3.262200 0.629200
-3.242000 0.564700
-3.221800 0.513700
-3.201600 0.527300
-3.181500 0.632600
-3.161300 0.837100
-3.141100 1.114400
-3.120900 1.379400
-3.100700 1.528800
-3.080500 1.534900
-3.060300 1.471600
-3.040200 1.417300
-3.020000 1.354300
-2.999800 1.232400
-2.979600 1.121200
-2.959400 1.190200
-2.939200 1.488400
-2.919000 1.805400
-2.898800 1.836800
-2.878700 1.501400
-2.858500 1.015600
-2.838300 0.657900
-2.818100 0.542800
-2.797900 0.604400
-2.777700 0.720600
-2.757500 0.824500
-2.737300 0.905600
-2.717200 0.956600
-2.697000 0.983900
-2.676800 1.038300
-2.656600 1.157600
-2.636400 1.309100
-2.616200 1.433300
-2.596000 1.484600
-2.575900 1.422500
-2.555700 1.267900
-2.535500 1.157800
-2.515300 1.219600
-2.495100 1.398800
-2.474900 1.510500
-2.454700 1.457900
-2.434500 1.314600
-2.414400 1.205800
-2.394200 1.202500
-2.374000 1.320200
-2.353800 1.522700
-2.333600 1.695400
-2.313400 1.693200
-2.293200 1.489800
-2.273100 1.220800
-2.252900 1.020300
-2.232700 0.891400
-2.212500 0.788300
-2.192300 0.746400
-2.172100 0.851700
-2.151900 1.091100
-2.131700 1.312500
-2.111600 1.378800
-2.091400 1.306500
-2.071200 1.207300
-2.051000 1.157500
-2.030800 1.173000
-2.010600 1.252200
-1.990400 1.370000
-1.970200 1.438100
-1.950100 1.367700
-1.929900 1.204600
-1.909700 1.100800
-1.889500 1.141600
-1.869300 1.301900
-1.849100 1.527300
-1.828900 1.745000
-1.808800 1.867200
-1.788600 1.871800
-1.768400 1.800900
-1.748200 1.665200
-1.728000 1.465400
-1.707800 1.275800
-1.687600 1.180900
-1.667400 1.161500
-1.647300 1.138800
-1.627100 1.096300
-1.606900 1.080200
-1.586700 1.110700
-1.566500 1.148300
-1.546300 1.133100
-1.526100 1.036200
-1.506000 0.899100
-1.485800 0.818300
-1.465600 0.855200
-1.445400 0.985400
-1.425200 1.168300
-1.405000 1.413700
-1.384800 1.726200
-1.364600 2.020500
-1.344500 2.156900
-1.324300 2.069300
-1.304100 1.831700
-1.283900 1.585800
-1.263700 1.416900
-1.243500 1.310000
-1.223300 1.217000
-1.203100 1.127600
-1.183000 1.071000
-1.162800 1.088900
-1.142600 1.194400
-1.122400 1.327600
-1.102200 1.383900
-1.082000 1.328600
-1.061800 1.259100
-1.041700 1.314300
-1.021500 1.506300
-1.001300 1.663900
-0.981100 1.601400
-0.960900 1.349300
-0.940700 1.127700
-0.920500 1.095100
-0.900300 1.227600
-0.880200 1.423000
-0.860000 1.620400
-0.839800 1.827500
-0.819600 2.068100
-0.799400 2.290700
-0.779200 2.374100
-0.759000 2.281800
-0.738900 2.136200
-0.718700 2.084700
-0.698500 2.164600
-0.678300 2.311600
-0.658100 2.407100
-0.637900 2.342100
-0.617700 2.133300
-0.597500 1.895100
-0.577400 1.666100
-0.557200 1.415200
-0.537000 1.185900
-0.516800 1.062600
-0.496600 1.032200
-0.476400 1.002900
-0.456200 0.952700
-0.436000 0.968600
-0.415900 1.105100
-0.395700 1.289000
-0.375500 1.431400
-0.355300 1.535600
-0.335100 1.609900
-0.314900 1.604700
-0.294700 1.533100
-0.274600 1.494100
-0.254400 1.490200
-0.234200 1.403100
-0.214000 1.205100
-0.193800 1.023700
-0.173600 0.989400
-0.153400 1.142700
-0.133200 1.440300
-0.113100 1.739800
-0.092900 1.844500
-0.072700 1.670000
-0.052500 1.320000
-0.032300 0.964200
-0.012100 0.712300
0.008100 0.616600
0.028200 0.701900
0.048400 0.924700
0.068600 1.141500
0.088800 1.210400
0.109000 1.157000
0.129200 1.172900
0.149400 1.394300
0.169600 1.737200
0.189700 1.988900
0.209900 2.013500
0.230100 1.848700
0.250300 1.647500
0.270500 1.567000
0.290700 1.675600
0.310900 1.884600
0.331100 1.998700
0.351200 1.911900
0.371400 1.697100
0.391600 1.472400
0.411800 1.305500
0.432000 1.271000
0.452200 1.434700
0.472400 1.729000
0.492500 1.979300
0.512700 2.100200
0.532900 2.137200
0.553100 2.101800
0.573300 1.940100
0.593500 1.688200
0.613700 1.479000
0.633900 1.379100
0.654000 1.342900
0.674200 1.319700
0.694400 1.335300
0.714600 1.450000
0.734800 1.653800
0.755000 1.832000
0.775200 1.860400
0.795300 1.729900
0.815500 1.564400
0.835700 1.533400
0.855900 1.752300
0.876100 2.182600
0.896300 2.563200
0.916500 2.552200
0.936700 2.080200
0.956800 1.488700
0.977000 1.202900
0.997200 1.327600
1.017400 1.616500
1.037600 1.770100
1.057800 1.683100
1.078000 1.419800
1.098200 1.093200
1.118300 0.830300
1.138500 0.736000
1.158700 0.805900
1.178900 0.920800
1.199100 0.972100
1.219300 0.971300
1.239500 1.004300
1.259600 1.088800
1.279800 1.122800
1.300000 0.999900
1.320200 0.751400
1.340400 0.530800
1.360600 0.464300
1.380800 0.546400
1.401000 0.689100
1.421100 0.831300
1.441300 0.953100
1.461500 1.022800
1.481700 1.020900
1.501900 0.986600
1.522100 0.957000
1.542300 0.904900
1.562400 0.799100
1.582600 0.676800
1.602800 0.603700
1.623000 0.597600
1.643200 0.631400
1.663400 0.668200
1.683600 0.665800
1.703800 0.611300
1.723900 0.567900
1.744100 0.630100
1.764300 0.834800
1.784500 1.137600
1.804700 1.455000
1.824900 1.722700
1.845100 1.915400
1.865200 1.987600
1.885400 1.853000
1.905600 1.511500
1.925800 1.142800
1.946000 0.968300
1.966200 1.036600
1.986400 1.199800
2.006600 1.289400
2.026700 1.277100
2.046900 1.249600
2.067100 1.270400
2.087300 1.304600
2.107500 1.280100
2.127700 1.200800
2.147900 1.164700
2.168100 1.261100
2.188200 1.449400
2.208400 1.563700
2.228600 1.490200
2.248800 1.316000
2.269000 1.227200
2.289200 1.279800
2.309400 1.349800
2.329500 1.332000
2.349700 1.283900
2.369900 1.292800
2.390100 1.327000
2.410300 1.323600
2.430500 1.283000
2.450700 1.199300
2.470900 1.046000
2.491000 0.897700
2.511200 0.918000
2.531400 1.158800
2.551600 1.482500
2.571800 1.723700
2.592000 1.821500
2.612200 1.788500
2.632300 1.676600
2.652500 1.568300
2.672700 1.505700
2.692900 1.476600
2.713100 1.514300
2.733300 1.704500
2.753500 2.050500
2.773700 2.419600
2.793800 2.631100
2.814000 2.566600
2.834200 2.257800
2.854400 1.881000
2.874600 1.621600
2.894800 1.560600
2.915000 1.666500
2.935200 1.817600
2.955300 1.858200
2.975500 1.716000
2.995700 1.482300
3.015900 1.361700
3.036100 1.502000
3.056300 1.836400
3.076500 2.125400
3.096600 2.179800
3.116800 2.018400
3.137000 1.802500
3.157200 1.662500
3.177400 1.659000
3.197600 1.878300
3.217800 2.380400
3.238000 3.002800
3.258100 3.421800
3.278300 3.492200
3.298500 3.346900
3.318700 3.124700
3.338900 2.811800
3.359100 2.386800
3.379300 1.938700
3.399400 1.595800
3.419600 1.415100
3.439800 1.356500
3.460000 1.345200
3.480200 1.350000
3.500400 1.402500
3.520600 1.545900
3.540800 1.764700
3.560900 1.959200
3.581100 2.025300
3.601300 1.976000
3.621500 1.922600
3.641700 1.941100
3.661900 2.050000
3.682100 2.270700
3.702300 2.578400
3.722400 2.825700
3.742600 2.839700
3.762800 2.610500
3.783000 2.295900
3.803200 2.027400
3.823400 1.812600
3.843600 1.623100
3.863700 1.455100
3.883900 1.307700
3.904100 1.182600
3.924300 1.090100
3.944500 1.062600
3.964700 1.175800
3.984900 1.462000
4.005100 1.790500
4.025200 1.938300
4.045400 1.792600
4.065600 1.431800
4.085800 1.051500
4.106000 0.841900
4.126200 0.877800
4.146400 1.075800
4.166500 1.279900
4.186700 1.407600
4.206900 1.483000
4.227100 1.548900
4.247300 1.612500
4.267500 1.655700
4.287700 1.646800
4.307900 1.571100
4.328000 1.472400
4.348200 1.451500
4.368400 1.606500
4.388600 1.928900
4.408800 2.265600
4.429000 2.441400
4.449200 2.411100
4.469400 2.256800
4.489500 2.079600
4.509700 1.949600
4.529900 1.918100
4.550100 2.005200
4.570300 2.167000
4.590500 2.288400
4.610700 2.247200
4.630800 2.016800
4.651000 1.680700
4.671200 1.348600
4.691400 1.100500
4.711600 0.989000
4.731800 1.039300
4.752000 1.247200
4.772200 1.586500
4.792300 1.996500
4.812500 2.338500
4.832700 2.410100
4.852900 2.112700
4.873100 1.631800
4.893300 1.314100
4.913500 1.320400
4.933600 1.523100
4.953800 1.725800
4.974000 1.835000
4.994200 1.854900
5.014400 1.852100
5.034600 1.903100
5.054800 2.039400
5.075000 2.271900
5.095100 2.587000
5.115300 2.858200
5.135500 2.896300
5.155700 2.677200
5.175900 2.411700
5.196100 2.296600
5.216300 2.269300
5.236500 2.131700
5.256600 1.850600
5.276800 1.570800
5.297000 1.401200
5.317200 1.333200
5.337400 1.316500
5.357600 1.342900
5.377800 1.476400
5.397900 1.793600
5.418100 2.257100
5.438300 2.664500
5.458500 2.772600
5.478700 2.493200
5.498900 1.980500
5.519100 1.521400
5.539300 1.295400
5.559400 1.248300
5.579600 1.219600
5.599800 1.117400
5.620000 0.946600
5.640200 0.765400
5.660400 0.662900
5.680600 0.712900
5.700700 0.910400
5.720900 1.191200
5.741100 1.503100
5.761300 1.789600
5.781500 1.955600
5.801700 1.970800
5.821900 1.950100
5.842100 2.009900
5.862200 2.125200
5.882400 2.214200
5.902600 2.253600
5.922800 2.264500
5.943000 2.285000
5.963200 2.383600
5.983400 2.637000
6.003600 3.025000
6.023700 3.351600
6.043900 3.378100
6.064100 3.081600
6.084300 2.675300
6.104500 2.323800
6.124700 1.959200
6.144900 1.466900
6.165000 0.936500
6.185200 0.603600
6.205400 0.615500
6.225600 0.921400
