set title 'mp-28266 - Density of States'
set xlabel 'Energy (eV)'
set ylabel 'DOS (states/eV)'
set grid
set xrange [-10:10]
set yrange [0:19.166]
set xzeroaxis lt -1
set terminal png size 800,600
set output 'mp-28266_dos_gnuplot.png'
plot '-' using 1:2 with lines title 'DOS'
-9.389000 0.000000
-9.376000 0.000000
-9.362900 0.000000
-9.349900 0.000000
-9.336800 0.000000
-9.323700 0.000000
-9.310700 0.000000
-9.297600 0.000000
-9.284600 0.000000
-9.271500 0.000000
-9.258500 0.000000
-9.245400 0.000000
-9.232300 0.000000
-9.219300 0.000000
-9.206200 0.000000
-9.193200 0.000000
-9.180100 0.000000
-9.167100 0.000000
-9.154000 0.000000
-9.141000 0.000000
-9.127900 0.000000
-9.114800 0.000000
-9.101800 0.000000
-9.088700 0.000000
-9.075700 0.000000
-9.062600 0.000000
-9.049600 0.000000
-9.036500 0.000000
-9.023400 0.000000
-9.010400 0.000000
-8.997300 0.000000
-8.984300 0.000000
-8.971200 0.000000
-8.958200 0.000000
-8.945100 0.000000
-8.932100 0.000000
-8.919000 0.000000
-8.905900 0.000000
-8.892900 0.000000
-8.879800 0.000000
-8.866800 0.000000
-8.853700 0.000000
-8.840700 0.000000
-8.827600 0.000000
-8.814500 0.000000
-8.801500 0.000000
-8.788400 0.000000
-8.775400 0.000000
-8.762300 0.000000
-8.749300 0.000000
-8.736200 0.000000
-8.723200 0.000000
-8.710100 0.000000
-8.697000 0.000000
-8.684000 0.000000
-8.670900 0.000000
-8.657900 0.000000
-8.644800 0.000000
-8.631800 0.000000
-8.618700 0.000000
-8.605700 0.000000
-8.592600 0.000000
-8.579500 0.000000
-8.566500 0.000000
-8.553400 0.000000
-8.540400 0.000000
-8.527300 0.000000
-8.514300 0.000000
-8.501200 0.000000
-8.488100 0.000000
-8.475100 0.000000
-8.462000 0.000000
-8.449000 0.000000
-8.435900 0.000000
-8.422900 0.000000
-8.409800 0.000000
-8.396800 0.000000
-8.383700 0.000000
-8.370600 0.000000
-8.357600 0.000000
-8.344500 0.000000
-8.331500 0.000000
-8.318400 0.000000
-8.305400 0.000000
-8.292300 0.000000
-8.279200 0.000000
-8.266200 0.000000
-8.253100 0.000000
-8.240100 0.000000
-8.227000 0.000000
-8.214000 0.000000
-8.200900 0.000200
-8.187900 0.033300
-8.174800 0.122300
-8.161700 0.214900
-8.148700 0.229300
-8.135600 0.265200
-8.122600 0.309200
-8.109500 0.353900
-8.096500 0.389800
-8.083400 0.407500
-8.070300 0.427500
-8.057300 0.448200
-8.044200 0.470900
-8.031200 0.496700
-8.018100 0.524300
-8.005100 0.548700
-7.992000 0.574100
-7.979000 0.601200
-7.965900 0.619000
-7.952800 0.635900
-7.939800 0.652400
-7.926700 0.669900
-7.913700 0.694000
-7.900600 0.717100
-7.887600 0.739100
-7.874500 0.760800
-7.861400 0.781300
-7.848400 0.801700
-7.835300 0.823200
-7.822300 0.844900
-7.809200 0.864400
-7.796200 0.885400
-7.783100 0.906900
-7.770100 0.928500
-7.757000 0.949900
-7.743900 0.971600
-7.730900 0.993200
-7.717800 1.015500
-7.704800 1.038100
-7.691700 1.062900
-7.678700 1.087600
-7.665600 1.112600
-7.652500 1.138000
-7.639500 1.163800
-7.626400 1.189800
-7.613400 1.216500
-7.600300 1.243600
-7.587300 1.271700
-7.574200 1.300800
-7.561200 1.332100
-7.548100 1.364800
-7.535000 1.399300
-7.522000 1.434700
-7.508900 1.471200
-7.495900 1.508800
-7.482800 1.546800
-7.469800 1.585100
-7.456700 1.629600
-7.443600 1.683100
-7.430600 1.744300
-7.417500 1.816000
-7.404500 1.892000
-7.391400 1.975100
-7.378400 2.075900
-7.365300 2.206300
-7.352300 2.370100
-7.339200 2.398900
-7.326100 2.448300
-7.313100 2.454900
-7.300000 2.455000
-7.287000 2.450800
-7.273900 2.469800
-7.260900 2.493400
-7.247800 2.504500
-7.234700 2.515300
-7.221700 2.526400
-7.208600 2.542600
-7.195600 2.572600
-7.182500 2.614100
-7.169500 2.661300
-7.156400 2.709100
-7.143400 2.780800
-7.130300 2.859700
-7.117200 2.869800
-7.104200 2.824500
-7.091100 2.814600
-7.078100 2.777200
-7.065000 2.720000
-7.052000 2.662900
-7.038900 2.638500
-7.025800 2.505100
-7.012800 2.175200
-6.999700 1.916600
-6.986700 1.756100
-6.973600 1.652700
-6.960600 1.560200
-6.947500 1.459900
-6.934500 1.363200
-6.921400 1.291700
-6.908300 1.246300
-6.895300 1.157500
-6.882200 1.106200
-6.869200 1.062400
-6.856100 1.030900
-6.843100 1.011200
-6.830000 0.985700
-6.816900 0.966800
-6.803900 0.938300
-6.790800 0.939700
-6.777800 0.871500
-6.764700 0.825500
-6.751700 0.806100
-6.738600 0.807000
-6.725600 0.806600
-6.712500 0.832700
-6.699400 0.802100
-6.686400 0.759200
-6.673300 0.731200
-6.660300 0.752900
-6.647200 0.790800
-6.634200 0.845100
-6.621100 0.902200
-6.608000 0.954400
-6.595000 1.008200
-6.581900 1.072900
-6.568900 1.158700
-6.555800 1.278200
-6.542800 1.465300
-6.529700 1.675200
-6.516700 1.967800
-6.503600 2.193600
-6.490500 2.187100
-6.477500 2.076200
-6.464400 1.848600
-6.451400 1.674500
-6.438300 1.565500
-6.425300 1.494400
-6.412200 1.455600
-6.399200 1.427700
-6.386100 1.403000
-6.373000 1.381300
-6.360000 1.362100
-6.346900 1.344900
-6.333900 1.329100
-6.320800 1.314700
-6.307800 1.301100
-6.294700 1.287400
-6.281600 1.272700
-6.268600 1.258800
-6.255500 1.246500
-6.242500 1.234800
-6.229400 1.224100
-6.216400 1.214100
-6.203300 1.204600
-6.190300 1.198300
-6.177200 1.192600
-6.164100 1.187100
-6.151100 1.181800
-6.138000 1.176600
-6.125000 1.171600
-6.111900 1.166700
-6.098900 1.161800
-6.085800 1.156900
-6.072700 1.152100
-6.059700 1.147200
-6.046600 1.142200
-6.033600 1.137100
-6.020500 1.131200
-6.007500 1.125500
-5.994400 1.120300
-5.981400 1.115200
-5.968300 1.110500
-5.955200 1.106300
-5.942200 1.102600
-5.929100 1.100300
-5.916100 1.098000
-5.903000 1.095800
-5.890000 1.093700
-5.876900 1.091600
-5.863800 1.089700
-5.850800 1.087900
-5.837700 1.086200
-5.824700 1.084500
-5.811600 1.082800
-5.798600 1.081300
-5.785500 1.079800
-5.772500 1.078400
-5.759400 1.077000
-5.746300 1.075600
-5.733300 1.074100
-5.720200 1.072400
-5.707200 1.071000
-5.694100 1.070100
-5.681100 1.069300
-5.668000 1.068900
-5.654900 1.069700
-5.641900 1.070800
-5.628800 1.072100
-5.615800 1.073500
-5.602700 1.076000
-5.589700 1.081100
-5.576600 1.088800
-5.563600 1.100800
-5.550500 1.115800
-5.537400 1.133500
-5.524400 1.170500
-5.511300 1.177400
-5.498300 1.188700
-5.485200 1.206300
-5.472200 1.245300
-5.459100 1.313800
-5.446000 1.324000
-5.433000 1.284600
-5.419900 1.265800
-5.406900 1.247700
-5.393800 1.230500
-5.380800 1.218900
-5.367700 1.196900
-5.354700 1.161100
-5.341600 1.116100
-5.328500 1.063400
-5.315500 1.012000
-5.302400 0.966000
-5.289400 0.925600
-5.276300 0.886200
-5.263300 0.842000
-5.250200 0.799900
-5.237100 0.763400
-5.224100 0.728700
-5.211000 0.696300
-5.198000 0.675200
-5.184900 0.661600
-5.171900 0.653600
-5.158800 0.651800
-5.145800 0.652000
-5.132700 0.657700
-5.119600 0.674800
-5.106600 0.705200
-5.093500 0.726800
-5.080500 0.701100
-5.067400 0.701000
-5.054400 0.683300
-5.041300 0.653700
-5.028200 0.630300
-5.015200 0.613300
-5.002100 0.601400
-4.989100 0.593200
-4.976000 0.589000
-4.963000 0.587000
-4.949900 0.586500
-4.936900 0.587600
-4.923800 0.597200
-4.910700 0.594900
-4.897700 0.589900
-4.884600 0.590700
-4.871600 0.600000
-4.858500 0.610600
-4.845500 0.619100
-4.832400 0.624200
-4.819300 0.625000
-4.806300 0.629100
-4.793200 0.634800
-4.780200 0.639200
-4.767100 0.642600
-4.754100 0.632600
-4.741000 0.618700
-4.728000 0.629600
-4.714900 0.646600
-4.701800 0.668400
-4.688800 0.688900
-4.675700 0.712300
-4.662700 0.736900
-4.649600 0.757900
-4.636600 0.780400
-4.623500 0.808200
-4.610400 0.838900
-4.597400 0.887000
-4.584300 0.969300
-4.571300 1.084500
-4.558200 1.174000
-4.545200 1.217500
-4.532100 1.174700
-4.519100 1.170900
-4.506000 1.181000
-4.492900 1.178200
-4.479900 1.187000
-4.466800 1.191400
-4.453800 1.195100
-4.440700 1.198100
-4.427700 1.198100
-4.414600 1.194900
-4.401500 1.194300
-4.388500 1.209700
-4.375400 1.202400
-4.362400 1.172600
-4.349300 1.121800
-4.336300 1.085600
-4.323200 1.070200
-4.310200 1.059000
-4.297100 1.050000
-4.284000 1.044500
-4.271000 1.039600
-4.257900 1.035200
-4.244900 1.031200
-4.231800 1.027600
-4.218800 1.024500
-4.205700 1.021800
-4.192700 1.020000
-4.179600 1.019600
-4.166500 1.019600
-4.153500 1.020000
-4.140400 1.020500
-4.127400 1.021200
-4.114300 1.022400
-4.101300 1.023700
-4.088200 1.024700
-4.075100 1.025800
-4.062100 1.026900
-4.049000 1.028000
-4.036000 1.029100
-4.022900 1.030300
-4.009900 1.031400
-3.996800 1.032500
-3.983800 1.033500
-3.970700 1.034700
-3.957600 1.036000
-3.944600 1.037700
-3.931500 1.039700
-3.918500 1.041900
-3.905400 1.044700
-3.892400 1.048500
-3.879300 1.053300
-3.866200 1.058100
-3.853200 1.063300
-3.840100 1.068600
-3.827100 1.073800
-3.814000 1.079500
-3.801000 1.084400
-3.787900 1.089300
-3.774900 1.094200
-3.761800 1.099000
-3.748700 1.104000
-3.735700 1.109200
-3.722600 1.114400
-3.709600 1.119900
-3.696500 1.125900
-3.683500 1.132600
-3.670400 1.140500
-3.657300 1.154000
-3.644300 1.171800
-3.631200 1.189800
-3.618200 1.209100
-3.605100 1.231000
-3.592100 1.255900
-3.579000 1.285600
-3.566000 1.326900
-3.552900 1.371800
-3.539800 1.424800
-3.526800 1.488700
-3.513700 1.473400
-3.500700 1.449300
-3.487600 1.453700
-3.474600 1.401800
-3.461500 1.351700
-3.448400 1.321300
-3.435400 1.306700
-3.422300 1.296400
-3.409300 1.282600
-3.396200 1.215900
-3.383200 1.183700
-3.370100 1.148800
-3.357100 1.091300
-3.344000 1.044900
-3.330900 1.007700
-3.317900 0.987700
-3.304800 0.966900
-3.291800 0.930300
-3.278700 0.892200
-3.265700 0.872400
-3.252600 0.865600
-3.239500 0.862500
-3.226500 0.859300
-3.213400 0.855700
-3.200400 0.855300
-3.187300 0.859600
-3.174300 0.850000
-3.161200 0.847900
-3.148200 0.859200
-3.135100 0.903900
-3.122000 0.902100
-3.109000 0.894000
-3.095900 0.898500
-3.082900 0.906700
-3.069800 0.918300
-3.056800 0.934200
-3.043700 0.954700
-3.030600 0.979600
-3.017600 1.014400
-3.004500 1.019200
-2.991500 1.022800
-2.978400 1.044100
-2.965400 1.061700
-2.952300 1.075000
-2.939300 1.092700
-2.926200 1.105800
-2.913100 1.131200
-2.900100 1.173500
-2.887000 1.231200
-2.874000 1.394900
-2.860900 1.466100
-2.847900 1.510000
-2.834800 1.551500
-2.821700 1.580400
-2.808700 1.593800
-2.795600 1.613500
-2.782600 1.633300
-2.769500 1.651200
-2.756500 1.648100
-2.743400 1.635200
-2.730400 1.644000
-2.717300 1.668000
-2.704200 1.714500
-2.691200 1.720300
-2.678100 1.675600
-2.665100 1.672200
-2.652000 1.687300
-2.639000 1.713100
-2.625900 1.742000
-2.612800 1.776500
-2.599800 1.819400
-2.586700 1.866600
-2.573700 1.916200
-2.560600 1.976200
-2.547600 2.057000
-2.534500 2.177000
-2.521500 2.364700
-2.508400 2.622900
-2.495300 2.796200
-2.482300 2.825800
-2.469200 2.872800
-2.456200 2.919400
-2.443100 3.104400
-2.430100 3.161800
-2.417000 3.027000
-2.403900 3.005700
-2.390900 3.077400
-2.377800 2.756000
-2.364800 2.508700
-2.351700 2.366000
-2.338700 2.272300
-2.325600 2.185900
-2.312600 2.122900
-2.299500 2.065300
-2.286400 2.011400
-2.273400 1.961100
-2.260300 1.916900
-2.247300 1.883700
-2.234200 1.852000
-2.221200 1.814100
-2.208100 1.781200
-2.195000 1.746700
-2.182000 1.716900
-2.168900 1.692200
-2.155900 1.667200
-2.142800 1.656000
-2.129800 1.643000
-2.116700 1.643600
-2.103700 1.634000
-2.090600 1.611900
-2.077500 1.575200
-2.064500 1.456000
-2.051400 1.348600
-2.038400 1.263700
-2.025300 1.164700
-2.012300 1.074900
-1.999200 1.021800
-1.986200 0.929800
-1.973100 0.483700
-1.960000 0.467900
-1.947000 0.453100
-1.933900 0.438000
-1.920900 0.422900
-1.907800 0.407700
-1.894800 0.393500
-1.881700 0.382100
-1.868600 0.371500
-1.855600 0.361300
-1.842500 0.351300
-1.829500 0.341300
-1.816400 0.331600
-1.803400 0.321900
-1.790300 0.312300
-1.777300 0.303100
-1.764200 0.294200
-1.751100 0.285900
-1.738100 0.277800
-1.725000 0.269900
-1.712000 0.262200
-1.698900 0.254400
-1.685900 0.246800
-1.672800 0.239400
-1.659700 0.232400
-1.646700 0.226000
-1.633600 0.220300
-1.620600 0.214900
-1.607500 0.209500
-1.594500 0.204000
-1.581400 0.198400
-1.568400 0.192800
-1.555300 0.187200
-1.542200 0.181500
-1.529200 0.175200
-1.516100 0.168500
-1.503100 0.161400
-1.490000 0.154900
-1.477000 0.149100
-1.463900 0.143400
-1.450800 0.137900
-1.437800 0.132300
-1.424700 0.126900
-1.411700 0.121700
-1.398600 0.116800
-1.385600 0.112100
-1.372500 0.107600
-1.359500 0.102900
-1.346400 0.098500
-1.333300 0.094200
-1.320300 0.089800
-1.307200 0.085400
-1.294200 0.081200
-1.281100 0.077300
-1.268100 0.073800
-1.255000 0.070700
-1.241900 0.075300
-1.228900 0.075800
-1.215800 0.048400
-1.202800 0.040200
-1.189700 0.034300
-1.176700 0.028200
-1.163600 0.021800
-1.150600 0.016000
-1.137500 0.011100
-1.124400 0.007100
-1.111400 0.004000
-1.098300 0.001800
-1.085300 0.000400
-1.072200 0.000000
-1.059200 0.000000
-1.046100 0.000000
-1.033000 0.000000
-1.020000 0.000000
-1.006900 0.000000
-0.993900 0.000000
-0.980800 0.000000
-0.967800 0.000000
-0.954700 0.000000
-0.941700 0.000000
-0.928600 0.000000
-0.915500 0.000000
-0.902500 0.000000
-0.889400 0.000000
-0.876400 0.000000
-0.863300 0.000000
-0.850300 0.000000
-0.837200 0.000000
-0.824100 0.000000
-0.811100 0.000000
-0.798000 0.000000
-0.785000 0.000000
-0.771900 0.000000
-0.758900 0.000000
-0.745800 0.000000
-0.732800 0.000000
-0.719700 0.000000
-0.706600 0.000000
-0.693600 0.000000
-0.680500 0.000000
-0.667500 0.000000
-0.654400 0.000000
-0.641400 0.000000
-0.628300 0.000000
-0.615200 0.000000
-0.602200 0.000000
-0.589100 0.000000
-0.576100 0.000000
-0.563000 0.000000
-0.550000 0.000000
-0.536900 0.000100
-0.523900 0.062700
-0.510800 0.256200
-0.497700 0.640900
-0.484700 0.928600
-0.471600 1.318600
-0.458600 1.573900
-0.445500 1.840800
-0.432500 2.171000
-0.419400 2.698600
-0.406300 2.986600
-0.393300 3.128300
-0.380200 3.523200
-0.367200 3.853300
-0.354100 3.772500
-0.341100 3.763500
-0.328000 3.578500
-0.315000 3.416100
-0.301900 3.328900
-0.288800 3.278700
-0.275800 3.240300
-0.262700 3.181400
-0.249700 3.116800
-0.236600 3.076200
-0.223600 3.060800
-0.210500 3.061700
-0.197400 3.081300
-0.184400 3.137100
-0.171300 3.229600
-0.158300 3.243900
-0.145200 3.184000
-0.132200 3.158700
-0.119100 3.150100
-0.106100 3.129900
-0.093000 3.085300
-0.079900 3.044200
-0.066900 3.028600
-0.053800 3.017300
-0.040800 3.016200
-0.027700 3.014900
-0.014700 3.011500
-0.001600 3.004700
0.011500 3.005000
0.024500 3.030300
0.037600 3.062000
0.050600 3.119300
0.063700 3.152600
0.076700 3.128800
0.089800 3.007200
0.102800 2.978300
0.115900 3.008600
0.129000 2.920500
0.142000 2.798200
0.155100 2.748500
0.168100 2.764600
0.181200 2.784400
0.194200 2.895400
0.207300 3.040200
0.220300 3.042500
0.233400 3.068300
0.246500 3.099900
0.259500 3.116300
0.272600 3.175000
0.285600 3.258000
0.298700 3.366600
0.311700 3.475500
0.324800 3.577700
0.337900 3.634700
0.350900 3.658200
0.364000 3.777000
0.377000 4.076500
0.390100 4.153700
0.403100 3.934600
0.416200 3.848400
0.429200 4.071200
0.442300 4.336300
0.455400 4.681500
0.468400 4.947200
0.481500 5.138900
0.494500 5.201300
0.507600 5.584400
0.520600 5.485100
0.533700 5.408800
0.546800 5.338800
0.559800 5.302100
0.572900 5.278300
0.585900 5.102100
0.599000 5.062000
0.612000 5.047400
0.625100 5.101900
0.638100 5.003400
0.651200 4.903100
0.664300 4.829000
0.677300 4.856000
0.690400 4.704600
0.703400 4.546300
0.716500 4.379300
0.729500 4.231100
0.742600 4.111300
0.755700 4.103700
0.768700 4.027500
0.781800 3.961900
0.794800 3.947800
0.807900 3.968300
0.820900 4.006200
0.834000 4.089800
0.847000 4.218700
0.860100 4.391300
0.873200 4.460700
0.886200 4.625400
0.899300 4.660500
0.912300 4.618000
0.925400 4.687700
0.938400 4.622600
0.951500 4.566100
0.964600 4.487000
0.977600 4.354300
0.990700 4.266000
1.003700 4.314900
1.016800 4.167700
1.029800 4.127100
1.042900 3.986800
1.055900 3.868100
1.069000 3.824300
1.082100 3.893800
1.095100 4.139200
1.108200 4.478400
1.121200 4.663400
1.134300 4.768300
1.147300 4.946800
1.160400 5.174900
1.173500 4.909700
1.186500 4.756600
1.199600 4.596700
1.212600 4.417200
1.225700 4.283600
1.238700 4.221600
1.251800 4.144800
1.264800 4.168500
1.277900 4.160800
1.291000 4.320200
1.304000 4.370600
1.317100 4.369400
1.330100 4.283300
1.343200 4.186800
1.356200 4.063100
1.369300 3.944000
1.382400 4.166200
1.395400 4.139600
1.408500 4.368000
1.421500 4.633000
1.434600 4.728200
1.447600 4.791900
1.460700 4.863200
1.473700 5.085000
1.486800 5.179600
1.499900 5.166900
1.512900 5.083400
1.526000 5.041900
1.539000 5.054500
1.552100 5.055800
1.565100 5.016500
1.578200 4.994100
1.591300 4.919400
1.604300 4.734900
1.617400 4.511500
1.630400 4.285200
1.643500 4.085500
1.656500 3.938000
1.669600 3.977600
1.682600 4.004800
1.695700 3.854200
1.708800 3.798000
1.721800 3.843600
1.734900 3.954100
1.747900 4.135300
1.761000 4.084700
1.774000 4.151400
1.787100 4.158300
1.800200 4.176300
1.813200 4.127000
1.826300 4.223800
1.839300 4.351000
1.852400 4.445200
1.865400 4.476500
1.878500 4.605800
1.891500 4.591800
1.904600 4.483700
1.917700 4.453000
1.930700 4.467000
1.943800 4.462500
1.956800 4.413800
1.969900 4.419700
1.982900 4.479800
1.996000 4.527500
2.009100 4.678700
2.022100 4.843400
2.035200 4.963200
2.048200 4.979800
2.061300 4.893100
2.074300 4.815700
2.087400 4.769300
2.100400 4.914800
2.113500 4.739600
2.126600 4.666000
2.139600 4.623400
2.152700 4.577900
2.165700 4.773400
2.178800 4.787500
2.191800 4.933500
2.204900 5.161800
2.218000 5.370600
2.231000 5.433600
2.244100 5.099500
2.257100 4.833900
2.270200 4.490800
2.283200 4.124700
2.296300 3.872300
2.309300 3.754900
2.322400 3.688100
2.335500 3.619800
2.348500 3.673200
2.361600 3.830200
2.374600 4.098700
2.387700 4.518100
2.400700 5.020700
2.413800 5.295200
2.426800 5.626800
2.439900 5.594800
2.453000 5.442600
2.466000 5.508100
2.479100 5.166700
2.492100 5.137500
2.505200 5.254000
2.518200 5.157600
2.531300 5.465400
2.544400 5.747800
2.557400 5.843700
2.570500 6.191000
2.583500 7.130500
2.596600 7.903200
2.609600 8.532300
2.622700 8.626500
2.635700 8.333100
2.648800 8.229700
2.661900 8.314500
2.674900 8.364000
2.688000 7.921400
2.701000 7.860700
2.714100 8.337100
2.727100 8.906900
2.740200 9.900300
2.753300 10.683000
2.766300 11.626300
2.779400 11.940700
2.792400 12.330300
2.805500 12.489600
2.818500 12.848200
2.831600 11.715800
2.844600 10.149900
2.857700 8.882700
2.870800 8.110400
2.883800 7.727900
2.896900 6.971700
2.909900 6.262700
2.923000 5.876600
2.936000 5.651200
2.949100 5.451800
2.962200 5.564800
2.975200 5.899300
2.988300 5.835500
3.001300 5.990400
3.014400 6.127800
3.027400 5.832900
3.040500 6.086800
3.053500 6.054100
3.066600 6.193200
3.079700 7.029200
3.092700 9.104800
3.105800 10.050100
3.118800 9.667800
3.131900 8.965400
3.144900 8.971300
3.158000 8.736700
3.171100 8.469700
3.184100 8.482100
3.197200 8.551500
3.210200 8.819900
3.223300 8.660200
3.236300 8.700400
3.249400 8.594600
3.262400 8.565600
3.275500 8.759200
3.288600 9.052100
3.301600 9.326800
3.314700 9.558600
3.327700 10.034900
3.340800 10.463800
3.353800 10.544900
3.366900 10.318400
3.380000 10.155800
3.393000 10.274500
3.406100 10.378100
3.419100 9.839200
3.432200 9.176800
3.445200 8.883400
3.458300 8.702700
3.471300 8.974000
3.484400 9.372800
3.497500 9.591500
3.510500 9.708600
3.523600 9.798900
3.536600 9.904000
3.549700 10.160000
3.562700 10.739000
3.575800 11.254300
3.588900 12.586800
3.601900 14.687500
3.615000 14.681000
3.628000 14.458300
3.641100 14.042000
3.654100 14.719400
3.667200 16.374800
3.680200 17.423600
3.693300 15.839400
3.706400 13.874600
3.719400 13.582300
3.732500 13.149100
3.745500 10.904500
3.758600 9.029500
3.771600 7.051600
3.784700 5.859000
3.797800 4.773800
3.810800 4.124300
3.823900 3.934700
3.836900 4.115600
3.850000 4.448100
3.863000 4.760800
3.876100 5.087100
3.889100 5.481500
3.902200 5.859600
3.915300 6.349700
3.928300 6.739700
3.941400 6.875900
3.954400 6.818600
3.967500 7.034400
3.980500 7.185700
3.993600 7.239200
4.006700 7.194400
4.019700 7.023600
4.032800 6.926000
4.045800 6.816600
4.058900 6.432400
4.071900 6.201200
4.085000 5.970300
4.098000 5.588300
4.111100 5.507200
4.124200 5.471200
4.137200 5.340100
4.150300 5.244400
4.163300 5.140100
4.176400 5.282600
4.189400 5.440700
4.202500 5.171000
4.215600 4.822000
4.228600 4.656900
4.241700 4.658300
4.254700 4.621400
4.267800 4.219800
4.280800 3.945100
4.293900 3.803900
4.306900 3.695000
4.320000 3.585000
4.333100 3.515800
4.346100 3.510200
4.359200 3.473700
