set title 'mp-1184774 - Density of States'
set xlabel 'Energy (eV)'
set ylabel 'DOS (states/eV)'
set grid
set xrange [-10:10]
set yrange [0:7.573]
set xzeroaxis lt -1
set terminal png size 800,600
set output 'mp-1184774_dos_gnuplot.png'
plot '-' using 1:2 with lines title 'DOS'
-12.044000 0.000000
-12.015600 0.000000
-11.987200 0.000000
-11.958700 0.000000
-11.930300 0.000000
-11.901900 0.000000
-11.873500 0.000000
-11.845000 0.000000
-11.816600 0.000000
-11.788200 0.000000
-11.759700 0.000000
-11.731300 0.000000
-11.702900 0.000000
-11.674400 0.000000
-11.646000 0.000000
-11.617600 0.000000
-11.589100 0.000000
-11.560700 0.000000
-11.532300 0.000000
-11.503800 0.000000
-11.475400 0.000000
-11.447000 0.000000
-11.418600 0.000000
-11.390100 0.000000
-11.361700 0.000000
-11.333300 0.000000
-11.304800 0.000000
-11.276400 0.000000
-11.248000 0.000000
-11.219500 0.000000
-11.191100 0.000000
-11.162700 0.000000
-11.134200 0.000000
-11.105800 0.000000
-11.077400 0.000000
-11.048900 0.000000
-11.020500 0.000000
-10.992100 0.000000
-10.963700 0.000000
-10.935200 0.000000
-10.906800 0.000000
-10.878400 0.000000
-10.849900 0.000000
-10.821500 0.000000
-10.793100 0.000000
-10.764600 0.000000
-10.736200 0.000000
-10.707800 0.000000
-10.679300 0.000000
-10.650900 0.000000
-10.622500 0.000000
-10.594000 0.000000
-10.565600 0.000000
-10.537200 0.000000
-10.508700 0.000000
-10.480300 0.000000
-10.451900 0.000000
-10.423500 0.000000
-10.395000 0.000000
-10.366600 0.000000
-10.338200 0.000000
-10.309700 0.000000
-10.281300 0.000000
-10.252900 0.000000
-10.224400 0.000000
-10.196000 0.000000
-10.167600 0.000000
-10.139100 0.000000
-10.110700 0.000000
-10.082300 0.000000
-10.053800 0.000000
-10.025400 0.000000
-9.997000 0.000000
-9.968600 0.000000
-9.940100 0.000000
-9.911700 0.000000
-9.883300 0.000000
-9.854800 0.000000
-9.826400 0.000000
-9.798000 0.000000
-9.769500 0.000000
-9.741100 0.000000
-9.712700 0.000000
-9.684200 0.000000
-9.655800 0.000000
-9.627400 0.000000
-9.598900 0.000000
-9.570500 0.000000
-9.542100 0.000000
-9.513700 0.000000
-9.485200 0.000000
-9.456800 0.000400
-9.428400 0.054400
-9.399900 0.147300
-9.371500 0.174000
-9.343100 0.210400
-9.314600 0.253500
-9.286200 0.285100
-9.257800 0.311100
-9.229300 0.336900
-9.200900 0.367000
-9.172500 0.397400
-9.144000 0.423400
-9.115600 0.449700
-9.087200 0.478600
-9.058700 0.545700
-9.030300 0.583600
-9.001900 0.603000
-8.973500 0.622700
-8.945000 0.633200
-8.916600 0.634900
-8.888200 0.648300
-8.859700 0.661100
-8.831300 0.673100
-8.802900 0.812700
-8.774400 0.821400
-8.746000 0.870500
-8.717600 0.916500
-8.689100 0.951800
-8.660700 0.999200
-8.632300 1.047500
-8.603800 1.100900
-8.575400 1.152600
-8.547000 1.215300
-8.518600 1.281600
-8.490100 1.351600
-8.461700 1.427900
-8.433300 1.507900
-8.404800 1.649200
-8.376400 1.806200
-8.348000 1.913100
-8.319500 1.970300
-8.291100 2.017700
-8.262700 2.092100
-8.234200 2.184700
-8.205800 2.266400
-8.177400 2.356000
-8.148900 2.452600
-8.120500 2.563200
-8.092100 2.685500
-8.063600 2.820100
-8.035200 2.990100
-8.006800 3.200000
-7.978400 3.465200
-7.949900 3.801200
-7.921500 4.258400
-7.893100 4.681800
-7.864600 4.914700
-7.836200 4.946100
-7.807800 5.069500
-7.779300 4.964700
-7.750900 4.976400
-7.722500 5.335500
-7.694000 5.666900
-7.665600 5.737000
-7.637200 6.034900
-7.608700 6.138600
-7.580300 6.469400
-7.551900 5.005200
-7.523500 0.000000
-7.495000 0.000000
-7.466600 0.000000
-7.438200 0.000000
-7.409700 0.000000
-7.381300 0.000000
-7.352900 0.000000
-7.324400 0.000000
-7.296000 0.000000
-7.267600 0.000000
-7.239100 0.000000
-7.210700 0.000000
-7.182300 0.000000
-7.153800 0.000000
-7.125400 0.000000
-7.097000 0.000000
-7.068600 0.000000
-7.040100 0.000000
-7.011700 0.000000
-6.983300 0.000000
-6.954800 0.000000
-6.926400 0.000000
-6.898000 0.000000
-6.869500 0.000000
-6.841100 0.000000
-6.812700 0.000000
-6.784200 0.000000
-6.755800 0.000000
-6.727400 0.000000
-6.698900 0.000000
-6.670500 0.000000
-6.642100 0.000000
-6.613600 0.000000
-6.585200 0.000000
-6.556800 0.000000
-6.528400 0.000000
-6.499900 0.000000
-6.471500 0.000000
-6.443100 0.000000
-6.414600 0.000000
-6.386200 0.000000
-6.357800 0.000000
-6.329300 0.000000
-6.300900 0.000000
-6.272500 0.000000
-6.244000 0.000000
-6.215600 0.000000
-6.187200 0.000000
-6.158700 0.000000
-6.130300 0.000000
-6.101900 0.000000
-6.073500 0.000000
-6.045000 0.000000
-6.016600 0.000000
-5.988200 0.000000
-5.959700 0.000000
-5.931300 0.000000
-5.902900 0.000000
-5.874400 0.000000
-5.846000 0.000000
-5.817600 0.000000
-5.789100 0.000000
-5.760700 0.000000
-5.732300 0.000000
-5.703800 0.000000
-5.675400 0.000000
-5.647000 0.000000
-5.618600 0.000000
-5.590100 0.000000
-5.561700 0.000000
-5.533300 0.000000
-5.504800 0.000000
-5.476400 0.000000
-5.448000 0.000000
-5.419500 0.000000
-5.391100 0.000000
-5.362700 0.000000
-5.334200 0.000000
-5.305800 0.000000
-5.277400 0.000000
-5.248900 0.000000
-5.220500 0.000000
-5.192100 0.000000
-5.163600 0.000000
-5.135200 0.000000
-5.106800 0.000000
-5.078400 0.000000
-5.049900 0.000000
-5.021500 0.000000
-4.993100 0.000000
-4.964600 0.000000
-4.936200 0.000000
-4.907800 0.000000
-4.879300 0.000000
-4.850900 0.000000
-4.822500 0.000000
-4.794000 0.000000
-4.765600 0.000000
-4.737200 0.000000
-4.708700 0.000000
-4.680300 0.000000
-4.651900 0.000000
-4.623500 0.000000
-4.595000 0.000000
-4.566600 0.000000
-4.538200 0.000000
-4.509700 0.000000
-4.481300 0.000000
-4.452900 0.000000
-4.424400 0.000000
-4.396000 0.000000
-4.367600 0.000000
-4.339100 0.000000
-4.310700 0.000000
-4.282300 0.000000
-4.253800 0.000000
-4.225400 0.000000
-4.197000 0.000000
-4.168600 0.000000
-4.140100 0.000000
-4.111700 0.000000
-4.083300 0.000000
-4.054800 0.000000
-4.026400 0.000000
-3.998000 0.000000
-3.969500 0.000000
-3.941100 0.000000
-3.912700 0.000000
-3.884200 0.000000
-3.855800 0.000000
-3.827400 0.000000
-3.798900 0.000000
-3.770500 0.000000
-3.742100 0.000000
-3.713600 0.000000
-3.685200 0.000000
-3.656800 0.000000
-3.628400 0.000000
-3.599900 0.000000
-3.571500 0.000000
-3.543100 0.000000
-3.514600 0.000000
-3.486200 0.000000
-3.457800 0.000000
-3.429300 0.000000
-3.400900 0.000000
-3.372500 0.000000
-3.344000 0.000000
-3.315600 0.000000
-3.287200 0.000000
-3.258700 0.000000
-3.230300 0.000000
-3.201900 0.000000
-3.173500 0.000000
-3.145000 0.000000
-3.116600 0.000000
-3.088200 0.000000
-3.059700 0.000000
-3.031300 0.000000
-3.002900 0.000000
-2.974400 0.000000
-2.946000 0.000000
-2.917600 0.000000
-2.889100 0.000000
-2.860700 0.000000
-2.832300 0.000000
-2.803800 0.000000
-2.775400 0.000000
-2.747000 0.000000
-2.718600 0.000000
-2.690100 0.000000
-2.661700 0.000000
-2.633300 0.000000
-2.604800 0.000000
-2.576400 0.000000
-2.548000 0.000000
-2.519500 0.000000
-2.491100 0.000000
-2.462700 0.000000
-2.434200 0.000000
-2.405800 0.000000
-2.377400 0.000000
-2.348900 0.000000
-2.320500 0.000000
-2.292100 0.000000
-2.263600 0.000000
-2.235200 0.000000
-2.206800 0.000000
-2.178400 0.000000
-2.149900 0.000000
-2.121500 0.000000
-2.093100 0.000000
-2.064600 0.000000
-2.036200 0.000000
-2.007800 0.000000
-1.979300 0.000000
-1.950900 0.000000
-1.922500 0.000000
-1.894000 0.000000
-1.865600 0.000000
-1.837200 0.000000
-1.808700 0.000000
-1.780300 0.000000
-1.751900 0.000000
-1.723500 0.000000
-1.695000 0.000000
-1.666600 0.000000
-1.638200 0.000000
-1.609700 0.000000
-1.581300 0.000000
-1.552900 0.000000
-1.524400 0.000000
-1.496000 0.000000
-1.467600 0.000000
-1.439100 0.000000
-1.410700 0.000000
-1.382300 0.000000
-1.353800 0.000000
-1.325400 0.000000
-1.297000 0.000000
-1.268500 0.000000
-1.240100 0.000000
-1.211700 0.000000
-1.183300 0.000000
-1.154800 0.000000
-1.126400 0.000000
-1.098000 0.000000
-1.069500 0.000000
-1.041100 0.000000
-1.012700 0.000000
-0.984200 0.000000
-0.955800 0.000000
-0.927400 0.000000
-0.898900 0.000000
-0.870500 0.000000
-0.842100 0.004700
-0.813600 0.052400
-0.785200 0.127300
-0.756800 0.160900
-0.728400 0.189600
-0.699900 0.214300
-0.671500 0.251200
-0.643100 0.317100
-0.614600 0.368100
-0.586200 0.345000
-0.557800 0.351800
-0.529300 0.397500
-0.500900 0.487600
-0.472500 0.494700
-0.444000 0.821300
-0.415600 1.358200
-0.387200 1.661400
-0.358700 1.947900
-0.330300 2.434500
-0.301900 2.628200
-0.273500 2.821900
-0.245000 3.058800
-0.216600 3.307500
-0.188200 3.947500
-0.159700 4.283400
-0.131300 4.327400
-0.102900 5.039700
-0.074400 6.884400
-0.046000 6.074800
-0.017600 6.114300
0.010900 6.494800
0.039300 6.663000
0.067700 5.251700
0.096200 4.678800
0.124600 4.372800
0.153000 3.911400
0.181500 3.684500
0.209900 3.516800
0.238300 3.395800
0.266700 3.351700
0.295200 3.212800
0.323600 3.197600
0.352000 3.206500
0.380500 3.917600
0.408900 3.806200
0.437300 3.094400
0.465800 2.497700
0.494200 2.084600
0.522600 1.887800
0.551100 1.703400
0.579500 1.568600
0.607900 1.360900
0.636400 1.076200
0.664800 0.763300
0.693200 0.370100
0.721600 0.308000
0.750100 0.254700
0.778500 0.174400
0.806900 0.453300
0.835400 1.035200
0.863800 1.134900
0.892200 1.364000
0.920700 2.266400
0.949100 2.953600
0.977500 3.133000
1.006000 3.085000
1.034400 3.180300
1.062800 3.051600
1.091300 2.760400
1.119700 2.787200
1.148100 3.011800
1.176500 2.816000
1.205000 2.798100
1.233400 2.982800
1.261800 3.209500
1.290300 3.483500
1.318700 3.362300
1.347100 2.837000
1.375600 2.741500
1.404000 2.666000
1.432400 2.640100
1.460900 2.766600
1.489300 2.907500
1.517700 2.988300
1.546200 2.945100
1.574600 2.993900
1.603000 3.083500
1.631500 2.951000
1.659900 3.195400
1.688300 5.588500
1.716700 4.198000
1.745200 3.986000
1.773600 3.939100
1.802000 3.961500
1.830500 3.976400
1.858900 4.126300
1.887300 4.356000
1.915800 4.104800
1.944200 3.089300
1.972600 2.342600
2.001100 2.225000
2.029500 2.158000
2.057900 2.103300
2.086400 2.179200
2.114800 2.419000
2.143200 2.912600
2.171600 3.560500
2.200100 4.569300
2.228500 6.315400
2.256900 5.732500
2.285400 5.107700
2.313800 4.689400
2.342200 5.825000
2.370700 6.085300
2.399100 5.515700
2.427500 5.564600
2.456000 4.292200
2.484400 4.005700
2.512800 3.889400
2.541300 3.922900
2.569700 3.567000
2.598100 3.158500
2.626500 2.904600
2.655000 3.483200
2.683400 3.609900
2.711800 4.621100
2.740300 5.030500
2.768700 4.948100
2.797100 4.953200
2.825600 4.721000
2.854000 3.768200
2.882400 3.311200
2.910900 2.826000
2.939300 2.475400
2.967700 2.178600
2.996200 1.918500
3.024600 1.715300
3.053000 1.651700
3.081500 1.629400
3.109900 1.435900
3.138300 1.260500
3.166700 1.085800
3.195200 0.931500
3.223600 0.803800
3.252000 0.624400
3.280500 0.475700
3.308900 0.343300
3.337300 0.172700
3.365800 0.136000
3.394200 0.186500
3.422600 0.306900
3.451100 0.499100
3.479500 0.593400
3.507900 0.674200
3.536400 0.738900
3.564800 0.836800
3.593200 0.910300
3.621600 1.003000
3.650100 1.113200
3.678500 1.209400
3.706900 1.313200
3.735400 1.441500
3.763800 1.598600
3.792200 1.774700
3.820700 1.921300
3.849100 2.130900
3.877500 2.344600
3.906000 2.524200
3.934400 2.693300
3.962800 3.549500
3.991300 3.189300
4.019700 3.541800
4.048100 4.320500
4.076500 3.388300
4.105000 2.816600
4.133400 2.683100
4.161800 2.671000
4.190300 2.902600
4.218700 3.009000
4.247100 3.765000
4.275600 4.364300
4.304000 4.393000
4.332400 4.659000
4.360900 4.363700
4.389300 4.373500
4.417700 4.429300
4.446200 4.506800
4.474600 3.905300
4.503000 3.299200
4.531500 3.223300
4.559900 3.480700
4.588300 2.399700
4.616700 2.226200
4.645200 2.071000
4.673600 1.935500
4.702000 1.800200
4.730500 1.678100
4.758900 1.574100
4.787300 1.482500
4.815800 1.398800
4.844200 1.323400
4.872600 1.264200
4.901100 1.269900
4.929500 1.340900
4.957900 1.492500
4.986400 1.609300
5.014800 1.739900
5.043200 1.954300
5.071600 2.404400
5.100100 2.591500
5.128500 2.880800
5.156900 3.172000
5.185400 3.671800
5.213800 3.972800
5.242200 4.214000
5.270700 4.372000
5.299100 5.027900
5.327500 4.876600
5.356000 4.516100
5.384400 4.370400
5.412800 4.361800
5.441300 3.764900
5.469700 2.567900
5.498100 2.119200
5.526600 1.941700
5.555000 1.526400
5.583400 1.481500
5.611800 1.622300
5.640300 2.616600
5.668700 3.754000
5.697100 2.933700
5.725600 3.184100
5.754000 2.889100
5.782400 2.929000
5.810900 3.038600
5.839300 3.096600
5.867700 3.180300
5.896200 3.249400
5.924600 3.616300
5.953000 3.854500
5.981500 3.899700
6.009900 3.856500
6.038300 3.321000
6.066700 2.854300
6.095200 2.565300
6.123600 2.380300
6.152000 2.255600
6.180500 2.381200
6.208900 2.652000
6.237300 2.541200
6.265800 2.455800
6.294200 2.439500
6.322600 2.451300
6.351100 2.334900
6.379500 2.335700
6.407900 2.332500
6.436400 2.315400
6.464800 2.322100
6.493200 2.352100
6.521600 2.375100
6.550100 2.302800
6.578500 2.286700
6.606900 2.288100
6.635400 2.269800
6.663800 2.270100
6.692200 2.300800
6.720700 2.343600
6.749100 2.375800
6.777500 2.383500
6.806000 2.317400
6.834400 2.104500
6.862800 2.011900
6.891300 1.989500
6.919700 2.022000
6.948100 2.049300
6.976600 2.067900
7.005000 2.078300
7.033400 2.085300
7.061800 2.081000
7.090300 1.985700
7.118700 2.003700
7.147100 2.043500
7.175600 2.252200
7.204000 2.441100
7.232400 2.833000
7.260900 3.062400
7.289300 2.932500
7.317700 2.943800
7.346200 2.979600
7.374600 2.981000
7.403000 2.861000
7.431500 2.871600
7.459900 2.723100
7.488300 2.453200
7.516700 2.252600
7.545200 2.076900
7.573600 1.954500
7.602000 1.854300
7.630500 1.774000
7.658900 1.694900
7.687300 2.042200
7.715800 2.354200
7.744200 2.469900
7.772600 2.470800
7.801100 2.464800
7.829500 2.467800
7.857900 2.433500
7.886400 2.331700
7.914800 2.251300
7.943200 2.140500
7.971600 2.105000
8.000100 2.106200
8.028500 2.015400
8.056900 1.926900
8.085400 1.859500
8.113800 1.429500
8.142200 1.688600
8.170700 2.178000
8.199100 2.707100
8.227500 2.556100
8.256000 2.287900
8.284400 2.495300
8.312800 2.329100
8.341300 2.364700
8.369700 2.445400
8.398100 2.454100
8.426600 2.400500
8.455000 2.921800
8.483400 2.253900
8.511800 2.086800
8.540300 1.958900
8.568700 1.931700
8.597100 1.840900
8.625600 1.744100
8.654000 1.799600
8.682400 2.140000
8.710900 2.666800
8.739300 2.633300
8.767700 3.207100
8.796200 3.345000
8.824600 3.329100
8.853000 3.300500
8.881500 3.610000
8.909900 3.757400
8.938300 3.637000
8.966700 3.506900
8.995200 3.375000
9.023600 3.315500
9.052000 3.498600
9.080500 3.592500
9.108900 3.602700
9.137300 3.576300
9.165800 3.205900
9.194200 2.851700
9.222600 2.709300
9.251100 2.474700
9.279500 2.353700
9.307900 2.364500
9.336400 2.402700
9.364800 2.340000
9.393200 2.199500
9.421600 1.963400
9.450100 1.775200
9.478500 1.672800
9.506900 1.544100
9.535400 1.492700
9.563800 1.455000
9.592200 1.406500
9.620700 1.391500
9.649100 1.481000
9.677500 1.445000
9.706000 1.426400
9.734400 1.350600
9.762800 1.271200
9.791300 1.382300
9.819700 1.324700
9.848100 1.138800
9.876600 0.970000
9.905000 0.753200
9.933400 0.679700
9.961800 0.717300
9.990300 0.911600
10.018700 1.099900
10.047100 1.173400
10.075600 1.319100
10.104000 1.403900
10.132400 1.445100
10.160900 1.471900
10.189300 1.507900
10.217700 1.865800
10.246200 2.045800
10.274600 2.186800
10.303000 2.335900
10.331500 2.480800
10.359900 2.648900
10.388300 3.024300
10.416700 3.420900
10.445200 3.543400
10.473600 3.725700
10.502000 5.947200
10.530500 4.462800
10.558900 3.393400
10.587300 3.480700
10.615800 3.839000
10.644200 3.798300
10.672600 3.741900
10.701100 3.725000
10.729500 3.597600
10.757900 3.539900
10.786400 3.526500
10.814800 3.784200
10.843200 3.176800
10.871600 2.923300
10.900100 2.806000
10.928500 2.806500
10.956900 2.835300
10.985400 2.861100
11.013800 2.882300
11.042200 2.880300
11.070700 2.858800
11.099100 2.844200
11.127500 2.812100
11.156000 2.746700
11.184400 2.700800
11.212800 2.582900
11.241300 2.434000
11.269700 2.365500
11.298100 2.166700
11.326600 1.899200
11.355000 1.335200
11.383400 0.866400
11.411800 0.394600
11.440300 0.051700
11.468700 0.000000
11.497100 0.004600
11.525600 0.027300
11.554000 0.053500
11.582400 0.082900
11.610900 0.116600
11.639300 0.153800
11.667700 0.142100
11.696200 0.160200
11.724600 0.176300
11.753000 0.198000
11.781500 0.217200
11.809900 0.235000
11.838300 0.256800
11.866700 0.279800
11.895200 0.280600
11.923600 0.297100
11.952000 0.314700
11.980500 0.336100
12.008900 0.361900
12.037300 0.388500
12.065800 0.411500
12.094200 0.433500
12.122600 0.456000
12.151100 0.479400
12.179500 0.521600
12.207900 0.602200
12.236400 0.720100
12.264800 0.862000
12.293200 1.092500
12.321700 1.098900
12.350100 1.108400
12.378500 1.055900
12.406900 0.997500
12.435400 0.918100
12.463800 0.839600
12.492200 0.803900
12.520700 0.780900
12.549100 0.762500
12.577500 0.747000
12.606000 0.737500
12.634400 0.733500
12.662800 0.730400
12.691300 0.724200
12.719700 0.721500
12.748100 0.724900
12.776600 0.726000
12.805000 0.724400
12.833400 0.722100
12.861800 0.721000
12.890300 0.717600
12.918700 0.714200
12.947100 0.710500
12.975600 0.706500
13.004000 0.702400
13.032400 0.699800
13.060900 0.696400
13.089300 0.695600
13.117700 0.696800
13.146200 0.699000
13.174600 0.702100
13.203000 0.705600
13.231500 0.709200
13.259900 0.712900
13.288300 0.716700
13.316700 0.720600
13.345200 0.724600
13.373600 0.728600
13.402000 0.732500
13.430500 0.736400
13.458900 0.740800
13.487300 0.746200
13.515800 0.751700
13.544200 0.757000
13.572600 0.764000
13.601100 0.770700
13.629500 0.776600
13.657900 0.782200
13.686400 0.788400
13.714800 0.795300
13.743200 0.803000
13.771700 0.811500
13.800100 0.820400
13.828500 0.829800
13.856900 0.839400
13.885400 0.849600
13.913800 0.861200
13.942200 0.874500
13.970700 0.890000
13.999100 0.914500
14.027500 0.944900
14.056000 0.975100
14.084400 0.939800
14.112800 0.922300
14.141300 0.922600
14.169700 0.921500
14.198100 0.919300
14.226600 0.916000
14.255000 0.916000
14.283400 0.920400
14.311800 0.924200
14.340300 0.934900
14.368700 0.938300
14.397100 0.939400
14.425600 0.934800
14.454000 0.916300
14.482400 0.898000
14.510900 0.879700
14.539300 0.830400
14.567700 0.826700
14.596200 0.823400
14.624600 0.819400
14.653000 0.816400
14.681500 0.813900
14.709900 0.816100
14.738300 0.819300
14.766700 0.823600
14.795200 0.833600
14.823600 0.845200
14.852000 0.880300
14.880500 0.969900
14.908900 0.982700
14.937300 0.979400
14.965800 0.924400
14.994200 0.891300
15.022600 0.893300
15.051100 0.894100
15.079500 0.895500
15.107900 0.897100
15.136400 0.897300
15.164800 0.898900
15.193200 0.899800
15.221700 0.900100
15.250100 0.884400
15.278500 0.874600
15.306900 0.872700
15.335400 0.872100
15.363800 0.871400
15.392200 0.870600
15.420700 0.867600
15.449100 0.868100
15.477500 0.867800
15.506000 0.868300
15.534400 0.869300
15.562800 0.871800
15.591300 0.874100
15.619700 0.875400
15.648100 0.875100
15.676600 0.873800
15.705000 0.870600
15.733400 0.864100
15.761800 0.860000
15.790300 0.855800
15.818700 0.851200
15.847100 0.846600
15.875600 0.842000
15.904000 0.837400
15.932400 0.834800
15.960900 0.836900
15.989300 0.841900
16.017700 0.845900
16.046200 0.849200
16.074600 0.853700
16.103000 0.859400
16.131500 0.866900
16.159900 0.873400
16.188300 0.886800
16.216700 0.893700
16.245200 0.893400
16.273600 0.907700
16.302000 0.926000
16.330500 0.952200
16.358900 0.980300
16.387300 1.024900
16.415800 1.015800
16.444200 0.986000
16.472600 0.951500
16.501100 0.874500
16.529500 0.804700
16.557900 0.778100
16.586400 0.747400
16.614800 0.747800
16.643200 0.710000
16.671700 0.644700
16.700100 0.567600
16.728500 0.500900
16.756900 0.497700
16.785400 0.288600
16.813800 0.222800
16.842200 0.226400
16.870700 0.237900
16.899100 0.326400
16.927500 0.429500
16.956000 0.534500
16.984400 0.615700
17.012800 0.713600
17.041300 0.843400
17.069700 0.879200
17.098100 0.818300
17.126600 0.768100
17.155000 0.762600
17.183400 0.765100
17.211800 0.767800
17.240300 0.804200
17.268700 0.843300
17.297100 0.859900
17.325600 0.771800
17.354000 0.776700
17.382400 0.789400
17.410900 0.841500
17.439300 0.926200
17.467700 1.040500
17.496200 1.191300
17.524600 1.264500
17.553000 1.341300
17.581500 1.380100
17.609900 1.389100
17.638300 1.365800
17.666700 1.338100
17.695200 1.340800
17.723600 1.360500
17.752000 1.378000
17.780500 1.395200
17.808900 1.407500
17.837300 1.394400
