set title 'mp-755333 - Density of States'
set xlabel 'Energy (eV)'
set ylabel 'DOS (states/eV)'
set grid
set xrange [-10:10]
set yrange [0:15.805]
set xzeroaxis lt -1
set terminal png size 800,600
set output 'mp-755333_dos_gnuplot.png'
plot '-' using 1:2 with lines title 'DOS'
-24.076800 0.000000
-24.039100 0.000000
-24.001300 0.000000
-23.963600 0.000000
-23.925900 0.000000
-23.888200 0.000000
-23.850400 0.000000
-23.812700 0.000000
-23.775000 0.000000
-23.737200 0.000000
-23.699500 0.000000
-23.661800 0.000000
-23.624000 0.000000
-23.586300 0.000000
-23.548600 0.000000
-23.510900 0.000000
-23.473100 0.000000
-23.435400 0.000000
-23.397700 0.000000
-23.359900 0.000000
-23.322200 0.000000
-23.284500 0.000000
-23.246700 0.000000
-23.209000 0.000000
-23.171300 0.000000
-23.133600 0.000000
-23.095800 0.000000
-23.058100 0.000000
-23.020400 0.000000
-22.982600 0.000000
-22.944900 0.000000
-22.907200 0.000000
-22.869500 0.000000
-22.831700 0.000000
-22.794000 0.000000
-22.756300 0.000000
-22.718500 0.000000
-22.680800 0.000000
-22.643100 0.000000
-22.605300 0.000000
-22.567600 0.000000
-22.529900 0.000000
-22.492200 0.000000
-22.454400 0.000000
-22.416700 0.000000
-22.379000 0.000000
-22.341200 0.000000
-22.303500 0.000000
-22.265800 0.000000
-22.228000 0.000000
-22.190300 0.000000
-22.152600 0.000000
-22.114900 0.000000
-22.077100 0.000000
-22.039400 0.000000
-22.001700 0.000000
-21.963900 0.000000
-21.926200 0.000000
-21.888500 0.000000
-21.850800 0.000000
-21.813000 0.000000
-21.775300 0.000000
-21.737600 0.000000
-21.699800 0.000000
-21.662100 0.000000
-21.624400 0.000000
-21.586600 0.000000
-21.548900 0.000000
-21.511200 0.000000
-21.473500 0.000000
-21.435700 0.000000
-21.398000 0.000000
-21.360300 0.000000
-21.322500 0.000000
-21.284800 0.000000
-21.247100 0.000000
-21.209300 0.000000
-21.171600 0.000000
-21.133900 0.000000
-21.096200 0.000000
-21.058400 0.000000
-21.020700 0.000000
-20.983000 0.000000
-20.945200 0.000000
-20.907500 0.000000
-20.869800 0.000000
-20.832100 0.000000
-20.794300 0.000000
-20.756600 0.000000
-20.718900 0.000000
-20.681100 0.000000
-20.643400 0.381100
-20.605700 1.819800
-20.567900 3.191800
-20.530200 5.352400
-20.492500 12.126300
-20.454800 11.445800
-20.417000 11.268200
-20.379300 4.348800
-20.341600 1.980500
-20.303800 0.000000
-20.266100 0.000000
-20.228400 0.000000
-20.190600 0.000000
-20.152900 0.000000
-20.115200 0.000000
-20.077500 0.000000
-20.039700 0.000000
-20.002000 0.000000
-19.964300 0.000000
-19.926500 0.000000
-19.888800 0.000000
-19.851100 0.000000
-19.813400 0.000000
-19.775600 0.000000
-19.737900 0.000000
-19.700200 0.000000
-19.662400 0.000000
-19.624700 0.000000
-19.587000 0.000000
-19.549200 0.000000
-19.511500 0.000000
-19.473800 0.000000
-19.436100 0.000000
-19.398300 0.000000
-19.360600 0.000000
-19.322900 0.000000
-19.285100 0.000000
-19.247400 0.000000
-19.209700 0.000000
-19.172000 0.000000
-19.134200 0.000000
-19.096500 0.000000
-19.058800 0.000000
-19.021000 0.000000
-18.983300 0.000000
-18.945600 0.000000
-18.907800 0.000000
-18.870100 0.000000
-18.832400 0.000000
-18.794700 0.000000
-18.756900 0.000000
-18.719200 0.000000
-18.681500 0.000000
-18.643700 0.000000
-18.606000 0.000000
-18.568300 0.000000
-18.530500 0.000000
-18.492800 0.000000
-18.455100 0.000000
-18.417400 0.000000
-18.379600 0.000000
-18.341900 0.000000
-18.304200 0.000000
-18.266400 0.000000
-18.228700 0.000000
-18.191000 0.000000
-18.153300 0.000000
-18.115500 0.000000
-18.077800 0.000000
-18.040100 0.000000
-18.002300 0.000000
-17.964600 0.000000
-17.926900 0.000000
-17.889100 0.000000
-17.851400 0.000000
-17.813700 0.000000
-17.776000 0.000000
-17.738200 0.000000
-17.700500 0.000000
-17.662800 0.000000
-17.625000 0.000000
-17.587300 0.000000
-17.549600 0.000000
-17.511800 0.000000
-17.474100 0.000000
-17.436400 0.000000
-17.398700 0.000000
-17.360900 0.000000
-17.323200 0.000000
-17.285500 0.000000
-17.247700 0.000000
-17.210000 0.000000
-17.172300 0.000000
-17.134600 0.000000
-17.096800 0.000000
-17.059100 0.000000
-17.021400 0.000000
-16.983600 0.000000
-16.945900 0.000000
-16.908200 0.000000
-16.870400 0.000000
-16.832700 0.000000
-16.795000 0.000000
-16.757300 0.000000
-16.719500 0.000000
-16.681800 0.000000
-16.644100 0.000000
-16.606300 0.000000
-16.568600 0.000000
-16.530900 0.000000
-16.493100 0.000000
-16.455400 0.000000
-16.417700 0.000000
-16.380000 0.000000
-16.342200 0.000000
-16.304500 0.000000
-16.266800 0.000000
-16.229000 0.000000
-16.191300 0.000000
-16.153600 0.000000
-16.115900 0.000000
-16.078100 0.000000
-16.040400 0.000000
-16.002700 0.000000
-15.964900 0.000000
-15.927200 0.000000
-15.889500 0.000000
-15.851700 0.000000
-15.814000 0.000000
-15.776300 0.000000
-15.738600 0.000000
-15.700800 0.000000
-15.663100 0.000000
-15.625400 0.000000
-15.587600 0.000000
-15.549900 0.000000
-15.512200 0.000000
-15.474400 0.000000
-15.436700 0.000000
-15.399000 0.000000
-15.361300 0.000000
-15.323500 0.000000
-15.285800 0.000000
-15.248100 0.000000
-15.210300 0.000000
-15.172600 0.000000
-15.134900 0.000000
-15.097200 0.000000
-15.059400 0.000000
-15.021700 0.000000
-14.984000 0.000000
-14.946200 0.000000
-14.908500 0.000000
-14.870800 0.361000
-14.833000 0.563100
-14.795300 0.789800
-14.757600 1.031800
-14.719900 1.353000
-14.682100 1.922700
-14.644400 2.244000
-14.606700 2.454700
-14.568900 2.680200
-14.531200 2.994400
-14.493500 3.561300
-14.455700 4.822400
-14.418000 3.964200
-14.380300 4.910200
-14.342600 3.679400
-14.304800 2.932300
-14.267100 2.607900
-14.229400 2.314700
-14.191600 2.178900
-14.153900 1.942700
-14.116200 1.865400
-14.078500 1.750100
-14.040700 0.562200
-14.003000 0.000000
-13.965300 0.000000
-13.927500 0.000000
-13.889800 0.000000
-13.852100 0.000000
-13.814300 0.000000
-13.776600 0.000000
-13.738900 0.000000
-13.701200 0.000000
-13.663400 0.000000
-13.625700 0.000000
-13.588000 0.000000
-13.550200 0.000000
-13.512500 0.000000
-13.474800 0.000000
-13.437000 0.000000
-13.399300 0.000000
-13.361600 0.000000
-13.323900 0.000000
-13.286100 0.000000
-13.248400 0.000000
-13.210700 0.000000
-13.172900 0.000000
-13.135200 0.000000
-13.097500 0.000000
-13.059800 0.000000
-13.022000 0.000000
-12.984300 0.000000
-12.946600 0.000000
-12.908800 0.000000
-12.871100 0.000000
-12.833400 0.000000
-12.795600 0.000000
-12.757900 0.000000
-12.720200 0.000000
-12.682500 0.000000
-12.644700 0.000000
-12.607000 0.000000
-12.569300 0.000000
-12.531500 0.000000
-12.493800 0.000000
-12.456100 0.000000
-12.418400 0.000000
-12.380600 0.000000
-12.342900 0.000000
-12.305200 0.000000
-12.267400 0.000000
-12.229700 0.000000
-12.192000 0.000000
-12.154200 0.000000
-12.116500 0.000000
-12.078800 0.000000
-12.041100 0.000000
-12.003300 0.000000
-11.965600 0.000000
-11.927900 0.000000
-11.890100 0.000000
-11.852400 0.000000
-11.814700 0.000000
-11.776900 0.000000
-11.739200 0.000000
-11.701500 0.000000
-11.663800 0.000000
-11.626000 0.000000
-11.588300 0.000000
-11.550600 0.000000
-11.512800 0.000000
-11.475100 0.000000
-11.437400 0.000000
-11.399700 0.000000
-11.361900 0.000000
-11.324200 0.000000
-11.286500 0.000000
-11.248700 0.000000
-11.211000 0.000000
-11.173300 0.000000
-11.135500 0.000000
-11.097800 0.000000
-11.060100 0.000000
-11.022400 0.000000
-10.984600 0.000000
-10.946900 0.000000
-10.909200 0.000000
-10.871400 0.000000
-10.833700 0.000000
-10.796000 0.000000
-10.758200 0.000000
-10.720500 0.000000
-10.682800 0.000000
-10.645100 0.000000
-10.607300 0.000000
-10.569600 0.000000
-10.531900 0.000000
-10.494100 0.000000
-10.456400 0.000000
-10.418700 0.000000
-10.381000 0.000000
-10.343200 0.000000
-10.305500 0.000000
-10.267800 0.000000
-10.230000 0.000000
-10.192300 0.000000
-10.154600 0.000000
-10.116800 0.000000
-10.079100 0.000000
-10.041400 0.000000
-10.003700 0.000000
-9.965900 0.000000
-9.928200 0.000000
-9.890500 0.000000
-9.852700 0.000000
-9.815000 0.000000
-9.777300 0.000000
-9.739500 0.000000
-9.701800 0.000000
-9.664100 0.000000
-9.626400 0.000000
-9.588600 0.000000
-9.550900 0.000000
-9.513200 0.000000
-9.475400 0.000000
-9.437700 0.000000
-9.400000 0.000000
-9.362300 0.000000
-9.324500 0.000000
-9.286800 0.000000
-9.249100 0.000000
-9.211300 0.000000
-9.173600 0.000000
-9.135900 0.000000
-9.098100 0.000000
-9.060400 0.000000
-9.022700 0.000000
-8.985000 0.000000
-8.947200 0.000000
-8.909500 0.000000
-8.871800 0.000000
-8.834000 0.000000
-8.796300 0.000000
-8.758600 0.000000
-8.720800 0.000000
-8.683100 0.000000
-8.645400 0.000000
-8.607700 0.000000
-8.569900 0.000000
-8.532200 0.000000
-8.494500 0.000000
-8.456700 0.000000
-8.419000 0.000000
-8.381300 0.000000
-8.343600 0.000000
-8.305800 0.000000
-8.268100 0.000000
-8.230400 0.000000
-8.192600 0.000000
-8.154900 0.000000
-8.117200 0.000000
-8.079400 0.000000
-8.041700 0.000000
-8.004000 0.000000
-7.966300 0.000000
-7.928500 0.000000
-7.890800 0.000000
-7.853100 0.000000
-7.815300 0.000000
-7.777600 0.000000
-7.739900 0.000000
-7.702100 0.000000
-7.664400 0.000000
-7.626700 0.000000
-7.589000 0.000000
-7.551200 0.000000
-7.513500 0.000000
-7.475800 0.000000
-7.438000 0.000000
-7.400300 0.000000
-7.362600 0.000000
-7.324900 0.000000
-7.287100 0.108100
-7.249400 0.194900
-7.211700 0.298300
-7.173900 0.374200
-7.136200 0.853700
-7.098500 1.258200
-7.060700 1.347200
-7.023000 1.400300
-6.985300 1.548800
-6.947600 1.603600
-6.909800 1.888100
-6.872100 1.979100
-6.834400 2.754900
-6.796600 2.722900
-6.758900 2.232000
-6.721200 2.320600
-6.683400 2.681600
-6.645700 3.244500
-6.608000 4.556600
-6.570300 4.648700
-6.532500 5.385200
-6.494800 4.549700
-6.457100 2.485200
-6.419300 1.521900
-6.381600 0.943700
-6.343900 0.283800
-6.306200 0.014300
-6.268400 0.000000
-6.230700 0.000400
-6.193000 0.076700
-6.155200 0.353100
-6.117500 0.767000
-6.079800 1.136700
-6.042000 1.576300
-6.004300 1.972400
-5.966600 2.218100
-5.928900 2.509600
-5.891100 3.483000
-5.853400 3.778900
-5.815700 4.774500
-5.777900 5.868900
-5.740200 6.559500
-5.702500 7.019200
-5.664700 7.485700
-5.627000 7.268200
-5.589300 6.744300
-5.551600 6.398200
-5.513800 5.687300
-5.476100 5.314900
-5.438400 4.517600
-5.400600 3.759800
-5.362900 3.302500
-5.325200 2.990400
-5.287500 2.709500
-5.249700 2.665800
-5.212000 2.702600
-5.174300 1.445700
-5.136500 1.272200
-5.098800 1.377300
-5.061100 5.017200
-5.023300 9.454200
-4.985600 13.375300
-4.947900 10.529100
-4.910200 10.385400
-4.872400 9.265300
-4.834700 12.839700
-4.797000 14.368000
-4.759200 12.084400
-4.721500 7.272500
-4.683800 3.270100
-4.646100 2.826300
-4.608300 2.681400
-4.570600 3.173100
-4.532900 2.636200
-4.495100 2.520500
-4.457400 2.415000
-4.419700 2.364400
-4.381900 2.439800
-4.344200 2.504300
-4.306500 2.610600
-4.268800 2.558900
-4.231000 2.567400
-4.193300 2.588600
-4.155600 2.486200
-4.117800 2.412900
-4.080100 2.192700
-4.042400 2.055900
-4.004600 2.001700
-3.966900 2.031100
-3.929200 2.082200
-3.891500 1.915900
-3.853700 1.994200
-3.816000 2.120700
-3.778300 2.207800
-3.740500 2.364300
-3.702800 2.656900
-3.665100 2.915500
-3.627400 2.955700
-3.589600 2.688300
-3.551900 2.563900
-3.514200 2.457100
-3.476400 2.428800
-3.438700 2.449200
-3.401000 2.518300
-3.363200 2.748800
-3.325500 2.668100
-3.287800 2.296200
-3.250100 1.915700
-3.212300 1.669700
-3.174600 2.222800
-3.136900 2.509900
-3.099100 2.839400
-3.061400 2.881000
-3.023700 2.697900
-2.985900 2.106300
-2.948200 2.029200
-2.910500 2.098600
-2.872800 2.263100
-2.835000 2.249200
-2.797300 2.240500
-2.759600 2.223800
-2.721800 2.265200
-2.684100 2.188500
-2.646400 2.041800
-2.608700 2.151500
-2.570900 2.201900
-2.533200 2.143700
-2.495500 2.145800
-2.457700 2.128900
-2.420000 2.117200
-2.382300 2.043600
-2.344500 2.297700
-2.306800 1.664700
-2.269100 1.261600
-2.231400 0.960500
-2.193600 0.786500
-2.155900 0.691900
-2.118200 0.607700
-2.080400 0.530300
-2.042700 0.463800
-2.005000 0.406100
-1.967200 0.333600
-1.929500 0.268300
-1.891800 0.225400
-1.854100 0.147400
-1.816300 0.054000
-1.778600 0.000000
-1.740900 0.114600
-1.703100 0.383600
-1.665400 0.556400
-1.627700 0.709000
-1.590000 0.753300
-1.552200 0.777700
-1.514500 0.792500
-1.476800 0.820100
-1.439000 0.847300
-1.401300 0.870000
-1.363600 0.893100
-1.325800 0.916400
-1.288100 0.946500
-1.250400 0.980700
-1.212700 1.014900
-1.174900 1.047600
-1.137200 1.085000
-1.099500 1.130200
-1.061700 1.182400
-1.024000 1.236800
-0.986300 1.294500
-0.948500 1.371000
-0.910800 1.534000
-0.873100 1.574700
-0.835400 1.641800
-0.797600 1.796200
-0.759900 1.862100
-0.722200 1.918100
-0.684400 1.940600
-0.646700 1.969100
-0.609000 2.011500
-0.571300 2.001600
-0.533500 2.052400
-0.495800 2.174600
-0.458100 2.064600
-0.420300 2.070800
-0.382600 2.096900
-0.344900 1.699900
-0.307100 1.354300
-0.269400 1.045800
-0.231700 0.905600
-0.194000 0.815400
-0.156200 0.631900
-0.118500 0.499600
-0.080800 0.343700
-0.043000 0.345800
-0.005300 0.379600
0.032400 0.412100
0.070200 0.455100
0.107900 0.520700
0.145600 0.581500
0.183300 0.639100
0.221100 0.700900
0.258800 0.845700
0.296500 1.046800
0.334300 1.344200
0.372000 1.452100
0.409700 1.530000
0.447400 1.733100
0.485200 2.356300
0.522900 2.656800
0.560600 2.670700
0.598400 2.727400
0.636100 2.831800
0.673800 2.975000
0.711600 3.235300
0.749300 3.082300
0.787000 3.002700
0.824700 3.022600
0.862500 2.761100
0.900200 2.043200
0.937900 1.523300
0.975700 1.018700
1.013400 0.724800
1.051100 0.600700
1.088900 0.467200
1.126600 0.346700
1.164300 0.081700
1.202000 0.000000
1.239800 0.000000
1.277500 0.000000
1.315200 0.000000
1.353000 0.000000
1.390700 0.000000
1.428400 0.000000
1.466100 0.000000
1.503900 0.011500
1.541600 0.081700
1.579300 0.199000
1.617100 0.185800
1.654800 0.195900
1.692500 0.214500
1.730300 0.235300
1.768000 0.253500
1.805700 0.273500
1.843400 0.285400
1.881200 0.299400
1.918900 0.316000
1.956600 0.333900
1.994400 0.354600
2.032100 0.378000
2.069800 0.399200
2.107500 0.420300
2.145300 0.441800
2.183000 0.465200
2.220700 0.489000
2.258500 0.521300
2.296200 0.554400
2.333900 0.599700
2.371700 0.662600
2.409400 0.725000
2.447100 0.727100
2.484800 0.719600
2.522600 0.738000
2.560300 0.756200
2.598000 0.754500
2.635800 0.762000
2.673500 0.775200
2.711200 0.787100
2.749000 0.802900
2.786700 0.821000
2.824400 0.835800
2.862100 0.852900
2.899900 0.872800
2.937600 0.895600
2.975300 0.926900
3.013100 0.963700
3.050800 0.996000
3.088500 1.033900
3.126200 1.075700
3.164000 1.178200
3.201700 1.263500
3.239400 1.321800
3.277200 1.461800
3.314900 1.994300
3.352600 1.902400
3.390400 1.685800
3.428100 1.557400
3.465800 1.470600
3.503500 1.403300
3.541300 1.341000
3.579000 1.276500
3.616700 1.241000
3.654500 1.198300
3.692200 1.160800
3.729900 1.109600
3.767700 1.016700
3.805400 0.926900
3.843100 0.764600
3.880800 0.675100
3.918600 0.572000
3.956300 0.474600
3.994000 0.387000
4.031800 0.284400
4.069500 0.109500
4.107200 0.060300
4.144900 0.033500
4.182700 0.047800
4.220400 0.096000
4.258100 0.196500
4.295900 0.384700
4.333600 0.691000
4.371300 0.945200
4.409100 0.896300
4.446800 0.781000
4.484500 0.753100
4.522200 0.753000
4.560000 0.765100
4.597700 0.787600
4.635400 0.817100
4.673200 0.850700
4.710900 0.885000
4.748600 0.926500
4.786400 0.973600
4.824100 1.027400
4.861800 1.102400
4.899500 1.189600
4.937300 1.192100
4.975000 1.281300
5.012700 1.260400
5.050500 1.292000
5.088200 1.346800
5.125900 1.422300
5.163600 1.519300
5.201400 1.638600
5.239100 1.765600
5.276800 1.772000
5.314600 1.742900
5.352300 1.687100
5.390000 1.429100
5.427800 1.203200
5.465500 1.133400
5.503200 1.140500
5.540900 1.153900
5.578700 1.172200
5.616400 1.226200
5.654100 1.310100
5.691900 1.539300
5.729600 1.457800
5.767300 1.435700
5.805100 1.429500
5.842800 1.331000
5.880500 1.297900
5.918200 1.252800
5.956000 1.216600
5.993700 1.230900
6.031400 1.184000
6.069200 1.151400
6.106900 1.087900
6.144600 0.574800
6.182300 0.527300
6.220100 0.538700
6.257800 0.559700
6.295500 0.589200
6.333300 0.635900
6.371000 0.698400
6.408700 0.758000
6.446500 0.803800
6.484200 0.822400
6.521900 0.830400
6.559600 0.839000
6.597400 0.863800
6.635100 0.890600
6.672800 0.926700
6.710600 0.956700
6.748300 0.981600
6.786000 1.017300
6.823800 1.066900
6.861500 1.135600
6.899200 1.075600
6.936900 1.132200
6.974700 1.225500
7.012400 1.364400
7.050100 1.444300
7.087900 1.497900
7.125600 1.396900
7.163300 1.343600
7.201000 1.288300
7.238800 1.226300
7.276500 1.183400
7.314200 1.154800
7.352000 1.139000
7.389700 1.023600
7.427400 0.946800
7.465200 0.903300
7.502900 0.888000
7.540600 0.865100
7.578300 0.856700
7.616100 0.887700
7.653800 0.916000
7.691500 0.951700
7.729300 1.000700
7.767000 1.039100
7.804700 1.060300
7.842500 1.089800
7.880200 1.135000
7.917900 1.186400
7.955600 1.245600
7.993400 1.328100
8.031100 1.448200
8.068800 1.482900
8.106600 1.478500
8.144300 1.475000
8.182000 1.461300
8.219700 1.438300
8.257500 1.407000
8.295200 1.391000
8.332900 1.359200
8.370700 1.347800
8.408400 1.349900
8.446100 1.351300
8.483900 1.357800
8.521600 1.353100
8.559300 1.337900
8.597000 1.325700
8.634800 1.311100
8.672500 1.299400
8.710200 1.283500
8.748000 1.288100
8.785700 1.192900
8.823400 1.142900
8.861200 1.119300
8.898900 1.073600
8.936600 1.046900
8.974300 1.033300
9.012100 1.016800
9.049800 1.002600
9.087500 0.944000
9.125300 0.892700
9.163000 0.830500
9.200700 0.773400
9.238400 0.735900
9.276200 0.695700
9.313900 0.677900
9.351600 0.641500
9.389400 0.601300
9.427100 0.554000
9.464800 0.514400
9.502600 0.477000
9.540300 0.475800
9.578000 0.447400
9.615700 0.431600
9.653500 0.386100
9.691200 0.362600
9.728900 0.335600
9.766700 0.303400
9.804400 0.279600
9.842100 0.262000
9.879800 0.247600
9.917600 0.234900
9.955300 0.221900
9.993000 0.210200
10.030800 0.200300
10.068500 0.190700
10.106200 0.182300
10.144000 0.172300
10.181700 0.167600
10.219400 0.164900
10.257100 0.165700
10.294900 0.171300
10.332600 0.182000
10.370300 0.196400
10.408100 0.210200
10.445800 0.225600
10.483500 0.269500
10.521300 0.397600
10.559000 0.417200
10.596700 0.531400
10.634400 0.655500
10.672200 0.638900
10.709900 0.646200
10.747600 0.637600
10.785400 0.673200
10.823100 0.770600
10.860800 0.819600
10.898500 0.822500
10.936300 0.818700
10.974000 0.761900
11.011700 0.733400
11.049500 0.711100
11.087200 0.705300
11.124900 0.708400
11.162700 0.673700
11.200400 0.604700
11.238100 0.582900
11.275800 0.573400
11.313600 0.549600
11.351300 0.544500
11.389000 0.536500
11.426800 0.528200
11.464500 0.524300
11.502200 0.518200
11.540000 0.512800
11.577700 0.500500
11.615400 0.495100
11.653100 0.491700
11.690900 0.489100
11.728600 0.488600
11.766300 0.487300
11.804100 0.488900
11.841800 0.485700
11.879500 0.484000
11.917200 0.483900
11.955000 0.485200
11.992700 0.492900
12.030400 0.503000
12.068200 0.518700
12.105900 0.554600
12.143600 0.592600
12.181400 0.635800
12.219100 0.710900
12.256800 0.718300
12.294500 0.680100
12.332300 0.698400
12.370000 0.725200
12.407700 0.765900
12.445500 0.858000
12.483200 0.910100
12.520900 0.977800
12.558700 1.080900
12.596400 1.236700
12.634100 1.375600
12.671800 1.435000
12.709600 1.439900
12.747300 1.493800
12.785000 1.426500
12.822800 1.374800
12.860500 1.346600
12.898200 1.331700
12.935900 1.345700
12.973700 1.360700
13.011400 1.352800
13.049100 1.382400
13.086900 1.472400
13.124600 1.437400
13.162300 1.463300
13.200100 1.499700
13.237800 1.554900
13.275500 1.565600
13.313200 1.548100
13.351000 1.552700
13.388700 1.585700
13.426400 1.546500
13.464200 1.440800
13.501900 1.383500
13.539600 1.391300
13.577400 1.420100
13.615100 1.495200
13.652800 1.552300
13.690500 1.568600
13.728300 1.430100
13.766000 1.399800
13.803700 1.307900
13.841500 1.269800
13.879200 1.238500
13.916900 1.229400
13.954600 1.233700
13.992400 1.204900
14.030100 1.151800
14.067800 1.112700
14.105600 1.074100
14.143300 1.068500
14.181000 1.086600
14.218800 1.076700
14.256500 1.092900
14.294200 1.129500
14.331900 1.186100
14.369700 1.287700
14.407400 1.252700
14.445100 1.257100
14.482900 1.217500
14.520600 1.180500
14.558300 1.180300
14.596100 1.187200
14.633800 1.167700
14.671500 1.153700
14.709200 1.135700
14.747000 1.119100
14.784700 1.108900
