set title 'mp-1217320 - Density of States'
set xlabel 'Energy (eV)'
set ylabel 'DOS (states/eV)'
set grid
set xrange [-10:10]
set yrange [0:7.082]
set xzeroaxis lt -1
set terminal png size 800,600
set output 'mp-1217320_dos_gnuplot.png'
plot '-' using 1:2 with lines title 'DOS'
-9.860700 0.000000
-9.843600 0.000000
-9.826600 0.000000
-9.809500 0.000000
-9.792400 0.000000
-9.775300 0.000000
-9.758200 0.000000
-9.741100 0.000000
-9.724000 0.000000
-9.706900 0.000000
-9.689900 0.000000
-9.672800 0.000000
-9.655700 0.000000
-9.638600 0.000000
-9.621500 0.000000
-9.604400 0.000000
-9.587300 0.000000
-9.570200 0.000000
-9.553200 0.000000
-9.536100 0.000000
-9.519000 0.000000
-9.501900 0.000000
-9.484800 0.000000
-9.467700 0.000000
-9.450600 0.000000
-9.433500 0.000000
-9.416500 0.000000
-9.399400 0.000000
-9.382300 0.000000
-9.365200 0.000000
-9.348100 0.000000
-9.331000 0.000000
-9.313900 0.000000
-9.296800 0.000000
-9.279800 0.000000
-9.262700 0.000000
-9.245600 0.000000
-9.228500 0.000000
-9.211400 0.000000
-9.194300 0.000000
-9.177200 0.000000
-9.160100 0.000000
-9.143100 0.000000
-9.126000 0.000000
-9.108900 0.000000
-9.091800 0.000000
-9.074700 0.000000
-9.057600 0.000000
-9.040500 0.000000
-9.023400 0.000000
-9.006400 0.000000
-8.989300 0.000000
-8.972200 0.000000
-8.955100 0.000000
-8.938000 0.000000
-8.920900 0.000000
-8.903800 0.000000
-8.886700 0.000000
-8.869700 0.000000
-8.852600 0.000000
-8.835500 0.000000
-8.818400 0.000000
-8.801300 0.000000
-8.784200 0.000000
-8.767100 0.000000
-8.750000 0.000000
-8.733000 0.000000
-8.715900 0.000000
-8.698800 0.000000
-8.681700 0.000000
-8.664600 0.000000
-8.647500 0.000000
-8.630400 0.000000
-8.613300 0.000000
-8.596300 0.000000
-8.579200 0.000000
-8.562100 0.000000
-8.545000 0.000000
-8.527900 0.000000
-8.510800 0.000000
-8.493700 0.000000
-8.476700 0.000000
-8.459600 0.000000
-8.442500 0.000000
-8.425400 0.000000
-8.408300 0.000000
-8.391200 0.000000
-8.374100 0.000000
-8.357000 0.000000
-8.340000 0.000000
-8.322900 0.000000
-8.305800 0.000100
-8.288700 0.020700
-8.271600 0.075900
-8.254500 0.165900
-8.237400 0.368400
-8.220300 0.307400
-8.203300 0.337300
-8.186200 0.377000
-8.169100 0.419800
-8.152000 0.462000
-8.134900 0.503400
-8.117800 0.544100
-8.100700 0.576300
-8.083600 0.601100
-8.066600 0.625400
-8.049500 0.645800
-8.032400 0.661100
-8.015300 0.679100
-7.998200 0.686800
-7.981100 0.709900
-7.964000 0.736300
-7.946900 0.763700
-7.929900 0.792000
-7.912800 0.821300
-7.895700 0.851500
-7.878600 0.882700
-7.861500 0.892600
-7.844400 0.909000
-7.827300 0.918000
-7.810200 0.934200
-7.793200 0.952000
-7.776100 0.968800
-7.759000 0.984100
-7.741900 0.998800
-7.724800 1.014600
-7.707700 1.032000
-7.690600 1.050100
-7.673500 1.068700
-7.656500 1.087700
-7.639400 1.107400
-7.622300 1.128800
-7.605200 1.151800
-7.588100 1.176000
-7.571000 1.198700
-7.553900 1.215200
-7.536800 1.229300
-7.519800 1.246800
-7.502700 1.263900
-7.485600 1.280800
-7.468500 1.298000
-7.451400 1.315900
-7.434300 1.335200
-7.417200 1.356800
-7.400100 1.382100
-7.383100 1.413700
-7.366000 1.455000
-7.348900 1.490700
-7.331800 1.520500
-7.314700 1.536000
-7.297600 1.551200
-7.280500 1.566400
-7.263400 1.581600
-7.246400 1.597100
-7.229300 1.613500
-7.212200 1.637400
-7.195100 1.704600
-7.178000 1.805400
-7.160900 1.863200
-7.143800 1.809800
-7.126700 1.775500
-7.109700 1.745600
-7.092600 1.736600
-7.075500 1.762600
-7.058400 1.791700
-7.041300 1.822300
-7.024200 1.854000
-7.007100 1.861600
-6.990000 1.924600
-6.973000 2.013400
-6.955900 2.099400
-6.938800 2.170600
-6.921700 2.239900
-6.904600 2.307200
-6.887500 2.479400
-6.870400 2.123400
-6.853400 2.061800
-6.836300 2.006900
-6.819200 1.954900
-6.802100 1.931400
-6.785000 1.924000
-6.767900 1.924300
-6.750800 1.920600
-6.733700 1.996200
-6.716700 2.211800
-6.699600 2.096200
-6.682500 2.034700
-6.665400 2.013700
-6.648300 2.407500
-6.631200 2.043000
-6.614100 2.332800
-6.597000 1.634300
-6.580000 1.607900
-6.562900 1.625800
-6.545800 1.739900
-6.528700 1.921900
-6.511600 2.123600
-6.494500 2.339900
-6.477400 2.908600
-6.460300 3.135800
-6.443300 3.075100
-6.426200 2.928300
-6.409100 2.852800
-6.392000 2.869600
-6.374900 2.850000
-6.357800 2.804300
-6.340700 2.732100
-6.323600 2.617500
-6.306600 2.421200
-6.289500 2.319100
-6.272400 2.251900
-6.255300 2.161100
-6.238200 2.031300
-6.221100 1.854700
-6.204000 1.795900
-6.186900 1.737400
-6.169900 1.733800
-6.152800 1.804400
-6.135700 1.914000
-6.118600 2.052800
-6.101500 2.212600
-6.084400 2.393300
-6.067300 2.647400
-6.050200 2.650300
-6.033200 2.774400
-6.016100 2.828200
-5.999000 2.866500
-5.981900 2.903800
-5.964800 2.933600
-5.947700 2.955200
-5.930600 2.969000
-5.913500 2.981000
-5.896500 2.999400
-5.879400 3.052500
-5.862300 3.142800
-5.845200 3.233600
-5.828100 3.251000
-5.811000 3.150100
-5.793900 3.042700
-5.776800 2.929200
-5.759800 2.763300
-5.742700 2.591300
-5.725600 2.402800
-5.708500 2.264900
-5.691400 2.193200
-5.674300 2.144900
-5.657200 2.104500
-5.640100 2.071800
-5.623100 1.986400
-5.606000 1.929100
-5.588900 1.873200
-5.571800 1.821800
-5.554700 1.782300
-5.537600 1.761500
-5.520500 1.743700
-5.503400 1.728000
-5.486400 1.713300
-5.469300 1.696000
-5.452200 1.676100
-5.435100 1.654100
-5.418000 1.650300
-5.400900 1.651900
-5.383800 1.651400
-5.366700 1.647400
-5.349700 1.643100
-5.332600 1.640600
-5.315500 1.647400
-5.298400 1.661300
-5.281300 1.672500
-5.264200 1.683200
-5.247100 1.631000
-5.230100 1.627900
-5.213000 1.648400
-5.195900 1.673100
-5.178800 1.702200
-5.161700 1.735600
-5.144600 1.782200
-5.127500 1.912700
-5.110400 2.020900
-5.093400 2.110600
-5.076300 2.191400
-5.059200 2.277900
-5.042100 2.312900
-5.025000 2.485400
-5.007900 2.666100
-4.990800 2.891800
-4.973700 3.173500
-4.956700 3.609700
-4.939600 3.995300
-4.922500 4.498300
-4.905400 5.109300
-4.888300 6.086400
-4.871200 5.694800
-4.854100 5.707500
-4.837000 5.308400
-4.820000 5.316000
-4.802900 4.813100
-4.785800 4.413100
-4.768700 4.205200
-4.751600 4.178700
-4.734500 3.900800
-4.717400 3.705400
-4.700300 3.670700
-4.683300 3.622800
-4.666200 3.616300
-4.649100 3.599400
-4.632000 3.533900
-4.614900 3.512700
-4.597800 3.783400
-4.580700 3.712000
-4.563600 3.666200
-4.546600 3.428500
-4.529500 3.032000
-4.512400 2.797400
-4.495300 2.809300
-4.478200 2.781900
-4.461100 2.707300
-4.444000 2.641500
-4.426900 2.630800
-4.409900 2.623400
-4.392800 2.595900
-4.375700 2.572400
-4.358600 2.538500
-4.341500 2.521900
-4.324400 2.536600
-4.307300 2.548100
-4.290200 2.534800
-4.273200 2.443200
-4.256100 2.290700
-4.239000 2.234600
-4.221900 2.213300
-4.204800 2.202800
-4.187700 2.200200
-4.170600 2.134000
-4.153500 2.091300
-4.136500 2.103500
-4.119400 2.133900
-4.102300 2.125400
-4.085200 2.397900
-4.068100 2.316500
-4.051000 2.382400
-4.033900 2.436200
-4.016800 2.486900
-3.999800 2.535800
-3.982700 2.582800
-3.965600 2.643700
-3.948500 2.714300
-3.931400 2.790900
-3.914300 2.871300
-3.897200 2.950000
-3.880100 3.035800
-3.863100 3.150400
-3.846000 3.380800
-3.828900 3.834900
-3.811800 3.460500
-3.794700 2.821600
-3.777600 2.470100
-3.760500 2.168500
-3.743400 1.968300
-3.726400 1.850500
-3.709300 1.740400
-3.692200 1.633700
-3.675100 1.544900
-3.658000 1.491900
-3.640900 1.459700
-3.623800 1.433800
-3.606800 1.414700
-3.589700 1.410400
-3.572600 1.410200
-3.555500 1.409700
-3.538400 1.407600
-3.521300 1.403300
-3.504200 1.398800
-3.487100 1.396700
-3.470100 1.395300
-3.453000 1.396400
-3.435900 1.398300
-3.418800 1.400300
-3.401700 1.402500
-3.384600 1.403200
-3.367500 1.401700
-3.350400 1.390300
-3.333400 1.390900
-3.316300 1.395200
-3.299200 1.405100
-3.282100 1.426400
-3.265000 1.456400
-3.247900 1.462100
-3.230800 1.442900
-3.213700 1.372600
-3.196700 1.295100
-3.179600 1.159800
-3.162500 1.136000
-3.145400 1.113800
-3.128300 1.093900
-3.111200 1.076200
-3.094100 1.062000
-3.077000 1.050500
-3.060000 1.039700
-3.042900 1.029400
-3.025800 1.019800
-3.008700 0.987400
-2.991600 0.996800
-2.974500 1.009500
-2.957400 1.026300
-2.940300 1.064400
-2.923300 1.135200
-2.906200 1.168100
-2.889100 1.195700
-2.872000 1.213800
-2.854900 1.224200
-2.837800 1.226500
-2.820700 1.224700
-2.803600 1.223600
-2.786600 1.223300
-2.769500 1.223800
-2.752400 1.234100
-2.735300 1.248700
-2.718200 1.265500
-2.701100 1.284500
-2.684000 1.305900
-2.666900 1.330000
-2.649900 1.364600
-2.632800 1.404000
-2.615700 1.489000
-2.598600 1.522300
-2.581500 1.564800
-2.564400 1.615400
-2.547300 1.669100
-2.530200 1.725200
-2.513200 2.165800
-2.496100 2.432500
-2.479000 2.519500
-2.461900 2.381300
-2.444800 2.342500
-2.427700 2.373600
-2.410600 2.324400
-2.393500 2.261800
-2.376500 2.160500
-2.359400 2.000000
-2.342300 1.777300
-2.325200 1.479100
-2.308100 1.276100
-2.291000 1.079500
-2.273900 0.931400
-2.256800 0.800000
-2.239800 0.675600
-2.222700 0.558400
-2.205600 0.448200
-2.188500 0.305900
-2.171400 0.000000
-2.154300 0.000000
-2.137200 0.000000
-2.120100 0.000000
-2.103100 0.000000
-2.086000 0.000000
-2.068900 0.000000
-2.051800 0.000000
-2.034700 0.000000
-2.017600 0.000000
-2.000500 0.000000
-1.983500 0.000000
-1.966400 0.000000
-1.949300 0.000000
-1.932200 0.000000
-1.915100 0.000000
-1.898000 0.000000
-1.880900 0.000000
-1.863800 0.000000
-1.846800 0.000000
-1.829700 0.000000
-1.812600 0.000000
-1.795500 0.000000
-1.778400 0.000000
-1.761300 0.000000
-1.744200 0.000000
-1.727100 0.000000
-1.710100 0.000000
-1.693000 0.000000
-1.675900 0.000000
-1.658800 0.000000
-1.641700 0.000000
-1.624600 0.000000
-1.607500 0.000000
-1.590400 0.000000
-1.573400 0.000000
-1.556300 0.000000
-1.539200 0.000000
-1.522100 0.000000
-1.505000 0.000000
-1.487900 0.000000
-1.470800 0.000000
-1.453700 0.000000
-1.436700 0.000000
-1.419600 0.000000
-1.402500 0.000000
-1.385400 0.000000
-1.368300 0.000000
-1.351200 0.000000
-1.334100 0.000000
-1.317000 0.000000
-1.300000 0.000000
-1.282900 0.000000
-1.265800 0.000000
-1.248700 0.000000
-1.231600 0.000000
-1.214500 0.000000
-1.197400 0.000000
-1.180300 0.000000
-1.163300 0.000000
-1.146200 0.000000
-1.129100 0.000000
-1.112000 0.000000
-1.094900 0.000000
-1.077800 0.000000
-1.060700 0.000000
-1.043600 0.000000
-1.026600 0.000000
-1.009500 0.000000
-0.992400 0.000000
-0.975300 0.000000
-0.958200 0.000000
-0.941100 0.000000
-0.924000 0.000000
-0.906900 0.000000
-0.889900 0.000000
-0.872800 0.000000
-0.855700 0.000000
-0.838600 0.000000
-0.821500 0.000000
-0.804400 0.000000
-0.787300 0.000000
-0.770200 0.000000
-0.753200 0.000000
-0.736100 0.000000
-0.719000 0.000000
-0.701900 0.000000
-0.684800 0.000000
-0.667700 0.000000
-0.650600 0.000000
-0.633500 0.000000
-0.616500 0.000000
-0.599400 0.000000
-0.582300 0.000000
-0.565200 0.000000
-0.548100 0.000000
-0.531000 0.000000
-0.513900 0.000000
-0.496800 0.000000
-0.479800 0.000000
-0.462700 0.000000
-0.445600 0.000000
-0.428500 0.000000
-0.411400 0.000000
-0.394300 0.000000
-0.377200 0.000000
-0.360200 0.000000
-0.343100 0.000000
-0.326000 0.000000
-0.308900 0.000000
-0.291800 0.000000
-0.274700 0.000000
-0.257600 0.000000
-0.240500 0.000000
-0.223500 0.000000
-0.206400 0.000000
-0.189300 0.000000
-0.172200 0.000000
-0.155100 0.000000
-0.138000 0.000000
-0.120900 0.000000
-0.103800 0.000000
-0.086800 0.000000
-0.069700 0.000000
-0.052600 0.000000
-0.035500 0.000000
-0.018400 0.000000
-0.001300 0.000000
0.015800 0.000000
0.032900 0.000000
0.049900 0.000000
0.067000 0.000000
0.084100 0.007400
0.101200 0.076200
0.118300 0.129300
0.135400 0.179800
0.152500 0.235000
0.169600 0.291100
0.186600 0.343100
0.203700 0.392000
0.220800 0.444000
0.237900 0.499700
0.255000 0.878200
0.272100 1.331900
0.289200 1.778700
0.306300 2.245500
0.323300 2.583300
0.340400 2.849700
0.357500 3.019700
0.374600 3.057900
0.391700 3.416900
0.408800 3.464100
0.425900 3.590400
0.443000 3.660800
0.460000 3.655200
0.477100 3.667700
0.494200 3.676300
0.511300 3.741500
0.528400 3.852700
0.545500 4.101600
0.562600 4.108100
0.579700 3.857100
0.596700 3.695300
0.613800 3.490800
0.630900 3.300700
0.648000 3.302400
0.665100 3.270900
0.682200 3.210800
0.699300 3.148000
0.716400 3.082100
0.733400 3.365700
0.750500 3.416000
0.767600 3.437700
0.784700 2.717900
0.801800 2.477000
0.818900 2.669300
0.836000 2.845600
0.853100 3.021100
0.870100 3.262000
0.887200 3.501300
0.904300 3.672300
0.921400 3.951400
0.938500 4.737400
0.955600 4.241400
0.972700 4.465300
0.989800 5.210000
1.006800 4.934500
1.023900 3.810800
1.041000 3.630400
1.058100 3.665200
1.075200 3.496400
1.092300 3.437500
1.109400 3.411100
1.126500 3.280800
1.143500 3.245600
1.160600 3.207500
1.177700 3.212200
1.194800 3.216100
1.211900 3.204900
1.229000 3.203900
1.246100 3.215400
1.263100 3.319400
1.280200 3.477900
1.297300 3.615300
1.314400 3.761000
1.331500 3.828300
1.348600 3.873300
1.365700 3.845000
1.382800 3.702100
1.399800 3.699200
1.416900 3.751400
1.434000 3.758200
1.451100 3.825400
1.468200 3.943200
1.485300 4.004900
1.502400 4.118600
1.519500 3.892300
1.536500 3.810200
1.553600 3.732200
1.570700 3.645400
1.587800 3.598300
1.604900 3.563800
1.622000 3.531600
1.639100 3.459200
1.656200 3.409700
1.673200 3.407500
1.690300 3.408100
1.707400 3.397000
1.724500 3.231300
1.741600 3.316000
1.758700 3.416000
1.775800 3.640600
1.792900 3.966100
1.809900 3.997400
1.827000 3.964500
1.844100 3.867400
1.861200 3.715700
1.878300 3.646100
1.895400 3.602400
1.912500 3.633500
1.929600 3.693100
1.946600 3.798400
1.963700 3.842700
1.980800 3.761900
1.997900 3.750100
2.015000 3.757000
2.032100 3.899900
2.049200 3.477400
2.066300 3.319100
2.083300 3.297800
2.100400 3.285000
2.117500 3.263700
2.134600 3.245000
2.151700 3.334100
2.168800 3.509400
2.185900 3.608300
2.203000 3.682300
2.220000 3.664800
2.237100 3.697200
2.254200 3.722800
2.271300 3.619400
2.288400 3.538700
2.305500 3.459400
2.322600 3.400600
2.339700 3.298000
2.356700 3.193700
2.373800 3.094600
2.390900 3.022500
2.408000 2.978200
2.425100 2.949600
2.442200 2.952800
2.459300 3.004800
2.476400 3.104900
2.493400 3.175100
2.510500 3.244400
2.527600 3.301800
2.544700 3.349700
2.561800 3.382500
2.578900 3.403400
2.596000 3.337200
2.613100 3.267600
2.630100 3.284400
2.647200 3.335500
2.664300 3.263700
2.681400 3.215000
2.698500 3.173500
2.715600 3.135400
2.732700 3.059500
2.749800 3.037600
2.766800 3.034800
2.783900 3.048800
2.801000 3.063500
2.818100 3.078100
2.835200 3.107100
2.852300 3.312300
2.869400 2.687400
2.886400 2.721700
2.903500 2.779100
2.920600 2.859700
2.937700 2.979200
2.954800 3.186000
2.971900 3.415400
2.989000 3.528100
3.006100 3.662200
3.023100 3.718300
3.040200 3.678400
3.057300 3.689700
3.074400 3.725300
3.091500 3.765700
3.108600 3.810400
3.125700 4.142200
3.142800 4.410500
3.159800 4.374600
3.176900 4.337100
3.194000 4.141800
3.211100 4.103200
3.228200 4.082500
3.245300 4.074700
3.262400 4.080500
3.279500 4.080400
3.296500 4.090600
3.313600 4.107400
3.330700 4.132600
3.347800 4.225500
3.364900 4.288500
3.382000 4.333100
3.399100 4.275200
3.416200 4.088700
3.433200 4.046400
3.450300 4.107700
3.467400 4.159900
3.484500 4.146500
3.501600 4.098400
3.518700 4.001800
3.535800 3.953200
3.552900 3.917800
3.569900 3.910000
3.587000 3.925300
3.604100 3.957900
3.621200 4.018300
3.638300 4.098900
3.655400 4.231900
3.672500 4.362300
3.689600 5.308800
3.706600 5.212600
3.723700 4.980000
3.740800 4.632000
3.757900 4.292200
3.775000 4.292800
3.792100 4.283200
3.809200 5.008400
3.826300 4.606200
3.843300 4.369700
3.860400 4.772400
3.877500 5.200600
3.894600 5.187400
3.911700 5.000200
3.928800 4.752400
3.945900 4.427300
3.963000 4.369900
3.980000 4.375100
3.997100 4.310400
4.014200 4.276700
4.031300 4.238300
4.048400 4.185200
4.065500 4.049000
4.082600 4.038700
4.099700 4.130600
4.116700 4.331900
4.133800 4.514200
4.150900 4.715600
4.168000 4.998400
4.185100 5.390600
4.202200 5.863800
4.219300 6.220100
4.236400 6.438000
4.253400 6.337500
4.270500 5.196100
4.287600 4.337900
4.304700 4.103000
4.321800 3.941200
4.338900 3.784700
4.356000 3.648500
4.373100 3.469300
4.390100 3.342400
4.407200 3.271600
4.424300 3.148500
4.441400 3.102700
4.458500 3.055300
4.475600 3.013400
4.492700 2.976100
4.509700 2.947700
4.526800 3.128300
4.543900 3.255200
4.561000 3.435000
4.578100 3.556300
4.595200 3.483800
4.612300 3.191400
4.629400 3.152400
4.646400 3.132000
4.663500 3.135400
4.680600 3.152600
4.697700 3.092500
4.714800 3.098400
4.731900 3.136600
4.749000 3.210200
4.766100 3.355700
4.783100 3.421300
4.800200 3.448100
4.817300 3.518700
4.834400 3.604700
4.851500 4.351300
4.868600 4.187700
4.885700 4.051900
4.902800 3.804000
4.919800 3.714400
4.936900 3.683700
4.954000 3.618800
4.971100 3.552700
4.988200 3.499300
5.005300 3.448400
5.022400 3.445000
5.039500 3.416000
5.056500 3.405100
5.073600 3.421500
5.090700 3.487900
5.107800 3.633900
5.124900 3.764000
5.142000 3.899200
5.159100 4.160900
5.176200 4.167900
5.193200 4.143600
5.210300 4.180200
5.227400 4.273800
5.244500 4.430300
5.261600 4.454200
5.278700 4.479600
5.295800 4.480100
5.312900 4.454000
5.329900 4.435200
5.347000 4.383600
5.364100 4.501500
5.381200 4.166300
5.398300 4.131600
5.415400 4.086800
5.432500 4.037200
5.449600 3.879500
5.466600 3.681300
5.483700 3.435600
5.500800 4.027900
5.517900 3.032900
5.535000 2.759800
5.552100 2.449600
5.569200 2.161600
5.586300 1.960300
5.603300 1.798300
5.620400 1.488200
5.637500 1.427700
5.654600 1.391000
5.671700 1.404200
5.688800 1.538500
5.705900 1.634100
5.723000 1.741200
5.740000 1.849800
5.757100 2.013500
5.774200 2.215900
5.791300 2.068900
5.808400 2.149500
5.825500 2.237100
5.842600 2.350400
5.859700 2.481700
5.876700 2.624800
5.893800 2.788700
5.910900 2.879000
5.928000 3.048200
5.945100 3.228200
5.962200 3.435400
5.979300 3.592200
5.996400 3.687600
6.013400 3.673300
6.030500 3.403400
6.047600 3.117600
6.064700 2.973400
6.081800 2.936100
6.098900 2.859000
6.116000 2.774600
6.133000 2.691900
6.150100 2.610500
6.167200 2.521300
6.184300 2.429600
6.201400 2.393700
6.218500 2.294400
6.235600 2.314500
6.252700 2.317200
6.269700 2.311500
6.286800 2.307500
6.303900 2.301600
6.321000 2.293800
6.338100 2.275700
6.355200 2.252800
6.372300 2.230600
6.389400 2.209500
6.406400 2.192800
6.423500 2.289600
6.440600 2.134500
6.457700 2.122700
6.474800 2.114700
6.491900 2.111700
6.509000 2.113700
6.526100 2.121000
6.543100 2.170200
6.560200 2.288300
6.577300 2.158700
6.594400 2.140900
6.611500 2.160700
6.628600 2.190800
6.645700 2.247900
6.662800 2.450300
6.679800 2.487400
6.696900 2.554600
6.714000 2.649000
6.731100 2.792700
6.748200 2.927400
6.765300 3.036400
6.782400 3.181200
6.799500 3.363800
6.816500 3.670500
6.833600 3.625900
6.850700 3.627500
6.867800 3.688500
6.884900 3.710100
6.902000 3.455400
6.919100 3.305800
6.936200 3.094900
6.953200 2.916400
6.970300 2.792400
6.987400 2.767600
7.004500 2.755500
7.021600 2.728600
7.038700 2.728400
7.055800 2.758300
7.072900 2.816800
7.089900 2.904300
7.107000 3.001600
7.124100 3.162300
7.141200 3.300700
7.158300 3.420000
7.175400 3.530200
7.192500 3.609800
7.209600 3.709900
7.226600 3.862900
7.243700 4.031700
7.260800 4.145500
7.277900 4.273700
7.295000 4.400600
7.312100 4.446300
7.329200 4.663400
7.346300 4.699800
7.363300 4.770600
7.380400 4.757200
7.397500 5.107900
7.414600 5.469000
7.431700 5.876900
7.448800 5.803600
7.465900 5.673500
7.483000 5.715200
7.500000 5.777900
7.517100 5.558300
7.534200 5.108700
7.551300 4.368700
7.568400 4.132100
7.585500 3.943400
7.602600 3.777900
7.619700 3.615900
7.636700 3.487900
7.653800 3.386500
7.670900 3.292800
7.688000 3.227600
7.705100 3.159800
7.722200 3.130700
7.739300 3.105800
7.756400 3.085900
7.773400 3.070100
7.790500 3.056600
7.807600 3.031800
7.824700 3.034300
7.841800 3.049300
7.858900 3.085300
7.876000 3.195600
7.893000 3.175800
7.910100 3.421600
7.927200 3.465700
7.944300 3.520600
7.961400 3.555600
7.978500 3.537400
7.995600 3.561200
8.012700 3.562400
8.029700 3.504900
8.046800 3.516500
8.063900 3.460900
8.081000 3.412900
8.098100 3.415400
8.115200 3.406300
8.132300 3.369000
8.149400 3.709500
8.166400 3.402200
8.183500 3.360800
8.200600 3.275700
8.217700 3.292700
8.234800 3.306700
8.251900 3.408900
8.269000 3.419300
8.286100 3.595800
