set title 'mp-1229032 - Density of States'
set xlabel 'Energy (eV)'
set ylabel 'DOS (states/eV)'
set grid
set xrange [-10:10]
set yrange [0:24.697]
set xzeroaxis lt -1
set terminal png size 800,600
set output 'mp-1229032_dos_gnuplot.png'
plot '-' using 1:2 with lines title 'DOS'
-4.645000 0.000000
-4.627900 0.000000
-4.610700 0.000000
-4.593600 0.000000
-4.576500 0.000000
-4.559300 0.000000
-4.542200 0.000000
-4.525000 0.000000
-4.507900 0.000000
-4.490700 0.000000
-4.473600 0.000000
-4.456500 0.000000
-4.439300 0.000000
-4.422200 0.000000
-4.405000 0.000000
-4.387900 0.000000
-4.370700 0.000000
-4.353600 0.000000
-4.336500 0.000000
-4.319300 0.000000
-4.302200 0.000000
-4.285000 0.000000
-4.267900 0.000000
-4.250700 0.000000
-4.233600 0.000000
-4.216500 0.000000
-4.199300 0.000000
-4.182200 0.000000
-4.165000 0.000000
-4.147900 0.000000
-4.130700 0.000000
-4.113600 0.000000
-4.096500 0.000000
-4.079300 0.000000
-4.062200 0.000000
-4.045000 0.000000
-4.027900 0.000000
-4.010800 0.000000
-3.993600 0.000000
-3.976500 0.000000
-3.959300 0.000000
-3.942200 0.000000
-3.925000 0.000000
-3.907900 0.000000
-3.890800 0.000000
-3.873600 0.000000
-3.856500 0.000000
-3.839300 0.000000
-3.822200 0.000000
-3.805000 0.000000
-3.787900 0.000000
-3.770800 0.000000
-3.753600 0.000000
-3.736500 0.000000
-3.719300 0.000000
-3.702200 0.000000
-3.685000 0.000000
-3.667900 0.000000
-3.650800 0.000000
-3.633600 0.000000
-3.616500 0.000000
-3.599300 0.000000
-3.582200 0.000000
-3.565000 0.000000
-3.547900 0.000000
-3.530800 0.000000
-3.513600 0.000000
-3.496500 0.000000
-3.479300 0.000000
-3.462200 0.000000
-3.445000 0.000000
-3.427900 0.000000
-3.410800 0.000000
-3.393600 0.000000
-3.376500 0.000000
-3.359300 0.000000
-3.342200 0.000000
-3.325000 0.000000
-3.307900 0.000000
-3.290800 0.000000
-3.273600 0.000000
-3.256500 0.000000
-3.239300 0.000000
-3.222200 0.000000
-3.205000 0.000000
-3.187900 0.000000
-3.170800 0.000000
-3.153600 0.000000
-3.136500 0.000000
-3.119300 0.000000
-3.102200 0.000000
-3.085100 0.000000
-3.067900 0.004200
-3.050800 0.011800
-3.033600 0.021800
-3.016500 0.033900
-2.999300 0.048000
-2.982200 0.064300
-2.965100 0.083900
-2.947900 0.105800
-2.930800 0.127700
-2.913600 0.149600
-2.896500 0.171400
-2.879300 0.193300
-2.862200 0.215200
-2.845100 0.237100
-2.827900 0.259000
-2.810800 0.280900
-2.793600 0.260300
-2.776500 0.253900
-2.759300 0.249300
-2.742200 0.245000
-2.725100 0.238600
-2.707900 0.228300
-2.690800 0.199200
-2.673600 0.197900
-2.656500 0.200200
-2.639300 0.202400
-2.622200 0.204700
-2.605100 0.207000
-2.587900 0.209200
-2.570800 0.211500
-2.553600 0.213700
-2.536500 0.216000
-2.519300 0.218300
-2.502200 0.220500
-2.485100 0.222800
-2.467900 0.225100
-2.450800 0.227300
-2.433600 0.229600
-2.416500 0.231900
-2.399300 0.234100
-2.382200 0.236400
-2.365100 0.238700
-2.347900 0.240900
-2.330800 0.243500
-2.313600 0.248900
-2.296500 0.255700
-2.279400 0.263800
-2.262200 0.272600
-2.245100 0.281500
-2.227900 0.290700
-2.210800 0.300200
-2.193600 0.310200
-2.176500 0.320500
-2.159400 0.330800
-2.142200 0.341500
-2.125100 0.352800
-2.107900 0.364700
-2.090800 0.377200
-2.073600 0.390300
-2.056500 0.384700
-2.039400 0.383200
-2.022200 0.386600
-2.005100 0.391000
-1.987900 0.396100
-1.970800 0.401800
-1.953600 0.408500
-1.936500 0.416700
-1.919400 0.426400
-1.902200 0.436800
-1.885100 0.446900
-1.867900 0.456400
-1.850800 0.465500
-1.833600 0.474200
-1.816500 0.482400
-1.799400 0.490000
-1.782200 0.497100
-1.765100 0.503700
-1.747900 0.509400
-1.730800 0.514000
-1.713600 0.517400
-1.696500 0.519500
-1.679400 0.520500
-1.662200 0.517200
-1.645100 0.508400
-1.627900 0.512700
-1.610800 0.517000
-1.593600 0.521400
-1.576500 0.525700
-1.559400 0.530000
-1.542200 0.534000
-1.525100 0.537800
-1.507900 0.541400
-1.490800 0.544900
-1.473600 0.548300
-1.456500 0.551600
-1.439400 0.554800
-1.422200 0.557900
-1.405100 0.560900
-1.387900 0.563800
-1.370800 0.566800
-1.353700 0.570800
-1.336500 0.576300
-1.319400 0.582500
-1.302200 0.590500
-1.285100 0.599600
-1.267900 0.609600
-1.250800 0.620500
-1.233700 0.633000
-1.216500 0.646200
-1.199400 0.660000
-1.182200 0.674200
-1.165100 0.688900
-1.147900 0.704000
-1.130800 0.719700
-1.113700 0.736000
-1.096500 0.738800
-1.079400 0.746400
-1.062200 0.755900
-1.045100 0.765700
-1.027900 0.775900
-1.010800 0.786600
-0.993700 0.798100
-0.976500 0.810400
-0.959400 0.823500
-0.942200 0.837500
-0.925100 0.852300
-0.907900 0.867500
-0.890800 0.883200
-0.873700 0.899500
-0.856500 0.917300
-0.839400 0.934700
-0.822200 0.951700
-0.805100 0.968200
-0.787900 0.984300
-0.770800 0.999900
-0.753700 1.015000
-0.736500 1.029300
-0.719400 1.042900
-0.702200 1.057300
-0.685100 1.070800
-0.667900 1.083600
-0.650800 1.095800
-0.633700 1.109300
-0.616500 1.122600
-0.599400 1.131600
-0.582200 1.150000
-0.565100 1.176200
-0.548000 1.206000
-0.530800 1.241500
-0.513700 1.281500
-0.496500 1.322000
-0.479400 1.363700
-0.462200 1.406500
-0.445100 1.450400
-0.428000 1.498700
-0.410800 1.590000
-0.393700 1.746300
-0.376500 1.870700
-0.359400 2.027000
-0.342200 2.232100
-0.325100 2.558900
-0.308000 2.732600
-0.290800 2.855800
-0.273700 2.911400
-0.256500 2.960700
-0.239400 3.008500
-0.222200 3.044100
-0.205100 3.088600
-0.188000 3.137800
-0.170800 3.106200
-0.153700 2.967000
-0.136500 2.847100
-0.119400 2.965400
-0.102200 3.092400
-0.085100 3.223600
-0.068000 3.361000
-0.050800 3.521500
-0.033700 3.737700
-0.016500 3.985600
0.000600 4.369600
0.017800 4.530300
0.034900 4.719200
0.052000 4.935200
0.069200 5.138900
0.086300 5.174400
0.103500 5.495300
0.120600 5.470200
0.137800 5.279700
0.154900 5.444900
0.172000 5.624700
0.189200 5.799000
0.206300 5.963000
0.223500 6.224600
0.240600 6.594900
0.257800 7.125600
0.274900 7.397400
0.292000 7.591500
0.309200 7.770300
0.326300 7.870100
0.343500 7.883500
0.360600 8.023300
0.377700 7.951400
0.394900 7.823000
0.412000 7.666400
0.429200 7.687500
0.446300 7.939400
0.463500 8.063000
0.480600 8.282000
0.497700 8.559700
0.514900 8.805000
0.532000 8.992600
0.549200 9.052400
0.566300 9.028900
0.583500 8.890600
0.600600 8.833000
0.617700 8.860700
0.634900 9.136000
0.652000 9.399000
0.669200 9.579000
0.686300 9.463000
0.703500 9.373500
0.720600 8.992000
0.737700 8.714400
0.754900 8.502300
0.772000 8.485900
0.789200 8.731400
0.806300 9.018900
0.823500 9.116300
0.840600 9.435500
0.857700 9.502000
0.874900 9.290700
0.892000 8.997800
0.909200 8.776200
0.926300 9.364700
0.943500 7.805900
0.960600 7.851500
0.977700 8.198900
0.994900 8.375000
1.012000 6.644200
1.029200 6.327900
1.046300 6.221600
1.063500 6.235900
1.080600 6.309100
1.097700 6.411000
1.114900 6.449800
1.132000 6.437400
1.149200 6.126500
1.166300 6.090500
1.183400 6.157200
1.200600 6.468100
1.217700 6.200300
1.234900 6.836900
1.252000 5.949400
1.269200 5.821000
1.286300 5.789900
1.303400 6.566500
1.320600 7.701000
1.337700 8.672000
1.354900 8.204100
1.372000 6.603200
1.389200 6.057400
1.406300 5.595400
1.423400 5.437000
1.440600 5.390000
1.457700 5.454100
1.474900 5.497800
1.492000 5.626300
1.509200 7.365600
1.526300 8.800500
1.543400 7.272800
1.560600 8.273600
1.577700 10.248300
1.594900 11.043200
1.612000 11.058000
1.629200 10.701700
1.646300 11.400500
1.663400 7.430400
1.680600 5.519200
1.697700 4.551700
1.714900 4.936200
1.732000 7.227700
1.749200 9.551100
1.766300 10.249200
1.783400 9.925100
1.800600 9.950700
1.817700 10.263100
1.834900 7.926700
1.852000 7.413700
1.869200 7.945300
1.886300 8.495100
1.903400 8.469700
1.920600 9.776900
1.937700 8.220000
1.954900 6.781400
1.972000 7.415600
1.989200 8.540700
2.006300 8.886000
2.023400 8.594300
2.040600 8.407700
2.057700 8.464300
2.074900 8.177500
2.092000 7.862300
2.109100 8.826600
2.126300 9.783400
2.143400 10.299500
2.160600 10.104300
2.177700 9.851600
2.194900 9.540400
2.212000 10.098800
2.229100 10.780800
2.246300 10.844900
2.263400 11.266600
2.280600 11.376400
2.297700 10.367600
2.314900 9.629000
2.332000 9.003600
2.349100 9.116700
2.366300 9.414500
2.383400 9.457900
2.400600 8.616300
2.417700 8.002500
2.434900 7.799400
2.452000 8.207500
2.469100 10.186100
2.486300 11.397500
2.503400 11.061200
2.520600 10.809900
2.537700 10.050400
2.554900 9.662700
2.572000 9.476700
2.589100 9.482800
2.606300 9.785000
2.623400 10.391800
2.640600 12.549000
2.657700 13.827800
2.674900 12.009900
2.692000 9.702200
2.709100 10.230800
2.726300 9.413300
2.743400 8.491200
2.760600 8.317600
2.777700 8.647200
2.794900 8.479000
2.812000 8.791400
2.829100 9.199300
2.846300 9.663300
2.863400 10.482100
2.880600 8.538500
2.897700 8.177100
2.914800 8.300500
2.932000 8.482600
2.949100 8.735800
2.966300 9.051700
2.983400 9.339300
3.000600 8.559400
3.017700 8.424600
3.034800 8.933200
3.052000 10.190400
3.069100 8.966600
3.086300 7.683300
3.103400 8.382500
3.120600 8.971400
3.137700 9.436100
3.154800 9.798900
3.172000 10.844500
3.189100 9.091000
3.206300 8.014700
3.223400 9.306100
3.240600 9.076600
3.257700 10.258700
3.274800 13.608000
3.292000 11.326000
3.309100 10.156200
3.326300 10.345700
3.343400 11.777100
3.360600 10.839900
3.377700 9.641400
3.394800 9.521200
3.412000 9.313300
3.429100 9.060100
3.446300 9.453500
3.463400 12.199300
3.480600 11.747500
3.497700 22.451700
3.514800 11.617300
3.532000 9.352700
3.549100 8.494800
3.566300 8.446700
3.583400 8.109400
3.600600 7.947700
3.617700 8.554400
3.634800 7.675500
3.652000 9.298400
3.669100 7.297900
3.686300 5.375100
3.703400 5.247600
3.720500 5.156800
3.737700 5.070200
3.754800 5.026500
3.772000 4.994000
3.789100 4.972400
3.806300 4.966000
3.823400 5.019300
3.840500 5.099300
3.857700 5.119700
3.874800 5.268000
3.892000 5.581600
3.909100 5.737300
3.926300 5.728100
3.943400 5.439400
3.960500 5.303400
3.977700 5.385600
3.994800 5.439100
4.012000 5.705200
4.029100 6.128100
4.046300 6.618400
4.063400 7.012600
4.080500 7.168500
4.097700 7.678800
4.114800 8.307200
4.132000 9.905500
4.149100 10.347200
4.166300 10.722400
4.183400 8.085300
4.200500 7.760400
4.217700 7.282800
4.234800 7.174700
4.252000 7.105600
4.269100 6.920700
4.286300 6.599600
4.303400 6.369000
4.320500 5.965300
4.337700 5.430000
4.354800 5.337100
4.372000 5.292500
4.389100 5.283700
4.406300 5.324800
4.423400 5.369700
4.440500 5.427800
4.457700 5.479300
4.474800 5.495200
4.492000 5.478500
4.509100 5.473400
4.526300 5.545300
4.543400 5.631900
4.560500 5.855000
4.577700 6.627300
4.594800 7.994800
4.612000 9.540700
4.629100 8.815000
4.646200 8.048500
4.663400 7.721400
4.680500 7.605700
4.697700 7.927700
4.714800 8.339000
4.732000 8.808500
4.749100 8.810000
4.766200 8.753800
4.783400 8.719700
4.800500 9.727100
4.817700 6.721000
4.834800 6.354600
4.852000 6.095100
4.869100 5.881000
4.886200 5.793200
4.903400 5.795900
4.920500 5.818400
4.937700 5.783000
4.954800 6.049400
4.972000 7.641200
4.989100 9.383500
5.006200 7.552600
5.023400 7.442100
5.040500 7.170700
5.057700 6.906800
5.074800 6.700000
5.092000 6.385100
5.109100 6.232900
5.126200 6.359400
5.143400 6.366600
5.160500 6.438500
5.177700 6.505800
5.194800 6.530100
5.212000 6.527100
5.229100 6.430500
5.246200 6.178600
5.263400 5.990700
5.280500 5.889900
5.297700 5.772100
5.314800 5.687700
5.332000 5.685200
5.349100 6.013500
5.366200 6.105800
5.383400 6.053300
5.400500 5.904100
5.417700 5.758100
5.434800 5.663000
5.451900 5.603000
5.469100 5.552500
5.486200 5.583800
5.503400 5.749100
5.520500 6.562900
5.537700 6.820700
5.554800 6.640300
5.571900 6.544200
5.589100 6.427400
5.606200 6.169000
5.623400 6.165500
5.640500 6.174000
5.657700 6.169800
5.674800 6.204900
5.691900 6.277200
5.709100 6.313600
5.726200 6.362900
5.743400 6.347200
5.760500 6.184200
5.777700 6.179400
5.794800 6.232700
5.811900 6.314400
5.829100 6.387700
5.846200 6.578300
5.863400 6.918700
5.880500 6.881800
5.897700 6.641000
5.914800 6.423500
5.931900 6.774700
5.949100 7.781600
5.966200 7.469100
5.983400 7.428800
6.000500 7.244000
6.017700 7.262300
6.034800 7.287400
6.051900 7.320500
6.069100 7.523400
6.086200 7.953700
6.103400 9.215200
6.120500 9.954800
6.137700 9.463800
6.154800 10.369500
6.171900 9.687500
6.189100 9.092900
6.206200 8.469700
6.223400 6.737000
6.240500 6.093600
6.257700 5.797100
6.274800 5.276700
6.291900 5.023800
6.309100 4.981100
6.326200 5.019000
6.343400 4.483000
6.360500 4.453800
6.377600 4.574300
6.394800 4.939500
6.411900 8.325800
6.429100 12.023100
6.446200 10.455200
6.463400 6.647300
6.480500 3.167000
6.497600 3.046700
6.514800 2.931800
6.531900 2.821600
6.549100 2.715800
6.566200 2.222300
6.583400 2.066300
6.600500 1.918500
6.617600 1.807400
6.634800 1.627800
6.651900 1.629200
6.669100 1.630100
6.686200 1.631100
6.703400 1.632300
6.720500 1.633600
6.737600 1.635400
6.754800 1.637600
6.771900 1.640100
6.789100 1.643000
6.806200 1.646300
6.823400 1.649300
6.840500 1.650300
6.857600 1.650000
6.874800 1.648400
6.891900 1.645800
6.909100 1.643200
6.926200 1.640600
6.943400 1.637800
6.960500 1.634800
6.977600 1.631600
6.994800 1.628200
7.011900 1.624500
7.029100 1.620400
7.046200 1.616700
7.063400 1.613200
7.080500 1.609600
7.097600 1.605900
7.114800 1.602000
7.131900 1.597700
7.149100 1.593000
7.166200 1.587800
7.183300 1.582400
7.200500 1.575800
7.217600 1.563100
7.234800 1.555400
7.251900 1.550400
7.269100 1.548700
7.286200 1.548800
7.303300 1.548900
7.320500 1.548900
7.337600 1.549000
7.354800 1.548900
7.371900 1.548400
7.389100 1.552000
7.406200 1.562900
7.423300 1.566400
7.440500 1.565500
7.457600 1.558100
7.474800 1.556600
7.491900 1.558700
7.509100 1.561300
7.526200 1.563300
7.543300 1.564900
7.560500 1.566300
7.577600 1.567500
7.594800 1.567900
7.611900 1.566700
7.629100 1.566000
7.646200 1.565300
7.663300 1.564900
7.680500 1.565200
7.697600 1.564500
7.714800 1.562700
7.731900 1.561200
7.749100 1.560000
7.766200 1.586700
7.783300 1.599600
7.800500 1.604100
7.817600 1.601500
7.834800 1.598200
7.851900 1.594900
7.869100 1.591300
7.886200 1.587600
7.903300 1.583700
7.920500 1.579600
7.937600 1.575500
7.954800 1.571400
7.971900 1.567500
7.989100 1.563700
8.006200 1.559900
8.023300 1.556200
8.040500 1.552500
8.057600 1.549100
8.074800 1.545700
8.091900 1.541600
8.109000 1.537400
8.126200 1.533500
8.143300 1.529900
8.160500 1.526600
8.177600 1.523500
8.194800 1.520800
8.211900 1.518300
8.229000 1.516800
8.246200 1.516000
8.263300 1.515000
8.280500 1.514000
8.297600 1.512800
8.314800 1.511500
8.331900 1.510100
8.349000 1.508600
8.366200 1.507100
8.383300 1.505700
8.400500 1.504500
8.417600 1.503300
8.434800 1.502300
8.451900 1.501600
8.469000 1.501200
8.486200 1.501100
8.503300 1.496300
8.520500 1.467300
8.537600 1.428100
8.554800 1.409700
8.571900 1.394000
8.589000 1.384000
8.606200 1.380400
8.623300 1.378000
8.640500 1.376200
8.657600 1.374800
8.674800 1.373600
8.691900 1.372600
8.709000 1.371800
8.726200 1.371100
8.743300 1.370500
8.760500 1.370600
8.777600 1.371800
8.794800 1.374500
8.811900 1.378600
8.829000 1.383900
8.846200 1.394000
8.863300 1.427100
8.880500 1.485500
8.897600 1.978800
8.914700 1.540500
8.931900 1.460900
8.949000 1.411800
8.966200 1.391400
8.983300 1.376200
9.000500 1.361800
9.017600 1.348700
9.034700 1.336600
9.051900 1.324500
9.069000 1.312300
9.086200 1.300800
9.103300 1.292600
9.120500 1.286200
9.137600 1.282100
9.154700 1.280300
9.171900 1.280100
9.189000 1.279900
9.206200 1.279400
9.223300 1.282200
9.240500 1.285700
9.257600 1.289200
9.274700 1.292700
9.291900 1.296500
9.309000 1.300100
9.326200 1.303300
9.343300 1.306100
9.360500 1.308800
9.377600 1.311700
9.394700 1.314400
9.411900 1.318800
9.429000 1.335700
9.446200 1.345300
9.463300 1.365500
9.480500 1.369700
9.497600 1.363600
9.514700 1.363800
9.531900 1.364200
9.549000 1.362800
9.566200 1.362800
9.583300 1.363300
9.600500 1.362700
9.617600 1.360000
9.634700 1.356700
9.651900 1.352800
9.669000 1.348400
9.686200 1.343600
9.703300 1.328000
9.720500 1.297600
9.737600 1.292900
9.754700 1.288700
9.771900 1.283500
9.789000 1.278600
9.806200 1.274200
9.823300 1.270200
9.840400 1.266600
9.857600 1.263400
9.874700 1.260600
9.891900 1.258300
9.909000 1.256600
9.926200 1.255300
9.943300 1.254500
9.960400 1.254100
9.977600 1.194800
9.994700 1.185400
10.011900 1.187500
10.029000 1.189900
10.046200 1.192500
10.063300 1.195500
10.080400 1.198800
10.097600 1.202400
10.114700 1.198400
10.131900 1.197100
10.149000 1.201900
10.166200 1.206100
10.183300 1.209400
10.200400 1.212100
10.217600 1.214000
10.234700 1.215300
10.251900 1.215800
10.269000 1.215600
10.286200 1.215400
10.303300 1.230000
10.320400 1.276100
10.337600 1.344300
10.354700 1.379900
10.371900 1.382000
10.389000 1.337900
10.406200 1.247000
10.423300 1.134400
10.440400 1.133100
10.457600 1.131800
10.474700 1.130600
10.491900 1.128900
10.509000 1.127400
10.526200 1.126100
10.543300 1.120700
10.560400 1.108800
10.577600 1.200000
10.594700 1.273600
10.611900 1.315600
10.629000 1.232500
10.646100 1.156900
10.663300 1.141300
10.680400 1.129000
10.697600 1.096300
10.714700 1.030500
10.731900 0.980700
10.749000 0.965500
10.766100 0.955100
10.783300 0.945100
10.800400 0.936600
10.817600 0.931400
10.834700 0.929700
10.851900 0.927800
10.869000 0.926200
10.886100 0.924700
10.903300 0.924100
10.920400 0.924500
10.937600 0.925900
10.954700 0.937400
10.971900 0.958200
10.989000 0.974000
11.006100 0.984800
11.023300 0.990800
11.040400 0.991600
11.057600 0.986900
11.074700 0.977300
11.091900 0.962900
11.109000 1.758400
11.126100 1.534000
11.143300 1.328400
11.160400 1.286700
11.177600 1.264300
11.194700 1.246200
11.211900 1.235200
11.229000 1.235500
11.246100 1.245600
11.263300 1.255600
11.280400 1.263700
11.297600 1.266500
11.314700 1.264700
11.331900 1.256500
11.349000 1.242500
11.366100 1.223400
11.383300 1.202100
11.400400 1.176600
11.417600 1.157300
11.434700 1.145700
11.451800 1.142100
11.469000 1.181600
11.486100 1.277000
11.503300 1.375400
11.520400 1.571900
11.537600 1.888000
11.554700 2.194100
11.571800 2.239300
11.589000 2.334300
11.606100 2.341800
11.623300 2.189900
11.640400 2.043400
11.657600 2.002000
11.674700 1.977200
11.691800 1.948200
11.709000 1.915500
11.726100 1.884100
11.743300 1.853700
11.760400 1.803600
11.777600 1.771700
11.794700 1.743900
11.811800 1.712800
11.829000 1.682000
11.846100 1.652400
11.863300 1.624400
11.880400 1.597300
11.897600 1.570600
11.914700 1.545100
11.931800 1.520000
11.949000 1.506800
11.966100 1.469000
11.983300 1.430900
12.000400 1.393400
12.017600 1.357200
12.034700 1.325300
12.051800 1.298000
12.069000 1.270900
12.086100 1.249500
12.103300 1.237500
12.120400 1.228200
12.137600 1.219900
12.154700 1.214200
12.171800 1.288100
12.189000 1.420000
12.206100 1.465800
12.223300 1.480700
12.240400 1.537000
12.257600 1.587000
12.274700 1.624800
12.291800 1.650600
12.309000 1.664800
12.326100 1.667300
12.343300 1.659600
12.360400 1.653900
12.377500 1.654600
12.394700 1.662100
12.411800 1.659800
12.429000 1.648200
12.446100 1.628400
12.463300 1.611600
12.480400 1.596100
12.497500 1.569000
12.514700 1.555200
12.531800 1.571000
12.549000 1.586000
12.566100 1.600700
12.583300 1.614600
12.600400 1.627000
12.617500 1.636800
12.634700 1.646600
12.651800 1.655800
12.669000 1.664300
12.686100 1.671800
12.703300 1.675700
12.720400 1.676900
12.737500 1.675200
12.754700 1.660500
12.771800 1.670600
12.789000 1.670700
12.806100 1.675000
12.823300 1.699000
12.840400 1.684600
12.857500 1.652200
12.874700 1.624100
12.891800 1.596500
12.909000 1.578000
12.926100 1.551200
12.943300 1.518800
12.960400 1.485900
12.977500 1.453200
12.994700 1.434000
13.011800 1.423900
13.029000 1.419900
13.046100 1.415400
13.063300 1.409800
13.080400 1.405900
13.097500 1.402300
13.114700 1.392900
13.131800 1.373000
13.149000 1.370200
13.166100 1.369300
13.183200 1.369300
13.200400 1.369700
13.217500 1.370200
13.234700 1.374300
13.251800 1.381200
13.269000 1.389800
13.286100 1.400200
13.303200 1.412300
13.320400 1.422600
13.337500 1.434600
13.354700 1.449100
13.371800 1.466600
13.389000 1.487300
13.406100 1.511200
13.423200 1.537600
13.440400 1.565700
13.457500 1.593200
13.474700 1.619700
13.491800 1.647200
13.509000 1.679200
13.526100 1.720500
13.543200 1.770000
13.560400 1.796100
13.577500 1.772000
13.594700 1.732900
13.611800 1.705500
