set title 'mp-1183189 - Density of States'
set xlabel 'Energy (eV)'
set ylabel 'DOS (states/eV)'
set grid
set xrange [-10:10]
set yrange [0:16.401]
set xzeroaxis lt -1
set terminal png size 800,600
set output 'mp-1183189_dos_gnuplot.png'
plot '-' using 1:2 with lines title 'DOS'
-5.564800 0.000000
-5.540700 0.000000
-5.516500 0.000000
-5.492300 0.000000
-5.468100 0.000000
-5.443900 0.000000
-5.419700 0.000000
-5.395600 0.000000
-5.371400 0.000000
-5.347200 0.000000
-5.323000 0.000000
-5.298800 0.000000
-5.274700 0.000000
-5.250500 0.000000
-5.226300 0.000000
-5.202100 0.000000
-5.177900 0.000000
-5.153700 0.000000
-5.129600 0.000000
-5.105400 0.000000
-5.081200 0.000000
-5.057000 0.000000
-5.032800 0.000000
-5.008700 0.000000
-4.984500 0.000000
-4.960300 0.000000
-4.936100 0.000000
-4.911900 0.000000
-4.887800 0.000000
-4.863600 0.000000
-4.839400 0.000000
-4.815200 0.000000
-4.791000 0.000000
-4.766800 0.000000
-4.742700 0.000000
-4.718500 0.000000
-4.694300 0.000000
-4.670100 0.000000
-4.645900 0.000000
-4.621800 0.000000
-4.597600 0.000000
-4.573400 0.000000
-4.549200 0.000000
-4.525000 0.000000
-4.500800 0.000000
-4.476700 0.000000
-4.452500 0.000000
-4.428300 0.000000
-4.404100 0.000000
-4.379900 0.000000
-4.355800 0.000000
-4.331600 0.000000
-4.307400 0.000000
-4.283200 0.000000
-4.259000 0.000000
-4.234800 0.000000
-4.210700 0.000000
-4.186500 0.000000
-4.162300 0.000000
-4.138100 0.000000
-4.113900 0.000000
-4.089800 0.000000
-4.065600 0.000000
-4.041400 0.000000
-4.017200 0.000000
-3.993000 0.000000
-3.968800 0.000000
-3.944700 0.000000
-3.920500 0.000000
-3.896300 0.000000
-3.872100 0.000000
-3.847900 0.000000
-3.823800 0.000000
-3.799600 0.000000
-3.775400 0.000000
-3.751200 0.000000
-3.727000 0.000000
-3.702800 0.000000
-3.678700 0.000000
-3.654500 0.000000
-3.630300 0.000000
-3.606100 0.000000
-3.581900 0.000000
-3.557800 0.000000
-3.533600 0.000000
-3.509400 0.000000
-3.485200 0.000000
-3.461000 0.000300
-3.436800 0.001900
-3.412700 0.007500
-3.388500 0.019700
-3.364300 0.037600
-3.340100 0.057000
-3.315900 0.076300
-3.291800 0.104700
-3.267600 0.158500
-3.243400 0.218300
-3.219200 0.222000
-3.195000 0.154400
-3.170800 0.082600
-3.146700 0.074700
-3.122500 0.143300
-3.098300 0.245500
-3.074100 0.318000
-3.049900 0.335800
-3.025800 0.325700
-3.001600 0.335600
-2.977400 0.360300
-2.953200 0.323300
-2.929000 0.208100
-2.904800 0.102900
-2.880700 0.083900
-2.856500 0.155100
-2.832300 0.267200
-2.808100 0.357200
-2.783900 0.398000
-2.759800 0.423300
-2.735600 0.504100
-2.711400 0.614900
-2.687200 0.595900
-2.663000 0.401700
-2.638800 0.197800
-2.614700 0.130400
-2.590500 0.195000
-2.566300 0.298500
-2.542100 0.361700
-2.517900 0.389000
-2.493800 0.450300
-2.469600 0.573100
-2.445400 0.638600
-2.421200 0.516900
-2.397000 0.293000
-2.372900 0.164400
-2.348700 0.221400
-2.324500 0.410500
-2.300300 0.596300
-2.276100 0.675300
-2.251900 0.650700
-2.227800 0.605400
-2.203600 0.595200
-2.179400 0.544200
-2.155200 0.382200
-2.131000 0.209700
-2.106900 0.175100
-2.082700 0.316000
-2.058500 0.536500
-2.034300 0.689300
-2.010100 0.716200
-1.985900 0.701200
-1.961800 0.767900
-1.937600 0.862000
-1.913400 0.770100
-1.889200 0.481100
-1.865000 0.229300
-1.840900 0.163000
-1.816700 0.236400
-1.792500 0.343200
-1.768300 0.438900
-1.744100 0.571900
-1.719900 0.800900
-1.695800 1.016500
-1.671600 0.972200
-1.647400 0.651500
-1.623200 0.342300
-1.599000 0.277600
-1.574900 0.450200
-1.550700 0.706400
-1.526500 0.883900
-1.502300 0.918600
-1.478100 0.893200
-1.453900 0.886700
-1.429800 0.791600
-1.405600 0.544800
-1.381400 0.345900
-1.357200 0.397900
-1.333000 0.643500
-1.308900 0.847300
-1.284700 0.878700
-1.260500 0.830500
-1.236300 0.841600
-1.212100 0.876400
-1.187900 0.766700
-1.163800 0.509100
-1.139600 0.313300
-1.115400 0.312500
-1.091200 0.420000
-1.067000 0.490300
-1.042900 0.548900
-1.018700 0.761700
-0.994500 1.109300
-0.970300 1.274400
-0.946100 1.051300
-0.921900 0.685200
-0.897800 0.594300
-0.873600 0.916100
-0.849400 1.379900
-0.825200 1.574000
-0.801000 1.401100
-0.776900 1.117600
-0.752700 0.897700
-0.728500 0.697900
-0.704300 0.496800
-0.680100 0.372000
-0.655900 0.413800
-0.631800 0.636500
-0.607600 0.929900
-0.583400 1.144200
-0.559200 1.203000
-0.535000 1.081400
-0.510900 0.807500
-0.486700 0.528200
-0.462500 0.401200
-0.438300 0.430500
-0.414100 0.543200
-0.389900 0.739000
-0.365800 0.992900
-0.341600 1.178600
-0.317400 1.251800
-0.293200 1.268000
-0.269000 1.196800
-0.244900 1.024800
-0.220700 0.929100
-0.196500 1.058000
-0.172300 1.291300
-0.148100 1.424200
-0.123900 1.426100
-0.099800 1.380700
-0.075600 1.330500
-0.051400 1.264800
-0.027200 1.171900
-0.003000 1.090200
0.021100 1.080200
0.045300 1.149000
0.069500 1.239300
0.093700 1.313300
0.117900 1.436900
0.142000 1.627300
0.166200 1.761500
0.190400 1.775500
0.214600 1.711200
0.238800 1.619900
0.263000 1.557900
0.287100 1.506900
0.311300 1.360300
0.335500 1.136500
0.359700 1.020800
0.383900 1.104000
0.408000 1.286600
0.432200 1.445800
0.456400 1.491200
0.480600 1.405700
0.504800 1.347800
0.529000 1.477300
0.553100 1.705700
0.577300 1.841800
0.601500 1.854100
0.625700 1.789000
0.649900 1.658100
0.674000 1.543800
0.698200 1.610100
0.722400 1.876200
0.746600 2.083200
0.770800 2.008500
0.795000 1.756700
0.819100 1.520600
0.843300 1.342200
0.867500 1.304900
0.891700 1.553500
0.915900 1.932400
0.940000 2.063300
0.964200 1.853400
0.988400 1.567500
1.012600 1.487700
1.036800 1.694800
1.061000 2.017100
1.085100 2.221300
1.109300 2.332300
1.133500 2.493300
1.157700 2.595500
1.181900 2.438000
1.206000 2.180600
1.230200 2.265700
1.254400 2.855200
1.278600 3.595400
1.302800 3.976700
1.327000 3.842700
1.351100 3.441000
1.375300 3.089800
1.399500 3.077900
1.423700 3.588600
1.447900 4.386700
1.472000 4.900700
1.496200 4.813400
1.520400 4.264800
1.544600 3.528100
1.568800 2.869800
1.593000 2.545900
1.617100 2.595700
1.641300 2.744900
1.665500 2.723400
1.689700 2.611700
1.713900 2.643000
1.738000 2.829000
1.762200 3.077000
1.786400 3.380900
1.810600 3.605700
1.834800 3.497800
1.859000 3.189800
1.883100 3.209500
1.907300 3.809100
1.931500 4.726900
1.955700 5.572800
1.979900 6.184600
2.004000 6.730900
2.028200 7.393400
2.052400 7.932900
2.076600 7.946400
2.100800 7.491200
2.125000 7.052000
2.149100 6.940400
2.173300 7.139200
2.197500 7.648900
2.221700 8.451900
2.245900 9.369400
2.270000 10.448400
2.294200 11.922800
2.318400 13.559100
2.342600 14.721500
2.366800 14.909800
2.391000 13.855700
2.415100 11.656800
2.439300 9.044100
2.463500 6.862800
2.487700 5.312200
2.511900 4.186200
2.536000 3.325600
2.560200 2.651400
2.584400 2.148000
2.608600 1.811400
2.632800 1.635300
2.656900 1.563500
2.681100 1.411000
2.705300 1.109200
2.729500 0.877300
2.753700 0.911800
2.777900 1.172100
2.802000 1.464900
2.826200 1.563600
2.850400 1.398400
2.874600 1.198600
2.898800 1.284400
2.922900 1.738300
2.947100 2.485200
2.971300 3.516100
2.995500 4.595400
3.019700 5.103500
3.043900 4.717100
3.068000 3.796800
3.092200 2.914100
3.116400 2.394100
3.140600 2.185400
3.164800 2.005100
3.188900 1.690100
3.213100 1.344700
3.237300 1.158400
3.261500 1.221100
3.285700 1.528800
3.309900 1.973500
3.334000 2.290400
3.358200 2.305100
3.382400 2.102400
3.406600 1.786900
3.430800 1.424600
3.454900 1.197400
3.479100 1.302300
3.503300 1.688600
3.527500 2.052400
3.551700 2.139800
3.575900 1.962000
3.600000 1.689200
3.624200 1.461100
3.648400 1.353000
3.672600 1.387300
3.696800 1.498500
3.720900 1.584000
3.745100 1.599000
3.769300 1.563600
3.793500 1.501100
3.817700 1.435900
3.841900 1.426600
3.866000 1.447600
3.890200 1.378500
3.914400 1.212400
3.938600 1.069200
3.962800 1.076200
3.986900 1.292200
4.011100 1.623000
4.035300 1.890200
4.059500 1.989400
4.083700 1.941100
4.107900 1.873100
4.132000 1.912300
4.156200 2.058900
4.180400 2.190500
4.204600 2.168500
4.228800 1.934300
4.252900 1.519400
4.277100 1.074700
4.301300 0.851900
4.325500 0.944900
4.349700 1.147700
4.373900 1.294300
4.398000 1.494300
4.422200 1.764600
4.446400 1.885700
4.470600 1.851100
4.494800 1.881700
4.518900 1.955900
4.543100 1.887800
4.567300 1.717200
4.591500 1.563100
4.615700 1.392800
4.639900 1.195900
4.664000 1.088000
4.688200 1.152100
4.712400 1.314500
4.736600 1.410900
4.760800 1.369600
4.784900 1.249900
4.809100 1.131200
4.833300 1.095900
4.857500 1.231000
4.881700 1.498600
4.905900 1.744300
4.930000 1.899500
4.954200 1.929700
4.978400 1.761900
5.002600 1.493600
5.026800 1.314500
5.050900 1.218700
5.075100 1.067700
5.099300 0.821200
5.123500 0.647100
5.147700 0.771800
5.171800 1.137900
5.196000 1.370600
5.220200 1.235300
5.244400 0.956500
5.268600 0.899500
5.292800 1.105100
5.316900 1.314000
5.341100 1.351700
5.365300 1.268700
5.389500 1.149300
5.413700 1.007900
5.437800 0.841300
5.462000 0.686600
5.486200 0.632300
5.510400 0.745400
5.534600 0.938100
5.558800 0.996100
5.582900 0.841200
5.607100 0.646800
5.631300 0.615000
5.655500 0.763000
5.679700 0.970300
5.703800 1.123100
5.728000 1.179200
5.752200 1.179400
5.776400 1.197600
5.800600 1.224200
5.824800 1.202500
5.848900 1.151700
5.873100 1.114600
5.897300 1.089400
5.921500 1.081200
5.945700 1.112000
5.969800 1.143600
5.994000 1.160300
6.018200 1.317200
6.042400 1.739500
6.066600 2.217700
6.090800 2.425900
6.114900 2.316600
6.139100 2.071600
6.163300 1.865700
6.187500 1.727800
6.211700 1.536800
6.235800 1.265700
6.260000 1.107400
6.284200 1.201100
6.308400 1.438800
6.332600 1.643100
6.356800 1.760800
6.380900 1.793800
6.405100 1.731900
6.429300 1.662400
6.453500 1.750900
6.477700 2.040200
6.501800 2.291900
6.526000 2.143200
6.550200 1.588400
6.574400 1.045000
6.598600 0.886400
6.622800 1.170800
6.646900 1.714500
6.671100 2.272000
6.695300 2.635600
6.719500 2.619000
6.743700 2.197900
6.767800 1.668700
6.792000 1.423400
6.816200 1.548800
6.840400 1.758600
6.864600 1.744900
6.888800 1.507200
6.912900 1.303900
6.937100 1.303000
6.961300 1.373600
6.985500 1.343600
7.009700 1.278200
7.033800 1.349500
7.058000 1.581000
7.082200 1.815100
7.106400 1.927900
7.130600 1.951600
7.154800 1.894400
7.178900 1.718000
7.203100 1.533100
7.227300 1.483300
7.251500 1.453200
7.275700 1.215100
7.299800 0.838400
7.324000 0.619700
7.348200 0.722900
7.372400 1.111000
7.396600 1.603100
7.420800 1.907000
7.444900 1.823800
7.469100 1.491700
7.493300 1.246600
7.517500 1.227000
7.541700 1.309300
7.565800 1.361900
7.590000 1.399100
7.614200 1.508500
7.638400 1.690800
7.662600 1.811200
7.686700 1.759000
7.710900 1.621000
7.735100 1.512000
7.759300 1.369300
7.783500 1.176800
7.807700 1.060700
7.831800 1.067300
7.856000 1.141100
7.880200 1.214800
7.904400 1.288800
7.928600 1.476200
7.952700 1.795400
7.976900 2.016400
8.001100 1.935100
8.025300 1.660000
8.049500 1.444200
8.073700 1.374400
8.097800 1.364300
8.122000 1.342600
8.146200 1.322200
8.170400 1.270400
8.194600 1.151100
8.218700 1.077900
8.242900 1.141800
8.267100 1.297600
8.291300 1.517800
8.315500 1.763400
8.339700 1.900200
8.363800 1.874500
8.388000 1.798000
8.412200 1.739500
8.436400 1.649700
8.460600 1.525000
8.484700 1.462800
8.508900 1.565600
8.533100 1.814400
8.557300 2.014800
8.581500 1.967400
8.605700 1.682900
8.629800 1.339200
8.654000 1.108200
8.678200 1.081200
8.702400 1.246600
8.726600 1.449800
8.750700 1.522400
8.774900 1.528800
8.799100 1.627200
8.823300 1.786800
8.847500 1.942300
8.871700 2.107800
8.895800 2.226800
8.920000 2.240400
8.944200 2.175400
8.968400 2.067100
8.992600 1.971300
9.016700 1.948300
9.040900 2.029000
9.065100 2.200800
9.089300 2.327800
9.113500 2.269900
9.137700 2.064200
9.161800 1.830800
9.186000 1.633200
9.210200 1.482000
9.234400 1.376200
9.258600 1.336200
9.282700 1.368800
9.306900 1.445500
9.331100 1.537900
9.355300 1.587700
9.379500 1.533100
9.403700 1.412000
9.427800 1.369100
9.452000 1.501700
9.476200 1.745000
9.500400 1.933300
9.524600 1.946400
9.548700 1.850400
9.572900 1.756100
9.597100 1.641500
9.621300 1.527200
9.645500 1.492800
9.669700 1.499200
9.693800 1.490300
9.718000 1.515200
9.742200 1.645300
9.766400 1.889400
9.790600 2.121000
9.814700 2.122900
9.838900 1.836200
9.863100 1.423800
9.887300 1.061600
9.911500 0.834600
9.935700 0.779000
9.959800 0.897200
9.984000 1.204900
10.008200 1.702100
10.032400 2.190200
10.056600 2.367000
10.080700 2.251300
10.104900 2.159300
10.129100 2.219600
10.153300 2.246200
10.177500 2.063800
10.201600 1.763500
10.225800 1.496900
10.250000 1.249800
10.274200 1.053100
10.298400 1.044100
10.322600 1.247100
10.346700 1.579600
10.370900 1.990100
10.395100 2.411500
10.419300 2.723400
10.443500 2.856400
10.467600 2.779100
10.491800 2.474300
10.516000 2.053500
10.540200 1.673600
10.564400 1.412500
10.588600 1.341400
10.612700 1.498700
10.636900 1.791600
10.661100 2.004400
10.685300 1.961300
10.709500 1.696600
10.733600 1.400700
10.757800 1.230900
10.782000 1.215700
10.806200 1.297200
10.830400 1.420500
10.854600 1.648400
10.878700 2.054100
10.902900 2.452000
10.927100 2.557600
10.951300 2.302300
10.975500 1.811900
10.999600 1.311800
11.023800 1.043700
11.048000 1.108100
11.072200 1.395100
11.096400 1.661000
11.120600 1.743400
11.144700 1.726800
11.168900 1.775900
11.193100 1.866600
11.217300 1.832000
11.241500 1.671900
11.265600 1.608400
11.289800 1.768200
11.314000 2.010200
11.338200 2.100500
11.362400 1.958700
11.386600 1.712300
11.410700 1.546900
11.434900 1.579400
11.459100 1.798300
11.483300 2.053300
11.507500 2.225600
11.531600 2.313600
11.555800 2.284000
11.580000 2.106500
11.604200 1.891900
11.628400 1.788200
11.652600 1.864300
11.676700 2.091200
11.700900 2.362300
11.725100 2.568200
11.749300 2.620500
11.773500 2.463400
11.797600 2.157400
11.821800 1.901600
11.846000 1.823300
11.870200 1.838400
11.894400 1.885500
11.918600 1.993700
11.942700 2.059400
11.966900 1.927000
11.991100 1.649400
12.015300 1.462500
12.039500 1.583700
12.063600 2.022700
12.087800 2.561800
12.112000 2.958300
12.136200 3.021000
12.160400 2.689800
12.184600 2.234900
12.208700 2.002000
12.232900 2.007700
12.257100 2.093900
12.281300 2.212400
12.305500 2.410600
12.329600 2.660300
12.353800 2.773600
12.378000 2.569800
12.402200 2.127400
12.426400 1.740700
12.450600 1.583400
12.474700 1.613700
12.498900 1.740800
12.523100 1.894500
12.547300 2.044900
12.571500 2.214900
12.595600 2.390500
12.619800 2.458700
12.644000 2.359000
12.668200 2.216500
12.692400 2.139900
12.716500 2.065100
12.740700 1.967700
12.764900 1.890700
12.789100 1.777500
12.813300 1.603200
12.837500 1.502600
12.861600 1.579700
12.885800 1.758400
12.910000 1.909100
12.934200 1.978200
12.958400 1.997100
12.982500 2.064500
13.006700 2.235300
13.030900 2.384300
13.055100 2.336000
13.079300 2.074100
13.103500 1.682900
13.127600 1.296300
13.151800 1.094600
13.176000 1.168800
13.200200 1.492100
13.224400 1.997100
13.248500 2.548200
13.272700 2.902700
13.296900 2.876800
13.321100 2.612200
13.345300 2.515600
13.369500 2.820800
13.393600 3.308300
13.417800 3.539800
13.442000 3.292900
13.466200 2.775900
13.490400 2.431200
13.514500 2.379600
13.538700 2.310300
13.562900 2.075700
13.587100 1.897800
13.611300 1.905100
13.635500 1.939400
13.659600 1.850100
13.683800 1.713100
13.708000 1.695600
13.732200 1.780800
13.756400 1.813100
13.780500 1.723100
13.804700 1.529400
13.828900 1.337500
13.853100 1.354000
13.877300 1.690500
13.901500 2.154900
13.925600 2.365400
13.949800 2.143600
13.974000 1.715000
13.998200 1.407600
14.022400 1.299600
14.046500 1.289900
14.070700 1.284100
14.094900 1.238900
14.119100 1.239400
14.143300 1.468300
14.167500 1.924300
14.191600 2.293900
14.215800 2.317200
14.240000 2.124800
14.264200 2.010700
14.288400 2.050700
14.312500 2.059200
14.336700 1.937300
14.360900 1.924600
14.385100 2.199000
14.409300 2.446500
14.433500 2.314100
14.457600 2.010300
14.481800 1.946300
14.506000 2.158400
14.530200 2.471800
14.554400 2.769600
14.578500 2.957600
14.602700 3.064300
14.626900 3.196300
14.651100 3.285500
14.675300 3.221700
14.699500 3.079100
14.723600 2.945800
14.747800 2.712700
14.772000 2.286700
14.796200 1.838700
14.820400 1.576400
14.844500 1.455500
14.868700 1.387800
14.892900 1.488000
14.917100 1.837800
14.941300 2.295500
14.965500 2.674600
14.989600 2.871600
15.013800 2.847600
15.038000 2.643400
15.062200 2.345200
15.086400 2.079600
15.110500 2.006700
15.134700 2.159700
15.158900 2.386000
15.183100 2.497500
15.207300 2.486500
15.231400 2.486900
15.255600 2.464800
15.279800 2.277700
15.304000 1.995200
15.328200 1.796000
15.352400 1.696200
15.376500 1.594300
15.400700 1.492300
15.424900 1.536900
15.449100 1.838400
15.473300 2.275300
15.497400 2.468200
15.521600 2.139000
15.545800 1.524300
15.570000 1.154000
15.594200 1.285100
15.618400 1.731900
15.642500 2.150300
15.666700 2.326000
15.690900 2.230300
15.715100 1.992500
15.739300 1.792500
15.763400 1.692400
15.787600 1.630300
15.811800 1.578800
15.836000 1.654900
15.860200 1.925200
15.884400 2.214000
15.908500 2.352600
15.932700 2.376200
15.956900 2.324600
15.981100 2.184400
16.005300 2.013000
16.029400 1.854400
16.053600 1.741100
16.077800 1.775100
16.102000 1.901000
16.126200 1.899700
16.150400 1.794500
16.174500 1.809800
16.198700 1.972100
16.222900 2.092500
16.247100 2.084600
16.271300 2.127900
16.295400 2.417000
16.319600 2.784900
16.343800 2.868200
16.368000 2.667200
16.392200 2.476400
16.416400 2.409100
16.440500 2.420000
16.464700 2.463500
16.488900 2.428700
16.513100 2.233200
16.537300 1.985400
16.561400 1.856800
16.585600 1.857100
16.609800 1.850500
16.634000 1.740300
16.658200 1.578200
16.682400 1.496600
16.706500 1.593600
16.730700 1.851700
16.754900 2.065600
16.779100 2.037000
16.803300 1.816000
16.827400 1.577400
16.851600 1.483800
16.875800 1.585800
16.900000 1.658100
16.924200 1.468000
16.948400 1.172800
16.972500 1.104600
16.996700 1.287700
17.020900 1.426300
17.045100 1.390500
17.069300 1.449900
17.093400 1.822300
17.117600 2.283700
17.141800 2.483400
17.166000 2.439600
17.190200 2.424700
17.214400 2.490700
17.238500 2.462300
17.262700 2.246400
17.286900 1.894800
17.311100 1.537900
17.335300 1.333700
17.359400 1.340300
17.383600 1.481700
17.407800 1.718100
17.432000 2.070200
17.456200 2.426800
17.480400 2.608800
17.504500 2.610200
17.528700 2.545300
17.552900 2.522300
17.577100 2.569500
17.601300 2.475200
17.625400 2.049000
17.649600 1.509900
17.673800 1.196300
17.698000 1.174200
17.722200 1.316000
17.746300 1.498100
17.770500 1.683200
17.794700 1.920800
17.818900 2.217600
17.843100 2.448400
17.867300 2.483200
17.891400 2.363000
17.915600 2.265500
17.939800 2.305100
17.964000 2.441400
17.988200 2.546900
18.012300 2.528100
18.036500 2.372200
18.060700 2.156800
18.084900 2.082100
18.109100 2.277900
18.133300 2.536600
18.157400 2.591600
18.181600 2.501100
18.205800 2.406200
18.230000 2.312500
18.254200 2.286800
18.278300 2.421000
18.302500 2.565300
18.326700 2.441800
18.350900 2.071800
18.375100 1.839400
18.399300 2.019500
18.423400 2.427200
18.447600 2.618100
18.471800 2.363700
18.496000 1.914200
18.520200 1.689000
18.544300 1.763700
18.568500 1.904400
18.592700 1.947500
18.616900 1.872800
18.641100 1.721700
18.665300 1.586300
18.689400 1.585200
18.713600 1.759400
18.737800 1.986400
18.762000 2.141100
18.786200 2.252000
18.810300 2.325400
18.834500 2.258800
18.858700 2.154500
18.882900 2.265400
18.907100 2.527200
18.931300 2.664800
18.955400 2.596600
18.979600 2.462500
19.003800 2.468800
19.028000 2.608800
19.052200 2.654100
19.076300 2.600200
19.100500 2.653400
19.124700 2.823000
19.148900 2.956400
19.173100 2.943200
19.197300 2.783400
19.221400 2.679400
19.245600 2.830500
19.269800 3.024300
19.294000 2.839300
19.318200 2.313900
19.342300 1.931000
19.366500 1.901600
19.390700 1.991900
19.414900 2.073200
19.439100 2.257600
19.463300 2.523300
19.487400 2.703500
19.511600 2.720300
19.535800 2.644300
19.560000 2.624200
19.584200 2.696700
19.608300 2.780800
19.632500 2.860500
19.656700 2.938900
19.680900 2.977300
19.705100 2.980300
19.729300 2.963100
19.753400 2.884400
19.777600 2.697300
19.801800 2.426900
19.826000 2.156400
19.850200 1.971500
19.874300 1.949800
19.898500 2.113600
19.922700 2.343100
19.946900 2.466700
19.971100 2.432200
19.995200 2.281000
20.019400 2.084800
