set title 'mp-570641 - Density of States'
set xlabel 'Energy (eV)'
set ylabel 'DOS (states/eV)'
set grid
set xrange [-10:10]
set yrange [0:17.664]
set xzeroaxis lt -1
set terminal png size 800,600
set output 'mp-570641_dos_gnuplot.png'
plot '-' using 1:2 with lines title 'DOS'
-8.768200 0.000000
-8.752500 0.000000
-8.736800 0.000000
-8.721200 0.000000
-8.705500 0.000000
-8.689800 0.000000
-8.674100 0.000000
-8.658400 0.000000
-8.642700 0.000000
-8.627100 0.000000
-8.611400 0.000000
-8.595700 0.000000
-8.580000 0.000000
-8.564300 0.000000
-8.548600 0.000000
-8.533000 0.000000
-8.517300 0.000000
-8.501600 0.000000
-8.485900 0.000000
-8.470200 0.000000
-8.454500 0.000000
-8.438900 0.000000
-8.423200 0.000000
-8.407500 0.000000
-8.391800 0.000000
-8.376100 0.000000
-8.360400 0.000000
-8.344800 0.000000
-8.329100 0.000000
-8.313400 0.000000
-8.297700 0.000000
-8.282000 0.000000
-8.266300 0.000000
-8.250700 0.000000
-8.235000 0.000000
-8.219300 0.000000
-8.203600 0.000000
-8.187900 0.000000
-8.172200 0.000000
-8.156600 0.000000
-8.140900 0.000000
-8.125200 0.000000
-8.109500 0.000000
-8.093800 0.000000
-8.078100 0.000000
-8.062500 0.000000
-8.046800 0.000000
-8.031100 0.000000
-8.015400 0.000000
-7.999700 0.000000
-7.984000 0.000000
-7.968400 0.000000
-7.952700 0.000000
-7.937000 0.000000
-7.921300 0.000000
-7.905600 0.000000
-7.889900 0.000000
-7.874300 0.000000
-7.858600 0.000000
-7.842900 0.000000
-7.827200 0.000000
-7.811500 0.000000
-7.795800 0.000000
-7.780200 0.000000
-7.764500 0.000000
-7.748800 0.000000
-7.733100 0.000000
-7.717400 0.000000
-7.701700 0.000000
-7.686100 0.000000
-7.670400 0.000000
-7.654700 0.000000
-7.639000 0.000000
-7.623300 0.000000
-7.607600 0.000000
-7.592000 0.000000
-7.576300 0.000000
-7.560600 0.000000
-7.544900 0.000000
-7.529200 0.000000
-7.513500 0.000000
-7.497900 0.000000
-7.482200 0.000000
-7.466500 0.000000
-7.450800 0.000000
-7.435100 0.000000
-7.419400 0.000000
-7.403800 0.000000
-7.388100 0.000000
-7.372400 0.000000
-7.356700 0.000000
-7.341000 0.000000
-7.325300 0.004900
-7.309700 0.014200
-7.294000 0.027500
-7.278300 0.043800
-7.262600 0.060200
-7.246900 0.076600
-7.231200 0.092900
-7.215600 0.111500
-7.199900 0.132700
-7.184200 0.155200
-7.168500 0.179000
-7.152800 0.204100
-7.137100 0.230400
-7.121500 0.257900
-7.105800 0.286400
-7.090100 0.316000
-7.074400 0.346700
-7.058700 0.378400
-7.043000 0.411100
-7.027400 0.444100
-7.011700 0.477200
-6.996000 0.511300
-6.980300 0.546200
-6.964600 0.582000
-6.948900 0.618700
-6.933300 0.656300
-6.917600 0.694700
-6.901900 0.734100
-6.886200 0.774200
-6.870500 0.815000
-6.854800 0.856500
-6.839200 0.898600
-6.823500 0.941400
-6.807800 0.984900
-6.792100 1.029100
-6.776400 1.073900
-6.760700 1.119500
-6.745100 1.166500
-6.729400 1.215700
-6.713700 1.265000
-6.698000 1.314200
-6.682300 1.363400
-6.666600 1.412600
-6.651000 1.325000
-6.635300 1.286200
-6.619600 1.254000
-6.603900 1.237800
-6.588200 1.272400
-6.572500 1.307000
-6.556900 1.320500
-6.541200 1.313200
-6.525500 1.313000
-6.509800 1.318700
-6.494100 1.328500
-6.478400 1.339200
-6.462800 1.349900
-6.447100 1.360600
-6.431400 1.369600
-6.415700 1.358400
-6.400000 1.341900
-6.384300 1.371600
-6.368700 1.401800
-6.353000 1.432500
-6.337300 1.463600
-6.321600 1.495200
-6.305900 1.489900
-6.290200 1.491000
-6.274600 1.502700
-6.258900 1.516800
-6.243200 1.530900
-6.227500 1.545000
-6.211800 1.559000
-6.196100 1.573000
-6.180500 1.587000
-6.164800 1.601100
-6.149100 1.615500
-6.133400 1.630000
-6.117700 1.643800
-6.102000 1.656500
-6.086400 1.668000
-6.070700 1.678300
-6.055000 1.687500
-6.039300 1.695500
-6.023600 1.709100
-6.007900 1.735600
-5.992300 1.762600
-5.976600 1.790000
-5.960900 1.811700
-5.945200 1.823400
-5.929500 1.835600
-5.913800 1.848500
-5.898200 1.862000
-5.882500 1.876000
-5.866800 1.890700
-5.851100 1.905900
-5.835400 1.921600
-5.819700 1.937600
-5.804100 1.953800
-5.788400 1.970200
-5.772700 1.986800
-5.757000 2.003400
-5.741300 2.020100
-5.725600 2.036800
-5.710000 2.053500
-5.694300 2.070300
-5.678600 2.087100
-5.662900 2.104000
-5.647200 2.122400
-5.631500 2.139600
-5.615900 2.148700
-5.600200 2.149300
-5.584500 2.141500
-5.568800 2.139900
-5.553100 2.163900
-5.537400 2.187800
-5.521800 2.211800
-5.506100 2.235800
-5.490400 2.259700
-5.474700 2.283700
-5.459000 2.307700
-5.443300 2.331700
-5.427700 2.355700
-5.412000 2.367800
-5.396300 2.373900
-5.380600 2.382400
-5.364900 2.397200
-5.349200 2.414400
-5.333600 2.432900
-5.317900 2.451700
-5.302200 2.470500
-5.286500 2.489300
-5.270800 2.508200
-5.255100 2.527100
-5.239500 2.546100
-5.223800 2.565300
-5.208100 2.584500
-5.192400 2.603900
-5.176700 2.623300
-5.161000 2.642900
-5.145400 2.662800
-5.129700 2.682800
-5.114000 2.703000
-5.098300 2.723400
-5.082600 2.743500
-5.066900 2.763200
-5.051300 2.782600
-5.035600 2.801600
-5.019900 2.820200
-5.004200 2.838600
-4.988500 2.856600
-4.972800 2.874200
-4.957200 2.891600
-4.941500 2.908600
-4.925800 2.927400
-4.910100 2.956300
-4.894400 2.985600
-4.878700 3.015500
-4.863100 3.046000
-4.847400 3.076900
-4.831700 3.101300
-4.816000 3.122800
-4.800300 3.144700
-4.784600 3.171300
-4.769000 3.385700
-4.753300 3.556200
-4.737600 3.589400
-4.721900 3.602100
-4.706200 3.615100
-4.690500 3.629500
-4.674900 3.663900
-4.659200 3.723900
-4.643500 3.808700
-4.627800 3.901200
-4.612100 3.977500
-4.596400 4.041400
-4.580800 4.076100
-4.565100 4.097600
-4.549400 4.106200
-4.533700 4.111300
-4.518000 4.116600
-4.502300 4.122400
-4.486700 4.130200
-4.471000 4.143600
-4.455300 4.162900
-4.439600 4.188000
-4.423900 4.233100
-4.408200 4.282300
-4.392600 4.330700
-4.376900 4.393900
-4.361200 4.443800
-4.345500 4.479400
-4.329800 4.500600
-4.314100 4.507500
-4.298500 4.499500
-4.282800 4.506400
-4.267100 4.509800
-4.251400 4.510200
-4.235700 4.513200
-4.220000 4.516600
-4.204400 4.520200
-4.188700 4.524100
-4.173000 4.528300
-4.157300 4.532900
-4.141600 4.541100
-4.125900 4.554300
-4.110300 4.572700
-4.094600 4.586800
-4.078900 4.602000
-4.063200 4.623300
-4.047500 4.650800
-4.031800 4.684400
-4.016200 4.726700
-4.000500 4.773900
-3.984800 4.808500
-3.969100 4.844800
-3.953400 4.880400
-3.937700 4.895300
-3.922100 4.906700
-3.906400 4.914500
-3.890700 4.918700
-3.875000 4.919400
-3.859300 4.916500
-3.843600 4.913600
-3.828000 4.910700
-3.812300 4.908200
-3.796600 4.907200
-3.780900 4.906000
-3.765200 4.905400
-3.749500 4.906000
-3.733900 4.907600
-3.718200 4.910000
-3.702500 4.913300
-3.686800 4.917400
-3.671100 4.922400
-3.655400 4.928300
-3.639800 4.942200
-3.624100 4.969300
-3.608400 4.995500
-3.592700 5.042500
-3.577000 5.101900
-3.561300 5.154400
-3.545700 5.199800
-3.530000 5.238100
-3.514300 5.266700
-3.498600 5.275000
-3.482900 5.023000
-3.467200 5.025900
-3.451600 5.021600
-3.435900 7.844000
-3.420200 5.153300
-3.404500 4.672900
-3.388800 4.636900
-3.373100 4.599600
-3.357500 4.561600
-3.341800 4.523000
-3.326100 5.308100
-3.310400 7.394100
-3.294700 5.165300
-3.279000 4.095200
-3.263400 4.033400
-3.247700 4.005200
-3.232000 4.004900
-3.216300 4.012500
-3.200600 4.027700
-3.184900 4.050500
-3.169300 4.080900
-3.153600 4.934500
-3.137900 5.390100
-3.122200 5.430300
-3.106500 4.907400
-3.090800 4.476000
-3.075200 4.255700
-3.059500 4.246600
-3.043800 4.339800
-3.028100 4.416200
-3.012400 4.537700
-2.996700 4.731300
-2.981100 4.996900
-2.965400 5.253700
-2.949700 5.230300
-2.934000 5.062600
-2.918300 4.750600
-2.902600 4.297200
-2.887000 3.905500
-2.871300 3.868300
-2.855600 3.825300
-2.839900 3.783100
-2.824200 3.743200
-2.808500 3.705600
-2.792900 3.670200
-2.777200 3.738000
-2.761500 4.045600
-2.745800 4.271300
-2.730100 4.415300
-2.714400 4.500800
-2.698800 4.498900
-2.683100 4.341200
-2.667400 4.567100
-2.651700 4.880900
-2.636000 5.253500
-2.620300 5.547200
-2.604700 5.744400
-2.589000 5.844900
-2.573300 5.820000
-2.557600 5.547200
-2.541900 5.059400
-2.526200 4.154500
-2.510600 3.904600
-2.494900 3.594300
-2.479200 3.223800
-2.463500 3.270900
-2.447800 4.010800
-2.432100 5.580400
-2.416500 12.495400
-2.400800 16.058200
-2.385100 11.536600
-2.369400 7.370100
-2.353700 4.016200
-2.338000 0.971500
-2.322400 0.038300
-2.306700 0.000000
-2.291000 0.000000
-2.275300 0.000000
-2.259600 0.000000
-2.243900 0.000000
-2.228300 0.000000
-2.212600 0.000000
-2.196900 0.000000
-2.181200 0.000000
-2.165500 0.000000
-2.149800 0.000000
-2.134200 0.000000
-2.118500 0.000000
-2.102800 0.000000
-2.087100 0.000000
-2.071400 0.000000
-2.055700 0.000000
-2.040100 0.000000
-2.024400 0.000000
-2.008700 0.000000
-1.993000 0.000000
-1.977300 0.000000
-1.961600 0.000000
-1.946000 0.000000
-1.930300 0.000000
-1.914600 0.000000
-1.898900 0.000000
-1.883200 0.000000
-1.867500 0.000000
-1.851900 0.000000
-1.836200 0.000000
-1.820500 0.000000
-1.804800 0.000000
-1.789100 0.000000
-1.773400 0.000000
-1.757800 0.000000
-1.742100 0.000000
-1.726400 0.000000
-1.710700 0.000000
-1.695000 0.000000
-1.679300 0.000000
-1.663700 0.000000
-1.648000 0.000000
-1.632300 0.000000
-1.616600 0.000000
-1.600900 0.000000
-1.585200 0.000000
-1.569600 0.000000
-1.553900 0.000000
-1.538200 0.000000
-1.522500 0.000000
-1.506800 0.000000
-1.491100 0.000000
-1.475500 0.000000
-1.459800 0.000000
-1.444100 0.000000
-1.428400 0.000000
-1.412700 0.000000
-1.397000 0.000000
-1.381400 0.000000
-1.365700 0.000000
-1.350000 0.000000
-1.334300 0.000000
-1.318600 0.000000
-1.302900 0.000000
-1.287300 0.000000
-1.271600 0.000000
-1.255900 0.000000
-1.240200 0.000000
-1.224500 0.000000
-1.208800 0.000000
-1.193200 0.000000
-1.177500 0.000000
-1.161800 0.000000
-1.146100 0.000000
-1.130400 0.000000
-1.114700 0.000000
-1.099100 0.000000
-1.083400 0.000000
-1.067700 0.000000
-1.052000 0.000000
-1.036300 0.000000
-1.020600 0.000000
-1.005000 0.000000
-0.989300 0.000000
-0.973600 0.000000
-0.957900 0.000000
-0.942200 0.000000
-0.926500 0.000000
-0.910900 0.000000
-0.895200 0.000000
-0.879500 0.000000
-0.863800 0.000000
-0.848100 0.000000
-0.832400 0.000000
-0.816700 0.000000
-0.801100 0.000000
-0.785400 0.000000
-0.769700 0.000000
-0.754000 0.000000
-0.738300 0.000000
-0.722600 0.000000
-0.707000 0.000000
-0.691300 0.000000
-0.675600 0.000000
-0.659900 0.000000
-0.644200 0.000000
-0.628500 0.000000
-0.612900 0.000000
-0.597200 0.000000
-0.581500 0.000000
-0.565800 0.000000
-0.550100 0.000000
-0.534400 0.000000
-0.518800 0.000000
-0.503100 0.000000
-0.487400 0.000000
-0.471700 0.001100
-0.456000 0.004000
-0.440300 0.008700
-0.424700 0.015300
-0.409000 0.023600
-0.393300 0.033000
-0.377600 0.043000
-0.361900 0.053600
-0.346200 0.064900
-0.330600 0.076800
-0.314900 0.089300
-0.299200 0.102500
-0.283500 0.116300
-0.267800 0.130700
-0.252100 0.145800
-0.236500 0.161500
-0.220800 0.177800
-0.205100 0.194700
-0.189400 0.213100
-0.173700 0.234300
-0.158000 0.255500
-0.142400 0.276800
-0.126700 0.298000
-0.111000 0.319200
-0.095300 0.340400
-0.079600 0.361600
-0.063900 0.382800
-0.048300 0.403900
-0.032600 0.425100
-0.016900 0.446200
-0.001200 0.467400
0.014500 1.144300
0.030200 1.797000
0.045800 2.446400
0.061500 3.092400
0.077200 3.735000
0.092900 4.374400
0.108600 5.010400
0.124300 4.866400
0.139900 4.363700
0.155600 5.252500
0.171300 5.468600
0.187000 4.974700
0.202700 5.280400
0.218400 6.106600
0.234000 6.722500
0.249700 6.867700
0.265400 6.457600
0.281100 5.260200
0.296800 4.486500
0.312500 4.192300
0.328100 4.178200
0.343800 4.160800
0.359500 4.337800
0.375200 4.855000
0.390900 5.712500
0.406600 6.670200
0.422200 8.298800
0.437900 8.370200
0.453600 7.722600
0.469300 10.903900
0.485000 6.133100
0.500700 5.119100
0.516300 5.056300
0.532000 4.993300
0.547700 4.930300
0.563400 4.868200
0.579100 4.830800
0.594800 5.486200
0.610400 7.138000
0.626100 8.177200
0.641800 8.213100
0.657500 7.871100
0.673200 7.365100
0.688900 7.163000
0.704500 7.117100
0.720200 7.410400
0.735900 5.464800
0.751600 5.155200
0.767300 5.342200
0.783000 8.809200
0.798600 6.452400
0.814300 6.610300
0.830000 6.699000
0.845700 6.718700
0.861400 6.669300
0.877100 6.449900
0.892700 6.144000
0.908400 5.984600
0.924100 6.188900
0.939800 6.345800
0.955500 6.450200
0.971200 6.485500
0.986800 6.409900
1.002500 6.233200
1.018200 5.660300
1.033900 4.968600
1.049600 4.949200
1.065300 4.970200
1.080900 4.987400
1.096600 5.011500
1.112300 5.051100
1.128000 5.098100
1.143700 5.152600
1.159400 7.155100
1.175000 8.466200
1.190700 5.430200
1.206400 5.537600
1.222100 5.586700
1.237800 5.569400
1.253500 5.485700
1.269100 5.335600
1.284800 5.089400
1.300500 4.252300
1.316200 4.220200
1.331900 4.194400
1.347600 4.174900
1.363200 4.168000
1.378900 4.270600
1.394600 4.514100
1.410300 4.898600
1.426000 5.384300
1.441700 5.485500
1.457300 5.408300
1.473000 5.152500
1.488700 4.681400
1.504400 4.527800
1.520100 4.525200
1.535800 4.537100
1.551400 4.561200
1.567100 4.597000
1.582800 4.638300
1.598500 4.586900
1.614200 4.511400
1.629900 4.445700
1.645500 4.389900
1.661200 4.343900
1.676900 4.307700
1.692600 4.281500
1.708300 4.268000
1.724000 4.263100
1.739600 4.250100
1.755300 4.222300
1.771000 4.179800
1.786700 4.122600
1.802400 4.050600
1.818100 4.002300
1.833700 3.973700
1.849400 3.944800
1.865100 3.915900
1.880800 3.886800
1.896500 3.857500
1.912200 3.828100
1.927800 3.798500
1.943500 3.768600
1.959200 3.737900
1.974900 3.705900
1.990600 3.672500
2.006300 3.637800
2.021900 3.601900
2.037600 3.576700
2.053300 3.556800
2.069000 3.536700
2.084700 3.516400
2.100400 3.495900
2.116000 3.475200
2.131700 3.454300
2.147400 3.433200
2.163100 3.420900
2.178800 3.414800
2.194500 3.407300
2.210100 3.397600
2.225800 3.385700
2.241500 3.357600
2.257200 3.317800
2.272900 3.274100
2.288600 3.226500
2.304200 3.175000
2.319900 3.119500
2.335600 3.060200
2.351300 2.996900
2.367000 2.928900
2.382700 2.856200
2.398300 2.778100
2.414000 2.697000
2.429700 2.613300
2.445400 2.527100
2.461100 2.444600
2.476800 2.313700
2.492400 2.286900
2.508100 2.264400
2.523800 2.242200
2.539500 2.220400
2.555200 2.198900
2.570900 2.177800
2.586500 2.691000
2.602200 3.265900
2.617900 3.204900
2.633600 3.299000
2.649300 3.439700
2.665000 3.558500
2.680600 3.655500
2.696300 3.730900
2.712000 3.786900
2.727700 3.844100
2.743400 4.003800
2.759100 4.272300
2.774700 4.543300
2.790400 8.724700
2.806100 7.485700
2.821800 6.524000
2.837500 6.264300
2.853200 6.000100
2.868800 5.731000
2.884500 8.393400
2.900200 6.832400
2.915900 6.717100
2.931600 6.579200
2.947300 6.417400
2.962900 6.218100
2.978600 5.979800
2.994300 5.701900
3.010000 5.421300
3.025700 5.312700
3.041400 5.438800
3.057000 6.490700
3.072700 7.005200
3.088400 6.981100
3.104100 5.871400
3.119800 5.332700
3.135500 5.183100
3.151100 5.077300
3.166800 5.003600
3.182500 4.923400
3.198200 4.830800
3.213900 4.725800
3.229600 4.608200
3.245200 4.478200
3.260900 4.335800
3.276600 4.281500
3.292300 4.247900
3.308000 4.213800
3.323700 4.645800
3.339300 6.904800
3.355000 7.072600
3.370700 5.461900
3.386400 5.801400
3.402100 5.836500
3.417800 5.800000
3.433400 5.691800
3.449100 5.511900
3.464800 5.229800
3.480500 5.008900
3.496200 4.948600
3.511900 4.890700
3.527500 4.835000
3.543200 4.781700
3.558900 4.730600
3.574600 4.688500
3.590300 4.719600
3.606000 4.759100
3.621600 4.802500
3.637300 4.833000
3.653000 4.850700
3.668700 4.855600
3.684400 4.847800
3.700100 4.827100
3.715700 4.793600
3.731400 4.753200
3.747100 4.961900
3.762800 5.507700
3.778500 5.855800
3.794200 6.004700
3.809800 5.945500
3.825500 5.804900
3.841200 5.687500
3.856900 5.592400
3.872600 5.519500
3.888300 5.468700
3.903900 5.440600
3.919600 5.434700
3.935300 5.437500
3.951000 5.439300
3.966700 5.440000
3.982400 5.434900
3.998000 5.418400
4.013700 5.423200
4.029400 5.505700
4.045100 5.575600
4.060800 5.674200
4.076500 5.808800
4.092100 5.979400
4.107800 6.186300
4.123500 6.428200
4.139200 6.804800
4.154900 6.819700
4.170600 6.366400
4.186200 5.998200
4.201900 5.988900
4.217600 5.976000
4.233300 5.964600
4.249000 6.079300
4.264700 6.258700
4.280300 6.428100
4.296000 6.574300
4.311700 6.699900
4.327400 6.825600
4.343100 6.945100
4.358800 7.054900
4.374400 7.154700
4.390100 7.237300
4.405800 7.030200
4.421500 6.777300
4.437200 6.792000
4.452900 6.808200
4.468500 6.825400
4.484200 6.917900
4.499900 8.217400
4.515600 8.445400
4.531300 8.487500
4.547000 8.363300
4.562600 8.062300
4.578300 7.715900
4.594000 7.745700
4.609700 7.776500
4.625400 7.808400
4.641100 7.841300
4.656700 7.874900
4.672400 7.908600
4.688100 8.506400
4.703800 9.492500
4.719500 10.038600
4.735200 10.116000
4.750800 9.262000
4.766500 9.005800
4.782200 9.041000
4.797900 9.062200
4.813600 9.069400
4.829300 9.062100
4.844900 9.039800
4.860600 9.000700
4.876300 8.963500
4.892000 10.747900
4.907700 10.944400
4.923400 10.444400
4.939000 9.986700
4.954700 9.616700
4.970400 9.470100
4.986100 9.433500
5.001800 9.387500
5.017500 9.326900
5.033100 9.283800
5.048800 9.242400
5.064500 9.137000
5.080200 9.052100
5.095900 9.047100
5.111600 8.876400
5.127200 8.777700
5.142900 8.728500
5.158600 8.683600
5.174300 8.626000
5.190000 8.481200
5.205700 8.356700
5.221300 8.307900
5.237000 8.258900
5.252700 8.276900
5.268400 8.442000
5.284100 8.755600
5.299800 9.217500
5.315400 9.827600
5.331100 10.354500
5.346800 9.903800
5.362500 9.262800
5.378200 9.170800
5.393900 9.090000
5.409500 9.040000
5.425200 8.990900
5.440900 8.942600
5.456600 8.871700
5.472300 8.789300
5.488000 8.709700
5.503600 8.632400
5.519300 8.557000
5.535000 8.480400
5.550700 8.403500
5.566400 9.310200
5.582100 10.985700
5.597700 11.156000
5.613400 10.689600
5.629100 10.080300
5.644800 9.723500
5.660500 9.487600
5.676200 9.357300
5.691800 9.253100
5.707500 9.147700
5.723200 9.042100
5.738900 8.929400
5.754600 8.767600
5.770300 8.564500
5.785900 8.389000
5.801600 8.278700
5.817300 8.191300
5.833000 8.089300
5.848700 7.988700
5.864400 7.906500
5.880000 7.844800
5.895700 7.836500
5.911400 7.763700
5.927100 7.694300
5.942800 7.623000
5.958500 10.508900
5.974100 10.580700
5.989800 8.616300
6.005500 8.500600
6.021200 8.462300
6.036900 8.422700
6.052600 8.380700
6.068200 8.334600
6.083900 8.284900
6.099600 8.234000
6.115300 8.180700
6.131000 10.257000
6.146700 10.550000
6.162300 9.725500
6.178000 8.752800
6.193700 8.758200
6.209400 8.765800
6.225100 8.761000
6.240800 8.734200
6.256400 8.703900
6.272100 8.668200
6.287800 8.967100
6.303500 9.938200
6.319200 10.452500
6.334900 10.528800
6.350500 9.120000
6.366200 9.036000
6.381900 9.061300
6.397600 9.053900
6.413300 8.946300
6.429000 8.823800
6.444600 8.788200
6.460300 8.763300
6.476000 8.745700
6.491700 8.726500
6.507400 8.696300
6.523100 8.656000
6.538700 8.614500
6.554400 8.609900
6.570100 8.604600
6.585800 8.598800
6.601500 8.592200
6.617200 8.585300
6.632800 8.538900
6.648500 8.382300
6.664200 8.218300
6.679900 8.086300
6.695600 7.949800
6.711300 7.869200
6.726900 7.843600
6.742600 7.835900
6.758300 7.641300
6.774000 7.382900
6.789700 7.290200
6.805400 7.208500
6.821000 7.113700
6.836700 7.000300
6.852400 6.868400
6.868100 6.799000
6.883800 6.749700
6.899500 6.692600
6.915100 6.634300
6.930800 6.462600
6.946500 6.314200
6.962200 6.196000
6.977900 6.048600
6.993600 5.852900
7.009200 5.579900
7.024900 5.509900
7.040600 5.444500
7.056300 5.383400
7.072000 5.304400
7.087700 5.217000
7.103300 5.145000
7.119000 5.076100
7.134700 5.009800
7.150400 5.044200
7.166100 4.954200
7.181800 4.864900
7.197400 4.777100
7.213100 4.700000
7.228800 4.627500
7.244500 4.550200
7.260200 4.468100
7.275900 4.381800
7.291500 4.300800
7.307200 4.228500
7.322900 4.165100
7.338600 4.067000
7.354300 3.972100
7.370000 3.905100
7.385600 3.866200
7.401300 3.821300
7.417000 3.760100
7.432700 3.702400
7.448400 3.655100
7.464100 3.619900
7.479700 3.585800
7.495400 3.495500
7.511100 3.391700
7.526800 3.310400
7.542500 3.237600
7.558200 3.182900
7.573800 3.142700
7.589500 3.020100
7.605200 2.964300
7.620900 2.970200
7.636600 3.024500
7.652300 2.871600
7.667900 2.701400
7.683600 2.532500
7.699300 2.365200
7.715000 2.199700
7.730700 2.040500
7.746400 1.884300
7.762000 1.729400
7.777700 1.575300
7.793400 1.421900
7.809100 1.271700
7.824800 1.126000
7.840500 0.984600
7.856100 0.846400
7.871800 0.710700
7.887500 0.579100
