set title 'mp-1056831 - Density of States'
set xlabel 'Energy (eV)'
set ylabel 'DOS (states/eV)'
set grid
set xrange [-10:10]
set yrange [0:0.880]
set xzeroaxis lt -1
set terminal png size 800,600
set output 'mp-1056831_dos_gnuplot.png'
plot '-' using 1:2 with lines title 'DOS'
-34.694300 0.000000
-34.600700 0.000000
-34.507100 0.000000
-34.413500 0.000000
-34.319900 0.000000
-34.226300 0.000000
-34.132700 0.000000
-34.039100 0.000000
-33.945500 0.000000
-33.851900 0.000000
-33.758300 0.000000
-33.664700 0.000000
-33.571100 0.000000
-33.477500 0.000000
-33.383900 0.000000
-33.290300 0.000000
-33.196700 0.000000
-33.103100 0.000000
-33.009500 0.000000
-32.915900 0.000000
-32.822300 0.000000
-32.728700 0.000000
-32.635100 0.000000
-32.541500 0.000000
-32.447900 0.000000
-32.354300 0.000000
-32.260700 0.000000
-32.167100 0.000000
-32.073500 0.000000
-31.979900 0.000000
-31.886300 0.000000
-31.792700 0.000000
-31.699100 0.000000
-31.605500 0.000000
-31.511900 0.000000
-31.418300 0.000000
-31.324700 0.000000
-31.231100 0.000000
-31.137500 0.000000
-31.043900 0.000000
-30.950300 0.000000
-30.856700 0.000000
-30.763100 0.000000
-30.669500 0.000000
-30.575900 0.000000
-30.482300 0.000000
-30.388700 0.000000
-30.295100 0.000000
-30.201500 0.000000
-30.107900 0.000000
-30.014300 0.000000
-29.920700 0.000000
-29.827100 0.000000
-29.733500 0.000000
-29.639900 0.000000
-29.546300 0.000000
-29.452700 0.000000
-29.359100 0.000000
-29.265500 0.000000
-29.171900 0.000000
-29.078300 0.000000
-28.984700 0.000000
-28.891100 0.000000
-28.797500 0.000000
-28.703900 0.000000
-28.610300 0.000000
-28.516700 0.000000
-28.423100 0.000000
-28.329500 0.000000
-28.235900 0.000000
-28.142300 0.000000
-28.048700 0.000000
-27.955100 0.000000
-27.861500 0.000000
-27.767900 0.000000
-27.674300 0.000000
-27.580700 0.000000
-27.487100 0.000000
-27.393500 0.000000
-27.299900 0.000000
-27.206300 0.000000
-27.112700 0.000000
-27.019100 0.000000
-26.925500 0.000000
-26.831900 0.000000
-26.738300 0.000000
-26.644700 0.000000
-26.551100 0.000000
-26.457500 0.000000
-26.363800 0.000000
-26.270200 0.000000
-26.176600 0.194900
-26.083000 0.472700
-25.989400 0.421200
-25.895800 0.336800
-25.802200 0.281100
-25.708600 0.235900
-25.615000 0.201100
-25.521400 0.201100
-25.427800 0.180200
-25.334200 0.156700
-25.240600 0.156700
-25.147000 0.156700
-25.053400 0.145100
-24.959800 0.128500
-24.866200 0.128500
-24.772600 0.128500
-24.679000 0.128500
-24.585400 0.120900
-24.491800 0.109100
-24.398200 0.109100
-24.304600 0.109100
-24.211000 0.109100
-24.117400 0.109100
-24.023800 0.103200
-23.930200 0.095000
-23.836600 0.095000
-23.743000 0.095000
-23.649400 0.095000
-23.555800 0.095000
-23.462200 0.095000
-23.368600 0.089500
-23.275000 0.084200
-23.181400 0.084200
-23.087800 0.084200
-22.994200 0.084200
-22.900600 0.084200
-22.807000 0.084200
-22.713400 0.084200
-22.619800 0.078600
-22.526200 0.075700
-22.432600 0.075700
-22.339000 0.075700
-22.245400 0.075700
-22.151800 0.075700
-22.058200 0.075700
-21.964600 0.075700
-21.871000 0.073200
-21.777400 0.069000
-21.683800 0.069000
-21.590200 0.069000
-21.496600 0.069000
-21.403000 0.069000
-21.309400 0.069000
-21.215800 0.069000
-21.122200 0.069000
-21.028600 0.069000
-20.935000 0.065100
-20.841400 0.063500
-20.747800 0.063500
-20.654200 0.063500
-20.560600 0.063500
-20.467000 0.063500
-20.373400 0.063500
-20.279800 0.063500
-20.186200 0.063500
-20.092600 0.063500
-19.999000 0.060800
-19.905400 0.059100
-19.811800 0.059100
-19.718200 0.059100
-19.624600 0.059100
-19.531000 0.059100
-19.437400 0.059100
-19.343800 0.059100
-19.250200 0.059100
-19.156600 0.059100
-19.063000 0.059100
-18.969400 0.056900
-18.875800 0.055600
-18.782200 0.055600
-18.688600 0.055600
-18.595000 0.055600
-18.501400 0.055600
-18.407800 0.055600
-18.314200 0.055600
-18.220600 0.055600
-18.127000 0.055600
-18.033400 0.055600
-17.939800 0.055200
-17.846200 0.053600
-17.752600 0.053600
-17.659000 0.053600
-17.565400 0.053600
-17.471800 0.053600
-17.378200 0.053600
-17.284600 0.053600
-17.191000 0.053600
-17.097400 0.053600
-17.003800 0.053600
-16.910200 0.053600
-16.816600 0.053800
-16.723000 0.057800
-16.629400 0.057800
-16.535800 0.057800
-16.442200 0.057800
-16.348600 0.057800
-16.255000 0.057800
-16.161400 0.057800
-16.067800 0.057800
-15.974200 0.057800
-15.880600 0.057800
-15.787000 0.057800
-15.693400 0.259400
-15.599800 0.000000
-15.506200 0.000000
-15.412600 0.000000
-15.319000 0.000000
-15.225400 0.000000
-15.131800 0.000000
-15.038200 0.000000
-14.944600 0.000000
-14.851000 0.000000
-14.757400 0.000000
-14.663800 0.000000
-14.570200 0.000000
-14.476600 0.000000
-14.383000 0.000000
-14.289400 0.000000
-14.195800 0.000000
-14.102200 0.000000
-14.008600 0.000000
-13.915000 0.000000
-13.821400 0.000000
-13.727800 0.387300
-13.634200 0.051600
-13.540600 0.051600
-13.447000 0.051600
-13.353400 0.051600
-13.259800 0.051600
-13.166200 0.051600
-13.072600 0.051600
-12.979000 0.051600
-12.885400 0.051600
-12.791800 0.051600
-12.698200 0.051600
-12.604600 0.051600
-12.510900 0.045200
-12.417300 0.043900
-12.323700 0.043900
-12.230100 0.043900
-12.136500 0.043900
-12.042900 0.043900
-11.949300 0.043900
-11.855700 0.043900
-11.762100 0.043900
-11.668500 0.043900
-11.574900 0.043900
-11.481300 0.043900
-11.387700 0.043900
-11.294100 0.043900
-11.200500 0.043900
-11.106900 0.041500
-11.013300 0.041500
-10.919700 0.041500
-10.826100 0.041500
-10.732500 0.041500
-10.638900 0.041500
-10.545300 0.041500
-10.451700 0.041500
-10.358100 0.041500
-10.264500 0.041500
-10.170900 0.041500
-10.077300 0.041500
-9.983700 0.041500
-9.890100 0.041500
-9.796500 0.041500
-9.702900 0.040900
-9.609300 0.040100
-9.515700 0.040100
-9.422100 0.201300
-9.328500 0.190900
-9.234900 0.180400
-9.141300 0.191900
-9.047700 0.192700
-8.954100 0.427100
-8.860500 0.566200
-8.766900 0.799600
-8.673300 0.587000
-8.579700 0.502600
-8.486100 0.486200
-8.392500 0.478300
-8.298900 0.483900
-8.205300 0.496100
-8.111700 0.428700
-8.018100 0.400900
-7.924500 0.378900
-7.830900 0.355900
-7.737300 0.338600
-7.643700 0.330400
-7.550100 0.323400
-7.456500 0.313700
-7.362900 0.302500
-7.269300 0.291800
-7.175700 0.289800
-7.082100 0.288000
-6.988500 0.281800
-6.894900 0.274700
-6.801300 0.267800
-6.707700 0.266300
-6.614100 0.275400
-6.520500 0.273800
-6.426900 0.268400
-6.333300 0.264400
-6.239700 0.262300
-6.146100 0.261300
-6.052500 0.260500
-5.958900 0.259500
-5.865300 0.257000
-5.771700 0.255300
-5.678100 0.254500
-5.584500 0.226700
-5.490900 0.211400
-5.397300 0.205700
-5.303700 0.190400
-5.210100 0.129600
-5.116500 0.195400
-5.022900 0.296100
-4.929300 0.262700
-4.835700 0.274100
-4.742100 0.285200
-4.648500 0.267100
-4.554900 0.251800
-4.461300 0.250900
-4.367700 0.252500
-4.274100 0.254700
-4.180500 0.256200
-4.086900 0.260800
-3.993300 0.269400
-3.899700 0.270600
-3.806100 0.275400
-3.712500 0.281600
-3.618900 0.284200
-3.525300 0.301100
-3.431700 0.311300
-3.338100 0.322900
-3.244500 0.338000
-3.150900 0.347800
-3.057300 0.405500
-2.963700 0.456600
-2.870100 0.494900
-2.776500 0.614800
-2.682900 0.615000
-2.589300 0.239500
-2.495700 0.195100
-2.402100 0.038800
-2.308500 0.038800
-2.214900 0.038800
-2.121300 0.038800
-2.027700 0.038800
-1.934100 0.039100
-1.840500 0.039700
-1.746900 0.039700
-1.653300 0.039700
-1.559700 0.039700
-1.466100 0.039700
-1.372500 0.039700
-1.278900 0.039700
-1.185300 0.039700
-1.091700 0.039700
-0.998100 0.039700
-0.904500 0.039700
-0.810900 0.039700
-0.717300 0.039700
-0.623700 0.039700
-0.530100 0.039700
-0.436500 0.039700
-0.342900 0.041500
-0.249300 0.041500
-0.155700 0.041500
-0.062100 0.041500
0.031500 0.041500
0.125100 0.041500
0.218700 0.041500
0.312300 0.041500
0.405900 0.041500
0.499500 0.041500
0.593100 0.041500
0.686700 0.041500
0.780300 0.041500
0.873900 0.041500
0.967500 0.041500
1.061100 0.043200
1.154700 0.044800
1.248300 0.044800
1.341900 0.044800
1.435600 0.044800
1.529200 0.044800
1.622800 0.044800
1.716400 0.044800
1.810000 0.044800
1.903600 0.044800
1.997200 0.044800
2.090800 0.050200
2.184400 0.064100
2.278000 0.070400
2.371600 0.080400
2.465200 0.092500
2.558800 0.097300
2.652400 0.101700
2.746000 0.107100
2.839600 0.112300
2.933200 0.114800
3.026800 0.114000
3.120400 0.113800
3.214000 0.113900
3.307600 0.115100
3.401200 0.116900
3.494800 0.122100
3.588400 0.123700
3.682000 0.145200
3.775600 0.158800
3.869200 0.159600
3.962800 0.154300
4.056400 0.150500
4.150000 0.149000
4.243600 0.147700
4.337200 0.148200
4.430800 0.154300
4.524400 0.166400
4.618000 0.194200
4.711600 0.203000
4.805200 0.192300
4.898800 0.183100
4.992400 0.181500
5.086000 0.182000
5.179600 0.183200
5.273200 0.187200
5.366800 0.200700
5.460400 0.235500
5.554000 0.245700
5.647600 0.244200
5.741200 0.243900
5.834800 0.248700
5.928400 0.265500
6.022000 0.467700
6.115600 0.485800
6.209200 0.142700
6.302800 0.132600
6.396400 0.130300
6.490000 0.131600
6.583600 0.134200
6.677200 0.137300
6.770800 0.141100
6.864400 0.145600
6.958000 0.150500
7.051600 0.158000
7.145200 0.164800
7.238800 0.169400
7.332400 0.173300
7.426000 0.176800
7.519600 0.180700
7.613200 0.185900
7.706800 0.193000
7.800400 0.201500
7.894000 0.216100
7.987600 0.220500
8.081200 0.210600
8.174800 0.205900
8.268400 0.201600
8.362000 0.201900
8.455600 0.197900
8.549200 0.196400
8.642800 0.194300
8.736400 0.192300
8.830000 0.190800
8.923600 0.193900
9.017200 0.199500
9.110800 0.199100
9.204400 0.198400
9.298000 0.196400
9.391600 0.194800
9.485200 0.195200
9.578800 0.197800
9.672400 0.202500
9.766000 0.210400
9.859600 0.211700
9.953200 0.227900
10.046800 0.242500
10.140400 0.256100
10.234000 0.298200
10.327600 0.283100
10.421200 0.272900
10.514800 0.264700
10.608400 0.260400
10.702000 0.254600
10.795600 0.251000
10.889200 0.248600
10.982800 0.247200
11.076400 0.246100
11.170000 0.246700
11.263600 0.247800
11.357200 0.248100
11.450800 0.248700
11.544400 0.249500
11.638000 0.250900
11.731600 0.252800
11.825200 0.257600
11.918800 0.269800
12.012400 0.288500
12.106000 0.329000
12.199600 0.358700
12.293200 0.349100
12.386800 0.341100
12.480400 0.348700
12.574000 0.339000
12.667600 0.322800
12.761200 0.314400
12.854800 0.308200
12.948400 0.302800
13.042000 0.297800
13.135600 0.293400
13.229200 0.290200
13.322800 0.286700
13.416400 0.282700
13.510000 0.279900
13.603600 0.278100
13.697200 0.276400
13.790800 0.274200
13.884400 0.271900
13.978000 0.269900
14.071600 0.268300
14.165200 0.267100
14.258800 0.266000
14.352400 0.264800
14.446000 0.263600
14.539600 0.262300
14.633200 0.261300
14.726800 0.260500
14.820400 0.260100
14.914000 0.259800
15.007600 0.259400
15.101200 0.259600
15.194800 0.260100
15.288500 0.261000
15.382100 0.261800
15.475700 0.262800
15.569300 0.263800
15.662900 0.265500
15.756500 0.268600
15.850100 0.274700
15.943700 0.285100
16.037300 0.294200
16.130900 0.321800
16.224500 0.339700
16.318100 0.366400
16.411700 0.381200
16.505300 0.365700
16.598900 0.380200
16.692500 0.383800
16.786100 0.391600
16.879700 0.317800
16.973300 0.304500
17.066900 0.297100
17.160500 0.293100
17.254100 0.292300
17.347700 0.293000
17.441300 0.296100
17.534900 0.300400
17.628500 0.304300
17.722100 0.307900
17.815700 0.316800
17.909300 0.328300
18.002900 0.334500
18.096500 0.340400
18.190100 0.356400
18.283700 0.351400
18.377300 0.352500
18.470900 0.332700
18.564500 0.322400
18.658100 0.312000
18.751700 0.322400
18.845300 0.313800
18.938900 0.309600
19.032500 0.307100
19.126100 0.310000
19.219700 0.314200
19.313300 0.321200
19.406900 0.336500
19.500500 0.315400
19.594100 0.304300
19.687700 0.301800
19.781300 0.300200
19.874900 0.301600
19.968500 0.305000
20.062100 0.303500
20.155700 0.309400
20.249300 0.314900
20.342900 0.317800
20.436500 0.319800
20.530100 0.319600
20.623700 0.309500
20.717300 0.303000
20.810900 0.299000
20.904500 0.295600
20.998100 0.290300
21.091700 0.281500
21.185300 0.278600
21.278900 0.278700
21.372500 0.283600
21.466100 0.304400
21.559700 0.309300
21.653300 0.331300
21.746900 0.367100
21.840500 0.414600
21.934100 0.403700
22.027700 0.404200
22.121300 0.418400
22.214900 0.421900
22.308500 0.412100
22.402100 0.412900
22.495700 0.412700
22.589300 0.397100
22.682900 0.382200
22.776500 0.379500
22.870100 0.399800
22.963700 0.457300
23.057300 0.489300
23.150900 0.524700
23.244500 0.490600
23.338100 0.461900
23.431700 0.451500
23.525300 0.444600
23.618900 0.440400
23.712500 0.435300
23.806100 0.428200
23.899700 0.411500
23.993300 0.376500
24.086900 0.383100
24.180500 0.339300
24.274100 0.311500
24.367700 0.307200
24.461300 0.304500
24.554900 0.319600
24.648500 0.354800
24.742100 0.408400
24.835700 0.455300
24.929300 0.491400
25.022900 0.489500
25.116500 0.491600
25.210100 0.505500
25.303700 0.500600
25.397300 0.497600
25.490900 0.495000
25.584500 0.483400
25.678100 0.479900
25.771700 0.484400
25.865300 0.475100
25.958900 0.458000
26.052500 0.442900
26.146100 0.445800
26.239700 0.430300
26.333300 0.412400
26.426900 0.400000
26.520500 0.402100
26.614100 0.427000
26.707700 0.454100
26.801300 0.490600
26.894900 0.541100
26.988500 0.556500
27.082100 0.530800
27.175700 0.509800
27.269300 0.469500
27.362900 0.433100
27.456500 0.414600
27.550100 0.406400
27.643700 0.415300
27.737300 0.390500
27.830900 0.379200
27.924500 0.382800
28.018100 0.391700
28.111700 0.394000
28.205300 0.387500
28.298900 0.382000
28.392500 0.381700
28.486100 0.385800
28.579700 0.390200
28.673300 0.393800
28.766900 0.398600
28.860500 0.403800
28.954100 0.407800
29.047700 0.402500
29.141400 0.400600
29.235000 0.382400
29.328600 0.368200
29.422200 0.355100
29.515800 0.350500
29.609400 0.340500
29.703000 0.345300
29.796600 0.368200
29.890200 0.379400
29.983800 0.386900
30.077400 0.381700
30.171000 0.380500
30.264600 0.369400
30.358200 0.349600
30.451800 0.340800
30.545400 0.341400
30.639000 0.352500
30.732600 0.377600
30.826200 0.354500
30.919800 0.339200
31.013400 0.336300
31.107000 0.331600
31.200600 0.331200
31.294200 0.333900
31.387800 0.337100
31.481400 0.351500
31.575000 0.370700
31.668600 0.424900
31.762200 0.427200
31.855800 0.436100
31.949400 0.432600
32.043000 0.436900
32.136600 0.432000
32.230200 0.432100
32.323800 0.445800
32.417400 0.448100
32.511000 0.473200
32.604600 0.478000
32.698200 0.488700
32.791800 0.497800
32.885400 0.518800
32.979000 0.532200
33.072600 0.533000
33.166200 0.523600
33.259800 0.516400
33.353400 0.512800
33.447000 0.517100
33.540600 0.514500
33.634200 0.506100
33.727800 0.506100
33.821400 0.506000
33.915000 0.503100
34.008600 0.503100
34.102200 0.504800
34.195800 0.507300
34.289400 0.497900
34.383000 0.492200
34.476600 0.479400
34.570200 0.465700
34.663800 0.451700
34.757400 0.433900
34.851000 0.416000
34.944600 0.426800
35.038200 0.426600
35.131800 0.425500
35.225400 0.430900
35.319000 0.436100
35.412600 0.442200
35.506200 0.451200
35.599800 0.463500
35.693400 0.474300
35.787000 0.488400
35.880600 0.494100
35.974200 0.480400
36.067800 0.455000
36.161400 0.433000
36.255000 0.427800
36.348600 0.422400
36.442200 0.426800
36.535800 0.427200
36.629400 0.441000
36.723000 0.464000
36.816600 0.467200
36.910200 0.468800
37.003800 0.463000
37.097400 0.439600
37.191000 0.438600
37.284600 0.429500
37.378200 0.423600
37.471800 0.426500
37.565400 0.433300
37.659000 0.444400
37.752600 0.463500
37.846200 0.468300
37.939800 0.468000
38.033400 0.476700
38.127000 0.476700
38.220600 0.473100
38.314200 0.473300
38.407800 0.464900
38.501400 0.455400
38.595000 0.448000
38.688600 0.442400
38.782200 0.442900
38.875800 0.449600
38.969400 0.458100
39.063000 0.478300
39.156600 0.492300
39.250200 0.508300
39.343800 0.519000
39.437400 0.523800
39.531000 0.516400
39.624600 0.508500
39.718200 0.513400
39.811800 0.508500
39.905400 0.513100
39.999000 0.527200
40.092600 0.512000
40.186200 0.501400
40.279800 0.488500
40.373400 0.484900
40.467000 0.500700
40.560600 0.500500
40.654200 0.489800
40.747800 0.494500
40.841400 0.492000
40.935000 0.496400
41.028600 0.499400
41.122200 0.503300
41.215800 0.503500
41.309400 0.515200
41.403000 0.522800
41.496600 0.517500
41.590200 0.514400
41.683800 0.513400
41.777400 0.508000
41.871000 0.498600
41.964600 0.504800
42.058200 0.514800
42.151800 0.528700
42.245400 0.529800
42.339000 0.531500
42.432600 0.533400
42.526200 0.522400
42.619800 0.518400
42.713400 0.514800
42.807000 0.499700
42.900600 0.492500
42.994200 0.486600
43.087900 0.482100
43.181500 0.480200
43.275100 0.491700
43.368700 0.489400
43.462300 0.488100
43.555900 0.489700
43.649500 0.488400
43.743100 0.492900
43.836700 0.496500
43.930300 0.500000
44.023900 0.506900
44.117500 0.514800
44.211100 0.520600
44.304700 0.530400
44.398300 0.536700
44.491900 0.545200
44.585500 0.555400
44.679100 0.572200
44.772700 0.783900
44.866300 0.786500
44.959900 0.827600
45.053500 0.885600
45.147100 0.827400
45.240700 0.789600
45.334300 0.738000
45.427900 0.678200
45.521500 0.622100
45.615100 0.573700
45.708700 0.561800
45.802300 0.572300
45.895900 0.600000
45.989500 0.617200
46.083100 0.597900
46.176700 0.579100
46.270300 0.557600
46.363900 0.542600
46.457500 0.541800
46.551100 0.528900
46.644700 0.514300
46.738300 0.503300
46.831900 0.497500
46.925500 0.490600
47.019100 0.498300
47.112700 0.515900
47.206300 0.517800
47.299900 0.504500
47.393500 0.503000
47.487100 0.516000
47.580700 0.540800
47.674300 0.541700
47.767900 0.551700
47.861500 0.558800
47.955100 0.558700
48.048700 0.559700
48.142300 0.563700
48.235900 0.579200
48.329500 0.591300
48.423100 0.572900
48.516700 0.549200
48.610300 0.524500
48.703900 0.516500
48.797500 0.513500
48.891100 0.511400
48.984700 0.524400
49.078300 0.538200
49.171900 0.562200
49.265500 0.588600
49.359100 0.575300
49.452700 0.572800
49.546300 0.574100
49.639900 0.582600
49.733500 0.594000
49.827100 0.602100
49.920700 0.588600
50.014300 0.580500
50.107900 0.572600
50.201500 0.573100
50.295100 0.570600
50.388700 0.552500
50.482300 0.533900
50.575900 0.518800
50.669500 0.522100
50.763100 0.519900
50.856700 0.528500
50.950300 0.534200
51.043900 0.537700
51.137500 0.541400
51.231100 0.547200
51.324700 0.539500
51.418300 0.538900
51.511900 0.538400
51.605500 0.539400
51.699100 0.552000
51.792700 0.550100
51.886300 0.546400
51.979900 0.547100
52.073500 0.546900
52.167100 0.552700
52.260700 0.561500
52.354300 0.561100
52.447900 0.555100
52.541500 0.548200
52.635100 0.548800
52.728700 0.544400
52.822300 0.534700
52.915900 0.544500
53.009500 0.549700
53.103100 0.561400
53.196700 0.550000
53.290300 0.553300
53.383900 0.564800
53.477500 0.571400
53.571100 0.566100
53.664700 0.555500
53.758300 0.548800
53.851900 0.549500
53.945500 0.552300
54.039100 0.546400
54.132700 0.545900
54.226300 0.542900
54.319900 0.537400
54.413500 0.535500
54.507100 0.542000
54.600700 0.556300
54.694300 0.562800
54.787900 0.559100
54.881500 0.574100
54.975100 0.569900
55.068700 0.565000
55.162300 0.553200
55.255900 0.551400
55.349500 0.551100
55.443100 0.539400
55.536700 0.536200
55.630300 0.540000
55.723900 0.546300
55.817500 0.559600
55.911100 0.574500
56.004700 0.583200
56.098300 0.596900
56.191900 0.600700
56.285500 0.603200
56.379100 0.602200
56.472700 0.597400
56.566300 0.590000
56.659900 0.589400
56.753500 0.583200
56.847100 0.585400
56.940800 0.586600
57.034400 0.580600
57.128000 0.577400
57.221600 0.576200
57.315200 0.576900
57.408800 0.578500
57.502400 0.579700
57.596000 0.589900
57.689600 0.605000
57.783200 0.612400
57.876800 0.613700
57.970400 0.609500
58.064000 0.601800
58.157600 0.589700
58.251200 0.577500
58.344800 0.570700
58.438400 0.571700
58.532000 0.579000
58.625600 0.583400
58.719200 0.578600
58.812800 0.578900
58.906400 0.586200
59.000000 0.588600
59.093600 0.582200
59.187200 0.577200
59.280800 0.564500
59.374400 0.562200
59.468000 0.570400
59.561600 0.584300
59.655200 0.585000
59.748800 0.584600
59.842400 0.590800
59.936000 0.600100
60.029600 0.608100
60.123200 0.613500
60.216800 0.609500
60.310400 0.600500
60.404000 0.592300
60.497600 0.592800
60.591200 0.594000
60.684800 0.590200
60.778400 0.588100
60.872000 0.585400
60.965600 0.578300
61.059200 0.569200
61.152800 0.562800
61.246400 0.559000
61.340000 0.553700
61.433600 0.552300
61.527200 0.555800
