set title 'mp-1187501 - Density of States'
set xlabel 'Energy (eV)'
set ylabel 'DOS (states/eV)'
set grid
set xrange [-10:10]
set yrange [0:129.638]
set xzeroaxis lt -1
set terminal png size 800,600
set output 'mp-1187501_dos_gnuplot.png'
plot '-' using 1:2 with lines title 'DOS'
-9.959900 0.000000
-9.938000 0.000000
-9.916100 0.000000
-9.894200 0.000000
-9.872400 0.000000
-9.850500 0.000000
-9.828600 0.000000
-9.806700 0.000000
-9.784900 0.000000
-9.763000 0.000000
-9.741100 0.000000
-9.719200 0.000000
-9.697400 0.000000
-9.675500 0.000000
-9.653600 0.000000
-9.631800 0.000000
-9.609900 0.000000
-9.588000 0.000000
-9.566100 0.000000
-9.544300 0.000000
-9.522400 0.000000
-9.500500 0.000000
-9.478600 0.000000
-9.456800 0.000000
-9.434900 0.000000
-9.413000 0.000000
-9.391100 0.000000
-9.369300 0.000000
-9.347400 0.000000
-9.325500 0.000000
-9.303600 0.000000
-9.281800 0.000000
-9.259900 0.000000
-9.238000 0.000000
-9.216100 0.000000
-9.194300 0.000000
-9.172400 0.000000
-9.150500 0.000000
-9.128600 0.000000
-9.106800 0.000000
-9.084900 0.000000
-9.063000 0.000000
-9.041100 0.000000
-9.019300 0.000000
-8.997400 0.000000
-8.975500 0.000000
-8.953700 0.000000
-8.931800 0.000000
-8.909900 0.000000
-8.888000 0.000000
-8.866200 0.000000
-8.844300 0.000000
-8.822400 0.000000
-8.800500 0.000000
-8.778700 0.000000
-8.756800 0.000000
-8.734900 0.000000
-8.713000 0.000000
-8.691200 0.000000
-8.669300 0.000000
-8.647400 0.000000
-8.625500 0.000000
-8.603700 0.000000
-8.581800 0.000000
-8.559900 0.000000
-8.538000 0.000000
-8.516200 0.000000
-8.494300 0.000000
-8.472400 0.000000
-8.450500 0.000000
-8.428700 0.000000
-8.406800 0.000000
-8.384900 0.000000
-8.363000 0.000000
-8.341200 0.000000
-8.319300 0.000000
-8.297400 0.000000
-8.275600 0.000000
-8.253700 0.000000
-8.231800 0.000000
-8.209900 0.000000
-8.188100 0.000000
-8.166200 0.000000
-8.144300 0.000000
-8.122400 0.000000
-8.100600 0.000000
-8.078700 0.000000
-8.056800 0.000000
-8.034900 0.000000
-8.013100 0.000000
-7.991200 0.000000
-7.969300 0.967800
-7.947400 9.382600
-7.925600 17.139900
-7.903700 37.925700
-7.881800 61.478700
-7.859900 34.458300
-7.838100 13.114400
-7.816200 44.877100
-7.794300 95.135700
-7.772400 82.113000
-7.750600 46.790500
-7.728700 41.059200
-7.706800 79.805000
-7.684900 63.763400
-7.663100 59.480900
-7.641200 65.716400
-7.619300 88.573000
-7.597400 117.853100
-7.575600 0.000000
-7.553700 0.000000
-7.531800 0.000000
-7.510000 0.000000
-7.488100 0.000000
-7.466200 0.000000
-7.444300 0.000000
-7.422500 0.000000
-7.400600 0.000000
-7.378700 0.000000
-7.356800 0.000000
-7.335000 0.000000
-7.313100 0.000000
-7.291200 0.000000
-7.269300 0.000000
-7.247500 0.000000
-7.225600 0.000000
-7.203700 0.000000
-7.181800 0.000000
-7.160000 0.000000
-7.138100 0.000000
-7.116200 0.000000
-7.094300 0.000000
-7.072500 0.000000
-7.050600 0.000000
-7.028700 0.000000
-7.006800 0.000000
-6.985000 0.000000
-6.963100 0.000000
-6.941200 0.000000
-6.919300 0.000000
-6.897500 0.000000
-6.875600 0.000000
-6.853700 0.000000
-6.831900 0.000000
-6.810000 0.000000
-6.788100 0.000000
-6.766200 0.000000
-6.744400 0.000000
-6.722500 0.000000
-6.700600 0.000000
-6.678700 0.000000
-6.656900 0.000000
-6.635000 0.000000
-6.613100 0.000000
-6.591200 0.000000
-6.569400 0.000000
-6.547500 0.000000
-6.525600 0.000000
-6.503700 0.000000
-6.481900 0.000000
-6.460000 0.000000
-6.438100 0.000000
-6.416200 0.000000
-6.394400 0.000000
-6.372500 0.000000
-6.350600 0.000000
-6.328700 0.000000
-6.306900 0.000000
-6.285000 0.000000
-6.263100 0.000000
-6.241200 0.000000
-6.219400 0.000000
-6.197500 0.000000
-6.175600 0.000000
-6.153800 0.000000
-6.131900 0.000000
-6.110000 0.000000
-6.088100 0.000000
-6.066300 0.000000
-6.044400 0.000000
-6.022500 0.000000
-6.000600 0.000000
-5.978800 0.000000
-5.956900 0.000000
-5.935000 0.000000
-5.913100 0.000000
-5.891300 0.000000
-5.869400 0.000000
-5.847500 0.000000
-5.825600 0.000000
-5.803800 0.000000
-5.781900 0.000000
-5.760000 0.000000
-5.738100 0.000000
-5.716300 0.000000
-5.694400 0.000000
-5.672500 0.000000
-5.650600 0.000000
-5.628800 0.000000
-5.606900 0.000000
-5.585000 0.000000
-5.563100 0.000000
-5.541300 0.000000
-5.519400 0.000000
-5.497500 0.000000
-5.475600 0.000000
-5.453800 0.000000
-5.431900 0.000000
-5.410000 0.000000
-5.388200 0.000000
-5.366300 0.001600
-5.344400 0.020200
-5.322500 0.059900
-5.300700 0.120400
-5.278800 0.160600
-5.256900 0.179100
-5.235000 0.185200
-5.213200 0.191200
-5.191300 0.210300
-5.169400 0.230100
-5.147500 0.250400
-5.125700 0.271000
-5.103800 0.288900
-5.081900 0.303400
-5.060000 0.312900
-5.038200 0.318800
-5.016300 0.324000
-4.994400 0.331100
-4.972500 0.342200
-4.950700 0.353400
-4.928800 0.364700
-4.906900 0.375900
-4.885000 0.387100
-4.863200 0.398200
-4.841300 0.409400
-4.819400 0.420900
-4.797500 0.429400
-4.775700 0.437400
-4.753800 0.445000
-4.731900 0.453700
-4.710100 0.481700
-4.688200 0.522600
-4.666300 0.559100
-4.644400 0.591100
-4.622600 0.532300
-4.600700 0.536800
-4.578800 0.541200
-4.556900 0.545300
-4.535100 0.549000
-4.513200 0.553000
-4.491300 0.556800
-4.469400 0.555300
-4.447600 0.553000
-4.425700 0.551300
-4.403800 0.550800
-4.381900 0.553100
-4.360100 0.554300
-4.338200 0.554700
-4.316300 0.555300
-4.294400 0.556300
-4.272600 0.557600
-4.250700 0.559100
-4.228800 0.560400
-4.206900 0.592300
-4.185100 0.634500
-4.163200 0.673100
-4.141300 0.643200
-4.119400 0.652000
-4.097600 0.661300
-4.075700 0.671100
-4.053800 0.681400
-4.032000 0.692100
-4.010100 0.703500
-3.988200 0.713400
-3.966300 0.718200
-3.944500 0.722800
-3.922600 0.727100
-3.900700 0.735200
-3.878800 0.743900
-3.857000 0.752000
-3.835100 0.760100
-3.813200 0.768200
-3.791300 0.776500
-3.769500 0.783500
-3.747600 0.790600
-3.725700 0.798100
-3.703800 0.806900
-3.682000 0.809600
-3.660100 0.817500
-3.638200 0.825600
-3.616300 0.833600
-3.594500 0.841800
-3.572600 0.850000
-3.550700 0.858200
-3.528800 0.866900
-3.507000 0.876100
-3.485100 0.885600
-3.463200 0.895200
-3.441300 0.904900
-3.419500 0.914900
-3.397600 0.925000
-3.375700 0.935200
-3.353900 0.945600
-3.332000 0.956100
-3.310100 0.966100
-3.288200 0.975000
-3.266400 0.982700
-3.244500 0.991700
-3.222600 1.002400
-3.200700 1.013600
-3.178900 1.025200
-3.157000 1.037100
-3.135100 1.049300
-3.113200 1.062100
-3.091400 1.075000
-3.069500 1.088400
-3.047600 1.103200
-3.025700 1.119600
-3.003900 1.137900
-2.982000 1.159500
-2.960100 1.184700
-2.938200 1.212700
-2.916400 1.238600
-2.894500 1.265400
-2.872600 1.293000
-2.850700 1.332200
-2.828900 1.395100
-2.807000 1.447100
-2.785100 1.478200
-2.763200 1.489500
-2.741400 1.497200
-2.719500 1.501400
-2.697600 1.502600
-2.675700 1.501000
-2.653900 1.580900
-2.632000 1.625200
-2.610100 1.609900
-2.588300 1.521300
-2.566400 1.500400
-2.544500 1.490000
-2.522600 1.479500
-2.500800 1.470800
-2.478900 1.462400
-2.457000 1.454800
-2.435100 1.445800
-2.413300 1.424800
-2.391400 1.412300
-2.369500 1.401800
-2.347600 1.389900
-2.325800 1.376700
-2.303900 1.406800
-2.282000 1.365300
-2.260100 1.328100
-2.238300 1.294500
-2.216400 1.267200
-2.194500 1.247500
-2.172600 1.232300
-2.150800 1.327200
-2.128900 1.217000
-2.107000 1.221800
-2.085100 1.293100
-2.063300 1.252700
-2.041400 1.212500
-2.019500 1.155100
-1.997600 1.148600
-1.975800 1.143300
-1.953900 1.139200
-1.932000 1.204800
-1.910200 1.175400
-1.888300 1.137800
-1.866400 1.110400
-1.844500 1.080500
-1.822700 1.082800
-1.800800 1.185000
-1.778900 1.142800
-1.757000 1.154600
-1.735200 1.159700
-1.713300 1.161600
-1.691400 1.160500
-1.669500 1.071200
-1.647700 1.078700
-1.625800 1.086500
-1.603900 1.095100
-1.582000 1.104700
-1.560200 1.148800
-1.538300 1.234300
-1.516400 1.335700
-1.494500 1.254200
-1.472700 1.538500
-1.450800 2.092300
-1.428900 1.930500
-1.407000 1.491700
-1.385200 1.373300
-1.363300 1.390300
-1.341400 1.430100
-1.319500 1.673700
-1.297700 1.834400
-1.275800 1.879100
-1.253900 1.726700
-1.232100 1.348400
-1.210200 1.137700
-1.188300 0.973000
-1.166400 0.791000
-1.144600 0.607600
-1.122700 0.453000
-1.100800 0.324900
-1.078900 0.151200
-1.057100 0.008900
-1.035200 0.000000
-1.013300 0.000000
-0.991400 0.000000
-0.969600 0.000000
-0.947700 0.000000
-0.925800 0.000000
-0.903900 0.000000
-0.882100 0.000000
-0.860200 0.000000
-0.838300 0.000000
-0.816400 0.000000
-0.794600 0.000000
-0.772700 0.000000
-0.750800 0.000000
-0.728900 0.000000
-0.707100 0.000000
-0.685200 0.000000
-0.663300 0.000000
-0.641400 0.000000
-0.619600 0.000000
-0.597700 0.000000
-0.575800 0.000000
-0.553900 0.000000
-0.532100 0.000000
-0.510200 0.000000
-0.488300 0.000000
-0.466500 0.000000
-0.444600 0.000000
-0.422700 0.000000
-0.400800 0.000000
-0.379000 0.000000
-0.357100 0.000000
-0.335200 0.000000
-0.313300 0.000000
-0.291500 0.000000
-0.269600 0.000000
-0.247700 0.000000
-0.225800 0.000000
-0.204000 0.000000
-0.182100 0.000000
-0.160200 0.000000
-0.138300 0.000000
-0.116500 0.000000
-0.094600 0.000000
-0.072700 0.445800
-0.050800 1.168600
-0.029000 1.287900
-0.007100 1.101100
0.014800 1.122200
0.036700 1.184400
0.058500 1.271800
0.080400 1.381300
0.102300 1.491400
0.124200 1.598300
0.146000 1.749200
0.167900 1.916400
0.189800 2.042400
0.211600 2.119500
0.233500 2.146800
0.255400 2.148800
0.277300 2.619600
0.299100 2.489500
0.321000 2.252100
0.342900 2.177500
0.364800 2.128700
0.386600 2.026000
0.408500 1.918700
0.430400 1.805400
0.452300 1.702000
0.474100 1.604400
0.496000 1.792800
0.517900 1.555400
0.539800 1.499700
0.561600 1.518700
0.583500 1.543700
0.605400 1.576600
0.627300 1.623200
0.649100 1.535500
0.671000 1.390600
0.692900 1.338400
0.714800 1.283400
0.736600 1.176800
0.758500 1.128200
0.780400 1.121100
0.802300 1.113800
0.824100 1.106300
0.846000 1.098500
0.867900 1.089600
0.889700 1.068200
0.911600 1.060800
0.933500 1.054500
0.955400 1.048800
0.977200 1.044300
0.999100 1.040800
1.021000 1.037700
1.042900 1.035200
1.064700 1.033600
1.086600 1.032700
1.108500 1.034300
1.130400 1.036500
1.152200 1.037800
1.174100 1.038600
1.196000 1.039300
1.217900 1.039900
1.239700 1.051400
1.261600 1.064100
1.283500 1.074800
1.305400 1.083400
1.327200 1.090100
1.349100 1.095000
1.371000 1.100600
1.392900 1.107000
1.414700 1.092500
1.436600 1.079700
1.458500 1.070500
1.480400 1.067500
1.502200 1.072600
1.524100 1.085600
1.546000 1.103900
1.567800 1.123400
1.589700 1.139100
1.611600 1.143200
1.633500 1.145400
1.655300 1.144400
1.677200 1.134900
1.699100 1.114900
1.721000 1.084400
1.742800 1.043400
1.764700 0.991800
1.786600 0.949800
1.808500 0.930200
1.830300 0.911500
1.852200 0.893600
1.874100 0.876500
1.896000 0.860200
1.917800 0.844800
1.939700 0.830200
1.961600 0.816600
1.983500 0.804400
2.005300 0.793300
2.027200 0.782500
2.049100 0.772200
2.071000 0.762300
2.092800 0.752800
2.114700 0.743600
2.136600 0.737300
2.158500 0.731300
2.180300 0.725300
2.202200 0.719300
2.224100 0.711800
2.246000 0.705700
2.267800 0.697400
2.289700 0.689100
2.311600 0.680900
2.333400 0.672800
2.355300 0.664800
2.377200 0.656800
2.399100 0.649000
2.420900 0.642300
2.442800 0.640900
2.464700 0.639400
2.486600 0.637600
2.508400 0.635700
2.530300 0.633600
2.552200 0.696600
2.574100 0.690000
2.595900 0.683500
2.617800 0.677100
2.639700 1.950600
2.661600 0.419800
2.683400 0.417800
2.705300 0.416100
2.727200 0.414400
2.749100 0.412800
2.770900 0.411200
2.792800 0.409700
2.814700 0.408500
2.836600 0.407400
2.858400 0.406400
2.880300 0.405400
2.902200 0.404600
2.924100 0.403800
2.945900 0.403100
2.967800 0.402000
2.989700 0.449600
3.011500 0.473500
3.033400 0.497900
3.055300 0.522900
3.077200 0.513000
3.099000 0.522400
3.120900 0.532100
3.142800 0.542300
3.164700 0.552800
3.186500 0.563700
3.208400 0.575100
3.230300 0.588500
3.252200 0.603100
3.274000 0.619000
3.295900 0.636100
3.317800 0.645300
3.339700 0.660500
3.361500 0.675700
3.383400 0.691200
3.405300 0.716900
3.427200 0.759900
3.449000 0.836000
3.470900 0.916300
3.492800 1.017600
3.514700 1.157800
3.536500 1.320900
3.558400 1.450200
3.580300 1.506700
3.602200 1.531400
3.624000 1.554800
3.645900 1.577100
3.667800 1.595600
3.689600 1.654000
3.711500 1.670100
3.733400 1.660600
3.755300 1.622300
3.777100 1.566000
3.799000 1.526400
3.820900 1.460500
3.842800 1.359600
3.864600 1.324100
3.886500 1.309100
3.908400 1.298200
3.930300 1.286400
3.952100 1.265200
3.974000 1.245800
3.995900 1.227600
4.017800 1.212000
4.039600 1.200200
4.061500 1.192200
4.083400 1.188100
4.105300 1.184800
4.127100 1.179600
4.149000 1.175100
4.170900 1.210100
4.192800 1.212300
4.214600 1.214800
4.236500 1.217500
4.258400 1.221500
4.280300 1.229600
4.302100 1.240700
4.324000 1.252300
4.345900 1.261100
4.367800 1.262800
4.389600 1.264600
4.411500 1.268700
4.433400 1.274000
4.455200 1.280400
4.477100 1.287000
4.499000 1.293100
4.520900 1.299900
4.542700 1.304400
4.564600 1.309100
4.586500 1.314600
4.608400 1.320800
4.630200 1.327400
4.652100 1.347300
4.674000 1.378100
4.695900 1.408300
4.717700 1.442600
4.739600 1.475100
4.761500 1.505700
4.783400 1.536600
4.805200 1.564600
4.827100 1.590000
4.849000 1.612500
4.870900 1.634700
4.892700 1.722200
4.914600 1.742200
4.936500 1.740100
4.958400 1.736900
4.980200 1.732100
5.002100 1.725600
5.024000 1.720100
5.045900 1.698400
5.067700 1.675800
5.089600 1.581300
5.111500 1.493700
5.133300 1.439900
5.155200 1.419900
5.177100 1.417400
5.199000 1.414900
5.220800 1.408800
5.242700 1.423400
5.264600 1.594200
5.286500 1.754700
5.308300 2.114900
5.330200 1.570500
5.352100 1.524800
5.374000 1.536300
5.395800 1.517500
5.417700 1.473900
5.439600 1.483600
5.461500 1.423400
5.483300 1.381300
5.505200 1.338000
5.527100 1.273600
5.549000 1.283200
5.570800 1.283800
5.592700 1.287600
5.614600 1.294600
5.636500 1.304700
5.658300 1.308500
5.680200 1.284800
5.702100 1.312300
5.724000 1.337300
5.745800 1.359300
5.767700 1.383900
5.789600 1.433900
5.811400 1.483800
5.833300 1.520800
5.855200 1.559000
5.877100 1.574700
5.898900 1.570500
5.920800 1.552400
5.942700 1.441600
5.964600 1.435900
5.986400 1.437600
6.008300 1.440500
6.030200 1.445800
6.052100 1.455600
6.073900 1.470300
6.095800 1.511100
6.117700 1.550800
6.139600 1.592300
6.161400 1.635900
6.183300 1.679700
6.205200 1.721600
6.227100 1.761400
6.248900 1.799000
6.270800 1.832900
6.292700 1.901500
6.314600 1.978200
6.336400 2.015100
6.358300 2.027200
6.380200 2.031600
6.402100 2.028300
6.423900 2.002000
6.445800 1.976700
6.467700 1.951800
6.489500 1.899700
6.511400 1.886000
6.533300 1.873000
6.555200 1.849700
6.577000 1.817000
6.598900 1.788300
6.620800 1.751600
6.642700 1.741000
6.664500 1.732700
6.686400 1.718700
6.708300 1.708800
6.730200 1.803400
6.752000 1.792300
6.773900 1.779300
6.795800 1.768000
6.817700 1.757700
6.839500 1.687000
6.861400 1.611100
6.883300 1.576800
6.905200 1.560300
6.927000 1.550400
6.948900 1.536500
6.970800 1.522800
6.992700 1.509500
7.014500 1.496900
7.036400 1.489900
7.058300 1.488800
7.080200 1.475100
7.102000 1.460400
7.123900 1.616200
7.145800 1.581100
7.167700 1.545800
7.189500 1.523500
7.211400 1.445900
7.233300 1.452200
7.255100 1.462900
7.277000 1.453300
7.298900 1.470300
7.320800 1.492500
7.342600 1.518100
7.364500 1.546100
7.386400 1.576600
7.408300 1.609500
7.430100 1.649900
7.452000 1.751000
7.473900 1.801300
7.495800 1.839600
7.517600 1.876700
7.539500 1.912600
7.561400 1.959500
7.583300 2.038200
7.605100 2.141100
7.627000 2.247700
7.648900 2.339100
7.670800 2.333100
7.692600 2.310500
7.714500 2.299500
7.736400 2.076700
7.758300 2.100100
7.780100 2.467200
7.802000 2.606900
7.823900 1.746200
7.845800 1.753000
7.867600 1.767600
7.889500 1.788300
7.911400 1.819200
7.933200 1.879000
7.955100 1.948800
7.977000 1.799200
7.998900 1.653800
8.020700 1.634900
8.042600 1.634200
8.064500 1.643000
8.086400 1.658300
8.108200 1.679300
8.130100 1.696100
8.152000 1.703000
8.173900 1.665600
8.195700 1.594000
8.217600 1.550600
8.239500 1.537200
8.261400 1.538300
8.283200 1.546600
8.305100 1.559300
8.327000 1.572800
8.348900 1.587800
8.370700 1.602700
8.392600 1.651000
8.414500 1.679100
8.436400 1.708400
8.458200 1.740400
8.480100 1.775400
8.502000 1.812300
8.523900 1.849100
8.545700 1.886500
8.567600 1.959500
8.589500 2.106500
8.611300 2.118100
8.633200 2.146500
8.655100 2.178600
8.677000 2.214300
8.698800 2.195300
8.720700 2.263800
8.742600 2.343900
8.764500 2.429100
8.786300 2.515900
8.808200 2.648500
8.830100 2.718600
8.852000 2.620400
8.873800 2.516700
8.895700 2.503300
8.917600 2.492800
8.939500 2.474900
8.961300 2.451300
8.983200 2.411400
9.005100 2.382900
9.027000 2.367500
9.048800 2.360900
9.070700 2.375700
9.092600 2.387700
9.114500 2.403800
9.136300 2.533000
9.158200 2.795100
9.180100 2.984800
9.202000 2.652600
9.223800 2.944400
9.245700 2.837200
9.267600 2.865300
9.289500 2.857300
9.311300 2.783300
9.333200 2.717900
9.355100 2.720300
9.376900 3.014200
9.398800 3.085200
9.420700 3.035800
9.442600 2.859000
9.464400 2.758400
9.486300 2.724400
9.508200 2.710400
9.530100 2.761500
9.551900 2.743100
9.573800 2.812000
9.595700 2.747600
9.617600 2.690200
9.639400 2.646700
9.661300 2.615400
9.683200 2.604200
9.705100 2.596700
9.726900 2.602500
9.748800 3.196100
9.770700 2.977200
9.792600 3.223100
9.814400 2.839700
9.836300 2.704900
9.858200 2.554900
9.880100 2.421500
9.901900 2.323800
9.923800 2.302000
9.945700 2.790500
9.967600 2.212300
9.989400 2.022400
10.011300 1.844200
10.033200 1.712900
10.055000 1.599300
10.076900 1.783600
10.098800 1.724400
10.120700 1.618000
10.142500 1.533400
10.164400 1.437800
10.186300 1.270900
10.208200 1.005400
10.230000 0.936000
10.251900 0.877000
10.273800 0.825200
10.295700 0.780400
10.317500 0.742900
10.339400 0.702600
10.361300 0.649300
10.383200 0.593900
10.405000 0.538200
10.426900 0.482100
10.448800 0.423200
10.470700 0.369100
10.492500 0.358700
10.514400 0.393900
10.536300 0.384400
10.558200 0.369500
10.580000 0.356100
10.601900 0.345600
10.623800 0.244200
10.645700 0.246100
10.667500 0.248900
10.689400 0.252600
10.711300 0.257200
10.733100 0.293500
10.755000 0.308600
10.776900 0.325500
10.798800 0.344200
10.820600 0.364700
10.842500 0.387100
10.864400 0.432400
10.886300 0.487400
10.908100 0.550400
10.930000 0.620800
10.951900 0.692700
10.973800 0.767800
10.995600 0.836700
11.017500 0.907000
11.039400 0.986200
11.061300 1.096700
11.083100 1.206900
11.105000 1.275100
11.126900 1.419200
11.148800 1.496800
11.170600 1.558900
11.192500 1.616600
11.214400 1.669300
11.236300 1.717000
11.258100 1.775400
11.280000 1.835100
11.301900 1.867900
11.323800 1.916900
11.345600 1.904400
11.367500 1.840300
11.389400 1.778200
11.411200 1.703000
11.433100 1.613700
11.455000 1.612900
11.476900 1.503400
11.498700 1.451300
11.520600 1.419800
11.542500 1.405400
11.564400 1.390000
11.586200 1.369400
11.608100 1.343600
11.630000 1.312000
11.651900 1.295200
11.673700 1.284800
11.695600 1.287800
11.717500 1.288400
11.739400 1.286900
11.761200 1.283200
11.783100 1.140300
11.805000 1.079700
11.826900 1.033100
11.848700 0.999300
11.870600 0.965800
11.892500 0.932900
11.914400 0.915700
11.936200 0.902500
11.958100 0.888300
11.980000 0.871900
12.001900 0.853700
12.023700 0.839400
12.045600 0.830600
12.067500 0.823400
12.089400 0.821600
12.111200 0.819400
12.133100 0.817500
12.155000 0.815900
12.176800 0.814800
12.198700 0.813400
12.220600 0.813700
12.242500 0.814700
12.264300 0.816600
12.286200 0.819300
12.308100 0.824300
12.330000 0.832100
12.351800 0.841900
12.373700 0.853800
12.395600 0.870600
12.417500 0.892400
12.439300 0.915600
12.461200 0.940400
12.483100 0.967000
12.505000 0.987600
12.526800 1.006200
12.548700 1.025600
12.570600 1.046100
12.592500 1.065700
12.614300 1.081700
12.636200 1.085000
12.658100 1.088700
12.680000 1.138300
12.701800 1.145100
12.723700 1.160200
12.745600 1.183700
12.767500 1.941000
12.789300 1.379000
12.811200 1.395500
12.833100 1.420600
12.854900 1.467900
12.876800 1.542300
12.898700 1.763600
12.920600 1.861000
12.942400 1.943300
12.964300 2.025800
12.986200 2.130800
13.008100 2.139000
13.029900 2.134400
13.051800 2.116700
13.073700 2.092100
13.095600 2.077600
13.117400 2.158000
13.139300 2.305000
13.161200 2.156500
13.183100 2.153600
13.204900 2.219100
13.226800 2.014400
