set title 'mp-11 - Density of States'
set xlabel 'Energy (eV)'
set ylabel 'DOS (states/eV)'
set grid
set xrange [-10:10]
set yrange [0:2.250]
set xzeroaxis lt -1
set terminal png size 800,600
set output 'mp-11_dos_gnuplot.png'
plot '-' using 1:2 with lines title 'DOS'
-11.411000 0.000000
-11.391100 0.000000
-11.371200 0.000000
-11.351300 0.000000
-11.331400 0.000000
-11.311500 0.000000
-11.291600 0.000000
-11.271700 0.000000
-11.251800 0.000000
-11.231900 0.000000
-11.212000 0.000000
-11.192200 0.000000
-11.172300 0.000000
-11.152400 0.000000
-11.132500 0.000000
-11.112600 0.000000
-11.092700 0.000000
-11.072800 0.000000
-11.052900 0.000000
-11.033000 0.000000
-11.013100 0.000000
-10.993200 0.000000
-10.973300 0.000000
-10.953400 0.000000
-10.933500 0.000000
-10.913600 0.000000
-10.893700 0.000000
-10.873800 0.000000
-10.853900 0.000000
-10.834000 0.000000
-10.814100 0.000000
-10.794200 0.000000
-10.774300 0.000000
-10.754400 0.000000
-10.734500 0.000000
-10.714600 0.000000
-10.694700 0.000000
-10.674800 0.000000
-10.654900 0.000000
-10.635100 0.000000
-10.615200 0.000000
-10.595300 0.000000
-10.575400 0.000000
-10.555500 0.000000
-10.535600 0.000000
-10.515700 0.000000
-10.495800 0.000000
-10.475900 0.000000
-10.456000 0.000000
-10.436100 0.000000
-10.416200 0.000000
-10.396300 0.000000
-10.376400 0.000000
-10.356500 0.000000
-10.336600 0.000000
-10.316700 0.000000
-10.296800 0.000000
-10.276900 0.000000
-10.257000 0.000000
-10.237100 0.000000
-10.217200 0.000000
-10.197300 0.000000
-10.177400 0.000000
-10.157500 0.000000
-10.137600 0.000000
-10.117700 0.000000
-10.097900 0.000000
-10.078000 0.000000
-10.058100 0.000000
-10.038200 0.000000
-10.018300 0.000000
-9.998400 0.000000
-9.978500 0.000000
-9.958600 0.000000
-9.938700 0.000000
-9.918800 0.000000
-9.898900 0.000000
-9.879000 0.000000
-9.859100 0.000000
-9.839200 0.000000
-9.819300 0.000000
-9.799400 0.000000
-9.779500 0.000000
-9.759600 0.000000
-9.739700 0.000000
-9.719800 0.000000
-9.699900 0.000000
-9.680000 0.000000
-9.660100 0.000000
-9.640200 0.000000
-9.620300 0.000000
-9.600400 0.007500
-9.580500 0.059600
-9.560700 0.080800
-9.540800 0.104400
-9.520900 0.118200
-9.501000 0.132200
-9.481100 0.144500
-9.461200 0.157100
-9.441300 0.170300
-9.421400 0.180700
-9.401500 0.190700
-9.381600 0.199600
-9.361700 0.208500
-9.341800 0.217100
-9.321900 0.226200
-9.302000 0.235600
-9.282100 0.244800
-9.262200 0.253300
-9.242300 0.260800
-9.222400 0.267600
-9.202500 0.274800
-9.182600 0.282300
-9.162700 0.289800
-9.142800 0.297100
-9.122900 0.304800
-9.103000 0.312400
-9.083100 0.319800
-9.063200 0.327400
-9.043300 0.334400
-9.023500 0.340700
-9.003600 0.347100
-8.983700 0.353700
-8.963800 0.360600
-8.943900 0.367600
-8.924000 0.374700
-8.904100 0.381500
-8.884200 0.388400
-8.864300 0.395200
-8.844400 0.402400
-8.824500 0.409500
-8.804600 0.416700
-8.784700 0.423800
-8.764800 0.430500
-8.744900 0.437300
-8.725000 0.444300
-8.705100 0.451400
-8.685200 0.458700
-8.665300 0.466100
-8.645400 0.473700
-8.625500 0.481300
-8.605600 0.489100
-8.585700 0.497000
-8.565800 0.505300
-8.545900 0.514000
-8.526000 0.523100
-8.506100 0.532500
-8.486200 0.542300
-8.466400 0.552200
-8.446500 0.562400
-8.426600 0.573100
-8.406700 0.584500
-8.386800 0.598000
-8.366900 0.615000
-8.347000 0.637600
-8.327100 0.669400
-8.307200 0.674500
-8.287300 0.678200
-8.267400 0.674000
-8.247500 0.676300
-8.227600 0.679000
-8.207700 0.682700
-8.187800 0.682100
-8.167900 0.682500
-8.148000 0.685500
-8.128100 0.687900
-8.108200 0.689900
-8.088300 0.692000
-8.068400 0.694200
-8.048500 0.695900
-8.028600 0.696600
-8.008700 0.698500
-7.988800 0.701000
-7.968900 0.703400
-7.949000 0.705700
-7.929200 0.708500
-7.909300 0.711100
-7.889400 0.713900
-7.869500 0.716800
-7.849600 0.717800
-7.829700 0.720200
-7.809800 0.723000
-7.789900 0.726300
-7.770000 0.729700
-7.750100 0.732900
-7.730200 0.736200
-7.710300 0.739900
-7.690400 0.743700
-7.670500 0.747300
-7.650600 0.750700
-7.630700 0.754200
-7.610800 0.757800
-7.590900 0.762000
-7.571000 0.766700
-7.551100 0.771500
-7.531200 0.776700
-7.511300 0.782000
-7.491400 0.787500
-7.471500 0.793400
-7.451600 0.799600
-7.431700 0.806300
-7.411800 0.813300
-7.392000 0.820800
-7.372100 0.828100
-7.352200 0.836000
-7.332300 0.844900
-7.312400 0.854800
-7.292500 0.865400
-7.272600 0.877000
-7.252700 0.889800
-7.232800 0.903700
-7.212900 0.919200
-7.193000 0.936700
-7.173100 0.956500
-7.153200 0.979300
-7.133300 1.005500
-7.113400 1.037100
-7.093500 1.077100
-7.073600 1.133200
-7.053700 1.205100
-7.033800 1.278200
-7.013900 1.380800
-6.994000 1.421100
-6.974100 1.404100
-6.954200 1.364700
-6.934300 1.380300
-6.914400 1.293800
-6.894500 1.133700
-6.874600 1.023400
-6.854800 0.944100
-6.834900 0.902000
-6.815000 0.855500
-6.795100 0.802000
-6.775200 0.755800
-6.755300 0.706200
-6.735400 0.670700
-6.715500 0.644600
-6.695600 0.616000
-6.675700 0.583400
-6.655800 0.555400
-6.635900 0.527000
-6.616000 0.502600
-6.596100 0.481800
-6.576200 0.461500
-6.556300 0.439400
-6.536400 0.418300
-6.516500 0.398500
-6.496600 0.381000
-6.476700 0.364300
-6.456800 0.345700
-6.436900 0.326600
-6.417000 0.306100
-6.397100 0.293100
-6.377200 0.284000
-6.357300 0.278500
-6.337400 0.263300
-6.317500 0.247200
-6.297700 0.228200
-6.277800 0.206600
-6.257900 0.182100
-6.238000 0.150000
-6.218100 0.106200
-6.198200 0.049800
-6.178300 0.018300
-6.158400 0.004200
-6.138500 0.000000
-6.118600 0.000000
-6.098700 0.000000
-6.078800 0.000000
-6.058900 0.000000
-6.039000 0.000000
-6.019100 0.000000
-5.999200 0.000000
-5.979300 0.000000
-5.959400 0.000000
-5.939500 0.000500
-5.919600 0.025400
-5.899700 0.059700
-5.879800 0.110100
-5.859900 0.201700
-5.840000 0.310600
-5.820100 0.563200
-5.800200 0.562600
-5.780300 0.619300
-5.760500 0.643700
-5.740600 0.624100
-5.720700 0.626100
-5.700800 0.646200
-5.680900 0.655800
-5.661000 0.647800
-5.641100 0.646500
-5.621200 0.658700
-5.601300 0.662600
-5.581400 0.665800
-5.561500 0.667100
-5.541600 0.671900
-5.521700 0.678200
-5.501800 0.684700
-5.481900 0.692000
-5.462000 0.697600
-5.442100 0.700300
-5.422200 0.702200
-5.402300 0.707100
-5.382400 0.712300
-5.362500 0.716500
-5.342600 0.719100
-5.322700 0.724000
-5.302800 0.728800
-5.282900 0.734000
-5.263000 0.739900
-5.243100 0.745300
-5.223300 0.748800
-5.203400 0.752100
-5.183500 0.755800
-5.163600 0.759200
-5.143700 0.763000
-5.123800 0.768100
-5.103900 0.774800
-5.084000 0.782400
-5.064100 0.789100
-5.044200 0.794400
-5.024300 0.797900
-5.004400 0.800600
-4.984500 0.803700
-4.964600 0.808900
-4.944700 0.816100
-4.924800 0.822600
-4.904900 0.829300
-4.885000 0.836200
-4.865100 0.843500
-4.845200 0.854100
-4.825300 0.864900
-4.805400 0.889500
-4.785500 0.949000
-4.765600 0.978600
-4.745700 1.030400
-4.725800 1.074800
-4.705900 1.145100
-4.686100 1.204600
-4.666200 1.286900
-4.646300 1.529800
-4.626400 1.591600
-4.606500 1.317300
-4.586600 1.182900
-4.566700 1.127500
-4.546800 1.078000
-4.526900 1.029600
-4.507000 0.978700
-4.487100 0.937700
-4.467200 0.903000
-4.447300 0.872000
-4.427400 0.842700
-4.407500 0.814500
-4.387600 0.784800
-4.367700 0.758300
-4.347800 0.737400
-4.327900 0.718900
-4.308000 0.700700
-4.288100 0.685800
-4.268200 0.670800
-4.248300 0.657900
-4.228400 0.645900
-4.208500 0.635000
-4.188600 0.623800
-4.168700 0.612600
-4.148800 0.601000
-4.129000 0.588800
-4.109100 0.575900
-4.089200 0.561600
-4.069300 0.547500
-4.049400 0.534200
-4.029500 0.520600
-4.009600 0.509800
-3.989700 0.500800
-3.969800 0.492900
-3.949900 0.485200
-3.930000 0.478600
-3.910100 0.472200
-3.890200 0.465700
-3.870300 0.459100
-3.850400 0.452400
-3.830500 0.445600
-3.810600 0.438400
-3.790700 0.430900
-3.770800 0.423200
-3.750900 0.415600
-3.731000 0.408200
-3.711100 0.400100
-3.691200 0.392500
-3.671300 0.384900
-3.651400 0.377800
-3.631500 0.369500
-3.611600 0.362700
-3.591800 0.357200
-3.571900 0.352200
-3.552000 0.347100
-3.532100 0.341600
-3.512200 0.336500
-3.492300 0.331900
-3.472400 0.327500
-3.452500 0.323100
-3.432600 0.318600
-3.412700 0.314000
-3.392800 0.309500
-3.372900 0.304800
-3.353000 0.300100
-3.333100 0.294800
-3.313200 0.289700
-3.293300 0.284400
-3.273400 0.278900
-3.253500 0.273500
-3.233600 0.268500
-3.213700 0.263500
-3.193800 0.258800
-3.173900 0.254800
-3.154000 0.251400
-3.134100 0.248100
-3.114200 0.244700
-3.094300 0.241300
-3.074400 0.237700
-3.054600 0.234200
-3.034700 0.230600
-3.014800 0.227000
-2.994900 0.223200
-2.975000 0.219500
-2.955100 0.216200
-2.935200 0.213000
-2.915300 0.209800
-2.895400 0.206500
-2.875500 0.203200
-2.855600 0.199700
-2.835700 0.196200
-2.815800 0.192500
-2.795900 0.188800
-2.776000 0.185200
-2.756100 0.181800
-2.736200 0.178800
-2.716300 0.175900
-2.696400 0.172900
-2.676500 0.170200
-2.656600 0.167700
-2.636700 0.165300
-2.616800 0.162900
-2.596900 0.160500
-2.577000 0.158000
-2.557100 0.155400
-2.537200 0.152800
-2.517400 0.150200
-2.497500 0.147600
-2.477600 0.145000
-2.457700 0.142300
-2.437800 0.139600
-2.417900 0.137200
-2.398000 0.134900
-2.378100 0.132600
-2.358200 0.130200
-2.338300 0.127600
-2.318400 0.124900
-2.298500 0.122400
-2.278600 0.120000
-2.258700 0.117800
-2.238800 0.115700
-2.218900 0.113600
-2.199000 0.111600
-2.179100 0.109500
-2.159200 0.107400
-2.139300 0.105600
-2.119400 0.103700
-2.099500 0.101800
-2.079600 0.100000
-2.059700 0.098100
-2.039800 0.096200
-2.019900 0.094200
-2.000000 0.092300
-1.980200 0.090300
-1.960300 0.088300
-1.940400 0.086400
-1.920500 0.084500
-1.900600 0.082600
-1.880700 0.080800
-1.860800 0.079000
-1.840900 0.077100
-1.821000 0.075200
-1.801100 0.073600
-1.781200 0.071900
-1.761300 0.070300
-1.741400 0.068600
-1.721500 0.067000
-1.701600 0.065400
-1.681700 0.063700
-1.661800 0.062100
-1.641900 0.060500
-1.622000 0.058900
-1.602100 0.057300
-1.582200 0.055800
-1.562300 0.054200
-1.542400 0.052700
-1.522500 0.051200
-1.502600 0.049600
-1.482700 0.048100
-1.462800 0.046500
-1.442900 0.045000
-1.423100 0.043500
-1.403200 0.041900
-1.383300 0.040400
-1.363400 0.038800
-1.343500 0.037200
-1.323600 0.035700
-1.303700 0.034100
-1.283800 0.032900
-1.263900 0.031300
-1.244000 0.029600
-1.224100 0.027900
-1.204200 0.026100
-1.184300 0.024400
-1.164400 0.022600
-1.144500 0.020900
-1.124600 0.019500
-1.104700 0.018200
-1.084800 0.015700
-1.064900 0.012600
-1.045000 0.009300
-1.025100 0.005700
-1.005200 0.002000
-0.985300 0.000000
-0.965400 0.000000
-0.945500 0.000000
-0.925600 0.038300
-0.905700 0.159600
-0.885900 0.327800
-0.866000 0.545500
-0.846100 0.834600
-0.826200 0.820300
-0.806300 0.855600
-0.786400 0.894200
-0.766500 0.846700
-0.746600 0.836500
-0.726700 0.836000
-0.706800 0.826200
-0.686900 0.836300
-0.667000 0.862800
-0.647100 0.900100
-0.627200 0.940100
-0.607300 0.958500
-0.587400 0.944300
-0.567500 0.949300
-0.547600 0.974900
-0.527700 0.982900
-0.507800 0.967700
-0.487900 0.940200
-0.468000 0.913200
-0.448100 0.889200
-0.428200 0.867100
-0.408300 0.846900
-0.388400 0.826100
-0.368500 0.806400
-0.348700 0.791500
-0.328800 0.780500
-0.308900 0.774000
-0.289000 0.770400
-0.269100 0.767400
-0.249200 0.767700
-0.229300 0.770800
-0.209400 0.775000
-0.189500 0.780100
-0.169600 0.785000
-0.149700 0.787200
-0.129800 0.787300
-0.109900 0.788200
-0.090000 0.788700
-0.070100 0.787600
-0.050200 0.789200
-0.030300 0.792800
-0.010400 0.797800
0.009500 0.804100
0.029400 0.812800
0.049300 0.821900
0.069200 0.830400
0.089100 0.837200
0.109000 0.841400
0.128900 0.845900
0.148800 0.849400
0.168700 0.852500
0.188500 0.855500
0.208400 0.859100
0.228300 0.863400
0.248200 0.868400
0.268100 0.874900
0.288000 0.881900
0.307900 0.889200
0.327800 0.895400
0.347700 0.902100
0.367600 0.910600
0.387500 0.919800
0.407400 0.928900
0.427300 0.938100
0.447200 0.946600
0.467100 0.955100
0.487000 0.963000
0.506900 0.969700
0.526800 0.975800
0.546700 0.983100
0.566600 0.991200
0.586500 0.999600
0.606400 1.007800
0.626300 1.016300
0.646200 1.024100
0.666100 1.033700
0.686000 1.044300
0.705900 1.055300
0.725800 1.066400
0.745600 1.078600
0.765500 1.090500
0.785400 1.102400
0.805300 1.115000
0.825200 1.128400
0.845100 1.142700
0.865000 1.158400
0.884900 1.174800
0.904800 1.192900
0.924700 1.218900
0.944600 1.259600
0.964500 1.295200
0.984400 1.320300
1.004300 1.413500
1.024200 1.450200
1.044100 1.422900
1.064000 1.397100
1.083900 1.388000
1.103800 1.406000
1.123700 1.419400
1.143600 1.431000
1.163500 1.437800
1.183400 1.438500
1.203300 1.441200
1.223200 1.436300
1.243100 1.432000
1.263000 1.434900
1.282800 1.438900
1.302700 1.441500
1.322600 1.447300
1.342500 1.443800
1.362400 1.439000
1.382300 1.436300
1.402200 1.434100
1.422100 1.432500
1.442000 1.432600
1.461900 1.431300
1.481800 1.430700
1.501700 1.430300
1.521600 1.430400
1.541500 1.431500
1.561400 1.433000
1.581300 1.434700
1.601200 1.436100
1.621100 1.436800
1.641000 1.436300
1.660900 1.436200
1.680800 1.436700
1.700700 1.437300
1.720600 1.437900
1.740500 1.436500
1.760400 1.436500
1.780300 1.438700
1.800200 1.439100
1.820000 1.440700
1.839900 1.443300
1.859800 1.443900
1.879700 1.444800
1.899600 1.447000
1.919500 1.450200
1.939400 1.454700
1.959300 1.459600
1.979200 1.462200
1.999100 1.463500
2.019000 1.464700
2.038900 1.467200
2.058800 1.472200
2.078700 1.476600
2.098600 1.478700
2.118500 1.480000
2.138400 1.481600
2.158300 1.486100
2.178200 1.492500
2.198100 1.500400
2.218000 1.509800
2.237900 1.526800
2.257800 1.534900
2.277700 1.539400
2.297600 1.502100
2.317500 1.513100
2.337400 1.530600
2.357200 1.551500
2.377100 1.571100
2.397000 1.574300
2.416900 1.563200
2.436800 1.550400
2.456700 1.539100
2.476600 1.541200
2.496500 1.507800
2.516400 1.503000
2.536300 1.489600
2.556200 1.477400
2.576100 1.465600
2.596000 1.448900
2.615900 1.453500
2.635800 1.462400
2.655700 1.472600
2.675600 1.464300
2.695500 1.439900
2.715400 1.422100
2.735300 1.413900
2.755200 1.401500
2.775100 1.399100
2.795000 1.403000
2.814900 1.406200
2.834800 1.400600
2.854700 1.386100
2.874600 1.358100
2.894500 1.353700
2.914300 1.304000
2.934200 1.287300
2.954100 1.274400
2.974000 1.255900
2.993900 1.234100
3.013800 1.225200
3.033700 1.226700
3.053600 1.177600
3.073500 1.166100
3.093400 1.168000
3.113300 1.162100
3.133200 1.154800
3.153100 1.136500
3.173000 1.138200
3.192900 1.153100
3.212800 1.179700
3.232700 1.221100
3.252600 1.110700
3.272500 1.058600
3.292400 1.032800
3.312300 1.017800
3.332200 1.001200
3.352100 0.984500
3.372000 1.000600
3.391900 0.995400
3.411800 0.978700
3.431700 0.962200
3.451500 0.945600
3.471400 0.927000
3.491300 0.909100
3.511200 0.897800
3.531100 0.885200
3.551000 0.885900
3.570900 0.894100
3.590800 0.878800
3.610700 0.860400
3.630600 0.843400
3.650500 0.832400
3.670400 0.825600
3.690300 0.819300
3.710200 0.813900
3.730100 0.804900
3.750000 0.794800
3.769900 0.792700
3.789800 0.783900
3.809700 0.770700
3.829600 0.757600
3.849500 0.741800
3.869400 0.728700
3.889300 0.717600
3.909200 0.707600
3.929100 0.699100
3.949000 0.692300
3.968900 0.687600
3.988700 0.687000
4.008600 0.678500
4.028500 0.674600
4.048400 0.658300
4.068300 0.641500
4.088200 0.628500
4.108100 0.621200
4.128000 0.616100
4.147900 0.609300
4.167800 0.598700
4.187700 0.588300
4.207600 0.579900
4.227500 0.573500
4.247400 0.562900
4.267300 0.550800
4.287200 0.542200
4.307100 0.538000
4.327000 0.533100
4.346900 0.524000
4.366800 0.512800
4.386700 0.501700
4.406600 0.493100
4.426500 0.485700
4.446400 0.480900
4.466300 0.474900
4.486200 0.458500
4.506100 0.441400
4.525900 0.425900
4.545800 0.408100
4.565700 0.400600
4.585600 0.388800
4.605500 0.371100
4.625400 0.359200
4.645300 0.351800
4.665200 0.347500
4.685100 0.347600
4.705000 0.347900
4.724900 0.341300
4.744800 0.340500
4.764700 0.320400
4.784600 0.289500
4.804500 0.268200
4.824400 0.248500
4.844300 0.229400
4.864200 0.214200
4.884100 0.205200
4.904000 0.204300
4.923900 0.202400
4.943800 0.193600
4.963700 0.181700
4.983600 0.156600
5.003500 0.143700
5.023400 0.133100
5.043300 0.118600
5.063200 0.113400
5.083000 0.121400
5.102900 0.118700
5.122800 0.107900
5.142700 0.102400
5.162600 0.100800
5.182500 0.103800
5.202400 0.109000
5.222300 0.114400
5.242200 0.121000
5.262100 0.128800
5.282000 0.137400
5.301900 0.145900
5.321800 0.155400
5.341700 0.166700
5.361600 0.183600
5.381500 0.209600
5.401400 0.241400
5.421300 0.293000
5.441200 0.359000
5.461100 0.410300
5.481000 0.471700
5.500900 0.518000
5.520800 0.564900
5.540700 0.581400
5.560600 0.622300
5.580500 0.666900
5.600400 0.714300
5.620200 0.758600
5.640100 0.770400
5.660000 0.804400
5.679900 0.832900
5.699800 0.876600
5.719700 0.930500
5.739600 0.983300
5.759500 1.060600
5.779400 1.118900
5.799300 1.175100
5.819200 1.169900
5.839100 1.198500
5.859000 1.235000
5.878900 1.258800
5.898800 1.312500
5.918700 1.374700
5.938600 1.393800
5.958500 1.418500
5.978400 1.422300
5.998300 1.458100
6.018200 1.473800
6.038100 1.507300
6.058000 1.510800
6.077900 1.500200
6.097800 1.521900
6.117700 1.547000
6.137600 1.547300
6.157400 1.553800
6.177300 1.560900
6.197200 1.592400
6.217100 1.588300
6.237000 1.585900
6.256900 1.492200
6.276800 1.448900
6.296700 1.408400
6.316600 1.372000
6.336500 1.341000
6.356400 1.314200
6.376300 1.296500
6.396200 1.285600
6.416100 1.289600
6.436000 1.319000
6.455900 1.326200
6.475800 1.315000
6.495700 1.324500
6.515600 1.367000
6.535500 1.386200
6.555400 1.371300
6.575300 1.362800
6.595200 1.354600
6.615100 1.348100
6.635000 1.350700
6.654900 1.353600
6.674800 1.356600
6.694600 1.373500
6.714500 1.418900
6.734400 1.454200
6.754300 1.524400
6.774200 1.545100
6.794100 1.541200
6.814000 1.556200
6.833900 1.581600
6.853800 1.615400
6.873700 1.651400
6.893600 1.700300
6.913500 1.798100
6.933400 1.753300
6.953300 1.733800
6.973200 1.712200
6.993100 1.699400
7.013000 1.697000
7.032900 1.691000
7.052800 1.700200
7.072700 1.708700
7.092600 1.699500
7.112500 1.707200
7.132400 1.720400
7.152300 1.736500
7.172200 1.742000
7.192100 1.764300
7.212000 1.790400
7.231900 1.815900
7.251700 1.879200
7.271600 1.984300
7.291500 1.972300
7.311400 2.002600
7.331300 2.045900
7.351200 1.975700
7.371100 1.872800
7.391000 1.754000
7.410900 1.629100
7.430800 1.526600
7.450700 1.410800
7.470600 1.331900
7.490500 1.267200
7.510400 1.217600
7.530300 1.180100
7.550200 1.153400
7.570100 1.141100
7.590000 1.120000
7.609900 1.100400
7.629800 1.089600
7.649700 1.077900
7.669600 1.080200
7.689500 1.062300
7.709400 1.056400
7.729300 1.053600
7.749200 1.054600
7.769100 1.060000
7.788900 1.074800
7.808800 1.094100
7.828700 1.130700
7.848600 1.169800
7.868500 1.211300
7.888400 1.231700
7.908300 1.224000
7.928200 1.209200
7.948100 1.185900
7.968000 1.166000
7.987900 1.150700
8.007800 1.138700
8.027700 1.130300
8.047600 1.121000
8.067500 1.107600
8.087400 1.115300
8.107300 1.109600
8.127200 1.108400
8.147100 1.107900
8.167000 1.107200
8.186900 1.108900
8.206800 1.112000
8.226700 1.117300
8.246600 1.127700
8.266500 1.145800
8.286400 1.155700
8.306300 1.166600
8.326100 1.177500
8.346000 1.183000
8.365900 1.190900
8.385800 1.202800
8.405700 1.205600
8.425600 1.210200
8.445500 1.227200
8.465400 1.228100
8.485300 1.226500
8.505200 1.235900
8.525100 1.236200
8.545000 1.245400
8.564900 1.254500
8.584800 1.260700
8.604700 1.278200
8.624600 1.285200
8.644500 1.293300
8.664400 1.301200
8.684300 1.311700
8.704200 1.309600
8.724100 1.311600
8.744000 1.327500
8.763900 1.330200
8.783800 1.333000
8.803700 1.326700
8.823600 1.344800
8.843500 1.368100
8.863300 1.363700
8.883200 1.351100
8.903100 1.341500
8.923000 1.320300
8.942900 1.290900
8.962800 1.250200
8.982700 1.216000
9.002600 1.184000
9.022500 1.154600
9.042400 1.126800
9.062300 1.099400
9.082200 1.074500
9.102100 1.051000
9.122000 1.028900
9.141900 1.008100
9.161800 0.988700
9.181700 0.971600
9.201600 0.954100
9.221500 0.937300
9.241400 0.922100
9.261300 0.907400
9.281200 0.893100
9.301100 0.878500
9.321000 0.863200
9.340900 0.849100
9.360800 0.835600
9.380700 0.822600
9.400500 0.810600
9.420400 0.799900
9.440300 0.790500
9.460200 0.779700
9.480100 0.768000
9.500000 0.755700
9.519900 0.744500
9.539800 0.735000
9.559700 0.726200
9.579600 0.718000
9.599500 0.709800
9.619400 0.700700
9.639300 0.690700
9.659200 0.676000
