set title 'mp-105 - Density of States'
set xlabel 'Energy (eV)'
set ylabel 'DOS (states/eV)'
set grid
set xrange [-10:10]
set yrange [0:4.645]
set xzeroaxis lt -1
set terminal png size 800,600
set output 'mp-105_dos_gnuplot.png'
plot '-' using 1:2 with lines title 'DOS'
-9.396600 0.000000
-9.372400 0.000000
-9.348300 0.000000
-9.324100 0.000000
-9.299900 0.000000
-9.275800 0.000000
-9.251600 0.000000
-9.227400 0.000000
-9.203300 0.000000
-9.179100 0.000000
-9.154900 0.000000
-9.130800 0.000000
-9.106600 0.000000
-9.082500 0.000000
-9.058300 0.000000
-9.034100 0.000000
-9.010000 0.000000
-8.985800 0.000000
-8.961600 0.000000
-8.937500 0.000000
-8.913300 0.000000
-8.889100 0.000000
-8.865000 0.000000
-8.840800 0.000000
-8.816600 0.000000
-8.792500 0.000000
-8.768300 0.000000
-8.744200 0.000000
-8.720000 0.000000
-8.695800 0.000000
-8.671700 0.000000
-8.647500 0.000000
-8.623300 0.000000
-8.599200 0.000000
-8.575000 0.000000
-8.550800 0.000000
-8.526700 0.000000
-8.502500 0.000000
-8.478400 0.000000
-8.454200 0.000000
-8.430000 0.000000
-8.405900 0.000000
-8.381700 0.000000
-8.357500 0.000000
-8.333400 0.000000
-8.309200 0.000000
-8.285000 0.000000
-8.260900 0.000000
-8.236700 0.000000
-8.212600 0.000000
-8.188400 0.000000
-8.164200 0.000000
-8.140100 0.000000
-8.115900 0.000000
-8.091700 0.000000
-8.067600 0.000000
-8.043400 0.000000
-8.019200 0.000000
-7.995100 0.000000
-7.970900 0.000000
-7.946700 0.000000
-7.922600 0.000000
-7.898400 0.000000
-7.874300 0.000000
-7.850100 0.000000
-7.825900 0.000000
-7.801800 0.000000
-7.777600 0.000000
-7.753400 0.000000
-7.729300 0.000000
-7.705100 0.000000
-7.680900 0.000000
-7.656800 0.000000
-7.632600 0.000000
-7.608500 0.000000
-7.584300 0.000000
-7.560100 0.000000
-7.536000 0.000000
-7.511800 0.000000
-7.487600 0.000000
-7.463500 0.000000
-7.439300 0.000000
-7.415100 0.000000
-7.391000 0.000000
-7.366800 0.000000
-7.342600 0.000000
-7.318500 0.000000
-7.294300 0.000000
-7.270200 0.000000
-7.246000 0.000000
-7.221800 0.000000
-7.197700 0.000300
-7.173500 0.046400
-7.149300 0.170300
-7.125200 0.307600
-7.101000 0.369200
-7.076800 0.381600
-7.052700 0.415900
-7.028500 0.472900
-7.004400 0.535200
-6.980200 0.593800
-6.956000 0.702100
-6.931900 0.793200
-6.907700 0.780800
-6.883500 0.750500
-6.859400 0.757200
-6.835200 0.775200
-6.811000 0.790600
-6.786900 0.801700
-6.762700 0.801200
-6.738600 0.793500
-6.714400 0.793200
-6.690200 0.832300
-6.666100 0.951200
-6.641900 1.030100
-6.617700 1.024100
-6.593600 1.033400
-6.569400 1.070100
-6.545200 1.104100
-6.521100 1.135500
-6.496900 1.159900
-6.472700 1.177800
-6.448600 1.202500
-6.424400 1.235300
-6.400300 1.266100
-6.376100 1.295500
-6.351900 1.325700
-6.327800 1.356600
-6.303600 1.385500
-6.279400 1.412500
-6.255300 1.440800
-6.231100 1.468100
-6.206900 1.494500
-6.182800 1.522900
-6.158600 1.552300
-6.134500 1.583200
-6.110300 1.615300
-6.086100 1.648400
-6.062000 1.732600
-6.037800 1.896600
-6.013600 1.948600
-5.989500 1.920200
-5.965300 1.950700
-5.941100 2.036400
-5.917000 2.009700
-5.892800 1.945900
-5.868600 1.969500
-5.844500 1.975700
-5.820300 2.116600
-5.796200 2.176600
-5.772000 2.152200
-5.747800 2.167100
-5.723700 2.220900
-5.699500 2.312800
-5.675300 2.370800
-5.651200 2.326700
-5.627000 2.254600
-5.602800 2.221000
-5.578700 2.198100
-5.554500 2.206500
-5.530400 2.254100
-5.506200 2.342500
-5.482000 2.653500
-5.457900 2.833700
-5.433700 2.815400
-5.409500 2.875900
-5.385400 2.855100
-5.361200 2.881200
-5.337000 2.996500
-5.312900 3.188400
-5.288700 3.187000
-5.264600 3.172900
-5.240400 3.023300
-5.216200 2.922500
-5.192100 2.925700
-5.167900 2.929600
-5.143700 2.921300
-5.119600 2.918500
-5.095400 2.881800
-5.071200 2.888100
-5.047100 2.885800
-5.022900 2.873700
-4.998700 2.978500
-4.974600 2.960000
-4.950400 2.873100
-4.926300 2.869100
-4.902100 2.854100
-4.877900 2.838300
-4.853800 2.833600
-4.829600 2.837400
-4.805400 2.871900
-4.781300 2.932100
-4.757100 2.838200
-4.732900 2.676900
-4.708800 2.648700
-4.684600 2.623500
-4.660500 2.598000
-4.636300 2.567500
-4.612100 2.534300
-4.588000 2.496600
-4.563800 2.483000
-4.539600 2.475200
-4.515500 2.459700
-4.491300 2.444400
-4.467100 2.443100
-4.443000 2.435100
-4.418800 2.426600
-4.394600 2.414500
-4.370500 2.403900
-4.346300 2.508700
-4.322200 2.396500
-4.298000 2.446600
-4.273800 2.471000
-4.249700 2.305000
-4.225500 2.251400
-4.201300 2.249600
-4.177200 2.243500
-4.153000 2.230200
-4.128800 2.237700
-4.104700 2.202300
-4.080500 2.157200
-4.056400 2.116300
-4.032200 2.082500
-4.008000 2.100500
-3.983900 2.071100
-3.959700 1.943800
-3.935500 1.924000
-3.911400 1.922700
-3.887200 1.916700
-3.863000 1.928700
-3.838900 1.941500
-3.814700 1.954200
-3.790600 1.966200
-3.766400 2.101500
-3.742200 1.897300
-3.718100 1.844200
-3.693900 1.706000
-3.669700 1.646500
-3.645600 1.591500
-3.621400 1.632400
-3.597200 1.587500
-3.573100 1.724900
-3.548900 1.384300
-3.524700 1.338400
-3.500600 1.292800
-3.476400 1.248100
-3.452300 1.205900
-3.428100 1.171700
-3.403900 1.133500
-3.379800 1.096200
-3.355600 1.060100
-3.331400 1.027500
-3.307300 0.995400
-3.283100 0.969200
-3.258900 0.942300
-3.234800 0.916300
-3.210600 0.881500
-3.186500 0.848100
-3.162300 0.816000
-3.138100 0.785100
-3.114000 0.796100
-3.089800 0.755200
-3.065600 0.715900
-3.041500 0.558400
-3.017300 0.550300
-2.993100 0.542600
-2.969000 0.539400
-2.944800 0.532500
-2.920700 0.526500
-2.896500 0.520300
-2.872300 0.514100
-2.848200 0.507700
-2.824000 0.501100
-2.799800 0.493600
-2.775700 0.489300
-2.751500 0.485800
-2.727300 0.479400
-2.703200 0.482500
-2.679000 0.473300
-2.654800 0.463400
-2.630700 0.453000
-2.606500 0.442000
-2.582400 0.430600
-2.558200 0.480300
-2.534000 0.459500
-2.509900 0.436800
-2.485700 0.327300
-2.461500 0.311700
-2.437400 0.298100
-2.413200 0.286600
-2.389000 0.275300
-2.364900 0.264500
-2.340700 0.252700
-2.316600 0.239700
-2.292400 0.226900
-2.268200 0.214000
-2.244100 0.200600
-2.219900 0.186800
-2.195700 0.172600
-2.171600 0.163400
-2.147400 0.155500
-2.123200 0.146600
-2.099100 0.136700
-2.074900 0.115000
-2.050700 0.093900
-2.026600 0.068800
-2.002400 0.046200
-1.978300 0.026300
-1.954100 0.009200
-1.929900 0.000000
-1.905800 0.000000
-1.881600 0.000000
-1.857400 0.000000
-1.833300 0.000000
-1.809100 0.000000
-1.784900 0.000000
-1.760800 0.000000
-1.736600 0.000000
-1.712500 0.000000
-1.688300 0.000000
-1.664100 0.000000
-1.640000 0.000000
-1.615800 0.000000
-1.591600 0.000000
-1.567500 0.000000
-1.543300 0.000000
-1.519100 0.000000
-1.495000 0.000000
-1.470800 0.000000
-1.446700 0.000000
-1.422500 0.000000
-1.398300 0.000000
-1.374200 0.000000
-1.350000 0.000000
-1.325800 0.000000
-1.301700 0.000000
-1.277500 0.000000
-1.253300 0.000000
-1.229200 0.000000
-1.205000 0.000000
-1.180800 0.000000
-1.156700 0.000000
-1.132500 0.000000
-1.108400 0.000000
-1.084200 0.000000
-1.060000 0.000000
-1.035900 0.000000
-1.011700 0.000000
-0.987500 0.000000
-0.963400 0.000000
-0.939200 0.000000
-0.915000 0.000000
-0.890900 0.000000
-0.866700 0.000000
-0.842600 0.000000
-0.818400 0.000000
-0.794200 0.000000
-0.770100 0.000000
-0.745900 0.000000
-0.721700 0.000000
-0.697600 0.000000
-0.673400 0.000000
-0.649200 0.000000
-0.625100 0.000000
-0.600900 0.000000
-0.576700 0.000000
-0.552600 0.000000
-0.528400 0.000000
-0.504300 0.000000
-0.480100 0.000000
-0.455900 0.000000
-0.431800 0.000000
-0.407600 0.000000
-0.383400 0.000000
-0.359300 0.000000
-0.335100 0.000000
-0.310900 0.000000
-0.286800 0.000000
-0.262600 0.000000
-0.238500 0.000000
-0.214300 0.000000
-0.190100 0.000000
-0.166000 0.000000
-0.141800 0.000000
-0.117600 0.000000
-0.093500 0.000000
-0.069300 0.000000
-0.045100 0.000000
-0.021000 0.000000
0.003200 0.000000
0.027300 0.000000
0.051500 0.000000
0.075700 0.000000
0.099800 0.000000
0.124000 0.000000
0.148200 0.000000
0.172300 0.000000
0.196500 0.000000
0.220700 0.000000
0.244800 0.000000
0.269000 0.000000
0.293200 0.000000
0.317300 0.000000
0.341500 0.000000
0.365600 0.000000
0.389800 0.000000
0.414000 0.000000
0.438100 0.000000
0.462300 0.000000
0.486500 0.000000
0.510600 0.055100
0.534800 0.250200
0.559000 0.451500
0.583100 0.491300
0.607300 0.496600
0.631400 0.561300
0.655600 0.645500
0.679800 0.729800
0.703900 0.802900
0.728100 0.960800
0.752300 0.989900
0.776400 0.952100
0.800600 0.989700
0.824800 1.039800
0.848900 1.153000
0.873100 1.254200
0.897300 1.289900
0.921400 1.340500
0.945600 1.448000
0.969700 1.436500
0.993900 1.507200
1.018100 1.535600
1.042200 1.459800
1.066400 1.472700
1.090600 1.491800
1.114700 1.507400
1.138900 1.520900
1.163100 1.532600
1.187200 1.560500
1.211400 1.592300
1.235500 1.690100
1.259700 1.931800
1.283900 2.379800
1.308000 2.287400
1.332200 2.022500
1.356400 2.058700
1.380500 2.093700
1.404700 2.135700
1.428900 2.176800
1.453000 2.194800
1.477200 2.169400
1.501300 2.203800
1.525500 2.247900
1.549700 2.293300
1.573800 2.344900
1.598000 2.594900
1.622200 2.653300
1.646300 2.750900
1.670500 2.782900
1.694700 2.801600
1.718800 2.877900
1.743000 2.939200
1.767200 2.993900
1.791300 3.250400
1.815500 3.419100
1.839600 3.434600
1.863800 3.372700
1.888000 3.501700
1.912100 3.393900
1.936300 3.231900
1.960500 3.179500
1.984600 3.123100
2.008800 3.119900
2.033000 3.203000
2.057100 3.591800
2.081300 3.738700
2.105400 3.948700
2.129600 3.900900
2.153800 3.895600
2.177900 3.846200
2.202100 3.858300
2.226300 3.921600
2.250400 3.928300
2.274600 4.024300
2.298800 4.043200
2.322900 4.049200
2.347100 3.807600
2.371300 3.673200
2.395400 3.573000
2.419600 3.533300
2.443700 3.507900
2.467900 3.804700
2.492100 3.477300
2.516200 3.421900
2.540400 3.477500
2.564600 3.538800
2.588700 3.540800
2.612900 3.556300
2.637100 3.637800
2.661200 3.768600
2.685400 3.689100
2.709500 3.642800
2.733700 3.554400
2.757900 3.751000
2.782000 3.780600
2.806200 3.986300
2.830400 3.554700
2.854500 3.566000
2.878700 3.597000
2.902900 3.603600
2.927000 3.611400
2.951200 3.632500
2.975300 3.660200
2.999500 3.705400
3.023700 3.694700
3.047800 3.977400
3.072000 4.222800
3.096200 4.086200
3.120300 3.995400
3.144500 3.924500
3.168700 3.882400
3.192800 3.901000
3.217000 3.787100
3.241200 3.555300
3.265300 3.491900
3.289500 3.445400
3.313600 3.427000
3.337800 3.461700
3.362000 3.522300
3.386100 3.560700
3.410300 3.574000
3.434500 3.632500
3.458600 3.805400
3.482800 3.706100
3.507000 3.686000
3.531100 3.653600
3.555300 3.624200
3.579400 3.574500
3.603600 3.479600
3.627800 3.387300
3.651900 3.357600
3.676100 3.354200
3.700300 3.388800
3.724400 3.474200
3.748600 3.445000
3.772800 3.412900
3.796900 3.389100
3.821100 3.335500
3.845300 3.200600
3.869400 3.035500
3.893600 2.850300
3.917700 2.692900
3.941900 2.585100
3.966100 2.484900
3.990200 2.374400
4.014400 2.255600
4.038600 2.154500
4.062700 2.088200
4.086900 2.049400
4.111100 2.006500
4.135200 1.974300
4.159400 1.964500
4.183500 1.974300
4.207700 1.993100
4.231900 2.014000
4.256000 2.039500
4.280200 2.076300
4.304400 2.129400
4.328500 2.185600
4.352700 2.253400
4.376900 2.328900
4.401000 2.384300
4.425200 2.439100
4.449300 2.525000
4.473500 2.708400
4.497700 2.948900
4.521800 3.097800
4.546000 3.201200
4.570200 3.219000
4.594300 3.236100
4.618500 3.258000
4.642700 3.328000
4.666800 3.415900
4.691000 3.375700
4.715200 3.367000
4.739300 3.201500
4.763500 3.065800
4.787600 3.004300
4.811800 2.995500
4.836000 2.973400
4.860100 2.953200
4.884300 2.942800
4.908500 2.947300
4.932600 2.858500
4.956800 2.832600
4.981000 2.837500
5.005100 2.825500
5.029300 2.739700
5.053400 2.650400
5.077600 2.554400
5.101800 2.499400
5.125900 2.477100
5.150100 2.439000
5.174300 2.387800
5.198400 2.321600
5.222600 2.223100
5.246800 2.155700
5.270900 2.156600
5.295100 2.100500
5.319300 2.017500
5.343400 1.871000
5.367600 1.878000
5.391700 1.889700
5.415900 1.930500
5.440100 2.000000
5.464200 2.067200
5.488400 2.158700
5.512600 2.283500
5.536700 2.333700
5.560900 2.374600
5.585100 2.406800
5.609200 2.411400
5.633400 2.433900
5.657500 2.478400
5.681700 2.514900
5.705900 2.542000
5.730000 2.549100
5.754200 2.542900
5.778400 2.539900
5.802500 2.535200
5.826700 2.542600
5.850900 2.547100
5.875000 2.535500
5.899200 2.545700
5.923300 2.639300
5.947500 2.699400
5.971700 2.685300
5.995800 2.826000
6.020000 2.840300
6.044200 2.678400
6.068300 2.640800
6.092500 2.602300
6.116700 2.495700
6.140800 2.481800
6.165000 2.507000
6.189200 2.487200
6.213300 2.440100
6.237500 2.423800
6.261600 2.411600
6.285800 2.399800
6.310000 2.389600
6.334100 2.384200
6.358300 2.380200
6.382500 2.400500
6.406600 2.401200
6.430800 2.395200
6.455000 2.380100
6.479100 2.364600
6.503300 2.363500
6.527400 2.368900
6.551600 2.393600
6.575800 2.417100
6.599900 2.532600
6.624100 2.520300
6.648300 2.459800
6.672400 2.453600
6.696600 2.442400
6.720800 2.437200
6.744900 2.387700
6.769100 2.401200
6.793300 2.409500
6.817400 2.417400
6.841600 2.428100
6.865700 2.433300
6.889900 2.481800
6.914100 2.532500
6.938200 2.461300
6.962400 2.484400
6.986600 2.493900
7.010700 2.498400
7.034900 2.506200
7.059100 2.489600
7.083200 2.476900
7.107400 2.466400
7.131500 2.457800
7.155700 2.453000
7.179900 2.455000
7.204000 2.447700
7.228200 2.594800
7.252400 2.518300
7.276500 2.518300
7.300700 2.516600
7.324900 2.503000
7.349000 2.491800
7.373200 2.469800
7.397300 2.439200
7.421500 2.398900
7.445700 2.423900
7.469800 2.484900
7.494000 2.516800
7.518200 2.542600
7.542300 2.553200
7.566500 2.582600
7.590700 2.648300
7.614800 2.714800
7.639000 2.760900
7.663200 2.789500
7.687300 2.839900
7.711500 2.853200
7.735600 2.789800
7.759800 2.759900
7.784000 2.724000
7.808100 2.694300
7.832300 2.834700
7.856500 2.789000
7.880600 2.635200
7.904800 2.652800
7.929000 2.675500
7.953100 2.680600
7.977300 2.689400
8.001400 2.730100
8.025600 2.804500
8.049800 2.871300
8.073900 2.877000
8.098100 2.914300
8.122300 2.908800
8.146400 2.901900
8.170600 2.898800
8.194800 2.902500
8.218900 2.904200
8.243100 2.901500
8.267300 2.923300
8.291400 3.039500
8.315600 2.935300
8.339700 3.051400
8.363900 2.928200
8.388100 2.905300
8.412200 2.887700
8.436400 2.888800
8.460600 2.902400
8.484700 2.970600
8.508900 3.008600
8.533100 3.017400
8.557200 3.027800
8.581400 3.028500
8.605500 3.022000
8.629700 2.994600
8.653900 2.964500
8.678000 3.025900
8.702200 3.168100
8.726400 3.228200
8.750500 3.157100
8.774700 3.156600
8.798900 3.114200
8.823000 3.090400
8.847200 3.084200
8.871300 3.041600
8.895500 2.961400
8.919700 3.009600
8.943800 2.841700
8.968000 2.679300
8.992200 2.586500
9.016300 2.524300
9.040500 2.585100
9.064700 2.535700
9.088800 2.714600
9.113000 2.186100
9.137200 2.109500
9.161300 2.135000
9.185500 2.032000
9.209600 1.961100
9.233800 1.856900
9.258000 1.946800
9.282100 1.863100
9.306300 1.727200
9.330500 1.657100
9.354600 1.584500
9.378800 1.567100
9.403000 1.606700
9.427100 1.599600
9.451300 1.603100
9.475400 1.622400
9.499600 1.996600
9.523800 1.730500
9.547900 1.567500
9.572100 1.537000
9.596300 1.498100
9.620400 1.490600
9.644600 1.554100
9.668800 1.528300
9.692900 1.526800
9.717100 1.522300
9.741300 1.526100
9.765400 1.557000
9.789600 1.599300
9.813700 1.644900
9.837900 1.710900
9.862100 1.826800
9.886200 1.902600
9.910400 1.924900
9.934600 1.901600
9.958700 1.792000
9.982900 1.670300
10.007100 1.640400
10.031200 1.576600
10.055400 1.518500
10.079500 1.466000
10.103700 1.444600
10.127900 1.398300
10.152000 1.354100
10.176200 1.354600
10.200400 1.355500
10.224500 1.362800
10.248700 1.377500
10.272900 1.395600
10.297000 1.412900
10.321200 1.438000
10.345300 1.464000
10.369500 1.490100
10.393700 1.517100
10.417800 1.551000
10.442000 1.595700
10.466200 1.668900
10.490300 1.750500
10.514500 1.820700
10.538700 1.879900
10.562800 1.940800
10.587000 1.998200
10.611200 2.046000
10.635300 2.156600
10.659500 1.937900
10.683600 1.775600
10.707800 1.774100
10.732000 1.783500
10.756100 1.735500
10.780300 1.687500
10.804500 1.637200
10.828600 1.558400
10.852800 1.531300
10.877000 1.511400
10.901100 1.501100
10.925300 1.515200
10.949400 1.533700
10.973600 1.557300
10.997800 1.566900
11.021900 1.562500
11.046100 1.553800
11.070300 1.542500
11.094400 1.528600
11.118600 1.575900
11.142800 1.634600
11.166900 1.683400
11.191100 1.720400
11.215300 1.723000
11.239400 1.738600
11.263600 1.768100
11.287700 1.810400
11.311900 1.822900
11.336100 1.833200
11.360200 1.834600
11.384400 1.827300
11.408600 1.821000
11.432700 1.818200
11.456900 1.864900
11.481100 1.986200
11.505200 1.866800
11.529400 1.888100
11.553500 1.911800
11.577700 1.937900
11.601900 1.958900
11.626000 1.983300
11.650200 1.988500
11.674400 1.994100
11.698500 1.988100
11.722700 2.000500
11.746900 2.011800
11.771000 2.020600
11.795200 2.023500
11.819300 2.044300
11.843500 1.942700
11.867700 1.861800
11.891800 1.829000
11.916000 1.827300
11.940200 1.827300
11.964300 1.831700
11.988500 1.836600
12.012700 1.841000
12.036800 1.844900
12.061000 1.849100
12.085200 1.864400
12.109300 1.877500
12.133500 1.901600
12.157600 1.929000
12.181800 1.962400
12.206000 1.990600
12.230100 2.014200
12.254300 1.990300
12.278500 1.947800
12.302600 1.902900
12.326800 1.939100
12.351000 1.930000
12.375100 1.988600
12.399300 1.938400
12.423400 1.945100
12.447600 2.146800
12.471800 2.235000
12.495900 2.148400
12.520100 2.179300
12.544300 2.212500
12.568400 2.198700
12.592600 2.165200
12.616800 2.223900
12.640900 2.239400
12.665100 2.239400
12.689300 2.241700
12.713400 2.230600
12.737600 2.211300
12.761700 2.218900
12.785900 2.213000
12.810100 2.246000
12.834200 2.298800
12.858400 2.334800
12.882600 2.371800
12.906700 2.399600
12.930900 2.428700
12.955100 2.454500
12.979200 2.469000
13.003400 2.504400
13.027500 2.544100
13.051700 2.584700
13.075900 2.624200
13.100000 2.681800
13.124200 2.737800
13.148400 2.790300
13.172500 2.867300
13.196700 2.916900
13.220900 2.953800
13.245000 3.029800
13.269200 3.094200
13.293300 3.165000
13.317500 3.234300
13.341700 3.329200
13.365800 3.413200
13.390000 3.498900
13.414200 3.513600
13.438300 3.547300
13.462500 3.585000
13.486700 3.614400
13.510800 3.633500
13.535000 3.685500
13.559200 3.755200
13.583300 3.752000
13.607500 3.743300
13.631600 3.790400
13.655800 3.815100
13.680000 3.831900
13.704100 3.838100
13.728300 3.895900
13.752500 3.895900
13.776600 4.286800
13.800800 3.791500
13.825000 3.803900
13.849100 3.832200
13.873300 3.855400
13.897400 3.846600
13.921600 3.799300
13.945800 3.801400
13.969900 3.796100
13.994100 3.787700
14.018300 3.748400
14.042400 3.722400
14.066600 3.705300
14.090800 3.699200
14.114900 3.769900
14.139100 3.810100
14.163300 3.857900
14.187400 3.885300
14.211600 3.906300
14.235700 3.913700
14.259900 3.799400
14.284100 3.766700
14.308200 3.761200
14.332400 3.761800
14.356600 3.776600
14.380700 3.795400
14.404900 3.823800
14.429100 3.854300
14.453200 3.889400
14.477400 3.845000
14.501500 3.906000
14.525700 3.973800
14.549900 4.107000
14.574000 4.217300
14.598200 4.362200
14.622400 4.454800
14.646500 4.421100
14.670700 4.460200
14.694900 4.535600
14.719000 4.532600
14.743200 4.451700
14.767300 4.359000
14.791500 4.337000
14.815700 4.315600
14.839800 4.345800
14.864000 4.404400
14.888200 4.514700
14.912300 4.606600
14.936500 4.592200
14.960700 4.579400
14.984800 4.523500
15.009000 4.517900
15.033200 4.526700
15.057300 4.562600
15.081500 4.606700
15.105600 4.742000
15.129800 4.817000
15.154000 5.099100
15.178100 5.572400
15.202300 5.614100
15.226500 5.448500
15.250600 5.282200
15.274800 5.360900
15.299000 5.333900
15.323100 5.012700
15.347300 4.905300
15.371400 4.646900
15.395600 4.496500
15.419800 4.390700
15.443900 4.226300
15.468100 4.128300
15.492300 4.089200
15.516400 4.077800
15.540600 4.008600
15.564800 4.019100
15.588900 3.852800
15.613100 4.034400
15.637300 3.716600
15.661400 3.687600
15.685600 3.598500
15.709700 3.459100
15.733900 3.588700
15.758100 3.442100
15.782200 3.133600
15.806400 3.038200
15.830600 3.009700
15.854700 2.989200
15.878900 2.909000
15.903100 2.864900
15.927200 2.800300
15.951400 2.809200
15.975500 2.841400
15.999700 2.869500
16.023900 2.918900
16.048000 3.014700
16.072200 3.063500
16.096400 3.140700
16.120500 3.265800
16.144700 3.362200
16.168900 3.457300
16.193000 3.554300
