set title 'mp-13862 - Density of States'
set xlabel 'Energy (eV)'
set ylabel 'DOS (states/eV)'
set grid
set xrange [-10:10]
set yrange [0:14.995]
set xzeroaxis lt -1
set terminal png size 800,600
set output 'mp-13862_dos_gnuplot.png'
plot '-' using 1:2 with lines title 'DOS'
-15.863800 0.000000
-15.845200 0.000000
-15.826600 0.000000
-15.808000 0.000000
-15.789300 0.000000
-15.770700 0.000000
-15.752100 0.000000
-15.733500 0.000000
-15.714800 0.000000
-15.696200 0.000000
-15.677600 0.000000
-15.659000 0.000000
-15.640400 0.000000
-15.621700 0.000000
-15.603100 0.000000
-15.584500 0.000000
-15.565900 0.000000
-15.547200 0.000000
-15.528600 0.000000
-15.510000 0.000000
-15.491400 0.000000
-15.472700 0.000000
-15.454100 0.000000
-15.435500 0.000000
-15.416900 0.000000
-15.398300 0.000000
-15.379600 0.000000
-15.361000 0.000000
-15.342400 0.000000
-15.323800 0.000000
-15.305100 0.000000
-15.286500 0.000000
-15.267900 0.000000
-15.249300 0.000000
-15.230700 0.000000
-15.212000 0.000000
-15.193400 0.000000
-15.174800 0.000000
-15.156200 0.000000
-15.137500 0.000000
-15.118900 0.000000
-15.100300 0.000000
-15.081700 0.000000
-15.063000 0.000000
-15.044400 0.000000
-15.025800 0.000000
-15.007200 0.000000
-14.988600 0.000000
-14.969900 0.000000
-14.951300 0.000000
-14.932700 0.000000
-14.914100 0.000000
-14.895400 0.000000
-14.876800 0.000000
-14.858200 0.000000
-14.839600 0.000000
-14.820900 0.000000
-14.802300 0.000000
-14.783700 0.000000
-14.765100 0.000000
-14.746500 0.000000
-14.727800 0.000000
-14.709200 0.000000
-14.690600 0.000000
-14.672000 0.000000
-14.653300 0.000000
-14.634700 0.000000
-14.616100 0.000000
-14.597500 0.000000
-14.578900 0.000000
-14.560200 0.000000
-14.541600 0.000000
-14.523000 0.000000
-14.504400 0.000000
-14.485700 0.000000
-14.467100 0.000000
-14.448500 0.000000
-14.429900 0.000000
-14.411200 0.000000
-14.392600 0.000000
-14.374000 0.000000
-14.355400 0.000000
-14.336800 0.000000
-14.318100 0.000000
-14.299500 0.000000
-14.280900 0.000000
-14.262300 0.000000
-14.243600 0.000000
-14.225000 0.000000
-14.206400 0.000000
-14.187800 0.000000
-14.169100 0.093500
-14.150500 1.441000
-14.131900 2.788500
-14.113300 1.828600
-14.094700 1.968000
-14.076000 2.107400
-14.057400 2.246700
-14.038800 2.374200
-14.020200 2.334900
-14.001500 2.295500
-13.982900 2.377800
-13.964300 2.467100
-13.945700 2.556400
-13.927100 2.645800
-13.908400 2.735100
-13.889800 2.909300
-13.871200 3.081200
-13.852600 3.253100
-13.833900 3.427000
-13.815300 3.621100
-13.796700 3.815300
-13.778100 4.009500
-13.759400 4.203700
-13.740800 5.587200
-13.722200 7.297700
-13.703600 11.732800
-13.685000 7.570800
-13.666300 6.797900
-13.647700 6.606100
-13.629100 2.333900
-13.610500 0.000000
-13.591800 0.000000
-13.573200 0.000000
-13.554600 0.000000
-13.536000 0.000000
-13.517300 0.000000
-13.498700 0.000000
-13.480100 0.000000
-13.461500 0.000000
-13.442900 0.000000
-13.424200 0.000000
-13.405600 0.000000
-13.387000 0.000000
-13.368400 0.000000
-13.349700 0.000000
-13.331100 0.000000
-13.312500 0.000000
-13.293900 0.000000
-13.275300 0.000000
-13.256600 0.000000
-13.238000 0.000000
-13.219400 0.000000
-13.200800 0.000000
-13.182100 0.000000
-13.163500 0.000000
-13.144900 0.000000
-13.126300 0.000000
-13.107600 0.000000
-13.089000 0.000000
-13.070400 0.000000
-13.051800 0.000000
-13.033200 0.000000
-13.014500 0.000000
-12.995900 0.000000
-12.977300 0.000000
-12.958700 0.000000
-12.940000 0.000000
-12.921400 0.000000
-12.902800 0.000000
-12.884200 0.000000
-12.865600 0.000000
-12.846900 0.000000
-12.828300 0.000000
-12.809700 0.000000
-12.791100 0.000000
-12.772400 0.000000
-12.753800 0.000000
-12.735200 0.000000
-12.716600 0.000000
-12.697900 0.000000
-12.679300 0.000000
-12.660700 0.000000
-12.642100 0.000000
-12.623500 0.000000
-12.604800 0.000000
-12.586200 0.000000
-12.567600 0.000000
-12.549000 0.000000
-12.530300 0.000000
-12.511700 0.000000
-12.493100 0.000000
-12.474500 0.000000
-12.455800 0.000000
-12.437200 0.000000
-12.418600 0.000000
-12.400000 0.000000
-12.381400 0.000000
-12.362700 0.000000
-12.344100 0.000000
-12.325500 0.000000
-12.306900 0.000000
-12.288200 0.000000
-12.269600 0.000000
-12.251000 0.000000
-12.232400 0.000000
-12.213800 0.000000
-12.195100 0.000000
-12.176500 0.000000
-12.157900 0.000000
-12.139300 0.000000
-12.120600 0.000000
-12.102000 0.000000
-12.083400 0.000000
-12.064800 0.000000
-12.046100 0.000000
-12.027500 0.000000
-12.008900 0.000000
-11.990300 0.000000
-11.971700 0.000000
-11.953000 0.000000
-11.934400 0.000000
-11.915800 0.000000
-11.897200 0.000000
-11.878500 0.000000
-11.859900 0.000000
-11.841300 0.000000
-11.822700 0.000000
-11.804000 0.000000
-11.785400 0.000000
-11.766800 0.000000
-11.748200 0.000000
-11.729600 0.000000
-11.710900 0.000000
-11.692300 0.000000
-11.673700 0.000000
-11.655100 0.000000
-11.636400 0.000000
-11.617800 0.000000
-11.599200 0.000000
-11.580600 0.000000
-11.562000 0.000000
-11.543300 0.000000
-11.524700 0.000000
-11.506100 0.000000
-11.487500 0.000000
-11.468800 0.000000
-11.450200 0.000000
-11.431600 0.000000
-11.413000 0.000000
-11.394300 0.000000
-11.375700 0.000000
-11.357100 0.000000
-11.338500 0.000000
-11.319900 0.000000
-11.301200 0.000000
-11.282600 0.000000
-11.264000 0.000000
-11.245400 0.000000
-11.226700 0.000000
-11.208100 0.000000
-11.189500 0.000000
-11.170900 0.000000
-11.152200 0.000000
-11.133600 0.000000
-11.115000 0.000000
-11.096400 0.000000
-11.077800 0.000000
-11.059100 0.000000
-11.040500 0.000000
-11.021900 0.000000
-11.003300 0.000000
-10.984600 0.000000
-10.966000 0.000000
-10.947400 0.000000
-10.928800 0.000000
-10.910200 0.000000
-10.891500 0.000000
-10.872900 0.000000
-10.854300 0.000000
-10.835700 0.000000
-10.817000 0.000000
-10.798400 0.000000
-10.779800 0.000000
-10.761200 0.000000
-10.742500 0.000000
-10.723900 0.000000
-10.705300 0.000000
-10.686700 0.000000
-10.668100 1.772500
-10.649400 1.960800
-10.630800 2.149000
-10.612200 2.337200
-10.593600 2.525500
-10.574900 2.713700
-10.556300 2.902000
-10.537700 3.090200
-10.519100 3.278400
-10.500400 4.932700
-10.481800 4.592800
-10.463200 4.216200
-10.444600 3.839500
-10.426000 3.462900
-10.407300 3.086200
-10.388700 2.709500
-10.370100 2.332900
-10.351500 1.956200
-10.332800 1.679400
-10.314200 1.538400
-10.295600 1.399900
-10.277000 1.307700
-10.258400 1.317500
-10.239700 1.327300
-10.221100 1.337100
-10.202500 1.346900
-10.183900 1.356800
-10.165200 1.366600
-10.146600 1.376400
-10.128000 1.386200
-10.109400 1.396000
-10.090700 1.405900
-10.072100 1.415700
-10.053500 1.224800
-10.034900 1.251800
-10.016300 1.278700
-9.997600 1.305600
-9.979000 1.332500
-9.960400 1.359400
-9.941800 1.386300
-9.923100 1.413200
-9.904500 1.440100
-9.885900 1.467000
-9.867300 1.607200
-9.848600 1.689400
-9.830000 1.697100
-9.811400 1.704700
-9.792800 1.712400
-9.774200 1.720100
-9.755500 1.868700
-9.736900 2.845600
-9.718300 5.387600
-9.699700 5.655800
-9.681000 4.402800
-9.662400 3.459000
-9.643800 2.515200
-9.625200 1.571600
-9.606600 1.113700
-9.587900 1.360700
-9.569300 1.609300
-9.550700 2.420500
-9.532100 4.570400
-9.513400 6.760800
-9.494800 7.295500
-9.476200 7.792800
-9.457600 5.393700
-9.438900 4.304500
-9.420300 4.361700
-9.401700 4.775500
-9.383100 5.295000
-9.364500 4.096200
-9.345800 3.702700
-9.327200 3.309100
-9.308600 2.915600
-9.290000 2.522000
-9.271300 2.128400
-9.252700 5.151600
-9.234100 8.098000
-9.215500 9.062000
-9.196800 10.948500
-9.178200 13.509100
-9.159600 11.887200
-9.141000 7.959900
-9.122400 5.704600
-9.103700 3.371300
-9.085100 3.093200
-9.066500 2.815100
-9.047900 2.537100
-9.029200 2.286800
-9.010600 2.125800
-8.992000 2.027000
-8.973400 1.928100
-8.954800 1.829300
-8.936100 1.730500
-8.917500 1.631700
-8.898900 1.532800
-8.880300 1.434000
-8.861600 1.618800
-8.843000 1.769500
-8.824400 1.664300
-8.805800 1.559000
-8.787100 1.453800
-8.768500 1.348500
-8.749900 1.243300
-8.731300 1.138000
-8.712700 1.032700
-8.694000 0.927500
-8.675400 1.777900
-8.656800 1.319700
-8.638200 0.861600
-8.619500 0.403500
-8.600900 0.000000
-8.582300 0.000000
-8.563700 0.000000
-8.545100 0.000000
-8.526400 0.000000
-8.507800 0.000000
-8.489200 0.000000
-8.470600 0.000000
-8.451900 0.000000
-8.433300 0.000000
-8.414700 0.000000
-8.396100 0.000000
-8.377400 0.000000
-8.358800 0.000000
-8.340200 0.000000
-8.321600 0.000000
-8.303000 0.000000
-8.284300 0.000000
-8.265700 0.000000
-8.247100 0.000000
-8.228500 0.000000
-8.209800 0.000000
-8.191200 0.000000
-8.172600 0.000000
-8.154000 0.000000
-8.135300 0.000000
-8.116700 0.000000
-8.098100 0.000000
-8.079500 0.000000
-8.060900 0.000000
-8.042200 0.000000
-8.023600 0.000000
-8.005000 0.000000
-7.986400 0.000000
-7.967700 0.000000
-7.949100 0.000000
-7.930500 0.000000
-7.911900 0.000000
-7.893300 0.000000
-7.874600 0.000000
-7.856000 0.000000
-7.837400 0.000000
-7.818800 0.000000
-7.800100 0.000000
-7.781500 0.000000
-7.762900 0.000000
-7.744300 0.000000
-7.725600 0.000000
-7.707000 0.000000
-7.688400 0.000000
-7.669800 0.000000
-7.651200 0.000000
-7.632500 0.000000
-7.613900 0.000000
-7.595300 0.000000
-7.576700 0.000000
-7.558000 0.000000
-7.539400 0.001400
-7.520800 0.458200
-7.502200 0.795800
-7.483500 0.911900
-7.464900 1.028300
-7.446300 1.144700
-7.427700 1.261100
-7.409100 1.377600
-7.390400 1.494000
-7.371800 1.610400
-7.353200 1.726800
-7.334600 1.843200
-7.315900 1.959600
-7.297300 2.058700
-7.278700 2.125800
-7.260100 2.184800
-7.241500 2.243900
-7.222800 2.302900
-7.204200 2.368000
-7.185600 2.462200
-7.167000 2.592600
-7.148300 2.744500
-7.129700 2.903400
-7.111100 3.062300
-7.092500 3.221300
-7.073800 3.380400
-7.055200 3.539400
-7.036600 3.697900
-7.018000 3.837700
-6.999400 3.965100
-6.980700 4.090100
-6.962100 4.218500
-6.943500 4.539200
-6.924900 6.503900
-6.906200 9.017100
-6.887600 5.981500
-6.869000 3.145700
-6.850400 1.568900
-6.831700 0.927300
-6.813100 0.717700
-6.794500 0.629400
-6.775900 0.545300
-6.757300 0.461100
-6.738600 0.377000
-6.720000 0.292800
-6.701400 0.208700
-6.682800 0.124600
-6.664100 0.040400
-6.645500 0.045700
-6.626900 0.139600
-6.608300 0.242400
-6.589700 0.498700
-6.571000 0.934400
-6.552400 1.645700
-6.533800 3.033700
-6.515200 4.731400
-6.496500 5.221100
-6.477900 6.430300
-6.459300 6.364200
-6.440700 7.342800
-6.422000 8.454800
-6.403400 8.553500
-6.384800 5.893000
-6.366200 5.463500
-6.347600 5.054400
-6.328900 4.655900
-6.310300 4.382300
-6.291700 4.125400
-6.273100 3.934600
-6.254400 3.895000
-6.235800 4.232600
-6.217200 4.050600
-6.198600 4.430400
-6.179900 2.951600
-6.161300 2.353900
-6.142700 0.000500
-6.124100 0.000000
-6.105500 0.000000
-6.086800 0.201900
-6.068200 1.109000
-6.049600 1.584900
-6.031000 1.766900
-6.012300 1.949900
-5.993700 2.133900
-5.975100 2.318800
-5.956500 2.409900
-5.937900 2.429600
-5.919200 2.454900
-5.900600 2.488800
-5.882000 2.515400
-5.863400 2.606900
-5.844700 2.716200
-5.826100 2.926600
-5.807500 3.222500
-5.788900 3.570100
-5.770200 3.912100
-5.751600 4.206400
-5.733000 4.496500
-5.714400 4.739400
-5.695800 4.984300
-5.677100 5.841400
-5.658500 4.783700
-5.639900 4.376000
-5.621300 3.222100
-5.602600 2.387600
-5.584000 1.861700
-5.565400 1.534000
-5.546800 1.444600
-5.528100 1.387000
-5.509500 1.329400
-5.490900 1.271800
-5.472300 1.214200
-5.453700 1.156700
-5.435000 1.099100
-5.416400 1.041600
-5.397800 3.243900
-5.379200 1.479800
-5.360500 0.614600
-5.341900 0.909700
-5.323300 1.384300
-5.304700 1.859000
-5.286100 2.333700
-5.267400 2.808400
-5.248800 3.287000
-5.230200 3.662500
-5.211600 3.180000
-5.192900 2.698900
-5.174300 2.219300
-5.155700 1.965300
-5.137100 1.982300
-5.118400 2.057100
-5.099800 3.927600
-5.081200 3.684600
-5.062600 1.725400
-5.044000 1.543700
-5.025300 1.589300
-5.006700 1.634900
-4.988100 1.680500
-4.969500 1.726100
-4.950800 1.771800
-4.932200 1.470100
-4.913600 1.470600
-4.895000 1.471000
-4.876400 1.471400
-4.857700 1.471800
-4.839100 1.492300
-4.820500 1.589000
-4.801900 1.685800
-4.783200 1.782500
-4.764600 1.879200
-4.746000 1.975900
-4.727400 2.072600
-4.708700 2.169400
-4.690100 2.266100
-4.671500 2.362800
-4.652900 2.459500
-4.634300 2.556200
-4.615600 2.653000
-4.597000 2.749700
-4.578400 2.172600
-4.559800 1.742200
-4.541100 1.743800
-4.522500 1.747700
-4.503900 1.766500
-4.485300 1.799500
-4.466600 1.834100
-4.448000 1.863600
-4.429400 1.848400
-4.410800 1.807300
-4.392200 1.766200
-4.373500 1.725100
-4.354900 1.683900
-4.336300 1.642800
-4.317700 1.601700
-4.299000 1.567500
-4.280400 1.539400
-4.261800 1.511300
-4.243200 1.483200
-4.224600 1.455100
-4.205900 1.427000
-4.187300 1.398800
-4.168700 1.370700
-4.150100 1.342600
-4.131400 1.314500
-4.112800 1.286400
-4.094200 1.258300
-4.075600 1.392500
-4.056900 1.647400
-4.038300 1.901700
-4.019700 2.155300
-4.001100 0.734200
-3.982500 0.487700
-3.963800 0.491900
-3.945200 0.496100
-3.926600 0.500300
-3.908000 0.504500
-3.889300 0.508700
-3.870700 0.512800
-3.852100 0.517000
-3.833500 0.521200
-3.814800 0.525400
-3.796200 0.529600
-3.777600 0.533700
-3.759000 0.537900
-3.740400 0.542100
-3.721700 1.304800
-3.703100 2.575300
-3.684500 3.448300
-3.665900 8.419000
-3.647200 11.093600
-3.628600 9.271300
-3.610000 8.491400
-3.591400 8.926100
-3.572800 9.555100
-3.554100 3.285200
-3.535500 2.505300
-3.516900 1.860700
-3.498300 1.298100
-3.479600 0.798000
-3.461000 0.357900
-3.442400 0.206100
-3.423800 1.457200
-3.405100 2.653800
-3.386500 3.676100
-3.367900 4.249500
-3.349300 5.431900
-3.330700 7.674600
-3.312000 8.646300
-3.293400 10.091800
-3.274800 10.281800
-3.256200 11.014400
-3.237500 11.426800
-3.218900 10.397500
-3.200300 7.084600
-3.181700 3.561300
-3.163000 2.810600
-3.144400 2.209800
-3.125800 1.896000
-3.107200 2.107800
-3.088600 2.321000
-3.069900 2.572600
-3.051300 3.011500
-3.032700 4.026400
-3.014100 5.286200
-2.995400 4.923100
-2.976800 4.646900
-2.958200 4.492800
-2.939600 4.356300
-2.921000 5.846500
-2.902300 6.622400
-2.883700 6.542100
-2.865100 5.285200
-2.846500 5.028000
-2.827800 4.776800
-2.809200 4.569200
-2.790600 4.365400
-2.772000 4.193600
-2.753300 4.112500
-2.734700 3.850400
-2.716100 3.723800
-2.697500 3.572900
-2.678900 3.565400
-2.660200 3.580200
-2.641600 3.616000
-2.623000 3.739400
-2.604400 3.733900
-2.585700 3.732700
-2.567100 4.767300
-2.548500 5.858800
-2.529900 6.308000
-2.511200 6.807300
-2.492600 7.356700
-2.474000 7.980400
-2.455400 8.350800
-2.436800 8.616400
-2.418100 8.935900
-2.399500 10.068200
-2.380900 8.112700
-2.362300 5.781000
-2.343600 2.189700
-2.325000 0.000000
-2.306400 0.000000
-2.287800 0.000000
-2.269200 0.906100
-2.250500 1.811600
-2.231900 2.289400
-2.213300 2.989300
-2.194700 2.257200
-2.176000 1.923500
-2.157400 1.589300
-2.138800 1.254600
-2.120200 0.964000
-2.101500 0.730200
-2.082900 0.568700
-2.064300 0.466600
-2.045700 0.410100
-2.027100 0.403800
-2.008400 0.407600
-1.989800 0.411400
-1.971200 0.415200
-1.952600 0.419000
-1.933900 0.422800
-1.915300 0.426700
-1.896700 0.430500
-1.878100 0.434300
-1.859400 0.438100
-1.840800 0.442000
-1.822200 0.445800
-1.803600 0.449600
-1.785000 0.453400
-1.766300 0.457200
-1.747700 0.461100
-1.729100 0.464900
-1.710500 0.468700
-1.691800 0.472500
-1.673200 0.476400
-1.654600 0.480200
-1.636000 0.484000
-1.617400 0.487800
-1.598700 0.491600
-1.580100 0.495500
-1.561500 0.662300
-1.542900 0.783800
-1.524200 0.896700
-1.505600 1.014100
-1.487000 1.141600
-1.468400 1.320500
-1.449700 1.499200
-1.431100 1.562600
-1.412500 1.720200
-1.393900 1.887900
-1.375300 2.059000
-1.356600 2.231000
-1.338000 2.403500
-1.319400 2.577100
-1.300800 2.751600
-1.282100 2.926600
-1.263500 3.101800
-1.244900 3.171500
-1.226300 2.858100
-1.207700 2.635700
-1.189000 2.458800
-1.170400 2.224600
-1.151800 1.971300
-1.133200 1.797600
-1.114500 1.706000
-1.095900 1.722300
-1.077300 1.759500
-1.058700 1.801600
-1.040000 1.852700
-1.021400 2.011600
-1.002800 2.339500
-0.984200 2.670600
-0.965600 3.006300
-0.946900 3.377500
-0.928300 4.456700
-0.909700 5.099700
-0.891100 5.695300
-0.872400 6.402200
-0.853800 7.477500
-0.835200 7.757300
-0.816600 6.760900
-0.797900 4.981400
-0.779300 3.726400
-0.760700 3.714900
-0.742100 3.826600
-0.723500 4.059900
-0.704800 4.441500
-0.686200 4.976400
-0.667600 3.720100
-0.649000 3.511500
-0.630300 3.303100
-0.611700 3.094900
-0.593100 3.123400
-0.574500 3.709100
-0.555900 3.903700
-0.537200 3.377100
-0.518600 2.862900
-0.500000 2.393900
-0.481400 1.857300
-0.462700 1.007300
-0.444100 1.062300
-0.425500 1.117400
-0.406900 1.172400
-0.388200 1.227500
-0.369600 1.719400
-0.351000 2.268200
-0.332400 3.341000
-0.313800 4.794600
-0.295100 6.783100
-0.276500 8.293600
-0.257900 8.366000
-0.239300 8.143200
-0.220600 8.115600
-0.202000 8.127300
-0.183400 8.225000
-0.164800 8.406400
-0.146100 8.708100
-0.127500 9.133000
-0.108900 9.845400
-0.090300 9.493600
-0.071700 9.681300
-0.053000 10.231400
-0.034400 10.688500
-0.015800 8.897500
0.002800 5.806200
0.021500 5.482600
0.040100 5.309900
0.058700 5.237400
0.077300 5.528100
0.095900 6.007300
0.114600 13.632100
0.133200 8.614900
0.151800 7.304500
0.170400 6.398000
0.189100 6.474700
0.207700 7.409200
0.226300 8.469900
0.244900 9.937900
0.263600 11.231100
0.282200 10.273600
0.300800 8.932300
0.319400 7.776500
0.338000 6.985300
0.356700 6.455500
0.375300 6.012300
0.393900 5.633900
0.412500 5.285700
0.431200 4.789300
0.449800 4.649100
0.468400 4.986500
0.487000 5.600300
0.505700 6.367700
0.524300 7.200500
0.542900 8.020700
0.561500 8.818800
0.580100 10.235300
0.598800 11.479600
0.617400 10.637800
0.636000 7.494100
0.654600 3.249400
0.673300 2.215000
0.691900 1.956200
0.710500 1.708300
0.729100 1.473400
0.747700 1.312600
0.766400 1.192300
0.785000 1.115400
0.803600 1.063600
0.822200 1.119300
0.840900 1.221000
0.859500 1.681900
0.878100 2.483200
0.896700 3.139900
0.915400 3.839400
0.934000 4.544100
0.952600 5.105600
0.971200 6.124700
0.989800 8.395300
1.008500 8.140500
1.027100 7.289200
1.045700 6.859400
1.064300 6.543400
1.083000 6.214400
1.101600 5.876500
1.120200 5.973700
1.138800 6.110900
1.157500 5.805400
1.176100 5.199300
1.194700 4.925000
1.213300 4.431700
1.231900 3.620800
1.250600 3.044000
1.269200 2.757100
1.287800 2.606400
1.306400 2.627800
1.325100 2.998400
1.343700 3.463300
1.362300 4.002200
1.380900 2.961400
1.399500 3.304200
1.418200 4.379900
1.436800 5.646800
1.455400 6.487400
1.474000 7.024300
1.492700 7.867400
1.511300 8.672300
1.529900 8.079300
1.548500 6.920400
1.567200 5.059400
1.585800 4.414600
1.604400 3.970600
1.623000 3.606700
1.641600 4.822500
1.660300 4.457600
1.678900 4.096800
1.697500 3.727000
1.716100 3.412300
1.734800 3.150000
1.753400 5.204700
1.772000 5.127500
1.790600 4.628400
1.809300 4.288800
1.827900 3.775100
1.846500 3.418800
1.865100 3.296400
1.883700 3.363500
1.902400 3.590800
1.921000 3.663200
1.939600 3.741100
1.958200 3.669800
1.976900 3.554700
1.995500 3.416700
2.014100 3.231900
2.032700 2.975000
2.051300 2.395200
2.070000 1.997400
2.088600 1.457100
2.107200 1.253700
2.125800 1.108900
2.144500 0.981700
2.163100 0.878700
2.181700 0.811800
2.200300 0.766400
2.219000 0.735400
2.237600 0.706400
2.256200 0.677700
2.274800 0.649500
2.293400 0.659500
2.312100 0.773300
2.330700 0.962000
2.349300 1.266300
2.367900 1.464500
2.386600 1.536400
2.405200 1.620100
2.423800 1.769600
2.442400 1.787800
2.461000 2.124800
2.479700 1.957800
2.498300 2.056200
2.516900 2.171500
2.535500 2.289900
2.554200 2.412500
2.572800 2.539100
2.591400 2.669400
2.610000 2.900000
2.628700 3.108200
2.647300 3.298600
2.665900 3.434100
2.684500 3.574300
2.703100 3.695700
2.721800 3.800000
2.740400 3.867100
2.759000 3.896400
2.777600 3.974900
2.796300 3.757500
2.814900 3.770900
2.833500 4.061800
2.852100 4.607400
2.870800 5.332700
2.889400 5.690700
2.908000 5.618700
2.926600 5.035700
2.945200 4.696500
2.963900 6.204000
2.982500 4.983400
3.001100 4.471400
3.019700 4.453400
3.038400 4.517800
3.057000 4.011900
3.075600 4.084700
3.094200 4.208000
3.112800 4.323400
3.131500 4.274200
3.150100 4.155700
3.168700 6.200200
3.187300 7.615100
3.206000 9.761800
3.224600 4.825400
3.243200 4.307800
3.261800 3.908300
3.280500 3.551300
