set title 'mp-1179605 - Density of States'
set xlabel 'Energy (eV)'
set ylabel 'DOS (states/eV)'
set grid
set xrange [-10:10]
set yrange [0:1.868]
set xzeroaxis lt -1
set terminal png size 800,600
set output 'mp-1179605_dos_gnuplot.png'
plot '-' using 1:2 with lines title 'DOS'
-7.665000 0.000000
-7.638300 0.000000
-7.611500 0.000000
-7.584800 0.000000
-7.558000 0.000000
-7.531300 0.000000
-7.504500 0.000000
-7.477800 0.000000
-7.451000 0.000000
-7.424300 0.000000
-7.397500 0.000000
-7.370800 0.000000
-7.344000 0.000000
-7.317300 0.000000
-7.290500 0.000000
-7.263800 0.000000
-7.237000 0.000000
-7.210300 0.000000
-7.183500 0.000000
-7.156800 0.000000
-7.130000 0.000000
-7.103300 0.000000
-7.076500 0.000000
-7.049800 0.000000
-7.023000 0.000000
-6.996200 0.000000
-6.969500 0.000000
-6.942700 0.000000
-6.916000 0.000000
-6.889200 0.000000
-6.862500 0.000000
-6.835700 0.000000
-6.809000 0.000000
-6.782200 0.000000
-6.755500 0.000000
-6.728700 0.000000
-6.702000 0.000000
-6.675200 0.000000
-6.648500 0.000000
-6.621700 0.000000
-6.595000 0.000000
-6.568200 0.000000
-6.541500 0.000000
-6.514700 0.000000
-6.488000 0.000000
-6.461200 0.000000
-6.434500 0.000000
-6.407700 0.000000
-6.381000 0.000000
-6.354200 0.000000
-6.327500 0.000000
-6.300700 0.000000
-6.274000 0.000000
-6.247200 0.000000
-6.220500 0.000000
-6.193700 0.000000
-6.166900 0.000000
-6.140200 0.000000
-6.113400 0.000000
-6.086700 0.000000
-6.059900 0.000000
-6.033200 0.000000
-6.006400 0.000000
-5.979700 0.000000
-5.952900 0.000000
-5.926200 0.000000
-5.899400 0.000000
-5.872700 0.000000
-5.845900 0.000000
-5.819200 0.000000
-5.792400 0.000000
-5.765700 0.000000
-5.738900 0.000000
-5.712200 0.000000
-5.685400 0.000000
-5.658700 0.000000
-5.631900 0.000000
-5.605200 0.000000
-5.578400 0.000000
-5.551700 0.000000
-5.524900 0.000000
-5.498200 0.000000
-5.471400 0.000000
-5.444700 0.000000
-5.417900 0.000000
-5.391100 0.000000
-5.364400 0.000000
-5.337600 0.000000
-5.310900 0.000000
-5.284100 0.000000
-5.257400 0.000000
-5.230600 0.000100
-5.203900 0.016400
-5.177100 0.060300
-5.150400 0.113800
-5.123600 0.141100
-5.096900 0.146000
-5.070100 0.155700
-5.043400 0.174300
-5.016600 0.196400
-4.989900 0.219400
-4.963100 0.238200
-4.936400 0.247300
-4.909600 0.250500
-4.882900 0.257300
-4.856100 0.268200
-4.829400 0.279800
-4.802600 0.291300
-4.775900 0.302500
-4.749100 0.313600
-4.722400 0.325200
-4.695600 0.338000
-4.668900 0.350400
-4.642100 0.359100
-4.615400 0.364700
-4.588600 0.370700
-4.561800 0.378300
-4.535100 0.386400
-4.508300 0.394300
-4.481600 0.401900
-4.454800 0.409500
-4.428100 0.417500
-4.401300 0.426200
-4.374600 0.435500
-4.347800 0.445100
-4.321100 0.454900
-4.294300 0.464800
-4.267600 0.474400
-4.240800 0.482700
-4.214100 0.489400
-4.187300 0.495400
-4.160600 0.502100
-4.133800 0.509400
-4.107100 0.517000
-4.080300 0.524500
-4.053600 0.532100
-4.026800 0.539800
-4.000100 0.547600
-3.973300 0.555800
-3.946600 0.564300
-3.919800 0.572800
-3.893100 0.581500
-3.866300 0.590100
-3.839600 0.598900
-3.812800 0.623300
-3.786100 0.666200
-3.759300 0.690900
-3.732500 0.687200
-3.705800 0.718800
-3.679000 0.748800
-3.652300 0.741600
-3.625500 0.729900
-3.598800 0.731100
-3.572000 0.731300
-3.545300 0.727500
-3.518500 0.721900
-3.491800 0.719100
-3.465000 0.715500
-3.438300 0.711400
-3.411500 0.711200
-3.384800 0.709800
-3.358000 0.708300
-3.331300 0.706300
-3.304500 0.704000
-3.277800 0.702300
-3.251000 0.701000
-3.224300 0.700100
-3.197500 0.700600
-3.170800 0.700300
-3.144000 0.698100
-3.117300 0.697900
-3.090500 0.741400
-3.063800 0.822100
-3.037000 0.882300
-3.010300 0.888500
-2.983500 0.892800
-2.956700 0.911400
-2.930000 0.938200
-2.903200 0.983100
-2.876500 1.051700
-2.849700 1.038300
-2.823000 1.002200
-2.796200 1.016500
-2.769500 1.040200
-2.742700 1.078200
-2.716000 1.283400
-2.689200 1.284500
-2.662500 1.167100
-2.635700 1.134500
-2.609000 1.134700
-2.582200 1.137000
-2.555500 1.137700
-2.528700 1.134400
-2.502000 1.127700
-2.475200 1.102700
-2.448500 1.090000
-2.421700 1.089900
-2.395000 1.090400
-2.368200 1.086100
-2.341500 1.074100
-2.314700 1.061100
-2.288000 1.056500
-2.261200 1.052100
-2.234500 1.047200
-2.207700 1.041800
-2.181000 1.035600
-2.154200 1.019500
-2.127400 1.012200
-2.100700 1.005400
-2.073900 0.998500
-2.047200 0.991700
-2.020400 0.985000
-1.993700 0.978200
-1.966900 0.971400
-1.940200 0.964900
-1.913400 0.959000
-1.886700 0.952800
-1.859900 0.948500
-1.833200 0.945700
-1.806400 0.942600
-1.779700 0.936900
-1.752900 0.929700
-1.726200 0.919000
-1.699400 0.914600
-1.672700 0.910300
-1.645900 0.905400
-1.619200 0.899600
-1.592400 0.893200
-1.565700 0.886400
-1.538900 0.879200
-1.512200 0.887900
-1.485400 0.897900
-1.458700 0.869100
-1.431900 0.843400
-1.405200 0.874500
-1.378400 0.854900
-1.351700 0.808400
-1.324900 0.796200
-1.298100 0.779800
-1.271400 0.769900
-1.244600 0.760700
-1.217900 0.750700
-1.191100 0.738500
-1.164400 0.731800
-1.137600 0.725400
-1.110900 0.721000
-1.084100 0.718700
-1.057400 0.715300
-1.030600 0.711400
-1.003900 0.707100
-0.977100 0.702400
-0.950400 0.701200
-0.923600 0.699600
-0.896900 0.697400
-0.870100 0.694900
-0.843400 0.693500
-0.816600 0.690500
-0.789900 0.688000
-0.763100 0.740100
-0.736400 0.737100
-0.709600 0.749600
-0.682900 0.734900
-0.656100 0.707800
-0.629400 0.700000
-0.602600 0.686600
-0.575900 0.678500
-0.549100 0.665700
-0.522300 0.658700
-0.495600 0.652700
-0.468800 0.625900
-0.442100 0.626800
-0.415300 0.627500
-0.388600 0.628000
-0.361800 0.624200
-0.335100 0.616900
-0.308300 0.716400
-0.281600 0.548800
-0.254800 0.532300
-0.228100 0.515500
-0.201300 0.498200
-0.174600 0.480600
-0.147800 0.462600
-0.121100 0.445200
-0.094300 0.429700
-0.067600 0.415900
-0.040800 0.403700
-0.014100 0.394500
0.012700 0.385600
0.039400 0.377100
0.066200 0.353600
0.092900 0.344400
0.119700 0.335600
0.146400 0.327100
0.173200 0.318600
0.199900 0.310300
0.226700 0.302300
0.253400 0.294600
0.280200 0.287000
0.307000 0.279600
0.333700 0.272500
0.360500 0.265600
0.387200 0.259000
0.414000 0.252600
0.440700 0.246500
0.467500 0.241300
0.494200 0.236300
0.521000 0.231300
0.547700 0.226200
0.574500 0.221100
0.601200 0.216000
0.628000 0.210900
0.654700 0.205100
0.681500 0.195800
0.708200 0.191900
0.735000 0.187800
0.761700 0.183400
0.788500 0.178800
0.815200 0.174200
0.842000 0.169800
0.868700 0.165500
0.895500 0.161300
0.922200 0.157200
0.949000 0.153300
0.975700 0.149400
1.002500 0.145600
1.029200 0.141900
1.056000 0.138400
1.082700 0.134900
1.109500 0.131800
1.136300 0.128900
1.163000 0.126100
1.189800 0.124200
1.216500 0.122400
1.243300 0.120600
1.270000 0.118800
1.296800 0.117000
1.323500 0.115200
1.350300 0.113400
1.377000 0.111600
1.403800 0.109900
1.430500 0.108100
1.457300 0.109300
1.484000 0.115000
1.510800 0.121500
1.537500 0.124700
1.564300 0.125400
1.591000 0.173000
1.617800 0.196100
1.644500 0.220300
1.671300 0.286600
1.698000 0.272600
1.724800 0.167600
1.751500 0.196500
1.778300 0.207800
1.805000 0.201400
1.831800 0.244500
1.858500 0.241200
1.885300 0.219300
1.912100 0.226300
1.938800 0.278300
1.965600 0.359400
1.992300 0.380000
2.019100 0.406100
2.045800 0.432900
2.072600 0.457100
2.099300 0.464600
2.126100 0.478000
2.152800 0.501700
2.179600 0.533400
2.206300 0.565800
2.233100 0.584900
2.259800 0.591500
2.286600 0.598500
2.313300 0.619000
2.340100 0.649100
2.366800 0.659900
2.393600 0.658700
2.420300 0.656600
2.447100 0.655400
2.473800 0.655600
2.500600 0.658700
2.527300 0.664400
2.554100 0.671600
2.580800 0.680700
2.607600 0.692700
2.634300 0.705700
2.661100 0.719000
2.687800 0.735800
2.714600 0.757400
2.741400 0.775800
2.768100 0.787600
2.794900 0.797300
2.821600 0.806700
2.848400 0.818000
2.875100 0.831100
2.901900 0.845200
2.928600 0.859000
2.955400 0.874300
2.982100 0.925700
3.008900 0.957600
3.035600 0.935300
3.062400 1.009400
3.089100 0.983200
3.115900 0.996600
3.142600 1.005000
3.169400 1.020400
3.196100 1.029800
3.222900 1.047800
3.249600 1.068900
3.276400 1.100100
3.303100 1.139500
3.329900 1.174700
3.356600 1.198100
3.383400 1.219000
3.410100 1.245500
3.436900 1.277800
3.463600 1.317900
3.490400 1.442800
3.517100 1.657600
3.543900 1.213000
3.570700 1.172700
3.597400 1.345800
3.624200 1.321800
3.650900 1.390400
3.677700 1.389400
3.704400 1.415200
3.731200 1.698300
3.757900 1.697900
3.784700 1.583200
3.811400 1.588300
3.838200 1.557600
3.864900 1.540400
3.891700 1.513200
3.918400 1.481100
3.945200 1.457400
3.971900 1.443900
3.998700 1.434600
4.025400 1.433100
4.052200 1.433200
4.078900 1.441500
4.105700 1.461900
4.132400 1.480200
4.159200 1.476000
4.185900 1.442700
4.212700 1.450800
4.239400 1.456700
4.266200 1.453900
4.292900 1.448900
4.319700 1.447900
4.346500 1.439100
4.373200 1.431000
4.400000 1.427400
4.426700 1.424500
4.453500 1.416000
4.480200 1.385600
4.507000 1.367000
4.533700 1.357200
4.560500 1.354900
4.587200 1.368800
4.614000 1.392600
4.640700 1.403100
4.667500 1.413700
4.694200 1.424100
4.721000 1.415800
4.747700 1.435300
4.774500 1.463400
4.801200 1.478200
4.828000 1.483500
4.854700 1.480300
4.881500 1.474200
4.908200 1.466300
4.935000 1.459600
4.961700 1.455600
4.988500 1.453400
5.015200 1.451900
5.042000 1.451100
5.068700 1.449600
5.095500 1.449800
5.122200 1.458000
5.149000 1.471600
5.175800 1.477800
5.202500 1.483100
5.229300 1.456800
5.256000 1.448000
5.282800 1.445300
5.309500 1.444600
5.336300 1.443700
5.363000 1.441100
5.389800 1.434800
5.416500 1.423300
5.443300 1.412900
5.470000 1.407700
5.496800 1.440600
5.523500 1.464000
5.550300 1.472000
5.577000 1.427700
5.603800 1.416000
5.630500 1.420900
5.657300 1.421400
5.684000 1.413600
5.710800 1.414900
5.737500 1.427700
5.764300 1.411800
5.791000 1.381400
5.817800 1.336900
5.844500 1.293400
5.871300 1.260000
5.898000 1.228900
5.924800 1.206000
5.951500 1.186900
5.978300 1.171500
6.005100 1.141600
6.031800 1.103800
6.058600 1.071100
6.085300 1.040300
6.112100 1.011700
6.138800 0.986600
6.165600 0.960800
6.192300 0.934100
6.219100 0.905800
6.245800 0.875600
6.272600 0.836400
6.299300 0.811700
6.326100 0.808000
6.352800 0.811400
6.379600 0.814200
6.406300 0.814300
6.433100 0.810600
6.459800 0.810600
6.486600 0.812500
6.513300 0.819200
6.540100 0.826700
6.566800 0.835600
6.593600 0.846200
6.620300 0.861200
6.647100 0.877600
6.673800 0.894900
6.700600 0.913100
6.727300 0.926000
6.754100 0.947400
6.780900 0.970700
6.807600 0.993000
6.834400 1.027200
6.861100 1.101800
6.887900 1.153200
6.914600 1.162500
6.941400 1.175900
6.968100 1.190000
6.994900 1.206400
7.021600 1.223400
7.048400 1.249700
7.075100 1.242100
7.101900 1.224600
7.128600 1.218300
7.155400 1.214800
7.182100 1.214900
7.208900 1.220100
7.235600 1.230800
7.262400 1.230300
7.289100 1.234600
7.315900 1.225100
7.342600 1.210600
7.369400 1.203700
7.396100 1.190100
7.422900 1.174200
7.449600 1.155800
7.476400 1.134500
7.503100 1.115400
7.529900 1.095800
7.556600 1.074800
7.583400 1.049700
7.610200 1.023200
7.636900 0.995200
7.663700 0.970300
7.690400 0.950000
7.717200 0.930700
7.743900 0.914400
7.770700 0.900400
7.797400 0.888500
7.824200 0.882400
7.850900 0.862500
7.877700 0.836300
7.904400 0.807000
7.931200 0.796500
7.957900 0.797700
7.984700 0.808600
8.011400 0.820200
8.038200 0.822700
8.064900 0.804500
8.091700 0.814700
8.118400 0.815500
8.145200 0.813700
8.171900 0.815000
8.198700 0.821800
8.225400 0.834600
8.252200 0.855900
8.278900 0.887000
8.305700 0.912200
8.332400 0.948800
8.359200 0.965700
8.385900 0.967700
8.412700 0.975300
8.439500 0.985000
8.466200 0.992300
8.493000 0.995400
8.519700 0.997300
8.546500 1.001500
8.573200 1.008300
8.600000 1.016600
8.626700 1.023400
8.653500 1.030100
8.680200 1.037700
8.707000 1.047200
8.733700 1.056100
8.760500 1.063600
8.787200 1.071900
8.814000 1.080100
8.840700 1.088500
8.867500 1.096700
8.894200 1.101900
8.921000 1.104600
8.947700 1.157300
8.974500 1.150100
9.001200 1.127100
9.028000 1.114300
9.054700 1.099600
9.081500 1.101500
9.108200 1.107500
9.135000 1.106400
9.161700 1.100700
9.188500 1.094400
9.215300 1.089000
9.242000 1.085400
9.268800 1.082200
9.295500 1.081200
9.322300 1.089100
9.349000 1.097300
9.375800 1.133800
9.402500 1.151400
9.429300 1.170200
9.456000 1.160300
9.482800 1.360800
9.509500 1.208900
9.536300 1.228400
9.563000 1.229700
9.589800 1.267700
9.616500 1.211300
9.643300 1.209300
9.670000 1.207300
9.696800 1.210900
9.723500 1.220700
9.750300 1.231000
9.777000 1.243100
9.803800 1.256600
9.830500 1.268500
9.857300 1.284700
9.884000 1.303800
9.910800 1.327200
9.937500 1.354600
9.964300 1.350800
9.991000 1.344200
10.017800 1.342600
10.044600 1.345000
10.071300 1.359500
10.098100 1.379000
10.124800 1.399900
10.151600 1.420300
10.178300 1.439700
10.205100 1.455200
10.231800 1.464500
10.258600 1.475800
10.285300 1.494500
10.312100 1.515700
10.338800 1.533600
10.365600 1.550000
10.392300 1.566900
10.419100 1.581600
10.445800 1.598900
10.472600 1.623300
10.499300 1.666700
10.526100 1.708900
10.552800 1.744400
10.579600 1.755800
10.606300 1.763200
10.633100 1.791300
10.659800 1.789000
10.686600 1.766000
10.713300 1.754800
10.740100 1.756700
10.766800 1.757400
10.793600 1.757200
10.820300 1.774300
10.847100 1.778500
10.873900 1.732200
10.900600 1.697000
10.927400 1.639000
10.954100 1.596500
10.980900 1.561500
11.007600 1.533600
11.034400 1.499000
11.061100 1.476700
11.087900 1.463700
11.114600 1.457600
11.141400 1.462800
11.168100 1.468500
11.194900 1.476200
11.221600 1.467400
11.248400 1.457600
11.275100 1.444700
11.301900 1.435900
11.328600 1.439700
11.355400 1.436800
11.382100 1.438100
11.408900 1.448500
11.435600 1.480500
11.462400 1.510700
11.489100 1.500100
11.515900 1.481500
11.542600 1.483600
11.569400 1.485700
11.596100 1.491200
11.622900 1.523700
11.649700 1.498500
11.676400 1.505500
11.703200 1.525500
11.729900 1.551700
11.756700 1.578400
11.783400 1.616000
11.810200 1.634300
11.836900 1.664600
11.863700 1.687800
11.890400 1.712800
11.917200 1.733000
11.943900 1.734500
11.970700 1.718700
11.997400 1.709300
12.024200 1.733600
12.050900 1.749300
12.077700 1.724000
12.104400 1.678200
12.131200 1.640700
12.157900 1.599100
12.184700 1.553300
12.211400 1.542700
12.238200 1.511200
12.264900 1.475900
12.291700 1.412400
12.318400 1.408000
12.345200 1.404000
12.371900 1.414300
12.398700 1.417600
12.425400 1.418100
12.452200 1.444300
12.479000 1.403600
12.505700 1.450000
12.532500 1.384600
12.559200 1.363000
12.586000 1.351100
12.612700 1.319000
12.639500 1.274400
12.666200 1.226000
12.693000 1.194400
12.719700 1.188700
12.746500 1.193200
12.773200 1.196400
12.800000 1.191900
12.826700 1.186000
12.853500 1.196500
12.880200 1.213400
12.907000 1.233700
12.933700 1.253200
12.960500 1.278500
12.987200 1.305100
13.014000 1.331600
13.040700 1.359000
13.067500 1.383700
13.094200 1.401000
13.121000 1.425800
13.147700 1.438600
13.174500 1.441800
13.201200 1.433400
13.228000 1.422500
13.254700 1.403100
13.281500 1.378300
13.308300 1.365100
13.335000 1.350100
13.361800 1.325100
13.388500 1.264400
13.415300 1.290400
13.442000 1.241400
13.468800 1.193700
13.495500 1.163200
13.522300 1.130200
13.549000 1.105800
13.575800 1.077900
13.602500 1.051100
13.629300 1.033700
13.656000 1.023400
13.682800 1.019700
13.709500 1.017800
13.736300 1.012800
13.763000 1.013100
13.789800 1.021900
13.816500 1.018000
13.843300 1.001900
13.870000 1.000100
13.896800 1.030700
13.923500 0.983100
13.950300 0.951600
13.977000 0.934700
14.003800 0.927000
14.030500 0.926200
14.057300 0.928700
14.084100 0.933200
14.110800 0.936900
14.137600 0.938400
14.164300 0.927900
14.191100 0.935300
14.217800 0.939500
14.244600 0.945900
14.271300 0.949700
14.298100 0.958600
14.324800 0.983800
14.351600 1.012900
14.378300 1.048000
14.405100 1.086800
14.431800 1.100800
14.458600 1.119300
14.485300 1.123900
14.512100 1.134700
14.538800 1.149800
14.565600 1.163900
14.592300 1.177300
14.619100 1.203000
14.645800 1.233400
14.672600 1.275200
14.699300 1.310200
14.726100 1.328900
14.752800 1.335100
14.779600 1.342400
14.806300 1.353300
14.833100 1.370000
14.859800 1.384700
14.886600 1.395600
14.913400 1.415300
14.940100 1.413700
14.966900 1.386300
14.993600 1.389500
15.020400 1.390500
15.047100 1.391000
15.073900 1.392000
15.100600 1.400300
15.127400 1.409900
15.154100 1.415900
15.180900 1.410700
15.207600 1.360600
15.234400 1.351900
15.261100 1.348200
15.287900 1.353200
15.314600 1.364500
15.341400 1.383400
15.368100 1.410400
15.394900 1.441700
15.421600 1.471700
15.448400 1.498900
15.475100 1.521400
15.501900 1.541300
15.528600 1.573900
15.555400 1.586000
15.582100 1.590600
15.608900 1.592600
15.635600 1.592700
15.662400 1.595400
15.689100 1.603000
15.715900 1.613900
15.742700 1.632300
15.769400 1.647600
15.796200 1.657400
15.822900 1.670100
15.849700 1.696700
15.876400 1.719400
15.903200 1.754600
15.929900 1.786900
15.956700 1.806700
15.983400 1.817400
16.010200 1.823000
16.036900 1.813300
16.063700 1.817100
16.090400 1.814600
16.117200 1.812500
16.143900 1.812800
16.170700 1.813700
16.197400 1.820300
16.224200 1.836400
16.250900 1.850900
16.277700 1.830800
16.304400 1.830400
16.331200 1.829300
16.357900 1.826900
16.384700 1.823700
16.411400 1.820200
16.438200 1.771000
16.464900 1.793800
16.491700 1.852100
16.518500 1.972100
16.545200 2.132300
16.572000 2.296400
16.598700 2.131400
16.625500 2.085900
16.652200 2.053800
16.679000 2.026600
16.705700 1.999900
16.732500 2.022600
16.759200 2.050800
16.786000 2.124800
16.812700 2.250100
16.839500 2.358200
16.866200 2.398700
16.893000 2.447200
16.919700 2.478800
16.946500 2.453300
16.973200 2.518200
17.000000 2.439200
17.026700 2.379300
17.053500 2.321900
17.080200 2.259500
17.107000 2.216100
17.133700 2.173500
17.160500 2.142900
17.187200 2.145200
17.214000 2.130100
17.240700 2.092000
17.267500 2.062200
17.294200 2.043000
17.321000 2.048300
17.347800 1.994700
17.374500 1.951700
17.401300 1.895100
17.428000 1.849800
17.454800 1.802900
17.481500 1.761200
17.508300 1.724900
17.535000 1.705500
17.561800 1.702000
17.588500 1.719300
17.615300 1.723300
17.642000 1.741100
17.668800 1.693800
17.695500 1.646600
17.722300 1.617000
17.749000 1.582500
17.775800 1.560200
17.802500 1.544500
17.829300 1.533800
17.856000 1.520000
17.882800 1.508300
17.909500 1.490400
17.936300 1.477700
17.963000 1.481900
17.989800 1.494800
18.016500 1.514100
18.043300 1.541500
18.070000 1.574500
18.096800 1.608000
18.123500 1.643400
18.150300 1.673000
18.177100 1.705600
18.203800 1.740300
18.230600 1.783400
18.257300 1.841900
18.284100 1.903100
18.310800 1.975100
18.337600 2.072200
18.364300 2.119200
18.391100 2.119500
18.417800 2.126500
18.444600 2.142500
18.471300 2.161600
18.498100 2.178800
18.524800 2.219000
18.551600 2.260900
18.578300 2.307900
18.605100 2.339300
18.631800 2.378300
18.658600 2.406000
18.685300 2.503300
18.712100 2.473900
18.738800 2.395500
18.765600 2.404300
18.792300 2.399700
18.819100 2.428400
18.845800 2.488300
18.872600 2.489300
18.899300 2.509000
18.926100 2.474000
18.952900 2.409500
18.979600 2.335600
19.006400 2.238100
19.033100 2.151700
19.059900 2.076500
19.086600 2.023300
19.113400 1.979500
19.140100 1.945500
19.166900 1.903100
19.193600 1.872900
19.220400 1.853800
19.247100 1.847000
19.273900 1.875800
19.300600 1.898900
19.327400 1.911900
19.354100 1.911300
19.380900 1.915700
19.407600 1.923300
19.434400 1.929000
19.461100 1.939900
19.487900 1.945200
19.514600 1.982500
19.541400 1.943800
19.568100 1.948800
19.594900 1.971700
19.621600 1.965100
19.648400 1.946300
19.675100 1.934100
19.701900 1.935600
19.728600 1.938700
19.755400 1.949300
19.782200 1.959300
19.808900 1.957200
19.835700 2.002900
19.862400 2.036000
19.889200 2.069400
19.915900 2.101800
19.942700 2.138400
19.969400 2.190500
19.996200 2.260100
20.022900 2.325100
20.049700 2.366400
20.076400 2.420600
20.103200 2.457500
20.129900 2.499900
20.156700 2.561600
20.183400 2.557800
20.210200 2.585200
20.236900 2.596200
20.263700 2.610100
20.290400 2.652500
20.317200 2.676000
20.343900 2.638800
20.370700 2.609900
20.397400 2.541600
20.424200 2.497400
20.450900 2.593600
20.477700 2.544300
20.504400 2.536600
20.531200 2.546800
20.557900 2.602800
20.584700 2.632700
