set title 'mp-1184478 - Density of States'
set xlabel 'Energy (eV)'
set ylabel 'DOS (states/eV)'
set grid
set xrange [-10:10]
set yrange [0:82.220]
set xzeroaxis lt -1
set terminal png size 800,600
set output 'mp-1184478_dos_gnuplot.png'
plot '-' using 1:2 with lines title 'DOS'
-12.026600 0.000000
-11.982000 0.000000
-11.937400 0.000000
-11.892700 0.000000
-11.848100 0.000000
-11.803500 0.000000
-11.758800 0.000000
-11.714200 0.000000
-11.669600 0.000000
-11.624900 0.000000
-11.580300 0.000000
-11.535700 0.000000
-11.491000 0.000000
-11.446400 0.000000
-11.401700 0.000000
-11.357100 0.000000
-11.312500 0.000000
-11.267800 0.000000
-11.223200 0.000000
-11.178600 0.000000
-11.133900 0.000000
-11.089300 0.000000
-11.044700 0.000000
-11.000000 0.000000
-10.955400 0.000000
-10.910800 0.000000
-10.866100 0.000000
-10.821500 0.000000
-10.776900 0.000000
-10.732200 0.000000
-10.687600 0.000000
-10.642900 0.000000
-10.598300 0.000000
-10.553700 0.000000
-10.509000 0.000000
-10.464400 0.000000
-10.419800 0.000000
-10.375100 0.000000
-10.330500 0.000000
-10.285900 0.000000
-10.241200 0.000000
-10.196600 0.000000
-10.152000 0.000000
-10.107300 0.000000
-10.062700 0.000000
-10.018100 0.000000
-9.973400 0.000000
-9.928800 0.000000
-9.884100 0.000000
-9.839500 0.000000
-9.794900 0.000000
-9.750200 0.000000
-9.705600 0.000000
-9.661000 0.000000
-9.616300 0.000000
-9.571700 0.000000
-9.527100 0.000000
-9.482400 0.000000
-9.437800 0.000000
-9.393200 0.000000
-9.348500 0.000000
-9.303900 0.000000
-9.259300 0.000000
-9.214600 0.000000
-9.170000 0.000000
-9.125300 0.000000
-9.080700 0.000000
-9.036100 0.000000
-8.991400 0.000000
-8.946800 0.000000
-8.902200 0.000000
-8.857500 0.000000
-8.812900 0.000000
-8.768300 0.000000
-8.723600 0.000000
-8.679000 0.000000
-8.634400 0.000000
-8.589700 0.000000
-8.545100 0.000000
-8.500500 0.000000
-8.455800 0.000000
-8.411200 0.000000
-8.366500 0.000000
-8.321900 0.000000
-8.277300 0.000000
-8.232600 0.000000
-8.188000 0.000000
-8.143400 0.000000
-8.098700 0.000000
-8.054100 0.000000
-8.009500 0.000000
-7.964800 3.054200
-7.920200 27.667600
-7.875600 33.361300
-7.830900 29.929500
-7.786300 6.533700
-7.741700 13.550300
-7.697000 28.343500
-7.652400 74.745600
-7.607700 14.677900
-7.563100 17.821400
-7.518500 4.782700
-7.473800 0.000000
-7.429200 0.000000
-7.384600 0.000000
-7.339900 0.000000
-7.295300 0.000000
-7.250700 0.000000
-7.206000 0.000000
-7.161400 0.000000
-7.116800 0.000000
-7.072100 0.000000
-7.027500 0.000000
-6.982900 0.000000
-6.938200 0.000000
-6.893600 0.000000
-6.849000 0.000000
-6.804300 0.000000
-6.759700 0.000000
-6.715000 0.000000
-6.670400 0.000000
-6.625800 0.000000
-6.581100 0.000000
-6.536500 0.000000
-6.491900 0.000000
-6.447200 0.000000
-6.402600 0.000000
-6.358000 0.000000
-6.313300 0.000000
-6.268700 0.000000
-6.224100 0.000000
-6.179400 0.000000
-6.134800 0.000000
-6.090200 0.000000
-6.045500 0.000000
-6.000900 0.000000
-5.956200 0.000000
-5.911600 0.000000
-5.867000 0.000000
-5.822300 0.000000
-5.777700 0.000000
-5.733100 0.000000
-5.688400 0.000000
-5.643800 0.000000
-5.599200 0.000000
-5.554500 0.000000
-5.509900 0.000000
-5.465300 0.000000
-5.420600 0.000000
-5.376000 0.000000
-5.331400 0.000000
-5.286700 0.000000
-5.242100 0.000000
-5.197400 0.000000
-5.152800 0.000000
-5.108200 0.000000
-5.063500 0.000000
-5.018900 0.000000
-4.974300 0.000000
-4.929600 0.000000
-4.885000 0.000000
-4.840400 0.000000
-4.795700 0.000000
-4.751100 0.000000
-4.706500 0.000000
-4.661800 0.000000
-4.617200 0.000000
-4.572600 0.000000
-4.527900 0.000000
-4.483300 0.000000
-4.438600 0.000000
-4.394000 0.000000
-4.349400 0.000000
-4.304700 0.000000
-4.260100 0.000000
-4.215500 0.000000
-4.170800 0.000000
-4.126200 0.000000
-4.081600 0.000000
-4.036900 0.000000
-3.992300 0.000000
-3.947700 0.000000
-3.903000 0.000000
-3.858400 0.000000
-3.813800 0.000000
-3.769100 0.000000
-3.724500 0.000000
-3.679800 0.000000
-3.635200 0.000000
-3.590600 0.000000
-3.545900 0.000000
-3.501300 0.000000
-3.456700 0.000000
-3.412000 0.000000
-3.367400 0.000000
-3.322800 0.000000
-3.278100 0.000000
-3.233500 0.000000
-3.188900 0.000000
-3.144200 0.000000
-3.099600 0.000000
-3.055000 0.000000
-3.010300 0.000000
-2.965700 0.000000
-2.921000 0.000000
-2.876400 0.000000
-2.831800 0.000000
-2.787100 0.000000
-2.742500 0.000000
-2.697900 0.000000
-2.653200 0.000000
-2.608600 0.000000
-2.564000 0.000000
-2.519300 0.000000
-2.474700 0.000000
-2.430100 0.000000
-2.385400 0.000000
-2.340800 0.000000
-2.296200 0.000000
-2.251500 0.000000
-2.206900 0.034800
-2.162200 0.048500
-2.117600 0.067900
-2.073000 0.069200
-2.028300 0.078000
-1.983700 0.087400
-1.939100 0.097300
-1.894400 0.104600
-1.849800 0.111000
-1.805200 0.114700
-1.760500 0.117300
-1.715900 0.122100
-1.671300 0.128700
-1.626600 0.135800
-1.582000 0.143300
-1.537400 0.146500
-1.492700 0.148900
-1.448100 0.151800
-1.403400 0.155200
-1.358800 0.159000
-1.314200 0.163100
-1.269500 0.167300
-1.224900 0.171800
-1.180300 0.176600
-1.135600 0.181000
-1.091000 0.184600
-1.046400 0.186900
-1.001700 0.189400
-0.957100 0.192300
-0.912500 0.194900
-0.867800 0.197300
-0.823200 0.200400
-0.778600 0.204300
-0.733900 0.208200
-0.689300 0.211400
-0.644600 0.214700
-0.600000 0.217900
-0.555400 0.221000
-0.510700 0.224000
-0.466100 0.226000
-0.421500 0.228300
-0.376800 0.230800
-0.332200 0.233500
-0.287600 0.236300
-0.242900 0.239100
-0.198300 0.241700
-0.153700 0.244300
-0.109000 0.246800
-0.064400 0.248900
-0.019800 0.251700
0.024900 0.254800
0.069500 0.257700
0.114200 0.260600
0.158800 0.263600
0.203400 0.266000
0.248100 0.268100
0.292700 0.270200
0.337300 0.272300
0.382000 0.274500
0.426600 0.277000
0.471200 0.279700
0.515900 0.282400
0.560500 0.284600
0.605100 0.286900
0.649800 0.289100
0.694400 0.291300
0.739000 0.293700
0.783700 0.296100
0.828300 0.298600
0.873000 0.301100
0.917600 0.303900
0.962200 0.306900
1.006900 0.309700
1.051500 0.311800
1.096100 0.314200
1.140800 0.316600
1.185400 0.319000
1.230000 0.321500
1.274700 0.323700
1.319300 0.325800
1.363900 0.328000
1.408600 0.330300
1.453200 0.332800
1.497800 0.335400
1.542500 0.338100
1.587100 0.340900
1.631800 0.343800
1.676400 0.346800
1.721000 0.349900
1.765700 0.353000
1.810300 0.356300
1.854900 0.359600
1.899600 0.362900
1.944200 0.366000
1.988800 0.369200
2.033500 0.372900
2.078100 0.377000
2.122700 0.381300
2.167400 0.386000
2.212000 0.391100
2.256600 0.396500
2.301300 0.402600
2.345900 0.409100
2.390600 0.416500
2.435200 0.424700
2.479800 0.433900
2.524500 0.444000
2.569100 0.462900
2.613700 0.477700
2.658400 0.492100
2.703000 0.520300
2.747600 0.526500
2.792300 0.529700
2.836900 0.529900
2.881500 0.517700
2.926200 0.500700
2.970800 0.489200
3.015400 0.486000
3.060100 0.486400
3.104700 0.489800
3.149400 0.521200
3.194000 0.479900
3.238600 0.462300
3.283300 0.443600
3.327900 0.433400
3.372500 0.424400
3.417200 0.416500
3.461800 0.409700
3.506400 0.404400
3.551100 0.392000
3.595700 0.383100
3.640300 0.372000
3.685000 0.360100
3.729600 0.356300
3.774200 0.400700
3.818900 0.370900
3.863500 0.355600
3.908100 0.280800
3.952800 0.257600
3.997400 0.230500
4.042100 0.218100
4.086700 0.223500
4.131300 0.222800
4.176000 0.225200
4.220600 0.232500
4.265200 0.241600
4.309900 0.215000
4.354500 0.226100
4.399100 0.246700
4.443800 0.287800
4.488400 0.271900
4.533000 0.275700
4.577700 0.279000
4.622300 0.281900
4.666900 0.287400
4.711600 0.292600
4.756200 0.298600
4.800900 0.318800
4.845500 0.331200
4.890100 0.338100
4.934800 0.330000
4.979400 0.336100
5.024000 0.365200
5.068700 0.372800
5.113300 0.382200
5.157900 0.391300
5.202600 0.391900
5.247200 0.401600
5.291800 0.413100
5.336500 0.430500
5.381100 0.450400
5.425700 0.466200
5.470400 0.482900
5.515000 0.522200
5.559700 0.532300
5.604300 0.544100
5.648900 0.552300
5.693600 0.559400
5.738200 0.565500
5.782800 0.608100
5.827500 0.571200
5.872100 0.603200
5.916700 0.574200
5.961400 0.546200
6.006000 0.527900
6.050600 0.528500
6.095300 0.524800
6.139900 0.520000
6.184500 0.515000
6.229200 0.505700
6.273800 0.512400
6.318500 0.473700
6.363100 0.448300
6.407700 0.442100
6.452400 0.439100
6.497000 0.438900
6.541600 0.445300
6.586300 0.449600
6.630900 0.469100
6.675500 0.471900
6.720200 0.474200
6.764800 0.483600
6.809400 0.490600
6.854100 0.496900
6.898700 0.498400
6.943300 0.497100
6.988000 0.487900
7.032600 0.489600
7.077300 0.489800
7.121900 0.487700
7.166500 0.497600
7.211200 0.500500
7.255800 0.504300
7.300400 0.508700
7.345100 0.519100
7.389700 0.525800
7.434300 0.528600
7.479000 0.530700
7.523600 0.533300
7.568200 0.536200
7.612900 0.555200
7.657500 0.545700
7.702100 0.539500
7.746800 0.548900
7.791400 0.552800
7.836100 0.562200
7.880700 0.573900
7.925300 0.580400
7.970000 0.586000
8.014600 0.591300
8.059200 0.600100
8.103900 0.599100
8.148500 0.602200
8.193100 0.604200
8.237800 0.604400
8.282400 0.603600
8.327000 0.588000
8.371700 0.587200
8.416300 0.586700
8.460900 0.583100
8.505600 0.579300
8.550200 0.577900
8.594900 0.577000
8.639500 0.576700
8.684100 0.576200
8.728800 0.576600
8.773400 0.576400
8.818000 0.575600
8.862700 0.575100
8.907300 0.581200
8.951900 0.582500
8.996600 0.583800
9.041200 0.582900
9.085800 0.581100
9.130500 0.580800
9.175100 0.576400
9.219700 0.574500
9.264400 0.573800
9.309000 0.570800
9.353700 0.569900
9.398300 0.569400
9.442900 0.569300
9.487600 0.569500
9.532200 0.570100
9.576800 0.570500
9.621500 0.570500
9.666100 0.570300
9.710700 0.571100
9.755400 0.573700
9.800000 0.575500
9.844600 0.576000
9.889300 0.581900
9.933900 0.581900
9.978500 0.581600
10.023200 0.582800
10.067800 0.583000
10.112500 0.582800
10.157100 0.585200
10.201700 0.584500
10.246400 0.584000
10.291000 0.581400
10.335600 0.576600
10.380300 0.574600
10.424900 0.573900
10.469500 0.573300
10.514200 0.573200
10.558800 0.573400
10.603400 0.577700
10.648100 0.584100
10.692700 0.588200
10.737300 0.590000
10.782000 0.592100
10.826600 0.595100
10.871300 0.602100
10.915900 0.605200
10.960500 0.602900
11.005200 0.604600
11.049800 0.606100
11.094400 0.606700
11.139100 0.606500
11.183700 0.605400
11.228300 0.600000
11.273000 0.600800
11.317600 0.601200
11.362200 0.602000
11.406900 0.603100
11.451500 0.604600
11.496100 0.610000
11.540800 0.616300
11.585400 0.619200
11.630100 0.619700
11.674700 0.624600
11.719300 0.625200
11.764000 0.626400
11.808600 0.629400
11.853200 0.633800
11.897900 0.644000
11.942500 0.702000
11.987100 0.648100
12.031800 0.644300
12.076400 0.649700
12.121000 0.653600
12.165700 0.656400
12.210300 0.660200
12.254900 0.675800
12.299600 0.686200
12.344200 0.674900
12.388900 0.672000
12.433500 0.666500
12.478100 0.669500
12.522800 0.670800
12.567400 0.678800
12.612000 0.687400
12.656700 0.692600
12.701300 0.699400
12.745900 0.708600
12.790600 0.716000
12.835200 0.723600
12.879800 0.731500
12.924500 0.739400
12.969100 0.745600
13.013700 0.756100
13.058400 0.767300
13.103000 0.786200
13.147700 0.807400
13.192300 0.831600
13.236900 0.864600
13.281600 0.899000
13.326200 0.932900
13.370800 0.971700
13.415500 1.025200
13.460100 1.076500
13.504700 1.125500
13.549400 1.112900
13.594000 1.105400
13.638600 1.081300
13.683300 1.058600
13.727900 1.030400
13.772500 0.986900
13.817200 0.953100
13.861800 0.917100
13.906500 0.882100
13.951100 0.863300
13.995700 0.846600
14.040400 0.827400
14.085000 0.801200
14.129600 0.766000
14.174300 0.719100
14.218900 0.662800
14.263500 0.607500
14.308200 0.550300
14.352800 0.534100
14.397400 0.491900
14.442100 0.454300
14.486700 0.445000
14.531300 0.440200
14.576000 0.434200
14.620600 0.429300
14.665200 0.427100
14.709900 0.413900
14.754500 0.403500
14.799200 0.392300
14.843800 0.382900
14.888400 0.376600
14.933100 0.371600
14.977700 0.368000
15.022300 0.363800
15.067000 0.361000
15.111600 0.358800
15.156200 0.356600
15.200900 0.354100
15.245500 0.351600
15.290100 0.359500
15.334800 0.348400
15.379400 0.344700
15.424000 0.334600
15.468700 0.329200
15.513300 0.327700
15.558000 0.325800
15.602600 0.324200
15.647200 0.322700
15.691900 0.321500
15.736500 0.320500
15.781100 0.319800
15.825800 0.319300
15.870400 0.319200
15.915000 0.319400
15.959700 0.321200
16.004300 0.332400
16.048900 0.323900
16.093600 0.324800
16.138200 0.326100
16.182800 0.328000
16.227500 0.332100
16.272100 0.334900
16.316800 0.338500
16.361400 0.341100
16.406000 0.344200
16.450700 0.349400
16.495300 0.357400
16.539900 0.393300
16.584600 0.498900
16.629200 0.548600
16.673800 0.610100
16.718500 0.678800
16.763100 0.742300
16.807700 0.817000
16.852400 0.927100
16.897000 1.047900
16.941600 1.080000
16.986300 1.091200
17.030900 1.082800
17.075600 1.050300
17.120200 1.017400
17.164800 0.975600
17.209500 0.941400
17.254100 0.904600
17.298700 0.841800
17.343400 0.786000
17.388000 0.739800
17.432600 0.699500
17.477300 0.673600
17.521900 0.664100
17.566500 0.651000
17.611200 0.641200
17.655800 0.632000
17.700400 0.629800
17.745100 0.638700
17.789700 0.658400
17.834400 0.686500
17.879000 0.724400
17.923600 0.781400
17.968300 0.800700
18.012900 0.840100
18.057500 0.881400
18.102200 0.927900
18.146800 0.978900
18.191400 1.040200
18.236100 1.102300
18.280700 1.150100
18.325300 1.195400
18.370000 1.220300
18.414600 1.158400
18.459200 1.134900
18.503900 1.118000
18.548500 1.096100
18.593200 1.084800
18.637800 1.070200
18.682400 1.114400
18.727100 1.133500
18.771700 1.149300
18.816300 1.121600
18.861000 1.068400
18.905600 1.016300
18.950200 0.907000
18.994900 0.865100
19.039500 0.823600
19.084100 0.783700
19.128800 0.748200
19.173400 0.730000
19.218000 0.795100
19.262700 0.824800
19.307300 0.871600
19.352000 0.924400
19.396600 0.970700
19.441200 0.991800
19.485900 1.005400
19.530500 1.000100
19.575100 1.002000
19.619800 0.999000
19.664400 0.996900
19.709000 1.004100
19.753700 1.007400
19.798300 1.006600
19.842900 1.013300
19.887600 0.981900
19.932200 0.979500
19.976800 0.965100
20.021500 0.955400
20.066100 0.932800
20.110800 0.930600
20.155400 0.939700
20.200000 0.968000
20.244700 0.939700
20.289300 0.912300
20.333900 0.895400
20.378600 0.888300
20.423200 0.872700
20.467800 0.868200
20.512500 0.865300
20.557100 0.862300
20.601700 0.865300
20.646400 0.865400
20.691000 0.863800
20.735600 0.855500
20.780300 0.854800
20.824900 0.850800
20.869600 0.842800
20.914200 0.833200
20.958800 0.826800
21.003500 0.820300
21.048100 0.820600
21.092700 0.825600
21.137400 0.829300
21.182000 0.821300
21.226600 0.826900
21.271300 0.836600
21.315900 0.848800
21.360500 0.851800
21.405200 0.848900
21.449800 0.811200
21.494400 0.796100
21.539100 0.790300
21.583700 0.793600
21.628400 0.803200
21.673000 0.815500
21.717600 0.824900
21.762300 0.994800
21.806900 0.848600
21.851500 0.835000
21.896200 0.839100
21.940800 0.844700
21.985400 0.842400
22.030100 0.854000
22.074700 0.876300
22.119300 0.869000
22.164000 0.860400
22.208600 0.867300
22.253200 0.874600
22.297900 0.884400
22.342500 0.901400
22.387200 0.920900
22.431800 0.935600
22.476400 0.961800
22.521100 0.992800
22.565700 1.028900
22.610300 1.078300
22.655000 1.120600
22.699600 1.119600
22.744200 1.091200
22.788900 1.089600
22.833500 1.097900
22.878100 1.102100
22.922800 1.118800
22.967400 1.111100
23.012000 1.083100
23.056700 1.086000
23.101300 1.092800
23.146000 1.098700
23.190600 1.109700
23.235200 1.133600
23.279900 1.204800
23.324500 1.172600
23.369100 1.205900
23.413800 1.258300
23.458400 1.290700
23.503000 1.310300
23.547700 1.328800
23.592300 1.341400
23.636900 1.329900
23.681600 1.301200
23.726200 1.289700
23.770800 1.275800
23.815500 1.274000
23.860100 1.231700
23.904800 1.197700
23.949400 1.181700
23.994000 1.173900
24.038700 1.164900
24.083300 1.178100
24.127900 1.173900
24.172600 1.172400
24.217200 1.108200
24.261800 1.046800
24.306500 1.011400
24.351100 0.988200
24.395700 0.961300
24.440400 0.949300
24.485000 0.948600
24.529600 0.967300
24.574300 0.978300
24.618900 0.965800
24.663600 0.956000
24.708200 0.943300
24.752800 0.926700
24.797500 0.907300
24.842100 0.897400
24.886700 0.901600
24.931400 0.889200
24.976000 0.880100
25.020600 0.868300
25.065300 0.855700
25.109900 0.852600
25.154500 0.847300
25.199200 0.840900
25.243800 0.835400
25.288400 0.826300
25.333100 0.819200
25.377700 0.794900
25.422300 0.788300
25.467000 0.785800
25.511600 0.784800
25.556300 0.786100
25.600900 0.781500
25.645500 0.784000
25.690200 0.787000
25.734800 0.790400
25.779400 0.796100
25.824100 0.801700
25.868700 0.771900
25.913300 0.769000
25.958000 0.776400
26.002600 0.780300
26.047200 0.785000
26.091900 0.802200
26.136500 0.798600
26.181100 0.811800
26.225800 0.836800
26.270400 0.823900
26.315100 0.828500
26.359700 0.836200
26.404300 0.847300
26.449000 0.862000
26.493600 0.879200
26.538200 0.897300
26.582900 0.917600
26.627500 0.970500
26.672100 0.992700
26.716800 1.019500
26.761400 1.053300
26.806000 1.089500
26.850700 1.155500
26.895300 1.211600
26.939900 1.323300
26.984600 1.211500
27.029200 1.190800
27.073900 1.179600
27.118500 1.171200
27.163100 1.165700
27.207800 1.444900
27.252400 1.098400
27.297000 1.065800
27.341700 1.050400
27.386300 1.038600
27.430900 1.049800
27.475600 1.041900
27.520200 1.049500
27.564800 1.052700
27.609500 1.060500
27.654100 1.083300
27.698700 1.095700
27.743400 1.056000
27.788000 1.053900
27.832700 1.019100
27.877300 0.973500
27.921900 0.955400
27.966600 0.953700
28.011200 0.957300
28.055800 0.966100
28.100500 0.959300
28.145100 0.947600
28.189700 0.958300
28.234400 1.020900
28.279000 1.062600
28.323600 1.101800
28.368300 1.140000
28.412900 1.166400
28.457500 1.183800
28.502200 1.211100
28.546800 1.259600
28.591500 1.312100
28.636100 1.382700
28.680700 1.483800
28.725400 1.545200
28.770000 1.568900
28.814600 1.465100
28.859300 1.421100
28.903900 1.393300
28.948500 1.595200
28.993200 1.323500
29.037800 1.292600
29.082400 1.266600
29.127100 1.238300
29.171700 1.219100
29.216300 1.202700
29.261000 1.184200
29.305600 1.178100
29.350300 1.174700
29.394900 1.179400
29.439500 1.191700
29.484200 1.212700
29.528800 1.218700
29.573400 1.219900
29.618100 1.227500
29.662700 1.236000
29.707300 1.247500
29.752000 1.252600
29.796600 1.263500
29.841200 1.282700
29.885900 1.297100
29.930500 1.320300
29.975100 1.340200
30.019800 1.365600
30.064400 1.339800
30.109100 1.311000
30.153700 1.284900
30.198300 1.253900
30.243000 1.223800
30.287600 1.189700
30.332200 1.168100
30.376900 1.156700
30.421500 1.147200
30.466100 1.141900
30.510800 1.153100
30.555400 1.110000
30.600000 1.086800
30.644700 1.064500
30.689300 1.070600
30.733900 1.076600
30.778600 1.072400
30.823200 1.059000
30.867900 1.063100
30.912500 1.061100
30.957100 1.055000
31.001800 1.061900
31.046400 1.081600
31.091000 1.090600
31.135700 1.105900
31.180300 1.116100
31.224900 1.123900
31.269600 1.139900
31.314200 1.157800
31.358800 1.176700
31.403500 1.214900
31.448100 1.287000
31.492700 1.310500
31.537400 1.352000
31.582000 1.435800
31.626700 1.468400
31.671300 1.464500
31.715900 1.497600
31.760600 1.494500
31.805200 1.506100
31.849800 1.516200
31.894500 1.537700
31.939100 1.574600
31.983700 1.613100
32.028400 1.657700
32.073000 1.699600
32.117600 1.733800
32.162300 1.760600
32.206900 1.761500
32.251500 1.744100
32.296200 1.713400
32.340800 1.617500
32.385500 1.545300
32.430100 1.501100
32.474700 1.470500
32.519400 1.424300
32.564000 1.385800
32.608600 1.330200
32.653300 1.268100
32.697900 1.299000
32.742500 1.298000
32.787200 1.270500
32.831800 1.251800
32.876400 1.242400
32.921100 1.247500
32.965700 1.292500
33.010300 1.310800
33.055000 1.330500
33.099600 1.384500
33.144300 1.422800
33.188900 1.426500
33.233500 1.443900
33.278200 1.466700
33.322800 1.481500
33.367400 1.519900
33.412100 1.588500
33.456700 1.581400
33.501300 1.457900
33.546000 1.414400
33.590600 1.443600
33.635200 1.387000
33.679900 1.300600
33.724500 1.241700
33.769100 1.270700
33.813800 1.217500
33.858400 1.219200
33.903100 1.227700
33.947700 1.253000
33.992300 1.245000
34.037000 1.150800
34.081600 1.116300
34.126200 1.094200
34.170900 1.076300
34.215500 1.064200
34.260100 1.061900
34.304800 1.031200
34.349400 1.002800
34.394000 0.993400
34.438700 0.997700
34.483300 0.967000
34.527900 0.983800
34.572600 1.027600
34.617200 1.036700
