set title 'mp-1186445 - Density of States'
set xlabel 'Energy (eV)'
set ylabel 'DOS (states/eV)'
set grid
set xrange [-10:10]
set yrange [0:15.637]
set xzeroaxis lt -1
set terminal png size 800,600
set output 'mp-1186445_dos_gnuplot.png'
plot '-' using 1:2 with lines title 'DOS'
-10.224600 0.000000
-10.204000 0.000000
-10.183400 0.000000
-10.162900 0.000000
-10.142300 0.000000
-10.121800 0.000000
-10.101200 0.000000
-10.080600 0.000000
-10.060100 0.000000
-10.039500 0.000000
-10.019000 0.000000
-9.998400 0.000000
-9.977800 0.000000
-9.957300 0.000000
-9.936700 0.000000
-9.916200 0.000000
-9.895600 0.000000
-9.875000 0.000000
-9.854500 0.000000
-9.833900 0.000000
-9.813300 0.000000
-9.792800 0.000000
-9.772200 0.000000
-9.751700 0.000000
-9.731100 0.000000
-9.710500 0.000000
-9.690000 0.000000
-9.669400 0.000000
-9.648900 0.000000
-9.628300 0.000000
-9.607700 0.000000
-9.587200 0.000000
-9.566600 0.000000
-9.546100 0.000000
-9.525500 0.000000
-9.504900 0.000000
-9.484400 0.000000
-9.463800 0.000000
-9.443200 0.000000
-9.422700 0.000000
-9.402100 0.000000
-9.381600 0.000000
-9.361000 0.000000
-9.340400 0.000000
-9.319900 0.000000
-9.299300 0.000000
-9.278800 0.000000
-9.258200 0.000000
-9.237600 0.000000
-9.217100 0.000000
-9.196500 0.000000
-9.175900 0.000000
-9.155400 0.000000
-9.134800 0.000000
-9.114300 0.000000
-9.093700 0.000000
-9.073100 0.000000
-9.052600 0.000000
-9.032000 0.000000
-9.011500 0.000000
-8.990900 0.000000
-8.970300 0.000000
-8.949800 0.000000
-8.929200 0.000000
-8.908700 0.000000
-8.888100 0.000000
-8.867500 0.000000
-8.847000 0.000000
-8.826400 0.000000
-8.805800 0.000000
-8.785300 0.000000
-8.764700 0.000000
-8.744200 0.000000
-8.723600 0.000000
-8.703000 0.000000
-8.682500 0.000000
-8.661900 0.000000
-8.641400 0.000000
-8.620800 0.000000
-8.600200 0.000000
-8.579700 0.000000
-8.559100 0.000000
-8.538600 0.000000
-8.518000 0.000000
-8.497400 0.000000
-8.476900 0.000000
-8.456300 0.000400
-8.435700 0.002300
-8.415200 0.010400
-8.394600 0.036400
-8.374100 0.098300
-8.353500 0.210300
-8.332900 0.368600
-8.312400 0.555300
-8.291800 0.753600
-8.271300 0.948300
-8.250700 1.132800
-8.230100 1.327000
-8.209600 1.555200
-8.189000 1.812800
-8.168400 2.094200
-8.147900 2.426800
-8.127300 2.856000
-8.106800 3.408600
-8.086200 4.075000
-8.065600 4.857600
-8.045100 5.829700
-8.024500 7.058600
-8.004000 8.427200
-7.983400 9.543900
-7.962800 9.906000
-7.942300 9.232200
-7.921700 7.620500
-7.901200 5.453400
-7.880600 3.271100
-7.860000 1.583300
-7.839500 0.598400
-7.818900 0.172300
-7.798300 0.037200
-7.777800 0.005900
-7.757200 0.000700
-7.736700 0.000100
-7.716100 0.000000
-7.695500 0.000000
-7.675000 0.000000
-7.654400 0.000000
-7.633900 0.000000
-7.613300 0.000000
-7.592700 0.000000
-7.572200 0.000000
-7.551600 0.000000
-7.531100 0.000000
-7.510500 0.000000
-7.489900 0.000000
-7.469400 0.000000
-7.448800 0.000000
-7.428200 0.000000
-7.407700 0.000000
-7.387100 0.000000
-7.366600 0.000000
-7.346000 0.000000
-7.325400 0.000000
-7.304900 0.000000
-7.284300 0.000000
-7.263800 0.000000
-7.243200 0.000000
-7.222600 0.000000
-7.202100 0.000000
-7.181500 0.000000
-7.161000 0.000000
-7.140400 0.000000
-7.119800 0.000000
-7.099300 0.000000
-7.078700 0.000000
-7.058100 0.000000
-7.037600 0.000000
-7.017000 0.000000
-6.996500 0.000000
-6.975900 0.000000
-6.955300 0.000000
-6.934800 0.000000
-6.914200 0.000000
-6.893700 0.000000
-6.873100 0.000000
-6.852500 0.000000
-6.832000 0.000000
-6.811400 0.000000
-6.790800 0.000000
-6.770300 0.000000
-6.749700 0.000000
-6.729200 0.000000
-6.708600 0.000000
-6.688000 0.000000
-6.667500 0.000000
-6.646900 0.000000
-6.626400 0.000000
-6.605800 0.000000
-6.585200 0.000000
-6.564700 0.000000
-6.544100 0.000000
-6.523600 0.000000
-6.503000 0.000000
-6.482400 0.000000
-6.461900 0.000000
-6.441300 0.000000
-6.420700 0.000000
-6.400200 0.000000
-6.379600 0.000000
-6.359100 0.000000
-6.338500 0.000000
-6.317900 0.000000
-6.297400 0.000000
-6.276800 0.000000
-6.256300 0.000000
-6.235700 0.000000
-6.215100 0.000000
-6.194600 0.000000
-6.174000 0.000000
-6.153500 0.000000
-6.132900 0.000000
-6.112300 0.000000
-6.091800 0.000000
-6.071200 0.000000
-6.050600 0.000000
-6.030100 0.000000
-6.009500 0.000000
-5.989000 0.000000
-5.968400 0.000000
-5.947800 0.000000
-5.927300 0.000000
-5.906700 0.000000
-5.886200 0.000000
-5.865600 0.000000
-5.845000 0.000000
-5.824500 0.000000
-5.803900 0.000000
-5.783300 0.000000
-5.762800 0.000000
-5.742200 0.000000
-5.721700 0.000000
-5.701100 0.000000
-5.680500 0.000000
-5.660000 0.000000
-5.639400 0.000000
-5.618900 0.000000
-5.598300 0.000000
-5.577700 0.000000
-5.557200 0.000000
-5.536600 0.000000
-5.516100 0.000000
-5.495500 0.000000
-5.474900 0.000000
-5.454400 0.000000
-5.433800 0.000000
-5.413200 0.000000
-5.392700 0.000000
-5.372100 0.000000
-5.351600 0.000000
-5.331000 0.000000
-5.310400 0.000000
-5.289900 0.000000
-5.269300 0.000000
-5.248800 0.000000
-5.228200 0.000000
-5.207600 0.000000
-5.187100 0.000000
-5.166500 0.000000
-5.146000 0.000000
-5.125400 0.000000
-5.104800 0.000000
-5.084300 0.000000
-5.063700 0.000000
-5.043100 0.000000
-5.022600 0.000000
-5.002000 0.000000
-4.981500 0.000000
-4.960900 0.000000
-4.940300 0.000000
-4.919800 0.000000
-4.899200 0.000000
-4.878700 0.000000
-4.858100 0.000000
-4.837500 0.000000
-4.817000 0.000000
-4.796400 0.000000
-4.775800 0.000000
-4.755300 0.000000
-4.734700 0.000000
-4.714200 0.000000
-4.693600 0.000000
-4.673000 0.000000
-4.652500 0.000000
-4.631900 0.000000
-4.611400 0.000000
-4.590800 0.000000
-4.570200 0.000000
-4.549700 0.000000
-4.529100 0.000000
-4.508600 0.000000
-4.488000 0.000000
-4.467400 0.000000
-4.446900 0.000000
-4.426300 0.000000
-4.405700 0.000000
-4.385200 0.000000
-4.364600 0.000000
-4.344100 0.000000
-4.323500 0.000000
-4.302900 0.000000
-4.282400 0.000000
-4.261800 0.000000
-4.241300 0.000000
-4.220700 0.000000
-4.200100 0.000000
-4.179600 0.000000
-4.159000 0.000000
-4.138500 0.000000
-4.117900 0.000000
-4.097300 0.000000
-4.076800 0.000000
-4.056200 0.000000
-4.035600 0.000000
-4.015100 0.000000
-3.994500 0.000000
-3.974000 0.000000
-3.953400 0.000000
-3.932800 0.000000
-3.912300 0.000000
-3.891700 0.000000
-3.871200 0.000000
-3.850600 0.000000
-3.830000 0.000000
-3.809500 0.000000
-3.788900 0.000000
-3.768300 0.000000
-3.747800 0.000000
-3.727200 0.000000
-3.706700 0.000000
-3.686100 0.000000
-3.665500 0.000000
-3.645000 0.000000
-3.624400 0.000000
-3.603900 0.000000
-3.583300 0.000000
-3.562700 0.000000
-3.542200 0.000000
-3.521600 0.000000
-3.501100 0.000000
-3.480500 0.000000
-3.459900 0.000000
-3.439400 0.000000
-3.418800 0.000000
-3.398200 0.000000
-3.377700 0.000000
-3.357100 0.000000
-3.336600 0.000000
-3.316000 0.000000
-3.295400 0.000000
-3.274900 0.000000
-3.254300 0.000000
-3.233800 0.000000
-3.213200 0.000000
-3.192600 0.000000
-3.172100 0.000000
-3.151500 0.000000
-3.131000 0.000000
-3.110400 0.000000
-3.089800 0.000000
-3.069300 0.000000
-3.048700 0.000000
-3.028100 0.000000
-3.007600 0.000000
-2.987000 0.000000
-2.966500 0.000000
-2.945900 0.000000
-2.925300 0.000000
-2.904800 0.000000
-2.884200 0.000000
-2.863700 0.000000
-2.843100 0.000000
-2.822500 0.000000
-2.802000 0.000000
-2.781400 0.000000
-2.760800 0.000000
-2.740300 0.000000
-2.719700 0.000000
-2.699200 0.000000
-2.678600 0.000000
-2.658000 0.000000
-2.637500 0.000000
-2.616900 0.000000
-2.596400 0.000000
-2.575800 0.000000
-2.555200 0.000000
-2.534700 0.000000
-2.514100 0.000000
-2.493600 0.000000
-2.473000 0.000000
-2.452400 0.000000
-2.431900 0.000000
-2.411300 0.000000
-2.390700 0.000000
-2.370200 0.000000
-2.349600 0.000000
-2.329100 0.000000
-2.308500 0.000000
-2.287900 0.000000
-2.267400 0.000000
-2.246800 0.000000
-2.226300 0.000000
-2.205700 0.000000
-2.185100 0.000000
-2.164600 0.000000
-2.144000 0.000000
-2.123500 0.000000
-2.102900 0.000000
-2.082300 0.000000
-2.061800 0.000000
-2.041200 0.000000
-2.020600 0.000000
-2.000100 0.000000
-1.979500 0.000000
-1.959000 0.000000
-1.938400 0.000000
-1.917800 0.000000
-1.897300 0.000000
-1.876700 0.000000
-1.856200 0.000000
-1.835600 0.000000
-1.815000 0.000000
-1.794500 0.000000
-1.773900 0.000000
-1.753400 0.000000
-1.732800 0.000000
-1.712200 0.000000
-1.691700 0.000000
-1.671100 0.000000
-1.650500 0.000000
-1.630000 0.000000
-1.609400 0.000000
-1.588900 0.000000
-1.568300 0.000000
-1.547700 0.000000
-1.527200 0.000000
-1.506600 0.000000
-1.486100 0.000000
-1.465500 0.000000
-1.444900 0.000000
-1.424400 0.000000
-1.403800 0.000000
-1.383200 0.000000
-1.362700 0.000000
-1.342100 0.000000
-1.321600 0.000000
-1.301000 0.000000
-1.280400 0.000000
-1.259900 0.000000
-1.239300 0.000000
-1.218800 0.000000
-1.198200 0.000000
-1.177600 0.000000
-1.157100 0.000000
-1.136500 0.000000
-1.116000 0.000000
-1.095400 0.000000
-1.074800 0.000000
-1.054300 0.000000
-1.033700 0.000000
-1.013100 0.000000
-0.992600 0.000000
-0.972000 0.000000
-0.951500 0.000000
-0.930900 0.000000
-0.910300 0.000000
-0.889800 0.000000
-0.869200 0.000000
-0.848700 0.000000
-0.828100 0.000000
-0.807500 0.000000
-0.787000 0.000000
-0.766400 0.000000
-0.745900 0.000000
-0.725300 0.000000
-0.704700 0.000000
-0.684200 0.000000
-0.663600 0.000000
-0.643000 0.000000
-0.622500 0.000000
-0.601900 0.000000
-0.581400 0.000000
-0.560800 0.000000
-0.540200 0.000000
-0.519700 0.000000
-0.499100 0.000000
-0.478600 0.000000
-0.458000 0.000000
-0.437400 0.000000
-0.416900 0.000000
-0.396300 0.000000
-0.375700 0.000200
-0.355200 0.001600
-0.334600 0.008300
-0.314100 0.033500
-0.293500 0.110100
-0.272900 0.302200
-0.252400 0.700500
-0.231800 1.358300
-0.211300 2.172100
-0.190700 2.865600
-0.170100 3.209100
-0.149600 3.241300
-0.129000 3.171600
-0.108500 3.130400
-0.087900 3.129600
-0.067300 3.163700
-0.046800 3.247000
-0.026200 3.406100
-0.005600 3.641700
0.014900 3.833700
0.035500 3.780300
0.056000 3.464900
0.076600 3.162200
0.097200 3.135600
0.117700 3.346100
0.138300 3.549400
0.158800 3.601200
0.179400 3.584400
0.200000 3.604000
0.220500 3.576400
0.241100 3.361800
0.261600 2.986200
0.282200 2.590000
0.302800 2.254900
0.323300 1.993900
0.343900 1.828500
0.364500 1.762700
0.385000 1.723800
0.405600 1.633400
0.426100 1.535800
0.446700 1.567900
0.467300 1.770000
0.487800 2.018700
0.508400 2.234400
0.528900 2.548100
0.549500 3.132700
0.570100 3.952400
0.590600 4.798500
0.611200 5.515900
0.631800 6.074000
0.652300 6.447500
0.672900 6.604900
0.693400 6.649300
0.714000 6.840000
0.734600 7.399600
0.755100 8.272500
0.775700 9.057000
0.796200 9.272100
0.816800 8.813400
0.837400 8.099800
0.857900 7.666000
0.878500 7.655000
0.899000 7.727900
0.919600 7.413600
0.940200 6.586300
0.960700 5.574800
0.981300 4.751600
1.001900 4.174100
1.022400 3.714000
1.043000 3.327700
1.063500 3.030900
1.084100 2.754100
1.104700 2.397300
1.125200 1.963400
1.145800 1.549100
1.166300 1.250600
1.186900 1.091000
1.207500 1.007400
1.228000 0.907600
1.248600 0.749000
1.269100 0.565200
1.289700 0.428600
1.310300 0.392200
1.330800 0.451800
1.351400 0.553800
1.372000 0.628700
1.392500 0.623700
1.413100 0.534000
1.433600 0.412700
1.454200 0.323600
1.474800 0.283100
1.495300 0.263700
1.515900 0.241700
1.536400 0.223400
1.557000 0.231100
1.577600 0.267500
1.598100 0.299700
1.618700 0.291500
1.639300 0.245900
1.659800 0.193000
1.680400 0.147400
1.700900 0.102600
1.721500 0.058400
1.742100 0.025400
1.762600 0.008900
1.783200 0.005800
1.803700 0.013800
1.824300 0.033900
1.844900 0.063300
1.865400 0.088900
1.886000 0.094500
1.906500 0.076900
1.927100 0.051000
1.947700 0.037300
1.968200 0.046000
1.988800 0.070500
2.009400 0.095600
2.029900 0.114700
2.050500 0.135600
2.071000 0.167900
2.091600 0.216700
2.112200 0.279800
2.132700 0.333700
2.153300 0.349100
2.173800 0.341800
2.194400 0.377800
2.215000 0.502500
2.235500 0.684000
2.256100 0.853000
2.276600 1.003800
2.297200 1.221400
2.317800 1.570800
2.338300 1.982700
2.358900 2.312800
2.379500 2.524300
2.400000 2.743600
2.420600 3.094800
2.441100 3.565100
2.461700 4.081900
2.482300 4.616200
2.502800 5.147100
2.523400 5.621900
2.543900 6.013500
2.564500 6.366600
2.585100 6.744400
2.605600 7.158500
2.626200 7.565600
2.646700 7.952900
2.667300 8.453000
2.687900 9.252800
2.708400 10.293700
2.729000 11.242000
2.749600 11.821100
2.770100 11.981400
2.790700 11.787600
2.811200 11.347700
2.831800 10.810900
2.852400 10.266000
2.872900 9.658000
2.893500 8.923700
2.914000 8.191800
2.934600 7.732000
2.955200 7.690300
2.975700 7.919600
2.996300 8.101000
3.016900 8.002800
3.037400 7.569800
3.058000 6.876400
3.078500 6.149100
3.099100 5.693600
3.119700 5.608800
3.140200 5.700800
3.160800 5.852700
3.181300 6.294800
3.201900 7.329200
3.222500 8.953300
3.243000 10.847900
3.263600 12.543500
3.284100 13.574500
3.304700 13.745700
3.325300 13.320200
3.345800 12.758100
3.366400 12.306700
3.387000 11.959200
3.407500 11.647300
3.428100 11.307100
3.448600 10.814600
3.469200 10.026000
3.489800 8.947100
3.510300 7.755500
3.530900 6.667000
3.551400 5.878300
3.572000 5.515700
3.592600 5.482100
3.613100 5.495700
3.633700 5.417200
3.654200 5.402200
3.674800 5.662400
3.695400 6.190800
3.715900 6.707800
3.736500 6.857800
3.757100 6.580300
3.777600 6.253700
3.798200 6.313800
3.818700 6.773100
3.839300 7.256500
3.859900 7.460200
3.880400 7.459100
3.901000 7.580700
3.921500 8.019600
3.942100 8.549900
3.962700 8.709200
3.983200 8.339700
4.003800 7.765000
4.024400 7.407800
4.044900 7.463300
4.065500 7.938800
4.086000 8.764100
4.106600 9.707900
4.127200 10.296200
4.147700 10.144700
4.168300 9.461800
4.188800 8.906900
4.209400 8.860400
4.230000 9.089000
4.250500 9.114100
4.271100 8.730400
4.291600 8.211600
4.312200 8.098500
4.332800 8.773400
4.353300 10.142000
4.373900 11.666000
4.394500 12.823300
4.415000 13.532300
4.435600 13.990000
4.456100 14.215700
4.476700 13.986800
4.497300 13.190700
4.517800 12.051800
4.538400 10.985300
4.558900 10.339900
4.579500 10.203000
4.600100 10.330700
4.620600 10.347600
4.641200 10.051700
4.661700 9.492400
4.682300 8.844500
4.702900 8.286200
4.723400 7.933400
4.744000 7.799300
4.764600 7.812500
4.785100 7.882200
4.805700 7.895200
4.826200 7.669800
4.846800 7.057500
4.867400 6.141100
4.887900 5.220400
4.908500 4.565900
4.929000 4.233000
4.949600 4.090200
4.970200 3.982200
4.990700 3.856900
5.011300 3.763100
5.031900 3.768900
5.052400 3.905500
5.073000 4.179400
5.093500 4.631500
5.114100 5.351600
5.134700 6.360300
5.155200 7.517700
5.175800 8.627700
5.196300 9.535800
5.216900 10.107600
5.237500 10.320800
5.258000 10.379200
5.278600 10.494600
5.299100 10.624600
5.319700 10.654300
5.340300 10.654300
5.360800 10.712500
5.381400 10.693100
5.402000 10.368600
5.422500 9.714400
5.443100 8.933600
5.463600 8.174600
5.484200 7.384400
5.504800 6.514200
5.525300 5.664300
5.545900 4.939100
5.566400 4.342300
5.587000 3.871000
5.607600 3.628100
5.628100 3.803300
5.648700 4.494300
5.669200 5.500300
5.689800 6.354800
5.710400 6.620300
5.730900 6.157200
5.751500 5.188600
5.772100 4.142100
5.792600 3.354000
5.813200 2.905600
5.833700 2.725100
5.854300 2.713600
5.874900 2.752100
5.895400 2.744100
5.916000 2.701800
5.936500 2.709600
5.957100 2.804000
5.977700 2.952900
5.998200 3.104400
6.018800 3.193900
6.039400 3.169300
6.059900 3.050700
6.080500 2.904600
6.101000 2.765300
6.121600 2.627800
6.142200 2.480300
6.162700 2.303200
6.183300 2.099600
6.203800 1.964700
6.224400 2.023600
6.245000 2.245700
6.265500 2.423700
6.286100 2.395500
6.306600 2.236000
6.327200 2.194100
6.347800 2.431100
6.368300 2.823500
6.388900 3.072400
6.409500 3.034800
6.430000 2.868200
6.450600 2.786100
6.471100 2.780900
6.491700 2.700400
6.512300 2.485500
6.532800 2.207500
6.553400 1.959400
6.573900 1.773800
6.594500 1.593200
6.615100 1.343200
6.635600 1.051000
6.656200 0.810000
6.676700 0.652100
6.697300 0.548100
6.717900 0.503300
6.738400 0.546200
6.759000 0.624000
6.779600 0.623300
6.800100 0.525100
6.820700 0.444600
6.841200 0.478000
6.861800 0.579700
6.882400 0.631000
6.902900 0.589800
6.923500 0.511000
6.944000 0.447400
6.964600 0.402700
6.985200 0.369600
7.005700 0.364600
7.026300 0.423500
7.046900 0.562000
7.067400 0.729400
7.088000 0.823400
7.108500 0.786100
7.129100 0.663600
7.149700 0.537000
7.170200 0.428200
7.190800 0.323900
7.211300 0.252400
7.231900 0.259000
7.252500 0.322100
7.273000 0.357200
7.293600 0.315600
7.314100 0.245000
7.334700 0.237900
7.355300 0.345200
7.375800 0.554200
7.396400 0.820900
7.417000 1.096700
7.437500 1.339700
7.458100 1.518200
7.478600 1.590000
7.499200 1.498000
7.519800 1.258700
7.540300 1.026700
7.560900 0.964900
7.581400 1.064000
7.602000 1.161500
7.622600 1.111900
7.643100 0.899100
7.663700 0.627800
7.684200 0.436800
7.704800 0.390600
7.725400 0.438400
7.745900 0.480300
7.766500 0.471500
7.787100 0.455200
7.807600 0.492500
7.828200 0.574500
7.848700 0.646200
7.869300 0.703200
7.889900 0.798800
7.910400 0.956500
7.931000 1.147800
7.951500 1.367400
7.972100 1.655700
7.992700 1.990600
8.013200 2.218100
8.033800 2.193200
8.054300 1.980600
8.074900 1.808400
8.095500 1.805500
8.116000 1.891800
8.136600 1.940100
8.157200 1.913100
8.177700 1.824400
8.198300 1.683600
8.218800 1.507500
8.239400 1.333400
8.260000 1.207000
8.280500 1.157200
8.301100 1.180100
8.321600 1.228700
8.342200 1.219400
8.362800 1.096900
8.383300 0.910200
8.403900 0.770600
8.424500 0.726500
8.445000 0.715800
8.465600 0.656200
8.486100 0.537100
8.506700 0.401300
8.527300 0.282200
8.547800 0.188900
8.568400 0.130800
8.588900 0.136200
8.609500 0.236100
8.630100 0.418400
8.650600 0.609900
8.671200 0.740900
8.691700 0.829100
8.712300 0.945500
8.732900 1.085500
8.753400 1.153200
8.774000 1.094200
8.794600 0.954000
8.815100 0.791800
8.835700 0.629700
8.856200 0.478300
8.876800 0.347400
8.897400 0.251500
8.917900 0.224100
8.938500 0.291600
8.959000 0.412300
8.979600 0.482900
9.000200 0.453400
9.020700 0.397800
9.041300 0.417000
9.061800 0.511500
9.082400 0.596400
9.103000 0.609800
9.123500 0.563900
9.144100 0.502200
9.164700 0.446900
9.185200 0.408500
9.205800 0.418000
9.226300 0.504200
9.246900 0.649600
9.267500 0.793100
9.288000 0.860700
9.308600 0.805100
9.329100 0.652300
9.349700 0.490600
9.370300 0.389600
9.390800 0.343000
9.411400 0.303800
9.432000 0.257000
9.452500 0.245400
9.473100 0.334500
9.493600 0.556700
9.514200 0.873600
9.534800 1.194100
9.555300 1.437900
9.575900 1.582800
9.596400 1.661700
9.617000 1.734500
9.637600 1.849600
9.658100 1.998500
9.678700 2.096300
9.699200 2.026300
9.719800 1.753500
9.740400 1.402700
9.760900 1.149000
9.781500 1.036000
9.802100 0.990300
9.822600 0.963200
9.843200 0.969100
9.863700 1.043300
9.884300 1.206800
9.904900 1.418900
9.925400 1.575000
9.946000 1.602000
9.966500 1.509500
9.987100 1.333900
10.007700 1.124000
10.028200 0.989300
10.048800 1.066600
10.069300 1.413000
10.089900 1.943800
10.110500 2.438100
10.131000 2.641500
10.151600 2.474100
10.172200 2.131100
10.192700 1.893500
10.213300 1.866700
10.233800 1.966600
10.254400 2.104400
10.275000 2.274000
10.295500 2.450800
10.316100 2.528000
10.336600 2.435600
10.357200 2.233700
10.377800 2.017400
10.398300 1.825600
10.418900 1.695100
10.439500 1.690600
10.460000 1.821800
10.480600 1.981600
10.501100 1.993300
10.521700 1.741600
10.542300 1.290100
10.562800 0.844300
10.583400 0.564300
10.603900 0.442600
10.624500 0.377500
10.645100 0.311200
10.665600 0.275300
10.686200 0.337100
10.706700 0.525300
10.727300 0.801600
10.747900 1.096900
10.768400 1.353000
10.789000 1.515600
10.809600 1.546400
10.830100 1.493800
10.850700 1.475000
10.871200 1.537900
10.891800 1.615500
10.912400 1.647300
10.932900 1.685100
10.953500 1.821300
10.974000 2.038700
10.994600 2.209800
11.015200 2.224100
11.035700 2.046900
11.056300 1.721400
11.076800 1.376000
11.097400 1.150100
11.118000 1.068700
11.138500 1.047600
11.159100 1.027700
11.179700 1.055700
11.200200 1.205600
11.220800 1.460200
11.241300 1.726300
11.261900 1.935800
11.282500 2.100700
11.303000 2.280100
11.323600 2.481400
11.344100 2.611400
11.364700 2.590900
11.385300 2.475900
11.405800 2.384900
11.426400 2.343500
11.447000 2.275100
11.467500 2.126700
11.488100 1.955200
11.508600 1.888400
11.529200 2.020400
11.549800 2.333800
