set title 'mp-556516 - Density of States'
set xlabel 'Energy (eV)'
set ylabel 'DOS (states/eV)'
set grid
set xrange [-10:10]
set yrange [0:2192.490]
set xzeroaxis lt -1
set terminal png size 800,600
set output 'mp-556516_dos_gnuplot.png'
plot '-' using 1:2 with lines title 'DOS'
-9.794100 0.000000
-9.780900 0.000000
-9.767600 0.000000
-9.754400 0.000000
-9.741100 0.000000
-9.727900 0.000000
-9.714600 0.000000
-9.701400 0.000000
-9.688100 0.000000
-9.674900 0.000000
-9.661600 0.000000
-9.648400 0.000000
-9.635100 0.000000
-9.621900 0.000000
-9.608600 0.000000
-9.595400 0.000000
-9.582100 0.000000
-9.568900 0.000000
-9.555600 0.000000
-9.542400 0.000000
-9.529100 0.000000
-9.515900 0.000000
-9.502600 0.000000
-9.489400 0.000000
-9.476100 0.000000
-9.462900 0.000000
-9.449600 0.000000
-9.436400 0.000000
-9.423100 0.000000
-9.409900 0.000000
-9.396600 0.000000
-9.383400 0.000000
-9.370100 0.000000
-9.356900 0.000000
-9.343700 0.000000
-9.330400 0.000000
-9.317200 0.000000
-9.303900 0.000000
-9.290700 0.000000
-9.277400 0.000000
-9.264200 0.000000
-9.250900 0.000000
-9.237700 0.000000
-9.224400 0.000000
-9.211200 0.000000
-9.197900 0.000000
-9.184700 0.000000
-9.171400 0.000000
-9.158200 0.000000
-9.144900 0.000000
-9.131700 0.000000
-9.118400 0.000000
-9.105200 0.000000
-9.091900 0.000000
-9.078700 0.000000
-9.065400 0.000000
-9.052200 0.000000
-9.038900 0.000000
-9.025700 0.000000
-9.012400 0.000000
-8.999200 0.000000
-8.985900 0.000000
-8.972700 0.000000
-8.959400 0.000000
-8.946200 0.000000
-8.932900 0.000000
-8.919700 0.000000
-8.906400 0.000000
-8.893200 0.000000
-8.879900 0.000000
-8.866700 0.000000
-8.853400 0.000000
-8.840200 0.000000
-8.826900 0.000000
-8.813700 0.000000
-8.800400 0.000000
-8.787200 0.000000
-8.773900 0.000000
-8.760700 0.000000
-8.747400 0.000000
-8.734200 0.000000
-8.720900 0.000000
-8.707700 0.000000
-8.694400 0.000000
-8.681200 0.000000
-8.667900 0.000000
-8.654700 0.000000
-8.641400 0.000000
-8.628200 0.000000
-8.614900 0.000000
-8.601700 0.000000
-8.588400 0.113400
-8.575200 16.332300
-8.561900 107.848000
-8.548700 0.000000
-8.535400 244.374800
-8.522200 76.203300
-8.508900 191.516500
-8.495700 285.405100
-8.482500 0.000000
-8.469200 208.113500
-8.456000 0.000000
-8.442700 0.000000
-8.429500 0.000000
-8.416200 0.000000
-8.403000 0.000000
-8.389700 0.000000
-8.376500 0.000000
-8.363200 0.000000
-8.350000 0.000000
-8.336700 0.000000
-8.323500 0.000000
-8.310200 0.000000
-8.297000 0.000000
-8.283700 0.000000
-8.270500 0.000000
-8.257200 0.000000
-8.244000 0.000000
-8.230700 0.000000
-8.217500 0.000000
-8.204200 0.000000
-8.191000 0.000000
-8.177700 0.000000
-8.164500 0.000000
-8.151200 0.000000
-8.138000 0.000000
-8.124700 0.000000
-8.111500 0.000000
-8.098200 0.000000
-8.085000 0.000000
-8.071700 0.000000
-8.058500 0.000000
-8.045200 0.000000
-8.032000 0.000000
-8.018700 0.000000
-8.005500 0.000000
-7.992200 0.000000
-7.979000 0.000000
-7.965700 0.000000
-7.952500 0.000000
-7.939200 0.000000
-7.926000 0.000000
-7.912700 0.000000
-7.899500 0.000000
-7.886200 0.000000
-7.873000 0.000000
-7.859700 0.000000
-7.846500 0.000000
-7.833200 0.000000
-7.820000 0.000000
-7.806700 0.000000
-7.793500 0.000000
-7.780200 0.000000
-7.767000 0.000000
-7.753700 0.000000
-7.740500 0.000000
-7.727200 0.000000
-7.714000 0.000000
-7.700700 0.000000
-7.687500 0.000000
-7.674200 0.000000
-7.661000 0.000000
-7.647700 0.000000
-7.634500 0.000000
-7.621300 0.000000
-7.608000 0.000000
-7.594800 0.000000
-7.581500 0.000000
-7.568300 0.000000
-7.555000 0.000000
-7.541800 0.000000
-7.528500 0.000000
-7.515300 0.000000
-7.502000 0.000000
-7.488800 0.000000
-7.475500 0.000000
-7.462300 0.000000
-7.449000 0.000000
-7.435800 0.000000
-7.422500 0.000000
-7.409300 0.000000
-7.396000 0.000000
-7.382800 0.000000
-7.369500 0.000000
-7.356300 0.000000
-7.343000 0.000000
-7.329800 0.000000
-7.316500 0.000000
-7.303300 110.993000
-7.290000 446.811300
-7.276800 589.896900
-7.263500 257.290000
-7.250300 1993.172800
-7.237000 691.545200
-7.223800 675.153600
-7.210500 744.897100
-7.197300 189.104100
-7.184000 414.244500
-7.170800 383.655800
-7.157500 1030.115000
-7.144300 542.545800
-7.131000 957.538600
-7.117800 644.052900
-7.104500 940.369500
-7.091300 763.563300
-7.078000 47.876600
-7.064800 34.171100
-7.051500 20.441500
-7.038300 6.688100
-7.025000 11.186600
-7.011800 36.148300
-6.998500 54.792000
-6.985300 22.313600
-6.972000 11.580700
-6.958800 12.472600
-6.945500 13.363300
-6.932300 14.252700
-6.919000 15.140800
-6.905800 16.027700
-6.892500 16.913400
-6.879300 17.797900
-6.866000 19.473900
-6.852800 40.495500
-6.839500 45.043400
-6.826300 34.310100
-6.813000 23.649900
-6.799800 14.781400
-6.786500 10.652900
-6.773300 10.771800
-6.760100 12.196600
-6.746800 13.622200
-6.733600 15.037600
-6.720300 16.442700
-6.707100 17.837700
-6.693800 19.540700
-6.680600 25.274300
-6.667300 80.743400
-6.654100 141.229700
-6.640800 19.199000
-6.627600 22.880900
-6.614300 40.218200
-6.601100 45.697100
-6.587800 0.000000
-6.574600 0.000000
-6.561300 0.000000
-6.548100 64.147400
-6.534800 80.495400
-6.521600 59.424500
-6.508300 36.350500
-6.495100 23.012100
-6.481800 13.628200
-6.468600 7.168400
-6.455300 3.764100
-6.442100 0.979600
-6.428800 0.000000
-6.415600 0.000000
-6.402300 0.000000
-6.389100 0.000000
-6.375800 0.000000
-6.362600 0.000000
-6.349300 0.000000
-6.336100 0.000000
-6.322800 0.000000
-6.309600 0.000000
-6.296300 0.000000
-6.283100 0.000000
-6.269800 0.000000
-6.256600 0.000000
-6.243300 0.000000
-6.230100 0.000000
-6.216800 0.000000
-6.203600 0.000000
-6.190300 0.000000
-6.177100 0.000000
-6.163800 0.000000
-6.150600 0.000000
-6.137300 0.000000
-6.124100 0.000000
-6.110800 0.000000
-6.097600 0.000000
-6.084300 0.000000
-6.071100 0.000000
-6.057800 0.000000
-6.044600 0.000000
-6.031300 0.000000
-6.018100 0.000000
-6.004800 0.000000
-5.991600 0.000000
-5.978300 0.000000
-5.965100 0.000000
-5.951800 0.000000
-5.938600 0.000000
-5.925300 0.000000
-5.912100 0.000000
-5.898800 0.000000
-5.885600 0.000000
-5.872400 0.000000
-5.859100 0.000000
-5.845900 0.000000
-5.832600 0.000000
-5.819400 0.000000
-5.806100 0.000000
-5.792900 0.000000
-5.779600 0.000000
-5.766400 0.000000
-5.753100 0.000000
-5.739900 0.000000
-5.726600 0.000000
-5.713400 0.000000
-5.700100 0.000000
-5.686900 0.000000
-5.673600 0.000000
-5.660400 0.000000
-5.647100 0.000000
-5.633900 0.000000
-5.620600 0.000000
-5.607400 0.000000
-5.594100 0.000000
-5.580900 0.000000
-5.567600 0.000000
-5.554400 0.000000
-5.541100 0.000000
-5.527900 0.000000
-5.514600 0.000000
-5.501400 0.000000
-5.488100 0.000000
-5.474900 0.000000
-5.461600 0.000000
-5.448400 0.000000
-5.435100 0.000000
-5.421900 0.000000
-5.408600 0.000000
-5.395400 0.000000
-5.382100 0.000000
-5.368900 0.000000
-5.355600 0.000000
-5.342400 0.000000
-5.329100 0.000000
-5.315900 0.000000
-5.302600 0.000000
-5.289400 0.000000
-5.276100 0.000000
-5.262900 0.000000
-5.249600 0.000000
-5.236400 0.000000
-5.223100 0.000000
-5.209900 0.000000
-5.196600 0.000000
-5.183400 0.000000
-5.170100 0.000000
-5.156900 0.000000
-5.143600 0.000000
-5.130400 0.000000
-5.117100 0.000000
-5.103900 0.000000
-5.090600 0.000000
-5.077400 0.000000
-5.064100 0.000000
-5.050900 0.000000
-5.037600 0.000000
-5.024400 0.000000
-5.011200 0.000000
-4.997900 0.000000
-4.984700 0.000000
-4.971400 0.000000
-4.958200 0.000000
-4.944900 0.000000
-4.931700 0.000000
-4.918400 0.000000
-4.905200 0.000000
-4.891900 0.000000
-4.878700 0.000000
-4.865400 0.000000
-4.852200 0.000000
-4.838900 0.000000
-4.825700 0.000000
-4.812400 0.000000
-4.799200 0.000000
-4.785900 0.000000
-4.772700 0.000000
-4.759400 0.000000
-4.746200 0.000000
-4.732900 0.000000
-4.719700 0.000000
-4.706400 0.000000
-4.693200 0.000000
-4.679900 0.000000
-4.666700 0.000000
-4.653400 0.000000
-4.640200 0.000000
-4.626900 0.000000
-4.613700 0.000000
-4.600400 0.000000
-4.587200 0.000000
-4.573900 0.000000
-4.560700 0.000000
-4.547400 0.000000
-4.534200 0.000000
-4.520900 0.000000
-4.507700 0.000000
-4.494400 0.000000
-4.481200 0.000000
-4.467900 0.000000
-4.454700 0.000000
-4.441400 0.000000
-4.428200 0.000000
-4.414900 0.000000
-4.401700 0.000000
-4.388400 0.000000
-4.375200 0.000000
-4.361900 0.000000
-4.348700 0.000000
-4.335400 0.000000
-4.322200 0.000000
-4.308900 0.000000
-4.295700 0.000000
-4.282400 0.000000
-4.269200 0.000000
-4.255900 0.000000
-4.242700 0.000000
-4.229400 0.000000
-4.216200 0.000000
-4.202900 0.000000
-4.189700 0.000000
-4.176400 0.000000
-4.163200 0.000000
-4.150000 0.000000
-4.136700 0.000000
-4.123500 0.000000
-4.110200 0.000000
-4.097000 0.000000
-4.083700 0.000000
-4.070500 0.000000
-4.057200 0.000000
-4.044000 0.000000
-4.030700 0.000000
-4.017500 0.000000
-4.004200 0.000000
-3.991000 0.000000
-3.977700 0.000000
-3.964500 0.000000
-3.951200 0.000000
-3.938000 0.000000
-3.924700 0.000000
-3.911500 0.000000
-3.898200 0.000000
-3.885000 0.000000
-3.871700 0.000000
-3.858500 0.000000
-3.845200 0.000000
-3.832000 0.000000
-3.818700 0.000000
-3.805500 0.000000
-3.792200 0.000000
-3.779000 0.000000
-3.765700 0.000000
-3.752500 0.000000
-3.739200 0.000000
-3.726000 0.000000
-3.712700 0.000000
-3.699500 0.000000
-3.686200 0.000000
-3.673000 0.000000
-3.659700 0.000000
-3.646500 0.000000
-3.633200 0.000000
-3.620000 0.000000
-3.606700 0.000000
-3.593500 0.000000
-3.580200 0.000000
-3.567000 0.000000
-3.553700 0.000000
-3.540500 0.000000
-3.527200 0.000000
-3.514000 0.000000
-3.500700 0.000000
-3.487500 0.000000
-3.474200 0.000000
-3.461000 0.000000
-3.447700 0.000000
-3.434500 0.000000
-3.421200 0.000000
-3.408000 0.000000
-3.394700 0.000000
-3.381500 0.000000
-3.368200 0.000000
-3.355000 0.000000
-3.341700 0.000000
-3.328500 0.000000
-3.315200 0.000000
-3.302000 0.000000
-3.288800 0.000000
-3.275500 0.000000
-3.262300 0.000000
-3.249000 0.000000
-3.235800 0.000000
-3.222500 0.000000
-3.209300 0.000000
-3.196000 0.000000
-3.182800 0.000000
-3.169500 0.000000
-3.156300 0.000000
-3.143000 0.000000
-3.129800 0.000000
-3.116500 0.000000
-3.103300 0.000000
-3.090000 0.000000
-3.076800 0.000000
-3.063500 0.000000
-3.050300 0.000000
-3.037000 0.000000
-3.023800 4.666400
-3.010500 4.068600
-2.997300 1.834000
-2.984000 1.977500
-2.970800 2.126000
-2.957500 2.279500
-2.944300 2.438000
-2.931000 2.601500
-2.917800 2.770000
-2.904500 2.943500
-2.891300 3.122000
-2.878000 3.305600
-2.864800 3.494100
-2.851500 3.687600
-2.838300 3.886200
-2.825000 4.089700
-2.811800 4.298300
-2.798500 4.511800
-2.785300 4.730400
-2.772000 4.953900
-2.758800 5.182500
-2.745500 5.416000
-2.732300 5.654600
-2.719000 4.940300
-2.705800 5.872700
-2.692500 8.178100
-2.679300 10.003800
-2.666000 10.446600
-2.652800 10.625100
-2.639500 10.765500
-2.626300 10.867900
-2.613000 10.932300
-2.599800 10.958700
-2.586500 10.947000
-2.573300 10.897400
-2.560000 10.809800
-2.546800 10.684100
-2.533500 10.520400
-2.520300 10.318800
-2.507000 10.079100
-2.493800 9.638100
-2.480500 8.993000
-2.467300 7.576800
-2.454000 5.553000
-2.440800 10.223900
-2.427600 22.363700
-2.414300 41.496000
-2.401100 43.576700
-2.387800 22.962800
-2.374600 9.306700
-2.361300 5.481300
-2.348100 5.480200
-2.334800 6.789700
-2.321600 8.003600
-2.308300 9.828300
-2.295100 12.143400
-2.281800 14.421200
-2.268600 22.686800
-2.255300 28.184700
-2.242100 44.911700
-2.228800 54.952400
-2.215600 23.756900
-2.202300 26.909400
-2.189100 31.542600
-2.175800 64.502800
-2.162600 14.047900
-2.149300 16.712900
-2.136100 18.769200
-2.122800 23.282200
-2.109600 27.949300
-2.096300 26.385000
-2.083100 26.428000
-2.069800 26.815000
-2.056600 27.283600
-2.043300 27.833900
-2.030100 29.094000
-2.016800 50.252400
-2.003600 16.842600
-1.990300 19.706600
-1.977100 19.473600
-1.963800 18.266500
-1.950600 19.098500
-1.937300 21.729400
-1.924100 18.203700
-1.910800 14.792700
-1.897600 11.496400
-1.884300 8.640200
-1.871100 6.487900
-1.857800 5.031800
-1.844600 4.680900
-1.831300 4.330600
-1.818100 3.981000
-1.804800 3.632000
-1.791600 3.283800
-1.778300 2.936200
-1.765100 2.589200
-1.751800 2.260600
-1.738600 1.990900
-1.725300 1.804800
-1.712100 1.710700
-1.698800 1.708700
-1.685600 1.798800
-1.672300 1.981000
-1.659100 2.255300
-1.645800 30.168000
-1.632600 45.249200
-1.619300 14.917200
-1.606100 14.696300
-1.592800 15.638700
-1.579600 16.775700
-1.566300 18.072300
-1.553100 19.548700
-1.539900 18.371700
-1.526600 16.845900
-1.513400 16.113500
-1.500100 17.603100
-1.486900 19.143400
-1.473600 22.085700
-1.460400 22.425200
-1.447100 21.746600
-1.433900 20.601900
-1.420600 18.991200
-1.407400 16.914400
-1.394100 14.371600
-1.380900 12.331600
-1.367600 11.398400
-1.354400 11.183900
-1.341100 11.786200
-1.327900 12.727900
-1.314600 14.014800
-1.301400 15.408200
-1.288100 16.030100
-1.274900 16.862000
-1.261600 17.903700
-1.248400 19.155400
-1.235100 20.588000
-1.221900 22.623900
-1.208600 24.521300
-1.195400 23.180100
-1.182100 20.985200
-1.168900 15.362200
-1.155600 11.302300
-1.142400 34.481300
-1.129100 29.118400
-1.115900 32.663700
-1.102600 28.473700
-1.089400 27.101900
-1.076100 22.676400
-1.062900 17.993500
-1.049600 15.004400
-1.036400 12.529700
-1.023100 13.085000
-1.009900 14.810700
-0.996600 18.316000
-0.983400 21.814100
-0.970100 23.662000
-0.956900 23.862800
-0.943600 22.942900
-0.930400 34.936700
-0.917100 39.673300
-0.903900 35.063400
-0.890600 13.443100
-0.877400 1.012600
-0.864100 1.152200
-0.850900 1.300700
-0.837600 1.911300
-0.824400 2.759700
-0.811100 3.533900
-0.797900 4.233700
-0.784600 4.859200
-0.771400 5.410400
-0.758100 6.305800
-0.744900 7.245200
-0.731600 7.891700
-0.718400 8.245200
-0.705100 8.305800
-0.691900 8.073500
-0.678700 12.112400
-0.665400 10.657400
-0.652200 9.289400
-0.638900 8.008300
-0.625700 6.814000
-0.612400 5.706700
-0.599200 4.686200
-0.585900 3.752600
-0.572700 2.905900
-0.559400 2.146100
-0.546200 1.473200
-0.532900 0.887200
-0.519700 0.388100
-0.506400 0.000000
-0.493200 0.000000
-0.479900 0.000000
-0.466700 0.000000
-0.453400 0.000000
-0.440200 0.000000
-0.426900 0.000000
-0.413700 0.000000
-0.400400 0.000000
-0.387200 0.000000
-0.373900 0.000000
-0.360700 0.000000
-0.347400 0.000000
-0.334200 0.000000
-0.320900 0.000000
-0.307700 0.000000
-0.294400 0.000000
-0.281200 0.000000
-0.267900 0.000000
-0.254700 0.000000
-0.241400 0.000000
-0.228200 0.000000
-0.214900 0.000000
-0.201700 0.000000
-0.188400 0.000000
-0.175200 0.000000
-0.161900 0.000000
-0.148700 0.000000
-0.135400 0.000000
-0.122200 0.000000
-0.108900 0.000000
-0.095700 0.000000
-0.082400 0.000000
-0.069200 0.000000
-0.055900 0.000000
-0.042700 0.000000
-0.029400 0.000000
-0.016200 0.000000
-0.002900 0.000000
0.010300 0.000000
0.023600 0.000000
0.036800 0.000000
0.050100 0.000000
0.063300 0.000000
0.076600 0.000000
0.089800 0.000000
0.103100 0.000000
0.116300 0.000000
0.129600 0.000000
0.142800 0.000000
0.156100 0.000000
0.169300 0.000000
0.182500 0.000000
0.195800 0.000000
0.209000 0.000000
0.222300 0.000000
0.235500 0.000000
0.248800 0.000000
0.262000 0.000000
0.275300 0.000000
0.288500 0.000000
0.301800 0.000000
0.315000 0.000000
0.328300 0.000000
0.341500 0.000000
0.354800 0.000000
0.368000 0.000000
0.381300 0.000000
0.394500 0.000000
0.407800 0.000000
0.421000 0.000000
0.434300 0.000000
0.447500 0.000000
0.460800 0.000000
0.474000 0.000000
0.487300 0.000000
0.500500 0.000000
0.513800 0.000000
0.527000 0.000000
0.540300 0.000000
0.553500 0.000000
0.566800 0.000000
0.580000 0.000000
0.593300 0.000000
0.606500 0.000000
0.619800 0.000000
0.633000 0.000000
0.646300 0.000000
0.659500 0.000000
0.672800 0.000000
0.686000 0.000000
0.699300 0.000000
0.712500 0.000000
0.725800 0.000000
0.739000 0.000000
0.752300 0.000000
0.765500 0.000000
0.778800 1.326400
0.792000 5.128800
0.805300 7.476100
0.818500 8.368300
0.831800 7.805400
0.845000 17.803100
0.858300 11.542500
0.871500 12.035800
0.884800 12.538700
0.898000 13.051400
0.911300 13.573700
0.924500 14.105700
0.937800 14.647400
0.951000 15.198800
0.964300 15.759900
0.977500 16.330600
0.990800 16.911100
1.004000 13.378900
1.017300 14.878500
1.030500 17.735500
1.043700 19.654800
1.057000 20.886900
1.070200 21.198700
1.083500 52.696900
1.096700 33.078600
1.110000 31.326500
1.123200 32.170100
1.136500 32.610800
1.149700 32.648400
1.163000 31.154300
1.176200 27.691400
1.189500 25.752600
1.202700 23.279200
1.216000 21.046700
1.229200 19.020800
1.242500 17.201600
1.255700 15.589100
1.269000 14.183300
1.282200 13.116700
1.295500 12.303300
1.308700 11.753900
1.322000 11.255900
1.335200 10.733400
1.348500 10.209200
1.361700 9.805800
1.375000 9.388900
1.388200 8.958500
1.401500 8.338300
1.414700 7.419500
1.428000 6.883700
1.441200 6.860200
1.454500 8.124100
1.467700 10.064600
1.481000 12.676100
1.494200 15.538200
1.507500 18.224100
1.520700 20.639700
1.534000 21.966200
1.547200 31.290200
1.560500 20.409000
1.573700 19.358600
1.587000 15.002400
1.600200 12.603400
1.613500 13.606700
1.626700 16.423100
1.640000 18.398000
1.653200 20.072200
1.666500 22.177400
1.679700 41.158200
1.693000 28.126200
1.706200 25.297100
1.719500 32.299600
1.732700 27.917100
1.746000 35.752200
1.759200 31.502600
1.772500 33.762400
1.785700 34.125800
1.799000 37.676800
1.812200 37.829700
1.825500 38.838500
1.838700 35.637500
1.852000 33.460700
1.865200 33.387700
1.878500 33.251500
1.891700 34.581200
1.904900 43.333500
1.918200 38.898000
1.931400 41.714300
1.944700 40.940500
1.957900 34.201400
1.971200 32.999600
1.984400 32.678300
1.997700 30.800300
2.010900 29.547400
2.024200 27.465800
2.037400 23.235300
2.050700 18.902700
2.063900 16.011500
2.077200 17.350300
2.090400 19.489700
2.103700 22.069700
2.116900 24.891000
2.130200 28.600600
2.143400 30.334500
2.156700 28.102600
2.169900 29.787800
2.183200 32.541400
2.196400 35.763200
2.209700 37.475500
2.222900 37.678100
2.236200 36.371200
2.249400 34.676400
2.262700 38.267700
2.275900 37.773900
2.289200 30.335500
2.302400 20.803800
2.315700 17.596900
2.328900 14.729400
2.342200 11.357200
2.355400 11.144700
2.368700 8.417900
2.381900 1.979100
2.395200 0.000000
2.408400 15.183000
2.421700 14.017100
2.434900 16.884300
2.448200 20.669300
2.461400 23.428300
2.474700 25.562600
2.487900 26.845200
2.501200 27.232800
2.514400 27.666100
2.527700 27.807700
2.540900 28.273600
2.554200 32.071600
2.567400 38.047100
2.580700 41.727800
2.593900 38.772500
2.607200 22.380300
2.620400 29.161300
2.633700 39.189000
2.646900 44.180600
2.660200 13.533000
2.673400 14.361000
2.686700 15.194400
2.699900 15.924200
2.713200 16.564400
2.726400 17.509900
2.739700 18.509800
2.752900 19.380400
2.766100 17.023200
2.779400 12.427900
2.792600 13.103900
2.805900 14.085200
2.819100 15.018700
2.832400 17.183300
2.845600 21.177600
2.858900 24.061100
2.872100 25.833900
2.885400 19.341700
2.898600 11.291500
2.911900 37.712200
2.925100 7.698600
2.938400 7.972100
2.951600 8.245600
2.964900 8.519000
2.978100 8.792400
2.991400 9.065600
3.004600 9.338800
3.017900 9.611900
3.031100 12.124700
3.044400 16.381400
3.057600 19.300600
3.070900 20.882200
3.084100 17.647800
3.097400 10.282300
3.110600 20.844800
3.123900 61.887700
3.137100 28.087900
3.150400 9.694900
3.163600 3.840700
3.176900 3.212500
3.190100 2.856700
3.203400 2.547100
3.216600 2.250900
3.229900 1.968100
3.243100 1.698700
3.256400 1.442700
3.269600 1.200000
3.282900 0.970800
3.296100 0.754900
3.309400 4.350400
3.322600 7.610200
3.335900 9.198800
3.349100 9.777600
3.362400 10.680000
3.375600 11.207900
3.388900 11.335700
3.402100 11.063400
3.415400 10.391100
3.428600 9.519800
3.441900 8.622000
3.455100 7.518300
3.468400 6.626600
3.481600 5.954000
3.494900 5.270000
3.508100 4.574800
3.521400 3.868400
3.534600 3.150600
3.547900 2.601800
3.561100 2.175500
3.574400 1.787400
3.587600 1.437300
3.600900 1.125400
3.614100 0.851600
3.627400 0.615800
3.640600 0.418200
3.653800 0.258800
3.667100 0.137400
3.680300 0.054100
3.693600 0.008900
3.706800 0.000000
3.720100 0.000000
3.733300 0.000000
3.746600 0.000000
3.759800 0.000000
3.773100 0.000000
3.786300 0.000000
3.799600 0.000000
3.812800 0.000000
3.826100 0.000000
3.839300 0.000000
3.852600 0.000000
3.865800 0.000000
3.879100 0.000000
3.892300 0.000000
