set title 'mp-632413 - Density of States'
set xlabel 'Energy (eV)'
set ylabel 'DOS (states/eV)'
set grid
set xrange [-10:10]
set yrange [0:7.508]
set xzeroaxis lt -1
set terminal png size 800,600
set output 'mp-632413_dos_gnuplot.png'
plot '-' using 1:2 with lines title 'DOS'
-16.350200 0.000000
-16.320900 0.000000
-16.291600 0.000000
-16.262300 0.000000
-16.233000 0.000000
-16.203700 0.000000
-16.174300 0.000000
-16.145000 0.000000
-16.115700 0.000000
-16.086400 0.000000
-16.057100 0.000000
-16.027800 0.000000
-15.998500 0.000000
-15.969100 0.000000
-15.939800 0.000000
-15.910500 0.000000
-15.881200 0.000000
-15.851900 0.000000
-15.822600 0.000000
-15.793200 0.000000
-15.763900 0.000000
-15.734600 0.000000
-15.705300 0.000000
-15.676000 0.000000
-15.646700 0.000000
-15.617400 0.000000
-15.588000 0.000000
-15.558700 0.000000
-15.529400 0.000000
-15.500100 0.000000
-15.470800 0.000000
-15.441500 0.000000
-15.412100 0.000000
-15.382800 0.000000
-15.353500 0.000000
-15.324200 0.000000
-15.294900 0.000000
-15.265600 0.000000
-15.236300 0.000000
-15.206900 0.000000
-15.177600 0.000000
-15.148300 0.000000
-15.119000 0.000000
-15.089700 0.000000
-15.060400 0.000000
-15.031100 0.000000
-15.001700 0.000000
-14.972400 0.000000
-14.943100 0.000000
-14.913800 0.000000
-14.884500 0.000000
-14.855200 0.000000
-14.825800 0.000000
-14.796500 0.000000
-14.767200 0.000000
-14.737900 0.000000
-14.708600 0.000000
-14.679300 0.000000
-14.650000 0.000000
-14.620600 0.000000
-14.591300 0.000000
-14.562000 0.000000
-14.532700 0.000000
-14.503400 0.000000
-14.474100 0.000000
-14.444700 0.000000
-14.415400 0.000000
-14.386100 0.000000
-14.356800 0.000000
-14.327500 0.000000
-14.298200 0.000000
-14.268900 0.000000
-14.239500 0.000000
-14.210200 0.000000
-14.180900 0.000000
-14.151600 0.000000
-14.122300 0.000000
-14.093000 0.000000
-14.063600 0.000000
-14.034300 0.000000
-14.005000 0.000000
-13.975700 0.000000
-13.946400 0.000000
-13.917100 0.000000
-13.887800 0.000000
-13.858400 0.000000
-13.829100 0.000000
-13.799800 0.000000
-13.770500 0.000000
-13.741200 0.000000
-13.711900 0.000000
-13.682500 0.001400
-13.653200 0.165100
-13.623900 0.223000
-13.594600 0.305300
-13.565300 0.377500
-13.536000 0.451500
-13.506700 0.568700
-13.477300 0.619100
-13.448000 0.649300
-13.418700 0.662500
-13.389400 0.669800
-13.360100 0.691800
-13.330800 0.711600
-13.301400 0.729000
-13.272100 0.748700
-13.242800 0.772600
-13.213500 0.797700
-13.184200 0.824700
-13.154900 0.852900
-13.125600 0.887500
-13.096200 0.926700
-13.066900 0.969500
-13.037600 1.014800
-13.008300 1.071400
-12.979000 1.131200
-12.949700 1.223600
-12.920300 1.326000
-12.891000 1.460300
-12.861700 1.679500
-12.832400 2.239000
-12.803100 2.145400
-12.773800 2.028000
-12.744500 2.066500
-12.715100 2.257400
-12.685800 2.598600
-12.656500 2.442800
-12.627200 4.275100
-12.597900 8.402500
-12.568600 9.187400
-12.539200 5.901900
-12.509900 2.761800
-12.480600 1.071600
-12.451300 0.000000
-12.422000 0.000000
-12.392700 0.000000
-12.363400 0.000000
-12.334000 0.000000
-12.304700 0.000000
-12.275400 0.000000
-12.246100 0.000000
-12.216800 0.000000
-12.187500 0.000000
-12.158200 0.000000
-12.128800 0.000000
-12.099500 0.000000
-12.070200 0.000000
-12.040900 0.000000
-12.011600 0.000000
-11.982300 0.000000
-11.952900 0.000000
-11.923600 0.000000
-11.894300 0.000000
-11.865000 0.000000
-11.835700 0.000000
-11.806400 0.000000
-11.777100 0.000000
-11.747700 0.000000
-11.718400 0.000000
-11.689100 0.000000
-11.659800 0.000000
-11.630500 0.000000
-11.601200 0.000000
-11.571800 0.000000
-11.542500 0.000000
-11.513200 0.000000
-11.483900 0.000000
-11.454600 0.000000
-11.425300 0.000000
-11.396000 0.000000
-11.366600 0.000000
-11.337300 0.000000
-11.308000 0.000000
-11.278700 0.000000
-11.249400 0.000000
-11.220100 0.000000
-11.190700 0.000000
-11.161400 0.000000
-11.132100 0.000000
-11.102800 0.000000
-11.073500 0.000000
-11.044200 0.000000
-11.014900 0.000000
-10.985500 0.000000
-10.956200 0.000000
-10.926900 0.000000
-10.897600 0.000000
-10.868300 0.000000
-10.839000 0.000000
-10.809600 0.000000
-10.780300 0.000000
-10.751000 0.000000
-10.721700 0.000000
-10.692400 0.000000
-10.663100 0.000000
-10.633800 0.000000
-10.604400 0.000000
-10.575100 0.000000
-10.545800 0.000000
-10.516500 0.000000
-10.487200 0.000000
-10.457900 0.000000
-10.428500 0.000000
-10.399200 0.000000
-10.369900 0.000000
-10.340600 0.000000
-10.311300 0.000000
-10.282000 0.000000
-10.252700 0.000000
-10.223300 0.000000
-10.194000 0.000000
-10.164700 0.000000
-10.135400 0.000000
-10.106100 0.000000
-10.076800 0.000000
-10.047400 0.000000
-10.018100 0.000000
-9.988800 0.000000
-9.959500 0.000000
-9.930200 0.000000
-9.900900 0.000000
-9.871600 0.000000
-9.842200 0.000000
-9.812900 0.000000
-9.783600 0.000000
-9.754300 0.000000
-9.725000 0.000000
-9.695700 0.000000
-9.666300 0.000000
-9.637000 0.000000
-9.607700 0.000000
-9.578400 0.000000
-9.549100 0.000000
-9.519800 0.000000
-9.490500 0.000000
-9.461100 0.000000
-9.431800 0.000000
-9.402500 0.000000
-9.373200 0.000000
-9.343900 0.000000
-9.314600 0.000000
-9.285200 0.000000
-9.255900 0.000000
-9.226600 0.000000
-9.197300 0.000000
-9.168000 0.000000
-9.138700 0.000000
-9.109400 0.000000
-9.080000 0.000000
-9.050700 0.000000
-9.021400 0.000000
-8.992100 0.000000
-8.962800 0.000000
-8.933500 0.000000
-8.904200 0.000000
-8.874800 0.000000
-8.845500 0.000000
-8.816200 0.000000
-8.786900 0.000000
-8.757600 0.000000
-8.728300 0.000000
-8.698900 0.000000
-8.669600 0.000000
-8.640300 0.000000
-8.611000 0.000000
-8.581700 0.000000
-8.552400 0.000000
-8.523100 0.000000
-8.493700 0.000000
-8.464400 0.000000
-8.435100 0.000000
-8.405800 0.000000
-8.376500 0.000000
-8.347200 0.000000
-8.317800 0.000000
-8.288500 0.000000
-8.259200 0.000000
-8.229900 0.000000
-8.200600 0.000000
-8.171300 0.000000
-8.142000 0.000000
-8.112600 0.000000
-8.083300 0.000000
-8.054000 0.000000
-8.024700 0.000000
-7.995400 0.000000
-7.966100 0.000000
-7.936700 0.000000
-7.907400 0.000000
-7.878100 0.000000
-7.848800 0.000000
-7.819500 0.000000
-7.790200 0.000000
-7.760900 0.000000
-7.731500 0.000000
-7.702200 0.000000
-7.672900 0.000000
-7.643600 0.000000
-7.614300 0.000000
-7.585000 0.000000
-7.555600 0.000000
-7.526300 0.000000
-7.497000 0.000000
-7.467700 0.000000
-7.438400 0.000000
-7.409100 0.000000
-7.379800 0.000000
-7.350400 0.000000
-7.321100 0.000000
-7.291800 0.000000
-7.262500 0.000000
-7.233200 0.000000
-7.203900 0.000000
-7.174500 0.000000
-7.145200 0.000000
-7.115900 0.000000
-7.086600 0.000000
-7.057300 0.000000
-7.028000 0.000000
-6.998700 0.000000
-6.969300 0.000000
-6.940000 0.000000
-6.910700 0.000000
-6.881400 0.000000
-6.852100 0.000000
-6.822800 0.000000
-6.793400 0.000000
-6.764100 0.000000
-6.734800 0.000000
-6.705500 0.000000
-6.676200 0.000000
-6.646900 0.000000
-6.617600 0.000000
-6.588200 0.000000
-6.558900 0.000000
-6.529600 0.000000
-6.500300 0.000000
-6.471000 0.000000
-6.441700 0.000000
-6.412300 0.000000
-6.383000 0.000000
-6.353700 0.000000
-6.324400 0.000000
-6.295100 0.000000
-6.265800 0.000000
-6.236500 0.000000
-6.207100 0.000000
-6.177800 0.000000
-6.148500 0.000000
-6.119200 0.000000
-6.089900 0.000000
-6.060600 0.000000
-6.031200 0.000000
-6.001900 0.000000
-5.972600 0.000000
-5.943300 0.000000
-5.914000 0.000000
-5.884700 0.000000
-5.855400 0.000000
-5.826000 0.000000
-5.796700 0.000000
-5.767400 0.000000
-5.738100 0.000000
-5.708800 0.000000
-5.679500 0.000000
-5.650200 0.000000
-5.620800 0.000000
-5.591500 0.000000
-5.562200 0.000000
-5.532900 0.000000
-5.503600 0.000000
-5.474300 0.000000
-5.444900 0.000000
-5.415600 0.000000
-5.386300 0.000000
-5.357000 0.000000
-5.327700 0.000000
-5.298400 0.000000
-5.269100 0.000000
-5.239700 0.000000
-5.210400 0.000000
-5.181100 0.000000
-5.151800 0.000000
-5.122500 0.000000
-5.093200 0.000000
-5.063800 0.000000
-5.034500 0.000000
-5.005200 0.000000
-4.975900 0.000000
-4.946600 0.000000
-4.917300 0.000000
-4.888000 0.000000
-4.858600 0.000000
-4.829300 0.000000
-4.800000 0.000000
-4.770700 0.000000
-4.741400 0.000000
-4.712100 0.000000
-4.682700 0.000000
-4.653400 0.000000
-4.624100 0.000000
-4.594800 0.000000
-4.565500 0.000000
-4.536200 0.000000
-4.506900 0.000000
-4.477500 0.000000
-4.448200 0.000000
-4.418900 0.000000
-4.389600 0.000000
-4.360300 0.000000
-4.331000 0.000000
-4.301600 0.000000
-4.272300 0.000000
-4.243000 0.000000
-4.213700 0.000000
-4.184400 0.000000
-4.155100 0.000000
-4.125800 0.000000
-4.096400 0.000000
-4.067100 0.000000
-4.037800 0.000000
-4.008500 0.000000
-3.979200 0.000000
-3.949900 0.000000
-3.920500 0.000000
-3.891200 0.000000
-3.861900 0.000000
-3.832600 0.000000
-3.803300 0.000000
-3.774000 0.000000
-3.744700 0.000000
-3.715300 0.000000
-3.686000 0.000000
-3.656700 0.000000
-3.627400 0.000000
-3.598100 0.021900
-3.568800 0.118000
-3.539400 0.246300
-3.510100 0.283900
-3.480800 0.346900
-3.451500 0.573700
-3.422200 0.830500
-3.392900 0.852000
-3.363600 0.823000
-3.334200 0.837500
-3.304900 0.878300
-3.275600 0.926600
-3.246300 1.004300
-3.217000 1.080000
-3.187700 1.161000
-3.158300 1.278100
-3.129000 1.441200
-3.099700 1.726300
-3.070400 1.582300
-3.041100 1.475000
-3.011800 1.444600
-2.982500 1.474700
-2.953100 1.173800
-2.923800 1.140400
-2.894500 1.264200
-2.865200 1.278700
-2.835900 1.342300
-2.806600 1.364200
-2.777300 1.497000
-2.747900 1.870900
-2.718600 5.449600
-2.689300 3.136700
-2.660000 2.515600
-2.630700 2.178500
-2.601400 2.018400
-2.572000 2.046500
-2.542700 2.049900
-2.513400 2.010200
-2.484100 2.082600
-2.454800 2.139400
-2.425500 2.200100
-2.396200 2.367200
-2.366800 1.979100
-2.337500 1.931500
-2.308200 1.797700
-2.278900 1.537500
-2.249600 1.343100
-2.220300 1.175500
-2.190900 1.238800
-2.161600 1.238900
-2.132300 1.460000
-2.103000 4.107300
-2.073700 4.267400
-2.044400 4.919500
-2.015100 4.120400
-1.985700 5.277500
-1.956400 4.423000
-1.927100 1.997500
-1.897800 1.231000
-1.868500 1.003100
-1.839200 0.950200
-1.809800 1.071500
-1.780500 1.446700
-1.751200 2.531100
-1.721900 2.726000
-1.692600 2.686500
-1.663300 2.678400
-1.634000 2.799500
-1.604600 2.985500
-1.575300 2.735100
-1.546000 2.590800
-1.516700 2.367100
-1.487400 2.303600
-1.458100 1.612800
-1.428700 1.908600
-1.399400 2.414500
-1.370100 2.188400
-1.340800 1.806700
-1.311500 1.637000
-1.282200 1.495100
-1.252900 1.086100
-1.223500 1.059100
-1.194200 1.031800
-1.164900 1.082700
-1.135600 1.201100
-1.106300 1.311100
-1.077000 1.632200
-1.047600 1.614700
-1.018300 1.670100
-0.989000 1.713300
-0.959700 1.744100
-0.930400 1.771500
-0.901100 1.724800
-0.871800 1.965200
-0.842400 1.759800
-0.813100 1.615100
-0.783800 1.573900
-0.754500 1.553400
-0.725200 1.526400
-0.695900 1.516900
-0.666500 1.549000
-0.637200 1.627600
-0.607900 2.488900
-0.578600 2.794300
-0.549300 2.521500
-0.520000 2.667900
-0.490700 3.195200
-0.461300 3.128100
-0.432000 3.039400
-0.402700 2.924400
-0.373400 3.157400
-0.344100 3.494000
-0.314800 3.062000
-0.285400 2.698600
-0.256100 2.409700
-0.226800 2.260200
-0.197500 2.345000
-0.168200 2.381900
-0.138900 1.658200
-0.109600 1.394600
-0.080200 1.978700
-0.050900 1.671000
-0.021600 1.413300
0.007700 1.025100
0.037000 0.825300
0.066300 1.260600
0.095700 2.889500
0.125000 6.825600
0.154300 6.538400
0.183600 5.156000
0.212900 4.386800
0.242200 3.942400
0.271500 4.075400
0.300900 3.677300
0.330200 4.253000
0.359500 4.942300
0.388800 4.455800
0.418100 4.317300
0.447400 3.309800
0.476700 2.829400
0.506100 2.348200
0.535400 1.445800
0.564700 0.927900
0.594000 0.715700
0.623300 0.447200
0.652600 0.311300
0.682000 0.249900
0.711300 0.198800
0.740600 0.165100
0.769900 0.122100
0.799200 0.000400
0.828500 0.000000
0.857800 0.000000
0.887200 0.000000
0.916500 0.000000
0.945800 0.000000
0.975100 0.000000
1.004400 0.000000
1.033700 0.000000
1.063100 0.000000
1.092400 0.000000
1.121700 0.000000
1.151000 0.013700
1.180300 0.072300
1.209600 0.177800
1.238900 0.381800
1.268300 0.999000
1.297600 1.422700
1.326900 1.753000
1.356200 1.937500
1.385500 1.946900
1.414800 2.006600
1.444200 2.083200
1.473500 2.208500
1.502800 2.341700
1.532100 2.575100
1.561400 2.718700
1.590700 2.780800
1.620000 3.009900
1.649400 3.272800
1.678700 4.446300
1.708000 5.249300
1.737300 5.249700
1.766600 5.523100
1.795900 5.564600
1.825300 3.609600
1.854600 2.338700
1.883900 1.591100
1.913200 1.023500
1.942500 0.768800
1.971800 0.604600
2.001100 0.327500
2.030500 0.157500
2.059800 0.025200
2.089100 0.000000
2.118400 0.000000
2.147700 0.000000
2.177000 0.000000
2.206400 0.000000
2.235700 0.000000
2.265000 0.000000
2.294300 0.000000
2.323600 0.000000
2.352900 0.000000
2.382200 0.000000
2.411600 0.000000
2.440900 0.000000
2.470200 0.000000
2.499500 0.000000
2.528800 0.000000
2.558100 0.000000
2.587500 0.000000
2.616800 0.000000
2.646100 0.000000
2.675400 0.000000
2.704700 0.000000
2.734000 0.000000
2.763300 0.000000
2.792700 0.000000
2.822000 0.000000
2.851300 0.000000
2.880600 0.000000
2.909900 0.000000
2.939200 0.000000
2.968600 0.000000
2.997900 0.000000
3.027200 0.000000
3.056500 0.000000
3.085800 0.000000
3.115100 0.000000
3.144400 0.000000
3.173800 0.000000
3.203100 0.000000
3.232400 0.000000
3.261700 0.000000
3.291000 0.000000
3.320300 0.000000
3.349600 0.000000
3.379000 0.000000
3.408300 0.000000
3.437600 0.000000
3.466900 0.000000
3.496200 0.000000
3.525500 0.000000
3.554900 0.000000
3.584200 0.000000
3.613500 0.000000
3.642800 0.000000
3.672100 0.000000
3.701400 0.000000
3.730700 0.000000
3.760100 0.000000
3.789400 0.000000
3.818700 0.000000
3.848000 0.000000
3.877300 0.000000
3.906600 0.000000
3.936000 0.000000
3.965300 0.000000
3.994600 0.000000
4.023900 0.000000
4.053200 0.000000
4.082500 0.000000
4.111800 0.000000
4.141200 0.000000
4.170500 0.000000
4.199800 0.000000
4.229100 0.000000
4.258400 0.000000
4.287700 0.000000
4.317100 0.000000
4.346400 0.000000
4.375700 0.000000
4.405000 0.000000
4.434300 0.000000
4.463600 0.000000
4.492900 0.000000
4.522300 0.000000
4.551600 0.000000
4.580900 0.000000
4.610200 0.000000
4.639500 0.000000
4.668800 0.000000
4.698200 0.000000
4.727500 0.000000
4.756800 0.000000
4.786100 0.000000
4.815400 0.000000
4.844700 0.000000
4.874000 0.000000
4.903400 0.000000
4.932700 0.000000
4.962000 0.000000
4.991300 0.000000
5.020600 0.000000
5.049900 0.000000
5.079300 0.000000
5.108600 0.000000
5.137900 0.000000
5.167200 0.000000
5.196500 0.000000
5.225800 0.000000
5.255100 0.000000
5.284500 0.000000
5.313800 0.000000
5.343100 0.000000
5.372400 0.000000
5.401700 0.000000
5.431000 0.000000
5.460400 0.000000
5.489700 0.000000
5.519000 0.000000
5.548300 0.000000
5.577600 0.000000
5.606900 0.000000
5.636200 0.000000
5.665600 0.000000
5.694900 0.000000
5.724200 0.000000
5.753500 0.000000
5.782800 0.000000
5.812100 0.000000
5.841500 0.000000
5.870800 0.000000
5.900100 0.000000
5.929400 0.000000
5.958700 0.000000
5.988000 0.000000
6.017300 0.000000
6.046700 0.000000
6.076000 0.000000
6.105300 0.000000
6.134600 0.000000
6.163900 0.000000
6.193200 0.000000
6.222600 0.000000
6.251900 0.000000
6.281200 0.000500
6.310500 0.001900
6.339800 0.004300
6.369100 0.007600
6.398400 0.011800
6.427800 0.016400
6.457100 0.021600
6.486400 0.025500
6.515700 0.027200
6.545000 0.028400
6.574300 0.029200
6.603600 0.030200
6.633000 0.032700
6.662300 0.035200
6.691600 0.037800
6.720900 0.040500
6.750200 0.043100
6.779500 0.045700
6.808900 0.048300
6.838200 0.050900
6.867500 0.053400
6.896800 0.055800
6.926100 0.058600
6.955400 0.061800
6.984700 0.068000
7.014100 0.104700
7.043400 0.154400
7.072700 0.196200
7.102000 0.240300
7.131300 0.255900
7.160600 0.252300
7.190000 0.261000
7.219300 0.265800
7.248600 0.269100
7.277900 0.279100
7.307200 0.310400
7.336500 0.393400
7.365800 0.449000
7.395200 0.501200
7.424500 0.553200
7.453800 0.584200
7.483100 0.621000
7.512400 0.663700
7.541700 0.710900
7.571100 0.772900
7.600400 0.843700
7.629700 0.913400
7.659000 0.974000
7.688300 1.017900
7.717600 1.052200
7.746900 1.091400
7.776300 1.130900
7.805600 1.168300
7.834900 1.212700
7.864200 1.262000
7.893500 1.334300
7.922800 1.446000
7.952200 1.576000
7.981500 1.743400
8.010800 1.626900
8.040100 1.530600
8.069400 1.233200
8.098700 0.935500
8.128000 0.752000
8.157400 0.638600
8.186700 0.604100
8.216000 0.579100
8.245300 0.560300
8.274600 0.559800
8.303900 0.490000
8.333300 0.380800
8.362600 0.255200
8.391900 0.222400
8.421200 0.207400
8.450500 0.241600
8.479800 0.312600
8.509100 0.291800
8.538500 0.357100
8.567800 0.411800
8.597100 0.441900
8.626400 0.442100
8.655700 0.461100
8.685000 0.493400
8.714400 0.545300
8.743700 0.595300
8.773000 0.646300
8.802300 0.686300
8.831600 0.714100
8.860900 0.734100
8.890200 0.758500
8.919600 0.742400
8.948900 0.729100
8.978200 0.715000
9.007500 0.710200
9.036800 0.703600
9.066100 0.697400
9.095500 0.692500
9.124800 0.689700
9.154100 0.693300
9.183400 0.710800
9.212700 0.720500
9.242000 0.726500
9.271300 0.726200
9.300700 0.723100
9.330000 0.707400
9.359300 0.665000
9.388600 0.631100
9.417900 0.603600
9.447200 0.554800
9.476500 0.523600
9.505900 0.497300
9.535200 0.480300
9.564500 0.467400
9.593800 0.454700
9.623100 0.446200
9.652400 0.430000
9.681800 0.428100
9.711100 0.435700
9.740400 0.436500
9.769700 0.453500
9.799000 0.461700
9.828300 0.474000
9.857600 0.485900
9.887000 0.518000
9.916300 0.546700
9.945600 0.548900
9.974900 0.551100
10.004200 0.571000
10.033500 0.586200
10.062900 0.602100
10.092200 0.611900
10.121500 0.625800
10.150800 0.638600
10.180100 0.651600
10.209400 0.673300
10.238700 0.694900
10.268100 0.747500
10.297400 0.840100
10.326700 0.924000
10.356000 1.091100
10.385300 1.229200
10.414600 1.338200
10.444000 1.400000
10.473300 1.405000
10.502600 1.423700
10.531900 1.403000
10.561200 1.357000
10.590500 1.321600
10.619800 1.250400
10.649200 1.191800
10.678500 1.168600
10.707800 1.175900
10.737100 1.164800
10.766400 1.091800
10.795700 1.068500
10.825100 1.074500
10.854400 1.106600
10.883700 1.100200
10.913000 1.085800
10.942300 1.017000
10.971600 1.097800
11.000900 1.107200
11.030300 1.116200
11.059600 1.101900
11.088900 1.049600
11.118200 1.116500
11.147500 1.332700
11.176800 1.457100
11.206200 1.529700
11.235500 1.636500
11.264800 1.886700
11.294100 2.101000
11.323400 2.102600
11.352700 1.990700
11.382000 1.857800
11.411400 1.894000
11.440700 1.951900
11.470000 1.898600
11.499300 1.852800
11.528600 1.764600
11.557900 1.622400
11.587300 1.652000
11.616600 1.666600
11.645900 1.705100
11.675200 1.705900
11.704500 1.651400
11.733800 1.668800
11.763100 1.719100
11.792500 1.927300
11.821800 2.055700
11.851100 2.053000
11.880400 1.894600
11.909700 1.783300
11.939000 1.748100
11.968400 1.732100
11.997700 1.705500
12.027000 1.695800
12.056300 1.598900
12.085600 1.528500
12.114900 1.489700
12.144200 1.416000
12.173600 1.363200
12.202900 1.275300
12.232200 1.145900
12.261500 1.133100
12.290800 1.151700
12.320100 1.125900
12.349500 1.134600
12.378800 1.112500
12.408100 1.100800
12.437400 1.131300
12.466700 1.160900
12.496000 1.217300
12.525300 1.245500
12.554700 1.274700
12.584000 1.320000
12.613300 1.377400
12.642600 1.432500
12.671900 1.491700
12.701200 1.451000
12.730500 1.294200
12.759900 1.190100
12.789200 1.157700
12.818500 1.137200
12.847800 1.091400
12.877100 1.047200
12.906400 0.981100
12.935800 0.945100
12.965100 0.967100
12.994400 1.027900
13.023700 1.027400
13.053000 1.077700
13.082300 1.127300
13.111600 1.199800
13.141000 1.320500
13.170300 1.394000
13.199600 1.376600
13.228900 1.440600
13.258200 1.455500
13.287500 1.418100
13.316900 1.531300
13.346200 1.367100
13.375500 1.378400
13.404800 1.358400
13.434100 1.253100
13.463400 1.181300
13.492700 1.139900
13.522100 1.091300
13.551400 1.063300
13.580700 1.023100
13.610000 0.963500
13.639300 0.939700
13.668600 0.905000
13.698000 0.866100
13.727300 0.839800
13.756600 0.826100
13.785900 0.833100
13.815200 0.833900
13.844500 0.873900
13.873800 0.913400
13.903200 0.925700
13.932500 1.070700
13.961800 1.021800
13.991100 0.938100
14.020400 0.889700
14.049700 0.871300
14.079100 0.857600
14.108400 0.831300
14.137700 0.791700
14.167000 0.772300
14.196300 0.754100
14.225600 0.728100
