set title 'mp-7526 - Density of States'
set xlabel 'Energy (eV)'
set ylabel 'DOS (states/eV)'
set grid
set xrange [-10:10]
set yrange [0:1.546]
set xzeroaxis lt -1
set terminal png size 800,600
set output 'mp-7526_dos_gnuplot.png'
plot '-' using 1:2 with lines title 'DOS'
-16.188600 0.000000
-16.167300 0.000000
-16.146000 0.000000
-16.124700 0.000000
-16.103400 0.000000
-16.082100 0.000000
-16.060800 0.000000
-16.039500 0.000000
-16.018200 0.000000
-15.996900 0.000000
-15.975600 0.000000
-15.954300 0.000000
-15.933000 0.000000
-15.911700 0.000000
-15.890400 0.000000
-15.869100 0.000000
-15.847800 0.000000
-15.826500 0.000000
-15.805200 0.000000
-15.783900 0.000000
-15.762600 0.000000
-15.741300 0.000000
-15.720000 0.000000
-15.698700 0.000000
-15.677400 0.000000
-15.656100 0.000000
-15.634800 0.000000
-15.613500 0.000000
-15.592200 0.000000
-15.570900 0.000000
-15.549600 0.000000
-15.528300 0.000000
-15.507000 0.000000
-15.485700 0.000000
-15.464400 0.000000
-15.443100 0.000000
-15.421800 0.000000
-15.400500 0.000000
-15.379200 0.000000
-15.357900 0.000000
-15.336600 0.000000
-15.315300 0.000000
-15.294000 0.000000
-15.272700 0.000000
-15.251400 0.000000
-15.230100 0.000000
-15.208800 0.000000
-15.187500 0.000000
-15.166200 0.000000
-15.144900 0.000000
-15.123600 0.000000
-15.102300 0.000000
-15.081000 0.000000
-15.059700 0.000000
-15.038400 0.000000
-15.017100 0.000000
-14.995800 0.000000
-14.974500 0.000000
-14.953200 0.000000
-14.931900 0.000000
-14.910600 0.000000
-14.889300 0.000000
-14.868000 0.000000
-14.846700 0.000000
-14.825400 0.000000
-14.804100 0.000000
-14.782800 0.000000
-14.761500 0.000000
-14.740200 0.000000
-14.718900 0.000000
-14.697600 0.000000
-14.676300 0.000000
-14.655000 0.000000
-14.633700 0.000000
-14.612400 0.000000
-14.591100 0.000000
-14.569800 0.000000
-14.548500 0.000000
-14.527200 0.000000
-14.505900 0.000000
-14.484600 0.000000
-14.463300 0.000000
-14.442000 0.000000
-14.420700 0.000000
-14.399400 0.000000
-14.378100 0.000000
-14.356800 0.000000
-14.335500 0.000000
-14.314200 0.000000
-14.292900 0.000000
-14.271600 0.000000
-14.250300 7.222700
-14.229000 70.970200
-14.207700 107.253500
-14.186400 140.772300
-14.165100 190.840000
-14.143800 0.000000
-14.122500 0.000000
-14.101200 0.000000
-14.079900 0.000000
-14.058600 0.000000
-14.037300 0.000000
-14.016000 0.000000
-13.994700 0.000000
-13.973400 0.000000
-13.952100 0.000000
-13.930800 0.000000
-13.909500 0.000000
-13.888200 0.000000
-13.866900 0.000000
-13.845600 0.000000
-13.824300 0.000000
-13.803000 0.000000
-13.781700 0.000000
-13.760400 0.000000
-13.739100 0.000000
-13.717800 0.000000
-13.696500 0.000000
-13.675200 0.000000
-13.653900 0.000000
-13.632600 0.000000
-13.611300 0.000000
-13.590000 0.000000
-13.568700 0.000000
-13.547400 0.000000
-13.526100 0.000000
-13.504800 0.000000
-13.483500 0.000000
-13.462200 0.000000
-13.440900 0.000000
-13.419600 0.000000
-13.398300 0.000000
-13.377000 0.000000
-13.355700 0.000000
-13.334400 0.000000
-13.313100 0.000000
-13.291800 0.000000
-13.270500 0.000000
-13.249200 0.000000
-13.227900 0.000000
-13.206600 0.000000
-13.185300 0.000000
-13.164100 0.000000
-13.142800 0.000000
-13.121500 0.000000
-13.100200 0.000000
-13.078900 0.000000
-13.057600 0.000000
-13.036300 0.000000
-13.015000 0.000000
-12.993700 0.000000
-12.972400 0.000000
-12.951100 0.000000
-12.929800 0.000000
-12.908500 0.000000
-12.887200 0.000000
-12.865900 0.000000
-12.844600 0.000000
-12.823300 0.000000
-12.802000 0.000000
-12.780700 0.000000
-12.759400 0.000000
-12.738100 0.000000
-12.716800 0.000000
-12.695500 0.000000
-12.674200 0.000000
-12.652900 0.000000
-12.631600 0.000000
-12.610300 0.000000
-12.589000 0.000000
-12.567700 0.000000
-12.546400 0.000000
-12.525100 0.000000
-12.503800 0.000000
-12.482500 0.000000
-12.461200 0.000000
-12.439900 0.000000
-12.418600 0.000000
-12.397300 0.000000
-12.376000 0.000000
-12.354700 0.000000
-12.333400 0.000000
-12.312100 0.000000
-12.290800 0.000000
-12.269500 0.000000
-12.248200 0.000000
-12.226900 0.000000
-12.205600 0.000000
-12.184300 0.000000
-12.163000 0.000000
-12.141700 0.000000
-12.120400 0.000000
-12.099100 0.000000
-12.077800 0.000000
-12.056500 0.000000
-12.035200 0.000000
-12.013900 0.000000
-11.992600 0.000000
-11.971300 0.000000
-11.950000 0.000000
-11.928700 0.000000
-11.907400 0.000000
-11.886100 0.000000
-11.864800 0.000000
-11.843500 0.000000
-11.822200 0.000000
-11.800900 0.000000
-11.779600 0.000000
-11.758300 0.000000
-11.737000 0.000000
-11.715700 0.000000
-11.694400 0.000000
-11.673100 0.000000
-11.651800 0.000000
-11.630500 0.000000
-11.609200 0.000000
-11.587900 0.000000
-11.566600 0.000000
-11.545300 0.000000
-11.524000 0.000000
-11.502700 0.000000
-11.481400 0.000000
-11.460100 0.000000
-11.438800 0.000000
-11.417500 0.000000
-11.396200 0.000000
-11.374900 0.000000
-11.353600 0.000000
-11.332300 0.000000
-11.311000 0.000000
-11.289700 0.000000
-11.268400 0.000000
-11.247100 0.000000
-11.225800 0.000000
-11.204500 0.000000
-11.183200 0.000000
-11.161900 0.000000
-11.140600 0.000000
-11.119300 0.000000
-11.098000 0.000000
-11.076700 0.000000
-11.055400 0.000000
-11.034100 0.000000
-11.012800 0.000000
-10.991500 0.000000
-10.970200 0.000000
-10.948900 0.000000
-10.927600 0.000000
-10.906300 0.000000
-10.885000 0.000000
-10.863700 0.000000
-10.842400 0.000000
-10.821100 0.000000
-10.799800 0.000000
-10.778500 0.000000
-10.757200 0.000000
-10.735900 0.000000
-10.714600 0.000000
-10.693300 0.000000
-10.672000 0.000000
-10.650700 0.000000
-10.629400 0.000000
-10.608100 0.000000
-10.586800 0.000000
-10.565500 0.000000
-10.544200 0.000000
-10.522900 0.000000
-10.501600 0.000000
-10.480300 0.000000
-10.459000 0.000000
-10.437700 0.000000
-10.416400 0.000000
-10.395100 0.000000
-10.373800 0.000000
-10.352500 0.000000
-10.331200 0.000000
-10.309900 0.000000
-10.288600 0.000000
-10.267300 0.000000
-10.246000 0.000000
-10.224700 0.000000
-10.203400 0.000000
-10.182100 0.000000
-10.160800 0.000000
-10.139600 0.000000
-10.118300 0.000000
-10.097000 0.000000
-10.075700 0.000000
-10.054400 0.000000
-10.033100 0.000000
-10.011800 0.000000
-9.990500 0.000000
-9.969200 0.000000
-9.947900 0.000000
-9.926600 0.000000
-9.905300 0.000000
-9.884000 0.000000
-9.862700 0.000000
-9.841400 0.000000
-9.820100 0.000000
-9.798800 0.000000
-9.777500 0.000000
-9.756200 0.000000
-9.734900 0.000000
-9.713600 0.000000
-9.692300 0.000000
-9.671000 0.000000
-9.649700 0.000000
-9.628400 0.000000
-9.607100 0.000000
-9.585800 0.000000
-9.564500 0.000000
-9.543200 0.000000
-9.521900 0.000000
-9.500600 0.000000
-9.479300 0.000000
-9.458000 0.000000
-9.436700 0.000000
-9.415400 0.000000
-9.394100 0.000000
-9.372800 0.000000
-9.351500 0.000000
-9.330200 0.000000
-9.308900 0.000000
-9.287600 0.000000
-9.266300 0.000000
-9.245000 0.000000
-9.223700 0.000000
-9.202400 0.000000
-9.181100 0.000000
-9.159800 0.000000
-9.138500 0.000000
-9.117200 0.000000
-9.095900 0.000000
-9.074600 0.000000
-9.053300 0.000000
-9.032000 0.000000
-9.010700 0.000000
-8.989400 0.000000
-8.968100 0.000000
-8.946800 0.000000
-8.925500 0.000000
-8.904200 0.000000
-8.882900 0.000000
-8.861600 0.000000
-8.840300 0.000000
-8.819000 0.000000
-8.797700 0.000000
-8.776400 0.000000
-8.755100 0.000000
-8.733800 0.000000
-8.712500 0.000000
-8.691200 0.000000
-8.669900 0.000000
-8.648600 0.000000
-8.627300 0.000000
-8.606000 0.000000
-8.584700 0.000000
-8.563400 0.000000
-8.542100 0.000000
-8.520800 0.000000
-8.499500 0.000000
-8.478200 0.000000
-8.456900 0.000000
-8.435600 0.000000
-8.414300 0.000000
-8.393000 0.000000
-8.371700 0.000000
-8.350400 0.000000
-8.329100 0.000000
-8.307800 0.000000
-8.286500 0.000000
-8.265200 0.000000
-8.243900 0.000000
-8.222600 0.000000
-8.201300 0.000000
-8.180000 0.000000
-8.158700 0.000000
-8.137400 0.000000
-8.116100 0.000000
-8.094800 0.000000
-8.073500 0.000000
-8.052200 0.000000
-8.030900 0.000000
-8.009600 0.000000
-7.988300 0.000000
-7.967000 0.000000
-7.945700 0.000000
-7.924400 0.000000
-7.903100 0.000000
-7.881800 0.000000
-7.860500 0.000000
-7.839200 0.000000
-7.817900 0.000000
-7.796600 0.000000
-7.775300 0.000000
-7.754000 0.000000
-7.732700 0.000000
-7.711400 0.000000
-7.690100 0.000000
-7.668800 0.000000
-7.647500 0.000000
-7.626200 0.000000
-7.604900 0.000000
-7.583600 0.000000
-7.562300 0.000000
-7.541000 0.000000
-7.519700 0.000000
-7.498400 0.000000
-7.477100 0.000000
-7.455800 0.000000
-7.434500 0.000000
-7.413200 0.000000
-7.391900 0.000000
-7.370600 0.000000
-7.349300 0.000000
-7.328000 0.000000
-7.306700 0.000000
-7.285400 0.000000
-7.264100 0.000000
-7.242800 0.000000
-7.221500 0.000000
-7.200200 0.000000
-7.178900 0.000000
-7.157600 0.000000
-7.136300 0.000000
-7.115000 0.000000
-7.093800 0.000000
-7.072500 0.000000
-7.051200 0.000000
-7.029900 0.000000
-7.008600 0.000000
-6.987300 0.000000
-6.966000 0.000000
-6.944700 0.000000
-6.923400 0.000000
-6.902100 0.000000
-6.880800 0.000000
-6.859500 0.000000
-6.838200 0.000000
-6.816900 0.000000
-6.795600 0.000000
-6.774300 0.000000
-6.753000 0.000000
-6.731700 0.000000
-6.710400 0.000000
-6.689100 0.000000
-6.667800 0.000000
-6.646500 0.000000
-6.625200 0.000000
-6.603900 0.000000
-6.582600 0.000000
-6.561300 0.000000
-6.540000 0.000000
-6.518700 0.000000
-6.497400 0.000000
-6.476100 0.000000
-6.454800 0.000000
-6.433500 0.000000
-6.412200 0.000000
-6.390900 0.000000
-6.369600 0.000000
-6.348300 0.000000
-6.327000 0.000000
-6.305700 0.000000
-6.284400 0.000000
-6.263100 0.000000
-6.241800 0.000000
-6.220500 0.000000
-6.199200 0.000000
-6.177900 0.000000
-6.156600 0.000000
-6.135300 0.000000
-6.114000 0.000000
-6.092700 0.000000
-6.071400 0.000000
-6.050100 0.000000
-6.028800 0.000000
-6.007500 0.000000
-5.986200 0.000000
-5.964900 0.000000
-5.943600 0.000000
-5.922300 0.000000
-5.901000 0.000000
-5.879700 0.000000
-5.858400 0.000000
-5.837100 0.000000
-5.815800 0.000000
-5.794500 0.000000
-5.773200 0.000000
-5.751900 0.000000
-5.730600 0.000000
-5.709300 0.000000
-5.688000 0.000000
-5.666700 0.000000
-5.645400 0.000000
-5.624100 0.000000
-5.602800 0.000000
-5.581500 0.000000
-5.560200 0.000000
-5.538900 0.000000
-5.517600 0.000000
-5.496300 0.000000
-5.475000 0.002800
-5.453700 0.034200
-5.432400 0.082000
-5.411100 0.084900
-5.389800 0.102000
-5.368500 0.123100
-5.347200 0.141100
-5.325900 0.146000
-5.304600 0.152400
-5.283300 0.162800
-5.262000 0.173700
-5.240700 0.185000
-5.219400 0.197200
-5.198100 0.206500
-5.176800 0.212200
-5.155500 0.219000
-5.134200 0.225200
-5.112900 0.231300
-5.091600 0.238300
-5.070300 0.246900
-5.049000 0.255800
-5.027700 0.264900
-5.006400 0.272700
-4.985100 0.279300
-4.963800 0.284200
-4.942500 0.288900
-4.921200 0.294400
-4.899900 0.300400
-4.878600 0.306900
-4.857300 0.313400
-4.836000 0.320000
-4.814700 0.326900
-4.793400 0.334100
-4.772100 0.341200
-4.750800 0.347000
-4.729500 0.353100
-4.708200 0.358800
-4.686900 0.363900
-4.665600 0.369200
-4.644300 0.374700
-4.623000 0.380400
-4.601700 0.386300
-4.580400 0.392300
-4.559100 0.398400
-4.537800 0.404500
-4.516500 0.410700
-4.495200 0.417200
-4.473900 0.423700
-4.452600 0.430000
-4.431300 0.436200
-4.410000 0.442600
-4.388700 0.448500
-4.367400 0.454100
-4.346100 0.459900
-4.324800 0.465800
-4.303500 0.471800
-4.282200 0.477800
-4.260900 0.484000
-4.239600 0.490800
-4.218300 0.497600
-4.197000 0.504600
-4.175700 0.511700
-4.154400 0.519000
-4.133100 0.526000
-4.111800 0.532900
-4.090500 0.540000
-4.069300 0.547200
-4.048000 0.554700
-4.026700 0.562000
-4.005400 0.569300
-3.984100 0.577100
-3.962800 0.585200
-3.941500 0.593700
-3.920200 0.602300
-3.898900 0.611000
-3.877600 0.619900
-3.856300 0.629100
-3.835000 0.638600
-3.813700 0.648300
-3.792400 0.658200
-3.771100 0.668300
-3.749800 0.678700
-3.728500 0.689400
-3.707200 0.700500
-3.685900 0.713100
-3.664600 0.725900
-3.643300 0.739900
-3.622000 0.754700
-3.600700 0.770000
-3.579400 0.785900
-3.558100 0.802800
-3.536800 0.820600
-3.515500 0.839500
-3.494200 0.859900
-3.472900 0.882000
-3.451600 0.906100
-3.430300 0.932500
-3.409000 0.962300
-3.387700 0.997600
-3.366400 1.039400
-3.345100 1.107300
-3.323800 1.160600
-3.302500 1.235800
-3.281200 1.260700
-3.259900 1.351300
-3.238600 1.328300
-3.217300 1.309000
-3.196000 1.313600
-3.174700 1.309500
-3.153400 1.285700
-3.132100 1.278700
-3.110800 1.260500
-3.089500 1.245500
-3.068200 1.238200
-3.046900 1.244500
-3.025600 1.249400
-3.004300 1.256100
-2.983000 1.263500
-2.961700 1.264400
-2.940400 1.255200
-2.919100 1.235200
-2.897800 1.214800
-2.876500 1.205100
-2.855200 1.180100
-2.833900 1.066300
-2.812600 1.037300
-2.791300 0.978400
-2.770000 0.953300
-2.748700 0.931400
-2.727400 0.905500
-2.706100 0.877500
-2.684800 0.851700
-2.663500 0.829300
-2.642200 0.813300
-2.620900 0.804000
-2.599600 0.804900
-2.578300 0.821300
-2.557000 0.826600
-2.535700 0.818600
-2.514400 0.800900
-2.493100 0.831800
-2.471800 1.002500
-2.450500 0.925500
-2.429200 0.382900
-2.407900 0.244300
-2.386600 0.161500
-2.365300 0.000000
-2.344000 0.000000
-2.322700 0.000000
-2.301400 0.000000
-2.280100 0.000000
-2.258800 0.000000
-2.237500 0.000000
-2.216200 0.000000
-2.194900 0.000000
-2.173600 0.000000
-2.152300 0.000000
-2.131000 0.000000
-2.109700 0.000000
-2.088400 0.000000
-2.067100 0.000000
-2.045800 0.000000
-2.024500 0.000000
-2.003200 0.000000
-1.981900 0.000000
-1.960600 0.000000
-1.939300 0.000000
-1.918000 0.000000
-1.896700 0.000000
-1.875400 0.000000
-1.854100 0.000000
-1.832800 0.000000
-1.811500 0.000000
-1.790200 0.000000
-1.768900 0.000000
-1.747600 0.000000
-1.726300 0.000000
-1.705000 0.000000
-1.683700 0.000000
-1.662400 0.000000
-1.641100 0.000000
-1.619800 0.000000
-1.598500 0.000000
-1.577200 0.000000
-1.555900 0.000000
-1.534600 0.000000
-1.513300 0.000000
-1.492000 0.000000
-1.470700 0.000000
-1.449400 0.000000
-1.428100 0.000000
-1.406800 0.000000
-1.385500 0.000000
-1.364200 0.000000
-1.342900 0.000000
-1.321600 0.000000
-1.300300 0.000000
-1.279000 0.000000
-1.257700 0.000000
-1.236400 0.000000
-1.215100 0.000000
-1.193800 0.000000
-1.172500 0.000000
-1.151200 0.000000
-1.129900 0.000000
-1.108600 0.000000
-1.087300 0.000000
-1.066000 0.000000
-1.044700 0.000000
-1.023500 0.000000
-1.002200 0.000000
-0.980900 0.000000
-0.959600 0.000000
-0.938300 0.000000
-0.917000 0.000000
-0.895700 0.000000
-0.874400 0.006600
-0.853100 0.059900
-0.831800 0.126600
-0.810500 0.159600
-0.789200 0.188500
-0.767900 0.219500
-0.746600 0.259800
-0.725300 0.308100
-0.704000 0.336900
-0.682700 0.354500
-0.661400 0.373700
-0.640100 0.394100
-0.618800 0.416900
-0.597500 0.445600
-0.576200 0.479300
-0.554900 0.518600
-0.533600 0.562900
-0.512300 0.630200
-0.491000 0.732100
-0.469700 0.739800
-0.448400 0.695100
-0.427100 0.709500
-0.405800 0.723400
-0.384500 0.734600
-0.363200 0.740400
-0.341900 0.751700
-0.320600 0.761800
-0.299300 0.771700
-0.278000 0.778300
-0.256700 0.785500
-0.235400 0.796200
-0.214100 0.803600
-0.192800 0.812200
-0.171500 0.823200
-0.150200 0.835100
-0.128900 0.846500
-0.107600 0.857600
-0.086300 0.868600
-0.065000 0.884200
-0.043700 0.911200
-0.022400 0.943900
-0.001100 0.964500
0.020200 0.986700
0.041500 1.010200
0.062800 1.090400
0.084100 1.124900
0.105400 1.203500
0.126700 1.198900
0.148000 1.137200
0.169300 1.107400
0.190600 1.082300
0.211900 1.056200
0.233200 1.028900
0.254500 1.019600
0.275800 1.024400
0.297100 0.992600
0.318400 0.973200
0.339700 0.972600
0.361000 0.965500
0.382300 0.957000
0.403600 0.947600
0.424900 0.938500
0.446200 0.931200
0.467500 0.925800
0.488800 0.940700
0.510100 0.922400
0.531400 0.917700
0.552700 0.908700
0.574000 0.854900
0.595300 0.839700
0.616600 0.825500
0.637900 0.809400
0.659200 0.791200
0.680500 0.777300
0.701800 0.764400
0.723100 0.752200
0.744400 0.740400
0.765700 0.728600
0.787000 0.717100
0.808300 0.705600
0.829600 0.694300
0.850900 0.682800
0.872200 0.672000
0.893500 0.701800
0.914800 0.654700
0.936100 0.638000
0.957400 0.624600
0.978700 0.614200
1.000000 0.604700
1.021300 0.595300
1.042600 0.585900
1.063900 0.576500
1.085200 0.567700
1.106500 0.559800
1.127800 0.552200
1.149100 0.545300
1.170400 0.538000
1.191700 0.530500
1.213000 0.523300
1.234300 0.516200
1.255600 0.506500
1.276900 0.498200
1.298200 0.491400
1.319500 0.493000
1.340800 0.485800
1.362100 0.468900
1.383400 0.432500
1.404700 0.413700
1.426000 0.397500
1.447300 0.381700
1.468600 0.367000
1.489900 0.353500
1.511200 0.346200
1.532500 0.338400
1.553800 0.314600
1.575100 0.303700
1.596400 0.294500
1.617700 0.287000
1.639000 0.275100
1.660300 0.274100
1.681600 0.272700
1.702900 0.274300
1.724200 0.277000
1.745500 0.280800
1.766800 0.285500
1.788100 0.292500
1.809400 0.302600
1.830700 0.314600
1.852000 0.328100
1.873300 0.343200
1.894600 0.344700
1.915900 0.353400
1.937200 0.350400
1.958500 0.355100
1.979800 0.358200
2.001000 0.355800
2.022300 0.370700
2.043600 0.371700
2.064900 0.374900
2.086200 0.377400
2.107500 0.378700
2.128800 0.381800
2.150100 0.385100
2.171400 0.388900
2.192700 0.392800
2.214000 0.397000
2.235300 0.401900
2.256600 0.409000
2.277900 0.415300
2.299200 0.426800
2.320500 0.430800
2.341800 0.436000
2.363100 0.445800
2.384400 0.466000
2.405700 0.487800
2.427000 0.542900
2.448300 0.559200
2.469600 0.573000
2.490900 0.591600
2.512200 0.610800
2.533500 0.630400
2.554800 0.653600
2.576100 0.681100
2.597400 0.707800
2.618700 0.779800
2.640000 0.797300
2.661300 0.812200
2.682600 0.861300
2.703900 0.844800
2.725200 0.838500
2.746500 0.834200
2.767800 0.829200
2.789100 0.820900
2.810400 0.810400
2.831700 0.801700
2.853000 0.798600
2.874300 0.798600
2.895600 0.798800
2.916900 0.801200
2.938200 0.805200
2.959500 0.800900
2.980800 0.796000
3.002100 0.793400
3.023400 0.793100
3.044700 0.793000
3.066000 0.795900
3.087300 0.799100
3.108600 0.802300
3.129900 0.805100
3.151200 0.808300
3.172500 0.815800
3.193800 0.820400
3.215100 0.833100
3.236400 0.832900
3.257700 0.837500
3.279000 0.844800
3.300300 0.894700
3.321600 0.868700
3.342900 0.870800
3.364200 0.876100
3.385500 0.883600
3.406800 0.892300
3.428100 0.902600
3.449400 0.913800
3.470700 0.923700
3.492000 0.930800
3.513300 0.944200
3.534600 0.955700
3.555900 0.966900
3.577200 0.973900
3.598500 0.984400
3.619800 0.991900
3.641100 0.998700
3.662400 0.998300
3.683700 1.003300
3.705000 1.009400
3.726300 1.001400
3.747600 1.008600
3.768900 1.028500
3.790200 1.034300
3.811500 1.040400
3.832800 1.046900
3.854100 1.055200
3.875400 1.062700
3.896700 1.075300
3.918000 1.077500
3.939300 1.072600
3.960600 1.080700
3.981900 1.089500
4.003200 1.099300
4.024500 1.110900
4.045800 1.120900
4.067100 1.138900
4.088400 1.152700
4.109700 1.165500
4.131000 1.176400
4.152300 1.185900
4.173600 1.196100
4.194900 1.259600
4.216200 1.239600
4.237500 1.253500
4.258800 1.263100
4.280100 1.269800
4.301400 1.270900
4.322700 1.276300
4.344000 1.279600
4.365300 1.286600
4.386600 1.303700
4.407900 1.294700
4.429200 1.293900
4.450500 1.294300
4.471800 1.293200
4.493100 1.292900
4.514400 1.280500
4.535700 1.268600
4.557000 1.260400
4.578300 1.255400
4.599600 1.253900
4.620900 1.274300
4.642200 1.282700
4.663500 1.296600
4.684800 1.310200
4.706100 1.315900
4.727400 1.326000
4.748700 1.324400
4.770000 1.338800
4.791300 1.345600
4.812600 1.339500
4.833900 1.330400
4.855200 1.319600
4.876500 1.315300
4.897800 1.313900
4.919100 1.318800
4.940400 1.329600
4.961700 1.332200
4.983000 1.331000
5.004300 1.330400
5.025600 1.331300
5.046800 1.333200
5.068100 1.334600
5.089400 1.335500
5.110700 1.338800
5.132000 1.348400
5.153300 1.364800
5.174600 1.370500
5.195900 1.367000
5.217200 1.364400
5.238500 1.362000
5.259800 1.374600
5.281100 1.360600
5.302400 1.361500
5.323700 1.365200
5.345000 1.368700
5.366300 1.371700
5.387600 1.379200
5.408900 1.391200
5.430200 1.395000
5.451500 1.387400
5.472800 1.365000
5.494100 1.341000
5.515400 1.319100
5.536700 1.298900
5.558000 1.287400
5.579300 1.276600
5.600600 1.267500
5.621900 1.261900
5.643200 1.259000
5.664500 1.258000
5.685800 1.259800
5.707100 1.266400
5.728400 1.278600
5.749700 1.280800
5.771000 1.284600
5.792300 1.273200
5.813600 1.263400
5.834900 1.255100
5.856200 1.250500
5.877500 1.253400
