set title 'mp-1055985 - Density of States'
set xlabel 'Energy (eV)'
set ylabel 'DOS (states/eV)'
set grid
set xrange [-10:10]
set yrange [0:0.511]
set xzeroaxis lt -1
set terminal png size 800,600
set output 'mp-1055985_dos_gnuplot.png'
plot '-' using 1:2 with lines title 'DOS'
-15.829000 0.000000
-15.787000 0.000000
-15.745100 0.000000
-15.703100 0.000000
-15.661100 0.000000
-15.619200 0.000000
-15.577200 0.000000
-15.535200 0.000000
-15.493300 0.000000
-15.451300 0.000000
-15.409300 0.000000
-15.367400 0.000000
-15.325400 0.000000
-15.283400 0.000000
-15.241500 0.000000
-15.199500 0.000000
-15.157600 0.000000
-15.115600 0.000000
-15.073600 0.000000
-15.031700 0.000000
-14.989700 0.000000
-14.947700 0.000000
-14.905800 0.000000
-14.863800 0.000000
-14.821800 0.000000
-14.779900 0.000000
-14.737900 0.000000
-14.695900 0.000000
-14.654000 0.000000
-14.612000 0.000000
-14.570000 0.000000
-14.528100 0.000000
-14.486100 0.000000
-14.444100 0.000000
-14.402200 0.000000
-14.360200 0.000000
-14.318200 0.000000
-14.276300 0.000000
-14.234300 0.000000
-14.192300 0.000000
-14.150400 0.000000
-14.108400 0.000000
-14.066400 0.000000
-14.024500 0.000000
-13.982500 0.000000
-13.940500 0.000000
-13.898600 0.000000
-13.856600 0.000000
-13.814600 0.000000
-13.772700 0.000000
-13.730700 0.000000
-13.688700 0.000000
-13.646800 0.000000
-13.604800 0.000000
-13.562800 0.000000
-13.520900 0.000000
-13.478900 0.000000
-13.436900 0.000000
-13.395000 0.000000
-13.353000 0.000000
-13.311000 0.000000
-13.269100 0.000000
-13.227100 0.000000
-13.185100 0.000000
-13.143200 0.000000
-13.101200 0.000000
-13.059300 0.000000
-13.017300 0.000000
-12.975300 0.000000
-12.933400 0.000000
-12.891400 0.000000
-12.849400 0.000000
-12.807500 0.000000
-12.765500 0.000000
-12.723500 0.000000
-12.681600 0.000000
-12.639600 0.000000
-12.597600 0.000000
-12.555700 0.000000
-12.513700 0.000000
-12.471700 0.000000
-12.429800 0.000000
-12.387800 0.000000
-12.345800 0.000000
-12.303900 0.000000
-12.261900 0.000000
-12.219900 0.000000
-12.178000 0.000000
-12.136000 0.000000
-12.094000 0.000000
-12.052100 0.000000
-12.010100 0.000900
-11.968100 0.039300
-11.926200 0.061100
-11.884200 0.077600
-11.842200 0.093700
-11.800300 0.114000
-11.758300 0.139600
-11.716300 0.156300
-11.674400 0.161100
-11.632400 0.159300
-11.590400 0.160700
-11.548500 0.160200
-11.506500 0.158700
-11.464500 0.159900
-11.422600 0.161700
-11.380600 0.160900
-11.338600 0.159300
-11.296700 0.159700
-11.254700 0.160400
-11.212700 0.161100
-11.170800 0.161200
-11.128800 0.160600
-11.086900 0.160400
-11.044900 0.160600
-11.002900 0.160800
-10.961000 0.161100
-10.919000 0.161100
-10.877000 0.160900
-10.835100 0.161400
-10.793100 0.161300
-10.751100 0.161300
-10.709200 0.161500
-10.667200 0.161500
-10.625200 0.161400
-10.583300 0.161100
-10.541300 0.161400
-10.499300 0.162100
-10.457400 0.162100
-10.415400 0.162200
-10.373400 0.162200
-10.331500 0.162200
-10.289500 0.162200
-10.247500 0.161700
-10.205600 0.161800
-10.163600 0.162100
-10.121600 0.162700
-10.079700 0.163200
-10.037700 0.163200
-9.995700 0.163100
-9.953800 0.163100
-9.911800 0.163100
-9.869800 0.162600
-9.827900 0.162600
-9.785900 0.162800
-9.743900 0.163100
-9.702000 0.163500
-9.660000 0.164100
-9.618000 0.164300
-9.576100 0.164300
-9.534100 0.164200
-9.492100 0.164200
-9.450200 0.164000
-9.408200 0.163700
-9.366200 0.163700
-9.324300 0.164000
-9.282300 0.164300
-9.240300 0.164700
-9.198400 0.165100
-9.156400 0.165600
-9.114500 0.165600
-9.072500 0.165600
-9.030500 0.165600
-8.988600 0.165500
-8.946600 0.165200
-8.904600 0.165100
-8.862700 0.165300
-8.820700 0.165500
-8.778700 0.165800
-8.736800 0.166200
-8.694800 0.166600
-8.652800 0.167000
-8.610900 0.167400
-8.568900 0.167400
-8.526900 0.167400
-8.485000 0.167300
-8.443000 0.167200
-8.401000 0.167000
-8.359100 0.167000
-8.317100 0.167200
-8.275100 0.167500
-8.233200 0.167800
-8.191200 0.168100
-8.149200 0.168500
-8.107300 0.168900
-8.065300 0.169400
-8.023300 0.169600
-7.981400 0.169700
-7.939400 0.169700
-7.897400 0.169600
-7.855500 0.169400
-7.813500 0.169400
-7.771500 0.169600
-7.729600 0.169800
-7.687600 0.170100
-7.645600 0.170500
-7.603700 0.170800
-7.561700 0.171200
-7.519700 0.171600
-7.477800 0.172000
-7.435800 0.172500
-7.393800 0.172700
-7.351900 0.172800
-7.309900 0.172900
-7.267900 0.172800
-7.226000 0.172700
-7.184000 0.172900
-7.142100 0.173100
-7.100100 0.173400
-7.058100 0.173800
-7.016200 0.174200
-6.974200 0.174600
-6.932200 0.175000
-6.890300 0.175500
-6.848300 0.176000
-6.806300 0.176500
-6.764400 0.177000
-6.722400 0.177200
-6.680400 0.177300
-6.638500 0.177400
-6.596500 0.177400
-6.554500 0.177600
-6.512600 0.177900
-6.470600 0.178200
-6.428600 0.178600
-6.386700 0.179100
-6.344700 0.179600
-6.302700 0.180200
-6.260800 0.180700
-6.218800 0.181300
-6.176800 0.181900
-6.134900 0.182500
-6.092900 0.183200
-6.050900 0.183700
-6.009000 0.184000
-5.967000 0.184300
-5.925000 0.184400
-5.883100 0.184700
-5.841100 0.185200
-5.799100 0.185700
-5.757200 0.186300
-5.715200 0.187000
-5.673200 0.187700
-5.631300 0.188400
-5.589300 0.189200
-5.547300 0.190000
-5.505400 0.190900
-5.463400 0.191800
-5.421400 0.192700
-5.379500 0.193600
-5.337500 0.194600
-5.295500 0.195300
-5.253600 0.195900
-5.211600 0.196500
-5.169600 0.197000
-5.127700 0.197900
-5.085700 0.198800
-5.043800 0.199900
-5.001800 0.201000
-4.959800 0.202300
-4.917900 0.203700
-4.875900 0.205100
-4.833900 0.206500
-4.792000 0.208000
-4.750000 0.209600
-4.708000 0.211400
-4.666100 0.213100
-4.624100 0.215000
-4.582100 0.216900
-4.540200 0.218800
-4.498200 0.220400
-4.456200 0.222000
-4.414300 0.223800
-4.372300 0.226200
-4.330300 0.229000
-4.288400 0.232100
-4.246400 0.235400
-4.204400 0.238900
-4.162500 0.243000
-4.120500 0.247600
-4.078500 0.252700
-4.036600 0.258400
-3.994600 0.264800
-3.952600 0.271500
-3.910700 0.280200
-3.868700 0.290900
-3.826700 0.302100
-3.784800 0.317300
-3.742800 0.338600
-3.700800 0.363900
-3.658900 0.439800
-3.616900 0.373000
-3.574900 0.331700
-3.533000 0.292600
-3.491000 0.272800
-3.449000 0.268300
-3.407100 0.257000
-3.365100 0.237000
-3.323100 0.232600
-3.281200 0.240200
-3.239200 0.241900
-3.197200 0.238000
-3.155300 0.231500
-3.113300 0.225800
-3.071400 0.224700
-3.029400 0.225400
-2.987400 0.224100
-2.945500 0.222500
-2.903500 0.220200
-2.861500 0.215200
-2.819600 0.208600
-2.777600 0.207200
-2.735600 0.207100
-2.693700 0.207200
-2.651700 0.207300
-2.609700 0.207300
-2.567800 0.205800
-2.525800 0.203300
-2.483800 0.200700
-2.441900 0.198200
-2.399900 0.197600
-2.357900 0.197900
-2.316000 0.198000
-2.274000 0.198100
-2.232000 0.198200
-2.190100 0.198300
-2.148100 0.198300
-2.106100 0.198200
-2.064200 0.197600
-2.022200 0.193200
-1.980200 0.191500
-1.938300 0.192600
-1.896300 0.194300
-1.854300 0.196000
-1.812400 0.197800
-1.770400 0.199600
-1.728400 0.205700
-1.686500 0.210800
-1.644500 0.208400
-1.602500 0.206400
-1.560600 0.202900
-1.518600 0.200200
-1.476600 0.198400
-1.434700 0.197500
-1.392700 0.196100
-1.350700 0.194900
-1.308800 0.193800
-1.266800 0.192800
-1.224800 0.191700
-1.182900 0.190000
-1.140900 0.188000
-1.099000 0.186500
-1.057000 0.185100
-1.015000 0.183700
-0.973100 0.180800
-0.931100 0.177300
-0.889100 0.176400
-0.847200 0.175400
-0.805200 0.174600
-0.763200 0.173900
-0.721300 0.173300
-0.679300 0.172600
-0.637300 0.172000
-0.595400 0.171400
-0.553400 0.170600
-0.511400 0.169000
-0.469500 0.167000
-0.427500 0.165200
-0.385500 0.163500
-0.343600 0.161800
-0.301600 0.159700
-0.259600 0.157800
-0.217700 0.156900
-0.175700 0.156200
-0.133700 0.155400
-0.091800 0.154700
-0.049800 0.153800
-0.007800 0.153000
0.034100 0.152200
0.076100 0.151600
0.118100 0.150800
0.160000 0.150000
0.202000 0.149200
0.244000 0.148500
0.285900 0.147700
0.327900 0.145600
0.369900 0.142200
0.411800 0.141100
0.453800 0.140300
0.495800 0.139500
0.537700 0.138800
0.579700 0.138100
0.621700 0.137400
0.663600 0.136700
0.705600 0.136000
0.747600 0.135300
0.789500 0.134600
0.831500 0.133800
0.873400 0.133000
0.915400 0.132200
0.957400 0.131400
0.999300 0.130500
1.041300 0.129600
1.083300 0.128800
1.125200 0.128000
1.167200 0.127300
1.209200 0.143600
1.251100 0.112600
1.293100 0.112600
1.335100 0.112700
1.377000 0.112800
1.419000 0.112900
1.461000 0.113000
1.502900 0.113000
1.544900 0.113100
1.586900 0.113200
1.628800 0.113100
1.670800 0.113000
1.712800 0.113000
1.754700 0.113000
1.796700 0.113000
1.838700 0.113100
1.880600 0.113100
1.922600 0.113200
1.964600 0.113200
2.006500 0.113300
2.048500 0.113300
2.090500 0.113400
2.132400 0.113500
2.174400 0.113500
2.216400 0.113600
2.258300 0.113700
2.300300 0.113700
2.342300 0.138600
2.384200 0.127800
2.426200 0.128500
2.468200 0.129300
2.510100 0.130100
2.552100 0.130900
2.594100 0.131700
2.636000 0.132500
2.678000 0.133300
2.720000 0.134100
2.761900 0.134900
2.803900 0.135700
2.845900 0.136600
2.887800 0.137400
2.929800 0.138200
2.971700 0.139000
3.013700 0.139600
3.055700 0.140200
3.097600 0.140700
3.139600 0.141300
3.181600 0.141900
3.223500 0.143500
3.265500 0.146500
3.307500 0.148400
3.349400 0.149100
3.391400 0.149900
3.433400 0.150600
3.475300 0.151300
3.517300 0.152100
3.559300 0.152800
3.601200 0.153500
3.643200 0.154300
3.685200 0.155000
3.727100 0.155800
3.769100 0.156500
3.811100 0.157200
3.853000 0.158300
3.895000 0.159800
3.937000 0.161700
3.978900 0.163400
4.020900 0.165000
4.062900 0.166500
4.104800 0.168000
4.146800 0.169500
4.188800 0.170800
4.230700 0.171700
4.272700 0.172300
4.314700 0.172800
4.356600 0.173400
4.398600 0.174000
4.440600 0.174500
4.482500 0.175100
4.524500 0.177100
4.566500 0.180200
4.608400 0.183800
4.650400 0.185700
4.692400 0.187000
4.734300 0.188300
4.776300 0.189600
4.818300 0.190900
4.860200 0.192200
4.902200 0.193600
4.944100 0.194900
4.986100 0.196400
5.028100 0.198400
5.070000 0.201000
5.112000 0.204100
5.154000 0.207100
5.195900 0.209900
5.237900 0.212500
5.279900 0.214200
5.321800 0.215300
5.363800 0.215800
5.405800 0.216000
5.447700 0.221700
5.489700 0.225600
5.531700 0.229400
5.573600 0.234400
5.615600 0.237700
5.657600 0.239800
5.699500 0.244100
5.741500 0.249800
5.783500 0.256700
5.825400 0.264700
5.867400 0.274300
5.909400 0.279800
5.951300 0.293400
5.993300 0.296300
6.035300 0.300100
6.077200 0.307600
6.119200 0.321000
6.161200 0.364200
6.203100 0.388200
6.245100 0.428100
6.287100 0.434200
6.329000 0.439900
6.371000 0.442400
6.413000 0.446100
6.454900 0.464300
6.496900 0.439400
6.538900 0.449400
6.580800 0.409000
6.622800 0.390300
6.664800 0.375100
6.706700 0.364300
6.748700 0.356100
6.790700 0.349100
6.832600 0.342700
6.874600 0.337200
6.916500 0.332400
6.958500 0.328000
7.000500 0.324500
7.042400 0.321300
7.084400 0.318400
7.126400 0.315800
7.168300 0.313500
7.210300 0.311300
7.252300 0.310000
7.294200 0.309900
7.336200 0.310700
7.378200 0.312400
7.420100 0.316300
7.462100 0.325600
7.504100 0.338100
7.546000 0.357400
7.588000 0.384000
7.630000 0.398200
7.671900 0.401200
7.713900 0.400200
7.755900 0.406400
7.797800 0.404700
7.839800 0.384900
7.881800 0.354600
7.923700 0.331600
7.965700 0.319600
8.007700 0.290400
8.049600 0.263000
8.091600 0.243900
8.133600 0.228900
8.175500 0.220400
8.217500 0.203900
8.259500 0.187100
8.301400 0.175900
8.343400 0.172000
8.385400 0.175000
8.427300 0.149300
8.469300 0.153000
8.511300 0.160600
8.553200 0.169300
8.595200 0.186600
8.637200 0.215300
8.679100 0.240800
8.721100 0.245700
8.763100 0.257400
8.805000 0.279900
8.847000 0.313500
8.888900 0.342200
8.930900 0.359000
8.972900 0.355600
9.014800 0.356600
9.056800 0.353800
9.098800 0.354300
9.140700 0.357100
9.182700 0.361000
9.224700 0.364200
9.266600 0.371500
9.308600 0.367100
9.350600 0.363200
9.392500 0.360900
9.434500 0.360300
9.476500 0.363300
9.518400 0.365400
9.560400 0.371600
9.602400 0.379000
9.644300 0.378200
9.686300 0.366700
9.728300 0.361200
9.770200 0.355500
9.812200 0.348400
9.854200 0.347300
9.896100 0.348500
9.938100 0.350100
9.980100 0.352200
10.022000 0.354800
10.064000 0.357700
10.106000 0.361200
10.147900 0.365400
10.189900 0.370100
10.231900 0.375100
10.273800 0.390300
10.315800 0.396700
10.357800 0.393500
10.399700 0.392400
10.441700 0.392900
10.483700 0.401100
10.525600 0.400800
10.567600 0.398300
10.609600 0.398600
10.651500 0.398300
10.693500 0.397600
10.735500 0.397300
10.777400 0.396900
10.819400 0.396600
10.861300 0.398000
10.903300 0.400100
10.945300 0.403300
10.987200 0.403800
11.029200 0.404900
11.071200 0.406900
11.113100 0.408000
11.155100 0.410000
11.197100 0.403300
11.239000 0.388700
11.281000 0.386300
11.323000 0.384700
11.364900 0.390400
11.406900 0.382700
11.448900 0.387700
11.490800 0.389700
11.532800 0.388900
11.574800 0.387500
11.616700 0.381200
11.658700 0.372600
11.700700 0.370200
11.742600 0.367100
11.784600 0.363700
11.826600 0.358700
11.868500 0.357300
11.910500 0.355900
11.952500 0.350900
11.994400 0.344500
12.036400 0.338800
12.078400 0.334300
12.120300 0.330000
12.162300 0.325800
12.204300 0.321900
12.246200 0.318000
12.288200 0.314100
12.330200 0.310100
12.372100 0.306300
12.414100 0.301400
12.456100 0.298700
12.498000 0.296900
12.540000 0.293600
12.582000 0.289800
12.623900 0.287000
12.665900 0.284500
12.707900 0.280900
12.749800 0.277200
12.791800 0.273500
12.833800 0.269700
12.875700 0.266200
12.917700 0.262800
12.959600 0.259500
13.001600 0.256300
13.043600 0.253100
13.085500 0.250000
13.127500 0.245300
13.169500 0.242900
13.211400 0.243200
13.253400 0.241800
13.295400 0.239500
13.337300 0.236700
13.379300 0.233800
13.421300 0.237600
13.463200 0.217100
13.505200 0.214500
13.547200 0.204500
13.589100 0.203800
13.631100 0.197500
13.673100 0.181300
13.715000 0.154800
13.757000 0.140800
13.799000 0.137300
13.840900 0.160500
13.882900 0.201200
13.924900 0.213600
13.966800 0.232900
14.008800 0.258300
14.050800 0.292700
14.092700 0.291200
14.134700 0.306100
14.176700 0.346600
14.218600 0.356100
14.260600 0.355500
14.302600 0.360500
14.344500 0.372300
14.386500 0.375500
14.428500 0.360900
14.470400 0.358200
14.512400 0.354200
14.554400 0.347600
14.596300 0.343200
14.638300 0.340900
14.680300 0.338800
14.722200 0.337200
14.764200 0.334900
14.806200 0.333000
14.848100 0.330900
14.890100 0.328300
14.932000 0.323400
14.974000 0.318600
15.016000 0.315700
15.057900 0.313600
15.099900 0.311600
15.141900 0.309900
15.183800 0.308600
15.225800 0.307600
15.267800 0.306100
15.309700 0.304600
15.351700 0.302900
15.393700 0.301400
15.435600 0.299500
15.477600 0.296900
15.519600 0.295000
15.561500 0.292700
15.603500 0.289600
15.645500 0.287200
15.687400 0.284900
15.729400 0.283600
15.771400 0.283600
15.813300 0.283600
15.855300 0.283000
15.897300 0.281700
15.939200 0.280700
15.981200 0.279700
16.023200 0.279300
16.065100 0.279900
16.107100 0.280800
16.149100 0.281900
16.191000 0.284200
16.233000 0.287200
16.275000 0.294700
16.316900 0.303800
16.358900 0.307100
16.400900 0.313700
16.442800 0.314300
16.484800 0.314100
16.526800 0.317300
16.568700 0.312500
16.610700 0.309300
16.652700 0.308300
16.694600 0.312800
16.736600 0.331600
16.778600 0.312100
16.820500 0.311000
16.862500 0.312200
16.904400 0.312700
16.946400 0.312800
16.988400 0.315300
17.030300 0.314700
17.072300 0.314900
17.114300 0.314600
17.156200 0.318400
17.198200 0.312800
17.240200 0.312600
17.282100 0.312600
17.324100 0.312400
17.366100 0.312700
17.408000 0.314100
17.450000 0.316000
17.492000 0.318300
17.533900 0.320200
17.575900 0.322800
17.617900 0.328700
17.659800 0.340500
17.701800 0.346100
17.743800 0.340000
17.785700 0.358700
17.827700 0.346200
17.869700 0.351100
17.911600 0.356100
17.953600 0.364800
17.995600 0.378900
18.037500 0.393100
18.079500 0.406400
18.121500 0.420700
18.163400 0.428300
18.205400 0.428000
18.247400 0.424100
18.289300 0.418900
18.331300 0.414400
18.373300 0.414900
18.415200 0.413100
18.457200 0.410500
18.499200 0.411100
18.541100 0.425300
18.583100 0.444200
18.625100 0.446600
18.667000 0.426900
18.709000 0.425000
18.751000 0.410200
18.792900 0.388300
18.834900 0.387000
18.876800 0.385000
18.918800 0.383100
18.960800 0.382500
19.002700 0.385300
19.044700 0.386900
19.086700 0.392000
19.128600 0.392300
19.170600 0.393500
19.212600 0.403500
19.254500 0.401700
19.296500 0.406000
19.338500 0.407300
19.380400 0.407100
19.422400 0.405900
19.464400 0.401400
19.506300 0.399400
19.548300 0.390500
19.590300 0.375400
19.632200 0.369100
19.674200 0.363200
19.716200 0.360300
19.758100 0.361300
19.800100 0.360800
19.842100 0.357600
19.884000 0.356900
19.926000 0.361500
19.968000 0.362000
20.009900 0.362300
20.051900 0.362900
20.093900 0.362800
20.135800 0.365400
20.177800 0.369200
20.219800 0.374200
20.261700 0.381200
20.303700 0.396100
20.345700 0.457000
20.387600 0.517900
20.429600 0.593300
20.471600 0.643800
20.513500 0.662500
20.555500 0.667600
20.597500 0.677200
20.639400 0.678900
20.681400 0.696400
20.723400 0.717900
20.765300 0.743000
20.807300 0.787600
20.849300 0.872800
20.891200 0.971700
20.933200 1.043900
20.975100 1.024700
21.017100 0.965600
21.059100 0.877200
21.101000 0.836400
21.143000 0.791800
21.185000 0.755400
21.226900 0.727100
21.268900 0.711000
21.310900 0.680500
21.352800 0.654100
21.394800 0.627400
21.436800 0.609700
21.478700 0.594900
21.520700 0.583700
21.562700 0.572900
21.604600 0.561300
21.646600 0.548000
21.688600 0.533400
21.730500 0.522000
21.772500 0.515200
21.814500 0.512900
21.856400 0.503700
21.898400 0.492500
21.940400 0.479400
21.982300 0.464900
22.024300 0.453900
22.066300 0.445900
22.108200 0.418300
22.150200 0.395300
22.192200 0.358900
22.234100 0.350700
22.276100 0.345500
22.318100 0.341500
22.360000 0.336900
22.402000 0.329700
22.444000 0.323500
22.485900 0.318500
22.527900 0.314500
22.569900 0.311100
22.611800 0.308500
22.653800 0.305900
22.695800 0.303600
22.737700 0.301600
22.779700 0.300500
22.821700 0.299200
22.863600 0.297200
22.905600 0.297200
22.947500 0.296100
22.989500 0.295700
23.031500 0.295100
23.073400 0.294500
23.115400 0.293800
23.157400 0.294900
23.199300 0.294000
23.241300 0.292800
23.283300 0.291500
23.325200 0.290300
23.367200 0.289200
23.409200 0.287700
23.451100 0.284700
23.493100 0.283500
23.535100 0.282900
23.577000 0.283400
23.619000 0.284100
23.661000 0.285100
23.702900 0.285500
23.744900 0.285700
23.786900 0.285700
23.828800 0.285200
23.870800 0.284400
23.912800 0.283800
23.954700 0.283000
23.996700 0.280600
24.038700 0.278100
24.080600 0.277400
24.122600 0.277600
24.164600 0.278200
24.206500 0.279100
24.248500 0.280600
24.290500 0.281500
24.332400 0.282600
24.374400 0.283700
24.416400 0.284800
24.458300 0.286800
24.500300 0.290100
24.542300 0.293600
24.584200 0.296400
24.626200 0.297800
24.668200 0.300500
24.710100 0.302400
24.752100 0.304600
24.794100 0.307200
24.836000 0.310600
24.878000 0.314000
24.919900 0.317200
24.961900 0.320300
25.003900 0.323600
25.045800 0.326900
25.087800 0.330300
25.129800 0.333800
25.171700 0.341700
25.213700 0.345700
25.255700 0.346600
25.297600 0.351500
25.339600 0.356400
25.381600 0.360700
25.423500 0.365300
25.465500 0.370200
25.507500 0.375700
25.549400 0.381100
25.591400 0.386400
25.633400 0.392600
25.675300 0.398600
25.717300 0.403400
25.759300 0.410800
25.801200 0.420100
25.843200 0.431200
25.885200 0.450400
25.927100 0.452200
25.969100 0.463800
26.011100 0.473300
26.053000 0.482600
26.095000 0.488600
26.137000 0.497400
26.178900 0.512200
26.220900 0.530300
26.262900 0.528100
26.304800 0.530900
26.346800 0.528900
26.388800 0.532700
26.430700 0.532000
26.472700 0.532600
26.514700 0.534800
26.556600 0.536200
26.598600 0.536800
26.640600 0.537100
26.682500 0.536700
26.724500 0.535100
26.766500 0.533300
26.808400 0.526100
26.850400 0.522300
26.892300 0.518900
26.934300 0.517300
26.976300 0.515300
27.018200 0.514400
27.060200 0.515400
27.102200 0.517800
27.144100 0.522400
27.186100 0.528600
27.228100 0.533000
27.270000 0.532500
27.312000 0.528900
27.354000 0.529400
27.395900 0.523700
27.437900 0.522000
27.479900 0.521400
27.521800 0.523600
27.563800 0.525100
27.605800 0.525300
27.647700 0.526300
27.689700 0.527600
27.731700 0.527600
27.773600 0.517700
27.815600 0.519300
27.857600 0.521100
27.899500 0.521400
