set title 'mp-973783 - Density of States'
set xlabel 'Energy (eV)'
set ylabel 'DOS (states/eV)'
set grid
set xrange [-10:10]
set yrange [0:5.660]
set xzeroaxis lt -1
set terminal png size 800,600
set output 'mp-973783_dos_gnuplot.png'
plot '-' using 1:2 with lines title 'DOS'
-14.073400 0.000000
-14.035000 0.000000
-13.996600 0.000000
-13.958200 0.000000
-13.919800 0.000000
-13.881400 0.000000
-13.843000 0.000000
-13.804600 0.000000
-13.766200 0.000000
-13.727800 0.000000
-13.689400 0.000000
-13.651000 0.000000
-13.612600 0.000000
-13.574200 0.000000
-13.535800 0.000000
-13.497400 0.000000
-13.459000 0.000000
-13.420600 0.000000
-13.382200 0.000000
-13.343800 0.000000
-13.305400 0.000000
-13.267000 0.000000
-13.228600 0.000000
-13.190200 0.000000
-13.151800 0.000000
-13.113400 0.000000
-13.075000 0.000000
-13.036600 0.000000
-12.998200 0.000000
-12.959800 0.000000
-12.921400 0.000000
-12.883000 0.000000
-12.844600 0.000000
-12.806200 0.000000
-12.767800 0.000000
-12.729400 0.000000
-12.691000 0.000000
-12.652600 0.000000
-12.614200 0.000000
-12.575800 0.000000
-12.537400 0.000000
-12.499000 0.000000
-12.460600 0.000000
-12.422200 0.000000
-12.383800 0.000000
-12.345400 0.000000
-12.307000 0.000000
-12.268600 0.000000
-12.230200 0.000000
-12.191800 0.000000
-12.153400 0.000000
-12.115000 0.000000
-12.076600 0.000000
-12.038200 0.000000
-11.999800 0.000000
-11.961400 0.000000
-11.923000 0.000000
-11.884600 0.000000
-11.846200 0.000000
-11.807800 0.000000
-11.769400 0.000000
-11.731000 0.000000
-11.692600 0.000000
-11.654200 0.000000
-11.615800 0.000000
-11.577400 0.000000
-11.539000 0.000000
-11.500600 0.000000
-11.462200 0.000000
-11.423800 0.000000
-11.385400 0.000000
-11.347000 0.000000
-11.308600 0.000000
-11.270200 0.000000
-11.231800 0.000000
-11.193400 0.000000
-11.155000 0.000000
-11.116600 0.000000
-11.078200 0.000000
-11.039800 0.000000
-11.001400 0.000000
-10.963000 0.000000
-10.924600 0.000000
-10.886200 0.000000
-10.847800 0.000000
-10.809400 0.000000
-10.771000 0.000000
-10.732600 0.000000
-10.694200 0.000000
-10.655800 0.000000
-10.617400 0.000000
-10.579000 0.000100
-10.540600 0.018700
-10.502200 0.068600
-10.463800 0.149700
-10.425400 0.234100
-10.387000 0.288600
-10.348600 0.312400
-10.310200 0.322400
-10.271800 0.343600
-10.233400 0.376600
-10.195000 0.416600
-10.156600 0.458500
-10.118200 0.501700
-10.079800 0.539500
-10.041400 0.566400
-10.003000 0.583900
-9.964600 0.606100
-9.926200 0.635300
-9.887800 0.667800
-9.849400 0.699500
-9.811000 0.731400
-9.772600 0.763400
-9.734200 0.795800
-9.695800 0.828900
-9.657400 0.866600
-9.619000 0.911200
-9.580600 0.958500
-9.542200 1.005700
-9.503800 1.145500
-9.465400 1.289900
-9.427000 1.304200
-9.388600 1.298000
-9.350200 1.334800
-9.311800 1.376800
-9.273400 1.423400
-9.235000 1.483100
-9.196600 1.540000
-9.158200 1.608000
-9.119800 1.677700
-9.081400 1.751800
-9.043000 1.830700
-9.004600 1.854000
-8.966200 1.903000
-8.927800 2.006200
-8.889400 2.354100
-8.851000 2.886900
-8.812600 3.084900
-8.774200 3.560400
-8.735800 4.455600
-8.697400 4.538400
-8.659000 4.340000
-8.620600 4.572900
-8.582200 5.145600
-8.543800 5.053500
-8.505400 4.404300
-8.467000 3.927600
-8.428600 2.734700
-8.390200 1.963600
-8.351800 1.673400
-8.313400 1.528200
-8.275000 1.337800
-8.236600 1.176600
-8.198200 1.022800
-8.159800 0.917300
-8.121400 0.876800
-8.083000 0.772900
-8.044600 0.634900
-8.006200 0.539000
-7.967800 0.518000
-7.929400 0.388700
-7.891000 0.228700
-7.852600 0.065300
-7.814200 0.000500
-7.775800 0.000000
-7.737400 0.000000
-7.699000 0.000000
-7.660600 0.000000
-7.622200 0.000000
-7.583800 0.000000
-7.545400 0.000000
-7.507000 0.000000
-7.468600 0.000000
-7.430200 0.000000
-7.391800 0.000000
-7.353400 0.000000
-7.315000 0.000000
-7.276600 0.000000
-7.238200 0.000000
-7.199800 0.000000
-7.161400 0.000000
-7.123000 0.000000
-7.084600 0.000000
-7.046200 0.000000
-7.007800 0.000000
-6.969400 0.000000
-6.931000 0.000000
-6.892600 0.000000
-6.854200 0.000000
-6.815800 0.000000
-6.777400 0.000000
-6.739000 0.000000
-6.700600 0.000000
-6.662200 0.000000
-6.623800 0.000000
-6.585400 0.000000
-6.547000 0.000000
-6.508600 0.000000
-6.470200 0.000000
-6.431800 0.000000
-6.393400 0.000000
-6.355000 0.000000
-6.316600 0.000000
-6.278200 0.000000
-6.239800 0.000000
-6.201400 0.000000
-6.163000 0.000000
-6.124600 0.000000
-6.086200 0.000000
-6.047800 0.000000
-6.009400 0.000000
-5.971000 0.000000
-5.932600 0.000000
-5.894200 0.000000
-5.855800 0.000000
-5.817400 0.000000
-5.779000 0.000000
-5.740700 0.000000
-5.702300 0.000000
-5.663900 0.000000
-5.625500 0.000000
-5.587100 0.000000
-5.548700 0.000000
-5.510300 0.000000
-5.471900 0.000000
-5.433500 0.000000
-5.395100 0.000000
-5.356700 0.000000
-5.318300 0.000000
-5.279900 0.000000
-5.241500 0.000000
-5.203100 0.000000
-5.164700 0.000000
-5.126300 0.000000
-5.087900 0.000000
-5.049500 0.000000
-5.011100 0.000000
-4.972700 0.000000
-4.934300 0.000000
-4.895900 0.000000
-4.857500 0.000000
-4.819100 0.000000
-4.780700 0.000000
-4.742300 0.000000
-4.703900 0.000000
-4.665500 0.000000
-4.627100 0.000000
-4.588700 0.000000
-4.550300 0.000000
-4.511900 0.000000
-4.473500 0.000000
-4.435100 0.000000
-4.396700 0.000000
-4.358300 0.000000
-4.319900 0.000000
-4.281500 0.000000
-4.243100 0.000000
-4.204700 0.000000
-4.166300 0.000000
-4.127900 0.000000
-4.089500 0.000000
-4.051100 0.000000
-4.012700 0.000000
-3.974300 0.000000
-3.935900 0.000000
-3.897500 0.000000
-3.859100 0.000000
-3.820700 0.000000
-3.782300 0.000000
-3.743900 0.000000
-3.705500 0.000000
-3.667100 0.000000
-3.628700 0.000000
-3.590300 0.000000
-3.551900 0.000000
-3.513500 0.000000
-3.475100 0.000000
-3.436700 0.000000
-3.398300 0.000000
-3.359900 0.000000
-3.321500 0.000000
-3.283100 0.000000
-3.244700 0.000000
-3.206300 0.000000
-3.167900 0.000000
-3.129500 0.000000
-3.091100 0.000000
-3.052700 0.000000
-3.014300 0.000000
-2.975900 0.000000
-2.937500 0.000000
-2.899100 0.000000
-2.860700 0.000000
-2.822300 0.000000
-2.783900 0.000000
-2.745500 0.000000
-2.707100 0.000000
-2.668700 0.000000
-2.630300 0.000000
-2.591900 0.000000
-2.553500 0.000000
-2.515100 0.000000
-2.476700 0.000000
-2.438300 0.000000
-2.399900 0.000000
-2.361500 0.000000
-2.323100 0.000000
-2.284700 0.000000
-2.246300 0.000000
-2.207900 0.000000
-2.169500 0.000000
-2.131100 0.000000
-2.092700 0.000000
-2.054300 0.000000
-2.015900 0.000000
-1.977500 0.000000
-1.939100 0.000000
-1.900700 0.000000
-1.862300 0.000000
-1.823900 0.000000
-1.785500 0.000000
-1.747100 0.000000
-1.708700 0.000000
-1.670300 0.000000
-1.631900 0.000000
-1.593500 0.000000
-1.555100 0.000000
-1.516700 0.000000
-1.478300 0.000000
-1.439900 0.000000
-1.401500 0.000000
-1.363100 0.000000
-1.324700 0.000000
-1.286300 0.000000
-1.247900 0.000000
-1.209500 0.000000
-1.171100 0.000000
-1.132700 0.000000
-1.094300 0.000000
-1.055900 0.000000
-1.017500 0.000000
-0.979100 0.000000
-0.940700 0.000000
-0.902300 0.000000
-0.863900 0.000000
-0.825500 0.000000
-0.787100 0.000000
-0.748700 0.000000
-0.710300 0.000000
-0.671900 0.000000
-0.633500 0.000000
-0.595100 0.000000
-0.556700 0.000000
-0.518300 0.000000
-0.479900 0.000000
-0.441500 0.000000
-0.403100 0.000000
-0.364700 0.000000
-0.326300 0.000000
-0.287900 0.000000
-0.249500 0.000000
-0.211100 0.000000
-0.172700 0.000000
-0.134300 0.000000
-0.095900 0.000000
-0.057500 0.000000
-0.019100 0.000000
0.019300 0.000000
0.057700 0.000000
0.096100 0.000000
0.134500 0.000000
0.172900 0.000000
0.211300 0.000000
0.249700 0.000000
0.288100 0.000000
0.326500 0.000000
0.364900 0.000000
0.403300 0.000000
0.441700 0.000000
0.480100 0.000000
0.518500 0.000000
0.556900 0.000000
0.595300 0.000000
0.633700 0.000000
0.672100 0.000000
0.710500 0.000000
0.748900 0.000000
0.787300 0.000000
0.825700 0.000000
0.864100 0.000000
0.902500 0.000000
0.940900 0.000000
0.979300 0.000000
1.017700 0.000000
1.056100 0.000000
1.094500 0.049500
1.132900 0.152000
1.171300 0.267900
1.209700 0.380100
1.248100 0.431500
1.286500 0.498700
1.324900 0.566700
1.363300 0.647200
1.401700 0.749400
1.440100 0.850500
1.478500 0.932400
1.516900 1.001800
1.555300 1.078200
1.593700 1.167100
1.632100 1.266900
1.670500 1.549500
1.708900 1.665100
1.747300 1.782800
1.785700 1.918000
1.824100 2.152200
1.862500 2.209400
1.900900 2.232500
1.939300 2.128800
1.977700 2.081000
2.016100 2.096400
2.054500 2.076800
2.092900 1.981200
2.131300 1.967600
2.169700 1.965600
2.208100 1.952100
2.246500 1.926400
2.284900 1.837000
2.323300 1.793700
2.361700 1.763600
2.400100 1.742600
2.438500 1.760600
2.476900 1.748200
2.515300 1.728100
2.553700 1.701600
2.592100 1.680300
2.630500 1.666200
2.668900 1.626500
2.707300 1.603700
2.745700 1.608500
2.784100 1.632600
2.822500 1.658600
2.860900 1.680200
2.899300 1.691000
2.937700 1.688300
2.976100 1.686000
3.014500 1.687300
3.052900 1.695000
3.091300 1.697200
3.129700 1.668100
3.168100 1.580200
3.206500 1.457300
3.244900 1.355600
3.283300 1.224300
3.321700 1.115400
3.360100 1.008700
3.398500 0.924600
3.436900 0.861200
3.475300 0.821200
3.513700 0.786400
3.552100 0.753500
3.590500 0.723300
3.628900 0.695500
3.667300 0.669900
3.705700 0.645500
3.744100 0.624300
3.782500 0.605700
3.820900 0.591900
3.859300 0.577400
3.897700 0.552700
3.936100 0.524800
3.974500 0.514400
4.012900 0.498800
4.051300 0.487500
4.089700 0.488000
4.128100 0.492400
4.166500 0.506200
4.204900 0.541300
4.243300 0.585100
4.281700 0.607000
4.320100 0.610200
4.358500 0.585100
4.396900 0.567000
4.435300 0.559700
4.473700 0.558000
4.512100 0.557500
4.550500 0.556900
4.588900 0.559700
4.627300 0.565700
4.665700 0.573800
4.704100 0.603200
4.742500 0.621300
4.780900 0.612000
4.819300 0.600300
4.857700 0.600300
4.896100 0.591600
4.934500 0.587100
4.972900 0.586300
5.011300 0.593200
5.049700 0.612200
5.088100 0.642300
5.126500 0.667400
5.164900 0.685700
5.203300 0.705300
5.241700 0.725400
5.280100 0.746000
5.318500 0.766900
5.356900 0.755400
5.395300 0.771800
5.433700 0.787500
5.472100 0.807200
5.510500 0.842700
5.548900 0.888300
5.587300 0.946000
5.625700 0.977200
5.664100 1.013900
5.702500 1.051800
5.740900 1.073300
5.779300 1.065500
5.817700 1.059700
5.856100 1.063100
5.894500 1.073100
5.932900 1.078900
5.971300 1.074900
6.009700 1.075100
6.048100 1.078200
6.086500 1.079600
6.124900 1.060500
6.163300 1.027100
6.201700 1.010000
6.240100 0.997500
6.278500 0.977600
6.316900 0.971600
6.355300 0.950500
6.393700 0.929200
6.432100 0.911700
6.470500 0.900800
6.508900 0.892200
6.547300 0.883900
6.585700 0.875800
6.624100 0.869500
6.662500 0.865600
6.700900 0.863600
6.739300 0.862300
6.777700 0.861100
6.816100 0.862800
6.854500 0.879000
6.892900 0.899800
6.931300 0.920000
6.969700 0.944300
7.008100 0.978400
7.046500 1.012400
7.084900 1.044500
7.123300 1.085000
7.161700 1.125600
7.200100 1.169000
7.238500 1.214500
7.276900 1.259500
7.315300 1.299900
7.353700 1.338100
7.392100 1.372100
7.430500 1.402600
7.468900 1.422400
7.507300 1.412700
7.545700 1.402000
7.584100 1.390400
7.622500 1.378000
7.660900 1.364900
7.699300 1.363100
7.737700 1.373300
7.776100 1.375400
7.814500 1.615900
7.852900 1.267000
7.891300 1.212900
7.929700 1.201300
7.968100 1.200900
8.006500 1.181500
8.044900 1.144500
8.083300 1.098000
8.121700 1.056700
8.160100 1.031200
8.198500 1.014200
8.236900 0.998800
8.275300 0.985600
8.313700 0.974200
8.352100 0.964500
8.390500 0.955200
8.428900 0.944100
8.467300 0.943900
8.505700 0.967100
8.544100 0.959100
8.582500 0.962500
8.620900 0.958400
8.659300 0.951500
8.697700 0.939600
8.736100 0.920800
8.774500 0.928900
8.812900 0.993500
8.851300 1.035900
8.889700 1.066900
8.928100 1.087100
8.966500 1.210600
9.004900 1.299500
9.043300 1.689300
9.081700 1.573500
9.120100 1.361300
9.158500 1.292000
9.196900 1.254800
9.235300 1.141000
9.273700 1.030000
9.312100 0.945900
9.350500 0.887500
9.388900 0.881800
9.427300 0.894600
9.465700 0.920900
9.504100 0.955300
9.542500 0.999300
9.580900 1.007700
9.619300 1.027900
9.657700 1.054300
9.696100 1.110400
9.734500 1.161200
9.772900 1.224500
9.811300 1.299000
9.849700 1.378100
9.888100 1.467700
9.926500 1.555800
9.964900 1.642200
10.003300 1.731700
10.041700 1.827200
10.080100 1.801200
10.118500 1.740200
10.156900 1.623100
10.195300 1.517000
10.233700 1.395100
10.272100 1.263300
10.310500 1.174800
10.348900 1.102100
10.387300 1.042100
10.425700 1.016000
10.464100 1.024300
10.502500 1.025900
10.540900 1.013900
10.579300 1.013800
10.617700 1.020400
10.656100 1.032900
10.694500 1.053900
10.732900 1.051300
10.771300 1.085200
10.809700 1.128700
10.848100 1.138100
10.886500 1.168300
10.924900 1.199700
10.963300 1.210900
11.001700 1.212200
11.040100 1.215000
11.078500 1.223000
11.116900 1.236500
11.155300 1.251500
11.193700 1.224400
11.232100 1.229200
11.270500 1.238000
11.308900 1.204600
11.347300 1.184100
11.385700 1.173700
11.424100 1.168200
11.462500 1.169400
11.500900 1.178600
11.539300 1.186500
11.577700 1.191400
11.616100 1.196100
11.654500 1.249900
11.692800 1.167400
11.731200 1.063600
11.769600 0.943300
11.808000 0.833700
11.846400 0.763500
11.884800 0.723500
11.923200 0.689500
11.961600 0.662500
12.000000 0.644400
12.038400 0.642000
12.076800 0.659300
12.115200 0.691700
12.153600 0.714700
12.192000 0.748400
12.230400 0.817300
12.268800 0.869300
12.307200 0.908900
12.345600 0.939800
12.384000 0.987500
12.422400 1.040700
12.460800 1.102000
12.499200 1.179500
12.537600 1.263500
12.576000 1.351500
12.614400 1.485700
12.652800 1.658000
12.691200 2.179600
12.729600 2.345200
12.768000 2.392000
12.806400 2.382700
12.844800 2.335600
12.883200 2.270900
12.921600 2.277800
12.960000 2.029900
12.998400 1.636900
13.036800 1.428000
13.075200 1.282600
13.113600 1.247500
13.152000 1.335500
13.190400 1.415700
13.228800 1.455400
13.267200 1.508300
13.305600 1.516200
13.344000 1.633700
13.382400 1.396600
13.420800 1.311800
13.459200 1.325600
13.497600 1.343100
13.536000 1.289500
13.574400 1.291400
13.612800 1.329900
13.651200 1.373000
13.689600 1.381900
13.728000 1.396600
13.766400 1.436900
13.804800 1.474600
13.843200 1.510200
13.881600 1.584200
13.920000 1.566900
13.958400 1.586300
13.996800 1.596500
14.035200 1.597000
14.073600 1.581700
14.112000 1.573000
14.150400 1.522600
14.188800 1.455500
14.227200 1.405400
14.265600 1.352100
14.304000 1.269600
14.342400 1.189500
14.380800 1.119000
14.419200 1.065100
14.457600 1.031300
14.496000 0.997600
14.534400 0.966400
14.572800 0.937000
14.611200 0.876600
14.649600 0.867700
14.688000 0.816500
14.726400 0.768700
14.764800 0.724200
14.803200 0.694300
14.841600 0.658100
14.880000 0.643300
14.918400 0.655500
14.956800 0.678200
14.995200 0.706800
15.033600 0.741400
15.072000 0.781600
15.110400 0.826300
15.148800 0.877300
15.187200 0.933900
15.225600 0.997300
15.264000 1.064400
15.302400 1.170600
15.340800 1.282000
15.379200 1.345900
15.417600 1.400700
15.456000 1.540100
15.494400 1.573500
15.532800 1.614500
15.571200 1.654800
15.609600 1.707600
15.648000 1.767600
15.686400 1.849000
15.724800 1.887500
15.763200 1.650100
15.801600 1.556300
15.840000 1.483800
15.878400 1.414800
15.916800 1.334100
15.955200 1.209900
15.993600 1.176300
16.032000 1.153400
16.070400 1.140200
16.108800 1.138800
16.147200 1.151700
16.185600 1.182500
16.224000 1.246600
16.262400 1.517100
16.300800 1.554300
16.339200 1.466200
16.377600 1.505500
16.416000 1.549300
16.454400 1.584100
16.492800 1.611500
16.531200 1.629100
16.569600 1.638300
16.608000 1.663200
16.646400 1.702600
16.684800 1.720800
16.723200 1.692800
16.761600 1.656500
16.800000 1.614600
16.838400 1.565800
16.876800 1.509100
16.915200 1.447600
16.953600 1.393000
16.992000 1.359300
17.030400 1.335700
17.068800 1.301600
17.107200 1.185800
17.145600 1.087700
17.184000 1.026700
17.222400 1.004900
17.260800 0.991600
17.299200 0.985900
17.337600 1.021200
17.376000 1.103900
17.414400 1.219200
17.452800 1.296900
17.491200 1.364600
17.529600 1.433500
17.568000 1.504600
17.606400 1.794200
17.644800 1.741900
17.683200 1.675300
17.721600 1.688200
17.760000 1.686200
17.798400 1.666300
17.836800 1.650500
17.875200 1.641700
17.913600 1.643900
17.952000 1.682400
17.990400 1.626200
18.028800 1.577200
18.067200 1.527900
18.105600 1.474400
18.144000 1.422500
18.182400 1.379000
18.220800 1.339700
18.259200 1.313700
18.297600 1.299900
18.336000 1.298300
18.374400 1.296600
18.412800 1.303300
18.451200 1.312100
18.489600 1.313900
18.528000 1.292300
18.566400 1.275800
18.604800 1.253500
18.643200 1.227300
18.681600 1.226400
18.720000 1.238100
18.758400 1.251700
18.796800 1.293700
18.835200 1.361800
18.873600 1.443600
18.912000 1.536300
18.950400 1.646400
18.988800 1.769600
19.027200 1.718400
19.065600 1.709000
19.104000 1.697800
19.142400 1.679800
19.180800 1.662400
19.219200 1.647100
19.257600 1.631000
19.296000 1.614000
19.334400 1.595700
19.372800 1.575900
19.411200 1.554200
19.449600 1.530900
19.488000 1.508300
19.526400 1.482300
19.564800 1.451300
19.603200 1.418800
19.641600 1.438100
19.680000 1.397200
19.718400 1.370500
19.756800 1.353500
19.795200 1.351800
19.833600 1.378600
19.872000 1.411500
19.910400 1.421600
19.948800 1.483700
19.987200 1.539200
20.025600 1.588100
20.064000 1.642600
20.102400 1.595700
20.140800 1.602000
20.179200 1.619300
20.217600 1.639100
20.256000 1.651400
20.294400 1.644100
20.332800 1.643100
20.371200 1.642100
20.409600 1.622100
20.448000 1.575100
20.486400 1.544200
20.524800 1.506100
20.563200 1.473100
20.601600 1.439200
20.640000 1.408100
20.678400 1.378600
20.716800 1.345900
20.755200 1.313400
20.793600 1.278600
20.832000 1.240700
20.870400 1.203600
20.908800 1.162500
20.947200 1.131400
20.985600 1.110200
21.024000 1.061400
21.062400 1.025300
21.100800 1.013200
21.139200 1.007900
21.177600 1.006400
21.216000 1.009200
21.254400 1.016600
21.292800 1.026300
21.331200 1.038800
21.369600 1.068700
21.408000 1.114100
21.446400 1.169600
21.484800 1.288100
21.523200 1.425900
21.561600 1.557500
21.600000 1.594600
21.638400 1.625800
21.676800 1.648400
21.715200 1.672300
21.753600 1.710600
21.792000 1.684900
21.830400 1.702500
21.868800 1.726000
21.907200 1.790700
21.945600 1.855600
21.984000 1.836800
22.022400 1.822800
22.060800 1.833900
22.099200 1.706900
22.137600 1.643200
22.176000 1.635300
22.214400 1.604600
22.252800 1.598100
22.291200 1.553300
22.329600 1.545600
22.368000 1.555800
22.406400 1.569000
22.444800 1.723700
22.483200 1.777000
22.521600 1.803900
22.560000 1.832400
22.598400 1.847200
22.636800 1.846200
22.675200 1.852500
22.713600 1.914900
22.752000 1.974000
22.790400 2.025800
22.828800 1.962400
22.867200 1.918100
22.905600 1.880300
22.944000 1.856800
22.982400 1.845500
23.020800 1.831500
23.059200 1.814500
23.097600 1.795900
23.136000 1.766700
23.174400 1.736100
23.212800 1.787800
23.251200 1.624700
23.289600 1.591000
23.328000 1.554200
23.366400 1.523300
23.404800 1.498800
23.443200 1.502800
23.481600 1.501100
23.520000 1.496000
23.558400 1.499100
23.596800 1.504700
23.635200 1.511100
23.673600 1.516800
23.712000 1.486300
23.750400 1.500600
23.788800 1.512300
23.827200 1.524900
23.865600 1.535400
23.904000 1.524100
23.942400 1.505900
23.980800 1.506500
24.019200 1.513000
24.057600 1.537100
24.096000 1.554800
24.134400 1.569500
24.172800 1.545100
24.211200 1.466300
24.249600 1.401200
24.288000 1.342800
24.326400 1.261900
24.364800 1.228700
24.403200 1.217700
24.441600 1.217300
24.480000 1.233500
24.518400 1.282300
24.556800 1.327300
24.595200 1.365600
24.633600 1.397900
24.672000 1.456400
24.710400 1.526600
24.748800 1.603400
24.787200 1.607900
24.825600 1.702500
24.864000 1.806700
24.902400 1.910000
24.940800 1.958900
24.979200 2.007600
25.017600 2.061200
25.056000 2.100000
25.094400 2.125600
25.132800 2.075700
25.171200 2.093000
25.209600 2.111800
25.248000 2.137700
25.286400 2.137100
25.324800 2.135100
25.363200 2.123400
25.401600 2.014900
25.440000 1.890500
25.478400 1.802500
25.516800 1.822800
25.555200 1.864000
25.593600 1.877300
25.632000 1.840900
25.670400 1.817500
25.708800 1.742200
25.747200 1.724200
25.785600 1.714400
25.824000 1.707600
25.862400 1.694700
25.900800 1.694100
25.939200 1.697200
25.977600 1.669200
26.016000 1.590500
26.054400 1.546800
