set title 'mp-568746 - Density of States'
set xlabel 'Energy (eV)'
set ylabel 'DOS (states/eV)'
set grid
set xrange [-10:10]
set yrange [0:20.687]
set xzeroaxis lt -1
set terminal png size 800,600
set output 'mp-568746_dos_gnuplot.png'
plot '-' using 1:2 with lines title 'DOS'
-8.078600 0.000000
-8.063500 0.000000
-8.048300 0.000000
-8.033200 0.000000
-8.018100 0.000000
-8.003000 0.000000
-7.987800 0.000000
-7.972700 0.000000
-7.957600 0.000000
-7.942500 0.000000
-7.927300 0.000000
-7.912200 0.000000
-7.897100 0.000000
-7.882000 0.000000
-7.866800 0.000000
-7.851700 0.000000
-7.836600 0.000000
-7.821500 0.000000
-7.806400 0.000000
-7.791200 0.000000
-7.776100 0.000000
-7.761000 0.000000
-7.745900 0.000000
-7.730700 0.000000
-7.715600 0.000000
-7.700500 0.000000
-7.685400 0.000000
-7.670200 0.000000
-7.655100 0.000000
-7.640000 0.000000
-7.624900 0.000000
-7.609700 0.000000
-7.594600 0.000000
-7.579500 0.000000
-7.564400 0.000000
-7.549200 0.000000
-7.534100 0.000000
-7.519000 0.000000
-7.503900 0.000000
-7.488800 0.000000
-7.473600 0.000000
-7.458500 0.000000
-7.443400 0.000000
-7.428300 0.000000
-7.413100 0.000000
-7.398000 0.000000
-7.382900 0.000000
-7.367800 0.000000
-7.352600 0.000000
-7.337500 0.000000
-7.322400 0.000000
-7.307300 0.000000
-7.292100 0.000000
-7.277000 0.000000
-7.261900 0.000000
-7.246800 0.000000
-7.231600 0.000000
-7.216500 0.000000
-7.201400 0.000000
-7.186300 0.000000
-7.171200 0.000000
-7.156000 0.000000
-7.140900 0.000000
-7.125800 0.000000
-7.110700 0.000000
-7.095500 0.000000
-7.080400 0.000000
-7.065300 0.000000
-7.050200 0.000000
-7.035000 0.000000
-7.019900 0.000000
-7.004800 0.000000
-6.989700 0.000000
-6.974500 0.000000
-6.959400 0.000000
-6.944300 0.000000
-6.929200 0.000000
-6.914000 0.000000
-6.898900 0.000000
-6.883800 0.000000
-6.868700 0.000000
-6.853600 0.000000
-6.838400 0.000000
-6.823300 0.000000
-6.808200 0.000000
-6.793100 0.000000
-6.777900 0.000000
-6.762800 0.000000
-6.747700 0.000000
-6.732600 0.000000
-6.717400 0.000000
-6.702300 0.016800
-6.687200 0.104000
-6.672100 0.155800
-6.656900 0.211900
-6.641800 0.272100
-6.626700 0.336600
-6.611600 0.402600
-6.596400 0.449400
-6.581300 0.475400
-6.566200 0.488900
-6.551100 0.501600
-6.536000 0.520600
-6.520800 0.541900
-6.505700 0.566400
-6.490600 0.594100
-6.475500 0.622500
-6.460300 0.651000
-6.445200 0.678200
-6.430100 0.703700
-6.415000 0.727000
-6.399800 0.744500
-6.384700 0.762500
-6.369600 0.782800
-6.354500 0.804800
-6.339300 0.828700
-6.324200 0.852800
-6.309100 0.877100
-6.294000 0.900000
-6.278800 0.916700
-6.263700 0.936400
-6.248600 0.955600
-6.233500 0.975400
-6.218400 0.994500
-6.203200 1.012900
-6.188100 1.031400
-6.173000 1.050200
-6.157900 1.068100
-6.142700 1.085700
-6.127600 1.103000
-6.112500 1.121300
-6.097400 1.143700
-6.082200 1.168800
-6.067100 1.196800
-6.052000 1.228000
-6.036900 1.253000
-6.021700 1.274400
-6.006600 1.294800
-5.991500 1.314200
-5.976400 1.332700
-5.961200 1.351900
-5.946100 1.372200
-5.931000 1.393600
-5.915900 1.418500
-5.900800 1.449300
-5.885600 1.475100
-5.870500 1.483800
-5.855400 1.480100
-5.840300 1.525500
-5.825100 1.559800
-5.810000 1.559900
-5.794900 1.569400
-5.779800 1.582300
-5.764600 1.659200
-5.749500 1.744000
-5.734400 1.729400
-5.719300 1.721100
-5.704100 1.718300
-5.689000 1.734500
-5.673900 1.765800
-5.658800 1.808700
-5.643700 1.846600
-5.628500 1.876900
-5.613400 1.900500
-5.598300 1.922500
-5.583200 1.944900
-5.568000 1.990800
-5.552900 2.044800
-5.537800 2.075600
-5.522700 2.108500
-5.507500 2.146600
-5.492400 2.157300
-5.477300 2.176100
-5.462200 2.200700
-5.447000 2.245000
-5.431900 2.339300
-5.416800 2.466800
-5.401700 2.652300
-5.386500 2.604800
-5.371400 2.581200
-5.356300 2.634400
-5.341200 2.698100
-5.326100 2.771400
-5.310900 2.869600
-5.295800 2.649000
-5.280700 2.545500
-5.265600 2.401600
-5.250400 2.346200
-5.235300 2.341500
-5.220200 2.337500
-5.205100 2.327800
-5.189900 2.302400
-5.174800 2.276800
-5.159700 2.252500
-5.144600 2.238200
-5.129400 2.245700
-5.114300 2.258300
-5.099200 2.273000
-5.084100 2.283300
-5.068900 2.294800
-5.053800 2.309500
-5.038700 2.327900
-5.023600 2.349800
-5.008500 2.377200
-4.993300 2.409200
-4.978200 2.438100
-4.963100 2.478300
-4.948000 2.537600
-4.932800 2.602700
-4.917700 2.684200
-4.902600 2.886800
-4.887500 3.158700
-4.872300 3.305100
-4.857200 3.576800
-4.842100 3.575600
-4.827000 3.539900
-4.811800 3.732500
-4.796700 4.005500
-4.781600 4.376000
-4.766500 4.700000
-4.751300 4.700400
-4.736200 4.521100
-4.721100 5.048300
-4.706000 3.726100
-4.690900 3.130600
-4.675700 2.989800
-4.660600 3.033200
-4.645500 3.057100
-4.630400 3.145600
-4.615200 3.352000
-4.600100 3.644600
-4.585000 4.084500
-4.569900 5.335600
-4.554700 6.109700
-4.539600 6.538700
-4.524500 6.479100
-4.509400 5.707200
-4.494200 5.207500
-4.479100 4.821600
-4.464000 4.523800
-4.448900 4.403200
-4.433700 4.345000
-4.418600 4.590300
-4.403500 4.643500
-4.388400 4.636400
-4.373300 4.691300
-4.358100 4.837500
-4.343000 4.830900
-4.327900 4.788300
-4.312800 4.891900
-4.297600 5.281200
-4.282500 5.575200
-4.267400 5.215500
-4.252300 4.600700
-4.237100 4.569200
-4.222000 4.597900
-4.206900 4.601200
-4.191800 4.480400
-4.176600 4.262400
-4.161500 4.180600
-4.146400 4.329600
-4.131300 3.992700
-4.116100 3.896300
-4.101000 3.891200
-4.085900 3.955000
-4.070800 3.504500
-4.055700 3.346300
-4.040500 3.466400
-4.025400 3.539100
-4.010300 3.585400
-3.995200 3.686500
-3.980000 3.919800
-3.964900 4.140300
-3.949800 4.363300
-3.934700 4.557000
-3.919500 4.792200
-3.904400 4.725200
-3.889300 4.876000
-3.874200 4.894800
-3.859000 4.874800
-3.843900 4.824500
-3.828800 4.667800
-3.813700 4.313600
-3.798500 3.732600
-3.783400 2.596100
-3.768300 2.332200
-3.753200 2.120800
-3.738100 1.911500
-3.722900 1.705900
-3.707800 1.509600
-3.692700 1.439100
-3.677600 1.416800
-3.662400 1.347400
-3.647300 1.280500
-3.632200 1.085600
-3.617100 0.843200
-3.601900 0.503300
-3.586800 0.196900
-3.571700 0.036200
-3.556600 0.000000
-3.541400 0.000000
-3.526300 0.000000
-3.511200 0.000000
-3.496100 0.000000
-3.480900 0.000000
-3.465800 0.000000
-3.450700 0.000000
-3.435600 0.000000
-3.420500 0.000000
-3.405300 0.000000
-3.390200 0.000000
-3.375100 0.000000
-3.360000 0.000000
-3.344800 0.000000
-3.329700 0.000000
-3.314600 0.000000
-3.299500 0.000000
-3.284300 0.000000
-3.269200 0.000000
-3.254100 0.000000
-3.239000 0.000000
-3.223800 0.000000
-3.208700 0.000000
-3.193600 0.000000
-3.178500 0.000000
-3.163300 0.000000
-3.148200 0.000000
-3.133100 0.000000
-3.118000 0.000000
-3.102900 0.000000
-3.087700 0.000000
-3.072600 0.000000
-3.057500 0.000000
-3.042400 0.000000
-3.027200 0.000000
-3.012100 0.000000
-2.997000 0.000000
-2.981900 0.000000
-2.966700 0.000000
-2.951600 0.000000
-2.936500 0.000000
-2.921400 0.000000
-2.906200 0.000000
-2.891100 0.000000
-2.876000 0.000000
-2.860900 0.000000
-2.845700 0.000000
-2.830600 0.000000
-2.815500 0.000000
-2.800400 0.000000
-2.785300 0.000000
-2.770100 0.000000
-2.755000 0.000000
-2.739900 0.000000
-2.724800 0.000000
-2.709600 0.000000
-2.694500 0.000000
-2.679400 0.000000
-2.664300 0.000000
-2.649100 0.000000
-2.634000 0.000000
-2.618900 0.000000
-2.603800 0.000000
-2.588600 0.000000
-2.573500 0.000000
-2.558400 0.000000
-2.543300 0.000000
-2.528100 0.000000
-2.513000 0.000000
-2.497900 0.000000
-2.482800 0.000000
-2.467700 0.000000
-2.452500 0.000000
-2.437400 0.000000
-2.422300 0.000000
-2.407200 0.000000
-2.392000 0.000000
-2.376900 0.000000
-2.361800 0.000000
-2.346700 0.000000
-2.331500 0.000000
-2.316400 0.000000
-2.301300 0.000000
-2.286200 0.000000
-2.271000 0.000000
-2.255900 0.000000
-2.240800 0.000000
-2.225700 0.000000
-2.210500 0.000000
-2.195400 0.000000
-2.180300 0.000000
-2.165200 0.000000
-2.150100 0.000000
-2.134900 0.000000
-2.119800 0.000000
-2.104700 0.000000
-2.089600 0.000000
-2.074400 0.000000
-2.059300 0.000000
-2.044200 0.000000
-2.029100 0.000000
-2.013900 0.000000
-1.998800 0.000000
-1.983700 0.000000
-1.968600 0.000000
-1.953400 0.000000
-1.938300 0.000000
-1.923200 0.000000
-1.908100 0.000000
-1.892900 0.000000
-1.877800 0.000000
-1.862700 0.000000
-1.847600 0.000000
-1.832500 0.000000
-1.817300 0.000000
-1.802200 0.000000
-1.787100 0.000000
-1.772000 0.000000
-1.756800 0.000000
-1.741700 0.000000
-1.726600 0.000000
-1.711500 0.000000
-1.696300 0.000000
-1.681200 0.000000
-1.666100 0.000000
-1.651000 0.000000
-1.635800 0.000000
-1.620700 0.000000
-1.605600 0.000000
-1.590500 0.000000
-1.575300 0.000000
-1.560200 0.000000
-1.545100 0.000000
-1.530000 0.000000
-1.514900 0.000000
-1.499700 0.000000
-1.484600 0.000000
-1.469500 0.000000
-1.454400 0.000000
-1.439200 0.000000
-1.424100 0.000000
-1.409000 0.000000
-1.393900 0.000000
-1.378700 0.000000
-1.363600 0.000000
-1.348500 0.000000
-1.333400 0.000000
-1.318200 0.000000
-1.303100 0.000000
-1.288000 0.000000
-1.272900 0.000000
-1.257800 0.000000
-1.242600 0.000000
-1.227500 0.000000
-1.212400 0.000000
-1.197300 0.000000
-1.182100 0.000000
-1.167000 0.000000
-1.151900 0.000000
-1.136800 0.000000
-1.121600 0.000000
-1.106500 0.000000
-1.091400 0.000000
-1.076300 0.000000
-1.061100 0.000000
-1.046000 0.000000
-1.030900 0.000000
-1.015800 0.000000
-1.000600 0.000000
-0.985500 0.000000
-0.970400 0.000000
-0.955300 0.000000
-0.940200 0.000000
-0.925000 0.000000
-0.909900 0.000000
-0.894800 0.000000
-0.879700 0.000000
-0.864500 0.000000
-0.849400 0.000000
-0.834300 0.000000
-0.819200 0.000000
-0.804000 0.000000
-0.788900 0.000000
-0.773800 0.000000
-0.758700 0.000000
-0.743500 0.000000
-0.728400 0.000000
-0.713300 0.000000
-0.698200 0.000000
-0.683000 0.000000
-0.667900 0.000000
-0.652800 0.000000
-0.637700 0.000000
-0.622600 0.000000
-0.607400 0.000000
-0.592300 0.000000
-0.577200 0.000000
-0.562100 0.000000
-0.546900 0.000000
-0.531800 0.000000
-0.516700 0.000000
-0.501600 0.000000
-0.486400 0.000000
-0.471300 0.000000
-0.456200 0.000000
-0.441100 0.000000
-0.425900 0.000000
-0.410800 0.000000
-0.395700 0.000000
-0.380600 0.000000
-0.365400 0.000000
-0.350300 0.000000
-0.335200 0.000000
-0.320100 0.000000
-0.305000 0.000000
-0.289800 0.000000
-0.274700 0.000000
-0.259600 0.000000
-0.244500 0.000000
-0.229300 0.000000
-0.214200 0.000000
-0.199100 0.000000
-0.184000 0.000000
-0.168800 0.000000
-0.153700 0.000000
-0.138600 0.000000
-0.123500 0.000000
-0.108300 0.000000
-0.093200 0.000000
-0.078100 0.000000
-0.063000 0.000000
-0.047800 0.000000
-0.032700 0.000000
-0.017600 0.000000
-0.002500 0.000000
0.012600 0.000000
0.027800 0.000000
0.042900 0.000000
0.058000 0.000000
0.073100 0.000000
0.088300 0.000000
0.103400 0.000000
0.118500 0.000000
0.133600 0.000000
0.148800 0.000000
0.163900 0.000000
0.179000 0.000000
0.194100 0.000000
0.209300 0.000000
0.224400 0.000000
0.239500 0.000000
0.254600 0.000000
0.269800 0.000000
0.284900 0.000000
0.300000 0.000000
0.315100 0.000000
0.330200 0.000000
0.345400 0.000000
0.360500 0.000000
0.375600 0.000000
0.390700 0.000000
0.405900 0.000000
0.421000 0.000000
0.436100 0.000000
0.451200 0.000000
0.466400 0.000000
0.481500 0.000000
0.496600 0.000000
0.511700 0.000000
0.526900 0.000000
0.542000 0.000000
0.557100 0.000000
0.572200 0.000000
0.587400 0.000000
0.602500 0.000000
0.617600 0.000000
0.632700 0.000000
0.647800 0.000000
0.663000 0.000000
0.678100 0.000000
0.693200 0.016500
0.708300 0.089500
0.723500 0.192300
0.738600 0.380900
0.753700 0.605100
0.768800 0.869800
0.784000 0.994800
0.799100 1.110500
0.814200 1.211800
0.829300 1.247500
0.844500 1.274100
0.859600 1.293500
0.874700 1.318600
0.889800 1.323200
0.905000 1.343200
0.920100 1.378900
0.935200 1.431000
0.950300 1.496300
0.965400 1.565100
0.980600 1.639300
0.995700 1.728000
1.010800 1.832100
1.025900 1.946200
1.041100 2.058900
1.056200 2.167400
1.071300 2.271800
1.086400 2.349900
1.101600 2.429400
1.116700 2.521200
1.131800 2.667500
1.146900 2.842400
1.162100 3.064600
1.177200 3.408600
1.192300 3.376700
1.207400 3.264800
1.222600 3.155300
1.237700 3.081900
1.252800 3.066500
1.267900 3.061700
1.283000 3.065400
1.298200 3.208400
1.313300 3.525300
1.328400 4.281800
1.343500 4.993000
1.358700 5.295600
1.373800 5.187000
1.388900 5.199500
1.404000 5.281400
1.419200 5.457000
1.434300 5.642400
1.449400 5.800600
1.464500 6.026500
1.479700 6.229800
1.494800 6.430700
1.509900 6.416900
1.525000 6.430000
1.540200 6.545200
1.555300 6.711500
1.570400 8.620100
1.585500 7.141300
1.600600 6.491000
1.615800 5.864700
1.630900 5.513800
1.646000 5.342100
1.661100 5.070500
1.676300 4.964800
1.691400 4.906900
1.706500 5.025900
1.721600 5.338200
1.736800 5.330100
1.751900 5.165100
1.767000 5.046600
1.782100 4.965500
1.797300 5.442800
1.812400 5.553900
1.827500 5.606400
1.842600 5.458600
1.857800 5.157800
1.872900 5.432100
1.888000 5.725700
1.903100 5.793200
1.918200 5.826800
1.933400 5.922000
1.948500 5.947100
1.963600 5.891900
1.978700 5.816600
1.993900 5.787500
2.009000 5.512400
2.024100 5.308100
2.039200 5.480500
2.054400 5.884000
2.069500 6.142300
2.084600 6.425700
2.099700 6.982000
2.114900 7.777900
2.130000 8.484400
2.145100 9.017100
2.160200 8.414100
2.175400 8.359300
2.190500 7.821800
2.205600 7.473700
2.220700 6.377000
2.235800 5.828300
2.251000 6.309800
2.266100 6.679900
2.281200 6.582400
2.296300 7.604000
2.311500 9.302200
2.326600 9.278300
2.341700 9.292300
2.356800 9.367200
2.372000 9.601400
2.387100 9.335200
2.402200 9.377800
2.417300 10.349400
2.432500 12.056200
2.447600 13.041300
2.462700 15.408600
2.477800 18.806500
2.493000 11.736000
2.508100 11.682200
2.523200 13.299900
2.538300 12.622700
2.553400 10.574200
2.568600 9.414700
2.583700 7.814000
2.598800 6.877000
2.613900 6.759900
2.629100 7.482700
2.644200 7.938400
2.659300 8.270100
2.674400 8.944700
2.689600 9.537300
2.704700 8.849700
2.719800 7.884500
2.734900 7.699100
2.750100 4.467200
2.765200 3.149700
2.780300 2.014600
2.795400 1.627600
2.810600 2.455300
2.825700 3.541600
2.840800 7.704200
2.855900 8.005200
2.871000 8.531300
2.886200 9.281300
2.901300 11.424800
2.916400 10.933900
2.931500 9.872900
2.946700 9.206100
2.961800 9.403700
2.976900 9.776600
2.992000 9.946300
3.007200 12.629500
3.022300 12.661400
3.037400 12.213100
3.052500 12.455400
3.067700 12.378000
3.082800 11.138300
3.097900 10.384500
3.113000 10.180300
3.128200 9.876500
3.143300 7.525900
3.158400 6.804700
3.173500 6.865800
3.188600 7.499200
3.203800 7.466000
3.218900 7.284000
3.234000 7.049300
3.249100 6.969800
3.264300 7.062900
3.279400 7.258300
3.294500 7.297300
3.309600 7.854700
3.324800 8.394400
3.339900 9.005100
3.355000 9.753300
3.370100 11.184700
3.385300 13.179300
3.400400 12.323000
3.415500 11.198000
3.430600 11.139500
3.445700 12.640200
3.460900 13.064200
3.476000 10.954000
3.491100 10.489400
3.506200 9.486900
3.521400 8.514100
3.536500 6.839200
3.551600 7.477600
3.566700 8.605300
3.581900 9.936600
3.597000 10.187700
3.612100 9.844500
3.627200 9.532000
3.642400 9.513300
3.657500 9.707500
3.672600 9.732700
3.687700 9.968600
3.702900 10.669000
3.718000 12.072500
3.733100 11.093400
3.748200 10.396700
3.763300 9.724100
3.778500 9.871100
3.793600 10.645500
3.808700 10.067700
3.823800 10.516400
3.839000 9.802700
3.854100 9.317200
3.869200 9.051700
3.884300 9.192000
3.899500 9.120700
3.914600 8.910900
3.929700 8.063800
3.944800 7.803200
3.960000 7.681000
3.975100 7.889600
3.990200 8.688100
4.005300 10.045100
4.020500 11.759900
4.035600 12.953300
4.050700 9.704300
4.065800 8.340000
4.080900 7.806800
4.096100 7.284500
4.111200 6.535700
4.126300 5.988000
4.141400 5.564700
4.156600 5.313000
4.171700 5.387700
4.186800 5.544700
4.201900 5.779100
4.217100 5.885900
4.232200 5.785000
4.247300 5.690800
4.262400 5.556900
4.277600 5.369500
4.292700 5.210600
4.307800 5.004100
4.322900 4.794400
4.338100 4.638100
4.353200 4.265400
4.368300 3.971300
4.383400 3.863500
4.398500 3.892900
4.413700 3.991400
4.428800 4.022500
4.443900 3.997400
4.459000 4.031900
4.474200 4.086000
4.489300 4.157400
4.504400 4.269500
4.519500 4.117900
4.534700 3.991000
4.549800 4.035200
4.564900 4.068300
4.580000 4.185100
4.595200 4.250000
4.610300 4.161600
4.625400 3.964400
4.640500 3.955800
4.655700 3.998100
4.670800 4.137400
4.685900 4.349000
4.701000 4.717500
4.716100 4.982900
4.731300 5.243800
4.746400 5.021900
4.761500 5.008600
4.776600 4.895700
4.791800 4.703100
4.806900 4.568300
4.822000 4.420200
4.837100 4.241200
4.852300 4.043400
4.867400 3.929100
4.882500 3.881300
4.897600 3.864000
4.912800 3.879500
4.927900 3.940400
4.943000 4.102400
4.958100 4.226700
4.973300 4.137100
4.988400 4.043500
5.003500 3.968400
5.018600 3.908700
5.033700 4.124500
5.048900 4.083900
5.064000 4.015900
5.079100 3.859200
5.094200 3.746900
5.109400 3.636100
5.124500 3.533400
5.139600 3.454300
5.154700 3.399000
5.169900 3.358000
5.185000 3.247900
5.200100 3.217800
5.215200 3.247200
5.230400 3.297600
5.245500 3.383800
5.260600 3.435400
5.275700 3.476800
5.290900 3.509500
5.306000 3.554900
5.321100 3.605300
5.336200 3.651800
5.351300 3.681700
5.366500 3.706000
5.381600 3.740000
5.396700 3.803600
5.411800 3.915500
5.427000 4.026100
5.442100 4.008100
5.457200 3.926700
5.472300 3.890500
5.487500 3.839600
5.502600 3.795100
5.517700 3.747000
5.532800 3.711400
5.548000 3.656900
5.563100 3.568100
5.578200 3.531000
5.593300 3.511700
5.608500 3.473600
5.623600 3.424600
5.638700 3.389300
5.653800 3.340300
5.668900 3.280900
5.684100 3.222900
5.699200 3.167100
5.714300 3.117200
5.729400 3.075100
5.744600 3.060000
5.759700 3.107900
5.774800 3.165000
5.789900 3.274100
5.805100 3.256000
5.820200 3.189200
5.835300 3.056100
5.850400 3.026400
5.865600 2.985500
5.880700 2.916200
5.895800 2.837100
5.910900 2.760400
5.926100 2.689200
5.941200 2.620400
5.956300 2.554500
5.971400 2.494100
5.986500 2.439600
6.001700 2.387500
6.016800 2.339200
6.031900 2.302800
6.047000 2.271600
6.062200 2.236300
6.077300 2.206500
6.092400 2.180000
6.107500 2.154800
6.122700 2.130400
6.137800 2.114700
6.152900 2.138000
6.168000 2.158100
6.183200 2.193800
6.198300 2.243000
6.213400 2.296200
6.228500 2.353400
6.243700 2.415600
6.258800 2.415700
6.273900 2.469100
6.289000 2.551800
6.304100 2.580300
6.319300 2.595500
6.334400 2.599300
6.349500 2.601100
6.364600 2.601100
6.379800 2.619200
6.394900 2.713000
6.410000 2.797300
6.425100 2.855300
6.440300 2.863500
6.455400 2.835700
6.470500 2.816600
6.485600 2.805700
6.500800 2.799800
6.515900 2.796400
6.531000 2.774700
6.546100 2.751600
6.561300 2.742000
6.576400 2.744800
6.591500 2.758700
6.606600 2.783800
6.621700 2.807000
6.636900 2.891600
6.652000 3.302700
6.667100 3.296300
6.682200 3.405600
6.697400 3.400700
6.712500 3.433400
6.727600 3.315000
6.742700 3.383700
6.757900 3.393400
6.773000 3.386400
6.788100 3.372300
6.803200 3.350800
6.818400 3.324500
6.833500 3.294400
6.848600 3.217500
6.863700 3.113800
6.878900 3.033200
6.894000 2.954500
6.909100 2.943900
6.924200 2.959600
6.939300 3.100700
6.954500 3.045700
6.969600 2.979100
6.984700 2.850300
6.999800 2.648600
7.015000 2.527500
7.030100 2.463400
7.045200 2.436400
7.060300 2.449400
7.075500 2.488200
7.090600 2.526700
7.105700 2.538200
7.120800 2.572100
7.136000 2.586800
7.151100 2.629200
7.166200 2.659500
7.181300 2.669000
7.196500 2.681900
7.211600 2.708100
7.226700 2.743600
7.241800 2.792400
7.256900 2.844400
7.272100 2.993300
7.287200 3.113900
7.302300 3.054300
7.317400 3.049100
7.332600 3.136300
7.347700 3.202700
7.362800 3.279500
7.377900 3.372200
7.393100 3.419600
7.408200 3.422500
7.423300 3.398800
7.438400 3.367400
7.453600 3.334700
7.468700 3.310800
7.483800 3.475200
7.498900 3.401100
7.514100 3.371300
7.529200 3.338500
7.544300 3.346500
7.559400 3.381100
7.574500 3.328100
7.589700 3.228400
7.604800 3.249100
7.619900 3.333100
7.635000 3.395000
7.650200 3.478400
7.665300 3.662100
7.680400 3.446000
7.695500 3.450500
7.710700 3.518500
7.725800 3.512000
7.740900 3.460400
7.756000 3.405900
7.771200 3.355200
7.786300 3.330100
7.801400 3.309300
7.816500 3.316000
7.831700 3.396600
7.846800 3.542800
7.861900 3.827100
7.877000 4.117400
7.892100 3.984400
7.907300 3.970100
7.922400 3.851000
7.937500 3.817300
7.952600 3.796800
7.967800 3.755800
7.982900 3.739700
