set title 'mp-1399 - Density of States'
set xlabel 'Energy (eV)'
set ylabel 'DOS (states/eV)'
set grid
set xrange [-10:10]
set yrange [0:26.557]
set xzeroaxis lt -1
set terminal png size 800,600
set output 'mp-1399_dos_gnuplot.png'
plot '-' using 1:2 with lines title 'DOS'
-4.874000 0.000000
-4.862800 0.000000
-4.851700 0.000000
-4.840500 0.000000
-4.829300 0.000000
-4.818100 0.000000
-4.806900 0.000000
-4.795700 0.000000
-4.784600 0.000000
-4.773400 0.000000
-4.762200 0.000000
-4.751000 0.000000
-4.739800 0.000000
-4.728600 0.000000
-4.717500 0.000000
-4.706300 0.000000
-4.695100 0.000000
-4.683900 0.000000
-4.672700 0.000000
-4.661500 0.000000
-4.650400 0.000000
-4.639200 0.000000
-4.628000 0.000000
-4.616800 0.000000
-4.605600 0.000000
-4.594500 0.000000
-4.583300 0.000000
-4.572100 0.000000
-4.560900 0.000000
-4.549700 0.000000
-4.538500 0.000000
-4.527400 0.000000
-4.516200 0.000000
-4.505000 0.000000
-4.493800 0.000000
-4.482600 0.000000
-4.471400 0.000000
-4.460300 0.000000
-4.449100 0.000000
-4.437900 0.000000
-4.426700 0.000000
-4.415500 0.000000
-4.404300 0.000000
-4.393200 0.000000
-4.382000 0.000000
-4.370800 0.000000
-4.359600 0.000000
-4.348400 0.000000
-4.337200 0.000000
-4.326100 0.000000
-4.314900 0.000000
-4.303700 0.000000
-4.292500 0.000000
-4.281300 0.000000
-4.270100 0.000000
-4.259000 0.000000
-4.247800 0.000000
-4.236600 0.000000
-4.225400 0.000000
-4.214200 0.000000
-4.203000 0.000000
-4.191900 0.000000
-4.180700 0.000000
-4.169500 0.000000
-4.158300 0.000000
-4.147100 0.000000
-4.135900 0.000000
-4.124800 0.000000
-4.113600 0.000000
-4.102400 0.000000
-4.091200 0.000000
-4.080000 0.000000
-4.068800 0.000000
-4.057700 0.000000
-4.046500 0.000000
-4.035300 0.000000
-4.024100 0.000000
-4.012900 0.000000
-4.001700 0.000000
-3.990600 0.000000
-3.979400 0.000000
-3.968200 0.000000
-3.957000 0.000000
-3.945800 0.000000
-3.934700 0.000000
-3.923500 0.000000
-3.912300 0.000000
-3.901100 0.000000
-3.889900 0.000000
-3.878700 0.000000
-3.867600 0.000000
-3.856400 0.000100
-3.845200 0.007500
-3.834000 0.027700
-3.822800 0.060600
-3.811600 0.105900
-3.800500 0.154300
-3.789300 0.191100
-3.778100 0.215500
-3.766900 0.227600
-3.755700 0.231300
-3.744500 0.236800
-3.733400 0.246100
-3.722200 0.259300
-3.711000 0.276300
-3.699800 0.294700
-3.688600 0.313700
-3.677400 0.332600
-3.666300 0.350300
-3.655100 0.366700
-3.643900 0.380000
-3.632700 0.389000
-3.621500 0.395500
-3.610300 0.400100
-3.599200 0.404900
-3.588000 0.411200
-3.576800 0.419200
-3.565600 0.428400
-3.554400 0.438200
-3.543200 0.448200
-3.532100 0.458200
-3.520900 0.468200
-3.509700 0.478000
-3.498500 0.487800
-3.487300 0.497500
-3.476100 0.507300
-3.465000 0.517300
-3.453800 0.527100
-3.442600 0.536700
-3.431400 0.546000
-3.420200 0.555000
-3.409000 0.564200
-3.397900 0.573100
-3.386700 0.581100
-3.375500 0.588100
-3.364300 0.594300
-3.353100 0.600100
-3.341900 0.606300
-3.330800 0.612800
-3.319600 0.619700
-3.308400 0.626800
-3.297200 0.633900
-3.286000 0.640900
-3.274800 0.647900
-3.263700 0.655000
-3.252500 0.662200
-3.241300 0.669700
-3.230100 0.677300
-3.218900 0.685200
-3.207800 0.693300
-3.196600 0.701600
-3.185400 0.710000
-3.174200 0.718300
-3.163000 0.726400
-3.151800 0.734100
-3.140700 0.741500
-3.129500 0.748800
-3.118300 0.756300
-3.107100 0.763900
-3.095900 0.771700
-3.084700 0.793600
-3.073600 0.825700
-3.062400 0.862500
-3.051200 0.921800
-3.040000 0.960900
-3.028800 0.988000
-3.017600 0.989900
-3.006500 0.973900
-2.995300 0.953500
-2.984100 0.939000
-2.972900 0.933400
-2.961700 0.934700
-2.950500 0.938700
-2.939400 0.942300
-2.928200 0.945700
-2.917000 0.946200
-2.905800 0.943900
-2.894600 0.937300
-2.883400 0.928600
-2.872300 0.919300
-2.861100 0.911000
-2.849900 0.904500
-2.838700 0.899600
-2.827500 0.895900
-2.816300 0.893300
-2.805200 0.891000
-2.794000 0.888500
-2.782800 0.885700
-2.771600 0.882600
-2.760400 0.879500
-2.749200 0.876700
-2.738100 0.874300
-2.726900 0.872200
-2.715700 0.869000
-2.704500 0.864500
-2.693300 0.859900
-2.682100 0.855200
-2.671000 0.887900
-2.659800 0.922600
-2.648600 0.950600
-2.637400 0.967800
-2.626200 0.959300
-2.615000 0.952100
-2.603900 0.981100
-2.592700 1.025100
-2.581500 1.061700
-2.570300 1.086000
-2.559100 1.084200
-2.548000 1.086500
-2.536800 1.093100
-2.525600 1.102400
-2.514400 1.111500
-2.503200 1.119400
-2.492000 1.128400
-2.480900 1.138100
-2.469700 1.148300
-2.458500 1.156400
-2.447300 1.160700
-2.436100 1.165800
-2.424900 1.172300
-2.413800 1.179700
-2.402600 1.188000
-2.391400 1.196700
-2.380200 1.219000
-2.369000 1.242100
-2.357800 1.262100
-2.346700 1.272800
-2.335500 1.277300
-2.324300 1.281100
-2.313100 1.281800
-2.301900 1.281900
-2.290700 1.283100
-2.279600 1.287700
-2.268400 1.296400
-2.257200 1.310500
-2.246000 1.325100
-2.234800 1.335800
-2.223600 1.344800
-2.212500 1.352600
-2.201300 1.360800
-2.190100 1.369600
-2.178900 1.378900
-2.167700 1.388700
-2.156500 1.399300
-2.145400 1.410100
-2.134200 1.420800
-2.123000 1.431400
-2.111800 1.442000
-2.100600 1.452500
-2.089400 1.463300
-2.078300 1.475100
-2.067100 1.488600
-2.055900 1.504100
-2.044700 1.519800
-2.033500 1.537200
-2.022300 1.556000
-2.011200 1.576700
-2.000000 1.596700
-1.988800 1.614000
-1.977600 1.627900
-1.966400 1.640000
-1.955200 1.651700
-1.944100 1.663500
-1.932900 1.673400
-1.921700 1.663000
-1.910500 1.652200
-1.899300 1.648400
-1.888200 1.654200
-1.877000 1.660100
-1.865800 1.666300
-1.854600 1.673400
-1.843400 1.681500
-1.832200 1.690500
-1.821100 1.700300
-1.809900 1.704900
-1.798700 1.706500
-1.787500 1.708400
-1.776300 1.711500
-1.765100 1.722200
-1.754000 1.734800
-1.742800 1.749600
-1.731600 1.765900
-1.720400 1.784400
-1.709200 1.804900
-1.698000 1.823600
-1.686900 1.837700
-1.675700 1.847500
-1.664500 1.856700
-1.653300 1.869600
-1.642100 1.888200
-1.630900 1.909800
-1.619800 1.944200
-1.608600 1.981500
-1.597400 2.018500
-1.586200 2.043600
-1.575000 2.060900
-1.563800 2.073400
-1.552700 2.083400
-1.541500 2.097500
-1.530300 2.115300
-1.519100 2.132500
-1.507900 2.148600
-1.496700 2.162800
-1.485600 2.176100
-1.474400 2.189800
-1.463200 2.203400
-1.452000 2.228200
-1.440800 2.257300
-1.429600 2.291300
-1.418500 2.323800
-1.407300 2.365000
-1.396100 2.419200
-1.384900 2.473200
-1.373700 2.521200
-1.362500 2.553900
-1.351400 2.580600
-1.340200 2.607200
-1.329000 2.625900
-1.317800 2.642400
-1.306600 2.663800
-1.295400 2.693500
-1.284300 2.729700
-1.273100 2.767600
-1.261900 2.806500
-1.250700 2.841400
-1.239500 3.052700
-1.228400 3.081500
-1.217200 3.077800
-1.206000 3.038200
-1.194800 3.047900
-1.183600 3.062200
-1.172400 3.081800
-1.161300 3.109700
-1.150100 3.145900
-1.138900 3.189800
-1.127700 3.237100
-1.116500 3.283600
-1.105300 3.355900
-1.094200 3.447300
-1.083000 3.547000
-1.071800 3.636600
-1.060600 3.712000
-1.049400 3.739500
-1.038200 3.731500
-1.027100 3.716600
-1.015900 3.721500
-1.004700 3.738600
-0.993500 3.746900
-0.982300 3.749400
-0.971100 3.756300
-0.960000 3.767100
-0.948800 3.772500
-0.937600 3.768700
-0.926400 3.762500
-0.915200 3.756300
-0.904000 3.756800
-0.892900 3.770800
-0.881700 3.793500
-0.870500 3.827000
-0.859300 3.866500
-0.848100 3.890200
-0.836900 3.898900
-0.825800 3.916100
-0.814600 3.992700
-0.803400 4.094100
-0.792200 3.909800
-0.781000 3.865000
-0.769800 3.831500
-0.758700 3.808700
-0.747500 3.815100
-0.736300 3.839200
-0.725100 3.869800
-0.713900 3.937600
-0.702700 4.037300
-0.691600 4.122100
-0.680400 4.209900
-0.669200 4.305900
-0.658000 4.352100
-0.646800 4.399700
-0.635600 4.465400
-0.624500 4.538000
-0.613300 4.616800
-0.602100 4.861600
-0.590900 5.069500
-0.579700 5.280800
-0.568600 5.579500
-0.557400 5.972600
-0.546200 6.287900
-0.535000 6.457400
-0.523800 6.621000
-0.512600 6.731500
-0.501500 6.995200
-0.490300 8.246200
-0.479100 8.910500
-0.467900 9.300900
-0.456700 9.639500
-0.445500 9.579300
-0.434400 8.875000
-0.423200 7.916800
-0.412000 7.519600
-0.400800 7.243300
-0.389600 6.879200
-0.378400 6.503300
-0.367300 6.133600
-0.356100 5.641900
-0.344900 5.256600
-0.333700 4.960000
-0.322500 4.705200
-0.311300 4.582800
-0.300200 4.709900
-0.289000 4.246500
-0.277800 3.756800
-0.266600 3.566800
-0.255400 3.277500
-0.244200 2.927200
-0.233100 2.783000
-0.221900 2.654100
-0.210700 2.581400
-0.199500 2.437400
-0.188300 2.220300
-0.177100 1.944400
-0.166000 1.734900
-0.154800 1.712700
-0.143600 1.735900
-0.132400 1.790600
-0.121200 1.900900
-0.110000 2.033300
-0.098900 2.185300
-0.087700 2.417100
-0.076500 2.707900
-0.065300 3.031300
-0.054100 3.313600
-0.042900 3.608000
-0.031800 3.976100
-0.020600 4.718400
-0.009400 5.050600
0.001800 5.565300
0.013000 6.145800
0.024200 6.850500
0.035300 8.089600
0.046500 9.407200
0.057700 10.133600
0.068900 10.153900
0.080100 10.275800
0.091200 9.994100
0.102400 9.968200
0.113600 10.467900
0.124800 11.669100
0.136000 11.177700
0.147200 10.767300
0.158300 10.564000
0.169500 10.621300
0.180700 10.543100
0.191900 10.788600
0.203100 10.672600
0.214300 10.469800
0.225400 10.336900
0.236600 10.146500
0.247800 9.503000
0.259000 8.639300
0.270200 8.349800
0.281400 8.573500
0.292500 9.224100
0.303700 9.287200
0.314900 8.587900
0.326100 8.117700
0.337300 8.820200
0.348500 9.281200
0.359600 9.679900
0.370800 9.882900
0.382000 9.956300
0.393200 10.285200
0.404400 10.029900
0.415600 10.188500
0.426700 9.623500
0.437900 9.580900
0.449100 10.752800
0.460300 11.347300
0.471500 12.385500
0.482700 13.477300
0.493800 15.718700
0.505000 19.903500
0.516200 21.965100
0.527400 22.291600
0.538600 19.079100
0.549800 18.177600
0.560900 17.808200
0.572100 18.370300
0.583300 17.519500
0.594500 17.580600
0.605700 20.264900
0.616900 21.796500
0.628000 20.224700
0.639200 17.722400
0.650400 21.608100
0.661600 23.282500
0.672800 23.587400
0.684000 21.579700
0.695100 19.830400
0.706300 20.428900
0.717500 18.973600
0.728700 22.333200
0.739900 24.142400
0.751000 21.690100
0.762200 18.956000
0.773400 16.478400
0.784600 14.446600
0.795800 13.688400
0.807000 13.779600
0.818100 14.576200
0.829300 13.670700
0.840500 14.412000
0.851700 14.917100
0.862900 13.542600
0.874100 13.386600
0.885200 12.399300
0.896400 12.388500
0.907600 13.020300
0.918800 13.525400
0.930000 13.176800
0.941200 13.340300
0.952300 15.070700
0.963500 16.589800
0.974700 16.744000
0.985900 15.720700
0.997100 12.730300
1.008300 12.919600
1.019400 13.351400
1.030600 13.547600
1.041800 14.815800
1.053000 15.371700
1.064200 14.247000
1.075400 13.904500
1.086500 13.452400
1.097700 12.124000
1.108900 11.742500
1.120100 12.740300
1.131300 14.318000
1.142500 16.126600
1.153600 15.499200
1.164800 14.398200
1.176000 13.947400
1.187200 14.356400
1.198400 14.647300
1.209600 14.548300
1.220700 14.963000
1.231900 15.032500
1.243100 15.329200
1.254300 15.886100
1.265500 16.717800
1.276700 17.419200
1.287800 17.369600
1.299000 18.056700
1.310200 19.620200
1.321400 16.071900
1.332600 13.344400
1.343800 11.777900
1.354900 11.693400
1.366100 13.799600
1.377300 16.899800
1.388500 18.979800
1.399700 20.241100
1.410800 20.295700
1.422000 19.798300
1.433200 18.447700
1.444400 18.025200
1.455600 17.255100
1.466800 16.892100
1.477900 16.407300
1.489100 15.920600
1.500300 17.936400
1.511500 17.858900
1.522700 16.526300
1.533900 17.337600
1.545000 18.271300
1.556200 19.915400
1.567400 20.053200
1.578600 19.427900
1.589800 19.247600
1.601000 17.494500
1.612100 15.576400
1.623300 13.926200
1.634500 13.121100
1.645700 13.315000
1.656900 13.405300
1.668100 13.771800
1.679200 14.867400
1.690400 15.727100
1.701600 17.300900
1.712800 16.721400
1.724000 15.407500
1.735200 15.167200
1.746300 15.108400
1.757500 15.606500
1.768700 15.613700
1.779900 16.216000
1.791100 16.402100
1.802300 16.017200
1.813400 14.486800
1.824600 15.702200
1.835800 17.198800
1.847000 15.312100
1.858200 14.585200
1.869400 14.561400
1.880500 14.099400
1.891700 13.486300
1.902900 13.145900
1.914100 13.549300
1.925300 16.101800
1.936500 15.006600
1.947600 13.477800
1.958800 12.598800
1.970000 12.237000
1.981200 11.557000
1.992400 11.131400
2.003600 11.137900
2.014700 12.189800
2.025900 13.542800
2.037100 13.505300
2.048300 14.499900
2.059500 13.288000
2.070600 12.423800
2.081800 12.282600
2.093000 11.979000
2.104200 11.866900
2.115400 11.643500
2.126600 10.977700
2.137700 9.975300
2.148900 9.673400
2.160100 9.624600
2.171300 9.939800
2.182500 10.097900
2.193700 9.999400
2.204800 10.153000
2.216000 10.301800
2.227200 10.914900
2.238400 11.174700
2.249600 11.543500
2.260800 14.034800
2.271900 16.592700
2.283100 13.960700
2.294300 12.165900
2.305500 11.410500
2.316700 10.651300
2.327900 11.994200
2.339000 14.256200
2.350200 13.439600
2.361400 15.062700
2.372600 15.884700
2.383800 12.846900
2.395000 12.006500
2.406100 13.463500
2.417300 12.574700
2.428500 11.685500
2.439700 11.139600
2.450900 10.977600
2.462100 10.930300
2.473200 10.726800
2.484400 10.124200
2.495600 9.541100
2.506800 9.180900
2.518000 8.970600
2.529200 8.786800
2.540300 8.858500
2.551500 8.840200
2.562700 8.028700
2.573900 7.245200
2.585100 6.853800
2.596300 6.321300
2.607400 6.039900
2.618600 5.809400
2.629800 5.659000
2.641000 5.518400
2.652200 5.409200
2.663400 5.337300
2.674500 5.273300
2.685700 5.171800
2.696900 5.054800
2.708100 4.935300
2.719300 4.808300
2.730400 4.665700
2.741600 4.497700
2.752800 4.346000
2.764000 4.218800
2.775200 4.108300
2.786400 4.037800
2.797500 3.980300
2.808700 3.918800
2.819900 3.850200
2.831100 3.788600
2.842300 3.732900
2.853500 3.685200
2.864600 3.639400
2.875800 3.591500
2.887000 3.551700
2.898200 3.526300
2.909400 3.526400
2.920600 3.545100
2.931700 3.566500
2.942900 3.575000
2.954100 3.580300
2.965300 3.589400
2.976500 3.602100
2.987700 3.587600
2.998800 3.567500
3.010000 3.585500
3.021200 3.577800
3.032400 3.502600
3.043600 3.415500
3.054800 3.340600
3.065900 3.275300
3.077100 3.223200
3.088300 3.164800
3.099500 3.094700
3.110700 3.023700
3.121900 2.932100
3.133000 2.819600
3.144200 2.660300
3.155400 2.603700
3.166600 2.553200
3.177800 2.509600
3.189000 2.473900
3.200100 2.446300
3.211300 2.436000
3.222500 2.419800
3.233700 2.408400
3.244900 2.429900
3.256100 2.477500
3.267200 2.770300
3.278400 2.935300
3.289600 2.967800
3.300800 3.068200
3.312000 3.163000
3.323200 3.233900
3.334300 3.286800
3.345500 3.300600
3.356700 3.237900
3.367900 3.163300
3.379100 3.033100
3.390200 2.970500
3.401400 2.942200
3.412600 2.933400
3.423800 3.031700
3.435000 3.075200
3.446200 3.102700
3.457300 3.109500
3.468500 3.134800
3.479700 2.959600
3.490900 2.845600
3.502100 2.904000
3.513300 2.882200
3.524400 2.805600
3.535600 2.719800
3.546800 2.634900
3.558000 2.575600
3.569200 2.521800
3.580400 2.473100
3.591500 2.320600
3.602700 2.270800
3.613900 2.250000
3.625100 2.229900
3.636300 2.238600
3.647500 2.259300
3.658600 2.290500
3.669800 2.311000
3.681000 2.326100
3.692200 2.349400
3.703400 2.376600
3.714600 2.398500
3.725700 2.425400
3.736900 2.423000
3.748100 2.425100
3.759300 2.419200
3.770500 2.404700
3.781700 2.391800
3.792800 2.408600
3.804000 2.412800
3.815200 2.407200
3.826400 2.407100
3.837600 2.426000
3.848800 2.472900
3.859900 2.515800
3.871100 2.535700
3.882300 2.510100
3.893500 2.469900
3.904700 2.464200
3.915900 2.464600
3.927000 2.465600
3.938200 2.475000
3.949400 2.513100
3.960600 2.491500
3.971800 2.490400
3.983000 2.492000
3.994100 2.501000
4.005300 2.518100
4.016500 2.539800
4.027700 2.560200
4.038900 2.586800
4.050000 2.620100
4.061200 2.658300
4.072400 2.701100
4.083600 2.750100
4.094800 2.888900
4.106000 2.858500
4.117100 2.877600
4.128300 2.880400
4.139500 2.891300
4.150700 2.910400
4.161900 2.926800
4.173100 2.941700
4.184200 2.953700
4.195400 2.966300
4.206600 2.979900
4.217800 2.982900
4.229000 2.980100
4.240200 2.971400
4.251300 2.956500
4.262500 2.934300
4.273700 2.909200
4.284900 2.885500
4.296100 2.863900
4.307300 2.845600
4.318400 2.830500
4.329600 2.822400
4.340800 2.817400
4.352000 2.814100
4.363200 2.811400
4.374400 2.809200
4.385500 2.806900
4.396700 2.800500
4.407900 2.814100
4.419100 2.834500
4.430300 2.853300
4.441500 2.846900
4.452600 2.844100
4.463800 2.843500
4.475000 2.843200
4.486200 2.841900
4.497400 2.837800
4.508600 2.823700
4.519700 2.803600
4.530900 2.782500
4.542100 2.758900
4.553300 2.742800
4.564500 2.734200
4.575700 2.723200
4.586800 2.720400
4.598000 2.717000
4.609200 2.704700
4.620400 2.677500
4.631600 2.639700
4.642800 2.601100
4.653900 2.576200
4.665100 2.565600
4.676300 2.571600
4.687500 2.588300
4.698700 2.605200
4.709800 2.622900
4.721000 2.641500
4.732200 2.659600
4.743400 2.680900
4.754600 2.705500
4.765800 2.730300
4.776900 2.758700
4.788100 2.794100
4.799300 2.836300
4.810500 2.892700
4.821700 2.944300
4.832900 2.981200
4.844000 3.015700
4.855200 3.052600
4.866400 3.092100
4.877600 3.143600
4.888800 3.206300
4.900000 3.266200
4.911100 3.295100
4.922300 3.311800
4.933500 3.329800
4.944700 3.264800
4.955900 3.193900
4.967100 3.163800
4.978200 3.141100
4.989400 3.113600
5.000600 3.082000
5.011800 3.047300
5.023000 3.004700
5.034200 2.964500
5.045300 2.936200
5.056500 2.912200
5.067700 2.897100
5.078900 2.888800
5.090100 2.883400
5.101300 2.877400
5.112400 2.874100
5.123600 2.876500
5.134800 2.882100
5.146000 2.894200
5.157200 2.914400
5.168400 2.915900
5.179500 2.941300
5.190700 2.976900
5.201900 3.020200
5.213100 3.063500
5.224300 3.084500
5.235500 3.103400
5.246600 3.121200
5.257800 3.137800
5.269000 3.146100
5.280200 3.145400
5.291400 3.138100
5.302600 3.144400
5.313700 3.146300
5.324900 3.136400
5.336100 3.113900
5.347300 3.084500
5.358500 3.059900
5.369600 3.041500
5.380800 3.026300
5.392000 3.003600
5.403200 2.974800
5.414400 2.941700
5.425600 2.907100
5.436700 2.877600
5.447900 2.852800
5.459100 2.839000
5.470300 2.842700
5.481500 2.835400
5.492700 2.776200
5.503800 2.710500
5.515000 2.657900
5.526200 2.605200
5.537400 2.517300
5.548600 2.458200
5.559800 2.412800
5.570900 2.375200
5.582100 2.342700
5.593300 2.315700
5.604500 2.293800
5.615700 2.277700
5.626900 2.268600
5.638000 2.271800
5.649200 2.278300
5.660400 2.287500
5.671600 2.300800
5.682800 2.315000
5.694000 2.343400
5.705100 2.389600
5.716300 2.433900
5.727500 2.482800
5.738700 2.528800
5.749900 2.569700
5.761100 2.616600
5.772200 2.654000
5.783400 2.649300
5.794600 2.626000
5.805800 2.603400
5.817000 2.603500
5.828200 2.664200
5.839300 2.688500
5.850500 2.691600
5.861700 2.736400
5.872900 2.701200
5.884100 2.681600
5.895300 2.656200
5.906400 2.622400
5.917600 2.581600
5.928800 2.532800
5.940000 2.480500
5.951200 2.430200
5.962400 2.389900
5.973500 2.350800
5.984700 2.318100
5.995900 2.283500
6.007100 2.255500
6.018300 2.233400
6.029400 2.209000
6.040600 2.193000
6.051800 2.171900
6.063000 2.098700
6.074200 2.050300
6.085400 2.033600
6.096500 2.034100
6.107700 2.051100
6.118900 2.076500
6.130100 2.105600
6.141300 2.134000
6.152500 2.155600
6.163600 2.173900
6.174800 2.186600
6.186000 2.200100
6.197200 2.212500
6.208400 2.199300
6.219600 2.183100
6.230700 2.163300
6.241900 2.139400
6.253100 2.115400
6.264300 2.114000
6.275500 2.109800
6.286700 2.103000
6.297800 2.096500
6.309000 2.088600
6.320200 2.077800
6.331400 2.065100
6.342600 2.050400
6.353800 2.041700
6.364900 2.035900
6.376100 2.031800
6.387300 2.027300
6.398500 2.021900
6.409700 2.015900
6.420900 2.066100
6.432000 2.048600
6.443200 2.061500
6.454400 2.071700
6.465600 2.080000
6.476800 2.091000
6.488000 2.098600
6.499100 2.089400
6.510300 2.085300
6.521500 2.087400
6.532700 2.088400
6.543900 2.081000
6.555100 2.070000
6.566200 2.063700
6.577400 2.061800
6.588600 2.076800
6.599800 2.080900
6.611000 2.084500
6.622200 2.094000
6.633300 2.099000
6.644500 2.081700
6.655700 2.055800
6.666900 2.056100
6.678100 2.070000
6.689200 2.085400
6.700400 2.100800
6.711600 2.114000
6.722800 2.124200
6.734000 2.114500
6.745200 2.097400
6.756300 2.078900
6.767500 2.063700
6.778700 2.050100
6.789900 2.031100
6.801100 2.012400
6.812300 1.998100
6.823400 1.982500
6.834600 1.956000
6.845800 1.934200
6.857000 1.913200
6.868200 1.894900
6.879400 1.878700
6.890500 1.868600
6.901700 1.866500
6.912900 1.866500
6.924100 1.865800
6.935300 1.860900
6.946500 1.857000
6.957600 1.864900
6.968800 1.851300
