set title 'mp-8101 - Density of States'
set xlabel 'Energy (eV)'
set ylabel 'DOS (states/eV)'
set grid
set xrange [-10:10]
set yrange [0:5.360]
set xzeroaxis lt -1
set terminal png size 800,600
set output 'mp-8101_dos_gnuplot.png'
plot '-' using 1:2 with lines title 'DOS'
-39.584800 0.000000
-39.511200 0.000000
-39.437600 0.000000
-39.364000 0.000000
-39.290300 0.000000
-39.216700 0.000000
-39.143100 0.000000
-39.069500 0.000000
-38.995800 0.000000
-38.922200 0.000000
-38.848600 0.000000
-38.774900 0.000000
-38.701300 0.000000
-38.627700 0.000000
-38.554100 0.000000
-38.480400 0.000000
-38.406800 0.000000
-38.333200 0.000000
-38.259600 0.000000
-38.185900 0.000000
-38.112300 0.000000
-38.038700 0.000000
-37.965000 0.000000
-37.891400 0.000000
-37.817800 0.000000
-37.744200 0.000000
-37.670500 0.000000
-37.596900 0.000000
-37.523300 0.000000
-37.449700 0.000000
-37.376000 0.000000
-37.302400 0.000000
-37.228800 0.000000
-37.155200 0.000000
-37.081500 0.000000
-37.007900 0.000000
-36.934300 0.000000
-36.860600 0.000000
-36.787000 0.000000
-36.713400 0.000000
-36.639800 0.000000
-36.566100 0.000000
-36.492500 0.000000
-36.418900 0.000000
-36.345300 0.000000
-36.271600 0.000000
-36.198000 0.000000
-36.124400 0.000000
-36.050700 0.000000
-35.977100 0.000000
-35.903500 0.000000
-35.829900 0.000000
-35.756200 0.000000
-35.682600 0.000000
-35.609000 0.000000
-35.535400 0.000000
-35.461700 0.000000
-35.388100 0.000000
-35.314500 0.000000
-35.240900 0.000000
-35.167200 0.000000
-35.093600 0.000000
-35.020000 0.000000
-34.946300 0.000000
-34.872700 0.000000
-34.799100 0.000000
-34.725500 0.000000
-34.651800 0.000000
-34.578200 0.000000
-34.504600 0.000000
-34.431000 0.000000
-34.357300 0.000000
-34.283700 0.000000
-34.210100 0.000000
-34.136400 0.000000
-34.062800 0.000000
-33.989200 0.000000
-33.915600 0.000000
-33.841900 0.000000
-33.768300 0.000000
-33.694700 0.000000
-33.621100 0.000000
-33.547400 0.000000
-33.473800 0.000000
-33.400200 0.000000
-33.326600 0.000000
-33.252900 0.000000
-33.179300 0.000000
-33.105700 0.000000
-33.032000 0.000000
-32.958400 0.000000
-32.884800 5.579800
-32.811200 8.480500
-32.737500 12.615800
-32.663900 19.828400
-32.590300 6.720700
-32.516700 35.551800
-32.443000 0.000000
-32.369400 0.000000
-32.295800 0.000000
-32.222100 0.000000
-32.148500 0.000000
-32.074900 0.000000
-32.001300 0.000000
-31.927600 0.000000
-31.854000 0.000000
-31.780400 0.000000
-31.706800 0.000000
-31.633100 0.000000
-31.559500 0.000000
-31.485900 0.000000
-31.412300 0.000000
-31.338600 0.000000
-31.265000 0.000000
-31.191400 0.000000
-31.117700 0.000000
-31.044100 0.000000
-30.970500 0.000000
-30.896900 0.000000
-30.823200 0.000000
-30.749600 0.000000
-30.676000 0.000000
-30.602400 0.000000
-30.528700 0.000000
-30.455100 0.000000
-30.381500 0.000000
-30.307900 0.000000
-30.234200 0.000000
-30.160600 0.000000
-30.087000 0.000000
-30.013300 0.000000
-29.939700 0.000000
-29.866100 0.000000
-29.792500 0.000000
-29.718800 0.000000
-29.645200 0.000000
-29.571600 0.000000
-29.498000 0.000000
-29.424300 0.000000
-29.350700 0.000000
-29.277100 0.000000
-29.203400 0.000000
-29.129800 0.000000
-29.056200 0.000000
-28.982600 0.000000
-28.908900 0.000000
-28.835300 0.000000
-28.761700 0.000000
-28.688100 0.000000
-28.614400 0.000000
-28.540800 0.000000
-28.467200 0.000000
-28.393600 0.000000
-28.319900 0.000000
-28.246300 0.000000
-28.172700 0.000000
-28.099000 0.000000
-28.025400 0.000000
-27.951800 0.000000
-27.878200 0.000000
-27.804500 0.000000
-27.730900 0.000000
-27.657300 0.000000
-27.583700 0.000000
-27.510000 0.000000
-27.436400 0.000000
-27.362800 0.000000
-27.289100 0.000000
-27.215500 0.000000
-27.141900 0.000000
-27.068300 0.000000
-26.994600 0.000000
-26.921000 0.000000
-26.847400 0.000000
-26.773800 0.000000
-26.700100 0.000000
-26.626500 0.000000
-26.552900 0.000000
-26.479300 0.000000
-26.405600 0.000000
-26.332000 0.000000
-26.258400 0.000000
-26.184700 0.000000
-26.111100 0.000000
-26.037500 0.000000
-25.963900 0.000000
-25.890200 0.000000
-25.816600 0.000000
-25.743000 0.000000
-25.669400 0.000000
-25.595700 0.000000
-25.522100 0.000000
-25.448500 0.000000
-25.374800 0.000000
-25.301200 0.000000
-25.227600 0.000000
-25.154000 0.000000
-25.080300 0.000000
-25.006700 0.000000
-24.933100 0.000000
-24.859500 0.000000
-24.785800 0.000000
-24.712200 0.000000
-24.638600 0.000000
-24.565000 0.000000
-24.491300 0.000000
-24.417700 0.000000
-24.344100 0.000000
-24.270400 0.000000
-24.196800 0.000000
-24.123200 0.000000
-24.049600 0.000000
-23.975900 0.000000
-23.902300 0.000000
-23.828700 0.000000
-23.755100 0.000000
-23.681400 0.000000
-23.607800 0.000000
-23.534200 0.000000
-23.460500 0.000000
-23.386900 0.000000
-23.313300 0.000000
-23.239700 0.000000
-23.166000 0.000000
-23.092400 0.000000
-23.018800 0.000000
-22.945200 0.000000
-22.871500 0.000000
-22.797900 0.000000
-22.724300 0.000000
-22.650700 0.000000
-22.577000 0.000000
-22.503400 0.000000
-22.429800 0.000000
-22.356100 0.000000
-22.282500 0.000000
-22.208900 0.000000
-22.135300 0.000000
-22.061600 0.000000
-21.988000 0.000000
-21.914400 0.000000
-21.840800 0.000000
-21.767100 0.000000
-21.693500 0.000000
-21.619900 0.000000
-21.546300 0.000000
-21.472600 0.000000
-21.399000 0.000000
-21.325400 0.000000
-21.251700 0.000000
-21.178100 0.000000
-21.104500 0.000000
-21.030900 0.000000
-20.957200 0.000000
-20.883600 0.000000
-20.810000 0.000000
-20.736400 0.000000
-20.662700 0.000000
-20.589100 0.000000
-20.515500 0.000000
-20.441800 0.000000
-20.368200 0.000000
-20.294600 0.000000
-20.221000 0.000000
-20.147300 0.000000
-20.073700 0.000000
-20.000100 0.000000
-19.926500 0.000000
-19.852800 0.000000
-19.779200 0.000000
-19.705600 0.000000
-19.632000 0.000000
-19.558300 0.000000
-19.484700 0.000000
-19.411100 0.000000
-19.337400 0.000000
-19.263800 0.000000
-19.190200 0.000000
-19.116600 0.000000
-19.042900 0.000000
-18.969300 0.000000
-18.895700 0.000000
-18.822100 0.000000
-18.748400 0.000000
-18.674800 0.000000
-18.601200 0.000000
-18.527500 0.000000
-18.453900 0.000000
-18.380300 0.000000
-18.306700 0.000000
-18.233000 0.000000
-18.159400 0.000000
-18.085800 0.000000
-18.012200 0.000000
-17.938500 0.000000
-17.864900 0.000000
-17.791300 0.000000
-17.717700 0.000000
-17.644000 0.000000
-17.570400 0.000000
-17.496800 0.000000
-17.423100 0.000000
-17.349500 0.000000
-17.275900 0.000000
-17.202300 0.000000
-17.128600 0.000000
-17.055000 0.000000
-16.981400 0.000000
-16.907800 0.000000
-16.834100 0.000000
-16.760500 0.000000
-16.686900 0.000000
-16.613200 0.000000
-16.539600 0.000000
-16.466000 0.000000
-16.392400 0.000000
-16.318700 0.000000
-16.245100 0.000000
-16.171500 0.000000
-16.097900 0.000000
-16.024200 0.000000
-15.950600 0.000000
-15.877000 0.000000
-15.803400 0.000000
-15.729700 0.000000
-15.656100 0.000000
-15.582500 0.000000
-15.508800 0.000000
-15.435200 0.000000
-15.361600 0.000000
-15.288000 0.000000
-15.214300 0.000000
-15.140700 0.000000
-15.067100 0.000000
-14.993500 0.000000
-14.919800 0.000000
-14.846200 0.000000
-14.772600 0.000000
-14.698900 0.000000
-14.625300 0.000000
-14.551700 0.000000
-14.478100 0.000000
-14.404400 0.000000
-14.330800 0.000000
-14.257200 0.000000
-14.183600 0.000000
-14.109900 0.000000
-14.036300 0.000000
-13.962700 0.000000
-13.889100 0.000000
-13.815400 0.000000
-13.741800 0.000000
-13.668200 0.000000
-13.594500 0.000000
-13.520900 0.000000
-13.447300 0.000000
-13.373700 0.000000
-13.300000 0.000000
-13.226400 0.000000
-13.152800 0.000000
-13.079200 0.000000
-13.005500 0.000000
-12.931900 0.000000
-12.858300 0.000000
-12.784700 0.000000
-12.711000 0.000000
-12.637400 0.000000
-12.563800 0.000000
-12.490100 0.000000
-12.416500 0.000000
-12.342900 0.000000
-12.269300 0.000000
-12.195600 0.000000
-12.122000 0.000000
-12.048400 0.000000
-11.974800 0.000000
-11.901100 0.000000
-11.827500 0.000000
-11.753900 0.000000
-11.680200 0.000000
-11.606600 0.000000
-11.533000 0.000000
-11.459400 0.000000
-11.385700 0.000000
-11.312100 0.000000
-11.238500 0.000000
-11.164900 0.000000
-11.091200 0.000000
-11.017600 0.000000
-10.944000 0.000000
-10.870400 0.000000
-10.796700 0.000000
-10.723100 0.000000
-10.649500 0.040000
-10.575800 0.073800
-10.502200 0.100800
-10.428600 0.121800
-10.355000 0.137900
-10.281300 0.158200
-10.207700 0.176000
-10.134100 0.191100
-10.060500 0.207600
-9.986800 0.225600
-9.913200 0.243400
-9.839600 0.259600
-9.765900 0.277300
-9.692300 0.296000
-9.618700 0.315700
-9.545100 0.336300
-9.471400 0.357700
-9.397800 0.381000
-9.324200 0.405800
-9.250600 0.432300
-9.176900 0.462800
-9.103300 0.497400
-9.029700 0.537600
-8.956100 0.583500
-8.882400 0.638000
-8.808800 0.707000
-8.735200 0.843900
-8.661500 1.029600
-8.587900 1.036100
-8.514300 1.063300
-8.440700 1.074400
-8.367000 1.095100
-8.293400 1.094500
-8.219800 1.110600
-8.146200 1.142700
-8.072500 1.177000
-7.998900 1.228900
-7.925300 1.377000
-7.851600 1.811700
-7.778000 1.407200
-7.704400 1.381600
-7.630800 1.312900
-7.557100 0.541700
-7.483500 0.351400
-7.409900 1.892200
-7.336300 2.634600
-7.262600 2.616800
-7.189000 2.711700
-7.115400 2.221200
-7.041800 1.987000
-6.968100 1.834600
-6.894500 1.716300
-6.820900 1.612800
-6.747200 1.125000
-6.673600 0.727700
-6.600000 0.602100
-6.526400 0.509700
-6.452700 0.443700
-6.379100 0.384100
-6.305500 0.334100
-6.231900 0.303200
-6.158200 0.273400
-6.084600 0.244600
-6.011000 0.216200
-5.937300 0.192700
-5.863700 0.176200
-5.790100 0.159900
-5.716500 0.143600
-5.642800 0.127700
-5.569200 0.113800
-5.495600 0.102000
-5.422000 0.091600
-5.348300 0.081500
-5.274700 0.071300
-5.201100 0.062300
-5.127500 0.054100
-5.053800 0.045900
-4.980200 0.038200
-4.906600 0.031000
-4.832900 0.023700
-4.759300 0.013700
-4.685700 0.000900
-4.612100 0.000000
-4.538400 0.000000
-4.464800 0.000000
-4.391200 0.000000
-4.317600 0.000000
-4.243900 0.000000
-4.170300 0.000000
-4.096700 0.000000
-4.023100 0.000000
-3.949400 0.000000
-3.875800 0.000000
-3.802200 0.000000
-3.728500 0.000000
-3.654900 0.000000
-3.581300 0.000000
-3.507700 0.000000
-3.434000 0.000000
-3.360400 0.000000
-3.286800 0.000000
-3.213200 0.000000
-3.139500 0.000000
-3.065900 0.000000
-2.992300 0.000000
-2.918600 0.000000
-2.845000 0.000000
-2.771400 0.000000
-2.697800 0.000000
-2.624100 0.000000
-2.550500 0.000000
-2.476900 0.000000
-2.403300 0.000000
-2.329600 0.000000
-2.256000 0.000000
-2.182400 0.000000
-2.108800 0.000000
-2.035100 0.000000
-1.961500 0.000000
-1.887900 0.000000
-1.814200 0.000000
-1.740600 0.000000
-1.667000 0.024000
-1.593400 0.099000
-1.519700 0.139400
-1.446100 0.159300
-1.372500 0.195900
-1.298900 0.226400
-1.225200 0.248700
-1.151600 0.267300
-1.078000 0.296100
-1.004300 0.326400
-0.930700 0.355800
-0.857100 0.378900
-0.783500 0.519500
-0.709800 0.493600
-0.636200 0.561200
-0.562600 0.625700
-0.489000 0.705400
-0.415300 0.826000
-0.341700 0.955600
-0.268100 1.174500
-0.194500 1.326400
-0.120800 1.640200
-0.047200 2.199200
0.026400 2.304200
0.100100 2.395300
0.173700 2.490900
0.247300 2.628800
0.320900 2.787200
0.394600 2.323600
0.468200 1.904200
0.541800 1.698200
0.615400 1.542700
0.689100 1.720100
0.762700 1.773800
0.836300 1.936200
0.910000 2.341900
0.983600 2.406400
1.057200 2.268100
1.130800 2.248500
1.204500 2.055000
1.278100 1.666100
1.351700 1.201600
1.425300 1.206500
1.499000 1.344400
1.572600 1.543200
1.646200 1.491800
1.719800 1.606900
1.793500 1.584900
1.867100 1.570900
1.940700 1.654900
2.014400 1.567500
2.088000 1.499600
2.161600 1.475800
2.235200 1.443600
2.308900 1.418100
2.382500 1.392600
2.456100 1.398900
2.529700 1.388800
2.603400 1.228900
2.677000 0.865800
2.750600 0.573400
2.824300 0.455400
2.897900 0.456900
2.971500 0.633900
3.045100 0.809600
3.118800 0.881900
3.192400 0.912000
3.266000 0.988400
3.339600 1.108700
3.413300 1.320800
3.486900 1.462900
3.560500 2.011800
3.634100 1.960200
3.707800 1.985700
3.781400 1.877100
3.855000 1.812400
3.928700 1.863400
4.002300 1.582000
4.075900 1.551700
4.149500 1.663200
4.223200 1.768900
4.296800 1.768800
4.370400 1.721700
4.444000 1.696800
4.517700 1.777400
4.591300 1.811300
4.664900 1.900400
4.738600 2.020900
4.812200 1.898600
4.885800 1.761500
4.959400 1.642800
5.033100 1.683000
5.106700 1.895100
5.180300 1.879800
5.253900 2.042600
5.327600 2.284400
5.401200 2.180400
5.474800 2.199600
5.548400 1.981300
5.622100 1.650400
5.695700 1.425100
5.769300 1.507600
5.843000 1.536800
5.916600 1.504700
5.990200 1.282900
6.063800 1.167800
6.137500 1.042700
6.211100 0.948200
6.284700 0.889300
6.358300 0.808300
6.432000 0.739700
6.505600 0.725900
6.579200 0.704300
6.652800 0.680700
6.726500 0.654400
6.800100 0.692500
6.873700 0.844400
6.947400 0.843000
7.021000 0.835300
7.094600 0.856200
7.168200 0.862200
7.241900 0.892300
7.315500 1.036900
7.389100 1.327400
7.462700 1.750800
7.536400 3.331600
7.610000 3.645700
7.683600 2.923300
7.757300 4.296000
7.830900 4.872800
7.904500 2.911700
7.978100 2.346700
8.051800 1.736300
8.125400 1.437400
8.199000 1.608900
8.272600 2.027400
8.346300 2.248400
8.419900 2.466700
8.493500 2.405100
8.567100 2.126100
8.640800 1.908700
8.714400 1.837000
8.788000 1.778200
8.861700 1.332200
8.935300 1.401300
9.008900 0.799200
9.082500 0.448900
9.156200 0.326400
9.229800 0.170000
9.303400 0.184700
9.377000 0.197900
9.450700 0.213500
9.524300 0.228700
9.597900 0.245300
9.671600 0.261900
9.745200 0.278700
9.818800 0.294900
9.892400 0.317900
9.966100 0.339700
10.039700 0.369500
10.113300 0.418400
10.186900 0.450400
10.260600 0.460400
10.334200 0.476000
10.407800 0.492500
10.481400 0.500400
10.555100 0.511200
10.628700 0.528100
10.702300 0.544400
10.776000 0.562900
10.849600 0.590900
10.923200 0.632400
10.996800 0.678800
11.070500 0.725900
11.144100 0.843400
11.217700 1.399800
11.291300 1.856000
11.365000 2.661600
11.438600 2.468900
11.512200 1.013100
11.585900 0.719100
11.659500 0.544500
11.733100 0.470800
11.806700 0.411100
11.880400 0.497800
11.954000 0.534000
12.027600 0.602400
12.101200 0.647000
12.174900 0.727100
12.248500 0.838500
12.322100 1.096100
12.395700 1.609600
12.469400 1.736400
12.543000 1.905300
12.616600 2.163900
12.690300 2.849700
12.763900 2.314200
12.837500 2.109200
12.911100 2.252600
12.984800 2.341900
13.058400 4.036900
13.132000 3.778000
13.205600 3.818400
13.279300 2.943700
13.352900 2.526200
13.426500 2.302500
13.500200 2.037900
13.573800 1.781700
13.647400 1.594000
13.721000 1.472200
13.794700 1.409900
13.868300 1.426900
13.941900 1.167800
14.015500 0.778400
14.089200 0.575000
14.162800 0.469500
14.236400 0.391700
14.310000 0.321000
14.383700 0.262500
14.457300 0.187200
14.530900 0.108300
14.604600 0.016500
14.678200 0.001400
14.751800 0.011300
14.825400 0.023600
14.899100 0.030400
14.972700 0.034000
15.046300 0.040100
15.119900 0.046500
15.193600 0.052800
15.267200 0.058300
15.340800 0.064100
15.414400 0.070200
15.488100 0.077300
15.561700 0.085000
15.635300 0.093100
15.709000 0.102800
15.782600 0.120000
15.856200 0.141400
15.929800 0.165900
16.003500 0.185200
16.077100 0.205900
16.150700 0.237900
16.224300 0.267800
16.298000 0.283700
16.371600 0.297800
16.445200 0.316200
16.518900 0.347300
16.592500 0.416000
16.666100 0.501800
16.739700 0.548200
16.813400 0.620200
16.887000 0.704300
16.960600 0.847300
17.034200 0.928800
17.107900 0.960400
17.181500 1.009000
17.255100 1.044500
17.328700 1.124600
17.402400 1.150300
17.476000 1.171900
17.549600 1.190700
17.623300 1.197200
17.696900 1.206500
17.770500 1.198300
17.844100 1.211900
17.917800 1.181100
17.991400 1.188100
18.065000 1.166300
18.138600 1.156400
18.212300 1.125500
18.285900 1.170000
18.359500 1.226700
18.433200 0.777900
18.506800 0.582100
18.580400 0.368100
18.654000 0.416100
18.727700 0.483100
18.801300 0.587100
18.874900 0.696800
18.948500 0.865700
19.022200 1.457100
19.095800 1.135800
19.169400 1.127800
19.243000 1.171300
19.316700 1.287300
19.390300 1.432700
19.463900 1.615900
19.537600 1.938900
19.611200 2.782400
19.684800 2.420100
19.758400 2.231300
19.832100 2.115700
19.905700 1.046600
19.979300 0.575000
20.052900 0.354300
20.126600 0.191600
20.200200 0.152500
20.273800 0.154800
20.347500 0.155500
20.421100 0.171900
20.494700 0.215100
20.568300 0.250000
20.642000 0.318000
20.715600 0.355300
20.789200 0.404500
20.862800 0.420900
20.936500 0.455000
21.010100 0.484700
21.083700 0.501900
21.157300 0.520700
21.231000 0.548800
21.304600 0.587600
21.378200 0.636500
21.451900 0.700100
21.525500 0.790700
21.599100 0.883800
21.672700 0.878700
21.746400 0.907500
21.820000 0.911200
21.893600 0.926600
21.967200 0.935300
22.040900 0.952600
22.114500 0.993900
22.188100 1.085800
22.261800 0.992100
22.335400 0.952300
22.409000 0.929100
22.482600 1.006200
22.556300 0.987000
22.629900 0.903100
22.703500 0.797300
22.777100 0.748200
22.850800 0.701000
22.924400 0.712200
22.998000 0.717400
23.071600 0.724000
23.145300 0.728100
23.218900 0.748700
23.292500 0.761400
23.366200 0.783800
23.439800 0.810100
23.513400 0.911100
23.587000 1.078200
23.660700 1.216300
23.734300 1.241000
23.807900 1.270900
23.881500 1.383200
23.955200 1.439800
24.028800 1.449000
24.102400 1.362400
24.176000 1.311700
24.249700 1.246300
24.323300 1.088100
24.396900 1.086600
24.470600 1.088500
24.544200 1.085000
24.617800 1.116500
24.691400 1.074200
24.765100 1.031300
24.838700 0.967400
24.912300 0.894600
24.985900 0.935000
25.059600 1.009100
25.133200 1.137900
25.206800 1.281200
25.280500 1.460500
25.354100 1.425700
25.427700 1.412900
25.501300 1.401700
25.575000 1.348300
25.648600 1.380200
25.722200 1.423300
25.795800 1.364800
25.869500 1.236500
25.943100 1.130600
26.016700 1.021600
26.090300 0.954400
26.164000 0.930000
26.237600 0.949900
26.311200 0.984400
26.384900 0.872800
26.458500 0.795200
26.532100 0.966100
26.605700 1.041200
26.679400 1.292000
26.753000 1.318000
26.826600 1.324300
26.900200 1.386300
26.973900 1.428700
27.047500 1.547200
27.121100 1.696600
27.194800 1.691800
27.268400 1.533300
27.342000 1.358300
27.415600 1.351300
27.489300 1.111100
27.562900 1.045900
27.636500 1.342000
27.710100 1.623000
27.783800 1.714800
27.857400 1.618300
27.931000 1.687700
28.004600 1.769600
28.078300 1.697500
28.151900 1.643100
28.225500 1.585500
28.299200 1.564900
28.372800 1.702300
28.446400 1.742100
28.520000 1.606900
28.593700 1.535300
28.667300 1.560800
28.740900 1.509700
28.814500 1.471600
28.888200 1.383600
28.961800 1.322400
29.035400 1.320300
29.109100 1.394900
29.182700 1.357300
29.256300 1.312400
29.329900 1.234400
29.403600 1.201700
29.477200 1.174500
29.550800 1.189800
29.624400 1.149600
29.698100 1.117000
29.771700 1.070700
29.845300 1.055600
29.918900 1.028100
29.992600 0.990800
30.066200 0.947300
30.139800 0.910600
30.213500 0.877200
30.287100 0.857100
30.360700 0.849300
30.434300 0.854500
30.508000 0.850600
30.581600 0.843400
30.655200 0.834200
30.728800 0.848300
30.802500 0.882900
30.876100 0.857000
30.949700 0.815300
31.023400 0.816700
31.097000 0.795200
31.170600 0.788000
31.244200 0.742800
31.317900 0.686000
31.391500 0.649800
31.465100 0.644000
31.538700 0.631800
31.612400 0.626200
31.686000 0.634000
31.759600 0.674200
31.833200 0.742500
31.906900 0.843000
31.980500 1.303500
32.054100 1.411400
32.127800 1.568000
32.201400 1.484800
32.275000 1.348700
32.348600 1.350300
32.422300 1.327400
32.495900 1.272100
32.569500 1.314500
32.643100 1.256800
32.716800 1.234000
32.790400 1.219000
32.864000 1.284700
32.937600 1.086200
33.011300 0.997200
33.084900 1.146500
33.158500 1.222600
33.232200 1.271700
33.305800 1.260800
33.379400 1.385900
33.453000 1.479800
33.526700 1.730600
33.600300 1.792100
33.673900 1.720300
33.747500 1.642800
33.821200 1.585000
33.894800 1.599100
33.968400 1.617500
34.042100 1.633400
34.115700 1.753100
34.189300 1.786000
34.262900 1.716500
34.336600 1.759300
34.410200 1.592100
34.483800 1.580800
34.557400 1.401000
34.631100 1.127700
34.704700 1.004600
34.778300 0.950100
34.851900 0.975100
34.925600 1.057400
34.999200 1.118600
35.072800 1.196300
35.146500 1.334900
35.220100 1.357900
35.293700 1.466700
35.367300 1.441300
35.441000 1.433400
35.514600 1.447900
35.588200 1.480100
35.661800 1.572800
35.735500 1.840500
