set title 'mp-550206 - Density of States'
set xlabel 'Energy (eV)'
set ylabel 'DOS (states/eV)'
set grid
set xrange [-10:10]
set yrange [0:5.601]
set xzeroaxis lt -1
set terminal png size 800,600
set output 'mp-550206_dos_gnuplot.png'
plot '-' using 1:2 with lines title 'DOS'
-28.610100 0.000000
-28.552400 0.000000
-28.494800 0.000000
-28.437200 0.000000
-28.379600 0.000000
-28.322000 0.000000
-28.264400 0.000000
-28.206700 0.000000
-28.149100 0.000000
-28.091500 0.000000
-28.033900 0.000000
-27.976300 0.000000
-27.918700 0.000000
-27.861000 0.000000
-27.803400 0.000000
-27.745800 0.000000
-27.688200 0.000000
-27.630600 0.000000
-27.572900 0.000000
-27.515300 0.000000
-27.457700 0.000000
-27.400100 0.000000
-27.342500 0.000000
-27.284900 0.000000
-27.227200 0.000000
-27.169600 0.000000
-27.112000 0.000000
-27.054400 0.000000
-26.996800 0.000000
-26.939100 0.000000
-26.881500 0.000000
-26.823900 0.000000
-26.766300 0.000000
-26.708700 0.000000
-26.651100 0.000000
-26.593400 0.000000
-26.535800 0.000000
-26.478200 0.000000
-26.420600 0.000000
-26.363000 0.000000
-26.305300 0.000000
-26.247700 0.000000
-26.190100 0.000000
-26.132500 0.000000
-26.074900 0.000000
-26.017300 0.000000
-25.959600 0.000000
-25.902000 0.000000
-25.844400 0.000000
-25.786800 0.000000
-25.729200 0.000000
-25.671600 0.000000
-25.613900 0.000000
-25.556300 0.000000
-25.498700 0.000000
-25.441100 0.000000
-25.383500 0.000000
-25.325800 0.000000
-25.268200 0.000000
-25.210600 0.000000
-25.153000 0.000000
-25.095400 0.000000
-25.037800 0.000000
-24.980100 0.000000
-24.922500 0.000000
-24.864900 0.000000
-24.807300 0.000000
-24.749700 0.000000
-24.692000 0.000000
-24.634400 0.000000
-24.576800 0.000000
-24.519200 0.000000
-24.461600 0.000000
-24.404000 0.000000
-24.346300 0.000000
-24.288700 0.000000
-24.231100 0.000000
-24.173500 0.000000
-24.115900 0.000000
-24.058200 0.000000
-24.000600 0.000000
-23.943000 0.000000
-23.885400 0.000000
-23.827800 0.000000
-23.770200 0.000000
-23.712500 0.000000
-23.654900 0.000000
-23.597300 0.000000
-23.539700 0.000000
-23.482100 0.000000
-23.424500 0.000000
-23.366800 0.026800
-23.309200 0.324700
-23.251600 0.257000
-23.194000 0.285600
-23.136400 0.314200
-23.078700 0.316800
-23.021100 0.301200
-22.963500 0.315100
-22.905900 0.329000
-22.848300 0.343000
-22.790700 0.347500
-22.733000 0.357400
-22.675400 0.367300
-22.617800 0.379000
-22.560200 0.391700
-22.502600 0.404400
-22.444900 0.421100
-22.387300 0.449400
-22.329700 0.470500
-22.272100 0.491600
-22.214500 0.512500
-22.156900 0.533100
-22.099200 0.553700
-22.041600 0.646100
-21.984000 0.712300
-21.926400 0.774000
-21.868800 0.846400
-21.811100 0.945300
-21.753500 1.373600
-21.695900 1.150900
-21.638300 0.813200
-21.580700 0.826200
-21.523100 3.514100
-21.465400 3.202800
-21.407800 2.339200
-21.350200 1.834200
-21.292600 1.631000
-21.235000 1.373600
-21.177400 1.226700
-21.119700 1.077400
-21.062100 1.008100
-21.004500 0.348400
-20.946900 0.000000
-20.889300 0.000000
-20.831600 0.000000
-20.774000 0.000000
-20.716400 0.000000
-20.658800 0.000000
-20.601200 0.000000
-20.543600 0.000000
-20.485900 0.000000
-20.428300 0.000000
-20.370700 0.000000
-20.313100 0.000000
-20.255500 0.000000
-20.197800 0.000000
-20.140200 0.000000
-20.082600 0.000000
-20.025000 0.000000
-19.967400 0.000000
-19.909800 0.000000
-19.852100 0.000000
-19.794500 0.000000
-19.736900 0.000000
-19.679300 0.000000
-19.621700 0.000000
-19.564000 0.000000
-19.506400 0.000000
-19.448800 0.000000
-19.391200 0.000000
-19.333600 0.000000
-19.276000 0.000000
-19.218300 0.000000
-19.160700 0.000000
-19.103100 0.000000
-19.045500 0.000000
-18.987900 0.000000
-18.930300 0.000000
-18.872600 0.000000
-18.815000 0.000000
-18.757400 0.000000
-18.699800 0.000000
-18.642200 0.000000
-18.584500 0.000000
-18.526900 0.000000
-18.469300 0.000000
-18.411700 0.000000
-18.354100 0.000000
-18.296500 0.000000
-18.238800 0.000000
-18.181200 0.000000
-18.123600 0.000000
-18.066000 0.000000
-18.008400 0.000000
-17.950700 0.000000
-17.893100 0.000000
-17.835500 0.000000
-17.777900 0.000000
-17.720300 0.000000
-17.662700 0.000000
-17.605000 0.000000
-17.547400 0.000000
-17.489800 0.000000
-17.432200 0.000000
-17.374600 0.000000
-17.316900 0.000000
-17.259300 0.000000
-17.201700 0.000000
-17.144100 0.000000
-17.086500 0.000000
-17.028900 0.000000
-16.971200 0.000000
-16.913600 0.000000
-16.856000 0.000000
-16.798400 0.000000
-16.740800 0.000000
-16.683200 0.000000
-16.625500 0.000000
-16.567900 0.000000
-16.510300 0.000000
-16.452700 0.000000
-16.395100 0.000000
-16.337400 0.000000
-16.279800 0.000000
-16.222200 0.000000
-16.164600 0.000000
-16.107000 0.000000
-16.049400 0.000000
-15.991700 0.000000
-15.934100 0.000000
-15.876500 0.000000
-15.818900 0.000000
-15.761300 0.000000
-15.703600 0.000000
-15.646000 0.000000
-15.588400 0.000000
-15.530800 0.000000
-15.473200 0.000000
-15.415600 0.000000
-15.357900 0.000000
-15.300300 0.000000
-15.242700 0.000000
-15.185100 0.000000
-15.127500 0.000000
-15.069800 0.000000
-15.012200 0.000000
-14.954600 0.000000
-14.897000 0.000000
-14.839400 0.000000
-14.781800 0.000000
-14.724100 0.000000
-14.666500 0.000000
-14.608900 0.000000
-14.551300 0.000000
-14.493700 0.000000
-14.436100 0.000000
-14.378400 0.000000
-14.320800 0.000000
-14.263200 0.000000
-14.205600 0.000000
-14.148000 0.000000
-14.090300 0.000000
-14.032700 0.000000
-13.975100 0.000000
-13.917500 0.000000
-13.859900 0.000000
-13.802300 0.000000
-13.744600 0.000000
-13.687000 0.000000
-13.629400 0.000000
-13.571800 0.000000
-13.514200 0.000000
-13.456500 0.000000
-13.398900 0.000000
-13.341300 0.000000
-13.283700 0.000000
-13.226100 0.000000
-13.168500 0.000000
-13.110800 0.000000
-13.053200 0.000000
-12.995600 0.000000
-12.938000 0.000000
-12.880400 0.000000
-12.822700 0.000000
-12.765100 0.000000
-12.707500 0.000000
-12.649900 0.000000
-12.592300 0.000000
-12.534700 0.000000
-12.477000 0.000000
-12.419400 0.000000
-12.361800 0.000000
-12.304200 0.000000
-12.246600 0.000000
-12.189000 0.000000
-12.131300 0.000000
-12.073700 0.000000
-12.016100 0.000000
-11.958500 0.000000
-11.900900 0.000000
-11.843200 0.000000
-11.785600 0.000000
-11.728000 0.000000
-11.670400 0.026500
-11.612800 0.548900
-11.555200 0.769800
-11.497500 0.726900
-11.439900 0.812900
-11.382300 0.898900
-11.324700 1.257400
-11.267100 4.140300
-11.209400 2.633900
-11.151800 2.030800
-11.094200 1.289000
-11.036600 0.999700
-10.979000 0.679200
-10.921400 0.600800
-10.863700 0.522500
-10.806100 0.472100
-10.748500 0.763800
-10.690900 1.162400
-10.633300 1.526200
-10.575600 2.355200
-10.518000 2.185500
-10.460400 2.027500
-10.402800 2.060900
-10.345200 0.000000
-10.287600 0.000000
-10.229900 0.000000
-10.172300 0.246600
-10.114700 0.257800
-10.057100 0.287500
-9.999500 0.317100
-9.941900 0.402400
-9.884200 1.670000
-9.826600 1.831800
-9.769000 1.757400
-9.711400 1.570400
-9.653800 1.348800
-9.596100 0.915800
-9.538500 1.022700
-9.480900 1.133400
-9.423300 4.030300
-9.365700 3.981800
-9.308100 3.084000
-9.250400 3.918700
-9.192800 3.478900
-9.135200 2.828700
-9.077600 5.092000
-9.020000 0.425000
-8.962300 0.426100
-8.904700 0.433600
-8.847100 0.475600
-8.789500 0.579700
-8.731900 0.683800
-8.674300 0.788000
-8.616600 1.034000
-8.559000 1.067000
-8.501400 1.159000
-8.443800 1.208100
-8.386200 1.034500
-8.328500 0.817100
-8.270900 0.823600
-8.213300 0.618300
-8.155700 0.223500
-8.098100 0.000000
-8.040500 0.000000
-7.982800 0.000000
-7.925200 0.000000
-7.867600 0.000000
-7.810000 0.081100
-7.752400 1.674100
-7.694800 1.348600
-7.637100 1.190400
-7.579500 1.458600
-7.521900 0.857700
-7.464300 0.902300
-7.406700 0.985400
-7.349000 1.068500
-7.291400 1.101200
-7.233800 1.177500
-7.176200 1.192400
-7.118600 1.264000
-7.061000 1.230600
-7.003300 1.347300
-6.945700 1.324400
-6.888100 0.914500
-6.830500 0.850500
-6.772900 0.788100
-6.715200 0.729900
-6.657600 0.672800
-6.600000 0.615700
-6.542400 0.594600
-6.484800 0.716400
-6.427200 0.846200
-6.369500 0.973900
-6.311900 1.223600
-6.254300 3.213400
-6.196700 1.277600
-6.139100 1.206600
-6.081400 1.138200
-6.023800 1.088700
-5.966200 1.045100
-5.908600 0.997700
-5.851000 0.970500
-5.793400 1.237800
-5.735700 1.146000
-5.678100 1.248100
-5.620500 2.045500
-5.562900 1.680300
-5.505300 1.559200
-5.447700 1.451400
-5.390000 1.439500
-5.332400 1.366900
-5.274800 1.291200
-5.217200 1.472700
-5.159600 2.453100
-5.101900 1.112800
-5.044300 1.033700
-4.986700 1.070500
-4.929100 1.376800
-4.871500 1.452500
-4.813900 1.155700
-4.756200 1.620000
-4.698600 1.591900
-4.641000 0.000000
-4.583400 0.000000
-4.525800 0.000000
-4.468100 0.000000
-4.410500 0.000000
-4.352900 0.000000
-4.295300 0.000000
-4.237700 0.000000
-4.180100 0.000000
-4.122400 0.000000
-4.064800 0.000000
-4.007200 0.000000
-3.949600 0.000000
-3.892000 0.000000
-3.834300 0.219700
-3.776700 0.532300
-3.719100 0.844900
-3.661500 1.198800
-3.603900 1.560100
-3.546300 1.147400
-3.488600 1.231900
-3.431000 1.927900
-3.373400 2.136100
-3.315800 3.499600
-3.258200 1.044300
-3.200600 1.531100
-3.142900 1.365800
-3.085300 1.026100
-3.027700 1.090200
-2.970100 1.154400
-2.912500 1.218500
-2.854800 1.973800
-2.797200 2.405500
-2.739600 2.989500
-2.682000 1.533300
-2.624400 0.000000
-2.566800 0.000000
-2.509100 0.000000
-2.451500 0.000000
-2.393900 0.000000
-2.336300 0.000000
-2.278700 0.000000
-2.221000 0.000000
-2.163400 0.000000
-2.105800 0.000000
-2.048200 0.000000
-1.990600 0.000000
-1.933000 0.000000
-1.875300 0.000000
-1.817700 0.000000
-1.760100 0.000000
-1.702500 0.000000
-1.644900 0.000000
-1.587200 0.000000
-1.529600 0.000000
-1.472000 0.000000
-1.414400 0.000000
-1.356800 0.000000
-1.299200 0.000000
-1.241500 0.000000
-1.183900 0.000000
-1.126300 0.000000
-1.068700 0.000000
-1.011100 0.000000
-0.953500 0.000000
-0.895800 0.000000
-0.838200 0.000000
-0.780600 0.000000
-0.723000 0.000000
-0.665400 0.000000
-0.607700 0.000000
-0.550100 0.000000
-0.492500 0.000000
-0.434900 0.000000
-0.377300 0.000000
-0.319700 0.000000
-0.262000 0.000000
-0.204400 0.000000
-0.146800 0.000000
-0.089200 0.000000
-0.031600 0.000000
0.026100 0.000000
0.083700 0.000000
0.141300 0.000000
0.198900 0.000000
0.256500 0.000000
0.314100 0.000000
0.371800 0.000000
0.429400 0.000000
0.487000 0.000000
0.544600 0.000000
0.602200 0.000000
0.659900 0.000000
0.717500 0.000000
0.775100 0.000000
0.832700 0.000000
0.890300 0.000000
0.947900 0.000000
1.005600 0.000000
1.063200 0.000000
1.120800 0.000000
1.178400 0.000000
1.236000 0.000000
1.293600 0.000000
1.351300 0.000000
1.408900 0.000000
1.466500 0.000000
1.524100 0.000000
1.581700 0.000000
1.639400 0.000000
1.697000 0.000000
1.754600 0.000000
1.812200 0.000000
1.869800 0.000000
1.927400 0.000000
1.985100 0.000000
2.042700 0.000000
2.100300 0.000000
2.157900 0.000000
2.215500 0.000000
2.273200 0.000000
2.330800 0.000000
2.388400 0.000000
2.446000 0.000000
2.503600 0.000000
2.561200 0.000000
2.618900 0.000000
2.676500 0.000000
2.734100 0.000000
2.791700 0.000000
2.849300 0.000000
2.907000 0.000000
2.964600 0.000000
3.022200 0.000000
3.079800 0.000000
3.137400 0.000000
3.195000 0.000000
3.252700 0.004400
3.310300 0.020800
3.367900 0.043800
3.425500 0.071800
3.483100 0.079800
3.540700 0.087500
3.598400 0.098800
3.656000 0.108500
3.713600 0.116100
3.771200 0.121000
3.828800 0.125100
3.886500 0.141700
3.944100 0.160200
4.001700 0.166000
4.059300 0.171800
4.116900 0.179400
4.174500 0.187900
4.232200 0.196900
4.289800 0.206500
4.347400 0.217200
4.405000 0.228100
4.462600 0.238600
4.520300 0.250200
4.577900 0.263900
4.635500 0.282600
4.693100 0.296000
4.750700 0.293600
4.808300 0.291800
4.866000 0.294600
4.923600 0.296900
4.981200 0.299700
5.038800 0.301900
5.096400 0.302700
5.154100 0.304100
5.211700 0.305700
5.269300 0.309000
5.326900 0.312200
5.384500 0.315200
5.442100 0.319000
5.499800 0.327100
5.557400 0.336800
5.615000 0.346100
5.672600 0.351600
5.730200 0.352800
5.787800 0.357900
5.845500 0.364500
5.903100 0.371500
5.960700 0.379300
6.018300 0.387400
6.075900 0.395500
6.133600 0.403200
6.191200 0.409900
6.248800 0.416400
6.306400 0.422400
6.364000 0.427600
6.421600 0.433600
6.479300 0.440800
6.536900 0.450000
6.594500 0.458900
6.652100 0.466600
6.709700 0.468600
6.767400 0.473600
6.825000 0.482100
6.882600 0.493800
6.940200 0.504200
6.997800 0.514000
7.055400 0.524700
7.113100 0.536900
7.170700 0.549600
7.228300 0.561500
7.285900 0.576800
7.343500 0.593600
7.401200 0.609700
7.458800 0.622900
7.516400 0.632400
7.574000 0.629800
7.631600 0.640800
7.689200 0.651800
7.746900 0.662900
7.804500 0.674300
7.862100 0.685800
7.919700 0.697100
7.977300 0.706800
8.034900 0.719800
8.092600 0.858000
8.150200 0.891200
8.207800 0.743500
8.265400 0.693600
8.323000 0.697000
8.380700 0.700500
8.438300 0.705400
8.495900 0.711500
8.553500 0.718900
8.611100 0.755800
8.668700 0.791500
8.726400 0.812500
8.784000 0.829700
8.841600 0.860900
8.899200 0.717400
8.956800 0.741500
9.014500 0.810000
9.072100 0.882500
9.129700 0.982200
9.187300 1.079900
9.244900 1.350800
9.302500 1.266300
9.360200 1.106700
9.417800 0.981500
9.475400 0.918800
9.533000 0.930100
9.590600 1.211800
9.648300 1.182400
9.705900 1.114900
9.763500 1.084200
9.821100 1.074700
9.878700 1.305400
9.936300 1.191300
9.994000 1.078900
10.051600 1.067300
10.109200 1.041200
10.166800 0.961700
10.224400 0.892100
10.282000 0.832900
10.339700 0.789000
10.397300 0.769400
10.454900 0.809900
10.512500 0.893400
10.570100 1.259300
10.627800 1.522400
10.685400 1.425400
10.743000 1.110000
10.800600 1.122700
10.858200 0.913300
10.915800 0.915600
10.973500 1.013300
11.031100 1.071700
11.088700 1.087100
11.146300 1.176000
11.203900 1.172000
11.261600 0.773900
11.319200 0.591600
11.376800 0.583800
11.434400 0.501400
11.492000 0.220900
11.549600 0.369500
11.607300 1.335800
11.664900 1.860700
11.722500 2.248500
11.780100 3.235000
11.837700 2.369000
11.895300 0.863800
11.953000 0.483300
12.010600 0.321700
12.068200 0.459800
12.125800 0.725200
12.183400 1.515200
12.241100 1.649100
12.298700 1.341700
12.356300 1.235800
12.413900 1.364900
12.471500 1.280100
12.529100 1.294800
12.586800 1.432200
12.644400 1.635400
12.702000 1.978100
12.759600 1.668000
12.817200 1.700400
12.874900 1.494500
12.932500 1.266800
12.990100 0.859100
13.047700 0.731500
13.105300 0.675600
13.162900 0.692300
13.220600 0.810800
13.278200 0.827500
13.335800 0.765400
13.393400 0.732500
13.451000 0.765500
13.508700 0.815600
13.566300 0.826400
13.623900 0.988800
13.681500 0.893800
13.739100 0.854400
13.796700 0.948000
13.854400 0.989300
13.912000 0.957800
13.969600 0.954700
14.027200 0.957000
14.084800 0.940100
14.142400 0.889700
14.200100 0.879200
14.257700 0.859300
14.315300 0.827800
14.372900 0.806100
14.430500 0.753900
14.488200 0.734800
14.545800 0.736500
14.603400 0.742900
14.661000 0.752100
14.718600 0.790400
14.776200 0.877500
14.833900 0.997900
14.891500 0.999800
14.949100 1.009500
15.006700 1.053600
15.064300 1.012500
15.122000 0.912900
15.179600 0.869800
15.237200 0.860500
15.294800 0.864300
15.352400 0.858800
15.410000 0.891600
15.467700 0.981700
15.525300 1.114600
15.582900 1.136200
15.640500 1.183900
15.698100 1.370100
15.755800 1.568500
15.813400 0.967000
15.871000 0.948100
15.928600 0.959700
15.986200 0.979400
16.043800 1.009300
16.101500 1.054800
16.159100 1.042900
16.216700 1.065700
16.274300 1.395400
16.331900 1.830900
16.389500 1.270400
16.447200 1.282900
16.504800 1.317900
16.562400 1.417400
16.620000 1.517400
16.677600 1.640700
16.735300 1.676500
16.792900 1.562300
16.850500 1.507500
16.908100 1.512500
16.965700 1.635800
17.023300 1.004800
17.081000 0.957900
17.138600 0.951200
17.196200 0.949000
17.253800 0.914900
17.311400 0.874100
17.369100 0.835700
17.426700 0.801900
17.484300 0.775400
17.541900 0.755200
17.599500 0.740200
17.657100 0.734100
17.714800 0.732100
17.772400 0.732300
17.830000 0.730700
17.887600 0.731100
17.945200 0.726300
18.002900 0.718600
18.060500 0.717800
18.118100 0.724900
18.175700 0.733100
18.233300 0.776800
18.290900 0.780500
18.348600 0.802100
18.406200 0.819000
18.463800 0.904700
18.521400 1.023600
18.579000 1.250400
18.636600 1.422500
18.694300 1.435000
18.751900 1.356100
18.809500 1.294500
18.867100 1.230200
18.924700 1.236300
18.982400 1.279000
19.040000 1.316700
19.097600 1.227500
19.155200 1.184300
19.212800 1.142300
19.270400 1.118100
19.328100 1.102700
19.385700 1.063500
19.443300 1.033600
19.500900 0.991900
19.558500 0.974900
19.616200 1.043100
19.673800 1.199000
19.731400 1.245800
19.789000 1.223700
19.846600 1.155400
19.904200 1.133000
19.961900 1.095400
20.019500 1.075800
20.077100 1.074300
20.134700 1.082100
20.192300 1.095800
20.250000 1.113400
20.307600 1.162700
20.365200 1.349700
20.422800 1.465400
20.480400 1.462100
20.538000 1.387500
20.595700 1.339500
20.653300 1.243600
20.710900 1.140800
20.768500 1.069700
20.826100 1.047300
20.883700 1.009500
20.941400 0.951300
20.999000 0.917500
21.056600 0.900000
21.114200 0.878400
21.171800 0.825700
21.229500 0.810300
21.287100 0.802200
21.344700 0.822000
21.402300 0.834100
21.459900 0.855400
21.517500 0.931700
21.575200 1.013200
21.632800 1.033400
21.690400 1.045000
21.748000 1.148400
21.805600 1.156800
21.863300 1.180300
21.920900 1.225800
21.978500 1.183300
22.036100 1.124300
22.093700 1.050200
22.151300 1.046200
22.209000 0.999900
22.266600 0.899600
22.324200 0.873500
22.381800 0.856800
22.439400 0.821400
22.497100 0.798800
22.554700 0.801700
22.612300 0.813800
22.669900 0.833000
22.727500 0.858200
22.785100 0.917100
22.842800 1.008700
22.900400 1.185900
22.958000 1.389000
23.015600 1.188800
23.073200 1.077600
23.130800 1.036300
23.188500 1.009900
23.246100 0.974700
23.303700 0.986200
23.361300 1.239700
23.418900 1.361500
23.476600 1.435300
23.534200 1.374100
23.591800 1.311400
23.649400 1.365200
23.707000 1.457100
23.764600 1.486100
23.822300 1.483900
23.879900 1.419000
23.937500 1.314100
23.995100 1.266100
24.052700 1.314300
24.110400 1.185900
24.168000 1.090500
24.225600 1.063300
24.283200 1.081000
24.340800 1.116800
24.398400 1.096500
24.456100 1.058800
24.513700 1.045100
24.571300 1.062700
24.628900 1.065500
24.686500 1.089900
24.744200 1.130000
24.801800 1.168800
24.859400 1.329000
24.917000 1.406100
24.974600 1.412600
25.032200 1.465800
25.089900 1.367500
25.147500 1.302000
25.205100 1.234400
25.262700 1.217000
25.320300 1.284100
25.377900 1.137000
25.435600 1.033500
25.493200 0.932000
25.550800 0.882200
25.608400 0.861500
25.666000 0.945900
25.723700 0.864900
25.781300 0.985300
25.838900 1.000700
25.896500 1.049200
25.954100 1.041300
26.011700 1.047900
26.069400 1.130200
26.127000 1.184300
26.184600 1.200100
26.242200 1.185300
26.299800 1.167100
26.357500 1.178400
26.415100 1.204300
26.472700 1.141600
26.530300 1.199600
26.587900 1.273900
26.645500 1.273100
26.703200 1.224200
26.760800 1.185000
26.818400 1.155900
26.876000 1.091500
26.933600 1.132900
26.991300 1.173100
27.048900 1.323300
27.106500 1.356800
27.164100 1.272200
27.221700 1.155400
27.279300 1.139500
27.337000 1.163200
27.394600 1.275600
27.452200 1.320900
27.509800 1.411700
27.567400 1.340800
27.625000 1.359000
27.682700 1.349200
27.740300 1.372900
27.797900 1.158700
27.855500 1.078900
27.913100 1.057600
27.970800 0.953200
28.028400 0.884000
28.086000 0.843700
28.143600 1.045800
28.201200 1.050800
28.258800 1.157500
28.316500 1.297200
28.374100 1.395500
28.431700 1.423500
28.489300 1.428500
28.546900 1.427200
28.604600 1.453700
28.662200 1.522000
28.719800 1.577900
28.777400 1.562900
28.835000 1.551100
28.892600 1.545400
28.950300 1.547900
29.007900 1.484400
29.065500 1.434800
29.123100 1.250200
29.180700 1.093400
29.238400 1.112100
29.296000 1.250100
29.353600 1.195100
29.411200 1.251000
29.468800 1.264500
29.526400 1.344400
29.584100 1.386000
29.641700 1.294000
29.699300 1.232200
29.756900 1.085200
29.814500 1.063500
29.872100 1.237800
29.929800 1.338900
29.987400 1.511000
30.045000 1.573900
30.102600 1.707700
30.160200 1.658800
30.217900 1.534900
30.275500 1.446000
30.333100 1.364500
30.390700 1.273600
30.448300 1.317800
30.505900 1.304200
30.563600 1.289700
30.621200 1.295900
30.678800 1.333000
