set title 'mp-1581 - Density of States'
set xlabel 'Energy (eV)'
set ylabel 'DOS (states/eV)'
set grid
set xrange [-10:10]
set yrange [0:38.369]
set xzeroaxis lt -1
set terminal png size 800,600
set output 'mp-1581_dos_gnuplot.png'
plot '-' using 1:2 with lines title 'DOS'
-21.491400 0.000000
-21.470500 0.000000
-21.449600 0.000000
-21.428800 0.000000
-21.407900 0.000000
-21.387000 0.000000
-21.366200 0.000000
-21.345300 0.000000
-21.324400 0.000000
-21.303600 0.000000
-21.282700 0.000000
-21.261800 0.000000
-21.240900 0.000000
-21.220100 0.000000
-21.199200 0.000000
-21.178300 0.000000
-21.157500 0.000000
-21.136600 0.000000
-21.115700 0.000000
-21.094900 0.000000
-21.074000 0.000000
-21.053100 0.000000
-21.032200 0.000000
-21.011400 0.000000
-20.990500 0.000000
-20.969600 0.000000
-20.948800 0.000000
-20.927900 0.000000
-20.907000 0.000000
-20.886100 0.000000
-20.865300 0.000000
-20.844400 0.000000
-20.823500 0.000000
-20.802700 0.000000
-20.781800 0.000000
-20.760900 0.000000
-20.740100 0.000000
-20.719200 0.000000
-20.698300 0.000000
-20.677400 0.000000
-20.656600 0.000000
-20.635700 0.000000
-20.614800 0.000000
-20.594000 0.000000
-20.573100 0.000000
-20.552200 0.000000
-20.531400 0.000000
-20.510500 0.000000
-20.489600 0.000000
-20.468700 0.000000
-20.447900 0.000000
-20.427000 0.000000
-20.406100 0.000000
-20.385300 0.000000
-20.364400 0.000000
-20.343500 0.000000
-20.322700 0.000000
-20.301800 0.000000
-20.280900 0.000000
-20.260000 0.000000
-20.239200 0.000000
-20.218300 0.000000
-20.197400 0.000000
-20.176600 0.000000
-20.155700 0.000000
-20.134800 0.000000
-20.113900 0.000000
-20.093100 0.000000
-20.072200 0.000000
-20.051300 0.000000
-20.030500 0.000000
-20.009600 0.000000
-19.988700 0.000000
-19.967900 0.000000
-19.947000 0.000000
-19.926100 0.000000
-19.905200 0.000000
-19.884400 0.000000
-19.863500 0.000000
-19.842600 0.000000
-19.821800 0.000000
-19.800900 0.000000
-19.780000 0.000000
-19.759200 0.000000
-19.738300 0.000000
-19.717400 0.000000
-19.696500 0.000000
-19.675700 0.000000
-19.654800 0.000000
-19.633900 0.000000
-19.613100 0.000000
-19.592200 0.004300
-19.571300 0.622900
-19.550500 2.243200
-19.529600 4.525300
-19.508700 6.842400
-19.487800 11.294900
-19.467000 11.553800
-19.446100 13.156000
-19.425200 11.618900
-19.404400 8.476500
-19.383500 7.734700
-19.362600 5.798400
-19.341700 5.806100
-19.320900 5.813800
-19.300000 5.821500
-19.279100 5.829200
-19.258300 5.807400
-19.237400 5.695000
-19.216500 5.709600
-19.195700 8.551400
-19.174800 11.915000
-19.153900 12.949300
-19.133000 13.318800
-19.112200 13.102800
-19.091300 12.007900
-19.070400 12.403600
-19.049600 12.799200
-19.028700 13.194800
-19.007800 13.590400
-18.987000 13.953900
-18.966100 13.466900
-18.945200 13.455000
-18.924300 10.229800
-18.903500 16.218000
-18.882600 22.676300
-18.861700 7.398400
-18.840900 6.734700
-18.820000 6.071000
-18.799100 5.407200
-18.778300 4.743400
-18.757400 4.079600
-18.736500 3.415700
-18.715600 2.751700
-18.694800 2.087700
-18.673900 1.423700
-18.653000 0.759600
-18.632200 0.095400
-18.611300 0.000000
-18.590400 0.000000
-18.569500 0.038100
-18.548700 0.204700
-18.527800 0.520600
-18.506900 1.000900
-18.486100 1.518300
-18.465200 2.036100
-18.444300 2.554300
-18.423500 3.073000
-18.402600 3.592100
-18.381700 4.111600
-18.360800 4.631500
-18.340000 5.151900
-18.319100 5.710600
-18.298200 6.398800
-18.277400 7.219700
-18.256500 8.169500
-18.235600 29.651100
-18.214800 16.195100
-18.193900 11.170100
-18.173000 11.110500
-18.152100 10.903000
-18.131300 10.607900
-18.110400 10.312000
-18.089500 10.015900
-18.068700 9.719800
-18.047800 9.423600
-18.026900 10.401000
-18.006100 10.166500
-17.985200 10.122500
-17.964300 10.325100
-17.943400 7.146700
-17.922600 6.595100
-17.901700 6.333300
-17.880800 3.790700
-17.860000 3.862300
-17.839100 3.933900
-17.818200 4.005400
-17.797300 4.076900
-17.776500 4.129800
-17.755600 4.111700
-17.734700 4.093800
-17.713900 4.075900
-17.693000 4.058100
-17.672100 4.040400
-17.651300 4.022800
-17.630400 4.005300
-17.609500 5.428500
-17.588600 7.224400
-17.567800 8.152900
-17.546900 8.856900
-17.526000 9.197600
-17.505200 7.638700
-17.484300 6.717800
-17.463400 5.602700
-17.442600 5.386200
-17.421700 5.171700
-17.400800 4.278700
-17.379900 2.912800
-17.359100 67.025500
-17.338200 59.770800
-17.317300 98.628700
-17.296500 34.546300
-17.275600 30.090500
-17.254700 35.147600
-17.233900 0.000000
-17.213000 0.000000
-17.192100 0.000000
-17.171200 0.000000
-17.150400 0.000000
-17.129500 0.000000
-17.108600 0.000000
-17.087800 0.000000
-17.066900 0.000000
-17.046000 0.000000
-17.025200 0.000000
-17.004300 0.000000
-16.983400 0.000000
-16.962500 0.000000
-16.941700 0.000000
-16.920800 0.000000
-16.899900 0.000000
-16.879100 0.000000
-16.858200 0.000000
-16.837300 0.000000
-16.816400 0.000000
-16.795600 0.000000
-16.774700 0.000000
-16.753800 0.000000
-16.733000 0.000000
-16.712100 0.000000
-16.691200 0.000000
-16.670400 0.000000
-16.649500 0.000000
-16.628600 0.000000
-16.607700 0.000000
-16.586900 0.000000
-16.566000 0.000000
-16.545100 0.000000
-16.524300 0.000000
-16.503400 0.000000
-16.482500 0.000000
-16.461700 0.000000
-16.440800 0.000000
-16.419900 0.000000
-16.399000 0.000000
-16.378200 0.000000
-16.357300 0.000000
-16.336400 0.000000
-16.315600 0.000000
-16.294700 0.000000
-16.273800 0.000000
-16.253000 0.000000
-16.232100 0.000000
-16.211200 0.000000
-16.190300 0.000000
-16.169500 0.000000
-16.148600 0.000000
-16.127700 0.000000
-16.106900 0.000000
-16.086000 0.000000
-16.065100 0.000000
-16.044200 0.000000
-16.023400 0.000000
-16.002500 0.000000
-15.981600 0.000000
-15.960800 0.000000
-15.939900 0.000000
-15.919000 0.000000
-15.898200 0.000000
-15.877300 0.000000
-15.856400 0.000000
-15.835500 0.000000
-15.814700 0.000000
-15.793800 0.000000
-15.772900 0.000000
-15.752100 0.000000
-15.731200 0.000000
-15.710300 0.000000
-15.689500 0.000000
-15.668600 0.000000
-15.647700 0.000000
-15.626800 0.000000
-15.606000 0.000000
-15.585100 0.000000
-15.564200 0.000000
-15.543400 0.000000
-15.522500 0.000000
-15.501600 0.000000
-15.480800 0.000000
-15.459900 0.000000
-15.439000 0.000000
-15.418100 0.000000
-15.397300 0.000000
-15.376400 0.000000
-15.355500 0.000000
-15.334700 0.000000
-15.313800 0.000000
-15.292900 0.000000
-15.272000 0.000000
-15.251200 0.000000
-15.230300 0.000000
-15.209400 0.000000
-15.188600 0.000000
-15.167700 0.000000
-15.146800 0.000000
-15.126000 0.000000
-15.105100 0.000000
-15.084200 0.000000
-15.063300 0.000000
-15.042500 0.000000
-15.021600 0.000000
-15.000700 0.000000
-14.979900 0.000000
-14.959000 0.000000
-14.938100 0.000000
-14.917300 0.000000
-14.896400 0.000000
-14.875500 0.000000
-14.854600 0.000000
-14.833800 0.000000
-14.812900 0.000000
-14.792000 0.000000
-14.771200 0.000000
-14.750300 0.000000
-14.729400 0.000000
-14.708600 0.000000
-14.687700 0.000000
-14.666800 0.000000
-14.645900 0.000000
-14.625100 0.000000
-14.604200 0.000000
-14.583300 0.000000
-14.562500 0.000000
-14.541600 0.000000
-14.520700 0.000000
-14.499800 0.000000
-14.479000 0.000000
-14.458100 0.000000
-14.437200 0.000000
-14.416400 0.000000
-14.395500 0.000000
-14.374600 0.000000
-14.353800 0.000000
-14.332900 0.000000
-14.312000 0.000000
-14.291100 0.000000
-14.270300 0.000000
-14.249400 0.000000
-14.228500 0.000000
-14.207700 0.000000
-14.186800 0.000000
-14.165900 0.000000
-14.145100 0.000000
-14.124200 0.000000
-14.103300 0.000000
-14.082400 0.000000
-14.061600 0.000000
-14.040700 0.000000
-14.019800 0.000000
-13.999000 0.000000
-13.978100 0.000000
-13.957200 0.000000
-13.936400 0.000000
-13.915500 0.000000
-13.894600 0.000000
-13.873700 0.000000
-13.852900 0.000000
-13.832000 0.000000
-13.811100 0.000000
-13.790300 0.000000
-13.769400 0.000000
-13.748500 0.000000
-13.727600 0.000000
-13.706800 0.000000
-13.685900 0.000000
-13.665000 0.000000
-13.644200 0.000000
-13.623300 0.000000
-13.602400 0.000000
-13.581600 0.000000
-13.560700 0.000000
-13.539800 0.000000
-13.518900 0.000000
-13.498100 0.000000
-13.477200 0.000000
-13.456300 0.000000
-13.435500 0.000000
-13.414600 0.000000
-13.393700 0.000000
-13.372900 0.000000
-13.352000 0.000000
-13.331100 0.000000
-13.310200 0.000000
-13.289400 0.000000
-13.268500 0.000000
-13.247600 0.000000
-13.226800 0.000000
-13.205900 0.000000
-13.185000 0.000000
-13.164200 0.000000
-13.143300 0.000000
-13.122400 0.000000
-13.101500 0.000000
-13.080700 0.000000
-13.059800 0.000000
-13.038900 0.000000
-13.018100 0.000000
-12.997200 0.000000
-12.976300 0.000000
-12.955400 0.000000
-12.934600 0.000000
-12.913700 0.000000
-12.892800 0.000000
-12.872000 0.000000
-12.851100 0.000000
-12.830200 0.000000
-12.809400 0.000000
-12.788500 0.000000
-12.767600 0.000000
-12.746700 0.000000
-12.725900 0.000000
-12.705000 0.000000
-12.684100 0.000000
-12.663300 0.000000
-12.642400 0.000000
-12.621500 0.000000
-12.600700 0.000000
-12.579800 0.000000
-12.558900 0.000000
-12.538000 0.000000
-12.517200 0.000000
-12.496300 0.000000
-12.475400 0.000000
-12.454600 0.000000
-12.433700 0.000000
-12.412800 0.000000
-12.392000 0.000000
-12.371100 0.000000
-12.350200 0.000000
-12.329300 0.000000
-12.308500 0.000000
-12.287600 0.000000
-12.266700 0.000000
-12.245900 0.000000
-12.225000 0.000000
-12.204100 0.000000
-12.183200 0.000000
-12.162400 0.000000
-12.141500 0.000000
-12.120600 0.000000
-12.099800 0.000000
-12.078900 0.000000
-12.058000 0.000000
-12.037200 0.000000
-12.016300 0.000000
-11.995400 0.000000
-11.974500 0.000000
-11.953700 0.000000
-11.932800 0.000000
-11.911900 0.000000
-11.891100 0.000000
-11.870200 0.000000
-11.849300 0.000000
-11.828500 0.000000
-11.807600 0.000000
-11.786700 0.000000
-11.765800 0.000000
-11.745000 0.000000
-11.724100 0.000000
-11.703200 0.000000
-11.682400 0.000000
-11.661500 0.000000
-11.640600 0.000000
-11.619800 0.000000
-11.598900 0.000000
-11.578000 0.000000
-11.557100 0.000000
-11.536300 0.000000
-11.515400 0.000000
-11.494500 0.000000
-11.473700 0.000000
-11.452800 0.000000
-11.431900 0.000000
-11.411000 0.000000
-11.390200 0.000000
-11.369300 0.000000
-11.348400 0.000000
-11.327600 0.000000
-11.306700 0.000000
-11.285800 0.000000
-11.265000 0.000000
-11.244100 0.000000
-11.223200 0.000000
-11.202300 0.000000
-11.181500 0.000000
-11.160600 0.000000
-11.139700 0.028000
-11.118900 0.190700
-11.098000 0.497300
-11.077100 0.934200
-11.056300 1.395400
-11.035400 1.856200
-11.014500 2.316800
-10.993600 2.776900
-10.972800 3.197200
-10.951900 3.542600
-10.931000 3.812300
-10.910200 4.024900
-10.889300 4.765100
-10.868400 5.583800
-10.847600 6.131000
-10.826700 6.653700
-10.805800 6.775700
-10.784900 6.423400
-10.764100 6.047200
-10.743200 5.184000
-10.722300 4.547000
-10.701500 4.062800
-10.680600 3.486200
-10.659700 3.367700
-10.638800 3.380600
-10.618000 3.393500
-10.597100 3.406500
-10.576200 3.419500
-10.555400 3.432300
-10.534500 3.429900
-10.513600 3.401700
-10.492800 3.351800
-10.471900 3.284600
-10.451000 3.215700
-10.430100 3.147000
-10.409300 3.078300
-10.388400 3.005100
-10.367500 2.884300
-10.346700 2.832600
-10.325800 2.799200
-10.304900 2.778700
-10.284100 2.782700
-10.263200 2.786800
-10.242300 4.092900
-10.221400 4.984800
-10.200600 5.156300
-10.179700 5.328100
-10.158800 6.808400
-10.138000 7.421200
-10.117100 7.009900
-10.096200 7.254100
-10.075400 7.498700
-10.054500 7.288600
-10.033600 6.819600
-10.012700 6.960100
-9.991900 7.100700
-9.971000 7.241400
-9.950100 7.382100
-9.929300 6.230600
-9.908400 4.984600
-9.887500 24.092100
-9.866600 13.039400
-9.845800 11.340400
-9.824900 9.939200
-9.804000 5.167200
-9.783200 5.092300
-9.762300 5.007500
-9.741400 4.878700
-9.720600 4.703100
-9.699700 4.482800
-9.678800 4.220500
-9.657900 3.916300
-9.637100 3.581900
-9.616200 3.264400
-9.595300 2.981900
-9.574500 2.734300
-9.553600 2.517400
-9.532700 2.329700
-9.511900 2.171100
-9.491000 2.026700
-9.470100 1.882200
-9.449200 1.737700
-9.428400 1.593100
-9.407500 1.448500
-9.386600 1.303800
-9.365800 1.159100
-9.344900 1.014400
-9.324000 0.869600
-9.303200 0.724700
-9.282300 0.579900
-9.261400 0.434900
-9.240500 0.290000
-9.219700 0.150700
-9.198800 0.045300
-9.177900 0.000000
-9.157100 0.000000
-9.136200 0.000000
-9.115300 0.011300
-9.094400 0.122400
-9.073600 0.244900
-9.052700 0.367300
-9.031800 0.489800
-9.011000 0.612200
-8.990100 0.734600
-8.969200 0.857100
-8.948400 0.979500
-8.927500 1.101900
-8.906600 1.224400
-8.885700 1.346800
-8.864900 1.469200
-8.844000 1.591600
-8.823100 1.714000
-8.802300 1.836400
-8.781400 1.958900
-8.760500 2.081300
-8.739700 2.203700
-8.718800 2.326000
-8.697900 2.448400
-8.677000 2.570800
-8.656200 2.693200
-8.635300 2.815600
-8.614400 2.938000
-8.593600 3.060300
-8.572700 3.428200
-8.551800 4.535600
-8.531000 9.129300
-8.510100 9.082400
-8.489200 8.093700
-8.468300 6.820100
-8.447500 5.390100
-8.426600 6.188800
-8.405700 5.633000
-8.384900 4.873200
-8.364000 4.814000
-8.343100 4.863500
-8.322200 4.913000
-8.301400 4.962500
-8.280500 5.011900
-8.259600 5.061200
-8.238800 5.110500
-8.217900 5.153000
-8.197000 5.175200
-8.176200 5.176800
-8.155300 5.157500
-8.134400 5.116900
-8.113500 5.060100
-8.092700 5.002300
-8.071800 4.944400
-8.050900 4.886500
-8.030100 4.828700
-8.009200 4.770900
-7.988300 4.713100
-7.967500 4.655300
-7.946600 4.634500
-7.925700 4.767400
-7.904800 4.653900
-7.884000 4.551900
-7.863100 4.480000
-7.842200 4.557500
-7.821400 4.467900
-7.800500 4.328800
-7.779600 4.190000
-7.758800 4.051500
-7.737900 3.913400
-7.717000 3.779000
-7.696100 3.650900
-7.675300 3.528800
-7.654400 3.169100
-7.633500 2.770800
-7.612700 2.505000
-7.591800 2.451600
-7.570900 2.347500
-7.550000 2.005900
-7.529200 1.685200
-7.508300 1.596700
-7.487400 1.594900
-7.466600 1.593200
-7.445700 1.591500
-7.424800 1.589800
-7.404000 1.588000
-7.383100 1.586300
-7.362200 1.584600
-7.341300 1.582900
-7.320500 1.581200
-7.299600 1.579500
-7.278700 1.577800
-7.257900 1.576100
-7.237000 1.574300
-7.216100 1.572600
-7.195300 1.571000
-7.174400 1.569300
-7.153500 1.567600
-7.132600 1.671000
-7.111800 1.780300
-7.090900 1.797300
-7.070000 1.814200
-7.049200 1.880400
-7.028300 2.034600
-7.007400 2.110200
-6.986600 2.148300
-6.965700 2.186400
-6.944800 2.224500
-6.923900 2.262500
-6.903100 2.300400
-6.882200 2.338300
-6.861300 2.376200
-6.840500 2.414100
-6.819600 2.451900
-6.798700 2.489600
-6.777800 2.527300
-6.757000 2.551900
-6.736100 2.543300
-6.715200 2.506900
-6.694400 2.379500
-6.673500 2.179400
-6.652600 1.980700
-6.631800 1.793100
-6.610900 1.657800
-6.590000 1.472500
-6.569100 1.291100
-6.548300 1.125200
-6.527400 1.087700
-6.506500 1.050100
-6.485700 1.012600
-6.464800 0.975100
-6.443900 0.937500
-6.423100 0.900000
-6.402200 0.862500
-6.381300 0.824900
-6.360400 0.787400
-6.339600 0.749900
-6.318700 0.712300
-6.297800 0.674800
-6.277000 0.637300
-6.256100 0.599700
-6.235200 0.562200
-6.214400 0.524700
-6.193500 0.487200
-6.172600 0.449600
-6.151700 0.412100
-6.130900 0.374600
-6.110000 0.337000
-6.089100 0.299500
-6.068300 0.262000
-6.047400 0.224400
-6.026500 0.186900
-6.005600 0.149400
-5.984800 0.111900
-5.963900 0.076000
-5.943000 0.047800
-5.922200 0.027800
-5.901300 0.013400
-5.880400 0.004200
-5.859600 0.000200
-5.838700 0.000000
-5.817800 0.000000
-5.796900 0.000000
-5.776100 0.000000
-5.755200 0.000000
-5.734300 0.000000
-5.713500 0.818600
-5.692600 2.372800
-5.671700 3.854400
-5.650900 4.952200
-5.630000 5.840000
-5.609100 7.766400
-5.588200 9.778800
-5.567400 9.841800
-5.546500 10.013400
-5.525600 10.637900
-5.504800 12.160200
-5.483900 14.694600
-5.463000 13.918200
-5.442200 14.017100
-5.421300 12.816900
-5.400400 14.442700
-5.379500 16.237400
-5.358700 16.696100
-5.337800 17.163600
-5.316900 16.985700
-5.296100 21.751600
-5.275200 24.764200
-5.254300 21.829000
-5.233400 16.226500
-5.212600 13.497300
-5.191700 11.182600
-5.170800 16.513200
-5.150000 18.038100
-5.129100 11.718800
-5.108200 10.348000
-5.087400 7.850100
-5.066500 2.765700
-5.045600 1.575200
-5.024700 1.730900
-5.003900 2.135500
-4.983000 2.532500
-4.962100 2.765700
-4.941300 2.845900
-4.920400 3.128400
-4.899500 3.472000
-4.878700 3.702500
-4.857800 3.800900
-4.836900 3.921000
-4.816000 4.015000
-4.795200 4.097900
-4.774300 4.184800
-4.753400 4.293400
-4.732600 4.481800
-4.711700 4.765600
-4.690800 5.114800
-4.670000 5.453900
-4.649100 5.846400
-4.628200 6.264500
-4.607300 6.673600
-4.586500 7.446500
-4.565600 8.240900
-4.544700 8.841300
-4.523900 8.849200
-4.503000 8.764200
-4.482100 10.042200
-4.461200 9.831600
-4.440400 8.691100
-4.419500 7.891700
-4.398600 7.680200
-4.377800 7.468500
-4.356900 6.805100
-4.336000 6.084200
-4.315200 6.195100
-4.294300 6.616100
-4.273400 7.052200
-4.252500 7.735700
-4.231700 8.718200
-4.210800 9.757900
-4.189900 10.804900
-4.169100 11.985800
-4.148200 13.709600
-4.127300 14.660000
-4.106500 15.245700
-4.085600 14.868800
-4.064700 12.847800
-4.043800 12.765600
-4.023000 12.897500
-4.002100 12.905600
-3.981200 16.585300
-3.960400 16.452600
-3.939500 18.356000
-3.918600 18.626800
-3.897800 9.755500
-3.876900 7.493700
-3.856000 5.276100
-3.835100 5.071800
-3.814300 6.132100
-3.793400 7.308800
-3.772500 8.559400
-3.751700 8.616400
-3.730800 6.630600
-3.709900 7.885400
-3.689000 9.434500
-3.668200 11.302100
-3.647300 13.402600
-3.626400 12.840900
-3.605600 12.368600
-3.584700 12.761300
-3.563800 13.215000
-3.543000 13.672000
-3.522100 14.141300
-3.501200 14.630700
-3.480300 15.135500
-3.459500 17.090300
-3.438600 15.825700
-3.417700 13.729100
-3.396900 11.571800
-3.376000 10.312100
-3.355100 7.791700
-3.334300 6.801600
-3.313400 5.407700
-3.292500 4.771300
-3.271600 4.395300
-3.250800 4.426600
-3.229900 2.417000
-3.209000 4.742300
-3.188200 7.193400
-3.167300 9.321800
-3.146400 11.396300
-3.125600 13.342500
-3.104700 16.930600
-3.083800 17.603200
-3.062900 19.356500
-3.042100 18.373800
-3.021200 16.908200
-3.000300 15.772100
-2.979500 16.934600
-2.958600 9.436400
-2.937700 5.425700
-2.916900 2.269600
-2.896000 1.686000
-2.875100 1.108800
-2.854200 4.710000
-2.833400 11.776100
-2.812500 14.688400
-2.791600 16.573200
-2.770800 14.462800
-2.749900 14.577900
-2.729000 14.338800
-2.708100 13.554000
-2.687300 13.562200
-2.666400 19.110200
-2.645500 23.042400
-2.624700 12.748700
-2.603800 6.964100
-2.582900 4.864100
-2.562100 3.212300
-2.541200 1.829200
-2.520300 1.667300
-2.499400 2.870100
-2.478600 5.392500
-2.457700 10.786800
-2.436800 11.068400
-2.416000 11.408700
-2.395100 13.277200
-2.374200 12.930900
-2.353400 12.520300
-2.332500 12.608300
-2.311600 15.334100
-2.290700 20.340700
-2.269900 23.424600
-2.249000 24.671900
-2.228100 26.315100
-2.207300 26.689300
-2.186400 28.417100
-2.165500 34.881300
-2.144700 21.121300
-2.123800 21.391900
-2.102900 32.609000
-2.082000 20.810200
-2.061200 0.056900
-2.040300 10.273500
-2.019400 8.683500
-1.998600 6.548500
-1.977700 6.537200
-1.956800 6.486800
-1.935900 6.298600
-1.915100 6.176000
-1.894200 6.107800
-1.873300 5.941700
-1.852500 5.594900
-1.831600 19.554800
-1.810700 30.363400
-1.789900 18.169300
-1.769000 15.805000
-1.748100 15.170000
-1.727200 12.113000
-1.706400 5.827400
-1.685500 3.477500
-1.664600 10.433500
-1.643800 15.141400
-1.622900 17.306300
-1.602000 18.988100
-1.581200 21.509700
-1.560300 25.292300
-1.539400 20.882600
-1.518500 20.074800
-1.497700 16.133000
-1.476800 18.227000
-1.455900 1.685800
-1.435100 0.440300
-1.414200 0.000800
-1.393300 5.559100
-1.372500 8.142200
-1.351600 10.170500
-1.330700 11.277200
-1.309800 12.690200
-1.289000 27.314600
-1.268100 20.139400
-1.247200 13.273300
-1.226400 10.715200
-1.205500 19.512100
-1.184600 29.017700
-1.163700 24.586400
-1.142900 19.946700
-1.122000 17.777000
-1.101100 23.885700
-1.080300 32.084500
-1.059400 29.543700
-1.038500 16.823400
-1.017700 22.939600
-0.996800 24.248800
-0.975900 26.161300
-0.955000 31.082900
-0.934200 21.128300
-0.913300 24.088400
-0.892400 23.082600
-0.871600 19.719600
-0.850700 17.905900
-0.829800 24.389400
-0.809000 19.290600
-0.788100 22.044800
-0.767200 26.102000
-0.746300 26.305300
-0.725500 22.120000
-0.704600 15.892300
-0.683700 16.328300
-0.662900 14.931000
