set title 'mp-81 - Density of States'
set xlabel 'Energy (eV)'
set ylabel 'DOS (states/eV)'
set grid
set xrange [-10:10]
set yrange [0:4.812]
set xzeroaxis lt -1
set terminal png size 800,600
set output 'mp-81_dos_gnuplot.png'
plot '-' using 1:2 with lines title 'DOS'
-6.577300 0.000000
-6.551600 0.000000
-6.525800 0.000000
-6.500100 0.000000
-6.474400 0.000000
-6.448700 0.000000
-6.422900 0.000000
-6.397200 0.000000
-6.371500 0.000000
-6.345800 0.000000
-6.320100 0.000000
-6.294300 0.000000
-6.268600 0.000000
-6.242900 0.000000
-6.217200 0.000000
-6.191500 0.000000
-6.165700 0.000000
-6.140000 0.000000
-6.114300 0.000000
-6.088600 0.000000
-6.062900 0.000000
-6.037100 0.000000
-6.011400 0.000000
-5.985700 0.000000
-5.960000 0.000000
-5.934200 0.000000
-5.908500 0.000000
-5.882800 0.000000
-5.857100 0.000000
-5.831400 0.000000
-5.805600 0.000000
-5.779900 0.000000
-5.754200 0.000000
-5.728500 0.000000
-5.702800 0.000000
-5.677000 0.000000
-5.651300 0.000000
-5.625600 0.000000
-5.599900 0.000000
-5.574100 0.000000
-5.548400 0.000000
-5.522700 0.000000
-5.497000 0.000000
-5.471300 0.000000
-5.445500 0.000000
-5.419800 0.000000
-5.394100 0.000000
-5.368400 0.000000
-5.342700 0.000000
-5.316900 0.000000
-5.291200 0.000000
-5.265500 0.000000
-5.239800 0.000000
-5.214100 0.000000
-5.188300 0.000000
-5.162600 0.000000
-5.136900 0.000000
-5.111200 0.000000
-5.085400 0.000000
-5.059700 0.000000
-5.034000 0.000000
-5.008300 0.000000
-4.982600 0.000000
-4.956800 0.000000
-4.931100 0.000000
-4.905400 0.000000
-4.879700 0.000000
-4.854000 0.000000
-4.828200 0.000000
-4.802500 0.000000
-4.776800 0.000000
-4.751100 0.000000
-4.725400 0.000000
-4.699600 0.000000
-4.673900 0.000000
-4.648200 0.000000
-4.622500 0.000000
-4.596700 0.000000
-4.571000 0.000000
-4.545300 0.000000
-4.519600 0.000000
-4.493900 0.000000
-4.468100 0.000000
-4.442400 0.000000
-4.416700 0.000000
-4.391000 0.000000
-4.365300 0.000000
-4.339500 0.000000
-4.313800 0.000000
-4.288100 0.000000
-4.262400 0.000000
-4.236600 0.000000
-4.210900 0.004700
-4.185200 0.017300
-4.159500 0.020200
-4.133800 0.023800
-4.108000 0.027800
-4.082300 0.032200
-4.056600 0.036400
-4.030900 0.039000
-4.005200 0.039900
-3.979400 0.042100
-3.953700 0.044700
-3.928000 0.047400
-3.902300 0.050100
-3.876600 0.052800
-3.850800 0.055700
-3.825100 0.056800
-3.799400 0.058600
-3.773700 0.060400
-3.747900 0.062100
-3.722200 0.063900
-3.696500 0.065900
-3.670800 0.068000
-3.645100 0.070100
-3.619300 0.072300
-3.593600 0.074600
-3.567900 0.076600
-3.542200 0.078100
-3.516500 0.079400
-3.490700 0.081200
-3.465000 0.082900
-3.439300 0.084700
-3.413600 0.086500
-3.387800 0.088300
-3.362100 0.090200
-3.336400 0.092100
-3.310700 0.094200
-3.285000 0.096200
-3.259200 0.098300
-3.233500 0.100300
-3.207800 0.102000
-3.182100 0.103700
-3.156400 0.105500
-3.130600 0.107300
-3.104900 0.109200
-3.079200 0.111100
-3.053500 0.113200
-3.027800 0.115200
-3.002000 0.117300
-2.976300 0.119500
-2.950600 0.121600
-2.924900 0.123800
-2.899100 0.126100
-2.873400 0.128500
-2.847700 0.130800
-2.822000 0.133100
-2.796300 0.135300
-2.770500 0.137700
-2.744800 0.140100
-2.719100 0.142600
-2.693400 0.145100
-2.667700 0.147800
-2.641900 0.150600
-2.616200 0.153500
-2.590500 0.156400
-2.564800 0.159500
-2.539100 0.162600
-2.513300 0.165800
-2.487600 0.169100
-2.461900 0.172500
-2.436200 0.176000
-2.410400 0.179600
-2.384700 0.183300
-2.359000 0.187300
-2.333300 0.191500
-2.307600 0.196100
-2.281800 0.200800
-2.256100 0.205900
-2.230400 0.211400
-2.204700 0.217200
-2.179000 0.223400
-2.153200 0.229800
-2.127500 0.236500
-2.101800 0.243800
-2.076100 0.251400
-2.050300 0.259400
-2.024600 0.267700
-1.998900 0.276400
-1.973200 0.287300
-1.947500 0.306400
-1.921700 0.326800
-1.896000 0.349300
-1.870300 0.374000
-1.844600 0.401100
-1.818900 0.510700
-1.793100 0.714800
-1.767400 0.656000
-1.741700 0.681400
-1.716000 0.704600
-1.690300 0.722400
-1.664500 0.705900
-1.638800 0.698000
-1.613100 0.712500
-1.587400 0.726700
-1.561600 0.806600
-1.535900 0.902100
-1.510200 0.926800
-1.484500 0.985100
-1.458800 1.040600
-1.433000 1.095600
-1.407300 1.168200
-1.381600 1.258600
-1.355900 1.365300
-1.330200 1.361700
-1.304400 1.391400
-1.278700 1.499300
-1.253000 1.593900
-1.227300 1.682100
-1.201500 1.783700
-1.175800 1.841400
-1.150100 1.896900
-1.124400 1.968000
-1.098700 2.066100
-1.072900 2.116100
-1.047200 2.121100
-1.021500 2.111700
-0.995800 2.065500
-0.970100 2.052900
-0.944300 2.027200
-0.918600 1.983500
-0.892900 1.964500
-0.867200 1.945000
-0.841500 1.921100
-0.815700 1.889300
-0.790000 1.864200
-0.764300 1.847000
-0.738600 1.825500
-0.712800 1.801100
-0.687100 1.782800
-0.661400 1.775500
-0.635700 1.775700
-0.610000 1.799300
-0.584200 1.859400
-0.558500 1.794200
-0.532800 1.723600
-0.507100 1.636700
-0.481400 1.558000
-0.455600 1.467500
-0.429900 1.406900
-0.404200 1.319200
-0.378500 1.163700
-0.352700 1.139700
-0.327000 1.137000
-0.301300 1.150100
-0.275600 1.215500
-0.249900 1.410000
-0.224100 1.615100
-0.198400 1.776300
-0.172700 2.030100
-0.147000 2.009900
-0.121300 1.988200
-0.095500 2.002700
-0.069800 2.059300
-0.044100 2.038100
-0.018400 2.007000
0.007300 2.110100
0.033100 2.149200
0.058800 2.110000
0.084500 2.125100
0.110200 2.131400
0.136000 2.158600
0.161700 2.186400
0.187400 2.115400
0.213100 1.999900
0.238800 2.065200
0.264600 2.187100
0.290300 2.199900
0.316000 2.246500
0.341700 2.287800
0.367400 2.241500
0.393200 2.212600
0.418900 2.214900
0.444600 2.248800
0.470300 2.283300
0.496000 2.366200
0.521800 2.251800
0.547500 2.398500
0.573200 2.566900
0.598900 2.724500
0.624700 2.813600
0.650400 2.804000
0.676100 2.879800
0.701800 2.999800
0.727500 3.232800
0.753300 3.684400
0.779000 3.620800
0.804700 3.722700
0.830400 4.317300
0.856100 4.374400
0.881900 3.489200
0.907600 3.099800
0.933300 2.793700
0.959000 2.623600
0.984800 2.412500
1.010500 2.239200
1.036200 2.105900
1.061900 1.956900
1.087600 1.963500
1.113400 2.031700
1.139100 1.566800
1.164800 1.520700
1.190500 1.549800
1.216200 1.742100
1.242000 2.132000
1.267700 2.255300
1.293400 2.084900
1.319100 1.944200
1.344800 1.874300
1.370600 1.820200
1.396300 1.768300
1.422000 1.777100
1.447700 1.796900
1.473500 1.835900
1.499200 1.920400
1.524900 2.024500
1.550600 2.214200
1.576300 2.263000
1.602100 2.284600
1.627800 2.310600
1.653500 2.301700
1.679200 2.292000
1.704900 2.300100
1.730700 2.292800
1.756400 2.335600
1.782100 2.516500
1.807800 2.430900
1.833600 2.936600
1.859300 2.339900
1.885000 2.169600
1.910700 2.221200
1.936400 2.212300
1.962200 2.149100
1.987900 2.089600
2.013600 2.036100
2.039300 2.012600
2.065000 1.989400
2.090800 1.952800
2.116500 1.971100
2.142200 1.927100
2.167900 1.899300
2.193600 1.866800
2.219400 1.826400
2.245100 1.802200
2.270800 1.781700
2.296500 1.758800
2.322300 1.755300
2.348000 1.765200
2.373700 1.791900
2.399400 1.819600
2.425100 1.836200
2.450900 1.865100
2.476600 1.886700
2.502300 1.910000
2.528000 1.850800
2.553700 1.854300
2.579500 1.895400
2.605200 1.984500
2.630900 2.040500
2.656600 2.116900
2.682300 2.196700
2.708100 2.255000
2.733800 2.244100
2.759500 2.270600
2.785200 2.422100
2.811000 2.612400
2.836700 2.781900
2.862400 3.386700
2.888100 3.529900
2.913800 3.550400
2.939600 3.474300
2.965300 3.615700
2.991000 2.940500
3.016700 2.587200
3.042400 2.354700
3.068200 2.080700
3.093900 1.792200
3.119600 1.628100
3.145300 1.499600
3.171100 1.404600
3.196800 1.412700
3.222500 1.235100
3.248200 1.045700
3.273900 0.287800
3.299700 0.287500
3.325400 0.288800
3.351100 0.290100
3.376800 0.291200
3.402500 0.292200
3.428300 0.293000
3.454000 0.293700
3.479700 0.294300
3.505400 0.294900
3.531100 0.295300
3.556900 0.295600
3.582600 0.295900
3.608300 0.296000
3.634000 0.296000
3.659800 0.295600
3.685500 0.294800
3.711200 0.293900
3.736900 0.291800
3.762600 0.287000
3.788400 0.283200
3.814100 0.281800
3.839800 0.281300
3.865500 0.281400
3.891200 0.281800
3.917000 0.282300
3.942700 0.282900
3.968400 0.283600
3.994100 0.284500
4.019900 0.285400
4.045600 0.286500
4.071300 0.287600
4.097000 0.288800
4.122700 0.290200
4.148500 0.291700
4.174200 0.293400
4.199900 0.295000
4.225600 0.296400
4.251300 0.297200
4.277100 0.297600
4.302800 0.296900
4.328500 0.294800
4.354200 0.293900
4.379900 0.293600
4.405700 0.293300
4.431400 0.293200
4.457100 0.293000
4.482800 0.292800
4.508600 0.292600
4.534300 0.292200
4.560000 0.291800
4.585700 0.291500
4.611400 0.292000
4.637200 0.292500
4.662900 0.293100
4.688600 0.293600
4.714300 0.294200
4.740000 0.294700
4.765800 0.295200
4.791500 0.295700
4.817200 0.296200
4.842900 0.296700
4.868700 0.297200
4.894400 0.297500
4.920100 0.297500
4.945800 0.296000
4.971500 0.294000
4.997300 0.292500
5.023000 0.291600
5.048700 0.290900
5.074400 0.290400
5.100100 0.290000
5.125900 0.289800
5.151600 0.289600
5.177300 0.289500
5.203000 0.289400
5.228700 0.289400
5.254500 0.289400
5.280200 0.289300
5.305900 0.289200
5.331600 0.289200
5.357400 0.289200
5.383100 0.289200
5.408800 0.289200
5.434500 0.289200
5.460200 0.289200
5.486000 0.289200
5.511700 0.289300
5.537400 0.289300
5.563100 0.289400
5.588800 0.289400
5.614600 0.289200
5.640300 0.289000
5.666000 0.288800
5.691700 0.288600
5.717400 0.288200
5.743200 0.287700
5.768900 0.287100
5.794600 0.286900
5.820300 0.286600
5.846100 0.286500
5.871800 0.286400
5.897500 0.286300
5.923200 0.286200
5.948900 0.286100
5.974700 0.286100
6.000400 0.286200
6.026100 0.286400
6.051800 0.286600
6.077500 0.286700
6.103300 0.286700
6.129000 0.286600
6.154700 0.286500
6.180400 0.286400
6.206200 0.286200
6.231900 0.286000
6.257600 0.285900
6.283300 0.285900
6.309000 0.285900
6.334800 0.294900
6.360500 0.283900
6.386200 0.284100
6.411900 0.284100
6.437600 0.284100
6.463400 0.284000
6.489100 0.283900
6.514800 0.283800
6.540500 0.283600
6.566200 0.283300
6.592000 0.283000
6.617700 0.281800
6.643400 0.280700
6.669100 0.279700
6.694900 0.278500
6.720600 0.277100
6.746300 0.275500
6.772000 0.273800
6.797700 0.272300
6.823500 0.270700
6.849200 0.269300
6.874900 0.267900
6.900600 0.266500
6.926300 0.266500
6.952100 0.266500
6.977800 0.266800
7.003500 0.266900
7.029200 0.266400
7.055000 0.266000
7.080700 0.266300
7.106400 0.266500
7.132100 0.266300
7.157800 0.265800
7.183600 0.265100
7.209300 0.265300
7.235000 0.265600
7.260700 0.266000
7.286400 0.265200
7.312200 0.264300
7.337900 0.263900
7.363600 0.264000
7.389300 0.264500
7.415000 0.265300
7.440800 0.266100
7.466500 0.267100
7.492200 0.268300
7.517900 0.270800
7.543700 0.273000
7.569400 0.272900
7.595100 0.272200
7.620800 0.271100
7.646500 0.269400
7.672300 0.267300
7.698000 0.264600
7.723700 0.261400
7.749400 0.259000
7.775100 0.320300
7.800900 0.375200
7.826600 0.419200
7.852300 0.454100
7.878000 0.479000
7.903700 0.467700
7.929500 0.452400
7.955200 0.440800
7.980900 0.426700
8.006600 0.417300
8.032400 0.412700
8.058100 0.406300
8.083800 0.398000
8.109500 0.388200
8.135200 0.379400
8.161000 0.372400
8.186700 0.367000
8.212400 0.362100
8.238100 0.356300
8.263800 0.350400
8.289600 0.344200
8.315300 0.338000
8.341000 0.332100
8.366700 0.327100
8.392500 0.323000
8.418200 0.319700
8.443900 0.318200
8.469600 0.317200
8.495300 0.318800
8.521100 0.319900
8.546800 0.317800
8.572500 0.310400
8.598200 0.302100
8.623900 0.295900
8.649700 0.291800
8.675400 0.287800
8.701100 0.284000
8.726800 0.280500
8.752500 0.288700
8.778300 0.272100
8.804000 0.273600
8.829700 0.275300
8.855400 0.272700
8.881200 0.266300
8.906900 0.259700
8.932600 0.254100
8.958300 0.249400
8.984000 0.245500
9.009800 0.242400
9.035500 0.240000
9.061200 0.238300
9.086900 0.237200
9.112600 0.236900
9.138400 0.236800
9.164100 0.237000
9.189800 0.240900
9.215500 0.245700
9.241300 0.249100
9.267000 0.251400
9.292700 0.254500
9.318400 0.245400
9.344100 0.252500
9.369900 0.260600
9.395600 0.269700
9.421300 0.279800
9.447000 0.292500
9.472700 0.309600
9.498500 0.328500
9.524200 0.330200
9.549900 0.330900
9.575600 0.331300
9.601300 0.331400
9.627100 0.331500
9.652800 0.331400
9.678500 0.332700
9.704200 0.334900
9.730000 0.336800
9.755700 0.343700
9.781400 0.355000
9.807100 0.369400
9.832800 0.385600
9.858600 0.397700
9.884300 0.398200
9.910000 0.398800
9.935700 0.387400
9.961400 0.388000
9.987200 0.389600
10.012900 0.392000
10.038600 0.394700
10.064300 0.397200
10.090000 0.399700
10.115800 0.404600
10.141500 0.410600
10.167200 0.401500
10.192900 0.401900
10.218700 0.402400
10.244400 0.402500
10.270100 0.403800
10.295800 0.405300
10.321500 0.405000
10.347300 0.401000
10.373000 0.394300
10.398700 0.390000
10.424400 0.385100
10.450100 0.378800
10.475900 0.375300
10.501600 0.372100
10.527300 0.369700
10.553000 0.367800
10.578800 0.365600
10.604500 0.363300
10.630200 0.361000
10.655900 0.359400
10.681600 0.358600
10.707400 0.358600
10.733100 0.359500
10.758800 0.361100
10.784500 0.359500
10.810200 0.354700
10.836000 0.346000
10.861700 0.332500
10.887400 0.321200
10.913100 0.317300
10.938800 0.313700
10.964600 0.311500
10.990300 0.310200
11.016000 0.308500
11.041700 0.306200
11.067500 0.303500
11.093200 0.300300
11.118900 0.296600
11.144600 0.292500
11.170300 0.287800
11.196100 0.283500
11.221800 0.280700
11.247500 0.285400
11.273200 0.293900
11.298900 0.273100
11.324700 0.271300
11.350400 0.271100
11.376100 0.271600
11.401800 0.277000
11.427600 0.278300
11.453300 0.279000
11.479000 0.279100
11.504700 0.278900
11.530400 0.278600
11.556200 0.278300
11.581900 0.277900
11.607600 0.277300
11.633300 0.276700
11.659000 0.276200
11.684800 0.275700
11.710500 0.275100
11.736200 0.274800
11.761900 0.275600
11.787600 0.277600
11.813400 0.281800
11.839100 0.288700
11.864800 0.298200
11.890500 0.310300
11.916300 0.325000
11.942000 0.336200
11.967700 0.343000
11.993400 0.347800
12.019100 0.350500
12.044900 0.352500
12.070600 0.354200
12.096300 0.355700
12.122000 0.356900
12.147700 0.357800
12.173500 0.358100
12.199200 0.357900
12.224900 0.359400
12.250600 0.359300
12.276400 0.357300
12.302100 0.356500
12.327800 0.356900
12.353500 0.358400
12.379200 0.360500
12.405000 0.362900
12.430700 0.365600
12.456400 0.368500
12.482100 0.371400
12.507800 0.373300
12.533600 0.371700
12.559300 0.368800
12.585000 0.366100
12.610700 0.363300
12.636400 0.360800
12.662200 0.358800
12.687900 0.357200
12.713600 0.356100
12.739300 0.355300
12.765100 0.354900
12.790800 0.354800
12.816500 0.354900
12.842200 0.355200
12.867900 0.355700
12.893700 0.357200
12.919400 0.358700
12.945100 0.360200
12.970800 0.361700
12.996500 0.362900
13.022300 0.363900
13.048000 0.364800
13.073700 0.366900
13.099400 0.368200
13.125100 0.369200
13.150900 0.370000
13.176600 0.370200
13.202300 0.370600
13.228000 0.371400
13.253800 0.370500
13.279500 0.369300
13.305200 0.368300
13.330900 0.367300
13.356600 0.365600
13.382400 0.364000
13.408100 0.362100
13.433800 0.360200
13.459500 0.358600
13.485200 0.357300
13.511000 0.356300
13.536700 0.355600
13.562400 0.355300
13.588100 0.355400
13.613900 0.355800
13.639600 0.356700
13.665300 0.357800
13.691000 0.359000
13.716700 0.388400
13.742500 0.361500
13.768200 0.363100
13.793900 0.364800
13.819600 0.366700
13.845300 0.368400
13.871100 0.370100
13.896800 0.371400
13.922500 0.372800
13.948200 0.371200
13.973900 0.368900
13.999700 0.367200
14.025400 0.366100
14.051100 0.365500
14.076800 0.364800
14.102600 0.364200
14.128300 0.363500
14.154000 0.460800
14.179700 0.389400
14.205400 0.394100
14.231200 0.406800
14.256900 0.411700
14.282600 0.405000
14.308300 0.406500
14.334000 0.411100
14.359800 0.414500
14.385500 0.416300
14.411200 0.419800
14.436900 0.427300
14.462700 0.436700
14.488400 0.438700
14.514100 0.437100
14.539800 0.435800
14.565500 0.438200
14.591300 0.439300
14.617000 0.440700
14.642700 0.442900
14.668400 0.448100
14.694100 0.453100
14.719900 0.457600
14.745600 0.463000
14.771300 0.473300
14.797000 0.482300
14.822700 0.483600
14.848500 0.479900
14.874200 0.481700
14.899900 0.489800
14.925600 0.508700
14.951400 0.516900
14.977100 0.525300
15.002800 0.538200
15.028500 0.541000
15.054200 0.517700
15.080000 0.517400
15.105700 0.519600
15.131400 0.522500
15.157100 0.526200
15.182800 0.530700
15.208600 0.535900
15.234300 0.530900
15.260000 0.523800
15.285700 0.519600
15.311400 0.516800
15.337200 0.515600
15.362900 0.515600
15.388600 0.515400
15.414300 0.514300
15.440100 0.512700
15.465800 0.512900
15.491500 0.513600
15.517200 0.514200
15.542900 0.514900
15.568700 0.515900
15.594400 0.517100
15.620100 0.518300
15.645800 0.519100
15.671500 0.519000
15.697300 0.517900
15.723000 0.519000
15.748700 0.519900
15.774400 0.520200
15.800200 0.519700
15.825900 0.518400
15.851600 0.517100
15.877300 0.516200
15.903000 0.515600
15.928800 0.515200
15.954500 0.514900
15.980200 0.514700
16.005900 0.514500
16.031600 0.514200
16.057400 0.514000
16.083100 0.513700
16.108800 0.513500
16.134500 0.513200
16.160200 0.512900
16.186000 0.512500
16.211700 0.511900
16.237400 0.511100
16.263100 0.510300
16.288900 0.509400
16.314600 0.508500
16.340300 0.507900
16.366000 0.507300
16.391700 0.507100
16.417500 0.506600
16.443200 0.506400
16.468900 0.506600
16.494600 0.506900
16.520300 0.507100
16.546100 0.507600
16.571800 0.507800
16.597500 0.507600
16.623200 0.507200
16.649000 0.506500
16.674700 0.505800
16.700400 0.505100
16.726100 0.504400
16.751800 0.503800
16.777600 0.503200
16.803300 0.502700
16.829000 0.502200
16.854700 0.501700
16.880400 0.501300
16.906200 0.500900
16.931900 0.500500
16.957600 0.500300
16.983300 0.500000
17.009000 0.499800
17.034800 0.499400
17.060500 0.499100
17.086200 0.498700
17.111900 0.499000
17.137700 0.499100
17.163400 0.498500
17.189100 0.497900
17.214800 0.497400
17.240500 0.496900
17.266300 0.496400
17.292000 0.496000
17.317700 0.495800
17.343400 0.495700
17.369100 0.495800
17.394900 0.495600
17.420600 0.495500
17.446300 0.495900
17.472000 0.496300
17.497800 0.496600
17.523500 0.496700
17.549200 0.496200
17.574900 0.495800
17.600600 0.495300
17.626400 0.494900
17.652100 0.494300
17.677800 0.493800
17.703500 0.492800
17.729200 0.491800
17.755000 0.491100
17.780700 0.490600
17.806400 0.490200
17.832100 0.489900
17.857800 0.489000
17.883600 0.488200
17.909300 0.487500
17.935000 0.486900
17.960700 0.486400
17.986500 0.485900
18.012200 0.485400
18.037900 0.484900
18.063600 0.484500
18.089300 0.484100
18.115100 0.483700
18.140800 0.483500
18.166500 0.483400
18.192200 0.483500
18.217900 0.483800
18.243700 0.484100
18.269400 0.483900
18.295100 0.483900
18.320800 0.484000
18.346500 0.484100
18.372300 0.484100
18.398000 0.484300
18.423700 0.484600
18.449400 0.485100
18.475200 0.485000
18.500900 0.484600
18.526600 0.484400
18.552300 0.484300
18.578000 0.484600
18.603800 0.485000
18.629500 0.485600
18.655200 0.485900
18.680900 0.486500
18.706600 0.486700
18.732400 0.487600
18.758100 0.488500
18.783800 0.489200
18.809500 0.489700
18.835300 0.489900
18.861000 0.490100
18.886700 0.490300
18.912400 0.490500
18.938100 0.490700
18.963900 0.490800
18.989600 0.490400
19.015300 0.490200
19.041000 0.490000
19.066700 0.489900
19.092500 0.490000
19.118200 0.490300
19.143900 0.490900
19.169600 0.491800
19.195300 0.493200
19.221100 0.495700
19.246800 0.498900
19.272500 0.502800
19.298200 0.507400
19.324000 0.512400
19.349700 0.519700
19.375400 0.526500
19.401100 0.532200
19.426800 0.537400
19.452600 0.542100
19.478300 0.546400
19.504000 0.550100
19.529700 0.557900
19.555400 0.584700
19.581200 0.733600
19.606900 0.821300
19.632600 0.674800
19.658300 0.635700
19.684100 0.600500
19.709800 0.572000
19.735500 0.562100
19.761200 0.554700
19.786900 0.549600
19.812700 0.544800
19.838400 0.535400
19.864100 0.522900
19.889800 0.510500
19.915500 0.501000
19.941300 0.498400
19.967000 0.496200
19.992700 0.494700
20.018400 0.493800
20.044100 0.493400
20.069900 0.492900
20.095600 0.491600
20.121300 0.488300
20.147000 0.484200
20.172800 0.481300
20.198500 0.480700
20.224200 0.481300
20.249900 0.482900
20.275600 0.486200
20.301400 0.497100
20.327100 0.513000
20.352800 0.519100
20.378500 0.529400
20.404200 0.541200
20.430000 0.554900
20.455700 0.584800
20.481400 0.605100
20.507100 0.577900
20.532800 0.564600
20.558600 0.547900
20.584300 0.523000
20.610000 0.512700
