set title 'mp-995200 - Density of States'
set xlabel 'Energy (eV)'
set ylabel 'DOS (states/eV)'
set grid
set xrange [-10:10]
set yrange [0:5.660]
set xzeroaxis lt -1
set terminal png size 800,600
set output 'mp-995200_dos_gnuplot.png'
plot '-' using 1:2 with lines title 'DOS'
-18.789000 0.000000
-18.762100 0.000000
-18.735300 0.000000
-18.708400 0.000000
-18.681500 0.000000
-18.654600 0.000000
-18.627700 0.000000
-18.600800 0.000000
-18.573900 0.000000
-18.547000 0.000000
-18.520100 0.000000
-18.493200 0.000000
-18.466300 0.000000
-18.439400 0.000000
-18.412500 0.000000
-18.385600 0.000000
-18.358700 0.000000
-18.331900 0.000000
-18.305000 0.000000
-18.278100 0.000000
-18.251200 0.000000
-18.224300 0.000000
-18.197400 0.000000
-18.170500 0.000000
-18.143600 0.000000
-18.116700 0.000000
-18.089800 0.000000
-18.062900 0.000000
-18.036000 0.000000
-18.009100 0.000000
-17.982200 0.000000
-17.955300 0.000000
-17.928500 0.000000
-17.901600 0.000000
-17.874700 0.000000
-17.847800 0.000000
-17.820900 0.000000
-17.794000 0.000000
-17.767100 0.000000
-17.740200 0.000000
-17.713300 0.000000
-17.686400 0.000000
-17.659500 0.000000
-17.632600 0.000000
-17.605700 0.000000
-17.578800 0.000000
-17.551900 0.000000
-17.525100 0.000000
-17.498200 0.000000
-17.471300 0.000000
-17.444400 0.000000
-17.417500 0.000000
-17.390600 0.000000
-17.363700 0.000000
-17.336800 0.000000
-17.309900 0.000000
-17.283000 0.000000
-17.256100 0.000000
-17.229200 0.000000
-17.202300 0.000000
-17.175400 0.000000
-17.148500 0.000000
-17.121700 0.000000
-17.094800 0.000000
-17.067900 0.000000
-17.041000 0.000000
-17.014100 0.000000
-16.987200 0.000000
-16.960300 0.000000
-16.933400 0.000000
-16.906500 0.000000
-16.879600 0.000000
-16.852700 0.000000
-16.825800 0.000000
-16.798900 0.000000
-16.772000 0.000000
-16.745100 0.000000
-16.718300 0.000000
-16.691400 0.000000
-16.664500 0.000000
-16.637600 0.000000
-16.610700 0.000000
-16.583800 0.000000
-16.556900 0.000000
-16.530000 0.000000
-16.503100 0.000000
-16.476200 0.000000
-16.449300 0.000000
-16.422400 0.000000
-16.395500 0.000000
-16.368600 0.000000
-16.341700 0.017900
-16.314900 0.972300
-16.288000 1.329900
-16.261100 1.194600
-16.234200 1.277300
-16.207300 1.402900
-16.180400 1.612200
-16.153500 1.981300
-16.126600 2.030300
-16.099700 1.284800
-16.072800 1.225700
-16.045900 1.170100
-16.019000 1.108700
-15.992100 1.035800
-15.965200 0.912400
-15.938300 0.902200
-15.911500 0.848000
-15.884600 0.817400
-15.857700 0.791400
-15.830800 0.767300
-15.803900 0.741200
-15.777000 0.711300
-15.750100 0.653700
-15.723200 0.653800
-15.696300 0.653800
-15.669400 0.653800
-15.642500 0.653800
-15.615600 0.627200
-15.588700 0.607200
-15.561800 0.592400
-15.534900 0.578500
-15.508100 0.564600
-15.481200 0.548500
-15.454300 0.520500
-15.427400 0.510700
-15.400500 0.510800
-15.373600 0.510800
-15.346700 0.510800
-15.319800 0.510800
-15.292900 0.510800
-15.266000 0.510800
-15.239100 0.508900
-15.212200 0.488900
-15.185300 0.477600
-15.158400 0.468100
-15.131500 0.459300
-15.104700 0.449500
-15.077800 0.437400
-15.050900 0.420500
-15.024000 0.420500
-14.997100 0.420500
-14.970200 0.420500
-14.943300 0.420500
-14.916400 0.434100
-14.889500 0.875600
-14.862600 1.385300
-14.835700 1.813500
-14.808800 1.883900
-14.781900 2.036400
-14.755000 2.468300
-14.728100 2.786500
-14.701300 2.156600
-14.674400 1.730600
-14.647500 1.642000
-14.620600 1.557700
-14.593700 1.457400
-14.566800 1.330500
-14.539900 1.290600
-14.513000 1.277800
-14.486100 1.247600
-14.459200 1.201600
-14.432300 1.165900
-14.405400 1.132500
-14.378500 1.093100
-14.351600 1.041200
-14.324700 1.026800
-14.297900 1.026800
-14.271000 1.026800
-14.244100 1.026800
-14.217200 1.023300
-14.190300 1.000900
-14.163400 0.968000
-14.136500 0.941800
-14.109600 0.918300
-14.082700 0.892000
-14.055800 0.856800
-14.028900 0.837100
-14.002000 0.837100
-13.975100 0.837100
-13.948200 0.837100
-13.921300 0.837100
-13.894500 0.837100
-13.867600 0.837100
-13.840700 0.837000
-13.813800 0.827900
-13.786900 0.813900
-13.760000 0.798400
-13.733100 0.786300
-13.706200 0.773300
-13.679300 0.754100
-13.652400 0.745600
-13.625500 0.745600
-13.598600 0.745600
-13.571700 0.745600
-13.544800 0.739500
-13.517900 0.734700
-13.491100 0.730900
-13.464200 0.727400
-13.437300 0.723600
-13.410400 0.718000
-13.383500 0.714000
-13.356600 0.710400
-13.329700 0.702300
-13.302800 0.690600
-13.275900 0.682000
-13.249000 0.673300
-13.222100 0.660300
-13.195200 0.652500
-13.168300 0.652500
-13.141400 0.652500
-13.114500 0.652500
-13.087700 0.652500
-13.060800 0.652500
-13.033900 0.652500
-13.007000 0.652500
-12.980100 0.652500
-12.953200 0.652600
-12.926300 0.652600
-12.899400 0.652600
-12.872500 0.773300
-12.845600 1.213400
-12.818700 1.507400
-12.791800 1.833500
-12.764900 2.615300
-12.738000 3.257200
-12.711100 3.155500
-12.684300 2.397200
-12.657400 2.102200
-12.630500 2.014300
-12.603600 1.858000
-12.576700 1.694500
-12.549800 1.584200
-12.522900 1.584300
-12.496000 1.570800
-12.469100 1.542500
-12.442200 1.509600
-12.415300 1.462000
-12.388400 1.381300
-12.361500 1.320400
-12.334600 1.304000
-12.307700 1.304100
-12.280800 1.304100
-12.254000 1.304200
-12.227100 1.303100
-12.200200 1.291700
-12.173300 1.280200
-12.146400 1.265000
-12.119500 1.230700
-12.092600 1.198200
-12.065700 1.229900
-12.038800 1.256600
-12.011900 1.280100
-11.985000 1.305600
-11.958100 1.343200
-11.931200 1.365300
-11.904300 1.365300
-11.877400 1.365300
-11.850600 1.361900
-11.823700 1.351500
-11.796800 1.339100
-11.769900 1.320300
-11.743000 1.290500
-11.716100 1.268600
-11.689200 1.267800
-11.662300 1.267800
-11.635400 1.193600
-11.608500 1.003400
-11.581600 0.878000
-11.554700 0.757900
-11.527800 0.598500
-11.500900 0.456500
-11.474000 0.456500
-11.447200 0.456500
-11.420300 0.456200
-11.393400 0.450000
-11.366500 0.442100
-11.339600 0.431000
-11.312700 0.410100
-11.285800 0.394000
-11.258900 0.390700
-11.232000 0.390700
-11.205100 0.390700
-11.178200 0.390700
-11.151300 0.390700
-11.124400 0.390700
-11.097500 0.390700
-11.070600 0.390700
-11.043800 0.390700
-11.016900 0.390700
-10.990000 0.390700
-10.963100 0.545200
-10.936200 0.708400
-10.909300 0.834400
-10.882400 0.962100
-10.855500 1.174800
-10.828600 1.232500
-10.801700 1.218600
-10.774800 1.207900
-10.747900 1.206400
-10.721000 1.206400
-10.694100 1.206400
-10.667200 1.206400
-10.640400 1.206400
-10.613500 1.190800
-10.586600 1.137900
-10.559700 1.087900
-10.532800 1.043800
-10.505900 0.978400
-10.479000 0.944500
-10.452100 0.944500
-10.425200 0.944500
-10.398300 0.944500
-10.371400 0.944500
-10.344500 0.944500
-10.317600 0.928800
-10.290700 0.844300
-10.263800 0.737500
-10.237000 0.544600
-10.210100 0.556700
-10.183200 0.658700
-10.156300 0.797500
-10.129400 0.951000
-10.102500 1.198600
-10.075600 1.198600
-10.048700 1.198700
-10.021800 1.198700
-9.994900 1.198800
-9.968000 1.198800
-9.941100 1.198900
-9.914200 1.087600
-9.887300 0.830500
-9.860400 0.651500
-9.833600 0.437900
-9.806700 0.229700
-9.779800 0.229700
-9.752900 0.229700
-9.726000 0.229700
-9.699100 0.229700
-9.672200 0.229700
-9.645300 0.229700
-9.618400 0.229700
-9.591500 0.229700
-9.564600 0.229700
-9.537700 0.229700
-9.510800 0.229700
-9.483900 0.229700
-9.457000 0.229700
-9.430200 0.270400
-9.403300 0.482800
-9.376400 0.724500
-9.349500 0.894900
-9.322600 0.906700
-9.295700 0.914400
-9.268800 0.922400
-9.241900 1.021400
-9.215000 1.207800
-9.188100 1.444400
-9.161200 1.551400
-9.134300 1.685000
-9.107400 1.896800
-9.080500 2.228300
-9.053600 2.348900
-9.026800 2.450000
-8.999900 2.686100
-8.973000 2.827400
-8.946100 2.889200
-8.919200 2.707500
-8.892300 2.435900
-8.865400 2.275900
-8.838500 2.168000
-8.811600 2.036600
-8.784700 1.920700
-8.757800 1.822000
-8.730900 1.776000
-8.704000 1.753300
-8.677100 1.729800
-8.650200 1.721000
-8.623400 1.805700
-8.596500 1.917500
-8.569600 2.076500
-8.542700 2.277600
-8.515800 2.512000
-8.488900 2.502100
-8.462000 2.403300
-8.435100 2.276800
-8.408200 2.125100
-8.381300 1.898600
-8.354400 1.554200
-8.327500 1.234900
-8.300600 0.842800
-8.273700 0.485700
-8.246800 0.474800
-8.220000 0.474800
-8.193100 0.474800
-8.166200 0.474800
-8.139300 0.474800
-8.112400 0.474800
-8.085500 0.474800
-8.058600 0.474700
-8.031700 0.471500
-8.004800 0.465700
-7.977900 0.458900
-7.951000 0.458000
-7.924100 0.458100
-7.897200 0.462600
-7.870300 0.465300
-7.843400 0.468500
-7.816600 0.469500
-7.789700 0.469500
-7.762800 0.469500
-7.735900 0.469500
-7.709000 0.469500
-7.682100 0.469500
-7.655200 0.469500
-7.628300 0.469500
-7.601400 0.469500
-7.574500 0.469500
-7.547600 0.469500
-7.520700 0.469500
-7.493800 0.469500
-7.466900 0.469500
-7.440000 0.469400
-7.413200 0.469400
-7.386300 0.469400
-7.359400 0.469400
-7.332500 0.469400
-7.305600 0.469400
-7.278700 0.469400
-7.251800 0.469400
-7.224900 0.469400
-7.198000 0.495200
-7.171100 0.632600
-7.144200 0.773000
-7.117300 0.782000
-7.090400 0.788900
-7.063500 0.810600
-7.036600 0.835900
-7.009800 0.872200
-6.982900 0.936300
-6.956000 1.416500
-6.929100 2.000500
-6.902200 2.830000
-6.875300 2.500700
-6.848400 2.245000
-6.821500 1.955700
-6.794600 1.583500
-6.767700 1.318300
-6.740800 1.032400
-6.713900 0.799300
-6.687000 0.736500
-6.660100 0.736600
-6.633200 0.714100
-6.606400 0.682400
-6.579500 0.644700
-6.552600 0.582000
-6.525700 0.556900
-6.498800 0.571100
-6.471900 0.629500
-6.445000 0.691900
-6.418100 0.797200
-6.391200 0.966500
-6.364300 1.117500
-6.337400 1.373800
-6.310500 1.726200
-6.283600 2.250200
-6.256700 3.100200
-6.229800 5.145600
-6.203000 2.537800
-6.176100 2.366200
-6.149200 2.549900
-6.122300 2.688500
-6.095400 2.952800
-6.068500 2.945400
-6.041600 2.885800
-6.014700 2.858200
-5.987800 2.808800
-5.960900 2.791300
-5.934000 2.771700
-5.907100 2.711300
-5.880200 2.770100
-5.853300 2.588100
-5.826400 2.399200
-5.799600 2.173300
-5.772700 2.018500
-5.745800 1.633400
-5.718900 1.268800
-5.692000 1.012700
-5.665100 0.882200
-5.638200 0.815800
-5.611300 0.782400
-5.584400 0.779300
-5.557500 0.779400
-5.530600 0.779400
-5.503700 0.779400
-5.476800 0.779500
-5.449900 0.779500
-5.423000 0.779500
-5.396200 0.779600
-5.369300 0.779600
-5.342400 0.802400
-5.315500 0.986200
-5.288600 1.087400
-5.261700 1.085600
-5.234800 1.083700
-5.207900 1.081700
-5.181000 1.079500
-5.154100 1.075400
-5.127200 1.070300
-5.100300 1.059700
-5.073400 1.048300
-5.046500 1.043000
-5.019600 1.069100
-4.992800 1.114100
-4.965900 1.150400
-4.939000 1.405100
-4.912100 1.672900
-4.885200 1.728400
-4.858300 1.886900
-4.831400 2.274200
-4.804500 2.382400
-4.777600 2.488400
-4.750700 2.576900
-4.723800 2.480200
-4.696900 2.435700
-4.670000 2.445600
-4.643100 2.478900
-4.616200 2.465900
-4.589400 2.448100
-4.562500 2.431000
-4.535600 2.400600
-4.508700 2.355800
-4.481800 2.373200
-4.454900 4.283400
-4.428000 3.415400
-4.401100 3.682400
-4.374200 2.873000
-4.347300 2.571100
-4.320400 2.363500
-4.293500 2.172200
-4.266600 1.934600
-4.239700 1.768700
-4.212800 1.588300
-4.186000 1.492500
-4.159100 1.448800
-4.132200 1.418700
-4.105300 1.599700
-4.078400 1.302100
-4.051500 1.260800
-4.024600 1.334900
-3.997700 1.443700
-3.970800 1.596400
-3.943900 1.852800
-3.917000 2.142500
-3.890100 2.519900
-3.863200 2.833300
-3.836300 3.283000
-3.809400 3.664400
-3.782600 2.540900
-3.755700 2.190200
-3.728800 2.307100
-3.701900 3.302000
-3.675000 2.904500
-3.648100 2.811900
-3.621200 2.913000
-3.594300 3.571600
-3.567400 4.093000
-3.540500 4.217900
-3.513600 4.172600
-3.486700 3.847400
-3.459800 3.573700
-3.432900 3.499100
-3.406000 3.856900
-3.379200 4.352200
-3.352300 3.870000
-3.325400 3.506500
-3.298500 3.363600
-3.271600 3.288900
-3.244700 3.256800
-3.217800 3.250600
-3.190900 3.187500
-3.164000 3.714900
-3.137100 4.668500
-3.110200 5.097200
-3.083300 4.560400
-3.056400 4.322400
-3.029500 3.971100
-3.002600 3.899700
-2.975800 4.071100
-2.948900 4.422900
-2.922000 4.760500
-2.895100 4.042500
-2.868200 4.030900
-2.841300 3.707100
-2.814400 3.485200
-2.787500 3.218600
-2.760600 3.146300
-2.733700 2.856400
-2.706800 2.538900
-2.679900 2.342900
-2.653000 2.123200
-2.626100 2.013200
-2.599200 1.977600
-2.572400 1.998300
-2.545500 1.902500
-2.518600 2.060700
-2.491700 2.317100
-2.464800 2.414000
-2.437900 2.594200
-2.411000 3.201200
-2.384100 3.356900
-2.357200 3.649300
-2.330300 3.181500
-2.303400 2.886700
-2.276500 2.742600
-2.249600 2.706200
-2.222700 3.669000
-2.195800 1.977500
-2.168900 1.778600
-2.142100 1.643000
-2.115200 1.572000
-2.088300 1.513200
-2.061400 1.674300
-2.034500 1.485700
-2.007600 1.379900
-1.980700 1.313900
-1.953800 1.306500
-1.926900 1.324600
-1.900000 1.394100
-1.873100 1.541700
-1.846200 1.579100
-1.819300 1.603500
-1.792400 1.688900
-1.765500 1.845100
-1.738700 2.012600
-1.711800 1.437900
-1.684900 1.420100
-1.658000 1.419900
-1.631100 1.433000
-1.604200 1.446100
-1.577300 1.457800
-1.550400 1.486800
-1.523500 1.519800
-1.496600 1.551300
-1.469700 1.593200
-1.442800 1.604900
-1.415900 1.699700
-1.389000 1.733100
-1.362100 1.789400
-1.335300 1.918100
-1.308400 1.890900
-1.281500 1.890400
-1.254600 1.898200
-1.227700 2.837600
-1.200800 2.796000
-1.173900 2.757900
-1.147000 2.877800
-1.120100 3.068300
-1.093200 3.214700
-1.066300 2.528400
-1.039400 2.301900
-1.012500 2.197900
-0.985600 2.152000
-0.958700 2.162800
-0.931900 2.071600
-0.905000 1.918400
-0.878100 1.852300
-0.851200 1.725500
-0.824300 1.572300
-0.797400 1.582700
-0.770500 1.614200
-0.743600 1.647200
-0.716700 1.937700
-0.689800 2.436700
-0.662900 2.795300
-0.636000 2.427400
-0.609100 2.152700
-0.582200 2.100500
-0.555300 2.187800
-0.528500 2.372200
-0.501600 2.569400
-0.474700 2.365500
-0.447800 1.807600
-0.420900 1.618000
-0.394000 1.499000
-0.367100 1.411200
-0.340200 1.349600
-0.313300 1.312400
-0.286400 1.302500
-0.259500 1.291300
-0.232600 1.278700
-0.205700 1.271900
-0.178800 1.267400
-0.151900 1.253500
-0.125100 1.266100
-0.098200 1.265500
-0.071300 1.264700
-0.044400 1.278200
-0.017500 1.290000
0.009400 1.299700
0.036300 1.309600
0.063200 1.319300
0.090100 1.328400
0.117000 1.337200
0.143900 1.345800
0.170800 1.311400
0.197700 1.221300
0.224600 1.168900
0.251500 1.117800
0.278300 1.077500
0.305200 1.049700
0.332100 1.026600
0.359000 1.004600
0.385900 0.983100
0.412800 0.964900
0.439700 0.947100
0.466600 0.931700
0.493500 0.916800
0.520400 0.902400
0.547300 0.888600
0.574200 0.874800
0.601100 0.860800
0.628000 0.846900
0.654900 0.842300
0.681700 0.833400
0.708600 0.827100
0.735500 0.815500
0.762400 0.797000
0.789300 0.781400
0.816200 0.772800
0.843100 0.785300
0.870000 0.793600
0.896900 0.766600
0.923800 0.727100
0.950700 0.687800
0.977600 0.648600
1.004500 0.609300
1.031400 0.548700
1.058300 0.440100
1.085100 0.352100
1.112000 0.343500
1.138900 0.341900
1.165800 0.340100
1.192700 0.338000
1.219600 0.335300
1.246500 0.331500
1.273400 0.328800
1.300300 0.326200
1.327200 0.325300
1.354100 0.325200
1.381000 0.325300
1.407900 0.325500
1.434800 0.325600
1.461700 0.325900
1.488500 0.326200
1.515400 0.326300
1.542300 0.326400
1.569200 0.326500
1.596100 0.326600
1.623000 0.326600
1.649900 0.326700
1.676800 0.326600
1.703700 0.326600
1.730600 0.326500
1.757500 0.326400
1.784400 0.326200
1.811300 0.325900
1.838200 0.325400
1.865100 0.324500
1.891900 0.323700
1.918800 0.323100
1.945700 0.322700
1.972600 0.351200
1.999500 0.787000
2.026400 0.992100
2.053300 0.917700
2.080200 0.934200
2.107100 0.913100
2.134000 0.812300
2.160900 0.787900
2.187800 0.773100
2.214700 0.764700
2.241600 0.775900
2.268500 0.788300
2.295300 0.789600
2.322200 0.774500
2.349100 0.764600
2.376000 0.774300
2.402900 0.792900
2.429800 0.813800
2.456700 0.825000
2.483600 0.830400
2.510500 0.828500
2.537400 0.831000
2.564300 0.811000
2.591200 0.777300
2.618100 0.760100
2.645000 0.733400
2.671900 0.713500
2.698700 0.702100
2.725600 0.691700
2.752500 0.682100
2.779400 0.679600
2.806300 0.687100
2.833200 0.697300
2.860100 0.705400
2.887000 0.715700
2.913900 0.725100
2.940800 0.731300
2.967700 0.777200
2.994600 0.914800
3.021500 1.160500
3.048400 1.134800
3.075300 0.884200
3.102100 0.370400
3.129000 0.364800
3.155900 0.359200
3.182800 0.353600
3.209700 0.347900
3.236600 0.342300
3.263500 0.336700
3.290400 0.331100
3.317300 0.326000
3.344200 0.321300
3.371100 0.316900
3.398000 0.312800
3.424900 0.308300
3.451800 0.303700
3.478700 0.296700
3.505500 0.287100
3.532400 0.280000
3.559300 0.278200
3.586200 0.278500
3.613100 0.278800
3.640000 0.279100
3.666900 0.279300
3.693800 0.279600
3.720700 0.279800
3.747600 0.280000
3.774500 0.280300
3.801400 0.280500
3.828300 0.280800
3.855200 0.281000
3.882100 0.281200
3.908900 0.281500
3.935800 0.281700
3.962700 0.282000
3.989600 0.282200
4.016500 0.282600
4.043400 0.283000
4.070300 0.283400
4.097200 0.286100
4.124100 0.289600
4.151000 0.294600
4.177900 0.299800
4.204800 0.303300
4.231700 0.306000
4.258600 0.308200
4.285500 0.310300
4.312300 0.312300
4.339200 0.314200
4.366100 0.316100
4.393000 0.317800
4.419900 0.370800
4.446800 0.471300
4.473700 0.541500
4.500600 0.589700
4.527500 0.631100
4.554400 0.672500
4.581300 0.713800
4.608200 0.751200
4.635100 0.787500
4.662000 0.825600
4.688900 0.868300
4.715700 0.912600
4.742600 0.962400
4.769500 1.016600
4.796400 1.032300
4.823300 1.057300
4.850200 1.087200
4.877100 1.119300
4.904000 1.160800
4.930900 1.262200
4.957800 1.340900
4.984700 1.331900
5.011600 1.313900
5.038500 1.296800
5.065400 1.286100
5.092300 1.275400
5.119100 1.242800
5.146000 1.167100
5.172900 1.134300
5.199800 1.159700
5.226700 1.202200
5.253600 1.264600
5.280500 1.325200
5.307400 1.590000
5.334300 1.691900
5.361200 1.661700
5.388100 1.672400
5.415000 1.669900
5.441900 1.671600
5.468800 1.674300
5.495700 1.700000
5.522500 1.734800
5.549400 1.750900
5.576300 1.743500
5.603200 1.690600
5.630100 1.620200
5.657000 1.586400
5.683900 1.584400
5.710800 1.633100
5.737700 1.669300
5.764600 1.708000
5.791500 2.019500
5.818400 1.863500
5.845300 1.622000
5.872200 1.380400
5.899100 1.330700
5.925900 1.277600
5.952800 1.200200
5.979700 1.162200
6.006600 1.195800
6.033500 1.052700
6.060400 0.793900
6.087300 0.498500
6.114200 0.449400
6.141100 0.449300
6.168000 0.449200
6.194900 0.449100
6.221800 0.449000
6.248700 0.448700
6.275600 0.448700
6.302500 0.448800
6.329300 0.448800
6.356200 0.448800
6.383100 0.448800
6.410000 0.448800
6.436900 0.448800
6.463800 0.448800
6.490700 0.448800
6.517600 0.449900
6.544500 0.459200
6.571400 0.465900
6.598300 0.471000
6.625200 0.474100
6.652100 0.476600
6.679000 0.479500
6.705900 0.482100
6.732700 0.484600
6.759600 0.487100
6.786500 0.489700
6.813400 0.492100
6.840300 0.494400
6.867200 0.495800
6.894100 0.497600
6.921000 0.501000
6.947900 0.504900
6.974800 0.515700
7.001700 0.564300
7.028600 0.616900
7.055500 0.676800
7.082400 0.743600
7.109300 0.878600
7.136100 1.111400
7.163000 1.383400
7.189900 1.560800
7.216800 1.762900
7.243700 1.986200
7.270600 2.238100
7.297500 2.397900
7.324400 2.450800
7.351300 2.488700
7.378200 2.540100
7.405100 2.587100
7.432000 2.704400
7.458900 2.829000
7.485800 2.530200
7.512700 2.268400
7.539500 2.175000
7.566400 2.059900
7.593300 1.966200
7.620200 1.792300
7.647100 1.612600
7.674000 1.295500
7.700900 0.931300
7.727800 0.655200
7.754700 0.464600
7.781600 0.501700
7.808500 0.593400
7.835400 0.727800
7.862300 0.999200
7.889200 2.544300
7.916100 1.718800
7.943000 1.765200
7.969800 1.846300
7.996700 2.037300
8.023600 2.100300
8.050500 1.982800
8.077400 1.893900
8.104300 1.861300
8.131200 1.839700
8.158100 1.706800
8.185000 1.695700
8.211900 1.739500
8.238800 1.740000
8.265700 1.690000
8.292600 1.655100
8.319500 1.657100
8.346400 1.696800
8.373200 1.698000
8.400100 1.729700
8.427000 1.782000
8.453900 1.871600
8.480800 1.915800
8.507700 1.921900
8.534600 1.989000
8.561500 2.140000
8.588400 2.373800
8.615300 2.387600
8.642200 2.353700
8.669100 2.233800
8.696000 2.089300
8.722900 1.980700
8.749800 1.897800
8.776600 1.853800
8.803500 1.842900
8.830400 1.994100
8.857300 1.729600
8.884200 1.610400
8.911100 1.516000
8.938000 1.437300
8.964900 1.369600
8.991800 1.318000
9.018700 1.277600
9.045600 1.245900
9.072500 1.219600
9.099400 1.201700
