set title 'mp-979273 - Density of States'
set xlabel 'Energy (eV)'
set ylabel 'DOS (states/eV)'
set grid
set xrange [-10:10]
set yrange [0:15.016]
set xzeroaxis lt -1
set terminal png size 800,600
set output 'mp-979273_dos_gnuplot.png'
plot '-' using 1:2 with lines title 'DOS'
-7.750800 0.000000
-7.731200 0.000000
-7.711700 0.000000
-7.692100 0.000000
-7.672600 0.000000
-7.653100 0.000000
-7.633500 0.000000
-7.614000 0.000000
-7.594400 0.000000
-7.574900 0.000000
-7.555400 0.000000
-7.535800 0.000000
-7.516300 0.000000
-7.496700 0.000000
-7.477200 0.000000
-7.457700 0.000000
-7.438100 0.000000
-7.418600 0.000000
-7.399000 0.000000
-7.379500 0.000000
-7.360000 0.000000
-7.340400 0.000000
-7.320900 0.000000
-7.301300 0.000000
-7.281800 0.000000
-7.262300 0.000000
-7.242700 0.000000
-7.223200 0.000000
-7.203700 0.000000
-7.184100 0.000000
-7.164600 0.000000
-7.145000 0.000000
-7.125500 0.000000
-7.106000 0.000000
-7.086400 0.000000
-7.066900 0.000000
-7.047300 0.000000
-7.027800 0.000000
-7.008300 0.000000
-6.988700 0.000000
-6.969200 0.000000
-6.949600 0.000000
-6.930100 0.000000
-6.910600 0.000000
-6.891000 0.000000
-6.871500 0.000000
-6.851900 0.000000
-6.832400 0.000000
-6.812900 0.000000
-6.793300 0.000000
-6.773800 0.000000
-6.754200 0.000000
-6.734700 0.000000
-6.715200 0.000000
-6.695600 0.000000
-6.676100 0.000000
-6.656500 0.000000
-6.637000 0.000000
-6.617500 0.000000
-6.597900 0.000000
-6.578400 0.000000
-6.558800 0.000000
-6.539300 0.000000
-6.519800 0.000000
-6.500200 0.000000
-6.480700 0.000000
-6.461100 0.000000
-6.441600 0.000000
-6.422100 0.000000
-6.402500 0.000000
-6.383000 0.000000
-6.363400 0.000000
-6.343900 0.000000
-6.324400 0.000000
-6.304800 0.000000
-6.285300 0.000000
-6.265700 0.000000
-6.246200 0.000000
-6.226700 0.000000
-6.207100 0.000000
-6.187600 0.000000
-6.168000 0.000000
-6.148500 0.000000
-6.129000 0.000000
-6.109400 0.000000
-6.089900 0.000100
-6.070300 0.000400
-6.050800 0.001900
-6.031300 0.007100
-6.011700 0.020800
-5.992200 0.049800
-5.972600 0.100000
-5.953100 0.170800
-5.933600 0.248300
-5.914000 0.310000
-5.894500 0.351300
-5.875000 0.401000
-5.855400 0.486600
-5.835900 0.588900
-5.816300 0.656600
-5.796800 0.664900
-5.777300 0.649700
-5.757700 0.681700
-5.738200 0.794000
-5.718600 0.939400
-5.699100 1.036200
-5.679600 1.063100
-5.660000 1.087000
-5.640500 1.173700
-5.620900 1.296200
-5.601400 1.382700
-5.581900 1.438100
-5.562300 1.545500
-5.542800 1.753300
-5.523200 2.019400
-5.503700 2.266600
-5.484200 2.448400
-5.464600 2.573200
-5.445100 2.713500
-5.425500 2.963000
-5.406000 3.334500
-5.386500 3.753400
-5.366900 4.191500
-5.347400 4.732900
-5.327800 5.451800
-5.308300 6.254000
-5.288800 6.879700
-5.269200 7.090100
-5.249700 6.829800
-5.230100 6.175000
-5.210600 5.184200
-5.191100 3.907200
-5.171500 2.526200
-5.152000 1.343900
-5.132400 0.570200
-5.112900 0.188900
-5.093400 0.048200
-5.073800 0.009400
-5.054300 0.001400
-5.034700 0.000200
-5.015200 0.000000
-4.995700 0.000000
-4.976100 0.000000
-4.956600 0.000000
-4.937000 0.000000
-4.917500 0.000000
-4.898000 0.000000
-4.878400 0.000000
-4.858900 0.000000
-4.839300 0.000000
-4.819800 0.000000
-4.800300 0.000000
-4.780700 0.000000
-4.761200 0.000000
-4.741600 0.000000
-4.722100 0.000000
-4.702600 0.000000
-4.683000 0.000000
-4.663500 0.000000
-4.643900 0.000000
-4.624400 0.000000
-4.604900 0.000000
-4.585300 0.000000
-4.565800 0.000000
-4.546300 0.000000
-4.526700 0.000000
-4.507200 0.000000
-4.487600 0.000000
-4.468100 0.000000
-4.448600 0.000000
-4.429000 0.000000
-4.409500 0.000000
-4.389900 0.000000
-4.370400 0.000000
-4.350900 0.000000
-4.331300 0.000000
-4.311800 0.000000
-4.292200 0.000000
-4.272700 0.000000
-4.253200 0.000000
-4.233600 0.000000
-4.214100 0.000000
-4.194500 0.000000
-4.175000 0.000000
-4.155500 0.000000
-4.135900 0.000000
-4.116400 0.000000
-4.096800 0.000000
-4.077300 0.000000
-4.057800 0.000000
-4.038200 0.000000
-4.018700 0.000000
-3.999100 0.000000
-3.979600 0.000000
-3.960100 0.000000
-3.940500 0.000000
-3.921000 0.000000
-3.901400 0.000000
-3.881900 0.000000
-3.862400 0.000000
-3.842800 0.000000
-3.823300 0.000000
-3.803700 0.000000
-3.784200 0.000000
-3.764700 0.000000
-3.745100 0.000000
-3.725600 0.000000
-3.706000 0.000000
-3.686500 0.000000
-3.667000 0.000000
-3.647400 0.000000
-3.627900 0.000000
-3.608300 0.000000
-3.588800 0.000000
-3.569300 0.000000
-3.549700 0.000000
-3.530200 0.000000
-3.510600 0.000000
-3.491100 0.000000
-3.471600 0.000000
-3.452000 0.000000
-3.432500 0.000000
-3.412900 0.000000
-3.393400 0.000000
-3.373900 0.000000
-3.354300 0.000000
-3.334800 0.000000
-3.315200 0.000000
-3.295700 0.000000
-3.276200 0.000000
-3.256600 0.000000
-3.237100 0.000000
-3.217600 0.000000
-3.198000 0.000000
-3.178500 0.000000
-3.158900 0.000000
-3.139400 0.000000
-3.119900 0.000000
-3.100300 0.000000
-3.080800 0.000000
-3.061200 0.000000
-3.041700 0.000000
-3.022200 0.000000
-3.002600 0.000000
-2.983100 0.000000
-2.963500 0.000000
-2.944000 0.000000
-2.924500 0.000000
-2.904900 0.000000
-2.885400 0.000000
-2.865800 0.000000
-2.846300 0.000000
-2.826800 0.000000
-2.807200 0.000000
-2.787700 0.000000
-2.768100 0.000000
-2.748600 0.000000
-2.729100 0.000000
-2.709500 0.000000
-2.690000 0.000000
-2.670400 0.000000
-2.650900 0.000000
-2.631400 0.000000
-2.611800 0.000000
-2.592300 0.000000
-2.572700 0.000000
-2.553200 0.000000
-2.533700 0.000000
-2.514100 0.000000
-2.494600 0.000000
-2.475000 0.000000
-2.455500 0.000000
-2.436000 0.000000
-2.416400 0.000000
-2.396900 0.000000
-2.377300 0.000000
-2.357800 0.000000
-2.338300 0.000000
-2.318700 0.000000
-2.299200 0.000000
-2.279600 0.000000
-2.260100 0.000000
-2.240600 0.000000
-2.221000 0.000000
-2.201500 0.000000
-2.181900 0.000000
-2.162400 0.000000
-2.142900 0.000000
-2.123300 0.000000
-2.103800 0.000000
-2.084200 0.000000
-2.064700 0.000000
-2.045200 0.000000
-2.025600 0.000000
-2.006100 0.000000
-1.986500 0.000000
-1.967000 0.000000
-1.947500 0.000000
-1.927900 0.000000
-1.908400 0.000000
-1.888900 0.000000
-1.869300 0.000000
-1.849800 0.000000
-1.830200 0.000000
-1.810700 0.000000
-1.791200 0.000000
-1.771600 0.000000
-1.752100 0.000000
-1.732500 0.000000
-1.713000 0.000000
-1.693500 0.000000
-1.673900 0.000000
-1.654400 0.000000
-1.634800 0.000000
-1.615300 0.000000
-1.595800 0.000000
-1.576200 0.000000
-1.556700 0.000000
-1.537100 0.000000
-1.517600 0.000000
-1.498100 0.000000
-1.478500 0.000000
-1.459000 0.000000
-1.439400 0.000000
-1.419900 0.000000
-1.400400 0.000000
-1.380800 0.000000
-1.361300 0.000000
-1.341700 0.000000
-1.322200 0.000000
-1.302700 0.000000
-1.283100 0.000000
-1.263600 0.000000
-1.244000 0.000000
-1.224500 0.000000
-1.205000 0.000000
-1.185400 0.000000
-1.165900 0.000000
-1.146300 0.000000
-1.126800 0.000000
-1.107300 0.000000
-1.087700 0.000000
-1.068200 0.000000
-1.048600 0.000000
-1.029100 0.000000
-1.009600 0.000000
-0.990000 0.000000
-0.970500 0.000000
-0.950900 0.000000
-0.931400 0.000000
-0.911900 0.000000
-0.892300 0.000000
-0.872800 0.000000
-0.853200 0.000000
-0.833700 0.000000
-0.814200 0.000000
-0.794600 0.000000
-0.775100 0.000000
-0.755500 0.000000
-0.736000 0.000000
-0.716500 0.000000
-0.696900 0.000000
-0.677400 0.000000
-0.657800 0.000000
-0.638300 0.000000
-0.618800 0.000000
-0.599200 0.000000
-0.579700 0.000000
-0.560200 0.000000
-0.540600 0.000000
-0.521100 0.000000
-0.501500 0.000000
-0.482000 0.000000
-0.462500 0.000000
-0.442900 0.000000
-0.423400 0.000000
-0.403800 0.000000
-0.384300 0.000000
-0.364800 0.000000
-0.345200 0.000000
-0.325700 0.000000
-0.306100 0.000000
-0.286600 0.000000
-0.267100 0.000000
-0.247500 0.000000
-0.228000 0.000000
-0.208400 0.000000
-0.188900 0.000000
-0.169400 0.000000
-0.149800 0.000000
-0.130300 0.000000
-0.110700 0.000000
-0.091200 0.000000
-0.071700 0.000000
-0.052100 0.000000
-0.032600 0.000000
-0.013000 0.000000
0.006500 0.000000
0.026000 0.000000
0.045600 0.000000
0.065100 0.000000
0.084700 0.000000
0.104200 0.000000
0.123700 0.000000
0.143300 0.000000
0.162800 0.000000
0.182400 0.000000
0.201900 0.000000
0.221400 0.000000
0.241000 0.000000
0.260500 0.000000
0.280100 0.000000
0.299600 0.000000
0.319100 0.000000
0.338700 0.000200
0.358200 0.001200
0.377800 0.005900
0.397300 0.023000
0.416800 0.070600
0.436400 0.177800
0.455900 0.381500
0.475500 0.719800
0.495000 1.211000
0.514500 1.806600
0.534100 2.364800
0.553600 2.726800
0.573200 2.863000
0.592700 2.904000
0.612200 2.984000
0.631800 3.100500
0.651300 3.162800
0.670900 3.112500
0.690400 2.970300
0.709900 2.820000
0.729500 2.764900
0.749000 2.865700
0.768500 3.086300
0.788100 3.285000
0.807600 3.327900
0.827200 3.252500
0.846700 3.224900
0.866200 3.311300
0.885800 3.412900
0.905300 3.439300
0.924900 3.410800
0.944400 3.342400
0.963900 3.182900
0.983500 2.958300
1.003000 2.813400
1.022600 2.801900
1.042100 2.780300
1.061600 2.612300
1.081200 2.366800
1.100700 2.226800
1.120300 2.241900
1.139800 2.247900
1.159300 2.083600
1.178900 1.829400
1.198400 1.723400
1.218000 1.883500
1.237500 2.222200
1.257000 2.591000
1.276600 2.908400
1.296100 3.173500
1.315700 3.431700
1.335200 3.738900
1.354700 4.141800
1.374300 4.678200
1.393800 5.362200
1.413400 6.144500
1.432900 6.897600
1.452400 7.437600
1.472000 7.588800
1.491500 7.308800
1.511100 6.782500
1.530600 6.337900
1.550100 6.216700
1.569700 6.404500
1.589200 6.687200
1.608800 6.863300
1.628300 6.875500
1.647800 6.750100
1.667400 6.476500
1.686900 6.021600
1.706500 5.446300
1.726000 4.928000
1.745500 4.649200
1.765100 4.674700
1.784600 4.898100
1.804200 5.072000
1.823700 4.927200
1.843200 4.336200
1.862800 3.414500
1.882300 2.450900
1.901900 1.705000
1.921400 1.266300
1.940900 1.088100
1.960500 1.090700
1.980000 1.212900
1.999600 1.404100
2.019100 1.602900
2.038600 1.746200
2.058200 1.796300
2.077700 1.743600
2.097200 1.600500
2.116800 1.402100
2.136300 1.189900
2.155900 0.996800
2.175400 0.860200
2.194900 0.821000
2.214500 0.890400
2.234000 1.039900
2.253600 1.219200
2.273100 1.370900
2.292600 1.466400
2.312200 1.554100
2.331700 1.722600
2.351300 1.992800
2.370800 2.291500
2.390300 2.547000
2.409900 2.767000
2.429400 3.013200
2.449000 3.344400
2.468500 3.783500
2.488000 4.284000
2.507600 4.729700
2.527100 5.057600
2.546700 5.355000
2.566200 5.717400
2.585700 6.089000
2.605300 6.395900
2.624800 6.720700
2.644400 7.165000
2.663900 7.687000
2.683400 8.237400
2.703000 8.849100
2.722500 9.445400
2.742100 9.808400
2.761600 9.867300
2.781100 9.800900
2.800700 9.768500
2.820200 9.705700
2.839800 9.445200
2.859300 8.957300
2.878800 8.437100
2.898400 8.137400
2.917900 8.100000
2.937500 8.114900
2.957000 7.980700
2.976500 7.733400
2.996100 7.562600
3.015600 7.542000
3.035200 7.537000
3.054700 7.400200
3.074200 7.134300
3.093800 6.805000
3.113300 6.425100
3.132900 5.992400
3.152400 5.566200
3.171900 5.256500
3.191500 5.136700
3.211000 5.186900
3.230600 5.370500
3.250100 5.738500
3.269600 6.378700
3.289200 7.293300
3.308700 8.392500
3.328300 9.555600
3.347800 10.641600
3.367300 11.470100
3.386900 11.875300
3.406400 11.847300
3.425900 11.590700
3.445500 11.406600
3.465000 11.507900
3.484600 11.897200
3.504100 12.361100
3.523600 12.535400
3.543200 12.038000
3.562700 10.748600
3.582300 9.034300
3.601800 7.545100
3.621300 6.701000
3.640900 6.419100
3.660400 6.320400
3.680000 6.119500
3.699500 5.818000
3.719000 5.605200
3.738600 5.622200
3.758100 5.835400
3.777700 6.130700
3.797200 6.426500
3.816700 6.603200
3.836300 6.481400
3.855800 6.063000
3.875400 5.651700
3.894900 5.525600
3.914400 5.625800
3.934000 5.737900
3.953500 5.826100
3.973100 6.008400
3.992600 6.328000
4.012100 6.741400
4.031700 7.234100
4.051200 7.762400
4.070800 8.180500
4.090300 8.382900
4.109800 8.446500
4.129400 8.559700
4.148900 8.848200
4.168500 9.284700
4.188000 9.738800
4.207500 10.064100
4.227100 10.119200
4.246600 9.817700
4.266200 9.259400
4.285700 8.736500
4.305200 8.515500
4.324800 8.571200
4.344300 8.546300
4.363900 8.096300
4.383400 7.321300
4.402900 6.749000
4.422500 6.865200
4.442000 7.703000
4.461600 8.840600
4.481100 9.771900
4.500600 10.338500
4.520200 10.812300
4.539700 11.527000
4.559300 12.463800
4.578800 13.268700
4.598300 13.650900
4.617900 13.608500
4.637400 13.231000
4.657000 12.535100
4.676500 11.609400
4.696000 10.672300
4.715600 9.900800
4.735100 9.383700
4.754600 9.175000
4.774200 9.197200
4.793700 9.196200
4.813300 8.944100
4.832800 8.417800
4.852300 7.730100
4.871900 7.007500
4.891400 6.417600
4.911000 6.184600
4.930500 6.385400
4.950000 6.763700
4.969600 6.917100
4.989100 6.659400
5.008700 6.074100
5.028200 5.300800
5.047700 4.468400
5.067300 3.779800
5.086800 3.435400
5.106400 3.420300
5.125900 3.486100
5.145400 3.400800
5.165000 3.160700
5.184500 2.923900
5.204100 2.817200
5.223600 2.860000
5.243100 3.024000
5.262700 3.316900
5.282200 3.807300
5.301800 4.576500
5.321300 5.643300
5.340800 6.912300
5.360400 8.176700
5.379900 9.194100
5.399500 9.805400
5.419000 9.996200
5.438500 9.873500
5.458100 9.600200
5.477600 9.308000
5.497200 9.043200
5.516700 8.817500
5.536200 8.652500
5.555800 8.513900
5.575300 8.273200
5.594900 7.815300
5.614400 7.161900
5.633900 6.436400
5.653500 5.701600
5.673000 4.897500
5.692600 4.001800
5.712100 3.170900
5.731600 2.633300
5.751200 2.492700
5.770700 2.651800
5.790300 2.861300
5.809800 2.873600
5.829300 2.623800
5.848900 2.256000
5.868400 1.973700
5.888000 1.886700
5.907500 1.966600
5.927000 2.112300
5.946600 2.253100
5.966100 2.386100
5.985700 2.530900
6.005200 2.676000
6.024700 2.800000
6.044300 2.942800
6.063800 3.178900
6.083300 3.485500
6.102900 3.716600
6.122400 3.761000
6.142000 3.684900
6.161500 3.664400
6.181000 3.780400
6.200600 3.940100
6.220100 4.005900
6.239700 3.915700
6.259200 3.662100
6.278700 3.240400
6.298300 2.671100
6.317800 2.056200
6.337400 1.565400
6.356900 1.347700
6.376400 1.480700
6.396000 1.951100
6.415500 2.601300
6.435100 3.145500
6.454600 3.349800
6.474100 3.194300
6.493700 2.826000
6.513200 2.403200
6.532800 2.024600
6.552300 1.750600
6.571800 1.611100
6.591400 1.598700
6.610900 1.688400
6.630500 1.818200
6.650000 1.858400
6.669500 1.709700
6.689100 1.445400
6.708600 1.257700
6.728200 1.255500
6.747700 1.389200
6.767200 1.550200
6.786800 1.678600
6.806300 1.782100
6.825900 1.882100
6.845400 1.954300
6.864900 1.952100
6.884500 1.880700
6.904000 1.784600
6.923600 1.679600
6.943100 1.582000
6.962600 1.564400
6.982200 1.668000
7.001700 1.806000
7.021300 1.882400
7.040800 1.943800
7.060300 2.081000
7.079900 2.256600
7.099400 2.355500
7.119000 2.345800
7.138500 2.286600
7.158000 2.207600
7.177600 2.055700
7.197100 1.772700
7.216700 1.391800
7.236200 1.037800
7.255700 0.830100
7.275300 0.794200
7.294800 0.872400
7.314400 1.000800
7.333900 1.148000
7.353400 1.296800
7.373000 1.432400
7.392500 1.551400
7.412000 1.637700
7.431600 1.640000
7.451100 1.533000
7.470700 1.386300
7.490200 1.305800
7.509700 1.317700
7.529300 1.359900
7.548800 1.375300
7.568400 1.371800
7.587900 1.385700
7.607400 1.405900
7.627000 1.362500
7.646500 1.212800
7.666100 1.019200
7.685600 0.906600
7.705100 0.939100
7.724700 1.059100
7.744200 1.154000
7.763800 1.159200
7.783300 1.080900
7.802800 0.954400
7.822400 0.811900
7.841900 0.679200
7.861500 0.579300
7.881000 0.531700
7.900500 0.533700
7.920100 0.544300
7.939600 0.514200
7.959200 0.443300
7.978700 0.386300
7.998200 0.386300
8.017800 0.428900
8.037300 0.481100
8.056900 0.540100
8.076400 0.608100
8.095900 0.644600
8.115500 0.597000
8.135000 0.473200
8.154600 0.343900
8.174100 0.278500
8.193600 0.310100
8.213200 0.440700
8.232700 0.650400
8.252300 0.908200
8.271800 1.169300
8.291300 1.357400
8.310900 1.389500
8.330400 1.255800
8.350000 1.039500
8.369500 0.833400
8.389000 0.673400
8.408600 0.571900
8.428100 0.560600
8.447700 0.668600
8.467200 0.874000
8.486700 1.084600
8.506300 1.183700
8.525800 1.127200
8.545400 0.978500
8.564900 0.832300
8.584400 0.731700
8.604000 0.663300
8.623500 0.609100
8.643100 0.598500
8.662600 0.702500
8.682100 0.956600
8.701700 1.304200
8.721200 1.634600
8.740700 1.866400
8.760300 1.986700
8.779800 2.013900
8.799400 1.953000
8.818900 1.819100
8.838400 1.669400
8.858000 1.547900
8.877500 1.418700
8.897100 1.220500
8.916600 0.983100
8.936100 0.837700
8.955700 0.896000
8.975200 1.130900
8.994800 1.390200
9.014300 1.544200
9.033800 1.594500
9.053400 1.602200
9.072900 1.558900
9.092500 1.405200
9.112000 1.152900
9.131500 0.918700
9.151100 0.827400
9.170600 0.901200
9.190200 1.037500
9.209700 1.089800
9.229200 0.987700
9.248800 0.796900
9.268300 0.678500
9.287900 0.776200
9.307400 1.096700
9.326900 1.481000
9.346500 1.727700
9.366000 1.746500
9.385600 1.569600
9.405100 1.267900
9.424600 0.928400
9.444200 0.656300
9.463700 0.508500
9.483300 0.456000
9.502800 0.454700
9.522300 0.511500
9.541900 0.649800
9.561400 0.847800
9.581000 1.030100
9.600500 1.105300
9.620000 1.026100
9.639600 0.837000
9.659100 0.641500
9.678700 0.502700
9.698200 0.404500
9.717700 0.319600
9.737300 0.263400
9.756800 0.257800
9.776400 0.293000
9.795900 0.352400
9.815400 0.434900
9.835000 0.527000
9.854500 0.590900
9.874100 0.606300
9.893600 0.601200
9.913100 0.619800
9.932700 0.665200
9.952200 0.692000
9.971800 0.665500
9.991300 0.605400
10.010800 0.550100
10.030400 0.516200
10.049900 0.514500
10.069400 0.558900
10.089000 0.631400
10.108500 0.679900
10.128100 0.677500
10.147600 0.667700
10.167100 0.732900
10.186700 0.899400
10.206200 1.076100
10.225800 1.132100
10.245300 1.028300
10.264800 0.830600
10.284400 0.625700
10.303900 0.478500
10.323500 0.429100
10.343000 0.470300
10.362500 0.554200
10.382100 0.651400
10.401600 0.771400
10.421200 0.913200
10.440700 1.033400
10.460200 1.082300
10.479800 1.055000
10.499300 0.994500
10.518900 0.962700
10.538400 1.025400
10.557900 1.220500
10.577500 1.482900
10.597000 1.651800
10.616600 1.622900
10.636100 1.443400
10.655600 1.225100
10.675200 1.034000
10.694700 0.889300
10.714300 0.809700
10.733800 0.818300
10.753300 0.907200
10.772900 1.016700
10.792400 1.079300
10.812000 1.094800
10.831500 1.126300
10.851000 1.218800
10.870600 1.370400
10.890100 1.575200
10.909700 1.826200
10.929200 2.059400
10.948700 2.165100
10.968300 2.104900
10.987800 1.965500
11.007400 1.845700
11.026900 1.754400
11.046400 1.667800
11.066000 1.610200
11.085500 1.620900
11.105100 1.675800
11.124600 1.686400
11.144100 1.592300
11.163700 1.426500
11.183200 1.266500
11.202800 1.168400
11.222300 1.160700
11.241800 1.230100
11.261400 1.308900
11.280900 1.326600
11.300500 1.264500
11.320000 1.164100
11.339500 1.121800
11.359100 1.249600
11.378600 1.564800
11.398100 1.917300
11.417700 2.078800
11.437200 1.940300
11.456800 1.615900
11.476300 1.337700
11.495800 1.252000
11.515400 1.323100
11.534900 1.415600
11.554500 1.444400
11.574000 1.428600
11.593500 1.424600
11.613100 1.446300
11.632600 1.460300
11.652200 1.443000
11.671700 1.420400
11.691200 1.423200
11.710800 1.418400
11.730300 1.325100
11.749900 1.107600
11.769400 0.843600
11.788900 0.685500
11.808500 0.739300
11.828000 0.990700
11.847600 1.340600
11.867100 1.683300
11.886600 1.955600
11.906200 2.125800
11.925700 2.153600
11.945300 2.010900
11.964800 1.763200
11.984300 1.569400
12.003900 1.551600
12.023400 1.686300
12.043000 1.835700
12.062500 1.888200
12.082000 1.851900
12.101600 1.791600
12.121100 1.732800
12.140700 1.684600
12.160200 1.685800
12.179700 1.764700
12.199300 1.894200
12.218800 1.992500
12.238400 1.961600
12.257900 1.775400
12.277400 1.525000
12.297000 1.340700
12.316500 1.305100
12.336100 1.445400
12.355600 1.734100
12.375100 2.071400
12.394700 2.320500
12.414200 2.392100
12.433800 2.280000
12.453300 2.044900
12.472800 1.807100
12.492400 1.695200
12.511900 1.749300
12.531500 1.914600
12.551000 2.121300
12.570500 2.322200
12.590100 2.492500
12.609600 2.638600
12.629200 2.776400
12.648700 2.874900
12.668200 2.852600
12.687800 2.662700
12.707300 2.375400
12.726800 2.147100
12.746400 2.086200
12.765900 2.159000
12.785500 2.254100
12.805000 2.317100
12.824500 2.372800
12.844100 2.431300
12.863600 2.431100
12.883200 2.319800
12.902700 2.146900
12.922200 1.999800
12.941800 1.890200
12.961300 1.791500
12.980900 1.739100
13.000400 1.805600
