set title 'mp-1226089 - Density of States'
set xlabel 'Energy (eV)'
set ylabel 'DOS (states/eV)'
set grid
set xrange [-10:10]
set yrange [0:6.985]
set xzeroaxis lt -1
set terminal png size 800,600
set output 'mp-1226089_dos_gnuplot.png'
plot '-' using 1:2 with lines title 'DOS'
-4.897100 0.000000
-4.874600 0.000000
-4.852100 0.000000
-4.829500 0.000000
-4.807000 0.000000
-4.784500 0.000000
-4.762000 0.000000
-4.739500 0.000000
-4.716900 0.000000
-4.694400 0.000000
-4.671900 0.000000
-4.649400 0.000000
-4.626900 0.000000
-4.604300 0.000000
-4.581800 0.000000
-4.559300 0.000000
-4.536800 0.000000
-4.514300 0.000000
-4.491700 0.000000
-4.469200 0.000000
-4.446700 0.000000
-4.424200 0.000000
-4.401700 0.000000
-4.379100 0.000000
-4.356600 0.000000
-4.334100 0.000000
-4.311600 0.000000
-4.289100 0.000000
-4.266500 0.000000
-4.244000 0.000000
-4.221500 0.000000
-4.199000 0.000000
-4.176500 0.000000
-4.153900 0.000000
-4.131400 0.000000
-4.108900 0.000000
-4.086400 0.000000
-4.063900 0.000000
-4.041300 0.000000
-4.018800 0.000000
-3.996300 0.000000
-3.973800 0.000000
-3.951300 0.000000
-3.928700 0.000000
-3.906200 0.000000
-3.883700 0.000000
-3.861200 0.000000
-3.838700 0.000000
-3.816100 0.000000
-3.793600 0.000000
-3.771100 0.000000
-3.748600 0.000000
-3.726100 0.000000
-3.703500 0.000000
-3.681000 0.000000
-3.658500 0.000000
-3.636000 0.000000
-3.613500 0.000000
-3.590900 0.000000
-3.568400 0.000000
-3.545900 0.000000
-3.523400 0.000000
-3.500900 0.000000
-3.478300 0.000000
-3.455800 0.000000
-3.433300 0.000000
-3.410800 0.000000
-3.388300 0.000000
-3.365700 0.000000
-3.343200 0.000000
-3.320700 0.000000
-3.298200 0.000000
-3.275600 0.000000
-3.253100 0.000000
-3.230600 0.000000
-3.208100 0.000000
-3.185600 0.000000
-3.163000 0.000000
-3.140500 0.000000
-3.118000 0.000000
-3.095500 0.000000
-3.073000 0.000000
-3.050400 0.000000
-3.027900 0.000000
-3.005400 0.000000
-2.982900 0.000000
-2.960400 0.000000
-2.937800 0.000000
-2.915300 0.000000
-2.892800 0.000000
-2.870300 0.000000
-2.847800 0.000100
-2.825200 0.002600
-2.802700 0.006800
-2.780200 0.012000
-2.757700 0.018200
-2.735200 0.025200
-2.712600 0.032800
-2.690100 0.041200
-2.667600 0.050100
-2.645100 0.059600
-2.622600 0.069700
-2.600000 0.073900
-2.577500 0.071400
-2.555000 0.072900
-2.532500 0.075600
-2.510000 0.078900
-2.487400 0.082600
-2.464900 0.087100
-2.442400 0.091400
-2.419900 0.095300
-2.397400 0.098700
-2.374800 0.101800
-2.352300 0.104500
-2.329800 0.106700
-2.307300 0.108400
-2.284800 0.109300
-2.262200 0.108700
-2.239700 0.105300
-2.217200 0.103600
-2.194700 0.105100
-2.172200 0.106700
-2.149600 0.108200
-2.127100 0.109800
-2.104600 0.112000
-2.082100 0.115000
-2.059600 0.118300
-2.037000 0.121900
-2.014500 0.125800
-1.992000 0.130000
-1.969500 0.134400
-1.947000 0.139000
-1.924400 0.143800
-1.901900 0.148700
-1.879400 0.149300
-1.856900 0.150300
-1.834400 0.152000
-1.811800 0.154200
-1.789300 0.156700
-1.766800 0.159200
-1.744300 0.161600
-1.721800 0.164100
-1.699200 0.166700
-1.676700 0.169400
-1.654200 0.172200
-1.631700 0.175200
-1.609200 0.178400
-1.586600 0.181700
-1.564100 0.185100
-1.541600 0.188800
-1.519100 0.192700
-1.496600 0.196600
-1.474000 0.200500
-1.451500 0.204700
-1.429000 0.209100
-1.406500 0.213500
-1.384000 0.218000
-1.361400 0.223600
-1.338900 0.228900
-1.316400 0.233800
-1.293900 0.238200
-1.271400 0.242300
-1.248800 0.245100
-1.226300 0.247900
-1.203800 0.250500
-1.181300 0.252700
-1.158800 0.253400
-1.136200 0.252100
-1.113700 0.248600
-1.091200 0.250600
-1.068700 0.252700
-1.046200 0.254800
-1.023600 0.257000
-1.001100 0.259100
-0.978600 0.261300
-0.956100 0.263600
-0.933600 0.265800
-0.911000 0.268200
-0.888500 0.270900
-0.866000 0.273700
-0.843500 0.276500
-0.821000 0.279300
-0.798400 0.282200
-0.775900 0.286200
-0.753400 0.291900
-0.730900 0.298600
-0.708400 0.306300
-0.685800 0.314800
-0.663300 0.324100
-0.640800 0.334300
-0.618300 0.345500
-0.595800 0.357800
-0.573200 0.371400
-0.550700 0.381700
-0.528200 0.391300
-0.505700 0.403500
-0.483200 0.415600
-0.460600 0.427200
-0.438100 0.438300
-0.415600 0.448600
-0.393100 0.458300
-0.370600 0.466500
-0.348000 0.473200
-0.325500 0.477800
-0.303000 0.477800
-0.280500 0.473700
-0.257900 0.484000
-0.235400 0.495800
-0.212900 0.509100
-0.190400 0.524300
-0.167900 0.541500
-0.145300 0.561500
-0.122800 0.583300
-0.100300 0.609900
-0.077800 0.641700
-0.055300 0.682100
-0.032700 0.726100
-0.010200 0.851700
0.012300 0.968200
0.034800 1.052700
0.057300 1.107400
0.079900 1.147900
0.102400 1.182600
0.124900 1.223700
0.147400 1.277400
0.169900 1.228600
0.192500 1.172700
0.215000 1.149200
0.237500 1.170100
0.260000 1.274900
0.282500 1.519300
0.305100 1.641800
0.327600 1.710100
0.350100 1.780000
0.372600 1.859600
0.395100 1.934800
0.417700 1.958100
0.440200 1.950100
0.462700 1.933100
0.485200 1.898500
0.507700 1.885700
0.530300 1.851700
0.552800 1.818400
0.575300 1.861200
0.597800 1.920300
0.620300 1.954800
0.642900 1.968700
0.665400 1.959400
0.687900 1.936300
0.710400 1.947300
0.732900 2.034300
0.755500 2.153100
0.778000 2.290900
0.800500 2.460500
0.823000 2.610600
0.845500 2.583500
0.868100 2.521600
0.890600 2.501500
0.913100 2.461000
0.935600 2.406200
0.958100 2.317600
0.980700 2.270500
1.003200 2.248100
1.025700 2.235000
1.048200 2.228300
1.070700 2.238800
1.093300 2.263400
1.115800 2.339300
1.138300 2.444800
1.160800 2.458100
1.183300 2.501300
1.205900 2.579600
1.228400 2.610300
1.250900 2.644600
1.273400 2.705300
1.295900 2.816600
1.318500 3.075500
1.341000 3.272000
1.363500 3.241700
1.386000 2.916000
1.408500 2.701500
1.431100 2.611300
1.453600 2.554300
1.476100 2.575700
1.498600 2.649500
1.521100 2.896600
1.543700 2.645100
1.566200 2.483300
1.588700 2.396300
1.611200 2.416300
1.633700 2.397100
1.656300 2.393800
1.678800 2.456800
1.701300 2.533900
1.723800 2.751000
1.746300 2.628000
1.768900 2.059700
1.791400 1.858500
1.813900 1.723200
1.836400 1.473000
1.858900 1.429200
1.881500 1.336700
1.904000 1.362100
1.926500 1.424800
1.949000 1.515000
1.971500 1.711500
1.994100 2.059200
2.016600 2.429300
2.039100 2.808300
2.061600 3.036200
2.084100 3.614700
2.106700 4.417900
2.129200 4.148500
2.151700 3.645200
2.174200 3.336100
2.196700 2.990600
2.219300 2.317800
2.241800 1.981100
2.264300 2.039500
2.286800 2.229000
2.309300 2.728400
2.331900 3.085500
2.354400 3.224100
2.376900 3.169500
2.399400 3.225000
2.421900 3.489100
2.444500 3.761000
2.467000 3.856900
2.489500 3.633000
2.512000 3.584500
2.534500 3.600400
2.557100 3.623300
2.579600 3.605100
2.602100 3.256000
2.624600 3.567700
2.647100 3.369800
2.669700 3.225100
2.692200 3.106100
2.714700 2.996000
2.737200 2.769300
2.759700 2.635600
2.782300 2.441700
2.804800 2.352600
2.827300 2.364200
2.849800 2.441800
2.872400 2.636900
2.894900 2.993700
2.917400 3.011300
2.939900 3.047900
2.962400 3.148800
2.985000 3.363200
3.007500 3.642600
3.030000 3.718800
3.052500 3.806100
3.075000 3.934800
3.097600 3.691400
3.120100 3.638700
3.142600 3.609100
3.165100 3.622300
3.187600 3.164300
3.210200 3.555300
3.232700 3.331500
3.255200 2.745700
3.277700 2.555500
3.300200 2.507700
3.322800 2.676500
3.345300 2.982800
3.367800 3.271100
3.390300 3.707300
3.412800 4.134100
3.435400 4.334100
3.457900 4.798700
3.480400 4.672500
3.502900 4.588700
3.525400 4.140500
3.548000 3.631900
3.570500 3.684200
3.593000 3.888800
3.615500 3.917200
3.638000 4.279500
3.660600 4.064000
3.683100 3.989600
3.705600 4.067800
3.728100 4.798900
3.750600 4.697400
3.773200 4.424400
3.795700 4.061100
3.818200 4.596800
3.840700 4.712200
3.863200 6.350400
3.885800 5.268300
3.908300 4.466700
3.930800 3.212700
3.953300 3.697600
3.975800 4.263500
3.998400 4.029100
4.020900 3.896400
4.043400 3.977200
4.065900 3.969400
4.088400 3.991200
4.111000 3.779500
4.133500 3.384400
4.156000 3.109200
4.178500 3.072700
4.201000 2.811000
4.223600 2.764100
4.246100 3.168600
4.268600 3.062100
4.291100 3.489400
4.313600 3.120800
4.336200 2.934400
4.358700 2.737400
4.381200 2.551000
4.403700 2.420900
4.426200 2.373000
4.448800 2.422700
4.471300 2.531300
4.493800 2.644000
4.516300 2.755800
4.538800 3.009600
4.561400 3.655600
4.583900 3.714300
4.606400 4.024700
4.628900 4.277500
4.651400 4.592200
4.674000 4.458800
4.696500 4.502300
4.719000 4.424300
4.741500 4.540300
4.764000 4.601700
4.786600 4.649200
4.809100 4.061400
4.831600 3.738800
4.854100 4.904300
4.876600 4.295800
4.899200 3.698300
4.921700 3.281800
4.944200 3.087100
4.966700 3.207000
4.989200 3.226900
5.011800 3.224900
5.034300 3.083000
5.056800 3.054300
5.079300 3.162700
5.101800 3.179300
5.124400 3.250400
5.146900 3.346500
5.169400 3.462500
5.191900 3.622000
5.214400 3.820600
5.237000 3.965000
5.259500 3.797900
5.282000 3.876700
5.304500 3.779500
5.327000 3.691700
5.349600 3.689900
5.372100 3.519000
5.394600 3.415200
5.417100 3.414100
5.439600 3.547500
5.462200 3.620700
5.484700 3.815400
5.507200 3.621500
5.529700 3.486400
5.552200 3.144300
5.574800 3.135800
5.597300 3.102200
5.619800 3.172900
5.642300 3.183600
5.664800 3.235500
5.687400 3.428500
5.709900 3.645400
5.732400 3.724900
5.754900 3.650300
5.777400 3.689500
5.800000 3.602300
5.822500 3.443500
5.845000 3.186100
5.867500 3.047900
5.890000 2.921600
5.912600 2.769100
5.935100 2.578100
5.957600 2.375900
5.980100 2.522200
6.002700 2.258100
6.025200 2.297100
6.047700 2.350500
6.070200 2.433100
6.092700 2.750700
6.115300 2.901100
6.137800 2.956300
6.160300 3.042500
6.182800 2.949700
6.205300 2.892100
6.227900 2.818000
6.250400 2.768500
6.272900 2.836600
6.295400 2.958200
6.317900 3.052400
6.340500 3.028800
6.363000 2.966700
6.385500 3.062200
6.408000 3.208500
6.430500 3.148600
6.453100 3.109900
6.475600 2.921400
6.498100 2.647400
6.520600 2.489600
6.543100 2.261600
6.565700 2.243400
6.588200 2.310200
6.610700 2.454700
6.633200 2.676900
6.655700 2.727600
6.678300 2.683200
6.700800 2.589600
6.723300 2.447600
6.745800 2.287000
6.768300 2.120300
6.790900 1.933800
6.813400 1.710100
6.835900 1.345900
6.858400 1.118400
6.880900 0.997800
6.903500 0.938900
6.926000 0.882600
6.948500 0.829800
6.971000 0.790600
6.993500 0.773400
7.016100 0.757000
7.038600 0.741800
7.061100 0.728100
7.083600 0.714500
7.106100 0.701400
7.128700 0.688300
7.151200 0.680000
7.173700 0.666800
7.196200 0.649600
7.218700 0.637800
7.241300 0.633600
7.263800 0.629500
7.286300 0.625500
7.308800 0.622600
7.331300 0.619600
7.353900 0.613700
7.376400 0.611300
7.398900 0.610300
7.421400 0.609900
7.443900 0.609600
7.466500 0.609400
7.489000 0.609100
7.511500 0.608900
7.534000 0.608700
7.556500 0.608500
7.579100 0.608200
7.601600 0.607900
7.624100 0.607500
7.646600 0.607000
7.669100 0.606500
7.691700 0.606100
7.714200 0.605800
7.736700 0.605700
7.759200 0.605500
7.781700 0.603700
7.804300 0.602500
7.826800 0.601700
7.849300 0.601400
7.871800 0.601400
7.894300 0.601400
7.916900 0.601400
7.939400 0.601500
7.961900 0.601400
7.984400 0.601200
8.006900 0.600600
8.029500 0.599300
8.052000 0.596000
8.074500 0.590700
8.097000 0.583500
8.119500 0.579000
8.142100 0.576200
8.164600 0.574100
8.187100 0.572400
8.209600 0.571000
8.232100 0.569700
8.254700 0.568600
8.277200 0.567500
8.299700 0.566900
8.322200 0.566600
8.344700 0.567000
8.367300 0.567300
8.389800 0.567600
8.412300 0.567800
8.434800 0.567200
8.457300 0.566900
8.479900 0.567500
8.502400 0.569400
8.524900 0.572700
8.547400 0.577400
8.569900 0.583800
8.592500 0.592000
8.615000 0.604800
8.637500 0.635300
8.660000 0.658500
8.682500 0.700500
8.705100 0.737800
8.727600 0.597000
8.750100 0.582000
8.772600 0.577700
8.795100 0.579200
8.817700 0.576100
8.840200 0.556600
8.862700 0.545100
8.885200 0.544400
8.907700 0.545200
8.930300 0.546100
8.952800 0.546900
8.975300 0.547600
8.997800 0.548200
9.020400 0.548900
9.042900 0.550200
9.065400 0.552200
9.087900 0.554800
9.110400 0.558100
9.133000 0.561000
9.155500 0.563500
9.178000 0.565500
9.200500 0.566900
9.223000 0.567700
9.245600 0.567900
9.268100 0.567600
9.290600 0.567300
9.313100 0.566900
9.335600 0.566300
9.358200 0.565600
9.380700 0.565100
9.403200 0.564900
9.425700 0.565100
9.448200 0.565700
9.470800 0.568600
9.493300 0.575100
9.515800 0.585200
9.538300 0.618600
9.560800 0.668600
9.583400 0.560200
9.605900 0.507500
9.628400 0.483900
9.650900 0.477500
9.673400 0.473200
9.696000 0.469100
9.718500 0.464800
9.741000 0.460600
9.763500 0.456300
9.786000 0.451900
9.808600 0.447300
9.831100 0.443700
9.853600 0.440600
9.876100 0.437900
9.898600 0.435700
9.921200 0.433800
9.943700 0.432100
9.966200 0.430500
9.988700 0.429100
10.011200 0.427700
10.033800 0.426600
10.056300 0.425700
10.078800 0.425200
10.101300 0.425400
10.123800 0.426300
10.146400 0.428000
10.168900 0.430100
10.191400 0.432600
10.213900 0.435300
10.236400 0.438000
10.259000 0.440700
10.281500 0.443500
10.304000 0.446300
10.326500 0.449100
10.349000 0.451900
10.371600 0.454600
10.394100 0.457200
10.416600 0.459800
10.439100 0.466500
10.461600 0.483300
10.484200 0.498200
10.506700 0.512400
10.529200 0.528600
10.551700 0.548000
10.574200 0.550400
10.596800 0.537000
10.619300 0.527500
10.641800 0.522700
10.664300 0.522800
10.686800 0.525900
10.709400 0.531000
10.731900 0.538100
10.754400 0.546600
10.776900 0.558500
10.799400 0.575100
10.822000 0.588700
10.844500 0.580800
10.867000 0.555400
10.889500 0.521800
10.912000 0.501400
10.934600 0.486400
10.957100 0.467500
10.979600 0.450600
11.002100 0.448700
11.024600 0.446200
11.047200 0.444300
11.069700 0.443500
11.092200 0.445800
11.114700 0.447900
11.137200 0.449000
11.159800 0.449100
11.182300 0.448200
11.204800 0.446300
11.227300 0.443400
11.249800 0.439600
11.272400 0.440100
11.294900 0.451500
11.317400 0.452700
11.339900 0.493700
11.362400 0.395600
11.385000 0.388900
11.407500 0.389300
11.430000 0.391000
11.452500 0.395800
11.475000 0.400100
11.497600 0.402800
11.520100 0.404100
11.542600 0.404600
11.565100 0.403700
11.587600 0.399300
11.610200 0.391800
11.632700 0.383400
11.655200 0.375100
11.677700 0.367000
11.700200 0.358900
11.722800 0.351100
11.745300 0.343400
11.767800 0.335300
11.790300 0.326100
11.812800 0.316500
11.835400 0.307400
11.857900 0.303100
11.880400 0.301800
11.902900 0.302000
11.925400 0.302700
11.948000 0.304900
11.970500 0.309800
11.993000 0.315800
12.015500 0.318800
12.038000 0.317400
12.060600 0.321900
12.083100 0.329300
12.105600 0.337200
12.128100 0.373600
12.150700 0.418900
12.173200 0.662100
12.195700 0.621100
12.218200 0.621600
12.240700 0.657200
12.263300 0.704000
12.285800 0.795300
12.308300 0.911400
12.330800 1.026300
12.353300 0.971500
12.375900 1.003800
12.398400 1.034800
12.420900 0.988300
12.443400 0.947000
12.465900 0.904000
12.488500 0.866800
12.511000 0.835000
12.533500 0.807000
12.556000 0.778400
12.578500 0.754400
12.601100 0.734600
12.623600 0.709900
12.646100 0.688000
12.668600 0.669500
12.691100 0.654200
12.713700 0.643600
12.736200 0.632200
12.758700 0.619600
12.781200 0.636900
12.803700 0.593200
12.826300 0.570000
12.848800 0.547800
12.871300 0.529600
12.893800 0.515200
12.916300 0.505100
12.938900 0.499900
12.961400 0.499300
12.983900 0.498100
13.006400 0.492400
13.028900 0.481400
13.051500 0.465300
13.074000 0.458200
13.096500 0.451900
13.119000 0.447100
13.141500 0.443300
13.164100 0.443500
13.186600 0.446000
13.209100 0.448600
13.231600 0.451100
13.254100 0.475000
13.276700 0.512700
13.299200 0.562100
13.321700 0.586100
13.344200 0.612700
13.366700 0.644100
13.389300 0.677200
13.411800 0.708400
13.434300 0.738100
13.456800 0.769000
13.479300 0.805900
13.501900 0.837500
13.524400 0.862600
13.546900 0.888500
13.569400 0.803600
13.591900 0.752400
13.614500 0.725300
13.637000 0.705000
13.659500 0.686100
13.682000 0.668800
13.704500 0.653400
13.727100 0.642800
13.749600 0.631000
13.772100 0.621300
13.794600 0.612500
13.817100 0.606900
13.839700 0.612900
13.862200 0.607300
13.884700 0.590600
13.907200 0.574400
13.929700 0.558900
13.952300 0.544300
13.974800 0.528000
13.997300 0.514000
14.019800 0.507300
14.042300 0.518300
14.064900 0.534600
14.087400 0.553600
14.109900 0.575200
14.132400 0.565900
14.154900 0.561500
14.177500 0.558700
14.200000 0.557900
14.222500 0.557000
14.245000 0.555000
14.267500 0.552500
14.290100 0.548800
14.312600 0.543500
14.335100 0.536300
14.357600 0.527800
14.380100 0.518400
14.402700 0.508200
14.425200 0.499700
14.447700 0.496500
14.470200 0.496600
14.492700 0.496600
14.515300 0.497000
14.537800 0.498800
14.560300 0.501500
14.582800 0.504400
14.605300 0.507500
14.627900 0.510500
14.650400 0.512400
14.672900 0.513500
14.695400 0.514600
14.717900 0.516000
14.740500 0.518400
14.763000 0.528200
14.785500 0.542100
14.808000 0.559500
14.830500 0.580500
14.853100 0.607400
14.875600 0.637100
14.898100 0.671500
14.920600 0.706100
14.943100 0.733600
14.965700 0.760400
14.988200 0.786100
15.010700 0.809900
15.033200 0.845200
15.055700 0.874200
15.078300 0.881800
15.100800 0.855300
15.123300 0.840700
15.145800 0.818800
15.168300 0.789100
15.190900 0.753700
15.213400 0.725900
15.235900 0.703200
15.258400 0.680800
15.281000 0.660900
15.303500 0.645400
15.326000 0.620000
15.348500 0.594600
15.371000 0.572300
15.393600 0.553300
15.416100 0.537600
15.438600 0.530000
15.461100 0.525900
15.483600 0.522700
15.506200 0.522400
15.528700 0.532400
15.551200 0.537300
15.573700 0.536900
15.596200 0.525700
15.618800 0.513500
15.641300 0.506100
15.663800 0.503100
15.686300 0.503500
15.708800 0.504500
15.731400 0.518600
15.753900 0.522200
15.776400 0.526100
15.798900 0.530100
15.821400 0.534300
15.844000 0.538700
15.866500 0.545300
15.889000 0.547300
15.911500 0.540700
15.934000 0.544800
15.956600 0.549300
15.979100 0.550200
16.001600 0.549900
16.024100 0.550600
16.046600 0.555000
16.069200 0.568200
16.091700 0.613300
16.114200 0.663100
16.136700 0.718200
16.159200 0.739500
16.181800 0.758600
16.204300 0.763300
16.226800 0.767300
16.249300 0.773100
16.271800 0.778800
16.294400 0.785100
16.316900 0.791800
16.339400 0.799000
16.361900 0.803900
16.384400 0.811300
16.407000 0.819000
16.429500 0.825600
16.452000 0.834400
16.474500 0.848200
16.497000 0.860200
16.519600 0.865400
16.542100 0.856400
16.564600 0.850400
16.587100 0.854000
16.609600 0.863400
16.632200 0.877200
16.654700 0.899000
16.677200 0.923400
16.699700 0.896200
16.722200 0.871800
16.744800 0.851600
16.767300 0.817700
16.789800 0.755900
16.812300 0.715400
16.834800 0.701700
16.857400 0.692100
16.879900 0.683100
16.902400 0.674500
16.924900 0.666100
16.947400 0.657900
16.970000 0.649800
16.992500 0.641800
17.015000 0.647700
17.037500 0.645200
17.060000 0.642800
17.082600 0.640100
17.105100 0.636300
17.127600 0.633200
17.150100 0.630700
17.172600 0.628500
17.195200 0.626500
17.217700 0.624800
17.240200 0.623200
17.262700 0.630200
17.285200 0.666900
17.307800 0.701800
17.330300 0.630500
17.352800 0.632300
17.375300 0.635300
17.397800 0.639800
17.420400 0.645500
17.442900 0.740800
17.465400 0.666700
17.487900 0.666100
17.510400 0.665400
17.533000 0.664900
17.555500 0.668200
17.578000 0.673300
17.600500 0.679600
17.623000 0.688700
17.645600 0.700400
17.668100 0.713500
17.690600 0.727800
17.713100 0.742200
17.735600 0.752500
17.758200 0.762900
17.780700 0.776300
17.803200 0.793800
17.825700 0.818700
17.848200 0.848900
17.870800 0.865200
17.893300 0.870900
17.915800 0.878400
17.938300 0.888200
17.960800 0.895400
17.983400 0.900900
18.005900 0.904500
18.028400 0.905700
18.050900 0.903500
18.073400 0.900000
18.096000 0.896000
18.118500 0.892600
18.141000 0.889400
18.163500 0.885600
18.186000 0.880900
18.208600 0.875100
18.231100 0.867600
18.253600 0.859500
18.276100 0.852100
18.298600 0.844900
18.321200 0.837400
18.343700 0.830000
18.366200 0.823400
18.388700 0.816400
18.411300 0.810000
18.433800 0.801800
18.456300 0.796100
18.478800 0.794000
18.501300 0.795500
18.523900 0.798800
18.546400 0.803000
18.568900 0.807500
18.591400 0.811400
18.613900 0.814600
18.636500 0.816500
18.659000 0.816300
18.681500 0.815800
18.704000 0.815900
18.726500 0.840600
18.749100 0.843200
18.771600 0.848000
18.794100 0.853900
18.816600 0.858200
18.839100 0.860200
18.861700 0.861700
18.884200 0.865900
18.906700 0.879000
18.929200 0.919000
18.951700 0.927400
18.974300 0.924000
