set title 'mp-557054 - Density of States'
set xlabel 'Energy (eV)'
set ylabel 'DOS (states/eV)'
set grid
set xrange [-10:10]
set yrange [0:477.625]
set xzeroaxis lt -1
set terminal png size 800,600
set output 'mp-557054_dos_gnuplot.png'
plot '-' using 1:2 with lines title 'DOS'
-12.654300 0.000000
-12.640300 0.000000
-12.626400 0.000000
-12.612500 0.000000
-12.598500 0.000000
-12.584600 0.000000
-12.570600 0.000000
-12.556700 0.000000
-12.542800 0.000000
-12.528800 0.000000
-12.514900 0.000000
-12.500900 0.000000
-12.487000 0.000000
-12.473100 0.000000
-12.459100 0.000000
-12.445200 0.000000
-12.431300 0.000000
-12.417300 0.000000
-12.403400 0.000000
-12.389400 0.000000
-12.375500 0.000000
-12.361600 0.000000
-12.347600 0.000000
-12.333700 0.000000
-12.319700 0.000000
-12.305800 0.000000
-12.291900 0.000000
-12.277900 0.000000
-12.264000 0.000000
-12.250100 0.000000
-12.236100 0.000000
-12.222200 0.000000
-12.208200 0.000000
-12.194300 0.000000
-12.180400 0.000000
-12.166400 0.000000
-12.152500 0.000000
-12.138500 0.000000
-12.124600 0.000000
-12.110700 0.000000
-12.096700 0.000000
-12.082800 0.000000
-12.068900 0.000000
-12.054900 0.000000
-12.041000 0.000000
-12.027000 0.000000
-12.013100 0.000000
-11.999200 0.000000
-11.985200 0.000000
-11.971300 0.000000
-11.957300 0.000000
-11.943400 0.000000
-11.929500 0.000000
-11.915500 0.000000
-11.901600 0.000000
-11.887600 0.000000
-11.873700 0.000000
-11.859800 0.000000
-11.845800 0.000000
-11.831900 0.000000
-11.818000 0.000000
-11.804000 0.000000
-11.790100 0.000000
-11.776100 0.000000
-11.762200 0.000000
-11.748300 0.000000
-11.734300 0.000000
-11.720400 0.000000
-11.706400 0.000000
-11.692500 0.000000
-11.678600 0.000000
-11.664600 0.000000
-11.650700 0.000000
-11.636800 0.000000
-11.622800 0.000000
-11.608900 0.000000
-11.594900 0.000000
-11.581000 0.000000
-11.567100 0.000000
-11.553100 0.000000
-11.539200 0.000000
-11.525200 0.000000
-11.511300 0.000000
-11.497400 0.000000
-11.483400 0.000000
-11.469500 0.000000
-11.455600 0.000000
-11.441600 0.000000
-11.427700 0.000000
-11.413700 0.000000
-11.399800 0.000000
-11.385900 0.019500
-11.371900 0.233500
-11.358000 0.447500
-11.344000 0.661500
-11.330100 0.875600
-11.316200 1.089600
-11.302200 1.303600
-11.288300 1.517700
-11.274400 1.731700
-11.260400 1.088400
-11.246500 1.115300
-11.232500 1.142300
-11.218600 1.169300
-11.204700 1.301700
-11.190700 1.556200
-11.176800 1.810600
-11.162800 2.065100
-11.148900 2.319600
-11.135000 2.574000
-11.121000 2.828500
-11.107100 3.083000
-11.093100 3.337400
-11.079200 2.591100
-11.065300 2.846700
-11.051300 3.144200
-11.037400 3.441800
-11.023500 3.733600
-11.009500 4.024600
-10.995600 4.315500
-10.981600 4.606500
-10.967700 4.897500
-10.953800 4.318600
-10.939800 4.655700
-10.925900 5.004300
-10.911900 5.353400
-10.898000 5.702500
-10.884100 6.051600
-10.870100 6.400900
-10.856200 6.879900
-10.842300 7.492400
-10.828300 6.995700
-10.814400 7.388900
-10.800400 7.782100
-10.786500 8.175300
-10.772600 8.573800
-10.758600 9.061700
-10.744700 8.801500
-10.730700 9.431100
-10.716800 10.171100
-10.702900 10.911100
-10.688900 12.070200
-10.675000 13.020100
-10.661100 13.970500
-10.647100 13.928000
-10.633200 14.658800
-10.619200 14.360800
-10.605300 16.897900
-10.591400 17.016500
-10.577400 17.285900
-10.563500 17.750200
-10.549500 18.959500
-10.535600 19.830800
-10.521700 20.702100
-10.507700 20.338500
-10.493800 21.664600
-10.479900 24.897800
-10.465900 25.430900
-10.452000 22.272700
-10.438000 22.861200
-10.424100 23.483400
-10.410200 24.111700
-10.396200 24.816600
-10.382300 29.468700
-10.368300 30.867700
-10.354400 24.825900
-10.340500 24.979300
-10.326500 25.130200
-10.312600 33.358700
-10.298600 30.390900
-10.284700 30.981100
-10.270800 32.190100
-10.256800 28.568600
-10.242900 25.707300
-10.229000 29.016100
-10.215000 25.969300
-10.201100 20.005000
-10.187100 21.907400
-10.173200 29.412100
-10.159300 27.425600
-10.145300 26.387700
-10.131400 28.992900
-10.117400 27.646000
-10.103500 31.391900
-10.089600 22.120500
-10.075600 22.049500
-10.061700 25.615900
-10.047800 34.361100
-10.033800 23.479600
-10.019900 22.771100
-10.005900 22.131100
-9.992000 24.638200
-9.978100 25.269500
-9.964100 28.746700
-9.950200 20.520200
-9.936200 24.220100
-9.922300 23.102400
-9.908400 24.099000
-9.894400 26.259600
-9.880500 27.165600
-9.866600 24.380900
-9.852600 25.273400
-9.838700 28.186000
-9.824700 20.891400
-9.810800 26.541200
-9.796900 27.591900
-9.782900 16.219400
-9.769000 13.570000
-9.755000 19.165100
-9.741100 15.427600
-9.727200 23.131700
-9.713200 17.368700
-9.699300 13.756600
-9.685400 5.510900
-9.671400 5.905300
-9.657500 6.299700
-9.643500 6.694100
-9.629600 23.289700
-9.615700 34.568500
-9.601700 0.000000
-9.587800 0.000000
-9.573800 0.000000
-9.559900 0.000000
-9.546000 0.000000
-9.532000 0.000000
-9.518100 0.000000
-9.504100 0.000000
-9.490200 0.000000
-9.476300 0.000000
-9.462300 0.000000
-9.448400 0.000000
-9.434500 0.000000
-9.420500 0.000000
-9.406600 0.000000
-9.392600 0.000000
-9.378700 0.000000
-9.364800 0.000000
-9.350800 0.000000
-9.336900 0.000000
-9.322900 0.000000
-9.309000 0.000000
-9.295100 0.000000
-9.281100 0.000000
-9.267200 0.000000
-9.253300 0.000000
-9.239300 0.000000
-9.225400 0.000000
-9.211400 0.000000
-9.197500 0.000000
-9.183600 0.000000
-9.169600 0.000000
-9.155700 0.000000
-9.141700 0.000000
-9.127800 0.000000
-9.113900 0.000000
-9.099900 0.000000
-9.086000 0.000000
-9.072100 0.000000
-9.058100 0.000000
-9.044200 0.000000
-9.030200 0.000000
-9.016300 0.000000
-9.002400 0.000000
-8.988400 0.000000
-8.974500 0.000000
-8.960500 0.000000
-8.946600 0.000000
-8.932700 0.000000
-8.918700 0.000000
-8.904800 0.000000
-8.890900 0.000000
-8.876900 0.000000
-8.863000 0.000000
-8.849000 0.000000
-8.835100 0.000000
-8.821200 0.000000
-8.807200 0.000000
-8.793300 0.000000
-8.779300 0.000000
-8.765400 0.000000
-8.751500 0.000000
-8.737500 0.000000
-8.723600 0.000000
-8.709600 0.000000
-8.695700 0.000000
-8.681800 0.000000
-8.667800 0.000000
-8.653900 0.000000
-8.640000 0.000000
-8.626000 0.000000
-8.612100 0.000000
-8.598100 0.000000
-8.584200 0.000000
-8.570300 0.000000
-8.556300 0.000000
-8.542400 0.000000
-8.528400 0.000000
-8.514500 0.000000
-8.500600 0.000000
-8.486600 0.000000
-8.472700 0.000000
-8.458800 0.000000
-8.444800 0.000000
-8.430900 0.000000
-8.416900 0.000000
-8.403000 0.000000
-8.389100 0.000000
-8.375100 0.000000
-8.361200 0.000000
-8.347200 0.000000
-8.333300 0.000000
-8.319400 0.000000
-8.305400 0.000000
-8.291500 0.000000
-8.277600 0.000000
-8.263600 0.000000
-8.249700 0.000000
-8.235700 0.000000
-8.221800 0.000000
-8.207900 0.000000
-8.193900 0.000000
-8.180000 0.000000
-8.166000 0.000000
-8.152100 0.000000
-8.138200 0.000000
-8.124200 0.000000
-8.110300 0.000000
-8.096400 0.000000
-8.082400 0.000000
-8.068500 0.000000
-8.054500 0.000000
-8.040600 0.000000
-8.026700 0.000000
-8.012700 0.000000
-7.998800 0.000000
-7.984800 0.000000
-7.970900 0.000000
-7.957000 0.000000
-7.943000 0.000000
-7.929100 0.000000
-7.915100 0.000000
-7.901200 0.000000
-7.887300 0.000000
-7.873300 0.000000
-7.859400 0.000000
-7.845500 0.000000
-7.831500 0.000000
-7.817600 0.000000
-7.803600 0.000000
-7.789700 0.000000
-7.775800 0.000000
-7.761800 0.000000
-7.747900 0.000000
-7.733900 0.000000
-7.720000 0.000000
-7.706100 0.000000
-7.692100 0.000000
-7.678200 0.000000
-7.664300 0.000000
-7.650300 0.000000
-7.636400 0.000000
-7.622400 0.000000
-7.608500 0.000000
-7.594600 0.000000
-7.580600 0.000000
-7.566700 0.000000
-7.552700 0.000000
-7.538800 0.000000
-7.524900 0.000000
-7.510900 0.000000
-7.497000 0.000000
-7.483100 0.000000
-7.469100 0.000000
-7.455200 0.000000
-7.441200 0.000000
-7.427300 0.000000
-7.413400 0.000000
-7.399400 0.000000
-7.385500 0.000000
-7.371500 0.000000
-7.357600 0.000000
-7.343700 0.000000
-7.329700 0.000000
-7.315800 0.000000
-7.301900 0.000000
-7.287900 0.000000
-7.274000 0.000000
-7.260000 0.000000
-7.246100 0.000000
-7.232200 0.000000
-7.218200 0.000000
-7.204300 0.000000
-7.190300 0.000000
-7.176400 0.000000
-7.162500 0.000000
-7.148500 0.000000
-7.134600 0.000000
-7.120600 0.000000
-7.106700 0.000000
-7.092800 0.000000
-7.078800 0.000000
-7.064900 0.000000
-7.051000 0.000000
-7.037000 0.000000
-7.023100 0.000000
-7.009100 0.000000
-6.995200 0.000000
-6.981300 0.000000
-6.967300 0.000000
-6.953400 0.000000
-6.939400 0.000000
-6.925500 0.000000
-6.911600 0.000000
-6.897600 0.000000
-6.883700 0.000000
-6.869800 0.000000
-6.855800 0.000000
-6.841900 0.000000
-6.827900 0.000000
-6.814000 0.000000
-6.800100 0.000000
-6.786100 0.000000
-6.772200 0.000000
-6.758200 0.000000
-6.744300 0.000000
-6.730400 0.000000
-6.716400 0.000000
-6.702500 0.000000
-6.688600 0.000000
-6.674600 0.000000
-6.660700 0.000000
-6.646700 0.000000
-6.632800 0.000000
-6.618900 0.000000
-6.604900 0.000000
-6.591000 0.000000
-6.577000 0.000000
-6.563100 0.000000
-6.549200 0.000000
-6.535200 0.000000
-6.521300 0.000000
-6.507400 0.000000
-6.493400 0.000000
-6.479500 0.000000
-6.465500 0.000000
-6.451600 0.000000
-6.437700 0.000000
-6.423700 0.000000
-6.409800 0.000000
-6.395800 0.000000
-6.381900 0.000000
-6.368000 0.000000
-6.354000 0.000000
-6.340100 0.000000
-6.326100 0.000000
-6.312200 0.000000
-6.298300 0.000000
-6.284300 0.000000
-6.270400 0.000000
-6.256500 0.000000
-6.242500 0.000000
-6.228600 0.000000
-6.214600 0.000000
-6.200700 0.000000
-6.186800 0.000000
-6.172800 0.000000
-6.158900 0.000000
-6.144900 0.000000
-6.131000 0.000000
-6.117100 0.000000
-6.103100 0.000000
-6.089200 0.000000
-6.075300 0.000000
-6.061300 0.000000
-6.047400 0.000000
-6.033400 0.000000
-6.019500 0.000000
-6.005600 0.000000
-5.991600 0.000000
-5.977700 0.000000
-5.963700 0.000000
-5.949800 0.000000
-5.935900 0.000000
-5.921900 0.000000
-5.908000 0.000000
-5.894100 0.000000
-5.880100 0.000000
-5.866200 0.000000
-5.852200 0.000000
-5.838300 0.000000
-5.824400 0.000000
-5.810400 0.000000
-5.796500 0.000000
-5.782500 0.000000
-5.768600 0.000000
-5.754700 0.000000
-5.740700 0.000000
-5.726800 0.000000
-5.712900 0.000000
-5.698900 0.000000
-5.685000 0.000000
-5.671000 0.000000
-5.657100 0.000000
-5.643200 0.000000
-5.629200 0.000000
-5.615300 0.000000
-5.601300 0.000000
-5.587400 0.000000
-5.573500 0.000000
-5.559500 0.000000
-5.545600 0.000000
-5.531600 0.000000
-5.517700 0.000000
-5.503800 0.000000
-5.489800 0.000000
-5.475900 0.000000
-5.462000 0.000000
-5.448000 0.000000
-5.434100 0.000000
-5.420100 0.000000
-5.406200 0.000000
-5.392300 0.000000
-5.378300 0.000000
-5.364400 0.000000
-5.350400 0.000000
-5.336500 0.000000
-5.322600 0.000000
-5.308600 0.000000
-5.294700 0.000000
-5.280800 0.000000
-5.266800 0.000000
-5.252900 0.000000
-5.238900 0.000000
-5.225000 0.000000
-5.211100 0.000000
-5.197100 0.000000
-5.183200 0.000000
-5.169200 0.000000
-5.155300 0.000000
-5.141400 0.000000
-5.127400 0.000000
-5.113500 0.000000
-5.099600 0.000000
-5.085600 0.000000
-5.071700 0.000000
-5.057700 0.000000
-5.043800 0.000000
-5.029900 0.000000
-5.015900 0.000000
-5.002000 0.000000
-4.988000 0.000000
-4.974100 0.000000
-4.960200 0.000000
-4.946200 0.000000
-4.932300 0.000000
-4.918400 0.000000
-4.904400 0.000000
-4.890500 0.000000
-4.876500 0.000000
-4.862600 0.000000
-4.848700 0.000000
-4.834700 0.000000
-4.820800 0.000000
-4.806800 0.000000
-4.792900 0.000000
-4.779000 0.000000
-4.765000 0.000000
-4.751100 0.000000
-4.737100 47.292100
-4.723200 53.082400
-4.709300 55.851100
-4.695300 75.810600
-4.681400 39.209600
-4.667500 50.511900
-4.653500 51.658100
-4.639600 50.629700
-4.625600 158.094100
-4.611700 59.849800
-4.597800 53.415000
-4.583800 49.239900
-4.569900 85.652100
-4.555900 84.367900
-4.542000 73.421300
-4.528100 77.250800
-4.514100 76.515200
-4.500200 82.863100
-4.486300 89.904200
-4.472300 129.915700
-4.458400 95.329700
-4.444400 78.188800
-4.430500 71.017400
-4.416600 79.862700
-4.402600 129.667700
-4.388700 103.853300
-4.374700 91.305800
-4.360800 126.425400
-4.346900 108.855700
-4.332900 71.069900
-4.319000 93.928200
-4.305100 117.754500
-4.291100 96.772000
-4.277200 90.573800
-4.263200 113.003000
-4.249300 123.375000
-4.235400 114.145100
-4.221400 112.337500
-4.207500 222.639900
-4.193500 100.885400
-4.179600 138.741800
-4.165700 168.747900
-4.151700 201.145600
-4.137800 131.427500
-4.123800 142.762200
-4.109900 155.082700
-4.096000 156.193900
-4.082000 153.648200
-4.068100 179.261500
-4.054200 158.548900
-4.040200 147.082700
-4.026300 151.257000
-4.012300 149.378800
-3.998400 192.477000
-3.984500 201.164900
-3.970500 198.948100
-3.956600 187.562200
-3.942600 118.124600
-3.928700 119.205100
-3.914800 131.356400
-3.900800 152.343100
-3.886900 100.318000
-3.873000 88.964400
-3.859000 89.897700
-3.845100 116.082400
-3.831100 75.248000
-3.817200 90.665400
-3.803300 177.751800
-3.789300 121.550200
-3.775400 105.852200
-3.761400 96.311800
-3.747500 91.974800
-3.733600 55.172500
-3.719600 44.012800
-3.705700 120.490900
-3.691800 115.323400
-3.677800 83.059700
-3.663900 65.658200
-3.649900 60.524100
-3.636000 434.204200
-3.622100 50.430600
-3.608100 80.902700
-3.594200 120.059400
-3.580200 82.797700
-3.566300 61.280000
-3.552400 62.133200
-3.538400 103.588400
-3.524500 48.322200
-3.510600 49.410800
-3.496600 45.457000
-3.482700 29.898400
-3.468700 28.455600
-3.454800 28.174000
-3.440900 23.047000
-3.426900 21.834600
-3.413000 20.288800
-3.399000 12.176200
-3.385100 10.835500
-3.371200 11.243000
-3.357200 12.011800
-3.343300 21.531400
-3.329300 34.165300
-3.315400 11.839000
-3.301500 9.938600
-3.287500 7.639800
-3.273600 5.341100
-3.259700 0.705100
-3.245700 0.832600
-3.231800 0.960200
-3.217800 1.087700
-3.203900 1.215200
-3.190000 5.748900
-3.176000 3.568100
-3.162100 3.322700
-3.148100 3.554200
-3.134200 7.136000
-3.120300 12.219100
-3.106300 6.074700
-3.092400 6.503800
-3.078500 6.933000
-3.064500 7.362100
-3.050600 8.060800
-3.036600 9.200900
-3.022700 10.341000
-3.008800 11.481100
-2.994800 12.621200
-2.980900 12.721700
-2.966900 12.710300
-2.953000 10.590800
-2.939100 11.165600
-2.925100 16.203500
-2.911200 13.108900
-2.897300 10.014200
-2.883300 7.108700
-2.869400 5.259700
-2.855400 5.745100
-2.841500 8.376200
-2.827600 11.007400
-2.813600 13.638600
-2.799700 9.847100
-2.785700 10.780800
-2.771800 11.714400
-2.757900 9.229100
-2.743900 18.079600
-2.730000 13.411200
-2.716100 14.639700
-2.702100 15.868200
-2.688200 17.096700
-2.674200 80.936800
-2.660300 18.009300
-2.646400 21.576900
-2.632400 25.360700
-2.618500 22.325600
-2.604500 20.570900
-2.590600 16.235800
-2.576700 16.129700
-2.562700 16.697800
-2.548800 17.739900
-2.534800 18.961500
-2.520900 19.727600
-2.507000 19.145200
-2.493000 20.140100
-2.479100 19.703900
-2.465200 18.966700
-2.451200 15.897000
-2.437300 12.673100
-2.423300 12.770500
-2.409400 11.659600
-2.395500 13.758700
-2.381500 15.857800
-2.367600 12.771200
-2.353600 13.052400
-2.339700 14.785300
-2.325800 16.066200
-2.311800 17.347100
-2.297900 15.472300
-2.284000 32.196600
-2.270000 13.071500
-2.256100 13.149000
-2.242100 13.226600
-2.228200 13.304100
-2.214300 13.381700
-2.200300 15.513000
-2.186400 17.940800
-2.172400 21.368200
-2.158500 19.249000
-2.144600 21.694400
-2.130600 23.676000
-2.116700 24.399800
-2.102800 38.356700
-2.088800 16.177500
-2.074900 9.758400
-2.060900 9.750500
-2.047000 10.852700
-2.033100 13.059700
-2.019100 15.266700
-2.005200 10.687400
-1.991200 10.745900
-1.977300 9.644100
-1.963400 9.580800
-1.949400 9.517600
-1.935500 9.144300
-1.921600 9.110000
-1.907600 9.075700
-1.893700 9.041400
-1.879700 9.010000
-1.865800 8.723600
-1.851900 8.743400
-1.837900 8.763100
-1.824000 8.782900
-1.810000 8.802600
-1.796100 8.822400
-1.782200 8.842100
-1.768200 8.861900
-1.754300 8.010200
-1.740300 8.577300
-1.726400 8.560900
-1.712500 8.389100
-1.698500 8.393100
-1.684600 8.397200
-1.670700 8.401300
-1.656700 8.405300
-1.642800 8.409400
-1.628800 8.413500
-1.614900 8.417500
-1.601000 8.420100
-1.587000 8.420200
-1.573100 8.420300
-1.559100 8.296600
-1.545200 8.311100
-1.531300 8.325700
-1.517300 8.340300
-1.503400 8.354800
-1.489500 8.369400
-1.475500 8.383900
-1.461600 8.398500
-1.447600 8.413000
-1.433700 8.427600
-1.419800 8.442200
-1.405800 8.456700
-1.391900 8.471300
-1.377900 8.484400
-1.364000 33.985500
-1.350100 41.108500
-1.336100 6.505300
-1.322200 6.512200
-1.308300 6.519000
-1.294300 6.525800
-1.280400 6.532600
-1.266400 6.539400
-1.252500 6.546200
-1.238600 6.553000
-1.224600 7.258000
-1.210700 7.316100
-1.196700 7.370800
-1.182800 7.425500
-1.168900 7.478400
-1.154900 7.533300
-1.141000 7.588300
-1.127100 7.643200
-1.113100 7.698200
-1.099200 7.753100
-1.085200 7.808100
-1.071300 7.863100
-1.057400 8.823900
-1.043400 8.966300
-1.029500 9.108700
-1.015500 9.985700
-1.001600 10.158200
-0.987700 10.887100
-0.973700 12.181600
-0.959800 13.479000
-0.945800 14.768100
-0.931900 16.893700
-0.918000 18.320600
-0.904000 20.363700
-0.890100 13.633600
-0.876200 14.212700
-0.862200 18.999900
-0.848300 18.702700
-0.834300 18.410100
-0.820400 18.118200
-0.806500 17.826400
-0.792500 17.534500
-0.778600 13.943200
-0.764600 14.033300
-0.750700 14.086500
-0.736800 14.139700
-0.722800 15.072700
-0.708900 15.148600
-0.695000 15.224600
-0.681000 15.317100
-0.667100 15.604800
-0.653100 15.892600
-0.639200 16.180300
-0.625300 17.742400
-0.611300 18.395000
-0.597400 20.842400
-0.583400 21.306600
-0.569500 22.722700
-0.555600 23.640400
-0.541600 24.671500
-0.527700 25.166500
-0.513800 24.014900
-0.499800 25.036800
-0.485900 25.373900
-0.471900 22.968900
-0.458000 17.343700
-0.444100 17.177800
-0.430100 18.058200
-0.416200 18.200500
-0.402200 18.342700
-0.388300 18.502900
-0.374400 18.691100
-0.360400 18.895600
-0.346500 18.987200
-0.332600 20.177400
-0.318600 20.340600
-0.304700 20.504100
-0.290700 20.719100
-0.276800 20.975600
-0.262900 21.470200
-0.248900 21.709700
-0.235000 21.925900
-0.221000 22.142100
-0.207100 23.256200
-0.193200 23.472500
-0.179200 23.743800
-0.165300 23.235800
-0.151300 24.379300
-0.137400 24.572900
-0.123500 24.766600
-0.109500 24.960200
-0.095600 24.340800
-0.081700 24.364100
-0.067700 24.286700
-0.053800 23.625100
-0.039800 23.560200
-0.025900 23.564500
-0.012000 23.615000
0.002000 25.522200
0.015900 25.470100
0.029900 25.511500
0.043800 24.902800
0.057700 24.767000
0.071700 27.345900
0.085600 27.420400
0.099500 28.841500
0.113500 28.052700
0.127400 28.081100
0.141400 27.332300
0.155300 26.402700
0.169200 26.443500
0.183200 26.275600
0.197100 26.257600
0.211100 26.280300
0.225000 26.323700
0.238900 28.427900
0.252900 28.482900
0.266800 28.576500
0.280700 27.591600
0.294700 25.474200
0.308600 25.359100
0.322600 24.974900
0.336500 24.872700
0.350400 24.770600
0.364400 24.668900
0.378300 24.749300
0.392300 24.642500
0.406200 24.571300
0.420100 24.508900
0.434100 24.308700
0.448000 27.356800
0.461900 27.196000
0.475900 28.814300
0.489800 28.694000
0.503800 28.648700
0.517700 28.204300
0.531600 27.494000
0.545600 26.747600
0.559500 26.649300
0.573500 26.550600
0.587400 28.497100
0.601300 29.249400
0.615300 28.844500
0.629200 28.697700
0.643200 28.625300
0.657100 28.554400
0.671000 27.790600
0.685000 26.840900
0.698900 26.649700
0.712800 26.519500
0.726800 26.372200
0.740700 25.349400
0.754700 25.203500
0.768600 25.107700
0.782500 25.012400
0.796500 26.389300
0.810400 26.109400
0.824400 25.095300
0.838300 24.919000
0.852200 24.726400
0.866200 24.563200
0.880100 25.859300
0.894000 25.501300
0.908000 24.364000
0.921900 24.073600
0.935900 23.879100
0.949800 23.540000
0.963700 23.261100
0.977700 22.318200
0.991600 22.185400
1.005600 21.901400
1.019500 21.877200
1.033400 21.851300
1.047400 21.817000
1.061300 21.847800
1.075200 21.887400
1.089200 21.911800
1.103100 21.900900
1.117100 21.243200
1.131000 19.352500
1.144900 18.738600
1.158900 18.007800
1.172800 17.497100
1.186800 17.152900
1.200700 16.978600
1.214600 16.627300
1.228600 16.292400
1.242500 15.957500
1.256400 15.607600
1.270400 15.277500
1.284300 14.970600
1.298300 14.978600
1.312200 14.561400
1.326100 13.389900
1.340100 12.937900
1.354000 12.486100
1.368000 12.046400
1.381900 11.617500
