set title 'mp-8632 - Density of States'
set xlabel 'Energy (eV)'
set ylabel 'DOS (states/eV)'
set grid
set xrange [-10:10]
set yrange [0:3.661]
set xzeroaxis lt -1
set terminal png size 800,600
set output 'mp-8632_dos_gnuplot.png'
plot '-' using 1:2 with lines title 'DOS'
-39.737900 0.000000
-39.656500 0.000000
-39.575100 0.000000
-39.493700 0.000000
-39.412300 0.000000
-39.330900 0.000000
-39.249500 0.000000
-39.168100 0.000000
-39.086600 0.000000
-39.005200 0.000000
-38.923800 0.000000
-38.842400 0.000000
-38.761000 0.000000
-38.679600 0.000000
-38.598200 0.000000
-38.516800 0.000000
-38.435400 0.000000
-38.354000 0.000000
-38.272600 0.000000
-38.191200 0.000000
-38.109800 0.000000
-38.028400 0.000000
-37.947000 0.000000
-37.865600 0.000000
-37.784200 0.000000
-37.702800 0.000000
-37.621400 0.000000
-37.540000 0.000000
-37.458600 0.000000
-37.377200 0.000000
-37.295700 0.000000
-37.214300 0.000000
-37.132900 0.000000
-37.051500 0.000000
-36.970100 0.000000
-36.888700 0.000000
-36.807300 0.000000
-36.725900 0.000000
-36.644500 0.000000
-36.563100 0.000000
-36.481700 0.000000
-36.400300 0.000000
-36.318900 0.000000
-36.237500 0.000000
-36.156100 0.000000
-36.074700 0.000000
-35.993300 0.000000
-35.911900 0.000000
-35.830500 0.000000
-35.749100 0.000000
-35.667700 0.000000
-35.586200 0.000000
-35.504800 0.000000
-35.423400 0.000000
-35.342000 0.000000
-35.260600 0.000000
-35.179200 0.000000
-35.097800 0.000000
-35.016400 0.000000
-34.935000 0.000000
-34.853600 0.000000
-34.772200 0.000000
-34.690800 0.000000
-34.609400 0.000000
-34.528000 0.000000
-34.446600 0.000000
-34.365200 0.000000
-34.283800 0.000000
-34.202400 0.000000
-34.121000 0.000000
-34.039600 0.000000
-33.958200 0.000000
-33.876700 0.000000
-33.795300 0.000000
-33.713900 0.000000
-33.632500 0.000000
-33.551100 0.000000
-33.469700 0.000000
-33.388300 0.000000
-33.306900 0.000000
-33.225500 0.000000
-33.144100 0.000000
-33.062700 0.000000
-32.981300 0.000000
-32.899900 0.000000
-32.818500 0.000000
-32.737100 0.000000
-32.655700 0.000000
-32.574300 0.000000
-32.492900 0.000000
-32.411500 0.000000
-32.330100 0.779600
-32.248700 4.510200
-32.167300 10.945300
-32.085800 3.947900
-32.004400 4.218500
-31.923000 5.460100
-31.841600 6.377200
-31.760200 12.908600
-31.678800 14.385300
-31.597400 7.970900
-31.516000 0.000000
-31.434600 0.000000
-31.353200 0.000000
-31.271800 0.000000
-31.190400 0.000000
-31.109000 0.000000
-31.027600 0.000000
-30.946200 0.000000
-30.864800 0.000000
-30.783400 0.000000
-30.702000 0.000000
-30.620600 0.000000
-30.539200 0.000000
-30.457800 0.000000
-30.376300 0.000000
-30.294900 0.000000
-30.213500 0.000000
-30.132100 0.000000
-30.050700 0.000000
-29.969300 0.000000
-29.887900 0.000000
-29.806500 0.000000
-29.725100 0.000000
-29.643700 0.000000
-29.562300 0.000000
-29.480900 0.000000
-29.399500 0.000000
-29.318100 0.000000
-29.236700 0.000000
-29.155300 0.000000
-29.073900 0.000000
-28.992500 0.000000
-28.911100 0.000000
-28.829700 0.000000
-28.748300 0.000000
-28.666800 0.000000
-28.585400 0.000000
-28.504000 0.000000
-28.422600 0.000000
-28.341200 0.000000
-28.259800 0.000000
-28.178400 0.000000
-28.097000 0.000000
-28.015600 0.000000
-27.934200 0.000000
-27.852800 0.000000
-27.771400 0.000000
-27.690000 0.000000
-27.608600 0.000000
-27.527200 0.000000
-27.445800 0.000000
-27.364400 0.000000
-27.283000 0.000000
-27.201600 0.000000
-27.120200 0.000000
-27.038800 0.000000
-26.957400 0.000000
-26.875900 0.000000
-26.794500 0.000000
-26.713100 0.000000
-26.631700 0.000000
-26.550300 0.000000
-26.468900 0.000000
-26.387500 0.000000
-26.306100 0.000000
-26.224700 0.000000
-26.143300 0.000000
-26.061900 0.000000
-25.980500 0.000000
-25.899100 0.000000
-25.817700 0.000000
-25.736300 0.000000
-25.654900 0.000000
-25.573500 0.000000
-25.492100 0.000000
-25.410700 0.000000
-25.329300 0.000000
-25.247900 0.000000
-25.166400 0.000000
-25.085000 0.000000
-25.003600 0.000000
-24.922200 0.000000
-24.840800 0.000000
-24.759400 0.000000
-24.678000 0.000000
-24.596600 0.000000
-24.515200 0.000000
-24.433800 0.000000
-24.352400 0.000000
-24.271000 0.000000
-24.189600 0.000000
-24.108200 0.000000
-24.026800 0.000000
-23.945400 0.000000
-23.864000 0.000000
-23.782600 0.000000
-23.701200 0.000000
-23.619800 0.000000
-23.538400 0.000000
-23.457000 0.000000
-23.375500 0.000000
-23.294100 0.000000
-23.212700 0.000000
-23.131300 0.000000
-23.049900 0.000000
-22.968500 0.000000
-22.887100 0.000000
-22.805700 0.000000
-22.724300 0.000000
-22.642900 0.000000
-22.561500 0.000000
-22.480100 0.000000
-22.398700 0.000000
-22.317300 0.000000
-22.235900 0.000000
-22.154500 0.000000
-22.073100 0.000000
-21.991700 0.000000
-21.910300 0.000000
-21.828900 0.000000
-21.747500 0.000000
-21.666000 0.000000
-21.584600 0.000000
-21.503200 0.000000
-21.421800 0.000000
-21.340400 0.000000
-21.259000 0.000000
-21.177600 0.000000
-21.096200 0.000000
-21.014800 0.000000
-20.933400 0.000000
-20.852000 0.000000
-20.770600 0.000000
-20.689200 0.000000
-20.607800 0.000000
-20.526400 0.000000
-20.445000 0.000000
-20.363600 0.000000
-20.282200 0.000000
-20.200800 0.000000
-20.119400 0.000000
-20.038000 0.000000
-19.956500 0.000000
-19.875100 0.000000
-19.793700 0.000000
-19.712300 0.000000
-19.630900 0.000000
-19.549500 0.000000
-19.468100 0.000000
-19.386700 0.000000
-19.305300 0.000000
-19.223900 0.000000
-19.142500 0.000000
-19.061100 0.000000
-18.979700 0.000000
-18.898300 0.000000
-18.816900 0.000000
-18.735500 0.000000
-18.654100 0.000000
-18.572700 0.000000
-18.491300 0.000000
-18.409900 0.000000
-18.328500 0.000000
-18.247100 0.000000
-18.165600 0.000000
-18.084200 0.000000
-18.002800 0.000000
-17.921400 0.000000
-17.840000 0.000000
-17.758600 0.000000
-17.677200 0.000000
-17.595800 0.000000
-17.514400 0.000000
-17.433000 0.000000
-17.351600 0.000000
-17.270200 0.000000
-17.188800 0.000000
-17.107400 0.000000
-17.026000 0.000000
-16.944600 0.000000
-16.863200 0.000000
-16.781800 0.000000
-16.700400 0.000000
-16.619000 0.000000
-16.537600 0.000000
-16.456100 0.000000
-16.374700 0.000000
-16.293300 0.000000
-16.211900 0.000000
-16.130500 0.000000
-16.049100 0.000000
-15.967700 0.000000
-15.886300 0.000000
-15.804900 0.000000
-15.723500 0.000000
-15.642100 0.000000
-15.560700 0.000000
-15.479300 0.000000
-15.397900 0.000000
-15.316500 0.000000
-15.235100 0.000000
-15.153700 0.000000
-15.072300 0.000000
-14.990900 0.000000
-14.909500 0.000000
-14.828100 0.000000
-14.746700 0.000000
-14.665200 0.000000
-14.583800 0.000000
-14.502400 0.000000
-14.421000 0.000000
-14.339600 0.000000
-14.258200 0.000000
-14.176800 0.000000
-14.095400 0.000000
-14.014000 0.000000
-13.932600 0.000000
-13.851200 0.000000
-13.769800 0.000000
-13.688400 0.000000
-13.607000 0.000000
-13.525600 0.000000
-13.444200 0.000000
-13.362800 0.000000
-13.281400 0.000000
-13.200000 0.000000
-13.118600 0.000000
-13.037200 0.000000
-12.955700 0.000000
-12.874300 0.000000
-12.792900 0.000000
-12.711500 0.000000
-12.630100 0.000000
-12.548700 0.000000
-12.467300 0.000000
-12.385900 0.000000
-12.304500 0.000000
-12.223100 0.000000
-12.141700 0.000000
-12.060300 0.000000
-11.978900 0.000000
-11.897500 0.000000
-11.816100 0.000000
-11.734700 0.000000
-11.653300 0.000000
-11.571900 0.000000
-11.490500 0.000000
-11.409100 0.000000
-11.327700 0.000000
-11.246200 0.000000
-11.164800 0.000000
-11.083400 0.000000
-11.002000 0.000000
-10.920600 0.000000
-10.839200 0.000000
-10.757800 0.000000
-10.676400 0.000000
-10.595000 0.000000
-10.513600 0.000000
-10.432200 0.000000
-10.350800 0.000000
-10.269400 0.000000
-10.188000 0.000000
-10.106600 0.000000
-10.025200 0.000000
-9.943800 0.000000
-9.862400 0.000000
-9.781000 0.000000
-9.699600 0.000000
-9.618200 0.000000
-9.536800 0.000000
-9.455300 0.000000
-9.373900 0.000000
-9.292500 0.000000
-9.211100 0.000000
-9.129700 0.000000
-9.048300 0.000000
-8.966900 0.000000
-8.885500 0.000000
-8.804100 0.000000
-8.722700 0.000000
-8.641300 0.000000
-8.559900 0.000000
-8.478500 0.000000
-8.397100 0.000000
-8.315700 0.000000
-8.234300 0.000000
-8.152900 0.000000
-8.071500 0.000000
-7.990100 0.000000
-7.908700 0.000000
-7.827300 0.000000
-7.745800 0.000000
-7.664400 0.000000
-7.583000 0.000000
-7.501600 0.000000
-7.420200 0.000000
-7.338800 0.000000
-7.257400 0.000000
-7.176000 0.000000
-7.094600 0.000000
-7.013200 0.000000
-6.931800 0.000000
-6.850400 0.000000
-6.769000 0.000000
-6.687600 0.000000
-6.606200 0.000000
-6.524800 0.000000
-6.443400 0.000000
-6.362000 0.000000
-6.280600 0.000000
-6.199200 0.000000
-6.117800 0.000000
-6.036300 0.000000
-5.954900 0.000000
-5.873500 0.000000
-5.792100 0.000000
-5.710700 0.000000
-5.629300 0.000000
-5.547900 0.000000
-5.466500 0.000000
-5.385100 0.000000
-5.303700 0.000000
-5.222300 0.000000
-5.140900 0.000000
-5.059500 0.000000
-4.978100 0.000000
-4.896700 0.000000
-4.815300 0.000000
-4.733900 0.000000
-4.652500 0.000000
-4.571100 0.000000
-4.489700 0.000000
-4.408300 0.000000
-4.326900 0.000000
-4.245400 0.000000
-4.164000 0.000000
-4.082600 0.000000
-4.001200 0.000000
-3.919800 0.000000
-3.838400 0.000000
-3.757000 0.000000
-3.675600 0.000000
-3.594200 0.000000
-3.512800 0.000000
-3.431400 0.000000
-3.350000 0.000000
-3.268600 0.000000
-3.187200 0.000000
-3.105800 0.000000
-3.024400 0.000000
-2.943000 0.000000
-2.861600 0.000000
-2.780200 0.000000
-2.698800 0.000000
-2.617400 0.000000
-2.535900 0.000000
-2.454500 0.000000
-2.373100 0.000000
-2.291700 0.000000
-2.210300 0.000000
-2.128900 0.000000
-2.047500 0.000000
-1.966100 0.000000
-1.884700 0.000000
-1.803300 0.000000
-1.721900 0.000000
-1.640500 0.000000
-1.559100 0.000000
-1.477700 0.000000
-1.396300 0.000000
-1.314900 0.000000
-1.233500 0.000000
-1.152100 0.000000
-1.070700 0.000000
-0.989300 0.000000
-0.907900 0.000000
-0.826500 0.020400
-0.745000 0.029100
-0.663600 0.036100
-0.582200 0.042400
-0.500800 0.048300
-0.419400 0.053000
-0.338000 0.058300
-0.256600 0.063400
-0.175200 0.067500
-0.093800 0.072300
-0.012400 0.077500
0.069000 0.081400
0.150400 0.085900
0.231800 0.090600
0.313200 0.095600
0.394600 0.100100
0.476000 0.104700
0.557400 0.109500
0.638800 0.114800
0.720200 0.120000
0.801600 0.125100
0.883000 0.130700
0.964500 0.136500
1.045900 0.142500
1.127300 0.148900
1.208700 0.155800
1.290100 0.162900
1.371500 0.170200
1.452900 0.178400
1.534300 0.187600
1.615700 0.197300
1.697100 0.207500
1.778500 0.219000
1.859900 0.232700
1.941300 0.247800
2.022700 0.264300
2.104100 0.283500
2.185500 0.309500
2.266900 0.338300
2.348300 0.377100
2.429700 0.434600
2.511100 0.709500
2.592500 0.980000
2.674000 0.997300
2.755400 0.997100
2.836800 1.001000
2.918200 1.008800
2.999600 1.014000
3.081000 1.023900
3.162400 1.030600
3.243800 1.034600
3.325200 1.181500
3.406600 1.274700
3.488000 1.345500
3.569400 1.446000
3.650800 1.494300
3.732200 1.456700
3.813600 1.426800
3.895000 1.379400
3.976400 1.378000
4.057800 1.227200
4.139200 1.303800
4.220600 1.425300
4.302000 1.368000
4.383400 1.321000
4.464900 1.266200
4.546300 1.229900
4.627700 1.129000
4.709100 0.997400
4.790500 1.051400
4.871900 1.423500
4.953300 1.339600
5.034700 1.537000
5.116100 1.573500
5.197500 1.630500
5.278900 1.683900
5.360300 1.568500
5.441700 1.581100
5.523100 1.649100
5.604500 1.771800
5.685900 2.125000
5.767300 1.854800
5.848700 1.677000
5.930100 1.609500
6.011500 1.877000
6.092900 1.834700
6.174400 1.718400
6.255800 2.265600
6.337200 2.429400
6.418600 1.776800
6.500000 1.514400
6.581400 1.344700
6.662800 1.244600
6.744200 1.198400
6.825600 1.192400
6.907000 1.244800
6.988400 1.181400
7.069800 1.182200
7.151200 1.403900
7.232600 1.622700
7.314000 1.683300
7.395400 1.770500
7.476800 2.537900
7.558200 1.685800
7.639600 1.450500
7.721000 1.318600
7.802400 1.550600
7.883800 1.446500
7.965300 1.423800
8.046700 1.413600
8.128100 1.416400
8.209500 1.442500
8.290900 1.478700
8.372300 1.537900
8.453700 1.621400
8.535100 1.749900
8.616500 1.955600
8.697900 2.287700
8.779300 2.999300
8.860700 3.146000
8.942100 2.335900
9.023500 1.785500
9.104900 1.317500
9.186300 3.328400
9.267700 0.432000
9.349100 0.425400
9.430500 0.419500
9.511900 0.415900
9.593300 0.413200
9.674800 0.406400
9.756200 0.402000
9.837600 0.399700
9.919000 0.395500
10.000400 0.390200
10.081800 0.384400
10.163200 0.381200
10.244600 0.377500
10.326000 0.373200
10.407400 0.367600
10.488800 0.363100
10.570200 0.358600
10.651600 0.354100
10.733000 0.349300
10.814400 0.344500
10.895800 0.339500
10.977200 0.334700
11.058600 0.329500
11.140000 0.324500
11.221400 0.319400
11.302800 0.313400
11.384300 0.308000
11.465700 0.302900
11.547100 0.297900
11.628500 0.292500
11.709900 0.286700
11.791300 0.280500
11.872700 0.274600
11.954100 0.268900
12.035500 0.262600
12.116900 0.256900
12.198300 0.251500
12.279700 0.245500
12.361100 0.238400
12.442500 0.231800
12.523900 0.225000
12.605300 0.218900
12.686700 0.212600
12.768100 0.206100
12.849500 0.199300
12.930900 0.191900
13.012300 0.184600
13.093700 0.177600
13.175200 0.170500
13.256600 0.162700
13.338000 0.155700
13.419400 0.148700
13.500800 0.140200
13.582200 0.132100
13.663600 0.124900
13.745000 0.116300
13.826400 0.101200
13.907800 0.087900
13.989200 0.076500
14.070600 0.063400
14.152000 0.052500
14.233400 0.046600
14.314800 0.042600
14.396200 0.042300
14.477600 0.048300
14.559000 0.065300
14.640400 0.125200
14.721800 0.585300
14.803200 0.989700
14.884700 0.663500
14.966100 0.567400
15.047500 0.507000
15.128900 0.474800
15.210300 0.440900
15.291700 0.416300
15.373100 0.398500
15.454500 0.388200
15.535900 0.367800
15.617300 0.356500
15.698700 0.347700
15.780100 0.340000
15.861500 0.333200
15.942900 0.327000
16.024300 0.321300
16.105700 0.316300
16.187100 0.311700
16.268500 0.307300
16.349900 0.303200
16.431300 0.299300
16.512700 0.295600
16.594200 0.292600
16.675600 0.289800
16.757000 0.287000
16.838400 0.284500
16.919800 0.282300
17.001200 0.280200
17.082600 0.280500
17.164000 0.281400
17.245400 0.283200
17.326800 0.286300
17.408200 0.371500
17.489600 0.445100
17.571000 0.403800
17.652400 0.844600
17.733800 0.605400
17.815200 0.579800
17.896600 0.584300
17.978000 0.566000
18.059400 0.545600
18.140800 0.538900
18.222200 0.529200
18.303600 0.543600
18.385100 0.552400
18.466500 0.559900
18.547900 0.551200
18.629300 0.551900
18.710700 0.552000
18.792100 0.553000
18.873500 0.553200
18.954900 0.556000
19.036300 0.561100
19.117700 0.564000
19.199100 0.561300
19.280500 0.560600
19.361900 0.564200
19.443300 0.570700
19.524700 0.577000
19.606100 0.583900
19.687500 0.590100
19.768900 0.611900
19.850300 0.608500
19.931700 0.603500
20.013100 0.602700
20.094600 0.599000
20.176000 0.596000
20.257400 0.594400
20.338800 0.592400
20.420200 0.588700
20.501600 0.588100
20.583000 0.589100
20.664400 0.586500
20.745800 0.583200
20.827200 0.580700
20.908600 0.578500
20.990000 0.578000
21.071400 0.578100
21.152800 0.576700
21.234200 0.575400
21.315600 0.574200
21.397000 0.572500
21.478400 0.572200
21.559800 0.571200
21.641200 0.570600
21.722600 0.570900
21.804000 0.570900
21.885500 0.571700
21.966900 0.571100
22.048300 0.572300
22.129700 0.573500
22.211100 0.575700
22.292500 0.578000
22.373900 0.581300
22.455300 0.585700
22.536700 0.591100
22.618100 0.598200
22.699500 0.607800
22.780900 0.623400
22.862300 0.642600
22.943700 0.686700
23.025100 0.698900
23.106500 0.617200
23.187900 0.579100
23.269300 0.556200
23.350700 0.536700
23.432100 0.522900
23.513500 0.511600
23.595000 0.502600
23.676400 0.495500
23.757800 0.490300
23.839200 0.488900
23.920600 0.491500
24.002000 0.503100
24.083400 0.744700
24.164800 0.484600
24.246200 0.432600
24.327600 0.403500
24.409000 0.385500
24.490400 0.364500
24.571800 0.357600
24.653200 0.347400
24.734600 0.338600
24.816000 0.330100
24.897400 0.316800
24.978800 0.302600
25.060200 0.290200
25.141600 0.300800
25.223000 0.296900
25.304500 0.305300
25.385900 0.327300
25.467300 0.375700
25.548700 0.402100
25.630100 0.414100
25.711500 0.419400
25.792900 0.493500
25.874300 0.608800
25.955700 0.795500
26.037100 0.888200
26.118500 0.737400
26.199900 0.710200
26.281300 0.702200
26.362700 0.675800
26.444100 0.661800
26.525500 0.634400
26.606900 0.623000
26.688300 0.618300
26.769700 0.616600
26.851100 0.618500
26.932500 0.622600
27.013900 0.628300
27.095400 0.630400
27.176800 0.636900
27.258200 0.648000
27.339600 0.670800
27.421000 0.699800
27.502400 0.693500
27.583800 0.688800
27.665200 0.677800
27.746600 0.673700
27.828000 0.669400
27.909400 0.674000
27.990800 0.671600
28.072200 0.670000
28.153600 0.678600
28.235000 0.708000
28.316400 0.626400
28.397800 0.589100
28.479200 0.550000
28.560600 0.528800
28.642000 0.510200
28.723400 0.495500
28.804900 0.504600
28.886300 0.480800
28.967700 0.472800
29.049100 0.464800
29.130500 0.456300
29.211900 0.452600
29.293300 0.455000
29.374700 0.439300
29.456100 0.435400
29.537500 0.441400
29.618900 0.430300
29.700300 0.401700
29.781700 0.379200
29.863100 0.362400
29.944500 0.309200
30.025900 0.294000
30.107300 0.278900
30.188700 0.273200
30.270100 0.268900
30.351500 0.247000
30.432900 0.236200
30.514300 0.221100
30.595800 0.201000
30.677200 0.189500
30.758600 0.198900
30.840000 0.213300
30.921400 0.253200
31.002800 0.383300
31.084200 0.417400
31.165600 0.436600
31.247000 0.503500
31.328400 0.497100
31.409800 0.507000
31.491200 0.528500
31.572600 0.558700
31.654000 0.608800
31.735400 0.653000
31.816800 0.712000
31.898200 0.772900
31.979600 0.863800
32.061000 0.962100
32.142400 1.024700
32.223800 0.968200
32.305300 0.873500
32.386700 0.810600
32.468100 0.773300
32.549500 0.751800
32.630900 0.720300
32.712300 0.699600
32.793700 0.682300
32.875100 0.669700
32.956500 0.663800
33.037900 0.647000
33.119300 0.649200
33.200700 0.628000
33.282100 0.621600
33.363500 0.615200
33.444900 0.608700
33.526300 0.609100
33.607700 0.630900
33.689100 0.637800
33.770500 0.818700
33.851900 0.688400
33.933300 0.646000
34.014800 0.609800
34.096200 0.587500
34.177600 0.579800
34.259000 0.567700
34.340400 0.561100
34.421800 0.562000
34.503200 0.545300
34.584600 0.548300
34.666000 0.530300
34.747400 0.505900
34.828800 0.506000
34.910200 0.520200
34.991600 0.555900
35.073000 0.612600
35.154400 0.706400
35.235800 0.891700
35.317200 1.452700
35.398600 2.861600
35.480000 1.203200
35.561400 0.972200
35.642800 0.836300
35.724200 0.780300
35.805700 0.770600
35.887100 0.794600
35.968500 0.767700
36.049900 0.748900
36.131300 0.738900
36.212700 0.729800
36.294100 0.723200
36.375500 0.721300
36.456900 0.721200
36.538300 0.721600
36.619700 0.722600
36.701100 0.734700
36.782500 0.737200
36.863900 0.716200
36.945300 0.695200
37.026700 0.689200
37.108100 0.673600
37.189500 0.661100
37.270900 0.653100
37.352300 0.647000
37.433700 0.633600
37.515200 0.630000
37.596600 0.622300
37.678000 0.613700
37.759400 0.611300
37.840800 0.613100
37.922200 0.616100
38.003600 0.631000
38.085000 0.622400
38.166400 0.616900
38.247800 0.606500
38.329200 0.595300
38.410600 0.583700
38.492000 0.569100
38.573400 0.544700
38.654800 0.520000
38.736200 0.512600
38.817600 0.515500
38.899000 0.521200
38.980400 0.529800
39.061800 0.538000
39.143200 0.540100
39.224600 0.538700
39.306100 0.542200
39.387500 0.544400
39.468900 0.546300
39.550300 0.551800
39.631700 0.545200
39.713100 0.532600
39.794500 0.520300
39.875900 0.510500
39.957300 0.503100
40.038700 0.497900
40.120100 0.493100
40.201500 0.493500
40.282900 0.497700
40.364300 0.496500
40.445700 0.506800
40.527100 0.520900
40.608500 0.511800
40.689900 0.518600
40.771300 0.519900
40.852700 0.560500
40.934100 0.586900
41.015600 0.588200
41.097000 0.597400
41.178400 0.594500
41.259800 0.575200
41.341200 0.565000
41.422600 0.580100
41.504000 0.596200
41.585400 0.595400
41.666800 0.616600
41.748200 0.624300
41.829600 0.623200
41.911000 0.641500
41.992400 0.656200
42.073800 0.670500
42.155200 0.691300
42.236600 0.715800
42.318000 0.726100
42.399400 0.746900
42.480800 0.747600
42.562200 0.752400
42.643600 0.778900
42.725100 0.797000
42.806500 0.824800
42.887900 0.800500
42.969300 0.759900
43.050700 0.706000
43.132100 0.659300
43.213500 0.637800
43.294900 0.639300
43.376300 0.641400
43.457700 0.651000
43.539100 0.659800
43.620500 0.650700
