set title 'mp-865362 - Density of States'
set xlabel 'Energy (eV)'
set ylabel 'DOS (states/eV)'
set grid
set xrange [-10:10]
set yrange [0:30.012]
set xzeroaxis lt -1
set terminal png size 800,600
set output 'mp-865362_dos_gnuplot.png'
plot '-' using 1:2 with lines title 'DOS'
-7.832500 0.000000
-7.808800 0.000000
-7.785000 0.000000
-7.761200 0.000000
-7.737500 0.000000
-7.713700 0.000000
-7.690000 0.000000
-7.666200 0.000000
-7.642400 0.000000
-7.618700 0.000000
-7.594900 0.000000
-7.571200 0.000000
-7.547400 0.000000
-7.523600 0.000000
-7.499900 0.000000
-7.476100 0.000000
-7.452300 0.000000
-7.428600 0.000000
-7.404800 0.000000
-7.381100 0.000000
-7.357300 0.000000
-7.333500 0.000000
-7.309800 0.000000
-7.286000 0.000000
-7.262300 0.000000
-7.238500 0.000000
-7.214700 0.000000
-7.191000 0.000000
-7.167200 0.000000
-7.143400 0.000000
-7.119700 0.000000
-7.095900 0.000000
-7.072200 0.000000
-7.048400 0.000000
-7.024600 0.000000
-7.000900 0.000000
-6.977100 0.000000
-6.953300 0.000000
-6.929600 0.000000
-6.905800 0.000000
-6.882100 0.000000
-6.858300 0.000000
-6.834500 0.000000
-6.810800 0.000000
-6.787000 0.000000
-6.763300 0.000000
-6.739500 0.000000
-6.715700 0.000000
-6.692000 0.000000
-6.668200 0.000000
-6.644400 0.000000
-6.620700 0.000000
-6.596900 0.000000
-6.573200 0.000000
-6.549400 0.000000
-6.525600 0.000000
-6.501900 0.000000
-6.478100 0.000000
-6.454400 0.000000
-6.430600 0.000000
-6.406800 0.000000
-6.383100 0.000000
-6.359300 0.000000
-6.335500 0.000000
-6.311800 0.000000
-6.288000 0.000000
-6.264300 0.000000
-6.240500 0.000000
-6.216700 0.000000
-6.193000 0.000000
-6.169200 0.000000
-6.145500 0.000000
-6.121700 0.000000
-6.097900 0.000000
-6.074200 0.000000
-6.050400 0.000000
-6.026600 0.000000
-6.002900 0.000000
-5.979100 0.000000
-5.955400 0.000000
-5.931600 0.000000
-5.907800 0.000000
-5.884100 0.000000
-5.860300 0.000000
-5.836600 0.000000
-5.812800 0.000000
-5.789000 0.000000
-5.765300 0.000400
-5.741500 0.002100
-5.717700 0.007400
-5.694000 0.017700
-5.670200 0.030000
-5.646500 0.041400
-5.622700 0.054500
-5.598900 0.071600
-5.575200 0.098300
-5.551400 0.145900
-5.527700 0.199400
-5.503900 0.211100
-5.480100 0.161500
-5.456400 0.088400
-5.432600 0.043000
-5.408800 0.050200
-5.385100 0.113100
-5.361300 0.209800
-5.337600 0.285500
-5.313800 0.294600
-5.290000 0.256800
-5.266300 0.230500
-5.242500 0.250100
-5.218700 0.307200
-5.195000 0.337000
-5.171200 0.276200
-5.147500 0.168200
-5.123700 0.106600
-5.099900 0.108500
-5.076200 0.132100
-5.052400 0.176500
-5.028700 0.278100
-5.004900 0.398100
-4.981100 0.434400
-4.957400 0.377300
-4.933600 0.319600
-4.909800 0.324900
-4.886100 0.383200
-4.862300 0.426200
-4.838600 0.377000
-4.814800 0.245800
-4.791000 0.130700
-4.767300 0.117700
-4.743500 0.225400
-4.719800 0.404700
-4.696000 0.556700
-4.672200 0.598700
-4.648500 0.534900
-4.624700 0.441500
-4.600900 0.389500
-4.577200 0.390800
-4.553400 0.396600
-4.529700 0.363500
-4.505900 0.314200
-4.482100 0.289400
-4.458400 0.286600
-4.434600 0.309100
-4.410900 0.374800
-4.387100 0.434900
-4.363300 0.423000
-4.339600 0.373100
-4.315800 0.396400
-4.292000 0.548700
-4.268300 0.721800
-4.244500 0.731000
-4.220800 0.566200
-4.197000 0.411800
-4.173200 0.429000
-4.149500 0.626100
-4.125700 0.843800
-4.102000 0.879000
-4.078200 0.731200
-4.054400 0.595000
-4.030700 0.566900
-4.006900 0.553700
-3.983100 0.464200
-3.959400 0.317500
-3.935600 0.184600
-3.911900 0.142100
-3.888100 0.252400
-3.864300 0.503800
-3.840600 0.777600
-3.816800 0.963000
-3.793100 1.057200
-3.769300 1.104400
-3.745500 1.142000
-3.721800 1.139900
-3.698000 0.997700
-3.674200 0.769400
-3.650500 0.677600
-3.626700 0.785100
-3.603000 0.927800
-3.579200 0.983900
-3.555400 0.998500
-3.531700 1.069200
-3.507900 1.257200
-3.484100 1.521800
-3.460400 1.702500
-3.436600 1.845800
-3.412900 2.373000
-3.389100 3.533200
-3.365300 4.947300
-3.341600 6.028200
-3.317800 6.669600
-3.294100 7.242400
-3.270300 8.059300
-3.246500 9.114700
-3.222800 10.398800
-3.199000 12.204200
-3.175200 14.712100
-3.151500 17.295400
-3.127700 19.025500
-3.104000 19.925300
-3.080200 20.560700
-3.056400 20.904000
-3.032700 20.864400
-3.008900 20.903100
-2.985200 21.186400
-2.961400 21.170000
-2.937600 20.471500
-2.913900 19.298300
-2.890100 18.159900
-2.866300 17.596900
-2.842600 17.734000
-2.818800 18.159400
-2.795100 18.525100
-2.771300 18.825900
-2.747500 19.026700
-2.723800 19.057700
-2.700000 19.146800
-2.676300 19.621700
-2.652500 20.386800
-2.628700 21.075900
-2.605000 21.715100
-2.581200 22.593300
-2.557400 23.632300
-2.533700 24.573500
-2.509900 25.472700
-2.486200 26.425800
-2.462400 27.022900
-2.438600 26.583200
-2.414900 25.117900
-2.391100 23.761100
-2.367400 23.649600
-2.343600 24.610600
-2.319800 25.764300
-2.296100 26.717700
-2.272300 27.283300
-2.248500 26.991000
-2.224800 25.597400
-2.201000 23.752300
-2.177300 22.545900
-2.153500 22.141500
-2.129700 21.749300
-2.106000 21.021000
-2.082200 20.370800
-2.058500 20.268600
-2.034700 20.923400
-2.010900 21.767700
-1.987200 21.322300
-1.963400 18.884900
-1.939600 15.579500
-1.915900 12.835300
-1.892100 10.858700
-1.868400 9.048500
-1.844600 7.162500
-1.820800 5.438700
-1.797100 4.091900
-1.773300 3.292000
-1.749500 3.042600
-1.725800 2.899600
-1.702000 2.422500
-1.678300 1.736600
-1.654500 1.236800
-1.630700 1.059100
-1.607000 1.082900
-1.583200 1.153300
-1.559500 1.151600
-1.535700 1.038200
-1.511900 0.904800
-1.488200 0.855900
-1.464400 0.859000
-1.440600 0.819600
-1.416900 0.729000
-1.393100 0.648400
-1.369400 0.653600
-1.345600 0.845200
-1.321800 1.226700
-1.298100 1.531700
-1.274300 1.448900
-1.250600 1.053100
-1.226800 0.689300
-1.203000 0.542500
-1.179300 0.581100
-1.155500 0.723600
-1.131700 0.906200
-1.108000 1.095700
-1.084200 1.318300
-1.060500 1.567600
-1.036700 1.664400
-1.012900 1.478300
-0.989200 1.197700
-0.965400 1.093400
-0.941700 1.182800
-0.917900 1.301100
-0.894100 1.406000
-0.870400 1.570900
-0.846600 1.751600
-0.822800 1.858400
-0.799100 1.910400
-0.775300 1.950800
-0.751600 1.931900
-0.727800 1.746900
-0.704000 1.377200
-0.680300 0.974800
-0.656500 0.758700
-0.632800 0.775800
-0.609000 0.863200
-0.585200 0.901700
-0.561500 0.888600
-0.537700 0.803500
-0.513900 0.668800
-0.490200 0.622000
-0.466400 0.747700
-0.442700 1.005200
-0.418900 1.337600
-0.395100 1.642100
-0.371400 1.745900
-0.347600 1.607600
-0.323900 1.378700
-0.300100 1.196600
-0.276300 1.063200
-0.252600 0.932500
-0.228800 0.843200
-0.205000 0.931900
-0.181300 1.210400
-0.157500 1.440700
-0.133800 1.439100
-0.110000 1.305500
-0.086200 1.176500
-0.062500 1.020300
-0.038700 0.844500
-0.014900 0.813000
0.008800 1.007200
0.032600 1.308600
0.056300 1.551400
0.080100 1.622100
0.103900 1.462800
0.127600 1.141800
0.151400 0.877500
0.175100 0.834400
0.198900 0.945800
0.222700 1.075000
0.246400 1.247800
0.270200 1.529300
0.294000 1.790200
0.317700 1.833400
0.341500 1.635700
0.365200 1.338200
0.389000 1.125600
0.412800 1.080800
0.436500 1.113100
0.460300 1.112600
0.484000 1.076000
0.507800 1.039900
0.531600 0.996100
0.555300 0.909400
0.579100 0.831300
0.602900 0.882000
0.626600 1.072400
0.650400 1.280200
0.674100 1.375200
0.697900 1.336600
0.721700 1.283000
0.745400 1.325600
0.769200 1.475900
0.792900 1.716500
0.816700 1.995300
0.840500 2.200200
0.864200 2.212300
0.888000 2.000900
0.911800 1.719900
0.935500 1.602200
0.959300 1.660800
0.983000 1.643600
1.006800 1.414400
1.030600 1.187100
1.054300 1.215900
1.078100 1.488200
1.101800 1.884300
1.125600 2.362200
1.149400 2.817500
1.173100 3.022300
1.196900 2.901700
1.220700 2.648300
1.244400 2.413500
1.268200 2.132400
1.291900 1.767200
1.315700 1.471500
1.339500 1.387200
1.363200 1.470900
1.387000 1.614200
1.410700 1.738000
1.434500 1.770500
1.458300 1.735200
1.482000 1.741300
1.505800 1.782900
1.529600 1.750300
1.553300 1.664300
1.577100 1.693600
1.600800 1.982800
1.624600 2.547500
1.648400 3.179000
1.672100 3.545000
1.695900 3.539600
1.719700 3.374300
1.743400 3.309700
1.767200 3.394900
1.790900 3.497300
1.814700 3.547300
1.838500 3.603600
1.862200 3.715400
1.886000 3.892500
1.909700 4.146600
1.933500 4.386300
1.957300 4.382600
1.981000 3.992400
2.004800 3.361000
2.028600 2.822400
2.052300 2.556700
2.076100 2.479600
2.099800 2.455600
2.123600 2.423800
2.147400 2.458500
2.171100 2.696600
2.194900 3.127500
2.218600 3.651900
2.242400 4.177200
2.266200 4.491000
2.289900 4.410600
2.313700 4.147100
2.337500 4.090200
2.361200 4.238500
2.385000 4.349700
2.408700 4.512500
2.432500 4.930300
2.456300 5.478600
2.480000 5.949400
2.503800 6.305400
2.527500 6.534400
2.551300 6.552200
2.575100 6.464300
2.598800 6.672800
2.622600 7.302100
2.646400 7.912700
2.670100 8.082200
2.693900 7.665200
2.717600 6.603400
2.741400 5.184100
2.765200 4.036300
2.788900 3.498500
2.812700 3.469500
2.836400 3.681200
2.860200 3.775800
2.884000 3.522000
2.907700 3.039900
2.931500 2.608800
2.955300 2.395000
2.979000 2.396200
3.002800 2.493800
3.026500 2.487600
3.050300 2.190300
3.074100 1.679500
3.097800 1.295000
3.121600 1.219900
3.145300 1.319200
3.169100 1.446400
3.192900 1.606700
3.216600 1.790900
3.240400 1.914600
3.264200 1.953200
3.287900 2.010700
3.311700 2.199600
3.335400 2.456600
3.359200 2.614600
3.383000 2.619000
3.406700 2.574700
3.430500 2.626700
3.454300 2.740900
3.478000 2.725400
3.501800 2.529000
3.525500 2.262500
3.549300 2.011600
3.573100 1.819200
3.596800 1.730100
3.620600 1.745100
3.644300 1.810300
3.668100 1.904000
3.691900 2.037300
3.715600 2.280900
3.739400 2.762300
3.763200 3.360600
3.786900 3.690500
3.810700 3.634700
3.834400 3.535900
3.858200 3.702200
3.882000 3.997000
3.905700 4.083500
3.929500 3.838100
3.953200 3.345300
3.977000 2.718300
4.000800 2.084000
4.024500 1.609600
4.048300 1.450300
4.072100 1.600800
4.095800 1.822400
4.119600 1.861600
4.143300 1.720700
4.167100 1.599300
4.190900 1.598700
4.214600 1.605800
4.238400 1.492800
4.262100 1.344500
4.285900 1.362000
4.309700 1.557400
4.333400 1.755600
4.357200 1.812800
4.381000 1.680700
4.404700 1.423600
4.428500 1.203600
4.452200 1.171400
4.476000 1.365600
4.499800 1.670500
4.523500 1.896900
4.547300 1.962800
4.571000 1.878600
4.594800 1.637200
4.618600 1.306400
4.642300 1.024400
4.666100 0.882900
4.689900 0.910400
4.713600 1.037000
4.737400 1.127600
4.761100 1.138400
4.784900 1.156800
4.808700 1.230400
4.832400 1.269800
4.856200 1.217800
4.879900 1.127000
4.903700 1.018300
4.927500 0.862000
4.951200 0.704100
4.975000 0.691800
4.998800 0.899900
5.022500 1.159700
5.046300 1.207900
5.070000 1.017700
5.093800 0.801500
5.117600 0.719100
5.141300 0.777800
5.165100 0.947500
5.188900 1.168400
5.212600 1.290200
5.236400 1.221300
5.260100 1.069800
5.283900 0.983800
5.307700 0.997300
5.331400 1.047500
5.355200 1.030600
5.378900 0.908300
5.402700 0.760400
5.426500 0.706300
5.450200 0.820900
5.474000 1.090200
5.497800 1.376800
5.521500 1.499500
5.545300 1.420600
5.569000 1.254200
5.592800 1.117300
5.616600 1.068500
5.640300 1.059200
5.664100 0.953100
5.687800 0.704100
5.711600 0.417100
5.735400 0.212000
5.759100 0.146100
5.782900 0.237800
5.806700 0.450700
5.830400 0.665500
5.854200 0.787200
5.877900 0.863700
5.901700 0.969700
5.925500 1.037200
5.949200 0.963000
5.973000 0.815900
5.996700 0.763100
6.020500 0.828000
6.044300 0.856500
6.068000 0.748200
6.091800 0.626100
6.115600 0.664100
6.139300 0.840200
6.163100 0.998300
6.186800 1.029500
6.210600 0.924300
6.234400 0.770100
6.258100 0.690800
6.281900 0.732600
6.305600 0.818000
6.329400 0.807100
6.353200 0.638700
6.376900 0.434600
6.400700 0.376200
6.424500 0.487800
6.448200 0.631000
6.472000 0.671000
6.495700 0.596400
6.519500 0.508000
6.543300 0.490000
6.567000 0.512500
6.590800 0.512700
6.614500 0.517700
6.638300 0.590700
6.662100 0.714800
6.685800 0.851200
6.709600 1.026400
6.733400 1.237400
6.757100 1.410300
6.780900 1.566100
6.804600 1.800100
6.828400 2.019000
6.852200 1.994100
6.875900 1.690100
6.899700 1.306900
6.923500 1.032200
6.947200 0.895100
6.971000 0.862900
6.994700 0.929400
7.018500 1.039400
7.042300 1.074800
7.066000 0.968000
7.089800 0.783300
7.113500 0.668900
7.137300 0.691000
7.161100 0.758600
7.184800 0.784900
7.208600 0.811300
7.232400 0.874100
7.256100 0.923400
7.279900 0.944200
7.303600 0.985700
7.327400 1.089600
7.351200 1.265200
7.374900 1.468300
7.398700 1.645900
7.422400 1.777500
7.446200 1.851700
7.470000 1.913700
7.493700 2.075800
7.517500 2.363500
7.541300 2.633200
7.565000 2.710500
7.588800 2.515700
7.612500 2.090800
7.636300 1.610400
7.660100 1.262700
7.683800 1.132100
7.707600 1.272400
7.731300 1.668500
7.755100 2.063900
7.778900 2.151600
7.802600 1.972800
7.826400 1.820600
7.850200 1.833800
7.873900 1.932400
7.897700 1.997600
7.921400 1.983400
7.945200 1.894400
7.969000 1.729100
7.992700 1.518200
8.016500 1.333600
8.040200 1.219100
8.064000 1.180800
8.087800 1.232800
8.111500 1.355200
8.135300 1.439600
8.159100 1.400100
8.182800 1.321300
8.206600 1.363500
8.230300 1.517700
8.254100 1.611900
8.277900 1.524800
8.301600 1.312600
8.325400 1.180600
8.349100 1.287700
8.372900 1.546200
8.396700 1.719400
8.420400 1.715700
8.444200 1.618100
8.468000 1.453700
8.491700 1.198800
8.515500 0.953500
8.539200 0.837600
8.563000 0.831300
8.586800 0.875400
8.610500 0.991400
8.634300 1.200800
8.658100 1.409200
8.681800 1.509100
8.705600 1.570500
8.729300 1.754400
8.753100 2.042400
8.776900 2.234200
8.800600 2.179800
8.824400 1.905500
8.848100 1.572400
8.871900 1.326500
8.895700 1.194500
8.919400 1.166500
8.943200 1.272100
8.967000 1.489600
8.990700 1.707600
9.014500 1.811500
9.038200 1.749700
9.062000 1.557200
9.085800 1.303600
9.109500 1.049500
9.133300 0.872600
9.157000 0.835600
9.180800 0.914100
9.204600 1.029300
9.228300 1.147300
9.252100 1.298800
9.275900 1.472800
9.299600 1.549000
9.323400 1.448200
9.347100 1.290900
9.370900 1.253300
9.394700 1.328100
9.418400 1.393400
9.442200 1.439400
9.465900 1.537400
9.489700 1.649100
9.513500 1.667000
9.537200 1.614300
9.561000 1.594800
9.584800 1.563900
9.608500 1.390800
9.632300 1.111400
9.656000 0.906100
9.679800 0.888500
9.703600 1.019400
9.727300 1.163500
9.751100 1.199100
9.774800 1.113000
9.798600 1.047200
9.822400 1.190900
9.846100 1.522400
9.869900 1.782500
9.893700 1.823200
9.917400 1.803000
9.941200 1.908300
9.964900 2.110400
9.988700 2.260000
10.012500 2.219800
10.036200 2.013700
10.060000 1.813300
10.083700 1.651300
10.107500 1.442600
10.131300 1.255100
10.155000 1.238400
10.178800 1.402900
10.202600 1.609900
10.226300 1.700500
10.250100 1.598800
10.273800 1.353100
10.297600 1.084600
10.321400 0.901900
10.345100 0.890800
10.368900 1.028500
10.392700 1.118900
10.416400 1.059700
10.440200 1.022600
10.463900 1.149100
10.487700 1.355000
10.511500 1.543400
10.535200 1.686400
10.559000 1.723800
10.582700 1.626400
10.606500 1.523600
10.630300 1.578300
10.654000 1.719400
10.677800 1.734300
10.701600 1.609500
10.725300 1.525800
10.749100 1.553100
10.772800 1.557800
10.796600 1.449900
10.820400 1.331200
10.844100 1.341600
10.867900 1.503400
10.891600 1.738900
10.915400 1.951200
10.939200 2.072900
10.962900 2.102300
10.986700 2.069200
11.010500 1.919500
11.034200 1.572600
11.058000 1.175200
11.081700 1.034600
11.105500 1.218100
11.129300 1.467400
11.153000 1.538200
11.176800 1.441300
11.200500 1.327100
11.224300 1.306000
11.248100 1.418700
11.271800 1.619800
11.295600 1.738200
11.319400 1.639400
11.343100 1.452200
11.366900 1.421700
11.390600 1.594600
11.414400 1.802200
11.438200 1.841900
11.461900 1.633700
11.485700 1.320600
11.509400 1.198900
11.533200 1.395600
11.557000 1.660100
11.580700 1.697900
11.604500 1.560900
11.628300 1.457600
11.652000 1.440400
11.675800 1.425600
11.699500 1.311100
11.723300 1.097400
11.747100 0.939300
11.770800 0.964800
11.794600 1.104000
11.818300 1.180200
11.842100 1.163600
11.865900 1.262500
11.889600 1.590400
11.913400 1.895300
11.937200 1.897100
11.960900 1.694100
11.984700 1.546700
12.008400 1.482300
12.032200 1.364400
12.056000 1.206700
12.079700 1.208200
12.103500 1.448300
12.127300 1.727900
12.151000 1.815500
12.174800 1.709200
12.198500 1.598300
12.222300 1.610800
12.246100 1.627600
12.269800 1.516900
12.293600 1.406700
12.317300 1.405900
12.341100 1.367900
12.364900 1.183100
12.388600 0.968400
12.412400 0.867000
12.436200 0.904300
12.459900 1.006600
12.483700 1.079700
12.507400 1.100000
12.531200 1.090200
12.555000 1.097400
12.578700 1.171500
12.602500 1.272200
12.626200 1.325900
12.650000 1.326200
12.673800 1.268700
12.697500 1.123200
12.721300 0.950300
12.745100 0.927400
12.768800 1.166700
12.792600 1.545600
12.816300 1.823100
12.840100 1.939400
12.863900 2.046600
12.887600 2.156200
12.911400 2.086700
12.935100 1.890200
12.958900 1.831500
12.982700 2.012900
13.006400 2.368600
13.030200 2.701200
13.054000 2.745300
13.077700 2.503400
13.101500 2.244600
13.125200 2.083900
13.149000 1.916600
13.172800 1.690000
13.196500 1.490100
13.220300 1.469200
13.244000 1.698600
13.267800 1.997200
13.291600 2.054800
13.315300 1.771500
13.339100 1.316900
13.362900 0.928800
13.386600 0.780400
13.410400 0.870500
13.434100 1.057600
13.457900 1.313500
13.481700 1.707600
13.505400 2.137800
13.529200 2.396700
13.552900 2.419100
13.576700 2.273900
13.600500 2.032500
13.624200 1.721100
13.648000 1.410800
13.671800 1.259000
13.695500 1.333600
13.719300 1.537500
13.743000 1.716900
13.766800 1.748000
13.790600 1.633600
13.814300 1.505200
13.838100 1.462300
13.861900 1.524100
13.885600 1.681100
13.909400 1.808400
13.933100 1.720000
13.956900 1.471400
13.980700 1.280100
14.004400 1.217000
14.028200 1.295700
14.051900 1.588500
14.075700 2.064700
14.099500 2.504000
14.123200 2.655800
14.147000 2.507200
14.170800 2.348300
14.194500 2.449200
14.218300 2.732200
14.242000 2.894400
14.265800 2.756100
14.289600 2.367300
14.313300 1.958900
14.337100 1.776700
14.360800 1.793100
14.384600 1.815200
14.408400 1.842700
14.432100 1.936800
14.455900 1.942600
14.479700 1.739500
14.503400 1.494800
14.527200 1.390600
14.550900 1.397400
14.574700 1.426900
14.598500 1.474500
14.622200 1.606200
14.646000 1.859400
14.669700 2.113200
14.693500 2.209300
14.717300 2.223300
14.741000 2.309900
14.764800 2.405100
14.788600 2.347900
14.812300 2.108000
14.836100 1.769500
14.859800 1.456800
14.883600 1.311100
14.907400 1.382300
14.931100 1.536600
14.954900 1.627100
14.978600 1.715000
15.002400 1.954200
15.026200 2.305700
15.049900 2.519000
15.073700 2.447900
15.097500 2.245200
15.121200 2.101000
15.145000 2.036300
15.168700 2.046400
15.192500 2.110300
15.216300 2.118600
15.240000 1.970500
15.263800 1.661100
15.287500 1.321500
15.311300 1.107300
15.335100 1.019300
15.358800 0.977900
15.382600 0.988000
15.406400 1.101200
15.430100 1.270200
15.453900 1.388600
15.477600 1.458300
15.501400 1.561300
15.525200 1.712900
15.548900 1.841900
15.572700 1.897100
15.596500 1.953600
15.620200 2.115600
15.644000 2.335500
15.667700 2.472500
15.691500 2.496900
15.715300 2.479500
15.739000 2.393400
15.762800 2.166600
15.786500 1.863900
15.810300 1.630500
15.834100 1.586300
15.857800 1.718000
15.881600 1.800800
15.905400 1.680000
15.929100 1.525100
15.952900 1.569200
15.976600 1.793600
16.000400 1.952000
16.024200 1.853900
16.047900 1.602900
16.071700 1.452400
16.095400 1.521200
16.119200 1.775500
16.143000 2.120200
16.166700 2.376400
16.190500 2.443300
16.214300 2.447500
16.238000 2.407900
16.261800 2.177000
16.285500 1.818100
16.309300 1.508500
16.333100 1.267800
16.356800 1.033200
16.380600 0.817700
16.404300 0.726800
16.428100 0.822100
16.451900 1.069100
16.475600 1.427900
16.499400 1.836300
16.523200 2.128500
16.546900 2.159500
16.570700 2.007900
16.594400 1.850300
16.618200 1.696300
16.642000 1.471400
16.665700 1.254000
16.689500 1.203400
16.713200 1.321000
16.737000 1.446800
16.760800 1.460300
16.784500 1.426400
16.808300 1.493000
16.832100 1.619900
16.855800 1.611200
16.879600 1.444700
16.903300 1.286200
16.927100 1.281900
16.950900 1.551200
16.974600 2.090600
16.998400 2.578900
17.022100 2.658900
17.045900 2.362400
17.069700 1.953700
17.093400 1.622200
17.117200 1.464700
17.141000 1.495800
17.164700 1.635400
17.188500 1.741000
17.212200 1.721600
17.236000 1.662500
17.259800 1.722800
