set title 'mp-556815 - Density of States'
set xlabel 'Energy (eV)'
set ylabel 'DOS (states/eV)'
set grid
set xrange [-10:10]
set yrange [0:529.120]
set xzeroaxis lt -1
set terminal png size 800,600
set output 'mp-556815_dos_gnuplot.png'
plot '-' using 1:2 with lines title 'DOS'
-12.337700 0.000000
-12.324000 0.000000
-12.310300 0.000000
-12.296600 0.000000
-12.282900 0.000000
-12.269200 0.000000
-12.255600 0.000000
-12.241900 0.000000
-12.228200 0.000000
-12.214500 0.000000
-12.200800 0.000000
-12.187100 0.000000
-12.173400 0.000000
-12.159700 0.000000
-12.146000 0.000000
-12.132300 0.000000
-12.118700 0.000000
-12.105000 0.000000
-12.091300 0.000000
-12.077600 0.000000
-12.063900 0.000000
-12.050200 0.000000
-12.036500 0.000000
-12.022800 0.000000
-12.009100 0.000000
-11.995500 0.000000
-11.981800 0.000000
-11.968100 0.000000
-11.954400 0.000000
-11.940700 0.000000
-11.927000 0.000000
-11.913300 0.000000
-11.899600 0.000000
-11.885900 0.000000
-11.872200 0.000000
-11.858600 0.000000
-11.844900 0.000000
-11.831200 0.000000
-11.817500 0.000000
-11.803800 0.000000
-11.790100 0.000000
-11.776400 0.000000
-11.762700 0.000000
-11.749000 0.000000
-11.735400 0.000000
-11.721700 0.000000
-11.708000 0.000000
-11.694300 0.000000
-11.680600 0.000000
-11.666900 0.000000
-11.653200 0.000000
-11.639500 0.000000
-11.625800 0.000000
-11.612100 0.000000
-11.598500 0.000000
-11.584800 0.000000
-11.571100 0.000000
-11.557400 0.000000
-11.543700 0.000000
-11.530000 0.000000
-11.516300 0.000000
-11.502600 0.000000
-11.488900 0.000000
-11.475300 0.000000
-11.461600 0.000000
-11.447900 0.000000
-11.434200 0.000000
-11.420500 0.000000
-11.406800 0.000000
-11.393100 0.000000
-11.379400 0.000000
-11.365700 0.000000
-11.352100 0.000000
-11.338400 0.000000
-11.324700 0.000000
-11.311000 0.000000
-11.297300 0.000000
-11.283600 0.000000
-11.269900 0.000000
-11.256200 0.000000
-11.242500 0.000000
-11.228800 0.000000
-11.215200 0.000000
-11.201500 0.000000
-11.187800 0.000000
-11.174100 0.000000
-11.160400 0.000000
-11.146700 0.000000
-11.133000 0.000000
-11.119300 0.000000
-11.105600 0.000000
-11.092000 0.018400
-11.078300 0.220500
-11.064600 0.422700
-11.050900 0.692300
-11.037200 1.255200
-11.023500 1.872500
-11.009800 2.489900
-10.996100 3.107200
-10.982400 3.724500
-10.968700 4.341800
-10.955100 3.997600
-10.941400 4.544200
-10.927700 4.584200
-10.914000 4.367700
-10.900300 4.901000
-10.886600 5.434300
-10.872900 5.967600
-10.859200 6.500900
-10.845500 7.034200
-10.831900 7.567500
-10.818200 6.191900
-10.804500 6.327700
-10.790800 6.463400
-10.777100 6.773700
-10.763400 7.447800
-10.749700 8.121900
-10.736000 8.796000
-10.722300 9.462600
-10.708600 10.127500
-10.695000 10.788800
-10.681300 11.438300
-10.667600 10.141800
-10.653900 10.325600
-10.640200 10.509300
-10.626500 10.700100
-10.612800 10.896500
-10.599100 11.092300
-10.585400 11.420100
-10.571800 12.318700
-10.558100 13.217300
-10.544400 14.116000
-10.530700 15.014600
-10.517000 15.914600
-10.503300 16.834600
-10.489600 16.731900
-10.475900 16.104400
-10.462200 16.464200
-10.448600 16.825100
-10.434900 17.186100
-10.421200 17.547000
-10.407500 17.908000
-10.393800 18.666600
-10.380100 20.216300
-10.366400 21.675600
-10.352700 23.431600
-10.339000 25.447700
-10.325300 27.262400
-10.311700 26.764800
-10.298000 27.915400
-10.284300 31.847400
-10.270600 32.877300
-10.256900 37.959600
-10.243200 38.878100
-10.229500 39.794000
-10.215800 40.709900
-10.202100 46.394500
-10.188500 45.821600
-10.174800 44.562700
-10.161100 45.264900
-10.147400 46.583800
-10.133700 53.075800
-10.120000 52.829500
-10.106300 49.039900
-10.092600 49.925600
-10.078900 48.226900
-10.065200 40.648500
-10.051600 53.327300
-10.037900 52.803300
-10.024200 37.168500
-10.010500 37.728900
-9.996800 60.947700
-9.983100 70.367600
-9.969400 49.852300
-9.955700 54.523100
-9.942000 78.172500
-9.928400 117.146100
-9.914700 76.913600
-9.901000 0.000000
-9.887300 0.000000
-9.873600 0.000000
-9.859900 0.000000
-9.846200 0.000000
-9.832500 0.000000
-9.818800 0.000000
-9.805100 0.000000
-9.791500 0.000000
-9.777800 0.000000
-9.764100 0.000000
-9.750400 0.000000
-9.736700 0.000000
-9.723000 0.000000
-9.709300 0.000000
-9.695600 0.000000
-9.681900 0.000000
-9.668300 0.000000
-9.654600 0.000000
-9.640900 0.000000
-9.627200 0.000000
-9.613500 0.000000
-9.599800 0.000000
-9.586100 0.000000
-9.572400 0.000000
-9.558700 0.000000
-9.545000 0.000000
-9.531400 0.000000
-9.517700 0.000000
-9.504000 0.000000
-9.490300 0.000000
-9.476600 0.000000
-9.462900 0.000000
-9.449200 0.000000
-9.435500 0.000000
-9.421800 0.000000
-9.408200 0.000000
-9.394500 0.000000
-9.380800 0.000000
-9.367100 0.000000
-9.353400 0.000000
-9.339700 0.000000
-9.326000 0.000000
-9.312300 0.000000
-9.298600 0.000000
-9.285000 0.000000
-9.271300 0.000000
-9.257600 0.000000
-9.243900 0.000000
-9.230200 0.000000
-9.216500 0.000000
-9.202800 0.000000
-9.189100 0.000000
-9.175400 0.000000
-9.161700 0.000000
-9.148100 0.000000
-9.134400 0.000000
-9.120700 0.000000
-9.107000 0.000000
-9.093300 0.000000
-9.079600 0.000000
-9.065900 0.000000
-9.052200 0.000000
-9.038500 0.000000
-9.024900 0.000000
-9.011200 0.000000
-8.997500 0.000000
-8.983800 0.000000
-8.970100 0.000000
-8.956400 0.000000
-8.942700 0.000000
-8.929000 0.000000
-8.915300 0.000000
-8.901600 0.000000
-8.888000 0.000000
-8.874300 0.000000
-8.860600 0.000000
-8.846900 0.000000
-8.833200 0.000000
-8.819500 0.000000
-8.805800 0.000000
-8.792100 0.000000
-8.778400 0.000000
-8.764800 0.000000
-8.751100 0.000000
-8.737400 0.000000
-8.723700 0.000000
-8.710000 0.000000
-8.696300 0.000000
-8.682600 0.000000
-8.668900 0.000000
-8.655200 0.000000
-8.641500 0.000000
-8.627900 0.000000
-8.614200 0.000000
-8.600500 0.000000
-8.586800 0.000000
-8.573100 0.000000
-8.559400 0.000000
-8.545700 0.000000
-8.532000 0.000000
-8.518300 0.000000
-8.504700 0.000000
-8.491000 0.000000
-8.477300 0.000000
-8.463600 0.000000
-8.449900 0.000000
-8.436200 0.000000
-8.422500 0.000000
-8.408800 0.000000
-8.395100 0.000000
-8.381500 0.000000
-8.367800 0.000000
-8.354100 0.000000
-8.340400 0.000000
-8.326700 0.000000
-8.313000 0.000000
-8.299300 0.000000
-8.285600 0.000000
-8.271900 0.000000
-8.258200 0.000000
-8.244600 0.000000
-8.230900 0.000000
-8.217200 0.000000
-8.203500 0.000000
-8.189800 0.000000
-8.176100 0.000000
-8.162400 0.000000
-8.148700 0.000000
-8.135000 0.000000
-8.121400 0.000000
-8.107700 0.000000
-8.094000 0.000000
-8.080300 0.000000
-8.066600 0.000000
-8.052900 0.000000
-8.039200 0.000000
-8.025500 0.000000
-8.011800 0.000000
-7.998100 0.000000
-7.984500 0.000000
-7.970800 0.000000
-7.957100 0.000000
-7.943400 0.000000
-7.929700 0.000000
-7.916000 0.000000
-7.902300 0.000000
-7.888600 0.000000
-7.874900 0.000000
-7.861300 0.000000
-7.847600 0.000000
-7.833900 0.000000
-7.820200 0.000000
-7.806500 0.000000
-7.792800 0.000000
-7.779100 0.000000
-7.765400 0.000000
-7.751700 0.000000
-7.738000 0.000000
-7.724400 0.000000
-7.710700 0.000000
-7.697000 0.000000
-7.683300 0.000000
-7.669600 0.000000
-7.655900 0.000000
-7.642200 0.000000
-7.628500 0.000000
-7.614800 0.000000
-7.601200 0.000000
-7.587500 0.000000
-7.573800 0.000000
-7.560100 0.000000
-7.546400 0.000000
-7.532700 0.000000
-7.519000 0.000000
-7.505300 0.000000
-7.491600 0.000000
-7.477900 0.000000
-7.464300 0.000000
-7.450600 0.000000
-7.436900 0.000000
-7.423200 0.000000
-7.409500 0.000000
-7.395800 0.000000
-7.382100 0.000000
-7.368400 0.000000
-7.354700 0.000000
-7.341100 0.000000
-7.327400 0.000000
-7.313700 0.000000
-7.300000 0.000000
-7.286300 0.000000
-7.272600 0.000000
-7.258900 0.000000
-7.245200 0.000000
-7.231500 0.000000
-7.217900 0.000000
-7.204200 0.000000
-7.190500 0.000000
-7.176800 0.000000
-7.163100 0.000000
-7.149400 0.000000
-7.135700 0.000000
-7.122000 0.000000
-7.108300 0.000000
-7.094600 0.000000
-7.081000 0.000000
-7.067300 0.000000
-7.053600 0.000000
-7.039900 0.000000
-7.026200 0.000000
-7.012500 0.000000
-6.998800 0.000000
-6.985100 0.000000
-6.971400 0.000000
-6.957800 0.000000
-6.944100 0.000000
-6.930400 0.000000
-6.916700 0.000000
-6.903000 0.000000
-6.889300 0.000000
-6.875600 0.000000
-6.861900 0.000000
-6.848200 0.000000
-6.834500 0.000000
-6.820900 0.000000
-6.807200 0.000000
-6.793500 0.000000
-6.779800 0.000000
-6.766100 0.000000
-6.752400 0.000000
-6.738700 0.000000
-6.725000 0.000000
-6.711300 0.000000
-6.697700 0.000000
-6.684000 0.000000
-6.670300 0.000000
-6.656600 0.000000
-6.642900 0.000000
-6.629200 0.000000
-6.615500 0.000000
-6.601800 0.000000
-6.588100 0.000000
-6.574400 0.000000
-6.560800 0.000000
-6.547100 0.000000
-6.533400 0.000000
-6.519700 0.000000
-6.506000 0.000000
-6.492300 0.000000
-6.478600 0.000000
-6.464900 0.000000
-6.451200 0.000000
-6.437600 0.000000
-6.423900 0.000000
-6.410200 0.000000
-6.396500 0.000000
-6.382800 0.000000
-6.369100 0.000000
-6.355400 0.000000
-6.341700 0.000000
-6.328000 0.000000
-6.314400 0.000000
-6.300700 0.000000
-6.287000 0.000000
-6.273300 0.000000
-6.259600 0.000000
-6.245900 0.000000
-6.232200 0.000000
-6.218500 0.000000
-6.204800 0.000000
-6.191100 0.000000
-6.177500 0.000000
-6.163800 0.000000
-6.150100 0.000000
-6.136400 0.000000
-6.122700 0.000000
-6.109000 0.000000
-6.095300 0.000000
-6.081600 0.000000
-6.067900 0.000000
-6.054300 0.000000
-6.040600 0.000000
-6.026900 0.000000
-6.013200 0.000000
-5.999500 0.000000
-5.985800 0.000000
-5.972100 0.000000
-5.958400 0.000000
-5.944700 0.000000
-5.931000 0.000000
-5.917400 0.000000
-5.903700 0.000000
-5.890000 0.000000
-5.876300 0.000000
-5.862600 0.000000
-5.848900 0.000000
-5.835200 0.000000
-5.821500 0.000000
-5.807800 0.000000
-5.794200 0.000000
-5.780500 0.000000
-5.766800 0.000000
-5.753100 0.000000
-5.739400 0.000000
-5.725700 0.000000
-5.712000 0.000000
-5.698300 0.000000
-5.684600 0.000000
-5.670900 0.000000
-5.657300 0.000000
-5.643600 0.000000
-5.629900 0.000000
-5.616200 0.000000
-5.602500 0.000000
-5.588800 0.000000
-5.575100 0.000000
-5.561400 0.000000
-5.547700 0.000000
-5.534100 0.000000
-5.520400 0.000000
-5.506700 0.000000
-5.493000 0.000000
-5.479300 0.000000
-5.465600 0.000000
-5.451900 0.000000
-5.438200 0.000000
-5.424500 0.000000
-5.410800 0.000000
-5.397200 0.000000
-5.383500 0.000000
-5.369800 0.000000
-5.356100 0.000000
-5.342400 0.000000
-5.328700 0.000000
-5.315000 0.000000
-5.301300 0.000000
-5.287600 0.000000
-5.274000 0.000000
-5.260300 0.000000
-5.246600 0.000000
-5.232900 0.000000
-5.219200 0.000000
-5.205500 0.000000
-5.191800 0.000000
-5.178100 0.000000
-5.164400 0.000000
-5.150800 0.000000
-5.137100 0.000000
-5.123400 0.000000
-5.109700 0.000000
-5.096000 0.000000
-5.082300 0.000000
-5.068600 0.000000
-5.054900 0.000000
-5.041200 0.000000
-5.027500 0.000000
-5.013900 0.000000
-5.000200 0.000000
-4.986500 0.000000
-4.972800 0.000000
-4.959100 0.000000
-4.945400 0.000000
-4.931700 0.000000
-4.918000 0.000000
-4.904300 0.000000
-4.890700 0.000000
-4.877000 0.000000
-4.863300 0.000000
-4.849600 0.000000
-4.835900 0.000000
-4.822200 0.000000
-4.808500 0.000000
-4.794800 0.000000
-4.781100 0.000000
-4.767400 0.000000
-4.753800 0.000000
-4.740100 0.000000
-4.726400 0.000000
-4.712700 0.000000
-4.699000 0.000000
-4.685300 0.000000
-4.671600 0.000000
-4.657900 0.000000
-4.644200 0.000000
-4.630600 0.000000
-4.616900 0.000000
-4.603200 0.000000
-4.589500 0.000000
-4.575800 0.000000
-4.562100 0.000000
-4.548400 0.000000
-4.534700 0.000000
-4.521000 0.000000
-4.507300 0.000000
-4.493700 0.000000
-4.480000 0.000000
-4.466300 0.000000
-4.452600 0.000000
-4.438900 0.000000
-4.425200 0.000000
-4.411500 18.428600
-4.397800 32.334000
-4.384100 81.209800
-4.370500 175.389600
-4.356800 182.315200
-4.343100 217.380500
-4.329400 248.963100
-4.315700 258.439300
-4.302000 285.692600
-4.288300 351.903600
-4.274600 375.786600
-4.260900 363.349600
-4.247200 254.018600
-4.233600 255.677900
-4.219900 210.723100
-4.206200 202.272300
-4.192500 174.072500
-4.178800 152.715400
-4.165100 166.936000
-4.151400 154.424200
-4.137700 168.099000
-4.124000 341.647800
-4.110400 153.081700
-4.096700 141.200700
-4.083000 138.738700
-4.069300 121.342200
-4.055600 110.291000
-4.041900 99.737700
-4.028200 56.924600
-4.014500 159.888000
-4.000800 101.386800
-3.987200 57.547600
-3.973500 99.732500
-3.959800 125.881300
-3.946100 352.184700
-3.932400 391.257500
-3.918700 477.909000
-3.905000 481.018300
-3.891300 382.363000
-3.877600 327.533700
-3.863900 192.951500
-3.850300 116.811100
-3.836600 101.181500
-3.822900 87.483200
-3.809200 82.784400
-3.795500 80.911800
-3.781800 77.693600
-3.768100 72.397200
-3.754400 65.053700
-3.740700 112.722600
-3.727100 43.372900
-3.713400 45.555000
-3.699700 62.252500
-3.686000 82.618500
-3.672300 37.614800
-3.658600 51.204500
-3.644900 78.944100
-3.631200 59.310700
-3.617500 54.611400
-3.603800 43.066600
-3.590200 27.717200
-3.576500 13.633500
-3.562800 0.000000
-3.549100 0.000000
-3.535400 0.000000
-3.521700 0.000000
-3.508000 0.000000
-3.494300 0.000000
-3.480600 0.000000
-3.467000 0.000000
-3.453300 0.000000
-3.439600 0.000000
-3.425900 0.000000
-3.412200 0.000000
-3.398500 0.000000
-3.384800 0.000000
-3.371100 0.000000
-3.357400 0.000000
-3.343700 0.000000
-3.330100 0.000000
-3.316400 0.000000
-3.302700 0.000000
-3.289000 0.000000
-3.275300 0.000000
-3.261600 0.000000
-3.247900 0.000000
-3.234200 0.072500
-3.220500 0.169600
-3.206900 0.266800
-3.193200 0.363900
-3.179500 0.461000
-3.165800 0.558100
-3.152100 0.655200
-3.138400 0.752300
-3.124700 0.849400
-3.111000 0.946600
-3.097300 1.043700
-3.083700 1.140800
-3.070000 1.237900
-3.056300 0.859400
-3.042600 0.881700
-3.028900 2.256800
-3.015200 3.735200
-3.001500 5.213600
-2.987800 8.238600
-2.974100 5.887100
-2.960400 7.757400
-2.946800 4.401700
-2.933100 4.608200
-2.919400 4.814700
-2.905700 5.021100
-2.892000 5.227600
-2.878300 5.434100
-2.864600 5.849100
-2.850900 9.470900
-2.837200 13.603900
-2.823600 12.546600
-2.809900 19.607400
-2.796200 13.586600
-2.782500 16.301300
-2.768800 17.634400
-2.755100 19.320900
-2.741400 21.007500
-2.727700 22.716200
-2.714000 25.576100
-2.700300 27.871900
-2.686700 29.993900
-2.673000 26.396500
-2.659300 26.896800
-2.645600 27.397100
-2.631900 33.669100
-2.618200 25.575500
-2.604500 25.739800
-2.590800 29.680900
-2.577100 39.137300
-2.563500 32.658100
-2.549800 45.236500
-2.536100 29.481300
-2.522400 17.593000
-2.508700 13.638000
-2.495000 17.841200
-2.481300 12.764100
-2.467600 22.884800
-2.453900 13.519200
-2.440200 13.643500
-2.426600 13.767700
-2.412900 13.892000
-2.399200 14.016200
-2.385500 14.140500
-2.371800 13.569700
-2.358100 14.580700
-2.344400 16.430200
-2.330700 19.904400
-2.317000 23.378500
-2.303400 12.827200
-2.289700 12.806400
-2.276000 12.785700
-2.262300 12.765000
-2.248600 12.744300
-2.234900 12.723500
-2.221200 12.702800
-2.207500 12.682100
-2.193800 12.777100
-2.180100 14.529100
-2.166500 18.387000
-2.152800 23.096700
-2.139100 28.164000
-2.125400 24.240700
-2.111700 26.692100
-2.098000 24.839800
-2.084300 10.302200
-2.070600 10.395600
-2.056900 10.489000
-2.043300 9.681300
-2.029600 9.696300
-2.015900 9.711200
-2.002200 9.726200
-1.988500 9.741200
-1.974800 9.756200
-1.961100 9.771200
-1.947400 8.686000
-1.933700 8.576300
-1.920100 8.466500
-1.906400 8.356800
-1.892700 8.058500
-1.879000 7.796800
-1.865300 7.744200
-1.851600 7.702600
-1.837900 7.661100
-1.824200 7.619600
-1.810500 7.578000
-1.796800 7.536500
-1.783200 7.494900
-1.769500 7.453400
-1.755800 7.411800
-1.742100 7.370300
-1.728400 7.328700
-1.714700 7.287200
-1.701000 7.245600
-1.687300 7.204100
-1.673600 7.032800
-1.660000 7.000300
-1.646300 6.967800
-1.632600 6.814400
-1.618900 6.793900
-1.605200 6.773400
-1.591500 6.750200
-1.577800 6.723000
-1.564100 6.696000
-1.550400 6.505800
-1.536700 6.496000
-1.523100 6.486200
-1.509400 6.476400
-1.495700 6.466500
-1.482000 6.456700
-1.468300 7.131700
-1.454600 7.182600
-1.440900 7.233500
-1.427200 7.284500
-1.413500 7.335400
-1.399900 7.386300
-1.386200 7.437200
-1.372500 7.488200
-1.358800 18.124300
-1.345100 5.454500
-1.331400 5.493100
-1.317700 5.531800
-1.304000 5.570400
-1.290300 5.609100
-1.276600 6.253500
-1.263000 6.361300
-1.249300 6.469000
-1.235600 6.574700
-1.221900 6.678700
-1.208200 7.427300
-1.194500 7.612500
-1.180800 7.797600
-1.167100 7.983000
-1.153400 15.484400
-1.139800 21.920900
-1.126100 16.673400
-1.112400 10.132300
-1.098700 8.490000
-1.085000 8.561100
-1.071300 8.632200
-1.057600 8.703300
-1.043900 9.465600
-1.030200 9.566600
-1.016600 10.291200
-1.002900 10.425200
-0.989200 10.559200
-0.975500 11.222600
-0.961800 13.284100
-0.948100 14.656800
-0.934400 16.029600
-0.920700 17.526100
-0.907000 20.689400
-0.893300 19.994900
-0.879700 19.300300
-0.866000 18.605700
-0.852300 17.935500
-0.838600 19.836100
-0.824900 13.006300
-0.811200 11.852400
-0.797500 12.642400
-0.783800 12.601000
-0.770100 12.561600
-0.756500 12.522200
-0.742800 13.299800
-0.729100 13.280500
-0.715400 13.261100
-0.701700 14.003800
-0.688000 14.019500
-0.674300 14.273200
-0.660600 14.583600
-0.646900 14.904800
-0.633200 15.226000
-0.619600 15.696100
-0.605900 17.611600
-0.592200 20.565400
-0.578500 24.045600
-0.564800 28.030000
-0.551100 32.719200
-0.537400 34.808400
-0.523700 31.809000
-0.510000 28.837800
-0.496400 25.878200
-0.482700 22.950800
-0.469000 19.920500
-0.455300 17.703100
-0.441600 17.181500
-0.427900 16.759300
-0.414200 17.637900
-0.400500 17.241200
-0.386800 17.044900
-0.373100 17.127800
-0.359500 17.387300
-0.345800 17.755400
-0.332100 19.254000
-0.318400 19.702000
-0.304700 20.150100
-0.291000 21.669700
-0.277300 22.208600
-0.263600 22.747500
-0.249900 24.439100
-0.236300 24.933200
-0.222600 25.321800
-0.208900 25.610100
-0.195200 25.348800
-0.181500 24.789500
-0.167800 24.887900
-0.154100 24.867500
-0.140400 24.253100
-0.126700 23.470800
-0.113000 22.557800
-0.099400 22.581200
-0.085700 22.604600
-0.072000 22.627900
-0.058300 23.945500
-0.044600 23.818400
-0.030900 23.487600
-0.017200 23.368000
-0.003500 23.248300
0.010200 23.241600
0.023800 21.881100
0.037500 21.738600
0.051200 21.778700
0.064900 24.092800
0.078600 25.225300
0.092300 25.288800
0.106000 25.352400
0.119700 25.284600
0.133400 25.015600
0.147000 24.882100
0.160700 24.764000
0.174400 24.646000
0.188100 26.159300
0.201800 26.020800
0.215500 25.875800
0.229200 25.804800
0.242900 25.761300
0.256600 25.049600
0.270300 23.321500
0.283900 23.175800
0.297600 22.797700
0.311300 24.799400
0.325000 26.171200
0.338700 26.081800
0.352400 27.642900
0.366100 27.689700
0.379800 27.617100
0.393500 27.558800
0.407100 27.736500
0.420800 28.077500
0.434500 30.738400
0.448200 30.737100
0.461900 30.870700
0.475600 30.984500
0.489300 31.138900
0.503000 31.313300
0.516700 33.113400
0.530400 32.910200
0.544000 29.956500
0.557700 31.595800
0.571400 30.432700
0.585100 29.137800
0.598800 28.125200
0.612500 28.018400
0.626200 27.964400
0.639900 28.259700
0.653600 28.250600
0.667200 29.874600
0.680900 31.389100
0.694600 31.330900
0.708300 31.136600
0.722000 31.003200
0.735700 30.867000
0.749400 30.952800
0.763100 30.804800
0.776800 30.647700
0.790500 30.446300
0.804100 30.107700
0.817800 28.219100
0.831500 27.664600
0.845200 27.763900
0.858900 28.022100
0.872600 27.180600
0.886300 27.033000
0.900000 26.878800
0.913700 26.747200
0.927300 26.550800
0.941000 26.428000
0.954700 25.388900
0.968400 25.243500
0.982100 25.098000
0.995800 24.952100
1.009500 23.948800
1.023200 22.434700
1.036900 22.043500
1.050500 21.660800
1.064200 21.278500
1.077900 20.898300
1.091600 19.602300
1.105300 18.939200
1.119000 18.457100
1.132700 17.951900
1.146400 17.445800
1.160100 16.939800
1.173800 16.433800
1.187400 15.936800
1.201100 15.479100
1.214800 15.028200
1.228500 14.583700
1.242200 14.407200
1.255900 13.897100
1.269600 13.460300
1.283300 13.023500
1.297000 12.824600
1.310600 12.436100
1.324300 11.993600
1.338000 11.552900
1.351700 11.145500
1.365400 10.762700
1.379100 10.418800
1.392800 10.074800
1.406500 9.745000
1.420200 9.422900
1.433900 9.107700
1.447500 8.795100
1.461200 8.499900
1.474900 8.204700
1.488600 7.909500
1.502300 7.614200
1.516000 8.433600
