set title 'mp-1224785 - Density of States'
set xlabel 'Energy (eV)'
set ylabel 'DOS (states/eV)'
set grid
set xrange [-10:10]
set yrange [0:104.957]
set xzeroaxis lt -1
set terminal png size 800,600
set output 'mp-1224785_dos_gnuplot.png'
plot '-' using 1:2 with lines title 'DOS'
-12.109900 0.000000
-12.078100 0.000000
-12.046300 0.000000
-12.014500 0.000000
-11.982800 0.000000
-11.951000 0.000000
-11.919200 0.000000
-11.887400 0.000000
-11.855600 0.000000
-11.823900 0.000000
-11.792100 0.000000
-11.760300 0.000000
-11.728500 0.000000
-11.696800 0.000000
-11.665000 0.000000
-11.633200 0.000000
-11.601400 0.000000
-11.569600 0.000000
-11.537900 0.000000
-11.506100 0.000000
-11.474300 0.000000
-11.442500 0.000000
-11.410700 0.000000
-11.379000 0.000000
-11.347200 0.000000
-11.315400 0.000000
-11.283600 0.000000
-11.251900 0.000000
-11.220100 0.000000
-11.188300 0.000000
-11.156500 0.000000
-11.124700 0.000000
-11.093000 0.000000
-11.061200 0.000000
-11.029400 0.000000
-10.997600 0.000000
-10.965800 0.000000
-10.934100 0.000000
-10.902300 0.000000
-10.870500 0.000000
-10.838700 0.000000
-10.807000 0.000000
-10.775200 0.000000
-10.743400 0.000000
-10.711600 0.000000
-10.679800 0.000000
-10.648100 0.000000
-10.616300 0.000000
-10.584500 0.000000
-10.552700 0.000000
-10.520900 0.000000
-10.489200 0.000000
-10.457400 0.000000
-10.425600 0.000000
-10.393800 0.000000
-10.362100 0.000000
-10.330300 0.000000
-10.298500 0.000000
-10.266700 0.000000
-10.234900 0.000000
-10.203200 0.000000
-10.171400 0.000000
-10.139600 0.000000
-10.107800 0.000000
-10.076000 0.000000
-10.044300 0.000000
-10.012500 0.000000
-9.980700 0.000000
-9.948900 0.000000
-9.917200 0.000000
-9.885400 0.000000
-9.853600 0.000000
-9.821800 0.000000
-9.790000 0.000000
-9.758300 0.000000
-9.726500 0.000000
-9.694700 0.000000
-9.662900 0.000000
-9.631100 0.000000
-9.599400 0.000000
-9.567600 0.000000
-9.535800 0.000000
-9.504000 0.000000
-9.472200 0.000000
-9.440500 0.000000
-9.408700 0.000000
-9.376900 0.000000
-9.345100 0.000000
-9.313400 0.000000
-9.281600 0.000000
-9.249800 0.000000
-9.218000 4.889200
-9.186200 22.507800
-9.154500 90.131300
-9.122700 95.415000
-9.090900 37.756100
-9.059100 0.000000
-9.027300 0.000000
-8.995600 0.000000
-8.963800 0.000000
-8.932000 0.000000
-8.900200 0.000000
-8.868500 0.000000
-8.836700 0.000000
-8.804900 0.000000
-8.773100 0.000000
-8.741300 0.000000
-8.709600 0.000000
-8.677800 0.000000
-8.646000 0.000000
-8.614200 0.000000
-8.582400 0.000000
-8.550700 0.000000
-8.518900 0.000000
-8.487100 0.000000
-8.455300 0.000000
-8.423600 0.000000
-8.391800 0.000000
-8.360000 0.000000
-8.328200 0.000000
-8.296400 0.000000
-8.264700 0.000000
-8.232900 0.000000
-8.201100 0.000000
-8.169300 0.000000
-8.137500 0.000000
-8.105800 0.000000
-8.074000 0.000000
-8.042200 0.000000
-8.010400 0.000000
-7.978700 0.000000
-7.946900 0.000000
-7.915100 0.000000
-7.883300 0.000000
-7.851500 0.000000
-7.819800 0.000000
-7.788000 0.000000
-7.756200 0.000000
-7.724400 0.000000
-7.692600 0.000000
-7.660900 0.000000
-7.629100 0.000000
-7.597300 0.000000
-7.565500 0.000000
-7.533800 0.000000
-7.502000 0.000000
-7.470200 0.000000
-7.438400 0.000000
-7.406600 0.000000
-7.374900 0.000000
-7.343100 0.000000
-7.311300 0.000000
-7.279500 0.000000
-7.247700 0.000000
-7.216000 0.000000
-7.184200 0.000000
-7.152400 0.000000
-7.120600 0.000000
-7.088900 0.000000
-7.057100 0.000000
-7.025300 0.000000
-6.993500 0.000000
-6.961700 0.000000
-6.930000 0.000000
-6.898200 0.000000
-6.866400 0.000000
-6.834600 0.000000
-6.802800 0.000000
-6.771100 0.000000
-6.739300 0.000000
-6.707500 0.000000
-6.675700 0.000000
-6.643900 0.000000
-6.612200 0.000000
-6.580400 0.000000
-6.548600 0.000000
-6.516800 0.000000
-6.485100 0.000000
-6.453300 0.000000
-6.421500 0.000000
-6.389700 0.000000
-6.357900 0.000000
-6.326200 0.000000
-6.294400 0.000000
-6.262600 0.000000
-6.230800 0.000000
-6.199000 0.000000
-6.167300 0.000000
-6.135500 0.000000
-6.103700 0.016000
-6.071900 0.062700
-6.040200 0.102800
-6.008400 0.112200
-5.976600 0.133200
-5.944800 0.153000
-5.913000 0.160400
-5.881300 0.176500
-5.849500 0.188100
-5.817700 0.200600
-5.785900 0.215200
-5.754100 0.229000
-5.722400 0.240900
-5.690600 0.249900
-5.658800 0.257900
-5.627000 0.264000
-5.595300 0.271500
-5.563500 0.280700
-5.531700 0.291300
-5.499900 0.302300
-5.468100 0.313500
-5.436400 0.323600
-5.404600 0.333100
-5.372800 0.342300
-5.341000 0.351700
-5.309200 0.358900
-5.277500 0.367500
-5.245700 0.376000
-5.213900 0.384700
-5.182100 0.393500
-5.150400 0.401900
-5.118600 0.411300
-5.086800 0.421500
-5.055000 0.431700
-5.023200 0.442200
-4.991500 0.453400
-4.959700 0.465500
-4.927900 0.478000
-4.896100 0.490800
-4.864300 0.503600
-4.832600 0.517400
-4.800800 0.532200
-4.769000 0.547300
-4.737200 0.562700
-4.705500 0.593500
-4.673700 0.651200
-4.641900 0.680200
-4.610100 0.687000
-4.578300 0.675400
-4.546600 0.668100
-4.514800 0.667500
-4.483000 0.669400
-4.451200 0.666400
-4.419400 0.663700
-4.387700 0.664700
-4.355900 0.664300
-4.324100 0.655200
-4.292300 0.648900
-4.260600 0.648900
-4.228800 0.646400
-4.197000 0.644500
-4.165200 0.644900
-4.133400 0.644300
-4.101700 0.643400
-4.069900 0.642400
-4.038100 0.640800
-4.006300 0.639100
-3.974500 0.637400
-3.942800 0.634200
-3.911000 0.632100
-3.879200 0.630700
-3.847400 0.628900
-3.815600 0.627100
-3.783900 0.625600
-3.752100 0.624200
-3.720300 0.628600
-3.688500 0.629000
-3.656800 0.627200
-3.625000 0.624000
-3.593200 0.621000
-3.561400 0.619500
-3.529600 0.646600
-3.497900 0.602200
-3.466100 0.582600
-3.434300 0.569800
-3.402500 0.562100
-3.370700 0.554200
-3.339000 0.547900
-3.307200 0.542600
-3.275400 0.538200
-3.243600 0.531500
-3.211900 0.530600
-3.180100 0.530600
-3.148300 0.530700
-3.116500 0.531300
-3.084700 0.532700
-3.053000 0.534600
-3.021200 0.537600
-2.989400 0.541200
-2.957600 0.545400
-2.925800 0.550700
-2.894100 0.557600
-2.862300 0.566700
-2.830500 0.578100
-2.798700 0.591900
-2.767000 0.608200
-2.735200 0.630200
-2.703400 0.657000
-2.671600 0.689500
-2.639800 0.731200
-2.608100 0.792300
-2.576300 0.851800
-2.544500 0.898900
-2.512700 0.943700
-2.480900 1.011400
-2.449200 1.142000
-2.417400 1.063800
-2.385600 0.674700
-2.353800 0.454800
-2.322100 0.311800
-2.290300 0.058500
-2.258500 0.007000
-2.226700 0.000000
-2.194900 0.000000
-2.163200 0.030800
-2.131400 0.081400
-2.099600 0.079500
-2.067800 0.096600
-2.036000 0.111000
-2.004300 0.123400
-1.972500 0.136100
-1.940700 0.149100
-1.908900 0.166900
-1.877200 0.185000
-1.845400 0.201100
-1.813600 0.208900
-1.781800 0.205100
-1.750000 0.216500
-1.718300 0.226400
-1.686500 0.235000
-1.654700 0.242200
-1.622900 0.250000
-1.591100 0.257900
-1.559400 0.267300
-1.527600 0.276100
-1.495800 0.285900
-1.464000 0.296900
-1.432200 0.308500
-1.400500 0.319800
-1.368700 0.330100
-1.336900 0.339500
-1.305100 0.348200
-1.273400 0.357000
-1.241600 0.365800
-1.209800 0.373100
-1.178000 0.382600
-1.146200 0.392700
-1.114500 0.404800
-1.082700 0.416300
-1.050900 0.427900
-1.019100 0.439900
-0.987300 0.452300
-0.955600 0.464700
-0.923800 0.484500
-0.892000 0.510600
-0.860200 0.537200
-0.828500 0.568000
-0.796700 0.590700
-0.764900 0.596900
-0.733100 0.615100
-0.701300 0.614700
-0.669600 0.601300
-0.637800 0.596300
-0.606000 0.594800
-0.574200 0.596300
-0.542400 0.596500
-0.510700 0.598700
-0.478900 0.606400
-0.447100 0.597700
-0.415300 0.595100
-0.383600 0.596200
-0.351800 0.595900
-0.320000 0.599900
-0.288200 0.593800
-0.256400 0.589500
-0.224700 0.584800
-0.192900 0.582700
-0.161100 0.581300
-0.129300 0.581000
-0.097500 0.583500
-0.065800 0.587300
-0.034000 0.590200
-0.002200 0.597100
0.029600 0.605400
0.061300 0.616000
0.093100 0.628800
0.124900 0.642800
0.156700 0.658000
0.188500 0.678600
0.220200 0.711700
0.252000 0.818500
0.283800 0.977700
0.315600 1.142700
0.347400 1.314900
0.379100 1.425700
0.410900 1.578400
0.442700 1.356900
0.474500 1.107500
0.506200 0.976200
0.538000 0.884300
0.569800 0.808500
0.601600 0.742400
0.633400 0.691900
0.665100 0.653500
0.696900 0.620600
0.728700 0.604200
0.760500 0.574700
0.792300 0.542100
0.824000 0.510000
0.855800 0.500700
0.887600 0.478300
0.919400 0.463600
0.951100 0.452800
0.982900 0.444400
1.014700 0.438200
1.046500 0.427500
1.078300 0.432300
1.110000 0.441000
1.141800 0.440400
1.173600 0.431700
1.205400 0.428800
1.237200 0.418100
1.268900 0.416600
1.300700 0.415000
1.332500 0.413400
1.364300 0.411600
1.396100 0.417900
1.427800 0.430600
1.459600 0.431300
1.491400 0.428200
1.523200 0.418900
1.554900 0.411900
1.586700 0.613600
1.618500 0.545300
1.650300 0.559000
1.682100 0.575800
1.713800 0.600100
1.745600 0.640300
1.777400 0.683600
1.809200 0.698600
1.841000 0.709000
1.872700 0.743300
1.904500 0.746200
1.936300 0.763200
1.968100 0.781100
1.999800 0.799500
2.031600 0.816500
2.063400 0.837600
2.095200 0.861200
2.127000 0.889800
2.158700 0.921700
2.190500 0.955000
2.222300 1.178800
2.254100 0.992800
2.285900 0.980800
2.317600 0.965000
2.349400 0.955700
2.381200 0.939800
2.413000 0.932000
2.444700 0.931800
2.476500 0.927900
2.508300 0.920000
2.540100 0.912400
2.571900 0.900600
2.603600 0.895900
2.635400 0.890600
2.667200 0.883500
2.699000 0.877000
2.730800 0.871400
2.762500 0.865900
2.794300 0.856300
2.826100 0.853500
2.857900 0.894500
2.889600 0.886700
2.921400 0.887600
2.953200 0.889300
2.985000 0.891300
3.016800 0.891600
3.048500 0.894700
3.080300 0.902400
3.112100 0.916900
3.143900 0.909800
3.175700 0.913700
3.207400 0.914000
3.239200 0.912100
3.271000 0.910600
3.302800 0.909200
3.334500 0.907400
3.366300 0.906500
3.398100 0.908900
3.429900 0.913000
3.461700 0.912100
3.493400 0.916800
3.525200 0.927200
3.557000 0.936900
3.588800 0.946700
3.620600 0.958400
3.652300 0.969400
3.684100 0.986000
3.715900 1.025600
3.747700 1.040800
3.779400 1.058100
3.811200 1.086800
3.843000 1.120700
3.874800 1.153400
3.906600 1.240400
3.938300 1.290400
3.970100 1.255100
4.001900 1.251200
4.033700 1.279300
4.065500 1.314400
4.097200 1.360000
4.129000 1.424200
4.160800 1.504000
4.192600 1.647100
4.224400 1.750400
4.256100 1.709200
4.287900 1.502500
4.319700 1.474800
4.351500 1.450900
4.383200 1.424900
4.415000 1.393200
4.446800 1.403300
4.478600 1.324000
4.510400 1.259600
4.542100 1.198600
4.573900 1.106400
4.605700 1.052700
4.637500 1.008700
4.669300 0.968600
4.701000 0.933800
4.732800 0.902100
4.764600 0.875900
4.796400 0.918500
4.828100 0.902700
4.859900 0.889500
4.891700 0.889100
4.923500 0.883700
4.955300 0.864000
4.987000 0.845500
5.018800 0.828300
5.050600 0.812900
5.082400 0.833700
5.114200 0.842900
5.145900 0.839000
5.177700 0.838000
5.209500 0.842600
5.241300 0.849200
5.273000 0.865700
5.304800 0.878300
5.336600 0.890900
5.368400 0.898200
5.400200 0.900500
5.431900 0.895000
5.463700 0.888400
5.495500 0.883000
5.527300 0.873500
5.559100 0.860400
5.590800 0.856200
5.622600 0.853100
5.654400 0.840000
5.686200 0.822000
5.717900 0.812400
5.749700 0.812100
5.781500 0.813000
5.813300 0.812000
5.845100 0.805500
5.876800 0.803000
5.908600 0.805100
5.940400 0.809100
5.972200 0.817500
6.004000 0.813000
6.035700 0.805900
6.067500 0.801200
6.099300 0.791200
6.131100 0.777300
6.162800 0.766100
6.194600 0.760600
6.226400 0.763100
6.258200 0.770400
6.290000 0.779000
6.321700 0.790900
6.353500 0.812600
6.385300 0.843600
6.417100 0.871300
6.448900 0.922200
6.480600 0.930700
6.512400 0.923700
6.544200 0.921100
6.576000 0.926900
6.607700 0.942100
6.639500 0.957300
6.671300 0.982800
6.703100 0.989700
6.734900 1.004200
6.766600 1.022700
6.798400 1.037700
6.830200 1.053500
6.862000 1.076100
6.893800 1.073100
6.925500 1.068500
6.957300 1.072700
6.989100 1.063200
7.020900 1.054100
7.052700 1.039800
7.084400 0.994300
7.116200 0.959700
7.148000 0.932400
7.179800 0.910300
7.211500 0.892100
7.243300 0.882000
7.275100 0.884900
7.306900 0.896400
7.338700 0.924600
7.370400 0.940000
7.402200 0.925000
7.434000 0.904300
7.465800 0.886900
7.497600 0.873900
7.529300 0.862400
7.561100 0.852000
7.592900 0.842100
7.624700 0.832400
7.656400 0.815200
7.688200 0.807300
7.720000 0.802600
7.751800 0.800300
7.783600 0.800200
7.815300 0.801900
7.847100 0.809000
7.878900 0.819500
7.910700 0.829400
7.942500 0.837500
7.974200 0.820200
8.006000 0.826200
8.037800 0.833700
8.069600 0.844900
8.101300 0.861900
8.133100 0.883000
8.164900 0.903300
8.196700 0.938300
8.228500 0.954800
8.260200 0.973100
8.292000 1.000900
8.323800 1.038600
8.355600 1.055800
8.387400 1.074800
8.419100 1.093500
8.450900 1.109300
8.482700 1.135400
8.514500 1.165100
8.546200 1.198700
8.578000 1.237500
8.609800 1.284400
8.641600 1.350900
8.673400 1.396100
8.705100 1.383800
8.736900 1.360100
8.768700 1.332200
8.800500 1.300600
8.832300 1.256400
8.864000 1.216300
8.895800 1.187500
8.927600 1.179000
8.959400 1.183600
8.991100 1.212000
9.022900 1.212200
9.054700 1.204300
9.086500 1.194000
9.118300 1.169800
9.150000 1.135700
9.181800 1.105500
9.213600 1.096200
9.245400 1.108400
9.277200 1.101000
9.308900 1.087400
9.340700 1.075000
9.372500 1.072100
9.404300 1.072900
9.436100 1.086200
9.467800 1.074300
9.499600 1.075800
9.531400 1.090600
9.563200 1.145500
9.594900 1.149900
9.626700 1.188700
9.658500 1.215600
9.690300 1.237600
9.722100 1.243200
9.753800 1.263800
9.785600 1.288900
9.817400 1.320000
9.849200 1.348300
9.881000 1.377400
9.912700 1.412100
9.944500 1.453100
9.976300 1.467300
10.008100 1.445600
10.039800 1.402900
10.071600 1.403200
10.103400 1.394400
10.135200 1.384600
10.167000 1.376300
10.198700 1.378100
10.230500 1.375800
10.262300 1.377400
10.294100 1.403300
10.325900 1.428500
10.357600 1.452900
10.389400 1.487600
10.421200 1.520000
10.453000 1.557200
10.484700 1.583800
10.516500 1.626300
10.548300 1.635000
10.580100 1.625200
10.611900 1.560500
10.643600 1.547900
10.675400 1.565300
10.707200 1.578100
10.739000 1.556600
10.770800 1.535600
10.802500 1.520900
10.834300 1.504000
10.866100 1.467100
10.897900 1.457700
10.929600 1.469400
10.961400 1.436300
10.993200 1.433200
11.025000 1.426500
11.056800 1.421100
11.088500 1.413000
11.120300 1.394600
11.152100 1.371900
11.183900 1.343400
11.215700 1.316100
11.247400 1.279300
11.279200 1.268400
11.311000 1.244900
11.342800 1.224900
11.374500 1.206200
11.406300 1.193600
11.438100 1.187800
11.469900 1.175600
11.501700 1.164300
11.533400 1.154100
11.565200 1.145200
11.597000 1.138900
11.628800 1.135800
11.660600 1.135700
11.692300 1.141700
11.724100 1.176100
11.755900 1.186400
11.787700 1.199000
11.819400 1.209800
11.851200 1.222700
11.883000 1.249400
11.914800 1.265300
11.946600 1.275700
11.978300 1.295400
12.010100 1.171500
12.041900 1.141600
12.073700 1.119000
12.105500 1.095900
12.137200 1.073500
12.169000 1.061400
12.200800 1.048000
12.232600 1.034400
12.264400 1.017900
12.296100 0.995900
12.327900 0.979900
12.359700 0.960400
12.391500 0.939700
12.423200 0.917800
12.455000 0.913700
12.486800 0.884000
12.518600 0.892200
12.550400 0.918400
12.582100 0.947700
12.613900 0.970200
12.645700 0.987800
12.677500 0.993300
12.709300 0.997700
12.741000 1.007600
12.772800 1.016600
12.804600 1.020000
12.836400 1.053100
12.868100 1.074800
12.899900 1.094700
12.931700 1.096500
12.963500 1.071100
12.995300 1.043600
13.027000 1.029200
13.058800 1.019500
13.090600 1.009900
13.122400 1.001000
13.154200 0.991700
13.185900 0.980100
13.217700 0.967700
13.249500 0.953800
13.281300 0.939400
13.313000 0.924200
13.344800 0.915300
13.376600 0.912400
13.408400 0.906900
13.440200 0.905200
13.471900 0.905200
13.503700 0.906900
13.535500 0.909700
13.567300 0.919600
13.599100 0.989100
13.630800 1.079900
13.662600 1.138300
13.694400 1.164100
13.726200 1.120800
13.757900 1.129000
13.789700 1.133900
13.821500 1.145400
13.853300 1.144700
13.885100 1.128700
13.916800 1.117700
13.948600 1.104000
13.980400 1.089700
14.012200 1.077200
14.044000 1.059500
14.075700 1.050300
14.107500 1.048200
14.139300 1.064000
14.171100 1.043400
14.202800 1.044200
14.234600 1.047200
14.266400 1.051800
14.298200 1.062000
14.330000 1.070600
14.361700 1.078100
14.393500 1.085000
14.425300 1.091900
14.457100 1.097800
14.488900 1.104100
14.520600 1.111500
14.552400 1.120500
14.584200 1.131000
14.616000 1.151800
14.647700 1.171200
14.679500 1.188700
14.711300 1.197400
14.743100 1.214700
14.774900 1.238700
14.806600 1.255400
14.838400 1.281000
14.870200 1.313000
14.902000 1.362500
14.933800 1.462500
14.965500 1.461600
14.997300 1.459000
15.029100 1.462200
15.060900 1.469400
15.092700 1.488500
15.124400 1.521700
15.156200 1.556100
15.188000 1.592400
15.219800 1.630400
15.251500 1.678000
15.283300 1.750200
15.315100 1.801700
15.346900 1.883900
15.378700 1.959500
15.410400 2.036700
15.442200 2.033000
15.474000 1.946000
15.505800 1.860600
15.537600 1.815200
15.569300 1.773500
15.601100 1.740900
15.632900 1.717100
15.664700 1.683700
15.696400 1.662900
15.728200 1.648000
15.760000 1.650000
15.791800 1.636500
15.823600 1.662900
15.855300 1.669600
15.887100 1.643300
15.918900 1.624900
15.950700 1.624400
15.982500 1.632100
16.014200 1.647200
16.046000 1.654000
16.077800 1.642700
16.109600 1.635900
16.141300 1.627200
16.173100 1.621900
16.204900 1.657900
16.236700 1.575900
16.268500 1.565900
16.300200 1.567400
16.332000 1.571800
16.363800 1.588700
16.395600 1.619500
16.427400 1.672300
16.459100 1.700100
16.490900 1.656400
16.522700 1.620500
16.554500 1.615800
16.586200 1.612300
16.618000 1.602200
16.649800 1.592600
16.681600 1.593300
16.713400 1.509100
16.745100 1.451700
16.776900 1.415800
16.808700 1.399500
16.840500 1.381500
16.872300 1.377200
16.904000 1.364100
16.935800 1.358900
16.967600 1.357200
16.999400 1.370700
17.031100 1.379500
17.062900 1.391300
17.094700 1.394100
17.126500 1.395000
17.158300 1.395900
17.190000 1.421900
17.221800 1.422700
17.253600 1.422600
17.285400 1.423000
17.317200 1.427700
17.348900 1.442500
17.380700 1.449700
17.412500 1.478700
17.444300 1.480100
17.476000 1.476500
17.507800 1.494200
17.539600 1.509300
17.571400 1.494400
17.603200 1.492600
17.634900 1.508100
17.666700 1.489700
17.698500 1.477000
17.730300 1.430500
17.762100 1.408000
17.793800 1.397700
17.825600 1.404900
17.857400 1.434300
17.889200 1.481500
17.921000 1.516700
17.952700 1.557500
17.984500 1.608000
18.016300 1.681500
18.048100 1.705100
18.079800 1.779000
18.111600 1.706500
18.143400 1.690000
18.175200 1.684800
18.207000 1.694200
18.238700 1.693700
18.270500 1.689000
18.302300 1.691100
18.334100 1.704100
18.365900 1.719800
18.397600 1.738700
18.429400 1.802500
18.461200 1.836600
18.493000 1.816400
18.524700 1.818400
18.556500 1.860500
18.588300 1.888500
18.620100 1.859900
18.651900 1.815400
18.683600 1.785300
18.715400 1.771400
18.747200 1.705100
18.779000 1.711600
18.810800 1.719600
18.842500 1.658700
18.874300 1.605300
18.906100 1.589700
18.937900 1.585900
18.969600 1.616100
19.001400 1.584300
19.033200 1.596300
19.065000 1.620400
19.096800 1.660400
19.128500 1.737200
19.160300 1.787600
19.192100 1.790600
19.223900 1.715100
19.255700 1.672200
19.287400 1.646400
19.319200 1.647200
19.351000 1.646000
19.382800 1.656700
19.414500 1.662900
19.446300 1.659800
19.478100 1.651400
19.509900 1.654300
19.541700 1.671700
19.573400 1.647200
19.605200 1.682900
19.637000 1.735700
19.668800 1.706600
19.700600 1.697900
19.732300 1.699300
19.764100 1.697300
19.795900 1.673100
19.827700 1.668000
19.859400 1.683800
19.891200 1.705900
19.923000 1.728300
19.954800 1.761900
19.986600 1.803900
20.018300 1.855900
20.050100 1.882900
20.081900 1.927400
20.113700 1.943700
20.145500 1.952200
20.177200 1.954100
20.209000 1.949600
20.240800 1.922400
20.272600 1.944500
20.304400 1.971200
20.336100 2.050100
20.367900 2.120000
20.399700 2.173900
20.431500 2.129100
20.463200 2.140100
20.495000 2.182300
20.526800 2.146100
20.558600 1.935700
20.590400 1.820800
20.622100 1.737700
20.653900 1.683500
20.685700 1.603200
20.717500 1.536700
20.749300 1.456100
20.781000 1.418300
20.812800 1.398700
20.844600 1.408700
20.876400 1.439700
20.908100 1.519000
20.939900 1.606300
20.971700 1.667100
21.003500 1.658200
21.035300 1.673000
21.067000 1.661400
21.098800 1.692100
21.130600 1.716300
21.162400 1.719800
21.194200 1.737000
21.225900 1.753500
