set title 'mp-1096851 - Density of States'
set xlabel 'Energy (eV)'
set ylabel 'DOS (states/eV)'
set grid
set xrange [-10:10]
set yrange [0:2.031]
set xzeroaxis lt -1
set terminal png size 800,600
set output 'mp-1096851_dos_gnuplot.png'
plot '-' using 1:2 with lines title 'DOS'
-9.673100 0.000000
-9.652400 0.000000
-9.631700 0.000000
-9.610900 0.000000
-9.590200 0.000000
-9.569500 0.000000
-9.548800 0.000000
-9.528100 0.000000
-9.507300 0.000000
-9.486600 0.000000
-9.465900 0.000000
-9.445200 0.000000
-9.424500 0.000000
-9.403700 0.000000
-9.383000 0.000000
-9.362300 0.000000
-9.341600 0.000000
-9.320900 0.000000
-9.300100 0.000000
-9.279400 0.000000
-9.258700 0.000000
-9.238000 0.000000
-9.217300 0.000000
-9.196600 0.000000
-9.175800 0.000000
-9.155100 0.000000
-9.134400 0.000000
-9.113700 0.000000
-9.093000 0.000000
-9.072200 0.000000
-9.051500 0.000000
-9.030800 0.000000
-9.010100 0.000000
-8.989400 0.000000
-8.968600 0.000000
-8.947900 0.000000
-8.927200 0.000000
-8.906500 0.000000
-8.885800 0.000000
-8.865000 0.000000
-8.844300 0.000000
-8.823600 0.000000
-8.802900 0.000000
-8.782200 0.000000
-8.761400 0.000000
-8.740700 0.000000
-8.720000 0.000000
-8.699300 0.000000
-8.678600 0.000000
-8.657800 0.000000
-8.637100 0.000000
-8.616400 0.000000
-8.595700 0.000000
-8.575000 0.000000
-8.554300 0.000000
-8.533500 0.000000
-8.512800 0.000000
-8.492100 0.000000
-8.471400 0.000000
-8.450700 0.000000
-8.429900 0.000000
-8.409200 0.000000
-8.388500 0.000000
-8.367800 0.000000
-8.347100 0.000000
-8.326300 0.000000
-8.305600 0.000000
-8.284900 0.000000
-8.264200 0.000000
-8.243500 0.000000
-8.222700 0.000000
-8.202000 0.000000
-8.181300 0.000000
-8.160600 0.000000
-8.139900 0.000000
-8.119100 0.000000
-8.098400 0.000000
-8.077700 0.000000
-8.057000 0.000000
-8.036300 0.000000
-8.015600 0.000000
-7.994800 0.000000
-7.974100 0.000000
-7.953400 0.000000
-7.932700 0.000000
-7.912000 0.000000
-7.891200 0.000000
-7.870500 0.000000
-7.849800 0.000000
-7.829100 0.000000
-7.808400 0.000000
-7.787600 0.000100
-7.766900 0.014800
-7.746200 0.054200
-7.725500 0.113200
-7.704800 0.163000
-7.684000 0.188500
-7.663300 0.195700
-7.642600 0.205200
-7.621900 0.222800
-7.601200 0.246600
-7.580400 0.269900
-7.559700 0.291100
-7.539000 0.310200
-7.518300 0.325900
-7.497600 0.337200
-7.476800 0.345300
-7.456100 0.354600
-7.435400 0.366500
-7.414700 0.380400
-7.394000 0.394200
-7.373300 0.407700
-7.352500 0.420200
-7.331800 0.431800
-7.311100 0.443300
-7.290400 0.455700
-7.269700 0.469100
-7.248900 0.483300
-7.228200 0.515800
-7.207500 0.562500
-7.186800 0.597900
-7.166100 0.597200
-7.145300 0.585500
-7.124600 0.579700
-7.103900 0.587600
-7.083200 0.595100
-7.062500 0.602000
-7.041700 0.605900
-7.021000 0.607700
-7.000300 0.609700
-6.979600 0.610600
-6.958900 0.611900
-6.938100 0.614900
-6.917400 0.620100
-6.896700 0.625300
-6.876000 0.630500
-6.855300 0.635600
-6.834600 0.674500
-6.813800 0.722500
-6.793100 0.761200
-6.772400 0.767200
-6.751700 0.770500
-6.731000 0.782900
-6.710200 0.802100
-6.689500 0.821100
-6.668800 0.839200
-6.648100 0.853800
-6.627400 0.869200
-6.606600 0.884600
-6.585900 0.904700
-6.565200 0.933600
-6.544500 0.973000
-6.523800 1.013500
-6.503000 1.042800
-6.482300 1.056100
-6.461600 1.055600
-6.440900 1.052500
-6.420200 1.054100
-6.399400 1.062400
-6.378700 1.074000
-6.358000 1.086000
-6.337300 1.095700
-6.316600 1.102500
-6.295900 1.105000
-6.275100 1.105600
-6.254400 1.108800
-6.233700 1.115200
-6.213000 1.123300
-6.192300 1.131600
-6.171500 1.139800
-6.150800 1.147600
-6.130100 1.155400
-6.109400 1.163300
-6.088700 1.171500
-6.067900 1.181200
-6.047200 1.207000
-6.026500 1.239900
-6.005800 1.272300
-5.985100 1.293600
-5.964300 1.297200
-5.943600 1.296600
-5.922900 1.296400
-5.902200 1.297000
-5.881500 1.294000
-5.860700 1.291300
-5.840000 1.294500
-5.819300 1.300100
-5.798600 1.302500
-5.777900 1.303600
-5.757100 1.304200
-5.736400 1.305000
-5.715700 1.309100
-5.695000 1.314500
-5.674300 1.324000
-5.653600 1.345600
-5.632800 1.368400
-5.612100 1.389600
-5.591400 1.403200
-5.570700 1.396200
-5.550000 1.425400
-5.529200 1.450300
-5.508500 1.459000
-5.487800 1.437700
-5.467100 1.418200
-5.446400 1.415100
-5.425600 1.412800
-5.404900 1.409300
-5.384200 1.405200
-5.363500 1.397900
-5.342800 1.391800
-5.322000 1.382500
-5.301300 1.374900
-5.280600 1.369500
-5.259900 1.365000
-5.239200 1.360400
-5.218400 1.355700
-5.197700 1.351000
-5.177000 1.345900
-5.156300 1.339300
-5.135600 1.331700
-5.114900 1.323000
-5.094100 1.314800
-5.073400 1.306900
-5.052700 1.340800
-5.032000 1.319100
-5.011300 1.270600
-4.990500 1.264600
-4.969800 1.257900
-4.949100 1.249900
-4.928400 1.241700
-4.907700 1.233700
-4.886900 1.227200
-4.866200 1.218000
-4.845500 1.218100
-4.824800 1.219300
-4.804100 1.219200
-4.783300 1.216000
-4.762600 1.209600
-4.741900 1.198900
-4.721200 1.239700
-4.700500 1.217900
-4.679700 1.156200
-4.659000 1.132900
-4.638300 1.117300
-4.617600 1.105500
-4.596900 1.094900
-4.576100 1.083500
-4.555400 1.071300
-4.534700 1.050800
-4.514000 1.037700
-4.493300 1.025100
-4.472600 1.013000
-4.451800 1.001500
-4.431100 0.990200
-4.410400 0.978700
-4.389700 0.966500
-4.369000 0.968200
-4.348200 0.968900
-4.327500 0.963700
-4.306800 0.951700
-4.286100 0.923600
-4.265400 0.891800
-4.244600 0.862400
-4.223900 0.847500
-4.203200 0.833100
-4.182500 0.818600
-4.161800 0.804300
-4.141000 0.788500
-4.120300 0.772400
-4.099600 0.767100
-4.078900 0.759600
-4.058200 0.747100
-4.037400 0.729800
-4.016700 0.711700
-3.996000 0.679000
-3.975300 0.641300
-3.954600 0.611500
-3.933900 0.592300
-3.913100 0.572300
-3.892400 0.552700
-3.871700 0.548600
-3.851000 0.525700
-3.830300 0.504800
-3.809500 0.487200
-3.788800 0.445500
-3.768100 0.441400
-3.747400 0.434100
-3.726700 0.426100
-3.705900 0.418000
-3.685200 0.409400
-3.664500 0.400900
-3.643800 0.392500
-3.623100 0.384200
-3.602300 0.376000
-3.581600 0.368700
-3.560900 0.361400
-3.540200 0.372700
-3.519500 0.364600
-3.498700 0.356200
-3.478000 0.347500
-3.457300 0.307600
-3.436600 0.299100
-3.415900 0.290400
-3.395100 0.281900
-3.374400 0.273400
-3.353700 0.265000
-3.333000 0.256700
-3.312300 0.248700
-3.291600 0.240800
-3.270800 0.233100
-3.250100 0.225500
-3.229400 0.217900
-3.208700 0.210300
-3.188000 0.203100
-3.167200 0.196400
-3.146500 0.189800
-3.125800 0.184000
-3.105100 0.178200
-3.084400 0.171500
-3.063600 0.164800
-3.042900 0.157900
-3.022200 0.149900
-3.001500 0.141400
-2.980800 0.132400
-2.960000 0.123100
-2.939300 0.113900
-2.918600 0.104900
-2.897900 0.100000
-2.877200 0.094800
-2.856400 0.089200
-2.835700 0.083000
-2.815000 0.072100
-2.794300 0.054400
-2.773600 0.036700
-2.752900 0.021000
-2.732100 0.007200
-2.711400 0.000000
-2.690700 0.000000
-2.670000 0.000000
-2.649300 0.000000
-2.628500 0.000000
-2.607800 0.000000
-2.587100 0.000000
-2.566400 0.000000
-2.545700 0.000000
-2.524900 0.000000
-2.504200 0.000000
-2.483500 0.000000
-2.462800 0.000000
-2.442100 0.000000
-2.421300 0.000000
-2.400600 0.000000
-2.379900 0.000000
-2.359200 0.000000
-2.338500 0.000000
-2.317700 0.000000
-2.297000 0.000000
-2.276300 0.000000
-2.255600 0.000000
-2.234900 0.000000
-2.214200 0.000000
-2.193400 0.000000
-2.172700 0.000000
-2.152000 0.000000
-2.131300 0.000000
-2.110600 0.000000
-2.089800 0.000000
-2.069100 0.000000
-2.048400 0.000000
-2.027700 0.000000
-2.007000 0.000000
-1.986200 0.000000
-1.965500 0.000000
-1.944800 0.000000
-1.924100 0.000000
-1.903400 0.000000
-1.882600 0.000000
-1.861900 0.000000
-1.841200 0.000000
-1.820500 0.000000
-1.799800 0.000000
-1.779000 0.000000
-1.758300 0.000000
-1.737600 0.000000
-1.716900 0.000000
-1.696200 0.000000
-1.675400 0.000000
-1.654700 0.000000
-1.634000 0.000000
-1.613300 0.000000
-1.592600 0.000000
-1.571900 0.000000
-1.551100 0.000000
-1.530400 0.000000
-1.509700 0.000000
-1.489000 0.000000
-1.468300 0.000000
-1.447500 0.000000
-1.426800 0.000000
-1.406100 0.000000
-1.385400 0.000000
-1.364700 0.000000
-1.343900 0.000000
-1.323200 0.000000
-1.302500 0.000000
-1.281800 0.000000
-1.261100 0.000000
-1.240300 0.000000
-1.219600 0.000000
-1.198900 0.000000
-1.178200 0.000000
-1.157500 0.000000
-1.136700 0.000000
-1.116000 0.000000
-1.095300 0.000000
-1.074600 0.000000
-1.053900 0.000000
-1.033200 0.000000
-1.012400 0.000000
-0.991700 0.000000
-0.971000 0.000000
-0.950300 0.000000
-0.929600 0.000000
-0.908800 0.000000
-0.888100 0.000000
-0.867400 0.000000
-0.846700 0.000000
-0.826000 0.000000
-0.805200 0.000000
-0.784500 0.000000
-0.763800 0.000000
-0.743100 0.000000
-0.722400 0.000000
-0.701600 0.000000
-0.680900 0.000000
-0.660200 0.000000
-0.639500 0.000000
-0.618800 0.000000
-0.598000 0.000000
-0.577300 0.000000
-0.556600 0.000000
-0.535900 0.000000
-0.515200 0.000000
-0.494400 0.000000
-0.473700 0.000000
-0.453000 0.000000
-0.432300 0.000000
-0.411600 0.000000
-0.390900 0.000000
-0.370100 0.000000
-0.349400 0.000000
-0.328700 0.000000
-0.308000 0.000000
-0.287300 0.000000
-0.266500 0.000000
-0.245800 0.000000
-0.225100 0.000000
-0.204400 0.000000
-0.183700 0.000000
-0.162900 0.000000
-0.142200 0.000000
-0.121500 0.000000
-0.100800 0.000000
-0.080100 0.000000
-0.059300 0.000000
-0.038600 0.000000
-0.017900 0.000000
0.002800 0.000000
0.023500 0.000000
0.044300 0.000000
0.065000 0.000000
0.085700 0.000000
0.106400 0.000000
0.127100 0.000000
0.147800 0.000000
0.168600 0.000000
0.189300 0.000000
0.210000 0.000000
0.230700 0.000000
0.251400 0.000000
0.272200 0.000000
0.292900 0.000000
0.313600 0.000000
0.334300 0.000000
0.355000 0.000000
0.375800 0.001500
0.396500 0.007200
0.417200 0.016900
0.437900 0.028300
0.458600 0.038600
0.479400 0.047600
0.500100 0.056200
0.520800 0.208800
0.541500 0.292900
0.562200 0.309500
0.583000 0.283600
0.603700 0.299000
0.624400 0.332900
0.645100 0.365500
0.665800 0.397600
0.686600 0.429500
0.707300 0.454400
0.728000 0.466400
0.748700 0.486800
0.769400 0.558300
0.790100 0.572300
0.810900 0.549100
0.831600 0.562400
0.852300 0.575700
0.873000 0.589600
0.893700 0.603900
0.914500 0.618000
0.935200 0.630900
0.955900 0.632400
0.976600 0.644600
0.997300 0.658000
1.018100 0.671300
1.038800 0.684900
1.059500 0.697600
1.080200 0.708200
1.100900 0.775100
1.121700 0.802600
1.142400 0.830400
1.163100 0.817500
1.183800 0.832300
1.204500 0.848900
1.225300 0.865100
1.246000 0.880900
1.266700 0.897200
1.287400 0.913800
1.308100 0.923100
1.328800 0.938800
1.349600 0.949900
1.370300 0.959800
1.391000 0.970300
1.411700 0.994700
1.432400 1.019900
1.453200 1.034700
1.473900 1.037600
1.494600 1.037100
1.515300 1.049000
1.536000 1.074500
1.556800 1.099700
1.577500 1.122700
1.598200 1.142000
1.618900 1.162000
1.639600 1.182500
1.660400 1.204000
1.681100 1.226700
1.701800 1.253700
1.722500 1.284500
1.743200 1.333500
1.764000 1.407900
1.784700 1.450800
1.805400 1.482000
1.826100 1.509000
1.846800 1.454100
1.867500 1.452100
1.888300 1.461900
1.909000 1.468500
1.929700 1.475800
1.950400 1.487800
1.971100 1.518800
1.991900 1.565900
2.012600 1.588600
2.033300 1.585400
2.054000 1.571400
2.074700 1.531400
2.095500 1.537700
2.116200 1.542800
2.136900 1.548300
2.157600 1.553300
2.178300 1.558000
2.199100 1.563500
2.219800 1.571700
2.240500 1.580400
2.261200 1.591000
2.281900 1.602500
2.302700 1.613700
2.323400 1.628000
2.344100 1.618000
2.364800 1.604600
2.385500 1.589600
2.406300 1.553900
2.427000 1.554200
2.447700 1.557800
2.468400 1.565400
2.489100 1.570900
2.509800 1.571300
2.530600 1.568600
2.551300 1.577600
2.572000 1.590900
2.592700 1.599500
2.613400 1.591300
2.634200 1.579400
2.654900 1.566800
2.675600 1.558800
2.696300 1.569100
2.717000 1.617800
2.737800 1.660200
2.758500 1.666900
2.779200 1.702500
2.799900 1.757300
2.820600 1.800700
2.841400 1.804400
2.862100 1.793600
2.882800 1.783000
2.903500 1.782900
2.924200 1.808600
2.945000 1.846800
2.965700 1.819300
2.986400 1.812800
3.007100 1.808300
3.027800 1.768600
3.048500 1.750900
3.069300 1.763900
3.090000 1.777900
3.110700 1.791600
3.131400 1.794100
3.152100 1.776200
3.172900 1.739200
3.193600 1.692700
3.214300 1.640600
3.235000 1.575400
3.255700 1.520600
3.276500 1.567200
3.297200 1.537600
3.317900 1.479100
3.338600 1.423700
3.359300 1.416800
3.380100 1.427500
3.400800 1.459600
3.421500 1.492300
3.442200 1.519800
3.462900 1.534400
3.483700 1.529500
3.504400 1.541600
3.525100 1.552800
3.545800 1.561500
3.566500 1.562500
3.587300 1.568400
3.608000 1.586200
3.628700 1.592300
3.649400 1.583800
3.670100 1.549800
3.690800 1.499500
3.711600 1.428400
3.732300 1.368500
3.753000 1.328100
3.773700 1.311200
3.794400 1.314500
3.815200 1.333100
3.835900 1.349400
3.856600 1.369100
3.877300 1.392800
3.898000 1.421400
3.918800 1.457600
3.939500 1.487700
3.960200 1.507900
3.980900 1.514200
4.001600 1.446000
4.022400 1.433700
4.043100 1.430900
4.063800 1.425600
4.084500 1.418100
4.105200 1.423900
4.126000 1.433500
4.146700 1.442600
4.167400 1.445000
4.188100 1.439400
4.208800 1.402300
4.229500 1.368500
4.250300 1.338600
4.271000 1.324800
4.291700 1.370500
4.312400 1.421100
4.333100 1.504400
4.353900 1.469900
4.374600 1.438600
4.395300 1.419400
4.416000 1.407400
4.436700 1.401500
4.457500 1.407000
4.478200 1.462800
4.498900 1.492700
4.519600 1.462700
4.540300 1.423100
4.561100 1.410300
4.581800 1.416800
4.602500 1.414500
4.623200 1.401400
4.643900 1.373300
4.664700 1.342500
4.685400 1.260000
4.706100 1.253000
4.726800 1.242100
4.747500 1.225600
4.768200 1.210500
4.789000 1.227700
4.809700 1.227200
4.830400 1.218300
4.851100 1.220300
4.871800 1.215400
4.892600 1.195400
4.913300 1.160300
4.934000 1.137200
4.954700 1.128300
4.975400 1.118100
4.996200 1.109800
5.016900 1.104500
5.037600 1.100600
5.058300 1.100900
5.079000 1.103600
5.099800 1.108200
5.120500 1.109700
5.141200 1.112100
5.161900 1.115700
5.182600 1.116600
5.203400 1.180000
5.224100 1.182900
5.244800 1.193200
5.265500 1.159800
5.286200 1.162300
5.307000 1.164000
5.327700 1.164400
5.348400 1.162100
5.369100 1.158100
5.389800 1.154000
5.410500 1.144600
5.431300 1.141400
5.452000 1.137800
5.472700 1.139900
5.493400 1.140800
5.514100 1.139000
5.534900 1.139100
5.555600 1.137800
5.576300 1.134300
5.597000 1.133800
5.617700 1.143300
5.638500 1.147000
5.659200 1.167000
5.679900 1.182600
5.700600 1.194900
5.721300 1.204100
5.742100 1.200200
5.762800 1.197100
5.783500 1.227100
5.804200 1.248800
5.824900 1.261700
5.845700 1.240200
5.866400 1.240100
5.887100 1.182200
5.907800 1.171600
5.928500 1.173700
5.949200 1.161200
5.970000 1.152800
5.990700 1.140300
6.011400 1.126300
6.032100 1.111200
6.052800 1.096000
6.073600 1.086300
6.094300 1.084700
6.115000 1.083400
6.135700 1.080400
6.156400 1.078300
6.177200 1.088000
6.197900 1.103600
6.218600 1.106800
6.239300 1.069200
6.260000 1.071300
6.280800 1.075800
6.301500 1.081400
6.322200 1.087200
6.342900 1.092900
6.363600 1.098300
6.384400 1.102900
6.405100 1.107700
6.425800 1.110700
6.446500 1.119800
6.467200 1.137900
6.488000 1.136100
6.508700 1.185800
6.529400 1.177900
6.550100 1.140800
6.570800 1.104400
6.591500 1.105200
6.612300 1.107200
6.633000 1.107400
6.653700 1.107800
6.674400 1.112900
6.695100 1.119700
6.715900 1.099800
6.736600 1.110200
6.757300 1.120300
6.778000 1.130800
6.798700 1.146800
6.819500 1.168100
6.840200 1.189900
6.860900 1.180400
6.881600 1.173600
6.902300 1.168000
6.923100 1.170900
6.943800 1.181200
6.964500 1.216900
6.985200 1.265900
7.005900 1.278200
7.026700 1.284600
7.047400 1.291500
7.068100 1.301100
7.088800 1.312500
7.109500 1.325100
7.130200 1.338000
7.151000 1.352200
7.171700 1.366900
7.192400 1.380500
7.213100 1.387600
7.233800 1.400200
7.254600 1.413700
7.275300 1.431300
7.296000 1.451300
7.316700 1.460500
7.337400 1.460500
7.358200 1.474100
7.378900 1.471900
7.399600 1.447900
7.420300 1.399500
7.441000 1.350400
7.461800 1.319200
7.482500 1.334700
7.503200 1.294100
7.523900 1.262000
7.544600 1.248400
7.565400 1.240000
7.586100 1.232200
7.606800 1.228100
7.627500 1.226400
7.648200 1.227700
7.669000 1.225900
7.689700 1.227000
7.710400 1.231900
7.731100 1.240800
7.751800 1.250600
7.772500 1.283300
7.793300 1.299700
7.814000 1.315600
7.834700 1.330400
7.855400 1.341800
7.876100 1.321900
7.896900 1.314300
7.917600 1.325400
7.938300 1.338200
7.959000 1.352600
7.979700 1.367000
8.000500 1.382400
8.021200 1.394900
8.041900 1.406000
8.062600 1.421500
8.083300 1.439000
8.104100 1.456600
8.124800 1.469600
8.145500 1.481400
8.166200 1.494600
8.186900 1.499200
8.207700 1.498000
8.228400 1.491300
8.249100 1.473300
8.269800 1.482700
8.290500 1.480600
8.311200 1.483900
8.332000 1.497700
8.352700 1.518300
8.373400 1.536200
8.394100 1.551100
8.414800 1.565300
8.435600 1.578500
8.456300 1.606300
8.477000 1.536700
8.497700 1.503900
8.518400 1.478100
8.539200 1.480100
8.559900 1.495700
8.580600 1.519900
8.601300 1.526400
8.622000 1.528900
8.642800 1.563400
8.663500 1.600900
8.684200 1.603300
8.704900 1.602400
8.725600 1.570400
8.746400 1.523300
8.767100 1.485300
8.787800 1.453800
8.808500 1.424400
8.829200 1.410900
8.849900 1.398600
8.870700 1.387500
8.891400 1.407900
8.912100 1.448000
8.932800 1.489900
8.953500 1.505300
8.974300 1.500500
8.995000 1.488700
9.015700 1.473300
9.036400 1.449700
9.057100 1.432600
9.077900 1.409500
9.098600 1.395400
9.119300 1.384200
9.140000 1.378200
9.160700 1.380000
9.181500 1.372700
9.202200 1.358100
9.222900 1.333100
9.243600 1.304300
9.264300 1.283100
9.285100 1.262800
9.305800 1.241300
9.326500 1.204600
9.347200 1.151200
9.367900 1.097300
9.388700 1.073300
9.409400 1.064400
9.430100 1.076100
9.450800 1.104400
9.471500 1.139800
9.492200 1.176900
9.513000 1.222300
9.533700 1.283400
9.554400 1.297200
9.575100 1.323900
9.595800 1.337200
9.616600 1.322500
9.637300 1.305300
9.658000 1.292900
9.678700 1.286200
9.699400 1.284400
9.720200 1.281500
9.740900 1.282700
9.761600 1.282000
9.782300 1.284300
9.803000 1.289400
9.823800 1.296600
9.844500 1.300400
9.865200 1.300300
9.885900 1.301500
9.906600 1.304800
9.927400 1.304500
9.948100 1.303300
9.968800 1.298500
9.989500 1.290800
10.010200 1.286000
10.030900 1.267900
10.051700 1.234400
10.072400 1.206400
10.093100 1.194600
10.113800 1.189700
10.134500 1.197400
10.155300 1.211100
10.176000 1.228100
10.196700 1.273400
10.217400 1.270900
10.238100 1.280800
10.258900 1.257200
10.279600 1.256700
10.300300 1.254600
10.321000 1.252700
10.341700 1.251800
10.362500 1.251300
10.383200 1.238000
10.403900 1.232300
10.424600 1.229200
10.445300 1.218100
10.466100 1.202400
10.486800 1.184000
10.507500 1.158500
10.528200 1.127500
10.548900 1.077700
10.569700 1.062800
10.590400 1.051600
10.611100 1.057400
10.631800 1.074600
10.652500 1.087900
10.673200 1.101300
10.694000 1.116900
10.714700 1.134900
10.735400 1.158700
10.756100 1.179600
10.776800 1.193300
10.797600 1.198500
10.818300 1.196500
10.839000 1.194300
10.859700 1.193700
10.880400 1.187300
10.901200 1.177200
10.921900 1.167100
10.942600 1.164700
10.963300 1.165300
10.984000 1.160900
11.004800 1.155600
11.025500 1.154400
11.046200 1.151100
11.066900 1.151000
11.087600 1.153100
11.108400 1.149700
11.129100 1.139200
11.149800 1.131300
11.170500 1.132500
11.191200 1.140100
11.211900 1.149700
11.232700 1.158300
11.253400 1.226800
11.274100 1.306300
11.294800 1.341000
11.315500 1.330300
11.336300 1.356200
11.357000 1.382300
11.377700 1.361900
11.398400 1.377600
11.419100 1.386200
11.439900 1.394100
11.460600 1.419900
11.481300 1.378500
11.502000 1.358200
11.522700 1.349600
11.543500 1.337200
11.564200 1.321600
11.584900 1.307600
11.605600 1.295200
11.626300 1.283100
11.647100 1.275300
11.667800 1.263600
11.688500 1.250000
11.709200 1.248000
11.729900 1.239500
11.750700 1.229500
11.771400 1.225600
11.792100 1.232100
11.812800 1.241800
11.833500 1.249000
11.854200 1.250500
11.875000 1.251700
11.895700 1.255400
11.916400 1.271000
11.937100 1.324700
11.957800 1.358800
11.978600 1.388800
11.999300 1.424300
12.020000 1.443500
12.040700 1.475500
12.061400 1.526400
12.082200 1.535800
12.102900 1.541300
12.123600 1.549300
12.144300 1.584700
12.165000 1.583500
12.185800 1.642000
12.206500 1.620000
12.227200 1.603700
12.247900 1.561100
12.268600 1.548800
12.289400 1.541800
12.310100 1.552200
12.330800 1.560800
