set title 'mp-673171 - Density of States'
set xlabel 'Energy (eV)'
set ylabel 'DOS (states/eV)'
set grid
set xrange [-10:10]
set yrange [0:1.483]
set xzeroaxis lt -1
set terminal png size 800,600
set output 'mp-673171_dos_gnuplot.png'
plot '-' using 1:2 with lines title 'DOS'
-18.792800 0.000000
-18.738500 0.000000
-18.684200 0.000000
-18.630000 0.000000
-18.575700 0.000000
-18.521400 0.000000
-18.467200 0.000000
-18.412900 0.000000
-18.358600 0.000000
-18.304400 0.000000
-18.250100 0.000000
-18.195800 0.000000
-18.141600 0.000000
-18.087300 0.000000
-18.033000 0.000000
-17.978800 0.000000
-17.924500 0.000000
-17.870200 0.000000
-17.816000 0.000000
-17.761700 0.000000
-17.707400 0.000000
-17.653200 0.000000
-17.598900 0.000000
-17.544600 0.000000
-17.490400 0.000000
-17.436100 0.000000
-17.381800 0.000000
-17.327600 0.000000
-17.273300 0.000000
-17.219000 0.000000
-17.164800 0.000000
-17.110500 0.000000
-17.056200 0.000000
-17.002000 0.000000
-16.947700 0.000000
-16.893400 0.000000
-16.839200 0.000000
-16.784900 0.000000
-16.730600 0.000000
-16.676400 0.000000
-16.622100 0.000000
-16.567800 0.000000
-16.513600 0.000000
-16.459300 0.000000
-16.405000 0.000000
-16.350800 0.000000
-16.296500 0.000000
-16.242200 0.000000
-16.188000 0.000000
-16.133700 0.000000
-16.079400 0.000000
-16.025200 0.000000
-15.970900 0.000000
-15.916600 0.000000
-15.862400 0.000000
-15.808100 0.000000
-15.753800 0.000000
-15.699600 0.000000
-15.645300 0.000000
-15.591000 0.000000
-15.536800 0.000000
-15.482500 0.000000
-15.428200 0.000000
-15.374000 0.000000
-15.319700 0.000000
-15.265400 0.000000
-15.211200 0.000000
-15.156900 0.000000
-15.102600 0.000000
-15.048400 0.000000
-14.994100 0.000000
-14.939800 0.000000
-14.885500 0.000000
-14.831300 0.000000
-14.777000 0.000000
-14.722700 0.000000
-14.668500 0.000000
-14.614200 0.000000
-14.559900 0.000000
-14.505700 0.000000
-14.451400 0.000000
-14.397100 0.000000
-14.342900 0.000000
-14.288600 0.000000
-14.234300 0.000000
-14.180100 0.000000
-14.125800 0.000000
-14.071500 0.000000
-14.017300 0.000000
-13.963000 0.000000
-13.908700 0.000000
-13.854500 0.022000
-13.800200 0.064600
-13.745900 0.082500
-13.691700 0.109200
-13.637400 0.123500
-13.583100 0.139800
-13.528900 0.162300
-13.474600 0.174700
-13.420300 0.191300
-13.366100 0.210400
-13.311800 0.228800
-13.257500 0.246400
-13.203300 0.266800
-13.149000 0.289100
-13.094700 0.311600
-13.040500 0.337600
-12.986200 0.364700
-12.931900 0.396500
-12.877700 0.431200
-12.823400 0.472300
-12.769100 0.522400
-12.714900 0.576300
-12.660600 0.651100
-12.606300 0.748100
-12.552100 0.887200
-12.497800 1.114500
-12.443500 1.583300
-12.389300 1.531000
-12.335000 1.615800
-12.280700 1.089100
-12.226500 0.651900
-12.172200 0.519600
-12.117900 0.434900
-12.063700 0.369500
-12.009400 0.313200
-11.955100 0.264900
-11.900900 0.229700
-11.846600 0.190600
-11.792300 0.157200
-11.738100 0.126600
-11.683800 0.089000
-11.629500 0.049300
-11.575300 0.000000
-11.521000 0.000000
-11.466700 0.000000
-11.412500 0.000000
-11.358200 0.000000
-11.303900 0.000000
-11.249700 0.000000
-11.195400 0.000000
-11.141100 0.000000
-11.086900 0.000000
-11.032600 0.000000
-10.978300 0.000000
-10.924100 0.000000
-10.869800 0.000000
-10.815500 0.000000
-10.761300 0.000000
-10.707000 0.000000
-10.652700 0.000000
-10.598500 0.000000
-10.544200 0.000000
-10.489900 0.000000
-10.435700 0.000000
-10.381400 0.000000
-10.327100 0.000000
-10.272800 0.000000
-10.218600 0.000000
-10.164300 0.000000
-10.110000 0.000000
-10.055800 0.000000
-10.001500 0.000000
-9.947200 0.000000
-9.893000 0.000000
-9.838700 0.000000
-9.784400 0.000000
-9.730200 0.000000
-9.675900 0.000000
-9.621600 0.000000
-9.567400 0.000000
-9.513100 0.000000
-9.458800 0.000000
-9.404600 0.000000
-9.350300 0.000000
-9.296000 0.000000
-9.241800 0.000000
-9.187500 0.000000
-9.133200 0.000000
-9.079000 0.000000
-9.024700 0.000000
-8.970400 0.000000
-8.916200 0.000000
-8.861900 0.000000
-8.807600 0.000000
-8.753400 0.000000
-8.699100 0.000000
-8.644800 0.000000
-8.590600 0.000000
-8.536300 0.000000
-8.482000 0.000000
-8.427800 0.000000
-8.373500 0.000000
-8.319200 0.000000
-8.265000 0.000000
-8.210700 0.000000
-8.156400 0.000000
-8.102200 0.000000
-8.047900 0.000000
-7.993600 0.000000
-7.939400 0.000000
-7.885100 0.000000
-7.830800 0.000000
-7.776600 0.000000
-7.722300 0.000000
-7.668000 0.000000
-7.613800 0.000000
-7.559500 0.000000
-7.505200 0.000000
-7.451000 0.000000
-7.396700 0.000000
-7.342400 0.000000
-7.288200 0.000000
-7.233900 0.000000
-7.179600 0.000000
-7.125400 0.000000
-7.071100 0.000000
-7.016800 0.000000
-6.962600 0.000000
-6.908300 0.000000
-6.854000 0.000000
-6.799800 0.000000
-6.745500 0.000000
-6.691200 0.000000
-6.637000 0.000000
-6.582700 0.000000
-6.528400 0.000000
-6.474200 0.000000
-6.419900 0.000000
-6.365600 0.000000
-6.311400 0.000000
-6.257100 0.000000
-6.202800 0.000000
-6.148600 0.000000
-6.094300 0.000000
-6.040000 0.000000
-5.985800 0.000000
-5.931500 0.000000
-5.877200 0.000000
-5.823000 0.000000
-5.768700 0.000000
-5.714400 0.000000
-5.660100 0.000000
-5.605900 0.000000
-5.551600 0.000000
-5.497300 0.000000
-5.443100 0.000000
-5.388800 0.000000
-5.334500 0.000000
-5.280300 0.000000
-5.226000 0.000000
-5.171700 0.000000
-5.117500 0.000000
-5.063200 0.000000
-5.008900 0.000000
-4.954700 0.000000
-4.900400 0.000000
-4.846100 0.000000
-4.791900 0.000000
-4.737600 0.000000
-4.683300 0.000000
-4.629100 0.000000
-4.574800 0.000000
-4.520500 0.000000
-4.466300 0.000000
-4.412000 0.000000
-4.357700 0.000000
-4.303500 0.000000
-4.249200 0.000000
-4.194900 0.000000
-4.140700 0.000000
-4.086400 0.000000
-4.032100 0.000000
-3.977900 0.000000
-3.923600 0.000000
-3.869300 0.000000
-3.815100 0.000000
-3.760800 0.000000
-3.706500 0.000000
-3.652300 0.000000
-3.598000 0.000000
-3.543700 0.000000
-3.489500 0.000000
-3.435200 0.000000
-3.380900 0.000000
-3.326700 0.000000
-3.272400 0.000000
-3.218100 0.000000
-3.163900 0.000000
-3.109600 0.000000
-3.055300 0.000000
-3.001100 0.028500
-2.946800 0.120300
-2.892500 0.182700
-2.838300 0.236900
-2.784000 0.278800
-2.729700 0.309000
-2.675500 0.352300
-2.621200 0.399000
-2.566900 0.437700
-2.512700 0.487700
-2.458400 0.535500
-2.404100 0.599600
-2.349900 0.683000
-2.295600 0.832400
-2.241300 1.046400
-2.187100 0.943200
-2.132800 0.869100
-2.078500 0.771500
-2.024300 0.706700
-1.970000 0.643400
-1.915700 0.541100
-1.861500 0.504500
-1.807200 0.476500
-1.752900 0.452700
-1.698700 0.432900
-1.644400 0.413100
-1.590100 0.399900
-1.535900 0.387900
-1.481600 0.365100
-1.427300 0.343900
-1.373100 0.341300
-1.318800 0.328600
-1.264500 0.329100
-1.210200 0.343700
-1.156000 0.371500
-1.101700 0.419100
-1.047400 0.467300
-0.993200 0.525100
-0.938900 0.520000
-0.884600 0.502000
-0.830400 0.504800
-0.776100 0.508900
-0.721800 0.515600
-0.667600 0.524600
-0.613300 0.541000
-0.559000 0.543500
-0.504800 0.543600
-0.450500 0.543800
-0.396200 0.552700
-0.342000 0.556100
-0.287700 0.562100
-0.233400 0.574900
-0.179200 0.591400
-0.124900 0.592600
-0.070600 0.592000
-0.016400 0.598900
0.037900 0.608100
0.092200 0.616700
0.146400 0.638700
0.200700 0.645700
0.255000 0.653500
0.309200 0.664200
0.363500 0.698100
0.417800 0.696900
0.472000 0.726200
0.526300 0.734400
0.580600 0.741500
0.634800 0.688200
0.689100 0.664200
0.743400 0.640600
0.797600 0.631900
0.851900 0.627900
0.906200 0.653700
0.960400 0.675200
1.014700 0.685700
1.069000 0.698700
1.123200 0.714900
1.177500 0.750400
1.231800 0.794600
1.286000 0.858200
1.340300 1.184000
1.394600 1.348600
1.448800 1.176900
1.503100 1.020300
1.557400 0.944200
1.611600 0.896800
1.665900 0.833400
1.720200 0.783800
1.774400 0.741700
1.828700 0.656700
1.883000 0.477400
1.937200 0.382700
1.991500 0.289600
2.045800 0.265600
2.100000 0.000000
2.154300 0.000000
2.208600 0.000000
2.262800 0.000000
2.317100 0.000000
2.371400 0.000000
2.425600 0.000000
2.479900 0.000000
2.534200 0.000000
2.588400 0.000000
2.642700 0.000000
2.697000 0.000000
2.751200 0.000000
2.805500 0.000000
2.859800 0.000000
2.914000 0.000000
2.968300 0.000000
3.022600 0.000000
3.076800 0.000000
3.131100 0.000000
3.185400 0.000000
3.239600 0.000000
3.293900 0.000000
3.348200 0.000000
3.402500 0.000000
3.456700 0.000000
3.511000 0.000000
3.565300 0.000000
3.619500 0.000000
3.673800 0.000000
3.728100 0.000000
3.782300 0.000000
3.836600 0.000000
3.890900 0.000000
3.945100 0.000000
3.999400 0.000000
4.053700 0.000000
4.107900 0.000000
4.162200 0.000000
4.216500 0.000000
4.270700 0.000000
4.325000 0.000000
4.379300 0.000000
4.433500 0.000000
4.487800 0.000000
4.542100 0.000000
4.596300 0.000000
4.650600 0.000000
4.704900 0.000000
4.759100 0.000000
4.813400 0.000000
4.867700 0.000000
4.921900 0.000000
4.976200 0.000000
5.030500 0.000000
5.084700 0.000000
5.139000 0.000000
5.193300 0.000000
5.247500 0.000000
5.301800 0.000000
5.356100 0.000000
5.410300 0.000000
5.464600 0.000000
5.518900 0.000000
5.573100 0.000000
5.627400 0.000000
5.681700 0.000000
5.735900 0.000000
5.790200 0.000000
5.844500 0.000000
5.898700 0.000000
5.953000 0.000000
6.007300 0.000000
6.061500 0.000000
6.115800 0.000000
6.170100 0.000000
6.224300 0.000000
6.278600 0.000000
6.332900 0.000000
6.387100 0.000000
6.441400 0.000000
6.495700 0.000000
6.549900 0.000000
6.604200 0.000000
6.658500 0.000000
6.712700 0.000000
6.767000 0.000000
6.821300 0.000000
6.875500 0.000000
6.929800 0.000000
6.984100 0.000000
7.038300 0.000000
7.092600 0.000000
7.146900 0.000000
7.201100 0.000000
7.255400 0.000000
7.309700 0.000000
7.363900 0.000000
7.418200 0.000000
7.472500 0.000000
7.526700 0.000000
7.581000 0.000000
7.635300 0.000000
7.689500 0.000000
7.743800 0.000000
7.798100 0.000000
7.852300 0.000000
7.906600 0.000000
7.960900 0.000000
8.015200 0.006400
8.069400 0.010600
8.123700 0.022400
8.178000 0.029600
8.232200 0.033700
8.286500 0.036200
8.340800 0.040700
8.395000 0.045200
8.449300 0.049500
8.503600 0.053800
8.557800 0.059700
8.612100 0.062500
8.666400 0.063300
8.720600 0.062700
8.774900 0.066200
8.829200 0.069800
8.883400 0.073600
8.937700 0.076700
8.992000 0.080700
9.046200 0.084700
9.100500 0.088700
9.154800 0.093400
9.209000 0.125200
9.263300 0.146700
9.317600 0.163900
9.371800 0.179600
9.426100 0.197800
9.480400 0.216100
9.534600 0.229600
9.588900 0.249000
9.643200 0.271300
9.697400 0.294600
9.751700 0.314400
9.806000 0.330800
9.860200 0.363200
9.914500 0.397900
9.968800 0.449700
10.023000 0.471900
10.077300 0.486500
10.131600 0.498600
10.185800 0.497900
10.240100 0.500000
10.294400 0.508200
10.348600 0.516300
10.402900 0.521400
10.457200 0.527400
10.511400 0.539400
10.565700 0.558500
10.620000 0.594300
10.674200 0.637300
10.728500 0.678400
10.782800 0.751700
10.837000 0.746800
10.891300 0.682300
10.945600 0.615800
10.999800 0.525100
11.054100 0.478800
11.108400 0.439300
11.162600 0.397700
11.216900 0.351600
11.271200 0.395600
11.325400 0.393000
11.379700 0.393800
11.434000 0.412900
11.488200 0.427500
11.542500 0.463600
11.596800 0.497000
11.651000 0.544600
11.705300 0.599300
11.759600 0.652700
11.813800 0.710700
11.868100 0.797700
11.922400 0.939000
11.976600 1.000400
12.030900 1.030400
12.085200 1.019000
12.139400 0.976900
12.193700 0.913700
12.248000 0.815000
12.302200 0.733400
12.356500 0.657300
12.410800 0.579400
12.465100 0.506300
12.519300 0.442800
12.573600 0.378800
12.627900 0.326900
12.682100 0.291200
12.736400 0.260600
12.790700 0.252700
12.844900 0.248200
12.899200 0.251600
12.953500 0.262100
13.007700 0.275800
13.062000 0.281700
13.116300 0.307300
13.170500 0.339200
13.224800 0.380100
13.279100 0.431900
13.333300 0.483300
13.387600 0.530300
13.441900 0.571600
13.496100 0.593800
13.550400 0.574500
13.604700 0.549400
13.658900 0.532500
13.713200 0.515700
13.767500 0.497800
13.821700 0.477500
13.876000 0.487500
13.930300 0.451300
13.984500 0.462200
14.038800 0.451900
14.093100 0.430000
14.147300 0.397100
14.201600 0.376600
14.255900 0.361800
14.310100 0.357500
14.364400 0.369900
14.418700 0.360200
14.472900 0.365500
14.527200 0.373300
14.581500 0.394800
14.635700 0.388700
14.690000 0.400900
14.744300 0.411100
14.798500 0.418000
14.852800 0.423600
14.907100 0.427500
14.961300 0.432600
15.015600 0.442100
15.069900 0.436500
15.124100 0.435100
15.178400 0.441700
15.232700 0.453100
15.286900 0.477700
15.341200 0.480900
15.395500 0.481800
15.449700 0.485700
15.504000 0.483100
15.558300 0.488200
15.612500 0.494800
15.666800 0.501200
15.721100 0.509800
15.775300 0.504300
15.829600 0.484800
15.883900 0.493300
15.938100 0.497800
15.992400 0.487100
16.046700 0.478500
16.100900 0.465000
16.155200 0.458200
16.209500 0.452500
16.263700 0.446400
16.318000 0.446900
16.372300 0.437100
16.426500 0.461100
16.480800 0.472100
16.535100 0.472700
16.589300 0.475700
16.643600 0.475900
16.697900 0.484200
16.752100 0.480600
16.806400 0.469900
16.860700 0.447100
16.914900 0.445500
16.969200 0.456600
17.023500 0.441800
17.077800 0.464500
17.132000 0.443700
17.186300 0.437800
17.240600 0.430300
17.294800 0.422900
17.349100 0.425100
17.403400 0.424300
17.457600 0.435000
17.511900 0.428500
17.566200 0.427100
17.620400 0.433000
17.674700 0.437400
17.729000 0.439800
17.783200 0.428000
17.837500 0.397600
17.891800 0.384700
17.946000 0.372200
18.000300 0.365000
18.054600 0.376400
18.108800 0.377700
18.163100 0.379200
18.217400 0.382800
18.271600 0.379900
18.325900 0.386900
18.380200 0.396100
18.434400 0.401600
18.488700 0.410300
18.543000 0.425400
18.597200 0.443500
18.651500 0.460900
18.705800 0.478500
18.760000 0.503900
18.814300 0.555500
18.868600 0.586600
18.922800 0.664100
18.977100 0.757800
19.031400 0.780900
19.085600 0.754800
19.139900 0.754200
19.194200 0.765900
19.248400 0.751500
19.302700 0.631500
19.357000 0.509900
19.411200 0.441100
19.465500 0.405500
19.519800 0.382800
19.574000 0.383200
19.628300 0.384400
19.682600 0.423300
19.736800 0.355900
19.791100 0.331000
19.845400 0.323500
19.899600 0.339900
19.953900 0.341800
20.008200 0.352400
20.062400 0.336000
20.116700 0.332300
20.171000 0.339800
20.225200 0.343000
20.279500 0.346700
20.333800 0.347600
20.388000 0.352500
20.442300 0.366100
20.496600 0.367000
20.550800 0.382500
20.605100 0.397600
20.659400 0.405500
20.713600 0.410600
20.767900 0.406900
20.822200 0.384200
20.876400 0.368900
20.930700 0.363200
20.985000 0.359700
21.039200 0.351500
21.093500 0.346500
21.147800 0.343000
21.202000 0.330400
21.256300 0.328600
21.310600 0.332500
21.364800 0.333500
21.419100 0.332100
21.473400 0.351200
21.527600 0.361300
21.581900 0.402100
21.636200 0.428400
21.690500 0.450300
21.744700 0.480300
21.799000 0.510000
21.853300 0.542900
21.907500 0.581800
21.961800 0.635300
22.016100 0.710000
22.070300 0.668700
22.124600 0.652500
22.178900 0.657600
22.233100 0.673000
22.287400 0.674800
22.341700 0.652600
22.395900 0.627200
22.450200 0.566700
22.504500 0.536800
22.558700 0.497300
22.613000 0.466700
22.667300 0.480000
22.721500 0.505800
22.775800 0.554100
22.830100 0.538000
22.884300 0.511900
22.938600 0.508700
22.992900 0.519100
23.047100 0.506500
23.101400 0.501500
23.155700 0.494500
23.209900 0.486900
23.264200 0.470300
23.318500 0.453800
23.372700 0.446000
23.427000 0.404400
23.481300 0.385900
23.535500 0.461000
23.589800 0.434600
23.644100 0.396800
23.698300 0.409600
23.752600 0.422900
23.806900 0.436900
23.861100 0.458300
23.915400 0.488400
23.969700 0.497500
24.023900 0.514700
24.078200 0.505200
24.132500 0.499500
24.186700 0.492400
24.241000 0.490500
24.295300 0.497700
24.349500 0.489300
24.403800 0.481200
24.458100 0.476700
24.512300 0.475300
24.566600 0.473500
24.620900 0.478500
24.675100 0.477100
24.729400 0.473200
24.783700 0.469100
24.837900 0.473400
24.892200 0.473100
24.946500 0.472600
25.000700 0.482900
25.055000 0.492000
25.109300 0.512100
25.163500 0.535100
25.217800 0.585000
25.272100 0.578600
25.326300 0.548400
25.380600 0.545100
25.434900 0.580700
25.489100 0.638100
25.543400 0.664600
25.597700 0.637100
25.651900 0.583200
25.706200 0.579000
25.760500 0.579600
25.814700 0.579100
25.869000 0.567100
25.923300 0.610000
25.977500 0.509100
26.031800 0.501000
26.086100 0.483500
26.140300 0.479500
26.194600 0.476800
26.248900 0.474400
26.303200 0.467900
26.357400 0.465600
26.411700 0.474100
26.466000 0.488900
26.520200 0.565200
26.574500 0.600800
26.628800 0.634200
26.683000 0.664200
26.737300 0.678400
26.791600 0.682100
26.845800 0.669400
26.900100 0.657300
26.954400 0.643900
27.008600 0.635300
27.062900 0.620000
27.117200 0.570600
27.171400 0.538100
27.225700 0.508900
27.280000 0.491900
27.334200 0.483400
27.388500 0.498600
27.442800 0.479400
27.497000 0.470800
27.551300 0.464900
27.605600 0.461600
27.659800 0.455900
27.714100 0.451300
27.768400 0.448400
27.822600 0.446600
27.876900 0.445900
27.931200 0.446900
27.985400 0.451500
28.039700 0.457500
28.094000 0.464200
28.148200 0.478100
28.202500 0.503700
28.256800 0.537100
28.311000 0.561900
28.365300 0.594300
28.419600 0.620600
28.473800 0.660500
28.528100 0.667800
28.582400 0.672000
28.636600 0.673600
28.690900 0.684100
28.745200 0.696800
28.799400 0.726000
28.853700 0.767300
28.908000 0.716000
28.962200 0.721100
29.016500 0.718900
29.070800 0.745700
29.125000 0.769700
29.179300 0.785200
29.233600 0.749700
29.287800 0.695800
29.342100 0.662900
29.396400 0.629700
29.450600 0.601900
29.504900 0.566200
29.559200 0.561600
29.613400 0.561100
29.667700 0.565800
29.722000 0.566800
29.776200 0.563200
29.830500 0.550400
29.884800 0.521300
29.939000 0.495200
29.993300 0.474700
30.047600 0.470700
30.101800 0.474800
30.156100 0.495000
30.210400 0.504000
30.264600 0.504900
30.318900 0.497900
30.373200 0.490800
30.427400 0.483100
30.481700 0.480100
30.536000 0.474600
30.590200 0.465000
30.644500 0.451600
30.698800 0.441000
30.753100 0.442500
30.807300 0.434100
30.861600 0.431900
30.915900 0.427300
30.970100 0.420100
31.024400 0.408600
31.078700 0.400300
31.132900 0.405100
31.187200 0.409100
31.241500 0.411900
31.295700 0.436200
31.350000 0.459000
31.404300 0.544600
31.458500 0.554300
31.512800 0.571100
31.567100 0.576300
31.621300 0.576300
31.675600 0.554300
31.729900 0.582300
31.784100 0.576600
31.838400 0.564500
31.892700 0.545500
31.946900 0.541000
32.001200 0.535800
32.055500 0.534300
32.109700 0.534700
32.164000 0.540500
32.218300 0.558100
32.272500 0.597100
32.326800 0.614800
32.381100 0.589900
32.435300 0.611400
32.489600 0.628400
32.543900 0.657500
32.598100 0.624000
32.652400 0.604800
32.706700 0.591000
32.760900 0.497000
32.815200 0.490200
32.869500 0.497500
32.923700 0.510200
32.978000 0.519500
33.032300 0.534900
33.086500 0.548800
33.140800 0.566600
33.195100 0.585400
33.249300 0.601500
33.303600 0.614300
33.357900 0.646700
33.412100 0.678500
33.466400 0.692800
33.520700 0.722200
33.574900 0.755600
33.629200 0.792900
33.683500 0.814400
33.737700 0.810300
33.792000 0.777100
33.846300 0.742600
33.900500 0.717500
33.954800 0.688900
34.009100 0.701700
34.063300 0.607700
34.117600 0.582500
34.171900 0.559900
34.226100 0.540600
34.280400 0.528200
34.334700 0.523500
34.388900 0.533700
34.443200 0.566000
34.497500 0.585700
34.551700 0.578900
34.606000 0.582100
34.660300 0.586500
34.714500 0.588600
34.768800 0.602100
34.823100 0.595500
34.877300 0.620700
34.931600 0.565600
34.985900 0.558800
35.040100 0.561100
35.094400 0.554200
35.148700 0.556500
35.202900 0.565800
35.257200 0.583900
35.311500 0.598000
35.365800 0.609800
35.420000 0.636300
35.474300 0.674600
35.528600 0.706400
35.582800 0.697200
35.637100 0.677000
35.691400 0.647400
35.745600 0.604400
35.799900 0.565500
35.854200 0.532000
35.908400 0.503800
35.962700 0.482300
36.017000 0.465100
36.071200 0.462500
36.125500 0.464900
36.179800 0.480100
36.234000 0.513200
36.288300 0.537400
36.342600 0.582100
36.396800 0.607100
36.451100 0.609200
36.505400 0.599900
36.559600 0.590600
36.613900 0.592800
36.668200 0.599500
36.722400 0.608600
36.776700 0.635600
36.831000 0.670400
36.885200 0.671200
36.939500 0.670800
36.993800 0.673200
37.048000 0.668300
37.102300 0.649700
37.156600 0.628300
37.210800 0.601400
37.265100 0.592400
37.319400 0.591300
37.373600 0.581400
37.427900 0.564500
37.482200 0.563100
37.536400 0.556900
