set title 'mp-1183720 - Density of States'
set xlabel 'Energy (eV)'
set ylabel 'DOS (states/eV)'
set grid
set xrange [-10:10]
set yrange [0:58.315]
set xzeroaxis lt -1
set terminal png size 800,600
set output 'mp-1183720_dos_gnuplot.png'
plot '-' using 1:2 with lines title 'DOS'
-17.771900 0.000000
-17.743100 0.000000
-17.714400 0.000000
-17.685600 0.000000
-17.656800 0.000000
-17.628000 0.000000
-17.599200 0.000000
-17.570400 0.000000
-17.541700 0.000000
-17.512900 0.000000
-17.484100 0.000000
-17.455300 0.000000
-17.426500 0.000000
-17.397700 0.000000
-17.369000 0.000000
-17.340200 0.000000
-17.311400 0.000000
-17.282600 0.000000
-17.253800 0.000000
-17.225000 0.000000
-17.196300 0.000000
-17.167500 0.000000
-17.138700 0.000000
-17.109900 0.000000
-17.081100 0.000000
-17.052300 0.000000
-17.023600 0.000000
-16.994800 0.000000
-16.966000 0.000000
-16.937200 0.000000
-16.908400 0.000000
-16.879700 0.000000
-16.850900 0.000000
-16.822100 0.000000
-16.793300 0.000000
-16.764500 0.000000
-16.735700 0.000000
-16.707000 0.000000
-16.678200 0.000000
-16.649400 0.000000
-16.620600 0.000000
-16.591800 0.000000
-16.563000 0.000000
-16.534300 0.000000
-16.505500 0.000000
-16.476700 0.000000
-16.447900 0.000000
-16.419100 0.000000
-16.390300 0.000000
-16.361600 0.000000
-16.332800 0.000000
-16.304000 0.000000
-16.275200 0.000000
-16.246400 0.000000
-16.217600 0.000000
-16.188900 0.000000
-16.160100 0.000000
-16.131300 0.000000
-16.102500 0.000000
-16.073700 0.000000
-16.044900 0.000000
-16.016200 0.000000
-15.987400 0.000000
-15.958600 0.000000
-15.929800 0.000000
-15.901000 0.000000
-15.872200 0.000000
-15.843500 0.000000
-15.814700 0.000000
-15.785900 0.000000
-15.757100 0.000000
-15.728300 0.000000
-15.699600 0.000000
-15.670800 0.000000
-15.642000 0.000000
-15.613200 0.000000
-15.584400 0.000000
-15.555600 0.000000
-15.526900 0.000000
-15.498100 0.000000
-15.469300 0.000000
-15.440500 0.000000
-15.411700 0.000000
-15.382900 0.000000
-15.354200 0.000000
-15.325400 0.000000
-15.296600 0.000100
-15.267800 0.001800
-15.239000 0.028500
-15.210200 0.272100
-15.181500 1.719000
-15.152700 8.029200
-15.123900 28.484400
-15.095100 72.079500
-15.066300 123.672500
-15.037500 147.953600
-15.008800 143.496900
-14.980000 139.262200
-14.951200 134.664300
-14.922400 109.294500
-14.893600 68.935900
-14.864800 35.675500
-14.836100 16.859600
-14.807300 7.667900
-14.778500 3.081400
-14.749700 0.913200
-14.720900 0.172300
-14.692100 0.019100
-14.663400 0.001200
-14.634600 0.000000
-14.605800 0.000000
-14.577000 0.000000
-14.548200 0.000000
-14.519500 0.000000
-14.490700 0.000000
-14.461900 0.000000
-14.433100 0.000000
-14.404300 0.000000
-14.375500 0.000000
-14.346800 0.000000
-14.318000 0.000000
-14.289200 0.000000
-14.260400 0.000000
-14.231600 0.000000
-14.202800 0.000000
-14.174100 0.000000
-14.145300 0.000000
-14.116500 0.000000
-14.087700 0.000000
-14.058900 0.000000
-14.030100 0.000000
-14.001400 0.000000
-13.972600 0.000000
-13.943800 0.000000
-13.915000 0.000000
-13.886200 0.000000
-13.857400 0.000000
-13.828700 0.000000
-13.799900 0.000000
-13.771100 0.000000
-13.742300 0.000000
-13.713500 0.000000
-13.684700 0.000000
-13.656000 0.000000
-13.627200 0.000000
-13.598400 0.000000
-13.569600 0.000000
-13.540800 0.000000
-13.512000 0.000000
-13.483300 0.000000
-13.454500 0.000000
-13.425700 0.000000
-13.396900 0.000000
-13.368100 0.000000
-13.339400 0.000000
-13.310600 0.000000
-13.281800 0.000000
-13.253000 0.000000
-13.224200 0.000000
-13.195400 0.000000
-13.166700 0.000000
-13.137900 0.000000
-13.109100 0.000000
-13.080300 0.000000
-13.051500 0.000000
-13.022700 0.000000
-12.994000 0.000000
-12.965200 0.000000
-12.936400 0.000000
-12.907600 0.000000
-12.878800 0.000000
-12.850000 0.000000
-12.821300 0.000000
-12.792500 0.000000
-12.763700 0.000000
-12.734900 0.000000
-12.706100 0.000000
-12.677300 0.000000
-12.648600 0.000000
-12.619800 0.000000
-12.591000 0.000000
-12.562200 0.000000
-12.533400 0.000000
-12.504600 0.000000
-12.475900 0.000000
-12.447100 0.000000
-12.418300 0.000000
-12.389500 0.000000
-12.360700 0.000000
-12.331900 0.000000
-12.303200 0.000000
-12.274400 0.000000
-12.245600 0.000000
-12.216800 0.000000
-12.188000 0.000000
-12.159300 0.000000
-12.130500 0.000000
-12.101700 0.000000
-12.072900 0.000000
-12.044100 0.000000
-12.015300 0.000000
-11.986600 0.000000
-11.957800 0.000000
-11.929000 0.000000
-11.900200 0.000000
-11.871400 0.000000
-11.842600 0.000000
-11.813900 0.000000
-11.785100 0.000000
-11.756300 0.000000
-11.727500 0.000000
-11.698700 0.000000
-11.669900 0.000000
-11.641200 0.000000
-11.612400 0.000000
-11.583600 0.000000
-11.554800 0.000000
-11.526000 0.000000
-11.497200 0.000000
-11.468500 0.000000
-11.439700 0.000000
-11.410900 0.000000
-11.382100 0.000000
-11.353300 0.000000
-11.324500 0.000000
-11.295800 0.000000
-11.267000 0.000000
-11.238200 0.000000
-11.209400 0.000000
-11.180600 0.000000
-11.151800 0.000000
-11.123100 0.000000
-11.094300 0.000000
-11.065500 0.000000
-11.036700 0.000000
-11.007900 0.000000
-10.979200 0.000000
-10.950400 0.000000
-10.921600 0.000000
-10.892800 0.000000
-10.864000 0.000000
-10.835200 0.000000
-10.806500 0.000000
-10.777700 0.000000
-10.748900 0.000000
-10.720100 0.000000
-10.691300 0.000000
-10.662500 0.000000
-10.633800 0.000000
-10.605000 0.000000
-10.576200 0.000000
-10.547400 0.000000
-10.518600 0.000000
-10.489800 0.000000
-10.461100 0.000000
-10.432300 0.000000
-10.403500 0.000000
-10.374700 0.000000
-10.345900 0.000000
-10.317100 0.000000
-10.288400 0.000000
-10.259600 0.000000
-10.230800 0.000000
-10.202000 0.000000
-10.173200 0.000000
-10.144400 0.000000
-10.115700 0.000000
-10.086900 0.000000
-10.058100 0.000000
-10.029300 0.000000
-10.000500 0.000000
-9.971700 0.000000
-9.943000 0.000000
-9.914200 0.000000
-9.885400 0.000000
-9.856600 0.000000
-9.827800 0.000000
-9.799100 0.000000
-9.770300 0.000000
-9.741500 0.000000
-9.712700 0.000000
-9.683900 0.000000
-9.655100 0.000000
-9.626400 0.000000
-9.597600 0.000000
-9.568800 0.000000
-9.540000 0.000000
-9.511200 0.000000
-9.482400 0.000000
-9.453700 0.000000
-9.424900 0.000000
-9.396100 0.000000
-9.367300 0.000000
-9.338500 0.000000
-9.309700 0.000000
-9.281000 0.000000
-9.252200 0.000000
-9.223400 0.000000
-9.194600 0.000000
-9.165800 0.000000
-9.137000 0.000000
-9.108300 0.000000
-9.079500 0.000000
-9.050700 0.000000
-9.021900 0.000000
-8.993100 0.000000
-8.964300 0.000000
-8.935600 0.000000
-8.906800 0.000000
-8.878000 0.000000
-8.849200 0.000000
-8.820400 0.000000
-8.791700 0.000000
-8.762900 0.000000
-8.734100 0.000000
-8.705300 0.000000
-8.676500 0.000000
-8.647700 0.000000
-8.619000 0.000000
-8.590200 0.000000
-8.561400 0.000000
-8.532600 0.000000
-8.503800 0.000000
-8.475000 0.000000
-8.446300 0.000000
-8.417500 0.000000
-8.388700 0.000000
-8.359900 0.000000
-8.331100 0.000000
-8.302300 0.000000
-8.273600 0.000000
-8.244800 0.000000
-8.216000 0.000000
-8.187200 0.000000
-8.158400 0.000000
-8.129600 0.000000
-8.100900 0.000000
-8.072100 0.000000
-8.043300 0.000000
-8.014500 0.000000
-7.985700 0.000000
-7.956900 0.000000
-7.928200 0.000000
-7.899400 0.000000
-7.870600 0.000000
-7.841800 0.000000
-7.813000 0.000000
-7.784200 0.000000
-7.755500 0.000000
-7.726700 0.000000
-7.697900 0.000000
-7.669100 0.000000
-7.640300 0.000000
-7.611600 0.000000
-7.582800 0.000000
-7.554000 0.000000
-7.525200 0.000000
-7.496400 0.000000
-7.467600 0.000000
-7.438900 0.000000
-7.410100 0.000000
-7.381300 0.000000
-7.352500 0.000000
-7.323700 0.000000
-7.294900 0.000000
-7.266200 0.000000
-7.237400 0.000000
-7.208600 0.000000
-7.179800 0.000000
-7.151000 0.000000
-7.122200 0.000000
-7.093500 0.000000
-7.064700 0.000000
-7.035900 0.000000
-7.007100 0.000000
-6.978300 0.000000
-6.949500 0.000000
-6.920800 0.000000
-6.892000 0.000000
-6.863200 0.000000
-6.834400 0.000000
-6.805600 0.000000
-6.776800 0.000000
-6.748100 0.000000
-6.719300 0.000000
-6.690500 0.000000
-6.661700 0.000000
-6.632900 0.000000
-6.604100 0.000000
-6.575400 0.000000
-6.546600 0.000000
-6.517800 0.000000
-6.489000 0.000000
-6.460200 0.000000
-6.431500 0.000000
-6.402700 0.000000
-6.373900 0.000000
-6.345100 0.000000
-6.316300 0.000000
-6.287500 0.000000
-6.258800 0.000000
-6.230000 0.000000
-6.201200 0.000000
-6.172400 0.000000
-6.143600 0.000000
-6.114800 0.000000
-6.086100 0.000000
-6.057300 0.000000
-6.028500 0.000000
-5.999700 0.000000
-5.970900 0.000000
-5.942100 0.000000
-5.913400 0.000000
-5.884600 0.000000
-5.855800 0.000000
-5.827000 0.000000
-5.798200 0.000000
-5.769400 0.000000
-5.740700 0.000000
-5.711900 0.000000
-5.683100 0.000000
-5.654300 0.000000
-5.625500 0.000000
-5.596700 0.000000
-5.568000 0.000000
-5.539200 0.000000
-5.510400 0.000000
-5.481600 0.000000
-5.452800 0.000000
-5.424000 0.000000
-5.395300 0.000000
-5.366500 0.000000
-5.337700 0.000000
-5.308900 0.000000
-5.280100 0.000000
-5.251400 0.000000
-5.222600 0.000000
-5.193800 0.000000
-5.165000 0.000000
-5.136200 0.000000
-5.107400 0.000000
-5.078700 0.000000
-5.049900 0.000000
-5.021100 0.000000
-4.992300 0.000000
-4.963500 0.000000
-4.934700 0.000000
-4.906000 0.000000
-4.877200 0.000000
-4.848400 0.000000
-4.819600 0.000000
-4.790800 0.000000
-4.762000 0.000000
-4.733300 0.000000
-4.704500 0.000000
-4.675700 0.000000
-4.646900 0.000000
-4.618100 0.000000
-4.589300 0.000000
-4.560600 0.000000
-4.531800 0.000000
-4.503000 0.000000
-4.474200 0.000000
-4.445400 0.000000
-4.416600 0.000000
-4.387900 0.000000
-4.359100 0.000000
-4.330300 0.000000
-4.301500 0.000000
-4.272700 0.000000
-4.243900 0.000000
-4.215200 0.000000
-4.186400 0.000000
-4.157600 0.000000
-4.128800 0.000000
-4.100000 0.000000
-4.071300 0.000500
-4.042500 0.003700
-4.013700 0.016400
-3.984900 0.041900
-3.956100 0.074000
-3.927300 0.119900
-3.898600 0.200000
-3.869800 0.306200
-3.841000 0.367900
-3.812200 0.311700
-3.783400 0.198900
-3.754600 0.193200
-3.725900 0.344900
-3.697100 0.492600
-3.668300 0.488600
-3.639500 0.420800
-3.610700 0.464100
-3.581900 0.614200
-3.553200 0.668500
-3.524400 0.531900
-3.495600 0.374200
-3.466800 0.369400
-3.438000 0.527100
-3.409200 0.702900
-3.380500 0.705800
-3.351700 0.538600
-3.322900 0.441400
-3.294100 0.553900
-3.265300 0.748400
-3.236500 0.825500
-3.207800 0.808500
-3.179000 0.925100
-3.150200 1.114500
-3.121400 1.097400
-3.092600 0.875700
-3.063800 0.671500
-3.035100 0.620100
-3.006300 0.694500
-2.977500 0.824700
-2.948700 0.968900
-2.919900 1.116500
-2.891200 1.175700
-2.862400 1.033700
-2.833600 0.857900
-2.804800 0.896100
-2.776000 1.248100
-2.747200 1.682800
-2.718500 1.761400
-2.689700 1.573200
-2.660900 1.593300
-2.632100 1.972000
-2.603300 2.804500
-2.574500 4.092300
-2.545800 5.110900
-2.517000 5.107700
-2.488200 4.454800
-2.459400 4.024700
-2.430600 4.104900
-2.401800 4.861900
-2.373100 6.755400
-2.344300 10.011100
-2.315500 13.900200
-2.286700 17.286100
-2.257900 21.682100
-2.229100 31.199900
-2.200400 44.579900
-2.171600 53.013300
-2.142800 49.285600
-2.114000 34.391300
-2.085200 17.800500
-2.056400 7.760900
-2.027700 3.919100
-1.998900 2.555700
-1.970100 1.804400
-1.941300 1.612400
-1.912500 1.972400
-1.883700 2.143500
-1.855000 1.724600
-1.826200 1.147800
-1.797400 0.767300
-1.768600 0.641300
-1.739800 0.773500
-1.711100 1.212800
-1.682300 1.733200
-1.653500 1.746800
-1.624700 1.231700
-1.595900 0.705800
-1.567100 0.436100
-1.538400 0.425400
-1.509600 0.636500
-1.480800 1.019500
-1.452000 1.341200
-1.423200 1.341900
-1.394400 1.159000
-1.365700 1.075400
-1.336900 1.021100
-1.308100 0.918000
-1.279300 1.036300
-1.250500 1.355300
-1.221700 1.462900
-1.193000 1.391100
-1.164200 1.420500
-1.135400 1.551100
-1.106600 1.611500
-1.077800 1.538600
-1.049000 1.355400
-1.020300 1.051100
-0.991500 0.810300
-0.962700 0.797500
-0.933900 0.957700
-0.905100 1.204700
-0.876300 1.498600
-0.847600 1.778300
-0.818800 2.027800
-0.790000 2.133300
-0.761200 1.849100
-0.732400 1.345700
-0.703600 0.995400
-0.674900 0.926800
-0.646100 1.066700
-0.617300 1.359100
-0.588500 1.619400
-0.559700 1.514400
-0.531000 1.080900
-0.502200 0.675700
-0.473400 0.538700
-0.444600 0.710400
-0.415800 1.098900
-0.387000 1.386500
-0.358300 1.326600
-0.329500 1.324800
-0.300700 1.684000
-0.271900 1.892200
-0.243100 1.579500
-0.214300 1.106500
-0.185600 1.088500
-0.156800 1.657100
-0.128000 2.104400
-0.099200 1.819000
-0.070400 1.257800
-0.041600 1.138500
-0.012900 1.327300
0.015900 1.370400
0.044700 1.362600
0.073500 1.557100
0.102300 1.875000
0.131100 2.090400
0.159800 2.152100
0.188600 2.123700
0.217400 2.240700
0.246200 2.538000
0.275000 2.468500
0.303800 1.894500
0.332500 1.516100
0.361300 1.773700
0.390100 2.437800
0.418900 2.711200
0.447700 2.108700
0.476500 1.384900
0.505200 1.181000
0.534000 1.303800
0.562800 1.671600
0.591600 2.278800
0.620400 2.848700
0.649100 3.055200
0.677900 2.839100
0.706700 2.423000
0.735500 1.958100
0.764300 1.548400
0.793100 1.407700
0.821800 1.422000
0.850600 1.211100
0.879400 0.914500
0.908200 0.944500
0.937000 1.227000
0.965800 1.348200
0.994500 1.247100
1.023300 1.316400
1.052100 1.478400
1.080900 1.297600
1.109700 0.861400
1.138500 0.577600
1.167200 0.569700
1.196000 0.592600
1.224800 0.444100
1.253600 0.314100
1.282400 0.379400
1.311200 0.501200
1.339900 0.522600
1.368700 0.400500
1.397500 0.221200
1.426300 0.177600
1.455100 0.329800
1.483900 0.524700
1.512600 0.581000
1.541400 0.505500
1.570200 0.376800
1.599000 0.215300
1.627800 0.080000
1.656600 0.020700
1.685300 0.025300
1.714100 0.084800
1.742900 0.172400
1.771700 0.227800
1.800500 0.282000
1.829200 0.400600
1.858000 0.555800
1.886800 0.697600
1.915600 0.732500
1.944400 0.649700
1.973200 0.602300
2.001900 0.577600
2.030700 0.489500
2.059500 0.424800
2.088300 0.493900
2.117100 0.686600
2.145900 0.878700
2.174600 0.980600
2.203400 1.103500
2.232200 1.490000
2.261000 1.939100
2.289800 1.848500
2.318600 1.269300
2.347300 0.941300
2.376100 1.149900
2.404900 1.356700
2.433700 1.182600
2.462500 0.926000
2.491300 0.862500
2.520000 1.005900
2.548800 1.274000
2.577600 1.671700
2.606400 2.155500
2.635200 2.388100
2.664000 2.155900
2.692700 1.712800
2.721500 1.510900
2.750300 1.711300
2.779100 1.896300
2.807900 1.755800
2.836700 1.616400
2.865400 1.583700
2.894200 1.383500
2.923000 1.158200
2.951800 1.299700
2.980600 1.798700
3.009300 2.349100
3.038100 2.811800
3.066900 3.015000
3.095700 2.881300
3.124500 2.857100
3.153300 2.983600
3.182000 2.631900
3.210800 1.757400
3.239600 1.039100
3.268400 0.855700
3.297200 1.060400
3.326000 1.476600
3.354700 1.800700
3.383500 1.747200
3.412300 1.489200
3.441100 1.244500
3.469900 1.147200
3.498700 1.105000
3.527400 0.990700
3.556200 0.989800
3.585000 1.028100
3.613800 0.908500
3.642600 0.891000
3.671400 1.232700
3.700100 1.730500
3.728900 1.962300
3.757700 1.873200
3.786500 1.713800
3.815300 1.586000
3.844100 1.467200
3.872800 1.377400
3.901600 1.399400
3.930400 1.525900
3.959200 1.671100
3.988000 1.821900
4.016700 1.909200
4.045500 1.745400
4.074300 1.462900
4.103100 1.469600
4.131900 1.762600
4.160700 1.959000
4.189400 1.857400
4.218200 1.600400
4.247000 1.497800
4.275800 1.490300
4.304600 1.357400
4.333400 1.459800
4.362100 2.145900
4.390900 2.854700
4.419700 2.821300
4.448500 2.270000
4.477300 1.828200
4.506100 1.549100
4.534800 1.278200
4.563600 1.279400
4.592400 1.761800
4.621200 2.313900
4.650000 2.479600
4.678800 2.487000
4.707500 2.752800
4.736300 3.134600
4.765100 3.157400
4.793900 2.584300
4.822700 1.721200
4.851500 1.181700
4.880200 1.302000
4.909000 1.720200
4.937800 1.869400
4.966600 1.818500
4.995400 1.975800
5.024200 2.267300
5.052900 2.379700
5.081700 2.380200
5.110500 2.304700
5.139300 2.036500
5.168100 1.764700
5.196800 1.799500
5.225600 2.099500
5.254400 2.213200
5.283200 2.130300
5.312000 2.258800
5.340800 2.550800
5.369500 2.759700
5.398300 2.655200
5.427100 2.072300
5.455900 1.415400
5.484700 1.276300
5.513500 1.503500
5.542200 1.572600
5.571000 1.535600
5.599800 1.596600
5.628600 1.540200
5.657400 1.409800
5.686200 1.553200
5.714900 1.830400
5.743700 1.843500
5.772500 1.706400
5.801300 1.810700
5.830100 2.275400
5.858900 2.779500
5.887600 2.729200
5.916400 2.089700
5.945200 1.551300
5.974000 1.540600
6.002800 1.755500
6.031600 1.718500
6.060300 1.503300
6.089100 1.614400
6.117900 2.200800
6.146700 2.858800
6.175500 3.045200
6.204300 2.687400
6.233000 2.191200
6.261800 1.957900
6.290600 2.097000
6.319400 2.170300
6.348200 1.787200
6.376900 1.328100
6.405700 1.261800
6.434500 1.543200
6.463300 1.989700
6.492100 2.292000
6.520900 2.150600
6.549600 1.712900
6.578400 1.355100
6.607200 1.278600
6.636000 1.560500
6.664800 2.231100
6.693600 2.984700
6.722300 3.269500
6.751100 2.801400
6.779900 1.946700
6.808700 1.188800
6.837500 0.851800
6.866300 1.032900
6.895000 1.416900
6.923800 1.680900
6.952600 1.749500
6.981400 1.825500
7.010200 2.193700
7.039000 2.878700
7.067700 3.585200
7.096500 3.846700
7.125300 3.312700
7.154100 2.284100
7.182900 1.544400
7.211700 1.624800
7.240400 2.259900
7.269200 2.579300
7.298000 2.337000
7.326800 2.012100
7.355600 1.883500
7.384400 1.933600
7.413100 2.271400
7.441900 2.873100
7.470700 3.157300
7.499500 2.857300
7.528300 2.454100
7.557000 2.383400
7.585800 2.598500
7.614600 2.597800
7.643400 2.135300
7.672200 1.639300
7.701000 1.532900
7.729700 1.681600
7.758500 1.805300
7.787300 1.905900
7.816100 1.948600
7.844900 1.787400
7.873700 1.546800
7.902400 1.540600
7.931200 1.746900
7.960000 2.093400
7.988800 2.814500
8.017600 3.536700
8.046400 3.502800
8.075100 2.942700
8.103900 2.601200
8.132700 2.506700
8.161500 2.291300
8.190300 2.025000
8.219100 1.815900
8.247800 1.582200
8.276600 1.341400
8.305400 1.171000
8.334200 1.149500
8.363000 1.346200
8.391800 1.902600
8.420500 2.896100
8.449300 3.875500
8.478100 4.298500
8.506900 4.128000
8.535700 3.652400
8.564500 3.270700
8.593200 3.161400
8.622000 3.160100
8.650800 3.125400
8.679600 2.978100
8.708400 2.735300
8.737100 2.431200
8.765900 2.124600
8.794700 1.968800
8.823500 1.964500
8.852300 2.001400
8.881100 2.029900
8.909800 2.093000
8.938600 2.258900
8.967400 2.451500
8.996200 2.607000
9.025000 2.952000
9.053800 3.464900
9.082500 3.626200
9.111300 3.143400
9.140100 2.313800
9.168900 1.844400
9.197700 2.009800
9.226500 2.353100
9.255200 2.473300
9.284000 2.429200
9.312800 2.347600
9.341600 2.518900
9.370400 3.138800
9.399200 3.407200
9.427900 2.823600
9.456700 2.216700
9.485500 2.280700
9.514300 2.775900
9.543100 3.086900
9.571900 3.039300
9.600600 2.952100
9.629400 2.845900
9.658200 2.624200
9.687000 2.424100
9.715800 2.289100
9.744600 2.109300
9.773300 1.875100
9.802100 1.750500
9.830900 2.017500
9.859700 2.690900
9.888500 3.297300
9.917200 3.373600
9.946000 3.188500
9.974800 3.074500
10.003600 3.019100
10.032400 3.165300
10.061200 3.279600
10.089900 3.128000
10.118700 2.902600
10.147500 2.505700
10.176300 1.814500
10.205100 1.200100
10.233900 0.930000
10.262600 0.877700
10.291400 0.907100
10.320200 1.042200
10.349000 1.273100
10.377800 1.553600
10.406600 1.749600
10.435300 1.731700
10.464100 1.527400
10.492900 1.327200
10.521700 1.539900
10.550500 2.336400
10.579300 3.477600
10.608000 4.274800
10.636800 4.093500
10.665600 3.533200
10.694400 3.482100
10.723200 3.661200
10.752000 3.165600
10.780700 2.120000
10.809500 1.575000
10.838300 1.811600
10.867100 2.328100
10.895900 2.573600
10.924700 2.577600
10.953400 2.895000
10.982200 3.355400
11.011000 3.210100
11.039800 2.482900
11.068600 1.999700
11.097300 2.303300
11.126100 2.940300
11.154900 3.282600
11.183700 3.231500
11.212500 2.935400
11.241300 2.587000
11.270000 2.397300
11.298800 2.370300
11.327600 2.249500
11.356400 2.081400
11.385200 1.984200
11.414000 1.777700
11.442700 1.580300
11.471500 1.747000
11.500300 2.137900
11.529100 2.499900
11.557900 2.708500
11.586700 2.575300
11.615400 2.178500
11.644200 1.919200
11.673000 2.081300
11.701800 2.501100
11.730600 2.768600
11.759400 2.764100
11.788100 2.693800
11.816900 2.699500
11.845700 2.682900
11.874500 2.487500
11.903300 2.315000
11.932100 2.419900
11.960800 2.666600
11.989600 2.875700
12.018400 2.901700
12.047200 2.514500
12.076000 1.922900
12.104800 1.735700
12.133500 1.854600
