set title 'mp-1184031 - Density of States'
set xlabel 'Energy (eV)'
set ylabel 'DOS (states/eV)'
set grid
set xrange [-10:10]
set yrange [0:3.014]
set xzeroaxis lt -1
set terminal png size 800,600
set output 'mp-1184031_dos_gnuplot.png'
plot '-' using 1:2 with lines title 'DOS'
-18.890400 0.000000
-18.867100 0.000000
-18.843800 0.000000
-18.820500 0.000000
-18.797200 0.000000
-18.773900 0.000000
-18.750600 0.000000
-18.727300 0.000000
-18.704000 0.000000
-18.680700 0.000000
-18.657400 0.000000
-18.634100 0.000000
-18.610800 0.000000
-18.587500 0.000000
-18.564200 0.000000
-18.540900 0.000000
-18.517600 0.000000
-18.494300 0.000000
-18.471000 0.000000
-18.447700 0.000000
-18.424400 0.000000
-18.401100 0.000000
-18.377800 0.000000
-18.354500 0.000000
-18.331200 0.000000
-18.307900 0.000000
-18.284600 0.000000
-18.261300 0.000000
-18.238000 0.000000
-18.214700 0.000000
-18.191400 0.000000
-18.168100 0.000000
-18.144800 0.000000
-18.121500 0.000000
-18.098200 0.000000
-18.074900 0.000000
-18.051600 0.000000
-18.028300 0.000000
-18.005000 0.000000
-17.981700 0.000000
-17.958400 0.000000
-17.935100 0.000000
-17.911800 0.000000
-17.888500 0.000000
-17.865200 0.000000
-17.841900 0.000000
-17.818600 0.000000
-17.795300 0.000000
-17.772000 0.000000
-17.748700 0.000000
-17.725400 0.000000
-17.702100 0.000000
-17.678800 0.000000
-17.655500 0.000000
-17.632200 0.000000
-17.608900 0.000000
-17.585600 0.000000
-17.562300 0.000000
-17.539000 0.000000
-17.515700 0.000000
-17.492400 0.000000
-17.469100 0.000000
-17.445800 0.000000
-17.422500 0.000000
-17.399200 0.000000
-17.375900 0.000000
-17.352600 0.000000
-17.329300 0.000000
-17.306000 0.000000
-17.282700 0.000000
-17.259400 0.000000
-17.236100 0.000000
-17.212800 0.000000
-17.189500 0.000000
-17.166200 0.000000
-17.142900 0.000000
-17.119600 0.000000
-17.096300 0.000000
-17.073000 0.000000
-17.049700 0.000000
-17.026400 0.000000
-17.003100 0.000000
-16.979800 0.000000
-16.956500 0.000000
-16.933200 0.000000
-16.909900 0.000000
-16.886600 0.000000
-16.863300 0.000000
-16.840000 0.000000
-16.816700 0.000000
-16.793400 0.000000
-16.770100 146.418900
-16.746800 354.854800
-16.723500 0.000000
-16.700200 0.000000
-16.676900 0.000000
-16.653600 0.000000
-16.630300 0.000000
-16.607000 0.000000
-16.583700 0.000000
-16.560400 0.000000
-16.537100 0.000000
-16.513800 0.000000
-16.490500 0.000000
-16.467200 0.000000
-16.443900 0.000000
-16.420600 0.000000
-16.397300 0.000000
-16.374000 0.000000
-16.350700 0.000000
-16.327400 0.000000
-16.304100 0.000000
-16.280800 0.000000
-16.257500 0.000000
-16.234200 0.000000
-16.210900 0.000000
-16.187600 0.000000
-16.164300 0.000000
-16.141000 0.000000
-16.117700 0.000000
-16.094400 0.000000
-16.071100 0.000000
-16.047800 0.000000
-16.024500 0.000000
-16.001200 0.000000
-15.977900 0.000000
-15.954600 0.000000
-15.931300 0.000000
-15.908000 0.000000
-15.884700 0.000000
-15.861400 0.000000
-15.838100 0.000000
-15.814800 0.000000
-15.791500 0.000000
-15.768200 0.000000
-15.744900 0.000000
-15.721600 0.000000
-15.698300 0.000000
-15.675000 0.000000
-15.651700 0.000000
-15.628400 0.000000
-15.605100 0.000000
-15.581800 0.000000
-15.558500 0.000000
-15.535200 0.000000
-15.511900 0.000000
-15.488600 0.000000
-15.465300 0.000000
-15.442000 0.000000
-15.418700 0.000000
-15.395400 0.000000
-15.372100 0.000000
-15.348800 0.000000
-15.325500 0.000000
-15.302200 0.000000
-15.278900 0.000000
-15.255600 0.000000
-15.232300 0.000000
-15.209000 0.000000
-15.185700 0.000000
-15.162400 0.000000
-15.139100 0.000000
-15.115800 0.000000
-15.092500 0.000000
-15.069200 0.000000
-15.045900 0.000000
-15.022600 0.000000
-14.999300 0.000000
-14.976000 0.000000
-14.952700 0.000000
-14.929400 0.000000
-14.906100 0.000000
-14.882800 0.000000
-14.859500 0.000000
-14.836200 0.000000
-14.812900 0.000000
-14.789600 0.000000
-14.766300 0.000000
-14.743000 0.000000
-14.719700 0.000000
-14.696400 0.000000
-14.673100 0.000000
-14.649800 0.000000
-14.626500 0.000000
-14.603200 0.000000
-14.579900 0.000000
-14.556600 0.000000
-14.533300 0.000000
-14.510000 0.000000
-14.486700 0.000000
-14.463400 0.000000
-14.440100 0.000000
-14.416800 0.000000
-14.393500 0.000000
-14.370200 0.000000
-14.346900 0.000000
-14.323600 0.000000
-14.300300 0.000000
-14.277000 0.000000
-14.253700 0.000000
-14.230400 0.000000
-14.207100 0.000000
-14.183800 0.000000
-14.160500 0.000000
-14.137200 0.000000
-14.113900 0.000000
-14.090600 0.000000
-14.067300 0.000000
-14.044000 0.000000
-14.020700 0.000000
-13.997400 0.000000
-13.974100 0.000000
-13.950800 0.000000
-13.927500 0.000000
-13.904200 0.000000
-13.880900 0.000000
-13.857600 0.000000
-13.834300 0.000000
-13.811000 0.000000
-13.787700 0.000000
-13.764400 0.000000
-13.741100 0.000000
-13.717800 0.000000
-13.694500 0.000000
-13.671200 0.000000
-13.647900 0.000000
-13.624600 0.000000
-13.601300 0.000000
-13.578000 0.000000
-13.554700 0.000000
-13.531400 0.000000
-13.508100 0.000000
-13.484800 0.000000
-13.461500 0.000000
-13.438200 0.000000
-13.414900 0.000000
-13.391600 0.000000
-13.368300 0.000000
-13.345000 0.000000
-13.321700 0.000000
-13.298400 0.000000
-13.275100 0.000000
-13.251800 0.000000
-13.228500 0.000000
-13.205200 0.000000
-13.181900 0.000000
-13.158600 0.000000
-13.135300 0.000000
-13.112000 0.000000
-13.088700 0.000000
-13.065400 0.000000
-13.042100 0.000000
-13.018800 0.000000
-12.995500 0.000000
-12.972200 0.000000
-12.948900 0.000000
-12.925600 0.000000
-12.902300 0.000000
-12.879000 0.000000
-12.855700 0.000000
-12.832400 0.000000
-12.809100 0.000000
-12.785800 0.000000
-12.762500 0.000000
-12.739200 0.000000
-12.715900 0.000000
-12.692600 0.000000
-12.669300 0.000000
-12.646000 0.000000
-12.622700 0.000000
-12.599400 0.000000
-12.576100 0.000000
-12.552800 0.000000
-12.529500 0.000000
-12.506200 0.000000
-12.482900 0.000000
-12.459600 0.000000
-12.436300 0.000000
-12.413000 0.000000
-12.389700 0.000000
-12.366400 0.000000
-12.343100 0.000000
-12.319800 0.000000
-12.296500 0.000000
-12.273200 0.000000
-12.249900 0.000000
-12.226600 0.000000
-12.203300 0.000000
-12.180000 0.000000
-12.156700 0.000000
-12.133400 0.000000
-12.110100 0.000000
-12.086800 0.000000
-12.063500 0.000000
-12.040200 0.000000
-12.016900 0.000000
-11.993600 0.000000
-11.970300 0.000000
-11.947000 0.000000
-11.923700 0.000000
-11.900400 0.000000
-11.877100 0.000000
-11.853800 0.000000
-11.830500 0.000000
-11.807200 0.000000
-11.783900 0.000000
-11.760600 0.000000
-11.737300 0.000000
-11.714000 0.000000
-11.690700 0.000000
-11.667400 0.000000
-11.644100 0.000000
-11.620800 0.000000
-11.597500 0.000000
-11.574200 0.000000
-11.550900 0.000000
-11.527600 0.000000
-11.504300 0.000000
-11.481000 0.000000
-11.457700 0.000000
-11.434400 0.000000
-11.411100 0.000000
-11.387800 0.000000
-11.364500 0.000000
-11.341200 0.000000
-11.317900 0.000000
-11.294600 0.000000
-11.271300 0.000000
-11.248000 0.000000
-11.224700 0.000000
-11.201400 0.000000
-11.178100 0.000000
-11.154800 0.000000
-11.131500 0.000000
-11.108200 0.000000
-11.084900 0.000000
-11.061600 0.000000
-11.038300 0.000000
-11.015000 0.000000
-10.991700 0.000000
-10.968400 0.000000
-10.945100 0.000000
-10.921800 0.000000
-10.898500 0.000000
-10.875200 0.000000
-10.851900 0.000000
-10.828600 0.000000
-10.805300 0.000000
-10.782000 0.000000
-10.758700 0.000000
-10.735400 0.000000
-10.712100 0.000000
-10.688800 0.000000
-10.665500 0.000000
-10.642200 0.000000
-10.618900 0.000000
-10.595600 0.000000
-10.572300 0.000000
-10.549000 0.000000
-10.525700 0.000000
-10.502400 0.000000
-10.479100 0.000000
-10.455800 0.000000
-10.432500 0.000000
-10.409200 0.000000
-10.385900 0.000000
-10.362600 0.000000
-10.339300 0.000000
-10.316000 0.000000
-10.292700 0.000000
-10.269400 0.000000
-10.246100 159.849300
-10.222800 220.765900
-10.199500 111.908000
-10.176200 107.884500
-10.152900 166.550700
-10.129600 101.141800
-10.106300 97.305200
-10.083000 178.091700
-10.059700 121.853900
-10.036400 0.000000
-10.013100 0.000000
-9.989800 0.000000
-9.966500 0.000000
-9.943200 0.000000
-9.919900 0.000000
-9.896600 0.000000
-9.873300 0.000000
-9.850000 0.000000
-9.826700 0.000000
-9.803400 0.000000
-9.780100 0.000000
-9.756800 0.000000
-9.733500 0.000000
-9.710200 0.000000
-9.686900 0.000000
-9.663600 0.000000
-9.640300 0.000000
-9.617000 0.000000
-9.593700 0.000000
-9.570400 0.000000
-9.547100 0.000000
-9.523800 0.000000
-9.500500 0.000000
-9.477200 0.000000
-9.453900 0.000000
-9.430600 0.000000
-9.407300 0.000000
-9.384000 0.000000
-9.360700 0.000000
-9.337400 0.000000
-9.314100 0.000000
-9.290800 0.000000
-9.267500 0.000000
-9.244200 0.000000
-9.220900 0.000000
-9.197600 0.000000
-9.174300 0.000000
-9.151000 0.000000
-9.127700 0.000000
-9.104400 0.000000
-9.081100 0.000000
-9.057800 0.000000
-9.034500 0.000000
-9.011200 0.000000
-8.987900 0.000000
-8.964600 0.000000
-8.941300 0.000000
-8.918000 0.000000
-8.894700 0.000000
-8.871400 0.000000
-8.848100 0.000000
-8.824800 0.000000
-8.801500 0.000000
-8.778200 0.000000
-8.754900 0.000000
-8.731600 0.000000
-8.708300 0.000000
-8.685000 0.000000
-8.661700 0.000000
-8.638400 0.000000
-8.615100 0.000000
-8.591800 0.000000
-8.568500 0.000000
-8.545200 0.000000
-8.521900 0.000000
-8.498600 0.000000
-8.475300 0.000000
-8.452000 0.000000
-8.428700 0.000000
-8.405400 0.000000
-8.382100 0.000000
-8.358800 0.000000
-8.335500 0.000000
-8.312200 0.000000
-8.288900 0.000000
-8.265600 0.000000
-8.242300 0.000000
-8.219000 0.000000
-8.195700 0.000000
-8.172400 0.000000
-8.149100 0.000000
-8.125800 0.000000
-8.102500 0.000000
-8.079200 0.000000
-8.055900 0.000000
-8.032600 0.000000
-8.009300 0.000000
-7.986000 0.000000
-7.962700 0.000000
-7.939400 0.000000
-7.916100 0.000000
-7.892800 0.000000
-7.869500 0.000000
-7.846200 0.000000
-7.822900 0.000000
-7.799600 0.000000
-7.776300 0.000000
-7.753000 0.000000
-7.729700 0.000000
-7.706400 0.000000
-7.683100 0.000000
-7.659800 0.000000
-7.636500 0.000000
-7.613200 0.000000
-7.589900 0.000000
-7.566600 0.000000
-7.543300 0.000000
-7.520000 0.000000
-7.496700 0.000000
-7.473400 0.000000
-7.450100 0.000000
-7.426800 0.000000
-7.403500 0.000000
-7.380200 0.000000
-7.356900 0.000000
-7.333600 0.000000
-7.310300 0.000000
-7.287000 0.000000
-7.263700 0.000000
-7.240400 0.000000
-7.217100 0.000000
-7.193800 0.000000
-7.170500 0.000000
-7.147200 0.000000
-7.123900 0.000000
-7.100600 0.000000
-7.077300 0.000000
-7.054000 0.000000
-7.030700 0.000000
-7.007400 0.000000
-6.984100 0.000000
-6.960800 0.000000
-6.937500 0.000000
-6.914200 0.000000
-6.890900 0.000000
-6.867600 0.000000
-6.844300 0.000000
-6.821000 0.000000
-6.797700 0.000000
-6.774400 0.000000
-6.751100 0.000000
-6.727800 0.000000
-6.704500 0.000000
-6.681200 0.000000
-6.657900 0.000000
-6.634600 0.000000
-6.611300 0.000000
-6.588000 0.000000
-6.564700 0.000000
-6.541400 0.000000
-6.518100 0.000000
-6.494800 0.000000
-6.471500 0.000000
-6.448200 0.000000
-6.424900 0.000000
-6.401600 0.000000
-6.378300 0.000000
-6.355000 0.000000
-6.331700 0.000000
-6.308400 0.000000
-6.285100 0.000000
-6.261800 0.000000
-6.238500 0.000000
-6.215200 0.000000
-6.191900 0.000000
-6.168600 0.000000
-6.145300 0.000000
-6.122000 0.000000
-6.098700 0.000100
-6.075400 0.016800
-6.052100 0.061400
-6.028800 0.134000
-6.005500 0.161200
-5.982200 0.166700
-5.958900 0.184600
-5.935600 0.205700
-5.912300 0.230000
-5.889000 0.254300
-5.865700 0.272100
-5.842400 0.288800
-5.819100 0.298000
-5.795800 0.299500
-5.772500 0.311700
-5.749200 0.324500
-5.725900 0.337600
-5.702600 0.351000
-5.679300 0.364800
-5.656000 0.377600
-5.632700 0.387100
-5.609400 0.396300
-5.586100 0.406700
-5.562800 0.418300
-5.539500 0.427100
-5.516200 0.435100
-5.492900 0.443400
-5.469600 0.451300
-5.446300 0.458900
-5.423000 0.466400
-5.399700 0.474800
-5.376400 0.483600
-5.353100 0.492600
-5.329800 0.501700
-5.306500 0.508800
-5.283200 0.516900
-5.259900 0.525100
-5.236600 0.533300
-5.213300 0.541300
-5.190000 0.549600
-5.166700 0.558400
-5.143400 0.566600
-5.120100 0.573200
-5.096800 0.578300
-5.073500 0.584500
-5.050200 0.591300
-5.026900 0.598100
-5.003600 0.605200
-4.980300 0.612400
-4.957000 0.619900
-4.933700 0.627400
-4.910400 0.634400
-4.887100 0.640900
-4.863800 0.646800
-4.840500 0.653100
-4.817200 0.660000
-4.793900 0.667100
-4.770600 0.674400
-4.747300 0.681700
-4.724000 0.689100
-4.700700 0.696600
-4.677400 0.704100
-4.654100 0.711700
-4.630800 0.719300
-4.607500 0.726600
-4.584200 0.733800
-4.560900 0.741200
-4.537600 0.748700
-4.514300 0.756400
-4.491000 0.764800
-4.467700 0.774200
-4.444400 0.783900
-4.421100 0.794000
-4.397800 0.803800
-4.374500 0.813900
-4.351200 0.824600
-4.327900 0.835700
-4.304600 0.847200
-4.281300 0.860600
-4.258000 0.878800
-4.234700 0.901900
-4.211400 0.933400
-4.188100 0.962600
-4.164800 0.989600
-4.141500 1.014700
-4.118200 1.037700
-4.094900 1.066400
-4.071600 1.092100
-4.048300 1.112700
-4.025000 1.128400
-4.001700 1.141500
-3.978400 1.172200
-3.955100 1.168800
-3.931800 1.096800
-3.908500 1.043900
-3.885200 1.016300
-3.861900 1.002300
-3.838600 0.986300
-3.815300 0.970500
-3.792000 0.957100
-3.768700 0.974500
-3.745400 1.007500
-3.722100 0.944800
-3.698800 0.898400
-3.675500 0.875600
-3.652200 0.873200
-3.628900 0.864200
-3.605600 0.848700
-3.582300 0.826600
-3.559000 0.797500
-3.535700 0.747300
-3.512400 0.690900
-3.489100 0.644100
-3.465800 0.608300
-3.442500 0.583400
-3.419200 0.568200
-3.395900 0.554900
-3.372600 0.542100
-3.349300 0.534300
-3.326000 0.544800
-3.302700 0.554200
-3.279400 0.567400
-3.256100 0.586600
-3.232800 0.633900
-3.209500 0.667800
-3.186200 0.696000
-3.162900 0.712200
-3.139600 0.732200
-3.116300 0.794300
-3.093000 0.889400
-3.069700 0.840600
-3.046400 0.834500
-3.023100 0.838200
-2.999800 0.843100
-2.976500 0.849900
-2.953200 0.860200
-2.929900 0.887500
-2.906600 0.947400
-2.883300 0.914900
-2.860000 0.927600
-2.836700 0.929200
-2.813400 0.905400
-2.790100 0.909900
-2.766800 0.879700
-2.743500 0.886500
-2.720200 0.921100
-2.696900 0.971400
-2.673600 1.032000
-2.650300 1.192600
-2.627000 0.992000
-2.603700 0.980900
-2.580400 0.969300
-2.557100 0.960400
-2.533800 0.958600
-2.510500 0.956500
-2.487200 0.954200
-2.463900 0.951600
-2.440600 0.949000
-2.417300 0.955700
-2.394000 0.972900
-2.370700 0.998300
-2.347400 1.024600
-2.324100 1.051900
-2.300800 1.080200
-2.277500 1.105300
-2.254200 1.141400
-2.230900 1.176400
-2.207600 1.243800
-2.184300 1.237800
-2.161000 1.303100
-2.137700 1.342500
-2.114400 1.382100
-2.091100 1.404600
-2.067800 1.348100
-2.044500 1.284100
-2.021200 1.257800
-1.997900 1.239600
-1.974600 1.223500
-1.951300 1.283900
-1.928000 1.242000
-1.904700 1.293300
-1.881400 1.238900
-1.858100 1.195000
-1.834800 1.174000
-1.811500 1.124700
-1.788200 1.137900
-1.764900 1.143500
-1.741600 1.150500
-1.718300 1.156600
-1.695000 1.160300
-1.671700 1.164400
-1.648400 1.165800
-1.625100 1.167200
-1.601800 1.173500
-1.578500 1.181300
-1.555200 1.189100
-1.531900 1.200800
-1.508600 1.212900
-1.485300 1.215700
-1.462000 1.218100
-1.438700 1.218900
-1.415400 1.220000
-1.392100 1.216100
-1.368800 1.218500
-1.345500 1.225500
-1.322200 1.234700
-1.298900 1.244000
-1.275600 1.252600
-1.252300 1.260500
-1.229000 1.340400
-1.205700 1.317900
-1.182400 1.333600
-1.159100 1.345600
-1.135800 1.383700
-1.112500 1.410100
-1.089200 1.431000
-1.065900 1.426400
-1.042600 1.418400
-1.019300 1.423100
-0.996000 1.391200
-0.972700 1.389900
-0.949400 1.389700
-0.926100 1.731300
-0.902800 1.389000
-0.879500 1.395700
-0.856200 1.399500
-0.832900 1.405300
-0.809600 1.410000
-0.786300 1.437700
-0.763000 1.431700
-0.739700 1.434100
-0.716400 1.445700
-0.693100 1.465600
-0.669800 1.483100
-0.646500 1.497400
-0.623200 1.511400
-0.599900 1.522600
-0.576600 1.541000
-0.553300 1.561800
-0.530000 1.585000
-0.506700 1.611800
-0.483400 1.653100
-0.460100 1.651600
-0.436800 1.660500
-0.413500 1.649100
-0.390200 1.636800
-0.366900 1.626800
-0.343600 1.615200
-0.320300 1.580300
-0.297000 1.575500
-0.273700 1.565800
-0.250400 1.554100
-0.227100 1.544800
-0.203800 1.540700
-0.180500 1.539300
-0.157200 1.565000
-0.133900 1.586800
-0.110600 1.546500
-0.087300 1.525800
-0.064000 1.499700
-0.040700 1.478300
-0.017400 1.463300
0.005900 1.452100
0.029200 1.445300
0.052500 1.440700
0.075800 1.437200
0.099100 1.474100
0.122400 1.478700
0.145700 1.473600
0.169000 1.466200
0.192300 1.459100
0.215600 1.457800
0.238900 1.460300
0.262200 1.490400
0.285500 1.503600
0.308800 1.459300
0.332100 1.439700
0.355400 1.424800
0.378700 1.414600
0.402000 1.331100
0.425300 1.298700
0.448600 1.281300
0.471900 1.267800
0.495200 1.253700
0.518500 1.238800
0.541800 1.223700
0.565100 1.210400
0.588400 1.198100
0.611700 1.186700
0.635000 1.175900
0.658300 1.167500
0.681600 1.162600
0.704900 1.159700
0.728200 1.164500
0.751500 1.176200
0.774800 1.183800
0.798100 1.195400
0.821400 1.178100
0.844700 1.183100
0.868000 1.193900
0.891300 1.207900
0.914600 1.235800
0.937900 1.271800
0.961200 1.310500
0.984500 1.333600
1.007800 1.357700
1.031100 1.385600
1.054400 1.424900
1.077700 1.456000
1.101000 1.458600
1.124300 1.456600
1.147600 1.435800
1.170900 1.429600
1.194200 1.422900
1.217500 1.414400
1.240800 1.396100
1.264100 1.374400
1.287400 1.353200
1.310700 1.328800
1.334000 1.312600
1.357300 1.291000
1.380600 1.269300
1.403900 1.234100
1.427200 1.188000
1.450500 1.172000
1.473800 1.161900
1.497100 1.162900
1.520400 1.173700
1.543700 1.151100
1.567000 1.139200
1.590300 1.138700
1.613600 1.145100
1.636900 1.158000
1.660200 1.176900
1.683500 1.183600
1.706800 1.181800
1.730100 1.188000
1.753500 1.193800
1.776800 1.198900
1.800100 1.203700
1.823400 1.208200
1.846700 1.213300
1.870000 1.221000
1.893300 1.230300
1.916600 1.225900
1.939900 1.230700
1.963200 1.237800
1.986500 1.234800
2.009800 1.209500
2.033100 1.191500
2.056400 1.183000
2.079700 1.177000
2.103000 1.171300
2.126300 1.172000
2.149600 1.165500
2.172900 1.160400
2.196200 1.157100
2.219500 1.156300
2.242800 1.714600
2.266100 1.121700
2.289400 1.110000
2.312700 1.109400
2.336000 1.120100
2.359300 1.140500
2.382600 1.166600
2.405900 1.195200
2.429200 1.226400
2.452500 1.260200
2.475800 1.345700
2.499100 1.365700
2.522400 1.417500
2.545700 1.491700
2.569000 1.572300
2.592300 1.650800
2.615600 1.715200
2.638900 1.743700
2.662200 1.794200
2.685500 1.859400
2.708800 1.834700
2.732100 1.768000
2.755400 1.774000
2.778700 1.783600
2.802000 1.793800
2.825300 1.810400
2.848600 1.832100
2.871900 1.849200
2.895200 1.868900
2.918500 1.889900
2.941800 1.907000
2.965100 1.922400
2.988400 1.937300
3.011700 1.965900
3.035000 1.996600
3.058300 1.997700
3.081600 2.004600
3.104900 2.017900
3.128200 1.998900
3.151500 1.977200
3.174800 1.955500
3.198100 1.952200
3.221400 1.947200
3.244700 1.990900
3.268000 1.949300
3.291300 1.943900
3.314600 1.934800
3.337900 1.921500
3.361200 1.888700
3.384500 1.893400
3.407800 1.895700
3.431100 1.912500
3.454400 1.940900
3.477700 1.954000
3.501000 2.087200
3.524300 2.098900
3.547600 2.083700
3.570900 2.100200
3.594200 2.104900
3.617500 2.073600
3.640800 2.046600
3.664100 2.003400
3.687400 1.918300
3.710700 1.838200
3.734000 1.777400
3.757300 1.865800
3.780600 1.763100
3.803900 1.733000
3.827200 1.724900
3.850500 1.729500
3.873800 1.683300
3.897100 1.673700
3.920400 1.673100
3.943700 1.701100
3.967000 1.721100
3.990300 1.708100
4.013600 1.726500
4.036900 1.735800
4.060200 1.720400
4.083500 1.687900
4.106800 1.695900
4.130100 1.712700
4.153400 1.782800
4.176700 1.745900
4.200000 1.682200
4.223300 1.655900
4.246600 1.583100
4.269900 1.527400
4.293200 1.521700
4.316500 1.488900
4.339800 1.483200
4.363100 1.484900
4.386400 1.491500
4.409700 1.511700
4.433000 1.531700
4.456300 1.532700
4.479600 1.540700
4.502900 1.558400
4.526200 1.581900
4.549500 1.610700
4.572800 1.640400
4.596100 1.673200
4.619400 1.714700
4.642700 1.733600
4.666000 1.731600
4.689300 1.723000
4.712600 1.722600
4.735900 1.745600
4.759200 1.780700
4.782500 1.828900
4.805800 1.881400
4.829100 2.011700
4.852400 1.927000
4.875700 1.939800
4.899000 1.957000
4.922300 1.902500
4.945600 1.886100
4.968900 1.873100
4.992200 1.849600
5.015500 1.802300
5.038800 1.754900
