set title 'mp-1229015 - Density of States'
set xlabel 'Energy (eV)'
set ylabel 'DOS (states/eV)'
set grid
set xrange [-10:10]
set yrange [0:8.026]
set xzeroaxis lt -1
set terminal png size 800,600
set output 'mp-1229015_dos_gnuplot.png'
plot '-' using 1:2 with lines title 'DOS'
-6.675000 0.000000
-6.640400 0.000000
-6.605900 0.000000
-6.571400 0.000000
-6.536900 0.000000
-6.502400 0.000000
-6.467900 0.000000
-6.433400 0.000000
-6.398900 0.000000
-6.364300 0.000000
-6.329800 0.000000
-6.295300 0.000000
-6.260800 0.000000
-6.226300 0.000000
-6.191800 0.000000
-6.157300 0.000000
-6.122700 0.000000
-6.088200 0.000000
-6.053700 0.000000
-6.019200 0.000000
-5.984700 0.000000
-5.950200 0.000000
-5.915700 0.000000
-5.881200 0.000000
-5.846600 0.000000
-5.812100 0.000000
-5.777600 0.000000
-5.743100 0.000000
-5.708600 0.000000
-5.674100 0.000000
-5.639600 0.000000
-5.605000 0.000000
-5.570500 0.000000
-5.536000 0.000000
-5.501500 0.000000
-5.467000 0.000000
-5.432500 0.000000
-5.398000 0.000000
-5.363500 0.000000
-5.328900 0.000000
-5.294400 0.000000
-5.259900 0.000000
-5.225400 0.000000
-5.190900 0.000000
-5.156400 0.000000
-5.121900 0.000000
-5.087300 0.000000
-5.052800 0.000000
-5.018300 0.000000
-4.983800 0.000000
-4.949300 0.000000
-4.914800 0.000000
-4.880300 0.000000
-4.845800 0.000000
-4.811200 0.000000
-4.776700 0.000000
-4.742200 0.000000
-4.707700 0.000000
-4.673200 0.000000
-4.638700 0.000000
-4.604200 0.000000
-4.569600 0.000000
-4.535100 0.000000
-4.500600 0.000000
-4.466100 0.000000
-4.431600 0.000000
-4.397100 0.000000
-4.362600 0.000000
-4.328100 0.000000
-4.293500 0.000000
-4.259000 0.000000
-4.224500 0.000000
-4.190000 0.000000
-4.155500 0.000000
-4.121000 0.000000
-4.086500 0.000000
-4.051900 0.000000
-4.017400 0.000000
-3.982900 0.000000
-3.948400 0.000000
-3.913900 0.000000
-3.879400 0.000000
-3.844900 0.000000
-3.810400 0.000000
-3.775800 0.000000
-3.741300 0.000000
-3.706800 0.000000
-3.672300 0.000000
-3.637800 0.000000
-3.603300 0.000000
-3.568800 0.000000
-3.534200 0.000100
-3.499700 0.007700
-3.465200 0.022700
-3.430700 0.041100
-3.396200 0.062800
-3.361700 0.062800
-3.327200 0.067000
-3.292700 0.073100
-3.258100 0.080500
-3.223600 0.087800
-3.189100 0.093900
-3.154600 0.100800
-3.120100 0.108000
-3.085600 0.114800
-3.051100 0.120300
-3.016500 0.124800
-2.982000 0.128600
-2.947500 0.132800
-2.913000 0.137800
-2.878500 0.143100
-2.844000 0.148500
-2.809500 0.154100
-2.775000 0.159800
-2.740400 0.165700
-2.705900 0.171800
-2.671400 0.178000
-2.636900 0.184300
-2.602400 0.190700
-2.567900 0.196400
-2.533400 0.202900
-2.498800 0.210100
-2.464300 0.217600
-2.429800 0.225400
-2.395300 0.233700
-2.360800 0.247200
-2.326300 0.260500
-2.291800 0.269100
-2.257300 0.270000
-2.222700 0.266800
-2.188200 0.271700
-2.153700 0.276500
-2.119200 0.281200
-2.084700 0.285800
-2.050200 0.290300
-2.015700 0.294700
-1.981100 0.299100
-1.946600 0.302700
-1.912100 0.306700
-1.877600 0.311500
-1.843100 0.317800
-1.808600 0.325000
-1.774100 0.332800
-1.739600 0.341100
-1.705000 0.350100
-1.670500 0.359800
-1.636000 0.370600
-1.601500 0.382300
-1.567000 0.395300
-1.532500 0.410100
-1.498000 0.426800
-1.463400 0.444600
-1.428900 0.463800
-1.394400 0.484900
-1.359900 0.612700
-1.325400 0.928700
-1.290900 1.340800
-1.256400 1.562500
-1.221900 1.685100
-1.187300 1.937900
-1.152800 2.110600
-1.118300 2.329800
-1.083800 2.504500
-1.049300 2.686600
-1.014800 2.831500
-0.980300 2.972300
-0.945800 3.170100
-0.911200 3.480900
-0.876700 3.674700
-0.842200 3.821900
-0.807700 3.847500
-0.773200 3.787100
-0.738700 3.808900
-0.704200 4.015800
-0.669600 4.324300
-0.635100 4.315900
-0.600600 4.261300
-0.566100 4.196800
-0.531600 4.247500
-0.497100 4.441800
-0.462600 4.633800
-0.428100 4.593800
-0.393500 4.503400
-0.359000 4.630400
-0.324500 5.001400
-0.290000 4.749200
-0.255500 4.766700
-0.221000 4.506500
-0.186500 3.434400
-0.151900 3.190100
-0.117400 3.054500
-0.082900 3.212500
-0.048400 2.980800
-0.013900 2.902600
0.020600 3.124800
0.055100 3.651900
0.089600 3.037200
0.124200 3.057600
0.158700 2.500600
0.193200 2.629600
0.227700 3.216600
0.262200 3.557500
0.296700 3.540800
0.331200 4.267000
0.365800 4.516400
0.400300 4.718400
0.434800 4.368600
0.469300 4.229500
0.503800 4.042400
0.538300 4.138100
0.572800 4.026300
0.607300 3.930900
0.641900 4.000400
0.676400 5.744800
0.710900 4.616800
0.745400 4.090600
0.779900 4.968300
0.814400 4.502000
0.848900 4.396900
0.883500 4.792500
0.918000 5.661800
0.952500 6.849500
0.987000 5.437300
1.021500 5.478200
1.056000 5.771800
1.090500 7.296000
1.125000 6.155900
1.159600 6.054000
1.194100 5.505400
1.228600 5.511200
1.263100 5.451200
1.297600 5.295800
1.332100 4.988200
1.366600 3.958800
1.401200 3.263900
1.435700 3.626300
1.470200 4.035300
1.504700 3.191200
1.539200 2.793100
1.573700 2.872200
1.608200 2.369100
1.642700 2.048200
1.677300 1.850600
1.711800 1.992700
1.746300 2.918100
1.780800 3.255900
1.815300 3.410400
1.849800 3.535200
1.884300 3.938100
1.918900 4.274700
1.953400 4.609300
1.987900 4.454800
2.022400 3.934400
2.056900 3.691800
2.091400 3.504500
2.125900 3.327100
2.160400 3.366100
2.195000 3.391600
2.229500 3.251500
2.264000 2.994000
2.298500 2.774500
2.333000 2.674400
2.367500 2.546700
2.402000 2.265700
2.436600 2.305800
2.471100 2.351900
2.505600 2.405700
2.540100 2.534000
2.574600 2.604600
2.609100 2.778100
2.643600 2.939500
2.678100 3.184200
2.712700 3.325400
2.747200 3.329600
2.781700 2.995300
2.816200 3.135300
2.850700 3.042200
2.885200 3.052900
2.919700 3.017000
2.954300 2.978300
2.988800 2.950500
3.023300 3.018000
3.057800 3.111800
3.092300 3.384300
3.126800 3.708600
3.161300 3.357800
3.195800 3.002000
3.230400 2.780300
3.264900 2.576700
3.299400 2.416800
3.333900 2.384900
3.368400 2.271500
3.402900 2.241600
3.437400 2.374000
3.472000 2.355900
3.506500 2.408700
3.541000 2.425200
3.575500 2.447300
3.610000 2.494900
3.644500 2.800900
3.679000 3.447500
3.713500 3.623700
3.748100 3.354600
3.782600 3.164000
3.817100 2.896300
3.851600 2.766300
3.886100 2.777000
3.920600 2.886400
3.955100 2.923100
3.989700 3.037200
4.024200 3.250200
4.058700 3.794000
4.093200 3.899400
4.127700 3.581800
4.162200 3.448100
4.196700 3.350200
4.231200 3.341300
4.265800 3.178500
4.300300 2.797300
4.334800 2.432000
4.369300 2.019400
4.403800 1.781600
4.438300 1.122300
4.472800 1.064900
4.507400 1.022500
4.541900 0.981200
4.576400 0.951700
4.610900 0.930800
4.645400 0.914600
4.679900 0.906300
4.714400 0.901200
4.748900 0.898300
4.783500 0.896900
4.818000 0.896100
4.852500 0.892800
4.887000 0.888500
4.921500 0.882300
4.956000 0.874100
4.990500 0.846500
5.025100 0.820000
5.059600 0.803800
5.094100 0.793500
5.128600 0.782700
5.163100 0.774500
5.197600 0.769300
5.232100 0.766900
5.266600 0.765100
5.301200 0.704900
5.335700 0.689800
5.370200 0.693500
5.404700 0.696800
5.439200 0.699000
5.473700 0.699800
5.508200 0.699300
5.542700 0.697500
5.577300 0.694200
5.611800 0.690400
5.646300 0.686600
5.680800 0.682800
5.715300 0.680000
5.749800 0.677100
5.784300 0.674500
5.818900 0.672000
5.853400 0.669300
5.887900 0.667000
5.922400 0.664800
5.956900 0.662600
5.991400 0.659800
6.025900 0.655300
6.060400 0.655400
6.095000 0.663200
6.129500 0.671200
6.164000 0.671200
6.198500 0.666000
6.233000 0.660200
6.267500 0.654200
6.302000 0.647700
6.336600 0.641700
6.371100 0.636200
6.405600 0.631000
6.440100 0.626600
6.474600 0.622500
6.509100 0.618000
6.543600 0.612500
6.578100 0.607800
6.612700 0.604300
6.647200 0.600900
6.681700 0.597600
6.716200 0.594500
6.750700 0.591800
6.785200 0.589600
6.819700 0.587700
6.854300 0.586200
6.888800 0.586000
6.923300 0.586600
6.957800 0.590000
6.992300 0.599300
7.026800 0.603700
7.061300 0.603300
7.095800 0.595800
7.130400 0.574400
7.164900 0.560000
7.199400 0.553700
7.233900 0.549200
7.268400 0.546600
7.302900 0.544500
7.337400 0.542600
7.372000 0.541000
7.406500 0.539500
7.441000 0.537700
7.475500 0.535600
7.510000 0.533800
7.544500 0.532000
7.579000 0.532500
7.613500 0.531600
7.648100 0.529100
7.682600 0.525100
7.717100 0.520500
7.751600 0.515700
7.786100 0.510800
7.820600 0.506200
7.855100 0.503000
7.889700 0.501700
7.924200 0.502800
7.958700 0.505100
7.993200 0.509700
8.027700 0.516600
8.062200 0.525000
8.096700 0.535500
8.131200 0.558000
8.165800 0.572800
8.200300 0.575400
8.234800 0.550300
8.269300 0.523600
8.303800 0.510200
8.338300 0.502600
8.372800 0.495500
8.407400 0.488700
8.441900 0.483100
8.476400 0.477700
8.510900 0.478600
8.545400 0.485500
8.579900 0.495300
8.614400 0.502600
8.648900 0.506000
8.683500 0.505400
8.718000 0.499500
8.752500 0.487900
8.787000 0.473800
8.821500 0.461100
8.856000 0.452500
8.890500 0.439000
8.925100 0.421900
8.959600 0.403800
8.994100 0.386200
9.028600 0.373300
9.063100 0.370700
9.097600 0.369000
9.132100 0.367400
9.166600 0.365700
9.201200 0.364000
9.235700 0.362400
9.270200 0.360700
9.304700 0.359700
9.339200 0.360700
9.373700 0.363800
9.408200 0.369100
9.442800 0.375500
9.477300 0.483100
9.511800 0.491500
9.546300 0.513500
9.580800 0.541800
9.615300 0.571300
9.649800 0.598800
9.684300 0.587400
9.718900 0.541300
9.753400 0.533300
9.787900 0.524200
9.822400 0.517600
9.856900 0.508500
9.891400 0.494700
9.925900 0.477300
9.960500 0.530200
9.995000 0.611000
10.029500 0.694000
10.064000 0.755800
10.098500 0.805700
10.133000 0.820000
10.167500 0.812400
10.202000 0.782300
10.236600 0.744300
10.271100 0.713800
10.305600 0.687300
10.340100 0.670400
10.374600 0.660200
10.409100 0.652400
10.443600 0.646700
10.478200 0.641400
10.512700 0.637200
10.547200 0.634100
10.581700 0.630900
10.616200 0.657100
10.650700 0.652400
10.685200 0.648700
10.719700 0.645000
10.754300 0.639400
10.788800 0.633600
10.823300 0.630400
10.857800 0.627000
10.892300 0.621900
10.926800 0.615800
10.961300 0.613600
10.995900 0.619400
11.030400 0.626900
11.064900 0.631300
11.099400 0.629600
11.133900 0.620500
11.168400 0.619800
11.202900 0.620600
11.237400 0.619600
11.272000 0.616200
11.306500 0.610500
11.341000 0.604400
11.375500 0.600700
11.410000 0.600300
11.444500 0.603700
11.479000 0.612100
11.513600 0.618300
11.548100 0.628400
11.582600 0.627700
11.617100 0.621800
11.651600 0.620400
11.686100 0.622500
11.720600 0.624200
11.755100 0.623800
11.789700 0.622000
11.824200 0.621600
11.858700 0.625000
11.893200 0.635700
11.927700 0.646400
11.962200 0.644700
11.996700 0.632200
12.031300 0.612400
12.065800 0.585700
12.100300 0.552400
12.134800 0.522200
12.169300 0.500500
12.203800 0.485200
12.238300 0.473100
12.272800 0.463900
12.307400 0.459100
12.341900 0.458500
12.376400 0.460200
12.410900 0.472600
12.445400 0.463500
12.479900 0.472200
12.514400 0.485200
12.548900 0.499800
12.583500 0.517300
12.618000 0.537900
12.652500 0.561900
12.687000 0.587400
12.721500 0.623700
12.756000 0.652400
12.790500 0.690800
12.825100 0.727300
12.859600 0.788900
12.894100 0.795800
12.928600 0.808600
12.963100 0.822800
12.997600 0.827500
13.032100 0.833400
13.066600 0.842900
13.101200 0.847400
13.135700 0.852800
13.170200 0.848200
13.204700 0.821900
13.239200 0.790400
13.273700 0.739100
13.308200 0.704800
13.342800 0.684700
13.377300 0.668800
13.411800 0.655700
13.446300 0.648500
13.480800 0.650500
13.515300 0.662500
13.549800 0.672000
13.584300 0.672900
13.618900 0.677000
13.653400 0.680400
13.687900 0.683500
13.722400 0.687200
13.756900 0.693900
13.791400 0.702400
13.825900 0.712500
13.860500 0.723600
13.895000 0.746000
13.929500 0.756200
13.964000 0.759900
13.998500 0.766900
14.033000 0.780200
14.067500 0.790200
14.102000 0.794900
14.136600 0.798200
14.171100 0.804500
14.205600 0.813500
14.240100 0.817800
14.274600 0.815700
14.309100 0.810700
14.343600 0.803500
14.378200 0.796900
14.412700 0.790700
14.447200 0.785000
14.481700 0.781500
14.516200 0.779600
14.550700 0.776900
14.585200 0.774100
14.619700 0.772700
14.654300 0.772100
14.688800 0.770100
14.723300 0.767500
14.757800 0.765100
14.792300 0.763300
14.826800 0.761900
14.861300 0.760900
14.895900 0.785100
14.930400 0.778300
14.964900 0.763100
14.999400 0.769200
15.033900 0.776900
15.068400 0.781900
15.102900 0.793400
15.137400 0.801600
15.172000 0.807800
15.206500 0.814400
15.241000 0.820600
15.275500 0.828100
15.310000 0.853800
15.344500 0.865600
15.379000 0.863900
15.413600 0.856500
15.448100 0.853600
15.482600 0.855000
15.517100 0.858400
15.551600 0.861500
15.586100 0.864000
15.620600 0.868000
15.655100 0.874200
15.689700 0.890000
15.724200 0.930500
15.758700 0.940300
15.793200 0.906100
15.827700 0.902500
15.862200 0.909900
15.896700 0.924300
15.931300 0.936400
15.965800 0.944400
16.000300 0.948500
16.034800 0.954000
16.069300 0.956300
16.103800 0.957100
16.138300 0.959900
16.172800 0.955200
16.207400 0.954700
16.241900 0.970400
16.276400 0.994700
16.310900 1.061600
16.345400 1.037600
16.379900 1.049300
16.414400 1.056000
16.449000 1.060000
16.483500 1.063000
16.518000 1.066300
16.552500 1.074000
16.587000 1.076600
16.621500 1.071500
16.656000 1.052700
16.690500 1.031000
16.725100 1.033200
16.759600 1.037000
16.794100 1.031300
16.828600 1.019500
16.863100 1.013100
16.897600 1.009800
16.932100 1.007100
16.966700 1.004900
17.001200 1.003500
17.035700 1.005700
17.070200 1.019000
17.104700 1.025200
17.139200 1.028000
17.173700 1.029900
17.208200 1.030800
17.242800 1.030700
17.277300 1.031100
17.311800 1.043200
17.346300 1.049600
17.380800 1.047400
17.415300 1.039400
17.449800 1.037900
17.484400 1.030700
17.518900 1.031800
17.553400 1.039400
17.587900 1.077900
17.622400 1.110400
17.656900 1.083400
17.691400 1.079600
17.725900 1.072000
17.760500 1.055700
17.795000 1.042700
17.829500 1.030800
17.864000 1.029200
17.898500 1.027300
17.933000 1.022600
17.967500 1.015000
18.002100 1.002100
18.036600 0.983100
18.071100 0.963900
18.105600 0.943400
18.140100 0.929500
18.174600 0.924400
18.209100 0.920700
18.243600 0.919400
18.278200 0.918100
18.312700 0.910400
18.347200 0.886800
18.381700 0.863700
18.416200 0.842800
18.450700 0.829700
18.485200 0.841100
18.519800 0.816300
18.554300 0.808900
18.588800 0.806100
18.623300 0.806400
18.657800 0.811800
18.692300 0.821700
18.726800 0.834700
18.761300 0.849600
18.795900 0.866400
18.830400 0.886500
18.864900 0.902000
18.899400 0.907100
18.933900 0.891900
18.968400 0.905100
19.002900 0.915100
19.037400 0.920700
19.072000 0.932500
19.106500 0.944600
19.141000 0.960600
19.175500 0.983900
19.210000 1.009200
19.244500 1.027200
19.279000 1.041600
19.313600 1.052300
19.348100 1.059800
19.382600 1.063000
19.417100 1.061600
19.451600 1.065100
19.486100 1.074700
19.520600 1.085100
19.555100 1.086300
19.589700 1.080700
19.624200 1.068400
19.658700 1.057900
19.693200 1.066400
19.727700 1.076900
19.762200 1.079600
19.796700 1.076500
19.831300 1.069900
19.865800 1.064700
19.900300 1.061000
19.934800 1.058200
19.969300 1.056100
20.003800 1.054500
20.038300 1.053400
20.072800 1.052800
20.107400 1.051700
20.141900 1.050600
20.176400 1.049800
20.210900 1.050800
20.245400 1.054000
20.279900 1.059300
20.314400 1.066500
20.349000 1.078400
20.383500 1.091100
20.418000 1.101100
20.452500 1.109600
20.487000 1.117900
20.521500 1.132200
20.556000 1.169000
20.590500 1.240100
20.625100 1.380900
20.659600 1.414100
20.694100 1.305200
20.728600 1.256500
20.763100 1.237600
20.797600 1.239900
20.832100 1.458500
20.866700 1.237800
20.901200 1.200700
20.935700 1.183100
20.970200 1.166100
21.004700 1.137800
21.039200 1.098800
21.073700 1.041400
21.108200 1.012800
21.142800 1.010600
21.177300 1.011300
21.211800 1.016000
21.246300 1.028500
21.280800 1.080100
21.315300 1.135600
21.349800 1.080600
21.384400 1.032400
21.418900 1.019200
21.453400 1.012000
21.487900 1.012800
21.522400 1.022000
21.556900 1.062300
21.591400 1.121800
21.625900 1.165200
21.660500 1.101200
21.695000 1.087600
21.729500 1.070900
21.764000 1.033800
21.798500 0.978300
21.833000 0.946600
21.867500 0.923900
21.902100 0.910400
21.936600 0.899600
21.971100 0.888000
22.005600 0.884000
22.040100 0.889900
22.074600 0.902800
22.109100 0.922600
22.143600 0.948900
22.178200 0.979300
22.212700 1.008100
22.247200 1.011600
22.281700 1.001800
22.316200 0.953000
22.350700 0.947200
22.385200 0.911200
22.419800 0.852200
22.454300 0.844300
22.488800 0.846100
22.523300 0.851700
22.557800 0.856100
22.592300 0.856200
22.626800 0.861900
22.661300 0.866400
22.695900 0.870800
22.730400 0.892600
22.764900 0.932500
22.799400 0.935300
22.833900 0.934200
22.868400 0.940300
22.902900 0.948300
22.937500 0.962900
22.972000 0.979800
23.006500 0.999200
23.041000 1.021300
23.075500 1.046300
23.110000 1.075000
23.144500 1.111200
23.179000 1.156100
23.213600 1.184800
23.248100 1.198800
23.282600 1.221500
23.317100 1.262700
23.351600 1.317700
23.386100 1.382200
23.420600 1.448300
23.455200 1.514100
23.489700 1.594800
23.524200 1.692300
23.558700 1.808300
23.593200 1.736000
23.627700 1.575000
23.662200 1.558200
23.696700 1.589800
23.731300 1.626700
23.765800 1.639700
23.800300 1.620100
23.834800 1.628900
23.869300 1.602900
23.903800 1.571500
23.938300 1.508100
23.972900 1.490200
24.007400 1.475600
24.041900 1.461900
24.076400 1.453900
24.110900 1.449300
24.145400 1.426400
24.179900 1.440400
24.214400 1.443400
24.249000 1.436600
24.283500 1.432700
24.318000 1.427500
24.352500 1.422600
24.387000 1.424400
24.421500 1.419200
24.456000 1.421200
24.490600 1.442000
24.525100 1.492800
24.559600 1.544200
24.594100 1.589800
24.628600 1.641800
24.663100 1.706600
24.697600 1.747400
24.732100 1.763900
24.766700 1.779100
24.801200 1.765400
24.835700 1.731700
24.870200 1.685900
24.904700 1.640000
24.939200 1.578900
24.973700 1.536800
25.008300 1.497400
25.042800 1.472600
25.077300 1.447900
25.111800 1.420200
25.146300 1.391900
25.180800 1.349600
25.215300 1.301300
25.249800 1.242600
25.284400 1.194100
25.318900 1.164400
25.353400 1.135600
25.387900 1.113500
25.422400 1.090800
25.456900 1.070800
25.491400 1.056400
25.525900 1.043800
25.560500 1.032100
25.595000 1.022300
25.629500 1.014800
25.664000 1.008200
25.698500 1.002900
25.733000 0.998400
25.767500 0.995800
25.802100 0.995800
25.836600 1.007400
25.871100 1.035100
25.905600 1.068700
25.940100 1.092100
25.974600 1.089600
26.009100 1.077600
26.043600 1.084600
26.078200 1.092000
26.112700 1.098200
26.147200 1.103300
26.181700 1.106400
26.216200 1.132700
26.250700 1.187200
26.285200 1.164800
26.319800 1.119100
26.354300 1.100300
26.388800 1.081700
26.423300 1.060700
26.457800 1.036800
26.492300 1.013200
26.526800 0.979800
26.561300 0.938300
26.595900 0.910100
26.630400 0.889500
26.664900 0.877100
26.699400 0.866100
26.733900 0.849100
26.768400 0.823200
26.802900 0.786700
26.837500 0.757100
26.872000 0.737400
26.906500 0.724000
26.941000 0.680500
26.975500 0.664800
27.010000 0.651200
27.044500 0.641100
27.079000 0.634500
27.113600 0.629200
27.148100 0.610600
27.182600 0.598000
27.217100 0.594000
27.251600 0.588600
27.286100 0.579400
27.320600 0.569700
27.355200 0.561900
27.389700 0.552300
27.424200 0.543400
27.458700 0.533300
27.493200 0.524400
27.527700 0.518000
27.562200 0.517300
27.596700 0.518200
27.631300 0.523000
27.665800 0.530200
27.700300 0.539200
27.734800 0.551300
27.769300 0.565800
27.803800 0.582100
27.838300 0.632700
27.872900 0.654700
27.907400 0.674300
27.941900 0.704900
27.976400 0.739400
28.010900 0.770800
28.045400 0.796300
28.079900 0.822600
28.114400 0.858600
28.149000 0.903900
28.183500 0.955100
28.218000 0.998500
28.252500 1.015700
28.287000 1.023100
28.321500 1.028000
28.356000 1.032400
28.390600 1.036200
28.425100 1.040400
28.459600 1.047200
28.494100 1.052300
28.528600 1.052500
28.563100 1.047300
28.597600 1.044900
28.632100 1.038200
28.666700 1.023100
28.701200 1.003800
28.735700 0.974400
28.770200 0.947300
28.804700 0.928700
28.839200 0.921000
28.873700 0.948900
28.908300 0.986800
28.942800 0.922900
28.977300 0.954600
29.011800 0.982700
29.046300 0.975200
29.080800 0.963800
29.115300 0.981400
29.149800 0.986900
29.184400 0.986800
29.218900 0.985700
29.253400 0.984600
29.287900 0.985600
29.322400 1.057300
29.356900 0.970400
29.391400 0.971200
29.426000 0.978900
29.460500 1.000200
29.495000 1.015200
29.529500 1.042000
29.564000 1.073200
29.598500 1.095600
29.633000 1.111500
