set title 'mp-570781 - Density of States'
set xlabel 'Energy (eV)'
set ylabel 'DOS (states/eV)'
set grid
set xrange [-10:10]
set yrange [0:258.946]
set xzeroaxis lt -1
set terminal png size 800,600
set output 'mp-570781_dos_gnuplot.png'
plot '-' using 1:2 with lines title 'DOS'
-12.480300 0.000000
-12.465900 0.000000
-12.451500 0.000000
-12.437000 0.000000
-12.422600 0.000000
-12.408100 0.000000
-12.393700 0.000000
-12.379300 0.000000
-12.364800 0.000000
-12.350400 0.000000
-12.335900 0.000000
-12.321500 0.000000
-12.307000 0.000000
-12.292600 0.000000
-12.278200 0.000000
-12.263700 0.000000
-12.249300 0.000000
-12.234800 0.000000
-12.220400 0.000000
-12.205900 0.000000
-12.191500 0.000000
-12.177100 0.000000
-12.162600 0.000000
-12.148200 0.000000
-12.133700 0.000000
-12.119300 0.000000
-12.104900 0.000000
-12.090400 0.000000
-12.076000 0.000000
-12.061500 0.000000
-12.047100 0.000000
-12.032600 0.000000
-12.018200 0.000000
-12.003800 0.000000
-11.989300 0.000000
-11.974900 0.000000
-11.960400 0.000000
-11.946000 0.000000
-11.931600 0.000000
-11.917100 0.000000
-11.902700 0.000000
-11.888200 0.000000
-11.873800 0.000000
-11.859300 0.000000
-11.844900 0.000000
-11.830500 0.000000
-11.816000 0.000000
-11.801600 0.000000
-11.787100 0.000000
-11.772700 0.000000
-11.758200 0.000000
-11.743800 0.000000
-11.729400 0.000000
-11.714900 0.000000
-11.700500 0.000000
-11.686000 0.000000
-11.671600 0.000000
-11.657200 0.000000
-11.642700 0.000000
-11.628300 0.000000
-11.613800 0.000000
-11.599400 0.000000
-11.584900 0.000000
-11.570500 0.000000
-11.556100 0.000000
-11.541600 0.000000
-11.527200 0.000000
-11.512700 0.000000
-11.498300 0.000000
-11.483800 0.000000
-11.469400 0.000000
-11.455000 0.000000
-11.440500 0.000000
-11.426100 0.000000
-11.411600 0.000000
-11.397200 0.000000
-11.382800 0.000000
-11.368300 0.000000
-11.353900 0.000000
-11.339400 0.000000
-11.325000 0.000000
-11.310500 0.000000
-11.296100 0.000000
-11.281700 0.000000
-11.267200 0.000000
-11.252800 0.000000
-11.238300 0.000000
-11.223900 0.000000
-11.209500 0.000000
-11.195000 0.000000
-11.180600 0.000000
-11.166100 0.047500
-11.151700 0.569800
-11.137200 1.092200
-11.122800 1.614500
-11.108400 2.136800
-11.093900 2.659200
-11.079500 1.758400
-11.065000 1.831900
-11.050600 1.905500
-11.036100 2.503900
-11.021700 3.204900
-11.007300 4.333500
-10.992800 5.462000
-10.978400 6.590600
-10.963900 6.323100
-10.949500 6.999200
-10.935100 6.210600
-10.920600 6.470800
-10.906200 6.731000
-10.891700 6.991300
-10.877300 7.249500
-10.862800 7.918500
-10.848400 8.702300
-10.834000 9.486200
-10.819500 10.302600
-10.805100 11.494800
-10.790600 11.766200
-10.776200 12.887000
-10.761700 14.042600
-10.747300 16.177100
-10.732900 18.136000
-10.718400 19.657400
-10.704000 24.436400
-10.689500 27.470700
-10.675100 26.169200
-10.660700 24.867600
-10.646200 30.193900
-10.631800 54.905000
-10.617300 42.310900
-10.602900 22.790400
-10.588400 28.313700
-10.574000 39.761300
-10.559600 46.329700
-10.545100 49.368400
-10.530700 53.723500
-10.516200 43.864100
-10.501800 70.529300
-10.487400 23.322100
-10.472900 38.547800
-10.458500 14.221100
-10.444000 14.196100
-10.429600 14.948100
-10.415100 15.700100
-10.400700 28.854600
-10.386300 27.105700
-10.371800 31.206600
-10.357400 37.233900
-10.342900 74.504200
-10.328500 48.555600
-10.314000 35.604600
-10.299600 30.091500
-10.285200 15.766400
-10.270700 96.442500
-10.256300 27.053200
-10.241800 4.504700
-10.227400 4.620100
-10.213000 4.735400
-10.198500 4.850700
-10.184100 4.966000
-10.169600 5.776300
-10.155200 6.618000
-10.140700 7.459700
-10.126300 20.480600
-10.111900 19.153000
-10.097400 19.024000
-10.083000 21.287400
-10.068500 41.079200
-10.054100 39.784200
-10.039600 0.000000
-10.025200 0.000000
-10.010800 0.000000
-9.996300 0.000000
-9.981900 0.000000
-9.967400 0.000000
-9.953000 0.000000
-9.938600 0.000000
-9.924100 0.000000
-9.909700 0.000000
-9.895200 0.000000
-9.880800 0.000000
-9.866300 0.000000
-9.851900 0.000000
-9.837500 0.000000
-9.823000 0.000000
-9.808600 0.000000
-9.794100 0.000000
-9.779700 0.000000
-9.765300 0.000000
-9.750800 0.000000
-9.736400 0.000000
-9.721900 0.000000
-9.707500 0.000000
-9.693000 0.000000
-9.678600 0.000000
-9.664200 0.000000
-9.649700 0.000000
-9.635300 0.000000
-9.620800 0.000000
-9.606400 0.000000
-9.591900 0.000000
-9.577500 0.000000
-9.563100 0.000000
-9.548600 0.000000
-9.534200 0.000000
-9.519700 0.000000
-9.505300 0.000000
-9.490900 0.000000
-9.476400 0.000000
-9.462000 0.000000
-9.447500 0.000000
-9.433100 0.000000
-9.418600 0.000000
-9.404200 0.000000
-9.389800 0.000000
-9.375300 0.000000
-9.360900 0.000000
-9.346400 0.000000
-9.332000 0.000000
-9.317500 0.000000
-9.303100 0.000000
-9.288700 0.000000
-9.274200 0.000000
-9.259800 0.000000
-9.245300 0.000000
-9.230900 0.000000
-9.216500 0.000000
-9.202000 0.000000
-9.187600 0.000000
-9.173100 0.000000
-9.158700 0.000000
-9.144200 0.000000
-9.129800 0.000000
-9.115400 0.000000
-9.100900 0.000000
-9.086500 0.000000
-9.072000 0.000000
-9.057600 0.000000
-9.043200 0.000000
-9.028700 0.000000
-9.014300 0.000000
-8.999800 0.000000
-8.985400 0.000000
-8.970900 0.000000
-8.956500 0.000000
-8.942100 0.000000
-8.927600 0.000000
-8.913200 0.000000
-8.898700 0.000000
-8.884300 0.000000
-8.869800 0.000000
-8.855400 0.000000
-8.841000 0.000000
-8.826500 0.000000
-8.812100 0.000000
-8.797600 0.000000
-8.783200 0.000000
-8.768800 0.000000
-8.754300 0.000000
-8.739900 0.000000
-8.725400 0.000000
-8.711000 0.000000
-8.696500 0.000000
-8.682100 0.000000
-8.667700 0.000000
-8.653200 0.000000
-8.638800 0.000000
-8.624300 0.000000
-8.609900 0.000000
-8.595400 0.000000
-8.581000 0.000000
-8.566600 0.000000
-8.552100 0.000000
-8.537700 0.000000
-8.523200 0.000000
-8.508800 0.000000
-8.494400 0.000000
-8.479900 0.000000
-8.465500 0.000000
-8.451000 0.000000
-8.436600 0.000000
-8.422100 0.000000
-8.407700 0.000000
-8.393300 0.000000
-8.378800 0.000000
-8.364400 0.000000
-8.349900 0.000000
-8.335500 0.000000
-8.321100 0.000000
-8.306600 0.000000
-8.292200 0.000000
-8.277700 0.000000
-8.263300 0.000000
-8.248800 0.000000
-8.234400 0.000000
-8.220000 0.000000
-8.205500 0.000000
-8.191100 0.000000
-8.176600 0.000000
-8.162200 0.000000
-8.147700 0.000000
-8.133300 0.000000
-8.118900 0.000000
-8.104400 0.000000
-8.090000 0.000000
-8.075500 0.000000
-8.061100 0.000000
-8.046700 0.000000
-8.032200 0.000000
-8.017800 0.000000
-8.003300 0.000000
-7.988900 0.000000
-7.974400 0.000000
-7.960000 0.000000
-7.945600 0.000000
-7.931100 0.000000
-7.916700 0.000000
-7.902200 0.000000
-7.887800 0.000000
-7.873300 0.000000
-7.858900 0.000000
-7.844500 0.000000
-7.830000 0.000000
-7.815600 0.000000
-7.801100 0.000000
-7.786700 0.000000
-7.772300 0.000000
-7.757800 0.000000
-7.743400 0.000000
-7.728900 0.000000
-7.714500 0.000000
-7.700000 0.000000
-7.685600 0.000000
-7.671200 0.000000
-7.656700 0.000000
-7.642300 0.000000
-7.627800 0.000000
-7.613400 0.000000
-7.599000 0.000000
-7.584500 0.000000
-7.570100 0.000000
-7.555600 0.000000
-7.541200 0.000000
-7.526700 0.000000
-7.512300 0.000000
-7.497900 0.000000
-7.483400 0.000000
-7.469000 0.000000
-7.454500 0.000000
-7.440100 0.000000
-7.425600 0.000000
-7.411200 0.000000
-7.396800 0.000000
-7.382300 0.000000
-7.367900 0.000000
-7.353400 0.000000
-7.339000 0.000000
-7.324600 0.000000
-7.310100 0.000000
-7.295700 0.000000
-7.281200 0.000000
-7.266800 0.000000
-7.252300 0.000000
-7.237900 0.000000
-7.223500 0.000000
-7.209000 0.000000
-7.194600 0.000000
-7.180100 0.000000
-7.165700 0.000000
-7.151200 0.000000
-7.136800 0.000000
-7.122400 0.000000
-7.107900 0.000000
-7.093500 0.000000
-7.079000 0.000000
-7.064600 0.000000
-7.050200 0.000000
-7.035700 0.000000
-7.021300 0.000000
-7.006800 0.000000
-6.992400 0.000000
-6.977900 0.000000
-6.963500 0.000000
-6.949100 0.000000
-6.934600 0.000000
-6.920200 0.000000
-6.905700 13.268700
-6.891300 25.070600
-6.876900 49.415100
-6.862400 35.282700
-6.848000 16.606700
-6.833500 15.394000
-6.819100 14.498500
-6.804600 65.302400
-6.790200 58.540600
-6.775800 57.576600
-6.761300 78.959200
-6.746900 92.040100
-6.732400 163.376500
-6.718000 108.418400
-6.703500 88.136600
-6.689100 103.958100
-6.674700 72.188400
-6.660200 94.912400
-6.645800 43.227400
-6.631300 68.474400
-6.616900 158.551400
-6.602500 97.337400
-6.588000 235.405900
-6.573600 83.621400
-6.559100 161.616000
-6.544700 48.547200
-6.530200 61.892400
-6.515800 106.633900
-6.501400 100.674200
-6.486900 76.131900
-6.472500 43.256000
-6.458000 32.983400
-6.443600 206.730000
-6.429100 87.096400
-6.414700 66.004100
-6.400300 122.697500
-6.385800 32.512100
-6.371400 146.844900
-6.356900 65.447100
-6.342500 48.873100
-6.328100 86.833800
-6.313600 45.225800
-6.299200 48.486700
-6.284700 48.161600
-6.270300 31.310800
-6.255800 55.384500
-6.241400 15.224400
-6.227000 14.310500
-6.212500 59.220900
-6.198100 39.337500
-6.183600 27.524900
-6.169200 14.009400
-6.154800 23.102400
-6.140300 112.514300
-6.125900 29.637700
-6.111400 92.655600
-6.097000 10.113300
-6.082500 17.682100
-6.068100 15.212800
-6.053700 12.743400
-6.039200 10.274000
-6.024800 0.000000
-6.010300 0.000000
-5.995900 0.000000
-5.981400 0.000000
-5.967000 0.000000
-5.952600 0.000000
-5.938100 0.000000
-5.923700 0.000000
-5.909200 0.000000
-5.894800 0.000000
-5.880400 0.000000
-5.865900 0.000000
-5.851500 0.000000
-5.837000 0.000000
-5.822600 0.000000
-5.808100 0.000000
-5.793700 0.000000
-5.779300 0.000000
-5.764800 0.000000
-5.750400 0.000000
-5.735900 0.000000
-5.721500 0.000000
-5.707000 0.000000
-5.692600 0.000000
-5.678200 0.000000
-5.663700 0.000000
-5.649300 0.000000
-5.634800 0.000000
-5.620400 0.000000
-5.606000 0.000000
-5.591500 0.000000
-5.577100 0.000000
-5.562600 0.000000
-5.548200 0.000000
-5.533700 0.000000
-5.519300 0.000000
-5.504900 0.000000
-5.490400 0.000000
-5.476000 0.000000
-5.461500 0.000000
-5.447100 0.000000
-5.432700 0.000000
-5.418200 0.000000
-5.403800 0.000000
-5.389300 0.000000
-5.374900 0.000000
-5.360400 0.000000
-5.346000 0.000000
-5.331600 0.000000
-5.317100 0.000000
-5.302700 0.000000
-5.288200 0.000000
-5.273800 0.000000
-5.259300 0.000000
-5.244900 0.000000
-5.230500 0.000000
-5.216000 0.000000
-5.201600 0.000000
-5.187100 0.000000
-5.172700 0.000000
-5.158300 0.000000
-5.143800 0.000000
-5.129400 0.000000
-5.114900 0.000000
-5.100500 0.000000
-5.086000 0.000000
-5.071600 0.000000
-5.057200 0.000000
-5.042700 0.000000
-5.028300 0.000000
-5.013800 0.000000
-4.999400 0.000000
-4.984900 0.000000
-4.970500 0.000000
-4.956100 0.000000
-4.941600 0.000000
-4.927200 0.000000
-4.912700 0.000000
-4.898300 0.000000
-4.883900 0.000000
-4.869400 0.000000
-4.855000 0.000000
-4.840500 0.000000
-4.826100 0.000000
-4.811600 0.000000
-4.797200 0.000000
-4.782800 0.000000
-4.768300 0.000000
-4.753900 0.000000
-4.739400 0.000000
-4.725000 0.000000
-4.710600 0.000000
-4.696100 0.000000
-4.681700 0.000000
-4.667200 0.000000
-4.652800 0.000000
-4.638300 0.000000
-4.623900 0.000000
-4.609500 0.000000
-4.595000 0.000000
-4.580600 0.000000
-4.566100 0.000000
-4.551700 0.000000
-4.537200 0.000000
-4.522800 0.000000
-4.508400 0.000000
-4.493900 0.000000
-4.479500 0.000000
-4.465000 0.000000
-4.450600 0.000000
-4.436200 0.000000
-4.421700 0.000000
-4.407300 0.000000
-4.392800 0.000000
-4.378400 0.000000
-4.363900 0.000000
-4.349500 0.000000
-4.335100 0.000000
-4.320600 0.000000
-4.306200 0.000000
-4.291700 0.000000
-4.277300 0.000000
-4.262800 0.000000
-4.248400 0.000000
-4.234000 0.000000
-4.219500 0.000000
-4.205100 0.000000
-4.190600 0.000000
-4.176200 0.000000
-4.161800 0.000000
-4.147300 0.000000
-4.132900 0.000000
-4.118400 0.000000
-4.104000 0.000000
-4.089500 0.000000
-4.075100 0.000000
-4.060700 0.000000
-4.046200 0.000000
-4.031800 0.000000
-4.017300 0.000000
-4.002900 0.000000
-3.988500 0.000000
-3.974000 0.000000
-3.959600 0.000000
-3.945100 0.000000
-3.930700 0.000000
-3.916200 0.000000
-3.901800 0.000000
-3.887400 0.000000
-3.872900 0.000000
-3.858500 0.000000
-3.844000 0.000000
-3.829600 0.000000
-3.815100 0.000000
-3.800700 0.000000
-3.786300 0.000000
-3.771800 0.000000
-3.757400 0.000000
-3.742900 0.000000
-3.728500 0.000000
-3.714100 0.000000
-3.699600 0.000000
-3.685200 0.000000
-3.670700 0.000000
-3.656300 0.000000
-3.641800 0.000000
-3.627400 0.000000
-3.613000 0.000000
-3.598500 0.000000
-3.584100 0.000000
-3.569600 0.000000
-3.555200 0.000000
-3.540700 0.000000
-3.526300 0.000000
-3.511900 0.000000
-3.497400 0.000000
-3.483000 0.000000
-3.468500 0.000000
-3.454100 0.000000
-3.439700 0.000000
-3.425200 0.000000
-3.410800 0.000000
-3.396300 0.000000
-3.381900 0.000000
-3.367400 0.000000
-3.353000 0.000000
-3.338600 0.000000
-3.324100 0.000000
-3.309700 0.000000
-3.295200 0.000000
-3.280800 0.000000
-3.266400 0.000000
-3.251900 0.000000
-3.237500 0.000000
-3.223000 0.000000
-3.208600 0.000000
-3.194100 0.000000
-3.179700 0.000000
-3.165300 0.000000
-3.150800 0.000000
-3.136400 0.000000
-3.121900 0.000000
-3.107500 0.000000
-3.093000 0.000000
-3.078600 0.000000
-3.064200 0.000000
-3.049700 0.000000
-3.035300 0.000000
-3.020800 0.000000
-3.006400 0.000000
-2.992000 0.000000
-2.977500 0.000000
-2.963100 0.000000
-2.948600 3.631200
-2.934200 4.606200
-2.919700 5.581100
-2.905300 6.556000
-2.890900 7.530900
-2.876400 5.364800
-2.862000 5.220700
-2.847500 5.076500
-2.833100 32.374800
-2.818600 9.380200
-2.804200 13.993100
-2.789800 13.935500
-2.775300 15.834500
-2.760900 14.624900
-2.746400 15.422200
-2.732000 12.959600
-2.717600 12.660500
-2.703100 12.361400
-2.688700 12.062400
-2.674200 9.957400
-2.659800 21.857300
-2.645300 12.122900
-2.630900 13.468600
-2.616500 15.029600
-2.602000 20.013900
-2.587600 22.265700
-2.573100 23.782900
-2.558700 33.350400
-2.544300 16.984500
-2.529800 17.765400
-2.515400 15.106300
-2.500900 15.118700
-2.486500 13.568300
-2.472000 13.948700
-2.457600 14.329200
-2.443200 14.766000
-2.428700 13.516000
-2.414300 20.536000
-2.399800 8.845700
-2.385400 8.859600
-2.370900 12.804300
-2.356500 9.949400
-2.342100 10.907000
-2.327600 12.059400
-2.313200 13.211700
-2.298700 11.043500
-2.284300 11.124500
-2.269900 11.488000
-2.255400 11.737700
-2.241000 11.987400
-2.226500 12.237100
-2.212100 10.672900
-2.197600 6.760600
-2.183200 6.919400
-2.168800 7.078200
-2.154300 2.630600
-2.139900 2.615900
-2.125400 2.601300
-2.111000 2.586700
-2.096500 2.572000
-2.082100 2.557400
-2.067700 2.567200
-2.053200 2.731600
-2.038800 2.895900
-2.024300 3.060300
-2.009900 3.224600
-1.995500 9.236700
-1.981000 7.617000
-1.966600 5.997200
-1.952100 5.219000
-1.937700 5.324800
-1.923200 19.583100
-1.908800 2.136700
-1.894400 2.238500
-1.879900 2.340300
-1.865500 7.656800
-1.851000 6.061700
-1.836600 10.784400
-1.822200 9.212700
-1.807700 7.696600
-1.793300 6.818900
-1.778800 7.125200
-1.764400 7.431500
-1.749900 7.737800
-1.735500 8.044100
-1.721100 8.350400
-1.706600 8.656700
-1.692200 12.738800
-1.677700 11.156200
-1.663300 9.573600
-1.648800 8.902200
-1.634400 9.305400
-1.620000 14.846900
-1.605500 13.560200
-1.591100 12.288500
-1.576600 32.604600
-1.562200 10.923000
-1.547800 11.379100
-1.533300 11.850200
-1.518900 9.724600
-1.504400 10.064600
-1.490000 10.404700
-1.475500 9.351100
-1.461100 9.624700
-1.446700 9.898300
-1.432200 10.171900
-1.417800 16.788400
-1.403300 15.290600
-1.388900 11.097100
-1.374400 11.347900
-1.360000 11.900600
-1.345600 12.453300
-1.331100 8.552900
-1.316700 9.418300
-1.302200 10.075400
-1.287800 10.051000
-1.273400 10.024800
-1.258900 9.998500
-1.244500 9.972500
-1.230000 9.946800
-1.215600 9.921200
-1.201100 10.825500
-1.186700 10.870800
-1.172300 10.916100
-1.157800 10.961400
-1.143400 11.006600
-1.128900 11.854300
-1.114500 11.643000
-1.100100 11.824700
-1.085600 12.001100
-1.071200 13.007500
-1.056700 13.319600
-1.042300 13.467100
-1.027800 14.517700
-1.013400 14.690400
-0.999000 14.863100
-0.984500 15.035700
-0.970100 15.209200
-0.955600 15.463400
-0.941200 15.946600
-0.926700 17.440700
-0.912300 18.938800
-0.897900 19.211500
-0.883400 19.388300
-0.869000 20.360500
-0.854500 20.598800
-0.840100 19.621100
-0.825700 19.700800
-0.811200 19.976800
-0.796800 20.358100
-0.782300 20.741500
-0.767900 21.199500
-0.753400 21.793200
-0.739000 22.851500
-0.724600 24.194400
-0.710100 24.494900
-0.695700 23.710200
-0.681200 24.034500
-0.666800 25.375900
-0.652300 25.657900
-0.637900 25.261400
-0.623500 24.380900
-0.609000 24.737700
-0.594600 25.113100
-0.580100 25.165800
-0.565700 25.218600
-0.551300 25.323800
-0.536800 25.840700
-0.522400 25.353200
-0.507900 25.725200
-0.493500 25.176800
-0.479000 23.605800
-0.464600 25.271200
-0.450200 26.682200
-0.435700 26.581800
-0.421300 25.236900
-0.406800 24.793900
-0.392400 24.350900
-0.378000 23.907800
-0.363500 23.381400
-0.349100 23.287300
-0.334600 21.831100
-0.320200 21.753100
-0.305700 21.675100
-0.291300 21.772700
-0.276900 20.177400
-0.262400 19.871100
-0.248000 19.614700
-0.233500 19.465300
-0.219100 18.195100
-0.204600 17.978000
-0.190200 17.629300
-0.175800 17.280600
-0.161300 16.931900
-0.146900 16.744900
-0.132400 17.654200
-0.118000 17.746300
-0.103600 17.850900
-0.089100 17.997300
-0.074700 18.167000
-0.060200 18.227000
-0.045800 19.779700
-0.031300 20.673300
-0.016900 20.500300
-0.002500 21.002400
0.012000 21.022800
0.026400 21.043200
0.040900 21.366800
0.055300 22.113400
0.069800 22.881100
0.084200 23.320300
0.098600 26.210200
0.113100 28.006900
0.127500 27.999200
0.142000 29.888200
0.156400 26.555100
0.170800 25.710000
0.185300 25.728800
0.199700 28.460100
0.214200 30.096300
0.228600 35.833300
0.243100 37.702500
0.257500 42.376200
0.271900 43.865900
0.286400 42.322300
0.300800 39.181100
0.315300 36.323800
0.329700 32.926500
0.344100 34.715100
0.358600 35.182400
0.373000 37.039400
0.387500 38.607800
0.401900 38.620000
0.416400 37.892200
0.430800 43.274300
0.445200 47.086100
0.459700 46.689200
0.474100 42.166000
0.488600 41.494100
0.503000 40.714200
0.517500 49.635500
0.531900 34.146800
0.546300 31.760700
0.560800 29.415500
0.575200 27.070300
0.589700 24.857400
0.604100 23.471800
0.618500 28.843700
0.633000 27.437700
0.647400 26.276600
0.661900 25.402200
0.676300 25.982200
0.690800 25.113300
0.705200 25.803900
0.719600 30.605900
0.734100 32.245500
0.748500 21.974000
0.763000 18.156800
0.777400 16.710800
0.791900 15.296900
0.806300 13.931600
0.820700 12.568600
0.835200 11.400300
0.849600 12.913200
0.864100 28.088400
0.878500 9.904300
0.892900 8.404400
0.907400 7.326400
0.921800 7.388800
0.936300 7.451300
0.950700 7.513800
0.965200 6.147800
0.979600 5.543900
0.994000 4.940000
1.008500 4.336100
1.022900 3.732200
1.037400 3.128300
1.051800 2.712700
1.066200 2.301100
1.080700 1.889500
1.095100 1.477900
1.109600 14.719500
1.124000 0.000000
1.138500 0.000000
1.152900 0.000000
1.167300 0.000000
1.181800 0.000000
1.196200 0.000000
1.210700 0.000000
1.225100 0.000000
1.239600 0.000000
1.254000 0.000000
1.268400 0.000000
1.282900 0.000000
1.297300 0.000000
1.311800 0.000000
1.326200 0.000000
1.340600 0.000000
1.355100 0.000000
1.369500 0.000000
1.384000 0.000000
1.398400 0.000000
1.412900 0.000000
1.427300 0.000000
1.441700 0.000000
1.456200 0.000000
1.470600 0.000000
1.485100 0.000000
1.499500 0.000000
1.514000 0.000000
1.528400 0.000000
1.542800 0.000000
1.557300 0.000000
1.571700 0.000000
1.586200 0.000000
1.600600 0.000000
1.615000 0.000000
1.629500 0.000000
1.643900 0.000000
1.658400 0.000000
1.672800 0.000000
1.687300 0.000000
1.701700 0.000000
1.716100 0.000000
1.730600 0.000000
1.745000 0.000000
1.759500 0.000000
1.773900 0.000000
1.788300 0.000000
1.802800 0.000000
1.817200 0.000000
1.831700 0.000000
1.846100 0.000000
1.860600 0.000000
1.875000 0.000000
1.889400 0.000000
1.903900 0.000000
1.918300 0.000000
1.932800 0.000000
1.947200 0.000000
1.961700 0.000000
1.976100 0.000000
1.990500 0.000000
2.005000 0.000000
2.019400 0.000000
2.033900 0.000000
2.048300 0.000000
2.062700 0.000000
2.077200 0.000000
2.091600 0.000000
2.106100 0.000000
2.120500 0.000000
2.135000 0.000000
2.149400 0.000000
2.163800 0.000000
2.178300 0.000000
2.192700 0.000000
2.207200 0.000000
2.221600 0.000000
