set title 'mp-399 - Density of States'
set xlabel 'Energy (eV)'
set ylabel 'DOS (states/eV)'
set grid
set xrange [-10:10]
set yrange [0:19.106]
set xzeroaxis lt -1
set terminal png size 800,600
set output 'mp-399_dos_gnuplot.png'
plot '-' using 1:2 with lines title 'DOS'
-7.655600 0.000000
-7.641500 0.000000
-7.627400 0.000000
-7.613400 0.000000
-7.599300 0.000000
-7.585200 0.000000
-7.571100 0.000000
-7.557000 0.000000
-7.543000 0.000000
-7.528900 0.000000
-7.514800 0.000000
-7.500700 0.000000
-7.486600 0.000000
-7.472500 0.000000
-7.458500 0.000000
-7.444400 0.000000
-7.430300 0.000000
-7.416200 0.000000
-7.402100 0.000000
-7.388000 0.000000
-7.374000 0.000000
-7.359900 0.000000
-7.345800 0.000000
-7.331700 0.000000
-7.317600 0.000000
-7.303600 0.000000
-7.289500 0.000000
-7.275400 0.000000
-7.261300 0.000000
-7.247200 0.000000
-7.233100 0.000000
-7.219100 0.000000
-7.205000 0.000000
-7.190900 0.000000
-7.176800 0.000000
-7.162700 0.000000
-7.148600 0.000000
-7.134600 0.000000
-7.120500 0.000000
-7.106400 0.000000
-7.092300 0.000000
-7.078200 0.000000
-7.064200 0.000000
-7.050100 0.000000
-7.036000 0.000000
-7.021900 0.000000
-7.007800 0.000000
-6.993700 0.000000
-6.979700 0.000000
-6.965600 0.000000
-6.951500 0.000000
-6.937400 0.000000
-6.923300 0.000000
-6.909200 0.000000
-6.895200 0.000000
-6.881100 0.000000
-6.867000 0.000000
-6.852900 0.000000
-6.838800 0.000000
-6.824800 0.000000
-6.810700 0.000000
-6.796600 0.000000
-6.782500 0.000000
-6.768400 0.000000
-6.754300 0.000000
-6.740300 0.000000
-6.726200 0.000000
-6.712100 0.000000
-6.698000 0.000000
-6.683900 0.000000
-6.669800 0.000000
-6.655800 0.000000
-6.641700 0.000000
-6.627600 0.000000
-6.613500 0.000000
-6.599400 0.000000
-6.585400 0.000000
-6.571300 0.000000
-6.557200 0.000000
-6.543100 0.000000
-6.529000 0.000000
-6.514900 0.000000
-6.500900 0.000000
-6.486800 0.000000
-6.472700 0.000000
-6.458600 0.000000
-6.444500 0.000000
-6.430400 0.000000
-6.416400 0.000000
-6.402300 0.000000
-6.388200 0.000000
-6.374100 0.000100
-6.360000 0.019900
-6.346000 0.073000
-6.331900 0.135300
-6.317800 0.151600
-6.303700 0.155000
-6.289600 0.178000
-6.275500 0.201900
-6.261500 0.226900
-6.247400 0.249800
-6.233300 0.263600
-6.219200 0.269400
-6.205100 0.278700
-6.191000 0.290900
-6.177000 0.305100
-6.162900 0.319200
-6.148800 0.333300
-6.134700 0.347500
-6.120600 0.362600
-6.106600 0.377700
-6.092500 0.388800
-6.078400 0.396500
-6.064300 0.406300
-6.050200 0.416800
-6.036100 0.427000
-6.022100 0.436800
-6.008000 0.446900
-5.993900 0.457600
-5.979800 0.469300
-5.965700 0.481400
-5.951600 0.493800
-5.937600 0.506300
-5.923500 0.518800
-5.909400 0.531100
-5.895300 0.542100
-5.881200 0.552000
-5.867200 0.561500
-5.853100 0.571800
-5.839000 0.583000
-5.824900 0.594200
-5.810800 0.605500
-5.796700 0.617000
-5.782700 0.628600
-5.768600 0.640400
-5.754500 0.652300
-5.740400 0.665500
-5.726300 0.683500
-5.712200 0.706700
-5.698200 0.726600
-5.684100 0.746600
-5.670000 0.767700
-5.655900 0.788600
-5.641800 0.808200
-5.627800 0.819300
-5.613700 0.819500
-5.599600 0.822500
-5.585500 0.827500
-5.571400 0.831900
-5.557300 0.835800
-5.543300 0.839100
-5.529200 0.841900
-5.515100 0.845700
-5.501000 0.850700
-5.486900 0.856800
-5.472800 0.862200
-5.458800 0.867300
-5.444700 0.872200
-5.430600 0.876900
-5.416500 0.881400
-5.402400 0.885800
-5.388400 0.890200
-5.374300 0.896000
-5.360200 0.902000
-5.346100 0.908300
-5.332000 0.914700
-5.317900 0.921400
-5.303900 0.928300
-5.289800 0.935000
-5.275700 0.941700
-5.261600 0.948400
-5.247500 0.955000
-5.233400 0.961700
-5.219400 0.968400
-5.205300 0.975300
-5.191200 0.982600
-5.177100 0.990300
-5.163000 0.998200
-5.149000 1.006300
-5.134900 1.014400
-5.120800 1.022700
-5.106700 1.031400
-5.092600 1.042500
-5.078500 1.053700
-5.064500 1.065200
-5.050400 1.077100
-5.036300 1.089200
-5.022200 1.101500
-5.008100 1.113800
-4.994000 1.126700
-4.980000 1.140000
-4.965900 1.153800
-4.951800 1.168000
-4.937700 1.182400
-4.923600 1.197400
-4.909600 1.212800
-4.895500 1.228800
-4.881400 1.245700
-4.867300 1.263300
-4.853200 1.281600
-4.839100 1.300500
-4.825100 1.321800
-4.811000 1.360300
-4.796900 1.425300
-4.782800 1.491200
-4.768700 1.562700
-4.754600 1.634900
-4.740600 1.712900
-4.726500 1.797900
-4.712400 1.888300
-4.698300 1.984700
-4.684200 2.088900
-4.670200 2.247000
-4.656100 2.447800
-4.642000 2.575300
-4.627900 2.623800
-4.613800 2.603100
-4.599700 2.623600
-4.585700 2.687800
-4.571600 2.790600
-4.557500 3.160300
-4.543400 3.248700
-4.529300 3.186400
-4.515200 3.125900
-4.501200 3.100900
-4.487100 2.979300
-4.473000 2.710100
-4.458900 2.664900
-4.444800 2.624400
-4.430800 2.583700
-4.416700 2.585900
-4.402600 2.613500
-4.388500 2.514600
-4.374400 2.418900
-4.360300 2.404000
-4.346300 2.330300
-4.332200 2.346900
-4.318100 2.361200
-4.304000 2.432500
-4.289900 2.592200
-4.275800 2.731000
-4.261800 3.410800
-4.247700 4.272100
-4.233600 7.447800
-4.219500 6.156300
-4.205400 5.630600
-4.191400 5.132900
-4.177300 4.349500
-4.163200 3.858100
-4.149100 3.468800
-4.135000 3.159300
-4.120900 2.977000
-4.106900 2.830900
-4.092800 2.691000
-4.078700 2.563700
-4.064600 2.406200
-4.050500 2.289700
-4.036400 2.173400
-4.022400 2.062200
-4.008300 1.983000
-3.994200 1.926000
-3.980100 1.860900
-3.966000 1.785900
-3.952000 1.726300
-3.937900 1.647400
-3.923800 1.570900
-3.909700 1.497200
-3.895600 1.426200
-3.881500 1.366300
-3.867500 1.312600
-3.853400 1.267000
-3.839300 1.223000
-3.825200 1.177700
-3.811100 1.129400
-3.797000 1.080100
-3.783000 1.037800
-3.768900 1.002700
-3.754800 0.968100
-3.740700 0.933000
-3.726600 0.898400
-3.712600 0.864600
-3.698500 0.831800
-3.684400 0.800500
-3.670300 0.761900
-3.656200 0.722700
-3.642100 0.685200
-3.628100 0.649100
-3.614000 0.615300
-3.599900 0.583900
-3.585800 0.555000
-3.571700 0.526200
-3.557600 0.497300
-3.543600 0.466300
-3.529500 0.438000
-3.515400 0.416300
-3.501300 0.393400
-3.487200 0.369500
-3.473200 0.346100
-3.459100 0.323200
-3.445000 0.300200
-3.430900 0.279300
-3.416800 0.233700
-3.402700 0.189500
-3.388700 0.145000
-3.374600 0.102400
-3.360500 0.064400
-3.346400 0.023900
-3.332300 0.000000
-3.318200 0.000000
-3.304200 0.000000
-3.290100 0.000000
-3.276000 0.000000
-3.261900 0.000000
-3.247800 0.000000
-3.233800 0.000000
-3.219700 0.000000
-3.205600 0.000000
-3.191500 0.000000
-3.177400 0.000000
-3.163300 0.000000
-3.149300 0.000000
-3.135200 0.000000
-3.121100 0.000000
-3.107000 0.000000
-3.092900 0.000000
-3.078800 0.000000
-3.064800 0.000000
-3.050700 0.000000
-3.036600 0.000000
-3.022500 0.000000
-3.008400 0.000000
-2.994400 0.000000
-2.980300 0.000000
-2.966200 0.000000
-2.952100 0.000000
-2.938000 0.000000
-2.923900 0.000000
-2.909900 0.000000
-2.895800 0.000000
-2.881700 0.000000
-2.867600 0.000000
-2.853500 0.000000
-2.839400 0.000000
-2.825400 0.000000
-2.811300 0.000000
-2.797200 0.000000
-2.783100 0.000000
-2.769000 0.000000
-2.755000 0.000000
-2.740900 0.000000
-2.726800 0.000000
-2.712700 0.000000
-2.698600 0.000000
-2.684500 0.000000
-2.670500 0.000000
-2.656400 0.000000
-2.642300 0.000000
-2.628200 0.000000
-2.614100 0.000000
-2.600000 0.000000
-2.586000 0.000000
-2.571900 0.000000
-2.557800 0.000000
-2.543700 0.000000
-2.529600 0.000000
-2.515600 0.000000
-2.501500 0.000000
-2.487400 0.000000
-2.473300 0.000000
-2.459200 0.000000
-2.445100 0.000000
-2.431100 0.000000
-2.417000 0.000000
-2.402900 0.000000
-2.388800 0.000000
-2.374700 0.000000
-2.360600 0.000000
-2.346600 0.000000
-2.332500 0.000000
-2.318400 0.000000
-2.304300 0.000000
-2.290200 0.000000
-2.276200 0.000000
-2.262100 0.000000
-2.248000 0.000000
-2.233900 0.000000
-2.219800 0.000000
-2.205700 0.000000
-2.191700 0.000000
-2.177600 0.000000
-2.163500 0.000000
-2.149400 0.000000
-2.135300 0.000000
-2.121200 0.000000
-2.107200 0.000000
-2.093100 0.000000
-2.079000 0.000000
-2.064900 0.000000
-2.050800 0.000000
-2.036800 0.000000
-2.022700 0.000000
-2.008600 0.000000
-1.994500 0.000000
-1.980400 0.000000
-1.966300 0.000000
-1.952300 0.000000
-1.938200 0.000000
-1.924100 0.000000
-1.910000 0.000000
-1.895900 0.000000
-1.881800 0.000000
-1.867800 0.000000
-1.853700 0.000000
-1.839600 0.000000
-1.825500 0.000000
-1.811400 0.000000
-1.797400 0.000000
-1.783300 0.000000
-1.769200 0.000000
-1.755100 0.000000
-1.741000 0.000000
-1.726900 0.000000
-1.712900 0.000000
-1.698800 0.000000
-1.684700 0.000000
-1.670600 0.000000
-1.656500 0.000000
-1.642400 0.000000
-1.628400 0.000000
-1.614300 0.000000
-1.600200 0.000000
-1.586100 0.000000
-1.572000 0.000000
-1.558000 0.000000
-1.543900 0.000000
-1.529800 0.000000
-1.515700 0.000000
-1.501600 0.000000
-1.487500 0.000000
-1.473500 0.000000
-1.459400 0.000000
-1.445300 0.000000
-1.431200 0.000000
-1.417100 0.000000
-1.403000 0.000000
-1.389000 0.000000
-1.374900 0.000000
-1.360800 0.000000
-1.346700 0.000000
-1.332600 0.000000
-1.318600 0.000000
-1.304500 0.000000
-1.290400 0.000000
-1.276300 0.000000
-1.262200 0.000000
-1.248100 0.000000
-1.234100 0.000000
-1.220000 0.000000
-1.205900 0.000000
-1.191800 0.000000
-1.177700 0.000000
-1.163600 0.000000
-1.149600 0.000000
-1.135500 0.000000
-1.121400 0.000000
-1.107300 0.000000
-1.093200 0.000000
-1.079200 0.000000
-1.065100 0.000000
-1.051000 0.000000
-1.036900 0.000000
-1.022800 0.000000
-1.008700 0.000000
-0.994700 0.000000
-0.980600 0.000000
-0.966500 0.000000
-0.952400 0.000000
-0.938300 0.000000
-0.924200 0.000000
-0.910200 0.000000
-0.896100 0.000000
-0.882000 0.000000
-0.867900 0.000000
-0.853800 0.000000
-0.839800 0.000000
-0.825700 0.000000
-0.811600 0.000000
-0.797500 0.000000
-0.783400 0.000000
-0.769300 0.000000
-0.755300 0.000000
-0.741200 0.000000
-0.727100 0.000000
-0.713000 0.000000
-0.698900 0.000000
-0.684800 0.000000
-0.670800 0.000000
-0.656700 0.000000
-0.642600 0.000000
-0.628500 0.000000
-0.614400 0.000000
-0.600400 0.000000
-0.586300 0.000000
-0.572200 0.000000
-0.558100 0.000000
-0.544000 0.000000
-0.529900 0.000000
-0.515900 0.000000
-0.501800 0.000000
-0.487700 0.000000
-0.473600 0.000000
-0.459500 0.000000
-0.445400 0.000000
-0.431400 0.000000
-0.417300 0.000000
-0.403200 0.000000
-0.389100 0.000000
-0.375000 0.000000
-0.361000 0.000000
-0.346900 0.000000
-0.332800 0.000000
-0.318700 0.000000
-0.304600 0.000000
-0.290500 0.000000
-0.276500 0.000000
-0.262400 0.000000
-0.248300 0.000000
-0.234200 0.000000
-0.220100 0.000000
-0.206000 0.000000
-0.192000 0.000000
-0.177900 0.000000
-0.163800 0.000000
-0.149700 0.000000
-0.135600 0.000000
-0.121600 0.000000
-0.107500 0.000000
-0.093400 0.000000
-0.079300 0.000000
-0.065200 0.000000
-0.051100 0.000000
-0.037100 0.000000
-0.023000 0.000000
-0.008900 0.000000
0.005200 0.000000
0.019300 0.000000
0.033400 0.000000
0.047400 0.000000
0.061500 0.000000
0.075600 0.000000
0.089700 0.000000
0.103800 0.000000
0.117800 0.000000
0.131900 0.000000
0.146000 0.000000
0.160100 0.000000
0.174200 0.000000
0.188300 0.000000
0.202300 0.000000
0.216400 0.000000
0.230500 0.000000
0.244600 0.000000
0.258700 0.000000
0.272800 0.000000
0.286800 0.000000
0.300900 0.000000
0.315000 0.000000
0.329100 0.000000
0.343200 0.000000
0.357200 0.000000
0.371300 0.000000
0.385400 0.000000
0.399500 0.000000
0.413600 0.000000
0.427700 0.000000
0.441700 0.003200
0.455800 0.029300
0.469900 0.082200
0.484000 0.166600
0.498100 0.283200
0.512200 0.302800
0.526200 0.345400
0.540300 0.399000
0.554400 0.388700
0.568500 0.418300
0.582600 0.453100
0.596600 0.488100
0.610700 0.523700
0.624800 0.561000
0.638900 0.597300
0.653000 0.629100
0.667100 0.658200
0.681100 0.678700
0.695200 0.707700
0.709300 0.737600
0.723400 0.767700
0.737500 0.797800
0.751600 0.829300
0.765600 0.870900
0.779700 0.919300
0.793800 0.963700
0.807900 1.009100
0.822000 1.052400
0.836000 1.096400
0.850100 1.145800
0.864200 1.252100
0.878300 1.377200
0.892400 1.480400
0.906500 1.594800
0.920500 1.771800
0.934600 1.952500
0.948700 2.316000
0.962800 2.349600
0.976900 2.274400
0.991000 2.196900
1.005000 2.196600
1.019100 2.195100
1.033200 2.173000
1.047300 2.128000
1.061400 2.080200
1.075400 2.071800
1.089500 2.106400
1.103600 2.224700
1.117700 2.281900
1.131800 2.263900
1.145900 2.189200
1.159900 2.082100
1.174000 2.007500
1.188100 1.978000
1.202200 1.994100
1.216300 2.026600
1.230400 2.039700
1.244400 2.083500
1.258500 2.201500
1.272600 2.278100
1.286700 2.298300
1.300800 2.300800
1.314800 2.301600
1.328900 2.387300
1.343000 2.431500
1.357100 2.470500
1.371200 2.756200
1.385300 2.844400
1.399300 2.636200
1.413400 2.733100
1.427500 2.893900
1.441600 3.201700
1.455700 2.959500
1.469800 2.704200
1.483800 2.509300
1.497900 2.392700
1.512000 2.333600
1.526100 2.303700
1.540200 2.517200
1.554200 2.586400
1.568300 2.501500
1.582400 2.494100
1.596500 2.518900
1.610600 2.562800
1.624700 2.605700
1.638700 2.649100
1.652800 2.632200
1.666900 2.714000
1.681000 2.869900
1.695100 2.771100
1.709200 2.741100
1.723200 2.707400
1.737300 2.658800
1.751400 2.597800
1.765500 2.524200
1.779600 2.468300
1.793600 2.539000
1.807700 2.528100
1.821800 2.445500
1.835900 2.918300
1.850000 3.105600
1.864100 3.213400
1.878100 3.367300
1.892200 3.565400
1.906300 3.908400
1.920400 3.916100
1.934500 4.030300
1.948600 4.143300
1.962600 4.258900
1.976700 4.423800
1.990800 4.633400
2.004900 4.969000
2.019000 5.491600
2.033000 5.573800
2.047100 5.554700
2.061200 5.247800
2.075300 5.177400
2.089400 5.271800
2.103500 5.217700
2.117500 4.865700
2.131600 4.471500
2.145700 4.216100
2.159800 4.021300
2.173900 3.958700
2.188000 4.362400
2.202000 4.373000
2.216100 4.278000
2.230200 4.288000
2.244300 4.578400
2.258400 4.962100
2.272400 5.344600
2.286500 5.524200
2.300600 5.752800
2.314700 6.001500
2.328800 6.242700
2.342900 6.360100
2.356900 6.112100
2.371000 5.899300
2.385100 5.382800
2.399200 5.024700
2.413300 4.524000
2.427400 4.191600
2.441400 4.075000
2.455500 4.140800
2.469600 3.925500
2.483700 3.653000
2.497800 3.207600
2.511800 2.540800
2.525900 2.106300
2.540000 1.748000
2.554100 1.588900
2.568200 1.527500
2.582300 1.484400
2.596300 1.458400
2.610400 1.439600
2.624500 1.459500
2.638600 1.454800
2.652700 1.478300
2.666800 1.508600
2.680800 1.522600
2.694900 1.521600
2.709000 1.689800
2.723100 1.333300
2.737200 1.206700
2.751200 1.187200
2.765300 1.269200
2.779400 1.370700
2.793500 1.437200
2.807600 1.576200
2.821700 1.724300
2.835700 1.857600
2.849800 1.971300
2.863900 1.964400
2.878000 2.124200
2.892100 2.301000
2.906200 2.527800
2.920200 2.792100
2.934300 3.173300
2.948400 3.418900
2.962500 3.584000
2.976600 3.797100
2.990600 3.998800
3.004700 4.081700
3.018800 4.048600
3.032900 4.008100
3.047000 3.859500
3.061100 3.747600
3.075100 3.625000
3.089200 3.483500
3.103300 3.364000
3.117400 3.186300
3.131500 3.150800
3.145600 3.463000
3.159600 3.587400
3.173700 3.560600
3.187800 3.691000
3.201900 3.870500
3.216000 4.034800
3.230000 4.190500
3.244100 4.464800
3.258200 4.759700
3.272300 5.180600
3.286400 5.585300
3.300500 5.893000
3.314500 6.385200
3.328600 6.389700
3.342700 6.743000
3.356800 8.057600
3.370900 7.318300
3.385000 7.572800
3.399000 7.757900
3.413100 7.528200
3.427200 7.336500
3.441300 7.141000
3.455400 6.466800
3.469400 6.095700
3.483500 5.861700
3.497600 5.969100
3.511700 5.419000
3.525800 4.837700
3.539900 4.362100
3.553900 4.044300
3.568000 3.775600
3.582100 3.561700
3.596200 3.568800
3.610300 3.486000
3.624400 3.075000
3.638400 2.449800
3.652500 1.483900
3.666600 1.117600
3.680700 1.075100
3.694800 1.045800
3.708800 1.036900
3.722900 1.006800
3.737000 0.993100
3.751100 0.982600
3.765200 0.976600
3.779300 0.975300
3.793300 1.078000
3.807400 1.734700
3.821500 1.753300
3.835600 1.804000
3.849700 1.953100
3.863800 2.208200
3.877800 2.208900
3.891900 2.277300
3.906000 2.425000
3.920100 3.865500
3.934200 11.891200
3.948200 15.593000
3.962300 17.369500
3.976400 11.022800
3.990500 8.300300
4.004600 6.946400
4.018700 5.985400
4.032700 5.642400
4.046800 5.005700
4.060900 4.729000
4.075000 4.546100
4.089100 4.348100
4.103200 4.133600
4.117200 3.903900
4.131300 3.801900
4.145400 3.624800
4.159500 3.293300
4.173600 3.111800
4.187600 3.004400
4.201700 2.920900
4.215800 2.843200
4.229900 2.743600
4.244000 2.674600
4.258100 2.624500
4.272100 2.579600
4.286200 2.565100
4.300300 2.563300
4.314400 2.582300
4.328500 2.626800
4.342600 2.689000
4.356600 2.756100
4.370700 2.781000
4.384800 2.787000
4.398900 2.761100
4.413000 2.733600
4.427000 2.706200
4.441100 2.732600
4.455200 2.692800
4.469300 2.644000
4.483400 2.602200
4.497500 2.593000
4.511500 2.598800
4.525600 2.576500
4.539700 2.580900
4.553800 2.589100
4.567900 2.595800
4.582000 2.627500
4.596000 2.685000
4.610100 2.733300
4.624200 2.796600
4.638300 2.876000
4.652400 3.138100
4.666400 3.250400
4.680500 3.243100
4.694600 3.134800
4.708700 3.106700
4.722800 3.077400
4.736900 3.024700
4.750900 2.967600
4.765000 2.999300
4.779100 3.004400
4.793200 2.987500
4.807300 2.965200
4.821400 2.961800
4.835400 2.952800
4.849500 2.956700
4.863600 2.949200
4.877700 2.945200
4.891800 2.973900
4.905800 2.958600
4.919900 2.925200
4.934000 2.891300
4.948100 2.854200
4.962200 2.773300
4.976300 2.752600
4.990300 2.740900
5.004400 2.729600
5.018500 2.697900
5.032600 2.674900
5.046700 2.651100
5.060800 2.623100
5.074800 2.564400
5.088900 2.463800
5.103000 2.385300
5.117100 2.328800
5.131200 2.276700
5.145200 2.232900
5.159300 2.206700
5.173400 2.183100
5.187500 2.170300
5.201600 2.153000
5.215700 2.146700
5.229700 2.140100
5.243800 2.193000
5.257900 2.082500
5.272000 2.077500
5.286100 2.076400
5.300200 2.080800
5.314200 2.093300
5.328300 2.108100
5.342400 2.124400
5.356500 2.142100
5.370600 2.169100
5.384600 2.193200
5.398700 2.210200
5.412800 2.233500
5.426900 2.270100
5.441000 2.319800
5.455100 2.380300
5.469100 2.443800
5.483200 2.491300
5.497300 2.531600
5.511400 2.570800
5.525500 2.609600
5.539600 2.663800
5.553600 2.705500
5.567700 2.719300
5.581800 2.730100
5.595900 2.757900
5.610000 2.789000
5.624000 2.812300
5.638100 2.847000
5.652200 2.878100
5.666300 2.849800
5.680400 2.757400
5.694500 2.650800
5.708500 2.561500
5.722600 2.476100
5.736700 2.440400
5.750800 2.427700
5.764900 2.398100
5.779000 2.342200
5.793000 2.242200
5.807100 2.165500
5.821200 2.114200
5.835300 2.072500
5.849400 2.036700
5.863400 2.003100
5.877500 1.969200
5.891600 1.933800
5.905700 1.898200
5.919800 1.866300
5.933900 1.841600
5.947900 1.820700
5.962000 1.797600
5.976100 1.773300
5.990200 1.746300
6.004300 1.715800
6.018400 1.683300
6.032400 1.650200
6.046500 1.621500
6.060600 1.596900
6.074700 1.585500
6.088800 1.577900
6.102800 1.575400
6.116900 1.572900
6.131000 1.573000
6.145100 1.576500
6.159200 1.583400
6.173300 1.594700
6.187300 1.624800
6.201400 1.678500
6.215500 1.758700
6.229600 1.789200
6.243700 1.793300
6.257800 1.721500
6.271800 1.701100
6.285900 1.678100
6.300000 1.656000
6.314100 1.636400
6.328200 1.620800
6.342200 1.606900
6.356300 1.605400
6.370400 1.597500
6.384500 1.580600
6.398600 1.478500
6.412700 1.347800
6.426700 1.308800
6.440800 1.269600
6.454900 1.229700
6.469000 1.191900
6.483100 1.157800
6.497200 1.127800
6.511200 1.096600
6.525300 1.064000
6.539400 1.034800
6.553500 1.007700
6.567600 0.982800
6.581600 0.958100
6.595700 0.931300
6.609800 0.904500
6.623900 0.881700
6.638000 0.860400
6.652100 0.840600
6.666100 0.821300
6.680200 0.802400
6.694300 0.782600
6.708400 0.761700
6.722500 0.739800
6.736600 0.717300
6.750600 0.691600
6.764700 0.661500
6.778800 0.642900
6.792900 0.633400
6.807000 0.628500
6.821000 0.624500
6.835100 0.621300
6.849200 0.618600
6.863300 0.617200
6.877400 0.617400
6.891500 0.615400
6.905500 0.610800
6.919600 0.603700
6.933700 0.595600
6.947800 0.587900
6.961900 0.602500
6.976000 0.643200
6.990000 0.659400
7.004100 0.661400
7.018200 0.648800
7.032300 0.619700
7.046400 0.589800
7.060400 0.552600
7.074500 0.509000
7.088600 0.483400
7.102700 0.498000
7.116800 0.548500
7.130900 0.691300
7.144900 0.806000
7.159000 0.881900
7.173100 0.917700
7.187200 0.941600
7.201300 0.955500
7.215400 0.981800
7.229400 1.036300
7.243500 1.088000
7.257600 1.142600
7.271700 1.193100
7.285800 1.237300
7.299800 1.281200
7.313900 1.319800
7.328000 1.359500
