set title 'mp-1018649 - Density of States'
set xlabel 'Energy (eV)'
set ylabel 'DOS (states/eV)'
set grid
set xrange [-10:10]
set yrange [0:2.820]
set xzeroaxis lt -1
set terminal png size 800,600
set output 'mp-1018649_dos_gnuplot.png'
plot '-' using 1:2 with lines title 'DOS'
-15.387200 0.000000
-15.349100 0.000000
-15.311100 0.000000
-15.273000 0.000000
-15.235000 0.000000
-15.196900 0.000000
-15.158900 0.000000
-15.120800 0.000000
-15.082800 0.000000
-15.044800 0.000000
-15.006700 0.000000
-14.968700 0.000000
-14.930600 0.000000
-14.892600 0.000000
-14.854500 0.000000
-14.816500 0.000000
-14.778500 0.000000
-14.740400 0.000000
-14.702400 0.000000
-14.664300 0.000000
-14.626300 0.000000
-14.588200 0.000000
-14.550200 0.000000
-14.512200 0.000000
-14.474100 0.000000
-14.436100 0.000000
-14.398000 0.000000
-14.360000 0.000000
-14.321900 0.000000
-14.283900 0.000000
-14.245900 0.000000
-14.207800 0.000000
-14.169800 0.000000
-14.131700 0.000000
-14.093700 0.000000
-14.055600 0.000000
-14.017600 0.000000
-13.979600 0.000000
-13.941500 0.000000
-13.903500 0.000000
-13.865400 0.000000
-13.827400 0.000000
-13.789300 0.000000
-13.751300 0.000000
-13.713300 0.000000
-13.675200 0.000000
-13.637200 0.000000
-13.599100 0.000000
-13.561100 0.000000
-13.523000 0.000000
-13.485000 0.000000
-13.447000 0.000000
-13.408900 0.000000
-13.370900 0.000000
-13.332800 0.000000
-13.294800 0.000000
-13.256700 0.000000
-13.218700 0.000000
-13.180700 0.000000
-13.142600 0.000000
-13.104600 0.000000
-13.066500 0.000000
-13.028500 0.000000
-12.990400 0.000000
-12.952400 0.000000
-12.914400 0.000000
-12.876300 0.000000
-12.838300 0.000000
-12.800200 0.000000
-12.762200 0.000000
-12.724100 0.000000
-12.686100 0.000000
-12.648100 0.000000
-12.610000 0.000000
-12.572000 0.000000
-12.533900 0.000000
-12.495900 0.000000
-12.457800 0.000000
-12.419800 0.000000
-12.381800 0.000000
-12.343700 0.000000
-12.305700 0.000000
-12.267600 0.000000
-12.229600 0.000000
-12.191500 0.000000
-12.153500 0.000000
-12.115500 0.000000
-12.077400 0.000000
-12.039400 0.000000
-12.001300 0.000000
-11.963300 0.000000
-11.925200 0.000600
-11.887200 0.073200
-11.849200 0.133300
-11.811100 0.179500
-11.773100 0.234700
-11.735000 0.317800
-11.697000 0.296600
-11.658900 0.300800
-11.620900 0.305900
-11.582900 0.306000
-11.544800 0.302800
-11.506800 0.308400
-11.468700 0.307900
-11.430700 0.308200
-11.392600 0.307000
-11.354600 0.303000
-11.316600 0.301900
-11.278500 0.303900
-11.240500 0.307100
-11.202400 0.311300
-11.164400 0.311100
-11.126300 0.309700
-11.088300 0.308700
-11.050300 0.306600
-11.012200 0.303600
-10.974200 0.303900
-10.936100 0.305400
-10.898100 0.307300
-10.860000 0.309500
-10.822000 0.312000
-10.784000 0.312800
-10.745900 0.312400
-10.707900 0.311500
-10.669800 0.309900
-10.631800 0.307200
-10.593700 0.306800
-10.555700 0.306800
-10.517700 0.307700
-10.479600 0.309000
-10.441600 0.310200
-10.403500 0.311700
-10.365500 0.313400
-10.327400 0.315100
-10.289400 0.315100
-10.251400 0.314300
-10.213300 0.313700
-10.175300 0.312500
-10.137200 0.310800
-10.099200 0.310400
-10.061100 0.313100
-10.023100 0.343700
-9.985100 0.375500
-9.947000 0.397000
-9.909000 0.409000
-9.870900 0.426500
-9.832900 0.439000
-9.794800 0.449600
-9.756800 0.462700
-9.718800 0.475800
-9.680700 0.487700
-9.642700 0.498400
-9.604600 0.506700
-9.566600 0.514700
-9.528500 0.524400
-9.490500 0.535200
-9.452500 0.547000
-9.414400 0.565900
-9.376400 0.589000
-9.338300 0.610000
-9.300300 0.629800
-9.262200 0.633400
-9.224200 0.633900
-9.186200 0.635800
-9.148100 0.636300
-9.110100 0.636200
-9.072000 0.637800
-9.034000 0.639600
-8.995900 0.640500
-8.957900 0.640200
-8.919900 0.638400
-8.881800 0.637700
-8.843800 0.638200
-8.805700 0.639300
-8.767700 0.640900
-8.729600 0.642400
-8.691600 0.643400
-8.653600 0.644000
-8.615500 0.644300
-8.577500 0.645500
-8.539400 0.647600
-8.501400 0.649800
-8.463300 0.651700
-8.425300 0.653100
-8.387300 0.654200
-8.349200 0.655000
-8.311200 0.655300
-8.273100 0.655200
-8.235100 0.654700
-8.197000 0.655300
-8.159000 0.656400
-8.121000 0.658100
-8.082900 0.660000
-8.044900 0.662000
-8.006800 0.664200
-7.968800 0.666400
-7.930700 0.668800
-7.892700 0.670700
-7.854700 0.672100
-7.816600 0.673500
-7.778600 0.674800
-7.740500 0.676400
-7.702500 0.678700
-7.664400 0.681300
-7.626400 0.684000
-7.588400 0.686900
-7.550300 0.689900
-7.512300 0.693100
-7.474200 0.696400
-7.436200 0.700800
-7.398100 0.716900
-7.360100 0.733800
-7.322100 0.751300
-7.284000 0.770500
-7.246000 0.790400
-7.207900 0.809600
-7.169900 0.824900
-7.131800 0.840600
-7.093800 0.858900
-7.055800 0.878400
-7.017700 0.897300
-6.979700 0.916800
-6.941600 1.007200
-6.903600 1.062400
-6.865500 1.087300
-6.827500 1.068800
-6.789500 0.971800
-6.751400 0.907500
-6.713400 0.878500
-6.675300 0.871800
-6.637300 1.113100
-6.599200 0.951400
-6.561200 0.998200
-6.523100 0.830600
-6.485100 0.826800
-6.447100 0.823700
-6.409000 0.821100
-6.371000 0.818700
-6.332900 0.816100
-6.294900 0.813800
-6.256800 0.812000
-6.218800 0.810700
-6.180800 0.810500
-6.142700 0.823900
-6.104700 0.850000
-6.066600 0.886800
-6.028600 0.904500
-5.990500 0.904100
-5.952500 0.903200
-5.914500 0.908200
-5.876400 0.933800
-5.838400 0.965900
-5.800300 1.071300
-5.762300 1.325200
-5.724200 1.427300
-5.686200 1.680500
-5.648200 1.680000
-5.610100 1.383400
-5.572100 1.185300
-5.534000 1.096200
-5.496000 1.048400
-5.457900 1.142500
-5.419900 1.010500
-5.381900 1.020400
-5.343800 0.922200
-5.305800 0.879600
-5.267700 0.862200
-5.229700 0.828400
-5.191600 0.816900
-5.153600 0.807400
-5.115600 0.797400
-5.077500 0.788200
-5.039500 0.781000
-5.001400 0.783400
-4.963400 1.540100
-4.925300 1.047200
-4.887300 0.866800
-4.849300 0.706000
-4.811200 0.565000
-4.773200 0.460700
-4.735100 0.389100
-4.697100 0.369000
-4.659000 0.372000
-4.621000 0.375500
-4.583000 0.379200
-4.544900 0.383300
-4.506900 0.387600
-4.468800 0.392300
-4.430800 0.397800
-4.392700 0.404300
-4.354700 0.412200
-4.316700 0.426600
-4.278600 0.509200
-4.240600 0.645100
-4.202500 0.818800
-4.164500 0.893400
-4.126400 0.908400
-4.088400 0.943800
-4.050400 0.989400
-4.012300 1.017200
-3.974300 0.995100
-3.936200 1.009200
-3.898200 1.045500
-3.860100 1.103000
-3.822100 1.139600
-3.784100 1.188700
-3.746000 1.237200
-3.708000 1.279400
-3.669900 1.271200
-3.631900 1.254500
-3.593800 1.297700
-3.555800 1.503800
-3.517800 1.898700
-3.479700 1.683600
-3.441700 1.550300
-3.403600 1.302600
-3.365600 1.036000
-3.327500 0.851100
-3.289500 0.764700
-3.251500 0.690200
-3.213400 0.656200
-3.175400 0.658600
-3.137300 0.687000
-3.099300 0.725700
-3.061200 0.764600
-3.023200 0.726900
-2.985200 0.712300
-2.947100 0.705300
-2.909100 0.694600
-2.871000 0.695700
-2.833000 0.718000
-2.794900 0.743800
-2.756900 0.775800
-2.718900 0.831100
-2.680800 0.826000
-2.642800 0.834900
-2.604700 0.867900
-2.566700 0.902300
-2.528600 0.928700
-2.490600 0.946300
-2.452600 1.014800
-2.414500 1.028300
-2.376500 1.050400
-2.338400 1.075500
-2.300400 1.114800
-2.262300 1.134200
-2.224300 1.176500
-2.186300 1.226800
-2.148200 1.101500
-2.110200 1.116100
-2.072100 1.126900
-2.034100 1.163800
-1.996000 1.224200
-1.958000 1.262800
-1.920000 1.316000
-1.881900 1.219100
-1.843900 1.144500
-1.805800 1.158900
-1.767800 1.249400
-1.729700 1.251200
-1.691700 1.292700
-1.653700 1.407100
-1.615600 1.691600
-1.577600 1.860200
-1.539500 1.870900
-1.501500 1.720100
-1.463400 1.562700
-1.425400 1.442500
-1.387400 1.380800
-1.349300 1.319100
-1.311300 1.326200
-1.273200 1.340500
-1.235200 1.332000
-1.197100 1.323200
-1.159100 1.427000
-1.121100 1.212100
-1.083000 1.095300
-1.045000 1.029100
-1.006900 0.960800
-0.968900 0.881700
-0.930800 0.798500
-0.892800 0.733500
-0.854800 0.737700
-0.816700 0.728100
-0.778700 0.727600
-0.740600 0.729400
-0.702600 0.732600
-0.664500 0.738400
-0.626500 0.746400
-0.588500 0.757600
-0.550400 0.838100
-0.512400 0.810300
-0.474300 0.835000
-0.436300 0.862100
-0.398200 0.906700
-0.360200 0.954200
-0.322200 0.965100
-0.284100 0.969000
-0.246100 0.971600
-0.208000 0.974600
-0.170000 0.976100
-0.131900 1.028100
-0.093900 1.028300
-0.055900 1.024400
-0.017800 1.010800
0.020200 0.986200
0.058300 0.987300
0.096300 0.987500
0.134400 0.981700
0.172400 0.958500
0.210400 0.986500
0.248500 0.994900
0.286500 0.985400
0.324600 1.005200
0.362600 1.044400
0.400700 1.115200
0.438700 1.322300
0.476700 1.472900
0.514800 1.485900
0.552800 1.524200
0.590900 1.563900
0.628900 1.604700
0.667000 1.681000
0.705000 1.817200
0.743000 1.781800
0.781100 1.767100
0.819100 1.735600
0.857200 1.683200
0.895200 1.558900
0.933300 1.502600
0.971300 1.513800
1.009300 1.553200
1.047400 1.542900
1.085400 1.551400
1.123500 1.535400
1.161500 1.556400
1.199600 1.575700
1.237600 1.564200
1.275600 1.610700
1.313700 1.656900
1.351700 1.706700
1.389800 1.725600
1.427800 1.734700
1.465900 1.736700
1.503900 1.641400
1.541900 1.589600
1.580000 1.566100
1.618000 1.550500
1.656100 1.568500
1.694100 1.657700
1.732200 1.749600
1.770200 1.736900
1.808300 1.728100
1.846300 1.724100
1.884300 1.712100
1.922400 1.747000
1.960400 1.772400
1.998500 1.782900
2.036500 1.754200
2.074600 1.750800
2.112600 1.721500
2.150600 1.702800
2.188700 1.717200
2.226700 1.759800
2.264800 1.834700
2.302800 1.906900
2.340900 1.982300
2.378900 2.012400
2.416900 1.997800
2.455000 2.003600
2.493000 2.054600
2.531100 2.068600
2.569100 2.080400
2.607200 2.280700
2.645200 2.295200
2.683200 2.275000
2.721300 2.194300
2.759300 2.262600
2.797400 2.229300
2.835400 2.195400
2.873500 2.181900
2.911500 2.208900
2.949500 2.113600
2.987600 2.036400
3.025600 2.039400
3.063700 2.028700
3.101700 1.979400
3.139800 1.985200
3.177800 2.030100
3.215800 2.084700
3.253900 2.069800
3.291900 2.024600
3.330000 2.042000
3.368000 2.060900
3.406100 2.157300
3.444100 2.339700
3.482100 2.324100
3.520200 2.295600
3.558200 2.268500
3.596300 2.288500
3.634300 2.385100
3.672400 2.563900
3.710400 2.454900
3.748400 2.383000
3.786500 2.336200
3.824500 2.292700
3.862600 2.247800
3.900600 2.154800
3.938700 2.089800
3.976700 2.026300
4.014700 1.979600
4.052800 1.967200
4.090800 1.957500
4.128900 1.956200
4.166900 1.957600
4.205000 1.958900
4.243000 1.964300
4.281000 1.990000
4.319100 2.046300
4.357100 2.134900
4.395200 2.207500
4.433200 2.286700
4.471300 2.335100
4.509300 2.329900
4.547300 2.315400
4.585400 2.278800
4.623400 2.221800
4.661500 2.137700
4.699500 2.083100
4.737600 2.046700
4.775600 1.976400
4.813600 1.902200
4.851700 1.815700
4.889700 1.745100
4.927800 1.704000
4.965800 1.670700
5.003900 1.646700
5.041900 1.649900
5.079900 1.643000
5.118000 1.656100
5.156000 1.714400
5.194100 1.779700
5.232100 1.797400
5.270200 1.788800
5.308200 1.792400
5.346200 1.811200
5.384300 1.816000
5.422300 1.809700
5.460400 1.815400
5.498400 1.831500
5.536500 1.848500
5.574500 1.863300
5.612500 1.873900
5.650600 1.886900
5.688600 1.912900
5.726700 1.911200
5.764700 1.913400
5.802800 1.934600
5.840800 1.936100
5.878800 1.940100
5.916900 1.937800
5.954900 1.961800
5.993000 1.950300
6.031000 1.934500
6.069100 1.955700
6.107100 1.998700
6.145100 1.948700
6.183200 1.866900
6.221200 1.818200
6.259300 1.778700
6.297300 1.757500
6.335400 1.759500
6.373400 1.716000
6.411400 1.630100
6.449500 1.567100
6.487500 1.522200
6.525600 1.488700
6.563600 1.465100
6.601700 1.447600
6.639700 1.437300
6.677700 1.412100
6.715800 1.387000
6.753800 1.384900
6.791900 1.362300
6.829900 1.340600
6.868000 1.322200
6.906000 1.308800
6.944000 1.302500
6.982100 1.293800
7.020100 1.296900
7.058200 1.310700
7.096200 1.324600
7.134300 1.342300
7.172300 1.360500
7.210300 1.371400
7.248400 1.368200
7.286400 1.373500
7.324500 1.371000
7.362500 1.363900
7.400600 1.351800
7.438600 1.342800
7.476600 1.320900
7.514700 1.262100
7.552700 1.183200
7.590800 1.123000
7.628800 1.052700
7.666900 0.957700
7.704900 0.871500
7.742900 0.836700
7.781000 0.809500
7.819000 0.788600
7.857100 0.770000
7.895100 0.752800
7.933200 0.733800
7.971200 0.714200
8.009200 0.693200
8.047300 0.673400
8.085300 0.655600
8.123400 0.638700
8.161400 0.622800
8.199500 0.609300
8.237500 0.597700
8.275500 0.586800
8.313600 0.576500
8.351600 0.564700
8.389700 0.552700
8.427700 0.536000
8.465800 0.518400
8.503800 0.502400
8.541800 0.488000
8.579900 0.473500
8.617900 0.458400
8.656000 0.439900
8.694000 0.426300
8.732100 0.417600
8.770100 0.410000
8.808100 0.402500
8.846200 0.395400
8.884200 0.388300
8.922300 0.381300
8.960300 0.374600
8.998400 0.368300
9.036400 0.362800
9.074400 0.358300
9.112500 0.357100
9.150500 0.353000
9.188600 0.348300
9.226600 0.344500
9.264700 0.339700
9.302700 0.332800
9.340700 0.326300
9.378800 0.320800
9.416800 0.316200
9.454900 0.312500
9.492900 0.308500
9.531000 0.303700
9.569000 0.299700
9.607000 0.297500
9.645100 0.294700
9.683100 0.291400
9.721200 0.282800
9.759200 0.275200
9.797300 0.270100
9.835300 0.270500
9.873300 0.274200
9.911400 0.284000
9.949400 0.284200
9.987500 0.282500
10.025500 0.278600
10.063600 0.248000
10.101600 0.201800
10.139600 0.163900
10.177700 0.136700
10.215700 0.112800
10.253800 0.090700
10.291800 0.073500
10.329900 0.036200
10.367900 0.009200
10.406000 0.000200
10.444000 0.000000
10.482000 0.000000
10.520100 0.000000
10.558100 0.000000
10.596200 0.000000
10.634200 0.000000
10.672300 0.000000
10.710300 0.000000
10.748300 0.000000
10.786400 0.000000
10.824400 0.000000
10.862500 0.000000
10.900500 0.000000
10.938600 0.000000
10.976600 0.000000
11.014600 0.000000
11.052700 0.000000
11.090700 0.000000
11.128800 0.000000
11.166800 0.000000
11.204900 0.000000
11.242900 0.000000
11.280900 0.000000
11.319000 0.000000
11.357000 0.000000
11.395100 0.000000
11.433100 0.000000
11.471200 0.000000
11.509200 0.000000
11.547200 0.000000
11.585300 0.000000
11.623300 0.000000
11.661400 0.000000
11.699400 0.000000
11.737500 0.000000
11.775500 0.000000
11.813500 0.000000
11.851600 0.000000
11.889600 0.000000
11.927700 0.000000
11.965700 0.000000
12.003800 0.000000
12.041800 0.000000
12.079800 0.000000
12.117900 0.000000
12.155900 0.000000
12.194000 0.000000
12.232000 0.000000
12.270100 0.000000
12.308100 0.000000
12.346100 0.000000
12.384200 0.000000
12.422200 0.000000
12.460300 0.000000
12.498300 0.000000
12.536400 0.000000
12.574400 0.000000
12.612400 0.000000
12.650500 0.000000
12.688500 0.000000
12.726600 0.000000
12.764600 0.000000
12.802700 0.000000
12.840700 0.000000
12.878700 0.000000
12.916800 0.000000
12.954800 0.000000
12.992900 0.000000
13.030900 0.000000
13.069000 0.000000
13.107000 0.000000
13.145000 0.004800
13.183100 0.056300
13.221100 0.113600
13.259200 0.180100
13.297200 0.249900
13.335300 0.302600
13.373300 0.352000
13.411300 0.406700
13.449400 0.460900
13.487400 0.447900
13.525500 0.478100
13.563500 0.507900
13.601600 0.536700
13.639600 0.570900
13.677600 0.605700
13.715700 0.642600
13.753700 0.683200
13.791800 0.742800
13.829800 0.796600
13.867900 0.829500
13.905900 0.859500
13.943900 0.888000
13.982000 0.918000
14.020000 0.942000
14.058100 0.960700
14.096100 0.975900
14.134200 0.983200
14.172200 0.990900
14.210200 0.990800
14.248300 0.999300
14.286300 1.014200
14.324400 1.032300
14.362400 1.055700
14.400500 1.086000
14.438500 1.134500
14.476500 1.191200
14.514600 1.235600
14.552600 1.298500
14.590700 1.368000
14.628700 1.390700
14.666800 1.403700
14.704800 1.425900
14.742800 1.436000
14.780900 1.418700
14.818900 1.397700
14.857000 1.394600
14.895000 1.406400
14.933100 1.426700
14.971100 1.468200
15.009100 1.498700
15.047200 1.503200
15.085200 1.509800
15.123300 1.457200
15.161300 1.341800
15.199400 1.324600
15.237400 1.348700
15.275400 1.380200
15.313500 1.466400
15.351500 1.542300
15.389600 1.582800
15.427600 1.622200
15.465700 1.649500
15.503700 1.683500
15.541700 1.633300
15.579800 1.649000
15.617800 1.646400
15.655900 1.708000
15.693900 1.794100
15.732000 1.906100
15.770000 2.046600
15.808000 2.184000
15.846100 2.360200
15.884100 2.413400
15.922200 2.357700
15.960200 2.240800
15.998300 2.143800
16.036300 2.036200
16.074300 1.953700
16.112400 1.920800
16.150400 1.861100
16.188500 1.811000
16.226500 1.851900
16.264600 2.120300
16.302600 1.973500
16.340600 2.058300
16.378700 2.176400
16.416700 2.370000
16.454800 2.551500
16.492800 2.808400
16.530900 2.954000
16.568900 2.966800
16.606900 2.959900
16.645000 2.893200
16.683000 2.660900
16.721100 2.440000
16.759100 2.303800
16.797200 2.212600
16.835200 2.097600
16.873200 2.009800
16.911300 2.026100
16.949300 2.065300
16.987400 2.177200
17.025400 2.311100
17.063500 2.412300
17.101500 2.440800
17.139500 2.439200
17.177600 2.364900
17.215600 2.245300
17.253700 2.139800
17.291700 2.025200
17.329800 1.974200
17.367800 1.965600
17.405800 1.990700
17.443900 1.996700
17.481900 2.007700
17.520000 2.064600
17.558000 2.237900
17.596100 2.473600
17.634100 2.676300
17.672100 2.843300
17.710200 3.019700
17.748200 3.278100
17.786300 3.033300
17.824300 2.959200
17.862400 2.693500
17.900400 2.591100
17.938400 2.548200
17.976500 2.544000
18.014500 2.465000
18.052600 2.445100
18.090600 2.408200
18.128700 2.387300
18.166700 2.394600
18.204700 2.423400
18.242800 2.522400
18.280800 2.548000
18.318900 2.598500
18.356900 2.519700
18.395000 2.485800
18.433000 2.464300
18.471000 2.535600
18.509100 2.653000
18.547100 2.778600
18.585200 3.186000
18.623200 3.039700
18.661300 2.847700
18.699300 2.663700
18.737400 2.576400
18.775400 2.499100
18.813400 2.503600
18.851500 2.539100
18.889500 2.640800
18.927600 2.539600
18.965600 2.523300
19.003700 2.484500
19.041700 2.433200
19.079700 2.422700
19.117800 2.455300
19.155800 2.475400
19.193900 2.488000
19.231900 2.467100
19.270000 2.361600
19.308000 2.324800
19.346000 2.292700
19.384100 2.230600
19.422100 2.186500
19.460200 2.154700
19.498200 2.133200
19.536300 2.141900
19.574300 2.252300
19.612300 2.345200
19.650400 2.292800
19.688400 2.299200
19.726500 2.361400
19.764500 2.404200
19.802600 2.441400
19.840600 2.576800
19.878600 2.419000
19.916700 2.027000
19.954700 1.918300
19.992800 1.873200
20.030800 1.837300
20.068900 1.792800
20.106900 1.754900
20.144900 1.743600
20.183000 1.769800
20.221000 1.834400
20.259100 1.951700
20.297100 2.077400
20.335200 2.186200
20.373200 2.388700
20.411200 2.387500
20.449300 2.260600
20.487300 2.130500
20.525400 2.043700
20.563400 2.009100
20.601500 1.856300
20.639500 1.761200
20.677500 1.689400
20.715600 1.664300
20.753600 1.661900
20.791700 1.693900
20.829700 1.703400
20.867800 1.817500
20.905800 2.002800
20.943800 2.144600
20.981900 2.239300
21.019900 2.238500
21.058000 2.219000
21.096000 2.094800
21.134100 2.026800
21.172100 1.878500
21.210100 1.911200
21.248200 1.997200
21.286200 2.046200
21.324300 2.021000
21.362300 2.009100
21.400400 2.088200
21.438400 2.111000
21.476400 2.118700
21.514500 2.142000
21.552500 2.163300
21.590600 2.212300
21.628600 2.320500
21.666700 2.377300
21.704700 2.398600
21.742700 2.450100
21.780800 2.534900
21.818800 2.690300
21.856900 2.642400
21.894900 2.591600
21.933000 2.475500
21.971000 2.460300
22.009000 2.414100
22.047100 2.365400
22.085100 2.335600
22.123200 2.303500
22.161200 2.364200
22.199300 2.274400
22.237300 2.257100
22.275300 2.241500
22.313400 2.185400
22.351400 2.184200
22.389500 2.103900
22.427500 2.030000
22.465600 1.987100
22.503600 1.953500
22.541600 1.907700
22.579700 1.786700
22.617700 1.786100
22.655800 1.868200
22.693800 2.069600
22.731900 2.132600
22.769900 2.243000
22.807900 2.272400
22.846000 2.333600
22.884000 2.337300
22.922100 2.397100
22.960100 2.343400
22.998200 2.251100
23.036200 2.242000
23.074200 2.249100
23.112300 2.195200
23.150300 2.138200
23.188400 2.149700
23.226400 2.192400
23.264500 2.278900
23.302500 2.410900
23.340500 2.694400
23.378600 2.969100
23.416600 3.095700
23.454700 3.048300
23.492700 2.952100
23.530800 2.865300
23.568800 2.779600
23.606800 2.629800
23.644900 2.360700
23.682900 2.300700
23.721000 2.325900
23.759000 2.388300
23.797100 2.392200
23.835100 2.321300
23.873100 2.243900
23.911200 2.245600
23.949200 2.217500
23.987300 2.113600
24.025300 1.967300
24.063400 1.754500
24.101400 1.720100
24.139400 1.692500
24.177500 1.674400
24.215500 1.674600
24.253600 1.621800
24.291600 1.570500
