set title 'mp-1184783 - Density of States'
set xlabel 'Energy (eV)'
set ylabel 'DOS (states/eV)'
set grid
set xrange [-10:10]
set yrange [0:9.469]
set xzeroaxis lt -1
set terminal png size 800,600
set output 'mp-1184783_dos_gnuplot.png'
plot '-' using 1:2 with lines title 'DOS'
-8.831700 0.000000
-8.806400 0.000000
-8.781100 0.000000
-8.755800 0.000000
-8.730500 0.000000
-8.705200 0.000000
-8.679900 0.000000
-8.654600 0.000000
-8.629300 0.000000
-8.604000 0.000000
-8.578700 0.000000
-8.553400 0.000000
-8.528100 0.000000
-8.502800 0.000000
-8.477600 0.000000
-8.452300 0.000000
-8.427000 0.000000
-8.401700 0.000000
-8.376400 0.000000
-8.351100 0.000000
-8.325800 0.000000
-8.300500 0.000000
-8.275200 0.000000
-8.249900 0.000000
-8.224600 0.000000
-8.199300 0.000000
-8.174000 0.000000
-8.148700 0.000000
-8.123400 0.000000
-8.098100 0.000000
-8.072800 0.000000
-8.047500 0.000000
-8.022200 0.000000
-7.996900 0.000000
-7.971600 0.000000
-7.946300 0.000000
-7.921000 0.000000
-7.895700 0.000000
-7.870400 0.000000
-7.845100 0.000000
-7.819800 0.000000
-7.794500 0.000000
-7.769200 0.000000
-7.743900 0.000000
-7.718600 0.000000
-7.693300 0.000000
-7.668000 0.000000
-7.642700 0.000000
-7.617400 0.000000
-7.592100 0.000000
-7.566800 0.000000
-7.541500 0.000000
-7.516200 0.000000
-7.490900 0.000000
-7.465600 0.000000
-7.440300 0.000000
-7.415100 0.000000
-7.389800 0.000000
-7.364500 0.000000
-7.339200 0.000000
-7.313900 0.000000
-7.288600 0.000000
-7.263300 0.000000
-7.238000 0.000000
-7.212700 0.000000
-7.187400 0.000000
-7.162100 0.000000
-7.136800 0.000000
-7.111500 0.000000
-7.086200 0.000000
-7.060900 0.000000
-7.035600 0.000000
-7.010300 0.000000
-6.985000 0.000000
-6.959700 0.000000
-6.934400 0.000000
-6.909100 0.000000
-6.883800 0.000000
-6.858500 0.000000
-6.833200 0.000000
-6.807900 0.000000
-6.782600 0.000000
-6.757300 0.000000
-6.732000 0.000000
-6.706700 0.000000
-6.681400 0.000000
-6.656100 0.000000
-6.630800 0.000200
-6.605500 0.001800
-6.580200 0.008700
-6.554900 0.028500
-6.529600 0.069300
-6.504300 0.135400
-6.479000 0.217900
-6.453700 0.275200
-6.428400 0.283600
-6.403100 0.311300
-6.377800 0.418900
-6.352600 0.541200
-6.327300 0.582700
-6.302000 0.530800
-6.276700 0.480300
-6.251400 0.557500
-6.226100 0.752500
-6.200800 0.910200
-6.175500 0.910400
-6.150200 0.845700
-6.124900 0.909100
-6.099600 1.068200
-6.074300 1.150800
-6.049000 1.191600
-6.023700 1.318300
-5.998400 1.506700
-5.973100 1.716600
-5.947800 1.950000
-5.922500 2.124300
-5.897200 2.230700
-5.871900 2.485800
-5.846600 2.975200
-5.821300 3.486200
-5.796000 3.952500
-5.770700 4.628400
-5.745400 5.739100
-5.720100 7.088500
-5.694800 7.943900
-5.669500 7.494900
-5.644200 5.589700
-5.618900 3.088700
-5.593600 1.192300
-5.568300 0.307700
-5.543000 0.051500
-5.517700 0.005500
-5.492400 0.000400
-5.467100 0.000000
-5.441800 0.000000
-5.416500 0.000000
-5.391200 0.000000
-5.365900 0.000000
-5.340600 0.000000
-5.315300 0.000000
-5.290100 0.000000
-5.264800 0.000000
-5.239500 0.000000
-5.214200 0.000000
-5.188900 0.000000
-5.163600 0.000000
-5.138300 0.000000
-5.113000 0.000000
-5.087700 0.000000
-5.062400 0.000000
-5.037100 0.000000
-5.011800 0.000000
-4.986500 0.000000
-4.961200 0.000000
-4.935900 0.000000
-4.910600 0.000000
-4.885300 0.000000
-4.860000 0.000000
-4.834700 0.000000
-4.809400 0.000000
-4.784100 0.000000
-4.758800 0.000000
-4.733500 0.000000
-4.708200 0.000000
-4.682900 0.000000
-4.657600 0.000000
-4.632300 0.000000
-4.607000 0.000000
-4.581700 0.000000
-4.556400 0.000000
-4.531100 0.000000
-4.505800 0.000000
-4.480500 0.000000
-4.455200 0.000000
-4.429900 0.000000
-4.404600 0.000000
-4.379300 0.000000
-4.354000 0.000000
-4.328700 0.000000
-4.303400 0.000000
-4.278100 0.000000
-4.252900 0.000000
-4.227600 0.000000
-4.202300 0.000000
-4.177000 0.000000
-4.151700 0.000000
-4.126400 0.000000
-4.101100 0.000000
-4.075800 0.000000
-4.050500 0.000000
-4.025200 0.000000
-3.999900 0.000000
-3.974600 0.000000
-3.949300 0.000000
-3.924000 0.000000
-3.898700 0.000000
-3.873400 0.000000
-3.848100 0.000000
-3.822800 0.000000
-3.797500 0.000000
-3.772200 0.000000
-3.746900 0.000000
-3.721600 0.000000
-3.696300 0.000000
-3.671000 0.000000
-3.645700 0.000000
-3.620400 0.000000
-3.595100 0.000000
-3.569800 0.000000
-3.544500 0.000000
-3.519200 0.000000
-3.493900 0.000000
-3.468600 0.000000
-3.443300 0.000000
-3.418000 0.000000
-3.392700 0.000000
-3.367400 0.000000
-3.342100 0.000000
-3.316800 0.000000
-3.291500 0.000000
-3.266200 0.000000
-3.240900 0.000000
-3.215600 0.000000
-3.190400 0.000000
-3.165100 0.000000
-3.139800 0.000000
-3.114500 0.000000
-3.089200 0.000000
-3.063900 0.000000
-3.038600 0.000000
-3.013300 0.000000
-2.988000 0.000000
-2.962700 0.000000
-2.937400 0.000000
-2.912100 0.000000
-2.886800 0.000000
-2.861500 0.000000
-2.836200 0.000000
-2.810900 0.000000
-2.785600 0.000000
-2.760300 0.000000
-2.735000 0.000000
-2.709700 0.000000
-2.684400 0.000000
-2.659100 0.000000
-2.633800 0.000000
-2.608500 0.000000
-2.583200 0.000000
-2.557900 0.000000
-2.532600 0.000000
-2.507300 0.000000
-2.482000 0.000000
-2.456700 0.000000
-2.431400 0.000000
-2.406100 0.000000
-2.380800 0.000000
-2.355500 0.000000
-2.330200 0.000000
-2.304900 0.000000
-2.279600 0.000000
-2.254300 0.000000
-2.229000 0.000000
-2.203700 0.000000
-2.178400 0.000000
-2.153100 0.000000
-2.127900 0.000000
-2.102600 0.000000
-2.077300 0.000000
-2.052000 0.000000
-2.026700 0.000000
-2.001400 0.000000
-1.976100 0.000000
-1.950800 0.000000
-1.925500 0.000000
-1.900200 0.000000
-1.874900 0.000000
-1.849600 0.000000
-1.824300 0.000000
-1.799000 0.000000
-1.773700 0.000000
-1.748400 0.000000
-1.723100 0.000000
-1.697800 0.000000
-1.672500 0.000000
-1.647200 0.000000
-1.621900 0.000000
-1.596600 0.000000
-1.571300 0.000000
-1.546000 0.000000
-1.520700 0.000000
-1.495400 0.000000
-1.470100 0.000000
-1.444800 0.000000
-1.419500 0.000000
-1.394200 0.000000
-1.368900 0.000000
-1.343600 0.000000
-1.318300 0.000000
-1.293000 0.000000
-1.267700 0.000000
-1.242400 0.000000
-1.217100 0.000000
-1.191800 0.000000
-1.166500 0.000000
-1.141200 0.000000
-1.115900 0.000000
-1.090600 0.000000
-1.065400 0.000000
-1.040100 0.000000
-1.014800 0.000000
-0.989500 0.000000
-0.964200 0.000000
-0.938900 0.000000
-0.913600 0.000000
-0.888300 0.000000
-0.863000 0.000000
-0.837700 0.000000
-0.812400 0.000000
-0.787100 0.000000
-0.761800 0.000000
-0.736500 0.000000
-0.711200 0.000000
-0.685900 0.000000
-0.660600 0.000000
-0.635300 0.000000
-0.610000 0.000000
-0.584700 0.000000
-0.559400 0.000000
-0.534100 0.000000
-0.508800 0.000000
-0.483500 0.000000
-0.458200 0.000000
-0.432900 0.000000
-0.407600 0.000000
-0.382300 0.000000
-0.357000 0.000000
-0.331700 0.000000
-0.306400 0.000000
-0.281100 0.000000
-0.255800 0.000000
-0.230500 0.000000
-0.205200 0.000000
-0.179900 0.000000
-0.154600 0.000000
-0.129300 0.000000
-0.104000 0.000000
-0.078700 0.000000
-0.053400 0.000000
-0.028100 0.000000
-0.002900 0.000000
0.022400 0.000000
0.047700 0.000000
0.073000 0.000000
0.098300 0.000000
0.123600 0.000000
0.148900 0.000000
0.174200 0.000000
0.199500 0.000000
0.224800 0.000000
0.250100 0.000100
0.275400 0.000800
0.300700 0.004200
0.326000 0.014400
0.351300 0.036300
0.376600 0.077200
0.401900 0.142400
0.427200 0.212100
0.452500 0.250300
0.477800 0.265400
0.503100 0.311100
0.528400 0.406200
0.553700 0.530000
0.579000 0.719900
0.604300 1.017300
0.629600 1.361300
0.654900 1.720900
0.680200 2.145300
0.705500 2.529000
0.730800 2.669200
0.756100 2.621300
0.781400 2.618700
0.806700 2.730000
0.832000 2.848000
0.857300 2.929200
0.882600 3.025700
0.907900 3.068200
0.933200 2.928600
0.958500 2.677900
0.983800 2.560000
1.009100 2.646400
1.034300 2.721600
1.059600 2.583200
1.084900 2.244600
1.110200 1.865800
1.135500 1.602100
1.160800 1.526900
1.186100 1.605600
1.211400 1.729200
1.236700 1.795500
1.262000 1.692800
1.287300 1.400600
1.312600 1.110300
1.337900 1.006400
1.363200 1.082500
1.388500 1.236300
1.413800 1.342200
1.439100 1.295700
1.464400 1.087200
1.489700 0.823500
1.515000 0.630300
1.540300 0.547900
1.565600 0.577800
1.590900 0.717400
1.616200 0.925600
1.641500 1.092300
1.666800 1.072600
1.692100 0.880100
1.717400 0.759000
1.742700 0.859800
1.768000 1.057300
1.793300 1.153100
1.818600 1.073300
1.843900 0.926300
1.869200 0.868200
1.894500 0.934700
1.919800 1.068900
1.945100 1.224600
1.970400 1.358400
1.995700 1.475700
2.021000 1.729800
2.046300 2.177800
2.071600 2.581900
2.096800 2.758200
2.122100 2.869200
2.147400 3.062700
2.172700 3.104900
2.198000 2.830800
2.223300 2.542900
2.248600 2.527100
2.273900 2.677300
2.299200 2.802500
2.324500 2.833500
2.349800 2.778400
2.375100 2.732700
2.400400 2.779500
2.425700 2.946100
2.451000 3.260300
2.476300 3.757600
2.501600 4.479000
2.526900 5.250900
2.552200 5.701800
2.577500 5.665500
2.602800 5.227500
2.628100 4.623900
2.653400 4.172600
2.678700 4.036500
2.704000 4.165700
2.729300 4.362900
2.754600 4.346400
2.779900 3.953000
2.805200 3.320000
2.830500 2.771600
2.855800 2.535400
2.881100 2.523600
2.906400 2.450400
2.931700 2.283100
2.957000 2.264600
2.982300 2.443200
3.007600 2.573500
3.032900 2.408600
3.058200 1.946500
3.083500 1.431200
3.108800 1.099000
3.134100 0.974000
3.159300 0.919100
3.184600 0.803200
3.209900 0.653400
3.235200 0.599900
3.260500 0.673400
3.285800 0.797600
3.311100 0.906000
3.336400 0.917400
3.361700 0.796500
3.387000 0.725000
3.412300 0.865100
3.437600 1.065700
3.462900 1.138300
3.488200 1.125900
3.513500 1.136400
3.538800 1.225900
3.564100 1.376500
3.589400 1.467400
3.614700 1.478800
3.640000 1.600300
3.665300 1.931200
3.690600 2.340600
3.715900 2.677200
3.741200 2.955100
3.766500 3.311900
3.791800 3.664800
3.817100 3.760200
3.842400 3.645500
3.867700 3.555400
3.893000 3.627100
3.918300 4.027200
3.943600 4.875000
3.968900 5.872000
3.994200 6.552100
4.019500 6.901400
4.044800 7.009400
4.070100 6.681400
4.095400 5.923900
4.120700 5.058400
4.146000 4.334000
4.171300 3.813800
4.196600 3.548900
4.221800 3.649200
4.247100 4.096400
4.272400 4.553200
4.297700 4.635500
4.323000 4.454700
4.348300 4.479000
4.373600 4.818800
4.398900 5.200400
4.424200 5.411200
4.449500 5.274800
4.474800 4.759900
4.500100 4.185900
4.525400 3.810500
4.550700 3.585900
4.576000 3.494600
4.601300 3.593400
4.626600 3.910300
4.651900 4.411700
4.677200 4.653800
4.702500 4.152400
4.727800 3.308800
4.753100 2.914300
4.778400 3.090100
4.803700 3.491700
4.829000 3.744600
4.854300 3.573000
4.879600 3.135000
4.904900 2.871100
4.930200 2.898300
4.955500 2.906300
4.980800 2.762900
5.006100 2.710900
5.031400 2.874000
5.056700 3.069700
5.082000 3.014300
5.107300 2.691400
5.132600 2.444500
5.157900 2.479700
5.183200 2.695900
5.208500 3.006500
5.233800 3.379500
5.259100 3.708700
5.284300 3.983900
5.309600 4.437400
5.334900 5.182300
5.360200 6.009300
5.385500 6.601600
5.410800 6.743900
5.436100 6.662100
5.461400 6.947200
5.486700 7.731900
5.512000 8.467300
5.537300 8.607800
5.562600 8.009000
5.587900 6.997900
5.613200 6.183800
5.638500 5.853700
5.663800 5.757700
5.689100 5.586200
5.714400 5.332900
5.739700 5.055800
5.765000 4.757600
5.790300 4.502100
5.815600 4.311800
5.840900 4.204300
5.866200 4.203000
5.891500 4.138900
5.916800 3.877200
5.942100 3.649100
5.967400 3.735400
5.992700 4.056600
6.018000 4.280500
6.043300 4.134500
6.068600 3.627100
6.093900 3.140900
6.119200 3.063100
6.144500 3.283100
6.169800 3.484700
6.195100 3.614300
6.220400 3.659500
6.245700 3.468800
6.271000 3.089900
6.296300 2.786400
6.321500 2.551900
6.346800 2.232800
6.372100 1.990600
6.397400 2.134500
6.422700 2.710400
6.448000 3.483900
6.473300 4.162500
6.498600 4.461100
6.523900 4.270700
6.549200 3.862600
6.574500 3.525000
6.599800 3.237900
6.625100 3.018600
6.650400 3.168200
6.675700 3.848400
6.701000 4.725700
6.726300 5.245700
6.751600 5.172000
6.776900 4.837300
6.802200 4.651700
6.827500 4.579900
6.852800 4.551100
6.878100 4.710300
6.903400 4.863900
6.928700 4.517700
6.954000 3.692700
6.979300 3.041400
7.004600 2.967800
7.029900 3.225200
7.055200 3.469400
7.080500 3.675000
7.105800 3.944400
7.131100 4.292000
7.156400 4.588700
7.181700 4.628500
7.207000 4.501900
7.232300 4.584200
7.257600 4.941200
7.282900 5.344000
7.308200 5.926600
7.333500 6.964600
7.358800 8.023400
7.384000 8.280600
7.409300 7.719100
7.434600 7.146000
7.459900 6.929300
7.485200 6.654400
7.510500 6.135900
7.535800 5.783200
7.561100 5.871200
7.586400 6.171100
7.611700 6.353600
7.637000 6.467300
7.662300 6.806400
7.687600 7.329900
7.712900 7.688700
7.738200 7.641800
7.763500 7.095000
7.788800 6.210800
7.814100 5.335800
7.839400 4.635500
7.864700 4.144300
7.890000 3.929600
7.915300 3.947300
7.940600 4.068700
7.965900 4.282300
7.991200 4.635600
8.016500 5.107600
8.041800 5.527200
8.067100 5.547000
8.092400 5.027700
8.117700 4.254200
8.143000 3.597000
8.168300 3.313900
8.193600 3.500400
8.218900 3.927500
8.244200 4.138100
8.269500 3.955400
8.294800 3.675800
8.320100 3.617300
8.345400 3.793700
8.370700 4.085600
8.396000 4.412400
8.421300 4.690100
8.446500 4.810600
8.471800 4.705500
8.497100 4.334600
8.522400 3.800200
8.547700 3.511700
8.573000 3.792800
8.598300 4.431200
8.623600 4.972600
8.648900 5.078000
8.674200 4.579000
8.699500 3.750200
8.724800 3.191300
8.750100 3.096600
8.775400 3.137300
8.800700 3.066600
8.826000 2.955200
8.851300 2.880500
8.876600 2.795800
8.901900 2.673600
8.927200 2.483500
8.952500 2.199900
8.977800 1.965500
9.003100 1.970100
9.028400 2.090100
9.053700 2.021800
9.079000 1.817600
9.104300 1.798800
9.129600 2.087400
9.154900 2.546600
9.180200 2.940000
9.205500 3.202300
9.230800 3.561800
9.256100 4.117600
9.281400 4.658500
9.306700 5.081300
9.332000 5.494400
9.357300 5.880800
9.382600 6.022900
9.407900 5.919500
9.433200 5.860900
9.458500 5.863600
9.483800 5.717000
9.509000 5.593800
9.534300 5.756500
9.559600 6.006800
9.584900 6.093800
9.610200 6.059100
9.635500 5.904800
9.660800 5.518300
9.686100 4.951800
9.711400 4.413400
9.736700 4.068500
9.762000 3.920400
9.787300 3.899100
9.812600 3.910400
9.837900 3.872700
9.863200 3.841900
9.888500 3.803900
9.913800 3.648100
9.939100 3.470200
9.964400 3.456400
9.989700 3.617400
10.015000 3.831400
10.040300 3.899300
10.065600 3.736700
10.090900 3.593000
10.116200 3.735100
10.141500 4.078700
10.166800 4.291900
10.192100 4.166800
10.217400 3.841000
10.242700 3.615400
10.268000 3.622100
10.293300 3.636400
10.318600 3.420200
10.343900 3.148300
10.369200 3.090800
10.394500 3.157300
10.419800 3.076400
10.445100 2.899700
10.470400 2.975800
10.495700 3.333600
10.521000 3.560500
10.546300 3.399600
10.571500 3.032200
10.596800 2.752200
10.622100 2.642200
10.647400 2.612800
10.672700 2.679500
10.698000 3.007500
10.723300 3.525100
10.748600 3.753200
10.773900 3.383900
10.799200 2.726800
10.824500 2.258600
10.849800 2.182900
10.875100 2.432200
10.900400 2.744100
10.925700 2.910400
10.951000 2.867600
10.976300 2.669400
11.001600 2.525200
11.026900 2.509000
11.052200 2.386300
11.077500 2.009400
11.102800 1.542800
11.128100 1.142700
11.153400 0.820200
11.178700 0.630000
11.204000 0.618800
11.229300 0.656100
11.254600 0.576900
11.279900 0.412500
11.305200 0.311300
11.330500 0.306800
11.355800 0.327400
11.381100 0.369300
11.406400 0.490000
11.431700 0.674200
11.457000 0.809800
11.482300 0.829000
11.507600 0.803500
11.532900 0.788200
11.558200 0.715000
11.583500 0.551100
11.608700 0.355300
11.634000 0.187400
11.659300 0.103700
11.684600 0.173800
11.709900 0.458300
11.735200 0.888000
11.760500 1.157000
11.785800 1.007900
11.811100 0.602800
11.836400 0.309700
11.861700 0.266800
11.887000 0.336900
11.912300 0.365800
11.937600 0.367000
11.962900 0.406600
11.988200 0.464900
12.013500 0.486600
12.038800 0.441000
12.064100 0.368500
12.089400 0.361500
12.114700 0.458600
12.140000 0.635600
12.165300 0.816000
12.190600 0.856100
12.215900 0.702000
12.241200 0.550800
12.266500 0.624200
12.291800 0.815000
12.317100 0.831200
12.342400 0.621100
12.367700 0.386000
12.393000 0.291100
12.418300 0.365900
12.443600 0.533900
12.468900 0.682300
12.494200 0.775100
12.519500 0.846200
12.544800 0.949100
12.570100 1.113000
12.595400 1.270600
12.620700 1.348900
12.646000 1.361000
12.671200 1.304000
12.696500 1.142000
12.721800 0.929000
12.747100 0.810600
12.772400 0.849900
12.797700 0.987500
12.823000 1.186000
12.848300 1.402900
12.873600 1.505800
12.898900 1.445800
12.924200 1.375300
12.949500 1.466100
12.974800 1.697300
13.000100 1.840300
13.025400 1.708300
13.050700 1.352900
13.076000 0.970200
13.101300 0.719800
13.126600 0.686300
13.151900 0.884100
13.177200 1.173400
13.202500 1.350300
13.227800 1.425100
13.253100 1.665700
13.278400 2.148900
13.303700 2.368100
13.329000 1.901300
13.354300 1.163500
13.379600 0.748300
13.404900 0.705000
13.430200 0.782200
13.455500 0.802300
13.480800 0.795200
13.506100 0.893400
13.531400 1.084900
13.556700 1.211500
13.582000 1.223600
13.607300 1.242000
13.632600 1.322400
13.657900 1.363600
13.683200 1.363300
13.708500 1.512200
13.733700 1.816400
13.759000 1.976000
13.784300 1.887700
13.809600 1.825700
13.834900 2.020000
13.860200 2.362100
13.885500 2.598600
13.910800 2.691900
13.936100 2.705200
13.961400 2.555600
13.986700 2.240000
14.012000 1.948400
14.037300 1.764500
14.062600 1.631200
14.087900 1.622300
14.113200 1.906900
14.138500 2.382900
14.163800 2.613400
14.189100 2.415500
14.214400 2.286600
14.239700 2.717700
14.265000 3.375000
14.290300 3.620500
14.315600 3.343900
14.340900 2.771800
14.366200 2.082800
14.391500 1.477000
14.416800 1.164200
14.442100 1.149500
14.467400 1.269700
14.492700 1.414900
14.518000 1.550600
14.543300 1.564900
14.568600 1.301400
14.593900 0.904100
14.619200 0.735300
14.644500 0.846500
14.669800 0.979700
14.695100 0.975600
14.720400 0.874900
14.745700 0.766800
14.771000 0.695600
14.796200 0.721200
14.821500 0.935600
14.846800 1.263500
14.872100 1.457900
14.897400 1.477400
14.922700 1.545800
14.948000 1.785300
14.973300 2.034400
14.998600 2.035200
15.023900 1.735700
15.049200 1.317900
15.074500 1.010800
15.099800 0.913500
15.125100 0.951600
15.150400 1.006500
15.175700 1.077000
15.201000 1.221100
15.226300 1.383100
15.251600 1.461900
15.276900 1.453500
15.302200 1.447700
15.327500 1.593600
15.352800 1.915500
15.378100 2.131700
15.403400 2.026700
15.428700 1.791700
15.454000 1.632900
15.479300 1.497800
15.504600 1.364500
15.529900 1.423600
15.555200 1.764100
15.580500 2.067200
15.605800 1.980700
15.631100 1.575300
15.656400 1.196000
15.681700 1.120600
15.707000 1.353700
15.732300 1.592300
15.757600 1.543400
15.782900 1.278400
15.808200 1.030200
15.833500 0.870400
15.858700 0.815500
15.884000 0.915000
15.909300 1.070100
15.934600 1.107800
15.959900 1.066900
15.985200 1.133200
16.010500 1.363900
16.035800 1.604700
16.061100 1.672000
16.086400 1.537200
16.111700 1.298000
16.137000 1.121200
16.162300 1.147500
16.187600 1.299700
16.212900 1.391600
16.238200 1.385900
16.263500 1.354700
16.288800 1.292700
16.314100 1.127900
16.339400 0.897600
16.364700 0.709600
16.390000 0.582000
16.415300 0.492100
16.440600 0.473900
16.465900 0.540200
16.491200 0.624600
16.516500 0.702700
16.541800 0.798700
16.567100 0.892600
16.592400 0.951300
16.617700 0.979000
16.643000 1.045500
16.668300 1.195200
16.693600 1.342600
16.718900 1.404900
16.744200 1.460600
16.769500 1.635800
16.794800 1.935100
16.820100 2.342500
16.845400 2.808400
16.870700 3.050400
16.895900 2.821800
16.921200 2.248800
16.946500 1.665100
16.971800 1.361700
16.997100 1.377000
17.022400 1.411000
17.047700 1.177400
17.073000 0.789700
17.098300 0.581000
17.123600 0.631400
17.148900 0.758600
17.174200 0.887500
17.199500 1.050600
17.224800 1.144300
17.250100 1.084500
17.275400 1.056300
17.300700 1.279700
17.326000 1.664500
17.351300 1.923500
17.376600 1.862300
17.401900 1.493400
17.427200 1.074700
17.452500 0.958500
17.477800 1.221700
17.503100 1.598900
17.528400 1.839200
17.553700 1.944200
17.579000 2.041600
17.604300 2.147200
17.629600 2.160700
17.654900 2.007300
17.680200 1.762100
17.705500 1.681700
17.730800 1.947000
17.756100 2.374900
17.781400 2.532500
17.806700 2.231800
17.832000 1.739600
17.857300 1.391400
17.882600 1.291400
17.907900 1.448500
