set title 'mp-1001113 - Density of States'
set xlabel 'Energy (eV)'
set ylabel 'DOS (states/eV)'
set grid
set xrange [-10:10]
set yrange [0:2.380]
set xzeroaxis lt -1
set terminal png size 800,600
set output 'mp-1001113_dos_gnuplot.png'
plot '-' using 1:2 with lines title 'DOS'
-7.152500 0.000000
-7.125800 0.000000
-7.099200 0.000000
-7.072500 0.000000
-7.045800 0.000000
-7.019100 0.000000
-6.992500 0.000000
-6.965800 0.000000
-6.939100 0.000000
-6.912500 0.000000
-6.885800 0.000000
-6.859100 0.000000
-6.832400 0.000000
-6.805800 0.000000
-6.779100 0.000000
-6.752400 0.000000
-6.725700 0.000000
-6.699100 0.000000
-6.672400 0.000000
-6.645700 0.000000
-6.619000 0.000000
-6.592400 0.000000
-6.565700 0.000000
-6.539000 0.000000
-6.512300 0.000000
-6.485700 0.000000
-6.459000 0.000000
-6.432300 0.000000
-6.405600 0.000000
-6.379000 0.000000
-6.352300 0.000000
-6.325600 0.000000
-6.298900 0.000000
-6.272300 0.000000
-6.245600 0.000000
-6.218900 0.000000
-6.192200 0.000000
-6.165600 0.000000
-6.138900 0.000000
-6.112200 0.000000
-6.085500 0.000000
-6.058900 0.000000
-6.032200 0.000000
-6.005500 0.000000
-5.978800 0.000000
-5.952200 0.000000
-5.925500 0.000000
-5.898800 0.000000
-5.872100 0.000000
-5.845500 0.000000
-5.818800 0.000000
-5.792100 0.000000
-5.765400 0.000000
-5.738800 0.000000
-5.712100 0.000000
-5.685400 0.000000
-5.658700 0.000000
-5.632100 0.000000
-5.605400 0.000000
-5.578700 0.000000
-5.552000 0.000000
-5.525400 0.000000
-5.498700 0.000000
-5.472000 0.000000
-5.445300 0.000000
-5.418700 0.000000
-5.392000 0.000000
-5.365300 0.000000
-5.338600 0.000000
-5.312000 0.000000
-5.285300 0.000000
-5.258600 0.000000
-5.231900 0.000000
-5.205300 0.000000
-5.178600 0.000000
-5.151900 0.000000
-5.125200 0.000000
-5.098600 0.000000
-5.071900 0.000000
-5.045200 0.000000
-5.018500 0.000000
-4.991900 0.000000
-4.965200 0.000000
-4.938500 0.000000
-4.911800 0.000000
-4.885200 0.000000
-4.858500 0.000000
-4.831800 0.000000
-4.805100 0.000000
-4.778500 0.000000
-4.751800 0.000000
-4.725100 0.000100
-4.698400 0.017000
-4.671800 0.060400
-4.645100 0.101300
-4.618400 0.131200
-4.591700 0.154900
-4.565100 0.169400
-4.538400 0.188600
-4.511700 0.205600
-4.485000 0.213000
-4.458400 0.222400
-4.431700 0.234500
-4.405000 0.247200
-4.378300 0.261000
-4.351700 0.275100
-4.325000 0.290000
-4.298300 0.304900
-4.271600 0.315900
-4.245000 0.324200
-4.218300 0.330900
-4.191600 0.338200
-4.164900 0.346700
-4.138300 0.355200
-4.111600 0.363600
-4.084900 0.372500
-4.058200 0.382000
-4.031600 0.392100
-4.004900 0.402200
-3.978200 0.412100
-3.951500 0.421700
-3.924900 0.430800
-3.898200 0.439900
-3.871500 0.449000
-3.844800 0.458500
-3.818200 0.468500
-3.791500 0.478900
-3.764800 0.489600
-3.738100 0.500600
-3.711500 0.525200
-3.684800 0.557400
-3.658100 0.568800
-3.631400 0.573000
-3.604800 0.574700
-3.578100 0.574200
-3.551400 0.571700
-3.524700 0.568900
-3.498100 0.567700
-3.471400 0.567200
-3.444700 0.567300
-3.418000 0.568100
-3.391400 0.569500
-3.364700 0.571400
-3.338000 0.573400
-3.311300 0.575100
-3.284700 0.575300
-3.258000 0.572300
-3.231300 0.568300
-3.204600 0.568100
-3.178000 0.568400
-3.151300 0.569100
-3.124600 0.570100
-3.097900 0.571100
-3.071300 0.572800
-3.044600 0.574400
-3.017900 0.575600
-2.991200 0.576500
-2.964600 0.576700
-2.937900 0.576800
-2.911200 0.576500
-2.884500 0.576000
-2.857900 0.576000
-2.831200 0.576500
-2.804500 0.576700
-2.777800 0.576500
-2.751200 0.576000
-2.724500 0.575500
-2.697800 0.575000
-2.671100 0.574200
-2.644500 0.573600
-2.617800 0.573400
-2.591100 0.573400
-2.564400 0.573300
-2.537800 0.573000
-2.511100 0.573100
-2.484400 0.573500
-2.457700 0.574100
-2.431100 0.574500
-2.404400 0.574800
-2.377700 0.575200
-2.351000 0.575500
-2.324400 0.576000
-2.297700 0.576500
-2.271000 0.624600
-2.244300 0.648500
-2.217700 0.633000
-2.191000 0.641000
-2.164300 0.650300
-2.137600 0.659800
-2.111000 0.669800
-2.084300 0.672700
-2.057600 0.680300
-2.030900 0.688300
-2.004300 0.696600
-1.977600 0.705200
-1.950900 0.713100
-1.924200 0.719500
-1.897600 0.726100
-1.870900 0.731200
-1.844200 0.735800
-1.817500 0.741900
-1.790900 0.749400
-1.764200 0.757700
-1.737500 0.766600
-1.710800 0.775800
-1.684200 0.785600
-1.657500 0.807000
-1.630800 0.833800
-1.604100 0.844700
-1.577500 0.852500
-1.550800 0.857800
-1.524100 0.862100
-1.497400 0.865300
-1.470800 0.865100
-1.444100 0.863500
-1.417400 0.861200
-1.390700 0.858800
-1.364100 0.857300
-1.337400 0.855700
-1.310700 0.854400
-1.284000 0.853300
-1.257400 0.851700
-1.230700 0.849600
-1.204000 0.847600
-1.177300 0.845700
-1.150700 0.844300
-1.124000 0.844000
-1.097300 0.843500
-1.070600 0.843600
-1.044000 0.844200
-1.017300 0.843100
-0.990600 0.840600
-0.963900 0.838700
-0.937300 0.836300
-0.910600 0.833100
-0.883900 0.829200
-0.857200 0.824600
-0.830600 0.826900
-0.803900 0.844700
-0.777200 0.824800
-0.750500 0.806400
-0.723900 0.791800
-0.697200 0.782100
-0.670500 0.777000
-0.643800 0.777300
-0.617200 0.858400
-0.590500 0.921200
-0.563800 0.936600
-0.537100 0.918600
-0.510500 0.907700
-0.483800 0.920000
-0.457100 0.930000
-0.430400 0.936200
-0.403800 0.944500
-0.377100 0.957100
-0.350400 0.975600
-0.323700 0.997500
-0.297100 1.005500
-0.270400 1.001100
-0.243700 1.007700
-0.217000 1.008300
-0.190400 1.009200
-0.163700 1.011000
-0.137000 1.012400
-0.110300 1.014600
-0.083700 1.015000
-0.057000 1.013900
-0.030300 1.012800
-0.003600 1.013400
0.023000 1.016500
0.049700 1.014100
0.076400 0.997700
0.103100 0.988600
0.129700 0.985700
0.156400 0.986000
0.183100 0.985600
0.209800 0.984100
0.236400 0.982000
0.263100 0.982200
0.289800 0.986400
0.316500 0.990700
0.343100 0.996700
0.369800 1.005300
0.396500 1.016000
0.423200 1.027600
0.449800 1.040000
0.476500 1.056300
0.503200 1.076600
0.529900 1.099000
0.556500 1.118200
0.583200 1.139600
0.609900 1.162800
0.636600 1.193600
0.663200 1.230800
0.689900 1.262900
0.716600 1.282900
0.743300 1.297900
0.769900 1.304600
0.796600 1.317800
0.823300 1.327500
0.849900 1.306600
0.876600 1.241800
0.903300 1.160800
0.930000 1.095300
0.956600 1.066800
0.983300 1.060400
1.010000 1.077300
1.036700 1.074900
1.063300 1.072000
1.090000 1.072500
1.116700 1.076200
1.143400 1.103800
1.170000 1.135000
1.196700 1.137800
1.223400 1.134600
1.250100 1.144100
1.276700 1.174400
1.303400 1.185400
1.330100 1.188500
1.356800 1.200000
1.383400 1.194800
1.410100 1.208700
1.436800 1.202600
1.463500 1.189500
1.490100 1.166400
1.516800 1.147900
1.543500 1.148400
1.570200 1.160900
1.596800 1.188300
1.623500 1.234700
1.650200 1.271600
1.676900 1.290900
1.703500 1.294300
1.730200 1.299300
1.756900 1.306300
1.783600 1.314600
1.810200 1.326900
1.836900 1.338800
1.863600 1.340400
1.890300 1.330000
1.916900 1.319100
1.943600 1.311300
1.970300 1.308000
1.997000 1.301700
2.023600 1.254500
2.050300 1.222900
2.077000 1.211300
2.103700 1.198800
2.130300 1.182700
2.157000 1.164900
2.183700 1.153700
2.210400 1.147600
2.237000 1.135400
2.263700 1.117400
2.290400 1.097500
2.317100 1.081500
2.343700 1.071300
2.370400 1.064100
2.397100 1.047700
2.423800 1.020600
2.450400 1.001500
2.477100 0.996300
2.503800 0.993500
2.530500 0.989800
2.557100 0.983000
2.583800 0.976300
2.610500 0.967400
2.637200 0.948300
2.663800 0.921500
2.690500 0.914800
2.717200 0.912400
2.743900 0.922700
2.770500 0.935000
2.797200 0.947700
2.823900 0.963600
2.850600 0.984500
2.877200 1.030600
2.903900 1.094500
2.930600 1.124200
2.957300 1.150000
2.983900 1.185400
3.010600 1.239000
3.037300 1.289800
3.064000 1.299700
3.090600 1.307900
3.117300 1.317200
3.144000 1.325700
3.170700 1.333100
3.197300 1.337100
3.224000 1.340200
3.250700 1.321500
3.277400 1.300700
3.304000 1.287700
3.330700 1.277600
3.357400 1.260100
3.384100 1.247900
3.410700 1.248500
3.437400 1.255000
3.464100 1.263900
3.490800 1.268700
3.517400 1.271000
3.544100 1.273400
3.570800 1.275800
3.597500 1.279500
3.624100 1.284000
3.650800 1.288500
3.677500 1.295700
3.704200 1.303800
3.730800 1.308800
3.757500 1.317600
3.784200 1.317200
3.810900 1.329500
3.837500 1.363700
3.864200 1.411700
3.890900 1.453700
3.917600 1.490800
3.944200 1.547300
3.970900 1.560800
3.997600 1.526000
4.024300 1.502600
4.050900 1.478000
4.077600 1.473200
4.104300 1.469900
4.131000 1.460700
4.157600 1.451200
4.184300 1.438000
4.211000 1.414600
4.237700 1.390200
4.264300 1.376900
4.291000 1.368500
4.317700 1.361900
4.344400 1.351000
4.371000 1.341000
4.397700 1.332500
4.424400 1.330600
4.451100 1.326000
4.477700 1.323100
4.504400 1.296700
4.531100 1.281400
4.557800 1.270600
4.584400 1.278200
4.611100 1.288600
4.637800 1.299500
4.664500 1.304700
4.691100 1.305300
4.717800 1.326700
4.744500 1.339600
4.771200 1.370700
4.797800 1.406400
4.824500 1.422500
4.851200 1.430900
4.877900 1.442800
4.904500 1.453700
4.931200 1.457200
4.957900 1.457200
4.984600 1.457100
5.011200 1.461100
5.037900 1.464200
5.064600 1.466400
5.091300 1.469600
5.117900 1.482800
5.144600 1.492100
5.171300 1.494600
5.198000 1.490800
5.224600 1.533500
5.251300 1.566100
5.278000 1.588100
5.304700 1.604300
5.331300 1.603000
5.358000 1.607400
5.384700 1.629100
5.411400 1.619300
5.438000 1.579900
5.464700 1.540000
5.491400 1.526300
5.518100 1.529500
5.544700 1.543400
5.571400 1.547600
5.598100 1.543000
5.624800 1.538900
5.651400 1.528300
5.678100 1.516500
5.704800 1.519400
5.731500 1.529600
5.758100 1.542500
5.784800 1.553300
5.811500 1.555800
5.838200 1.557200
5.864800 1.561100
5.891500 1.564300
5.918200 1.564800
5.944900 1.561500
5.971500 1.561000
5.998200 1.565200
6.024900 1.568700
6.051600 1.570700
6.078200 1.572100
6.104900 1.574100
6.131600 1.579200
6.158300 1.592200
6.184900 1.671600
6.211600 1.583000
6.238300 1.538300
6.265000 1.501600
6.291600 1.468800
6.318300 1.446700
6.345000 1.437100
6.371700 1.433200
6.398300 1.430200
6.425000 1.427800
6.451700 1.423800
6.478400 1.422700
6.505000 1.431800
6.531700 1.449100
6.558400 1.472200
6.585100 1.536500
6.611700 1.470200
6.638400 1.441200
6.665100 1.431200
6.691800 1.427300
6.718400 1.427300
6.745100 1.432300
6.771800 1.442100
6.798500 1.454300
6.825100 1.468700
6.851800 1.485500
6.878500 1.505000
6.905200 1.527400
6.931800 1.572800
6.958500 1.584400
6.985200 1.607500
7.011900 1.642400
7.038500 1.673100
7.065200 1.703500
7.091900 1.738100
7.118600 1.767400
7.145200 1.792100
7.171900 1.812000
7.198600 1.829800
7.225300 1.827400
7.251900 1.813700
7.278600 1.814400
7.305300 1.821400
7.332000 1.826700
7.358600 1.799000
7.385300 1.800900
7.412000 1.786400
7.438700 1.780600
7.465300 1.779100
7.492000 1.772800
7.518700 1.761900
7.545400 1.755000
7.572000 1.759700
7.598700 1.780000
7.625400 1.753700
7.652100 1.747300
7.678700 1.786300
7.705400 1.727200
7.732100 1.669600
7.758800 1.635100
7.785400 1.621400
7.812100 1.612400
7.838800 1.608100
7.865500 1.612000
7.892100 1.618200
7.918800 1.624600
7.945500 1.630800
7.972200 1.633300
7.998800 1.626900
8.025500 1.630900
8.052200 1.649400
8.078900 1.674700
8.105500 1.709600
8.132200 1.752600
8.158900 1.790500
8.185600 1.846000
8.212200 1.906300
8.238900 1.903700
8.265600 1.924500
8.292300 1.946100
8.318900 1.953800
8.345600 1.944800
8.372300 1.941500
8.399000 1.925200
8.425600 1.887600
8.452300 1.857100
8.479000 1.827000
8.505700 1.803400
8.532300 1.783100
8.559000 1.765500
8.585700 1.755500
8.612400 1.751400
8.639000 1.749400
8.665700 1.753300
8.692400 1.750100
8.719000 1.746000
8.745700 1.753600
8.772400 1.767900
8.799100 1.768200
8.825700 1.784000
8.852400 1.802200
8.879100 1.824700
8.905800 1.826700
8.932400 1.840000
8.959100 1.861100
8.985800 1.860200
9.012500 1.813000
9.039100 1.781200
9.065800 1.770500
9.092500 1.765700
9.119200 1.769300
9.145800 1.778300
9.172500 1.785000
9.199200 1.786200
9.225900 1.784500
9.252500 1.822200
9.279200 1.800400
9.305900 1.782200
9.332600 1.763700
9.359200 1.747700
9.385900 1.735900
9.412600 1.728800
9.439300 1.732800
9.465900 1.722400
9.492600 1.713600
9.519300 1.708200
9.546000 1.703200
9.572600 1.695300
9.599300 1.694900
9.626000 1.704000
9.652700 1.725700
9.679300 1.770900
9.706000 1.787500
9.732700 1.811300
9.759400 1.844300
9.786000 1.877600
9.812700 1.913600
9.839400 1.936000
9.866100 1.989100
9.892700 2.090700
9.919400 2.106100
9.946100 2.147600
9.972800 2.163800
9.999400 2.149200
10.026100 2.125900
10.052800 2.101700
10.079500 2.098100
10.106100 2.154300
10.132800 2.196700
10.159500 2.170000
10.186200 2.152800
10.212800 2.135100
10.239500 2.090800
10.266200 2.036400
10.292900 1.996100
10.319500 1.964000
10.346200 1.925800
10.372900 1.892600
10.399600 1.870700
10.426200 1.843400
10.452900 1.824700
10.479600 1.817400
10.506300 1.806000
10.532900 1.801300
10.559600 1.806000
10.586300 1.794700
10.613000 1.802300
10.639600 1.855800
10.666300 1.790200
10.693000 1.776700
10.719700 1.764800
10.746300 1.760600
10.773000 1.757600
10.799700 1.756800
10.826400 1.741900
10.853000 1.715200
10.879700 1.687500
10.906400 1.688200
10.933100 1.647300
10.959700 1.585200
10.986400 1.566100
11.013100 1.581600
11.039800 1.580700
11.066400 1.557500
11.093100 1.551100
11.119800 1.540300
11.146500 1.530000
11.173100 1.519600
11.199800 1.505800
11.226500 1.496800
11.253200 1.491900
11.279800 1.490200
11.306500 1.495200
11.333200 1.511200
11.359900 1.522200
11.386500 1.531300
11.413200 1.559600
11.439900 1.587000
11.466600 1.565800
11.493200 1.536900
11.519900 1.511700
11.546600 1.489000
11.573300 1.498500
11.599900 1.486100
11.626600 1.482000
11.653300 1.492700
11.680000 1.514800
11.706600 1.540900
11.733300 1.568500
11.760000 1.594100
11.786700 1.705300
11.813300 1.719900
11.840000 1.712200
11.866700 1.735600
11.893400 1.833400
11.920000 1.765300
11.946700 1.768500
11.973400 1.776000
12.000100 1.783200
12.026700 1.803300
12.053400 1.820600
12.080100 1.842900
12.106800 1.872700
12.133400 1.904000
12.160100 1.936000
12.186800 2.037400
12.213500 2.041600
12.240100 2.037500
12.266800 2.003400
12.293500 2.009800
12.320200 2.025900
12.346800 2.029400
12.373500 2.024600
12.400200 1.991200
12.426900 1.967900
12.453500 1.957000
12.480200 1.963600
12.506900 1.982700
12.533600 1.991800
12.560200 1.997600
12.586900 2.009400
12.613600 2.027300
12.640300 2.038800
12.666900 2.074600
12.693600 2.075000
12.720300 2.076700
12.747000 2.078400
12.773600 2.081000
12.800300 2.056600
12.827000 1.991100
12.853700 1.954100
12.880300 1.940900
12.907000 1.933800
12.933700 1.922600
12.960400 1.901300
12.987000 1.874400
13.013700 1.845100
13.040400 1.824600
13.067100 1.838400
13.093700 1.846200
13.120400 1.840300
13.147100 1.844900
13.173800 1.864700
13.200400 1.895300
13.227100 1.926900
13.253800 1.932900
13.280500 1.940700
13.307100 1.959000
13.333800 1.949700
13.360500 1.924900
13.387200 1.899900
13.413800 1.882100
13.440500 1.869700
13.467200 1.845000
13.493900 1.825100
13.520500 1.802500
13.547200 1.773400
13.573900 1.747300
13.600600 1.731400
13.627200 1.734900
13.653900 1.754500
13.680600 1.785400
13.707300 1.877400
13.733900 1.947100
13.760600 1.971000
13.787300 1.914000
13.814000 1.919400
13.840600 1.934500
13.867300 1.937000
13.894000 1.937900
13.920700 1.928600
13.947300 1.904800
13.974000 1.886000
14.000700 1.883500
14.027400 1.903000
14.054000 1.944400
14.080700 1.985300
14.107400 2.024100
14.134100 2.051000
14.160700 2.060800
14.187400 2.143100
14.214100 2.122100
14.240800 2.141600
14.267400 2.166000
14.294100 2.192600
14.320800 2.217500
14.347500 2.229400
14.374100 2.233700
14.400800 2.174100
14.427500 2.086500
14.454200 2.050500
14.480800 2.011200
14.507500 1.971300
14.534200 1.935500
14.560900 1.908300
14.587500 1.893300
14.614200 1.881600
14.640900 1.878800
14.667600 1.884100
14.694200 1.890400
14.720900 1.905100
14.747600 1.925200
14.774300 1.979800
14.800900 2.020100
14.827600 2.063300
14.854300 2.109100
14.881000 2.164100
14.907600 2.196900
14.934300 2.248300
14.961000 2.271400
14.987700 2.287400
15.014300 2.311300
15.041000 2.331000
15.067700 2.332200
15.094400 2.324300
15.121000 2.316400
15.147700 2.307700
15.174400 2.298000
15.201100 2.282400
15.227700 2.266800
15.254400 2.254000
15.281100 2.224100
15.307800 2.192500
15.334400 2.176600
15.361100 2.174400
15.387800 2.146000
15.414500 2.132600
15.441100 2.119500
15.467800 2.121600
15.494500 2.098300
15.521200 2.080400
15.547800 2.036700
15.574500 2.000500
15.601200 1.965000
15.627900 1.937900
15.654500 1.923700
15.681200 1.917500
15.707900 1.917400
15.734600 1.917800
15.761200 1.907100
15.787900 1.891200
15.814600 1.887900
15.841300 1.894900
15.867900 1.915700
15.894600 1.934500
15.921300 1.957800
15.948000 1.979000
15.974600 2.002800
16.001300 2.026700
16.028000 2.041900
16.054700 2.056400
16.081300 2.072700
16.108000 2.122000
16.134700 2.149400
16.161400 2.174400
16.188000 2.185200
16.214700 2.179900
16.241400 2.206700
16.268100 2.245500
16.294700 2.287100
16.321400 2.323200
16.348100 2.343000
16.374800 2.278600
16.401400 2.252500
16.428100 2.233700
16.454800 2.220400
16.481400 2.222500
16.508100 2.233400
16.534800 2.238400
16.561500 2.235400
16.588100 2.225900
16.614800 2.218400
16.641500 2.210200
16.668200 2.202900
16.694800 2.193500
16.721500 2.181500
16.748200 2.165700
16.774900 2.143000
16.801500 2.141500
16.828200 2.149300
16.854900 2.157700
16.881600 2.161800
16.908200 2.173500
16.934900 2.187400
16.961600 2.207100
16.988300 2.212800
17.014900 2.187500
17.041600 2.183200
17.068300 2.184800
17.095000 2.194500
17.121600 2.215600
17.148300 2.244600
17.175000 2.279300
17.201700 2.314600
17.228300 2.350600
17.255000 2.407100
17.281700 2.476200
17.308400 2.479400
17.335000 2.523200
17.361700 2.621300
17.388400 2.673400
17.415100 2.681200
17.441700 2.652200
17.468400 2.593900
17.495100 2.574600
17.521800 2.570600
17.548400 2.565800
17.575100 2.564800
17.601800 2.552900
17.628500 2.557500
17.655100 2.519800
17.681800 2.493400
17.708500 2.469000
17.735200 2.450600
17.761800 2.431500
17.788500 2.415100
17.815200 2.386000
17.841900 2.352600
17.868500 2.335800
17.895200 2.262300
17.921900 2.169400
17.948600 2.124400
17.975200 2.107700
18.001900 2.109400
18.028600 2.064400
18.055300 2.022600
18.081900 1.999000
18.108600 1.981700
18.135300 1.973400
18.162000 1.976300
18.188600 1.989900
18.215300 2.035500
18.242000 2.066100
18.268700 2.100900
18.295300 2.146700
18.322000 2.198700
18.348700 2.259100
18.375400 2.323900
18.402000 2.389100
18.428700 2.468800
18.455400 2.493600
18.482100 2.513600
18.508700 2.495400
18.535400 2.452200
18.562100 2.437800
18.588800 2.426200
18.615400 2.418600
18.642100 2.386200
18.668800 2.374800
18.695500 2.355100
18.722100 2.325600
18.748800 2.274500
18.775500 2.289200
18.802200 2.325200
18.828800 2.373900
18.855500 2.437600
18.882200 2.480000
18.908900 2.495500
18.935500 2.501100
18.962200 2.548800
18.988900 2.579200
19.015600 2.578100
19.042200 2.604200
19.068900 2.636000
19.095600 2.665800
19.122300 2.590100
19.148900 2.609800
19.175600 2.556500
19.202300 2.781600
19.229000 2.414600
19.255600 2.373700
19.282300 2.343800
19.309000 2.325500
19.335700 2.312700
19.362300 2.316500
19.389000 2.312500
19.415700 2.313100
19.442400 2.337300
19.469000 2.380500
19.495700 2.411800
19.522400 2.436500
19.549100 2.460700
19.575700 2.485400
19.602400 2.526700
19.629100 2.537100
19.655800 2.459600
19.682400 2.411000
19.709100 2.340800
19.735800 2.280000
19.762500 2.225400
19.789100 2.167900
19.815800 2.112500
19.842500 2.061900
19.869200 2.045500
19.895800 2.045400
19.922500 2.106500
19.949200 2.165400
19.975900 2.202200
20.002500 2.253100
20.029200 2.271500
20.055900 2.292000
20.082600 2.327100
20.109200 2.384600
20.135900 2.471000
20.162600 2.594300
20.189300 2.591200
20.215900 2.600400
20.242600 2.602200
20.269300 2.634100
20.296000 2.668500
20.322600 2.714100
20.349300 2.782900
20.376000 2.836000
20.402700 2.833600
20.429300 2.810500
20.456000 2.785600
20.482700 2.767800
20.509400 2.768000
20.536000 2.727200
20.562700 2.648800
20.589400 2.576900
20.616100 2.524200
20.642700 2.510700
20.669400 2.540900
20.696100 2.519900
20.722800 2.426500
20.749400 2.365400
20.776100 2.339200
20.802800 2.321300
20.829500 2.303000
20.856100 2.288100
20.882800 2.276200
20.909500 2.266900
20.936200 2.252400
20.962800 2.230300
20.989500 2.217400
21.016200 2.193800
