set title 'mp-641 - Density of States'
set xlabel 'Energy (eV)'
set ylabel 'DOS (states/eV)'
set grid
set xrange [-10:10]
set yrange [0:93.602]
set xzeroaxis lt -1
set terminal png size 800,600
set output 'mp-641_dos_gnuplot.png'
plot '-' using 1:2 with lines title 'DOS'
-14.704900 0.000000
-14.689900 0.000000
-14.674800 0.000000
-14.659800 0.000000
-14.644800 0.000000
-14.629800 0.000000
-14.614700 0.000000
-14.599700 0.000000
-14.584700 0.000000
-14.569700 0.000000
-14.554700 0.000000
-14.539600 0.000000
-14.524600 0.000000
-14.509600 0.000000
-14.494600 0.000000
-14.479500 0.000000
-14.464500 0.000000
-14.449500 0.000000
-14.434500 0.000000
-14.419500 0.000000
-14.404400 0.000000
-14.389400 0.000000
-14.374400 0.000000
-14.359400 0.000000
-14.344300 0.000000
-14.329300 0.000000
-14.314300 0.000000
-14.299300 0.000000
-14.284300 0.000000
-14.269200 0.000000
-14.254200 0.000000
-14.239200 0.000000
-14.224200 0.000000
-14.209200 0.000000
-14.194100 0.000000
-14.179100 0.000000
-14.164100 0.000000
-14.149100 0.000000
-14.134000 0.000000
-14.119000 0.000000
-14.104000 0.000000
-14.089000 0.000000
-14.074000 0.000000
-14.058900 0.000000
-14.043900 0.000000
-14.028900 0.000000
-14.013900 0.000000
-13.998800 0.000000
-13.983800 0.000000
-13.968800 0.000000
-13.953800 0.000000
-13.938800 0.000000
-13.923700 0.000000
-13.908700 0.000000
-13.893700 0.000000
-13.878700 0.000000
-13.863600 0.000000
-13.848600 0.000000
-13.833600 0.000000
-13.818600 0.000000
-13.803600 0.000000
-13.788500 0.000000
-13.773500 0.000000
-13.758500 0.000000
-13.743500 0.000000
-13.728500 0.000000
-13.713400 0.000000
-13.698400 0.000000
-13.683400 0.000000
-13.668400 0.000000
-13.653300 0.000000
-13.638300 0.000000
-13.623300 0.000000
-13.608300 0.000000
-13.593300 0.000000
-13.578200 0.000000
-13.563200 0.000000
-13.548200 0.000000
-13.533200 0.000000
-13.518100 0.000000
-13.503100 0.000000
-13.488100 0.000000
-13.473100 0.000000
-13.458100 0.000000
-13.443000 0.000000
-13.428000 0.000000
-13.413000 0.000000
-13.398000 0.000000
-13.382900 0.000000
-13.367900 0.000000
-13.352900 0.000000
-13.337900 5.277200
-13.322900 6.053300
-13.307800 6.829500
-13.292800 13.235100
-13.277800 14.837500
-13.262800 10.521700
-13.247700 11.265800
-13.232700 6.540700
-13.217700 6.393100
-13.202700 6.245500
-13.187700 6.097900
-13.172600 5.950300
-13.157600 5.842000
-13.142600 5.737500
-13.127600 5.626900
-13.112600 5.506200
-13.097500 5.385500
-13.082500 5.264800
-13.067500 5.144100
-13.052500 5.023400
-13.037400 4.902700
-13.022400 7.682700
-13.007400 8.225300
-12.992400 11.974800
-12.977400 13.705400
-12.962300 15.476200
-12.947300 16.402600
-12.932300 16.171200
-12.917300 15.939800
-12.902200 15.708400
-12.887200 13.206700
-12.872200 13.133900
-12.857200 10.653500
-12.842200 10.668100
-12.827100 10.682600
-12.812100 17.844900
-12.797100 16.871600
-12.782100 15.887000
-12.767000 14.899000
-12.752000 5.449100
-12.737000 5.413300
-12.722000 5.377500
-12.707000 5.341700
-12.691900 5.305900
-12.676900 5.270100
-12.661900 5.234300
-12.646900 5.198500
-12.631900 5.162700
-12.616800 9.228700
-12.601800 10.481100
-12.586800 16.175200
-12.571800 14.180100
-12.556700 12.185000
-12.541700 10.189900
-12.526700 4.835500
-12.511700 3.918800
-12.496700 0.000000
-12.481600 0.000000
-12.466600 0.000000
-12.451600 0.000000
-12.436600 0.000000
-12.421500 0.000000
-12.406500 0.000000
-12.391500 0.000000
-12.376500 0.000000
-12.361500 0.000000
-12.346400 0.000000
-12.331400 0.000000
-12.316400 0.000000
-12.301400 0.000000
-12.286300 0.000000
-12.271300 0.000000
-12.256300 0.000000
-12.241300 0.000000
-12.226300 0.000000
-12.211200 0.303200
-12.196200 1.312800
-12.181200 2.574900
-12.166200 3.837100
-12.151200 5.099200
-12.136100 8.992700
-12.121100 11.793000
-12.106100 11.807900
-12.091100 11.822800
-12.076000 11.837700
-12.061000 11.852600
-12.046000 11.867400
-12.031000 11.882300
-12.016000 10.388200
-12.000900 7.686800
-11.985900 8.904900
-11.970900 8.786800
-11.955900 8.668600
-11.940800 8.550500
-11.925800 8.432400
-11.910800 8.314200
-11.895800 8.196100
-11.880800 8.078000
-11.865700 7.959800
-11.850700 7.841700
-11.835700 7.723600
-11.820700 7.605400
-11.805600 7.487300
-11.790600 12.160400
-11.775600 17.270200
-11.760600 16.617000
-11.745600 15.957000
-11.730500 16.480100
-11.715500 12.103400
-11.700500 7.194200
-11.685500 6.433400
-11.670500 5.672500
-11.655400 4.911700
-11.640400 4.150900
-11.625400 3.551100
-11.610400 3.209200
-11.595300 3.118600
-11.580300 3.118600
-11.565300 3.118700
-11.550300 3.118800
-11.535300 3.118800
-11.520200 3.118900
-11.505200 3.119000
-11.490200 3.119000
-11.475200 3.119100
-11.460100 3.119100
-11.445100 3.119200
-11.430100 3.119300
-11.415100 3.119300
-11.400100 3.119400
-11.385000 3.119400
-11.370000 3.119500
-11.355000 3.119600
-11.340000 3.119600
-11.324900 3.119700
-11.309900 3.119700
-11.294900 3.119800
-11.279900 3.119900
-11.264900 3.119900
-11.249800 3.120000
-11.234800 3.120000
-11.219800 3.120100
-11.204800 3.120200
-11.189700 3.120200
-11.174700 3.120300
-11.159700 3.225800
-11.144700 3.533600
-11.129700 3.841300
-11.114600 6.591700
-11.099600 6.347800
-11.084600 6.104000
-11.069600 5.860200
-11.054600 5.616400
-11.039500 5.372600
-11.024500 5.128700
-11.009500 4.884900
-10.994500 4.641100
-10.979400 4.397300
-10.964400 4.153500
-10.949400 3.909700
-10.934400 3.665800
-10.919400 3.422000
-10.904300 3.178200
-10.889300 2.934400
-10.874300 1.407200
-10.859300 0.000000
-10.844200 0.000000
-10.829200 0.000000
-10.814200 0.000000
-10.799200 0.000000
-10.784200 0.000000
-10.769100 26.973600
-10.754100 82.923800
-10.739100 0.000000
-10.724100 148.276700
-10.709000 38.447600
-10.694000 39.961400
-10.679000 92.397700
-10.664000 78.969000
-10.649000 40.121400
-10.633900 0.000000
-10.618900 0.000000
-10.603900 0.000000
-10.588900 0.000000
-10.573900 0.000000
-10.558800 0.000000
-10.543800 0.000000
-10.528800 0.000000
-10.513800 0.000000
-10.498700 0.000000
-10.483700 0.000000
-10.468700 0.000000
-10.453700 0.000000
-10.438700 0.000000
-10.423600 0.000000
-10.408600 0.000000
-10.393600 0.000000
-10.378600 0.000000
-10.363500 0.000000
-10.348500 0.000000
-10.333500 0.000000
-10.318500 0.000000
-10.303500 0.000000
-10.288400 0.000000
-10.273400 0.000000
-10.258400 0.000000
-10.243400 0.000000
-10.228300 0.000000
-10.213300 0.000000
-10.198300 0.000000
-10.183300 0.000000
-10.168300 0.000000
-10.153200 0.000000
-10.138200 0.000000
-10.123200 0.000000
-10.108200 0.000000
-10.093200 0.000000
-10.078100 0.000000
-10.063100 0.000000
-10.048100 0.000000
-10.033100 0.000000
-10.018000 0.000000
-10.003000 0.000000
-9.988000 0.000000
-9.973000 0.000000
-9.958000 0.000000
-9.942900 0.000000
-9.927900 0.000000
-9.912900 0.000000
-9.897900 0.000000
-9.882800 0.000000
-9.867800 0.000000
-9.852800 0.000000
-9.837800 0.000000
-9.822800 0.000000
-9.807700 0.000000
-9.792700 0.000000
-9.777700 0.000000
-9.762700 0.000000
-9.747600 0.000000
-9.732600 0.000000
-9.717600 0.000000
-9.702600 0.000000
-9.687600 0.000000
-9.672500 0.000000
-9.657500 0.000000
-9.642500 0.000000
-9.627500 0.000000
-9.612400 0.000000
-9.597400 0.000000
-9.582400 0.000000
-9.567400 0.000000
-9.552400 0.000000
-9.537300 0.000000
-9.522300 0.000000
-9.507300 0.000000
-9.492300 0.000000
-9.477300 0.000000
-9.462200 0.000000
-9.447200 0.000000
-9.432200 0.000000
-9.417200 0.000000
-9.402100 0.000000
-9.387100 0.000000
-9.372100 0.000000
-9.357100 0.000000
-9.342100 0.000000
-9.327000 0.000000
-9.312000 0.000000
-9.297000 0.000000
-9.282000 0.000000
-9.266900 0.000000
-9.251900 0.000000
-9.236900 1.022800
-9.221900 2.143300
-9.206900 2.323900
-9.191800 2.504500
-9.176800 2.685100
-9.161800 2.865700
-9.146800 3.046300
-9.131700 3.226900
-9.116700 3.407600
-9.101700 3.588200
-9.086700 3.768800
-9.071700 3.949400
-9.056600 4.130000
-9.041600 4.310600
-9.026600 4.491200
-9.011600 4.671800
-8.996600 4.852400
-8.981500 5.033000
-8.966500 5.213600
-8.951500 5.394200
-8.936500 5.448900
-8.921400 5.283700
-8.906400 4.071400
-8.891400 2.972300
-8.876400 2.964200
-8.861400 2.956100
-8.846300 2.947900
-8.831300 2.939800
-8.816300 2.931700
-8.801300 2.923500
-8.786200 2.915400
-8.771200 2.907300
-8.756200 2.899200
-8.741200 2.891000
-8.726200 2.882900
-8.711100 2.874800
-8.696100 2.866600
-8.681100 2.858500
-8.666100 2.850400
-8.651000 2.842200
-8.636000 2.834100
-8.621000 2.826000
-8.606000 2.817800
-8.591000 2.809700
-8.575900 2.801600
-8.560900 2.793400
-8.545900 2.785300
-8.530900 2.777200
-8.515900 2.769000
-8.500800 2.760900
-8.485800 2.752800
-8.470800 2.744600
-8.455800 2.736500
-8.440700 2.728400
-8.425700 2.720300
-8.410700 2.769400
-8.395700 2.902900
-8.380700 3.093200
-8.365600 3.383600
-8.350600 3.885100
-8.335600 4.433700
-8.320600 5.145900
-8.305500 5.858100
-8.290500 6.570300
-8.275500 16.826400
-8.260500 21.271400
-8.245500 10.077400
-8.230400 9.890500
-8.215400 10.939000
-8.200400 5.418200
-8.185400 6.801700
-8.170300 6.905500
-8.155300 7.009300
-8.140300 7.113200
-8.125300 7.217000
-8.110300 7.320800
-8.095200 7.424600
-8.080200 7.528400
-8.065200 7.632300
-8.050200 7.736100
-8.035200 7.839900
-8.020100 7.943700
-8.005100 8.047500
-7.990100 8.151400
-7.975100 8.255200
-7.960000 8.359000
-7.945000 7.159600
-7.930000 7.090400
-7.915000 5.759100
-7.900000 9.203000
-7.884900 9.311800
-7.869900 9.420700
-7.854900 12.549600
-7.839900 12.854800
-7.824800 13.160100
-7.809800 7.443200
-7.794800 6.037600
-7.779800 6.154100
-7.764800 6.270600
-7.749700 6.387100
-7.734700 0.000000
-7.719700 0.000000
-7.704700 0.000000
-7.689600 0.000000
-7.674600 0.000000
-7.659600 0.000000
-7.644600 0.000000
-7.629600 0.000000
-7.614500 0.000000
-7.599500 0.000000
-7.584500 0.000000
-7.569500 0.000000
-7.554400 0.000000
-7.539400 0.000000
-7.524400 0.000000
-7.509400 0.000000
-7.494400 0.000000
-7.479300 0.000000
-7.464300 0.000000
-7.449300 0.000000
-7.434300 0.000000
-7.419300 0.000000
-7.404200 4.749700
-7.389200 5.019000
-7.374200 5.288400
-7.359200 9.133200
-7.344100 9.618800
-7.329100 5.317100
-7.314100 5.528800
-7.299100 5.740600
-7.284100 5.952300
-7.269000 2.671300
-7.254000 2.661200
-7.239000 2.651100
-7.224000 2.641000
-7.208900 2.630900
-7.193900 2.620900
-7.178900 2.610800
-7.163900 2.600700
-7.148900 2.590600
-7.133800 18.971900
-7.118800 3.847400
-7.103800 3.836200
-7.088800 3.824900
-7.073700 13.679000
-7.058700 14.246700
-7.043700 5.117600
-7.028700 5.104800
-7.013700 5.091900
-6.998600 5.079100
-6.983600 5.066200
-6.968600 5.066200
-6.953600 5.080900
-6.938600 5.104600
-6.923500 5.144100
-6.908500 5.183600
-6.893500 5.223100
-6.878500 5.262600
-6.863400 5.302100
-6.848400 5.341600
-6.833400 5.381100
-6.818400 5.420600
-6.803400 5.460100
-6.788300 5.499600
-6.773300 5.539100
-6.758300 5.578600
-6.743300 5.618100
-6.728200 5.657600
-6.713200 5.696500
-6.698200 5.728500
-6.683200 5.760400
-6.668200 5.794100
-6.653100 5.846500
-6.638100 5.899000
-6.623100 5.951500
-6.608100 6.030700
-6.593000 6.110200
-6.578000 6.189800
-6.563000 6.269300
-6.548000 6.348800
-6.533000 6.428100
-6.517900 6.488500
-6.502900 9.505000
-6.487900 9.302400
-6.472900 12.013200
-6.457900 11.529000
-6.442800 11.044800
-6.427800 10.560600
-6.412800 10.076400
-6.397800 9.592200
-6.382700 6.307600
-6.367700 6.070800
-6.352700 3.011900
-6.337700 3.016600
-6.322700 3.021300
-6.307600 3.026000
-6.292600 3.030700
-6.277600 3.035400
-6.262600 3.040100
-6.247500 3.044900
-6.232500 3.049600
-6.217500 3.054300
-6.202500 3.059000
-6.187500 3.063700
-6.172400 3.068400
-6.157400 9.722400
-6.142400 13.860600
-6.127400 13.044500
-6.112300 5.488300
-6.097300 5.135900
-6.082300 0.000000
-6.067300 0.000000
-6.052300 0.000000
-6.037200 0.000000
-6.022200 0.000000
-6.007200 0.000000
-5.992200 0.000000
-5.977200 0.000000
-5.962100 0.000000
-5.947100 0.000000
-5.932100 0.000000
-5.917100 0.000000
-5.902000 0.000000
-5.887000 0.000000
-5.872000 0.000000
-5.857000 0.000000
-5.842000 0.000000
-5.826900 0.000000
-5.811900 0.000000
-5.796900 0.000000
-5.781900 0.000000
-5.766800 0.000000
-5.751800 0.000000
-5.736800 0.000000
-5.721800 0.000000
-5.706800 0.000000
-5.691700 0.000000
-5.676700 0.000000
-5.661700 0.000000
-5.646700 0.000000
-5.631600 0.000000
-5.616600 0.000000
-5.601600 0.000000
-5.586600 0.000000
-5.571600 0.000000
-5.556500 0.000000
-5.541500 0.000000
-5.526500 0.000000
-5.511500 0.000000
-5.496400 0.000000
-5.481400 0.000000
-5.466400 0.000000
-5.451400 0.000000
-5.436400 0.000000
-5.421300 0.000000
-5.406300 0.000000
-5.391300 0.000000
-5.376300 0.000000
-5.361300 0.000000
-5.346200 0.000000
-5.331200 0.000000
-5.316200 0.000000
-5.301200 0.000000
-5.286100 0.000000
-5.271100 0.000000
-5.256100 0.000000
-5.241100 0.000000
-5.226100 0.000000
-5.211000 0.000000
-5.196000 0.000000
-5.181000 0.000000
-5.166000 0.000000
-5.150900 0.000000
-5.135900 0.000000
-5.120900 0.000000
-5.105900 0.000000
-5.090900 0.000000
-5.075800 0.000000
-5.060800 0.000000
-5.045800 0.000000
-5.030800 0.000000
-5.015700 0.000000
-5.000700 0.000000
-4.985700 0.000000
-4.970700 0.000000
-4.955700 0.000000
-4.940600 0.000000
-4.925600 0.000000
-4.910600 0.000000
-4.895600 0.000000
-4.880600 0.000000
-4.865500 0.000000
-4.850500 0.000000
-4.835500 0.000000
-4.820500 0.000000
-4.805400 0.000000
-4.790400 0.000000
-4.775400 0.000000
-4.760400 0.000000
-4.745400 0.000000
-4.730300 0.000000
-4.715300 0.000000
-4.700300 0.000000
-4.685300 0.000000
-4.670200 0.000000
-4.655200 0.000000
-4.640200 0.000000
-4.625200 0.000000
-4.610200 0.000000
-4.595100 0.000000
-4.580100 0.000000
-4.565100 0.000000
-4.550100 0.000000
-4.535000 0.000000
-4.520000 0.000000
-4.505000 0.000000
-4.490000 0.000000
-4.475000 0.000000
-4.459900 0.000000
-4.444900 0.000000
-4.429900 0.000000
-4.414900 0.000000
-4.399900 0.000000
-4.384800 0.000000
-4.369800 0.000000
-4.354800 0.000000
-4.339800 0.000000
-4.324700 0.000000
-4.309700 0.000000
-4.294700 0.000000
-4.279700 0.000000
-4.264700 0.000000
-4.249600 0.000000
-4.234600 0.000000
-4.219600 0.000000
-4.204600 0.000000
-4.189500 0.000000
-4.174500 0.000000
-4.159500 0.000000
-4.144500 0.000000
-4.129500 0.000000
-4.114400 0.000000
-4.099400 0.000000
-4.084400 0.000000
-4.069400 0.000000
-4.054300 0.000000
-4.039300 0.000000
-4.024300 0.000000
-4.009300 0.000000
-3.994300 0.000000
-3.979200 0.000000
-3.964200 0.000000
-3.949200 0.000000
-3.934200 0.000000
-3.919200 0.000000
-3.904100 0.000000
-3.889100 0.000000
-3.874100 0.000000
-3.859100 0.000000
-3.844000 0.000000
-3.829000 0.000000
-3.814000 0.000000
-3.799000 0.000000
-3.784000 0.000000
-3.768900 0.000000
-3.753900 0.000000
-3.738900 0.000000
-3.723900 0.000000
-3.708800 0.000000
-3.693800 0.000000
-3.678800 0.000000
-3.663800 0.000000
-3.648800 0.000000
-3.633700 0.000000
-3.618700 0.000000
-3.603700 0.000000
-3.588700 0.000000
-3.573600 0.000000
-3.558600 0.000000
-3.543600 0.000000
-3.528600 0.000000
-3.513600 0.000000
-3.498500 0.000000
-3.483500 29.537900
-3.468500 10.237400
-3.453500 11.243500
-3.438400 17.459200
-3.423400 19.820300
-3.408400 74.635400
-3.393400 31.488400
-3.378400 37.919200
-3.363300 30.026700
-3.348300 26.760300
-3.333300 23.494000
-3.318300 24.054400
-3.303300 14.882900
-3.288200 17.563200
-3.273200 22.210400
-3.258200 20.722100
-3.243200 19.233900
-3.228100 17.977700
-3.213100 23.396400
-3.198100 23.654200
-3.183100 20.961900
-3.168100 12.399000
-3.153000 10.279900
-3.138000 8.160800
-3.123000 6.041700
-3.108000 3.922600
-3.092900 1.803500
-3.077900 0.446300
-3.062900 0.000000
-3.047900 0.000000
-3.032900 2.260400
-3.017800 3.181700
-3.002800 4.103100
-2.987800 5.024400
-2.972800 5.945700
-2.957700 6.867100
-2.942700 11.747200
-2.927700 13.740700
-2.912700 15.316300
-2.897700 16.691300
-2.882600 16.734000
-2.867600 16.048300
-2.852600 14.655800
-2.837600 16.259900
-2.822600 19.206400
-2.807500 17.900400
-2.792500 18.393700
-2.777500 18.887000
-2.762500 17.086900
-2.747400 16.873900
-2.732400 16.660900
-2.717400 18.308600
-2.702400 18.303900
-2.687400 18.333000
-2.672300 15.844800
-2.657300 26.446700
-2.642300 25.172500
-2.627300 14.674900
-2.612200 14.548200
-2.597200 22.263500
-2.582200 21.186400
-2.567200 20.306300
-2.552200 12.368000
-2.537100 8.559200
-2.522100 9.402300
-2.507100 19.537600
-2.492100 18.314900
-2.477000 12.827800
-2.462000 15.076100
-2.447000 15.032900
-2.432000 14.989800
-2.417000 14.946700
-2.401900 14.903600
-2.386900 14.860500
-2.371900 21.944000
-2.356900 27.416700
-2.341900 32.889300
-2.326800 18.494200
-2.311800 16.343900
-2.296800 15.530200
-2.281800 17.479400
-2.266700 19.726200
-2.251700 20.773100
-2.236700 15.237700
-2.221700 21.145100
-2.206700 12.106800
-2.191600 6.675400
-2.176600 6.736700
-2.161600 6.798000
-2.146600 6.859200
-2.131500 6.920500
-2.116500 6.981800
-2.101500 21.749400
-2.086500 19.411600
-2.071500 3.619700
-2.056400 70.539900
-2.041400 9.136700
-2.026400 9.701300
-2.011400 10.266000
-1.996300 4.250500
-1.981300 4.236400
-1.966300 4.222300
-1.951300 4.208300
-1.936300 4.194200
-1.921200 4.180100
-1.906200 4.166100
-1.891200 4.152000
-1.876200 4.137900
-1.861100 4.123900
-1.846100 4.109800
-1.831100 4.095700
-1.816100 4.815800
-1.801100 21.950500
-1.786000 21.797900
-1.771000 21.645300
-1.756000 24.515100
-1.741000 18.069800
-1.726000 54.003500
-1.710900 20.513300
-1.695900 16.595400
-1.680900 12.677500
-1.665900 16.780200
-1.650800 15.934800
-1.635800 20.203400
-1.620800 22.551400
-1.605800 15.377800
-1.590800 15.022000
-1.575700 9.948500
-1.560700 9.241800
-1.545700 8.535100
-1.530700 7.828400
-1.515600 7.388200
-1.500600 6.962800
-1.485600 6.537400
-1.470600 6.112000
-1.455600 5.686500
-1.440500 5.261100
-1.425500 4.835700
-1.410500 4.410300
-1.395500 3.984900
-1.380400 3.559400
-1.365400 3.134000
-1.350400 2.708600
-1.335400 2.283200
-1.320400 1.857700
-1.305300 1.432300
-1.290300 1.006900
-1.275300 0.598100
-1.260300 0.378500
-1.245300 0.158900
-1.230200 0.000000
-1.215200 0.000000
-1.200200 0.000000
-1.185200 0.000000
-1.170100 0.000000
-1.155100 0.000000
-1.140100 0.000000
-1.125100 0.000000
-1.110100 0.000000
-1.095000 0.000000
-1.080000 0.000000
-1.065000 0.000000
-1.050000 0.000000
-1.034900 1.864000
-1.019900 4.474500
-1.004900 8.224600
-0.989900 11.092100
-0.974900 13.309300
-0.959800 14.029000
-0.944800 14.748600
-0.929800 15.468200
-0.914800 16.187900
-0.899700 17.963100
-0.884700 17.715400
-0.869700 17.467800
-0.854700 21.697300
-0.839700 20.099800
-0.824600 10.651700
-0.809600 11.553100
-0.794600 12.579100
-0.779600 13.605200
-0.764600 14.631300
-0.749500 22.527500
-0.734500 20.399300
-0.719500 22.587800
-0.704500 24.776300
-0.689400 25.646900
-0.674400 55.734400
-0.659400 20.007600
-0.644400 20.374500
-0.629400 24.424900
-0.614300 18.434100
-0.599300 9.253300
-0.584300 0.000000
-0.569300 0.838300
-0.554200 2.904400
-0.539200 4.970400
-0.524200 7.036500
-0.509200 12.470800
-0.494200 12.992900
-0.479100 13.515000
-0.464100 14.037100
-0.449100 9.472000
-0.434100 19.874000
-0.419000 24.015500
-0.404000 17.414600
-0.389000 13.309400
-0.374000 27.394900
-0.359000 29.639900
-0.343900 9.135200
-0.328900 6.630800
-0.313900 7.244700
-0.298900 12.837000
-0.283900 14.269200
-0.268800 13.512000
-0.253800 6.963700
-0.238800 8.555200
-0.223800 10.146700
-0.208700 11.738100
-0.193700 74.821600
-0.178700 26.975700
-0.163700 0.000000
-0.148700 0.000000
-0.133600 0.000000
-0.118600 0.000000
-0.103600 0.000000
-0.088600 0.000000
-0.073500 85.092300
-0.058500 11.207600
-0.043500 9.943300
-0.028500 8.679000
-0.013500 7.414700
0.001600 20.274400
0.016600 32.692200
0.031600 34.369900
0.046600 16.941600
0.061700 13.398800
0.076700 13.443100
0.091700 13.487300
0.106700 13.531600
0.121700 13.575800
0.136800 28.160200
0.151800 24.659300
0.166800 25.411200
0.181800 19.797000
0.196900 13.441400
0.211900 2.121400
0.226900 2.943600
0.241900 3.765800
0.256900 4.588000
0.272000 5.410200
0.287000 7.039400
0.302000 9.744700
0.317000 12.449900
0.332000 34.761100
0.347100 26.410800
0.362100 26.162000
0.377100 25.913100
0.392100 25.664300
0.407200 20.464300
0.422200 38.787900
0.437200 11.794100
0.452200 4.838200
0.467200 30.567900
