set title 'mp-567525 - Density of States'
set xlabel 'Energy (eV)'
set ylabel 'DOS (states/eV)'
set grid
set xrange [-10:10]
set yrange [0:15.384]
set xzeroaxis lt -1
set terminal png size 800,600
set output 'mp-567525_dos_gnuplot.png'
plot '-' using 1:2 with lines title 'DOS'
-7.995500 0.000000
-7.981900 0.000000
-7.968300 0.000000
-7.954600 0.000000
-7.941000 0.000000
-7.927400 0.000000
-7.913700 0.000000
-7.900100 0.000000
-7.886500 0.000000
-7.872800 0.000000
-7.859200 0.000000
-7.845600 0.000000
-7.831900 0.000000
-7.818300 0.000000
-7.804700 0.000000
-7.791000 0.000000
-7.777400 0.000000
-7.763700 0.000000
-7.750100 0.000000
-7.736500 0.000000
-7.722800 0.000000
-7.709200 0.000000
-7.695600 0.000000
-7.681900 0.000000
-7.668300 0.000000
-7.654700 0.000000
-7.641000 0.000000
-7.627400 0.000000
-7.613800 0.000000
-7.600100 0.000000
-7.586500 0.000000
-7.572900 0.000000
-7.559200 0.000000
-7.545600 0.000000
-7.532000 0.000000
-7.518300 0.000000
-7.504700 0.000000
-7.491100 0.000000
-7.477400 0.000000
-7.463800 0.000000
-7.450200 0.000000
-7.436500 0.000000
-7.422900 0.000000
-7.409200 0.000000
-7.395600 0.000000
-7.382000 0.000000
-7.368300 0.000000
-7.354700 0.000000
-7.341100 0.000000
-7.327400 0.000000
-7.313800 0.000000
-7.300200 0.000000
-7.286500 0.000000
-7.272900 0.000000
-7.259300 0.000000
-7.245600 0.000000
-7.232000 0.000000
-7.218400 0.000000
-7.204700 0.000000
-7.191100 0.000000
-7.177500 0.000000
-7.163800 0.000000
-7.150200 0.000000
-7.136600 0.000000
-7.122900 0.000000
-7.109300 0.000000
-7.095700 0.000000
-7.082000 0.000000
-7.068400 0.000000
-7.054700 0.000000
-7.041100 0.000000
-7.027500 0.000000
-7.013800 0.000000
-7.000200 0.000000
-6.986600 0.000000
-6.972900 0.000000
-6.959300 0.000000
-6.945700 0.000000
-6.932000 0.000000
-6.918400 0.000000
-6.904800 0.000000
-6.891100 0.000000
-6.877500 0.000000
-6.863900 0.000000
-6.850200 0.000000
-6.836600 0.000000
-6.823000 0.000000
-6.809300 0.000000
-6.795700 0.000000
-6.782100 0.000000
-6.768400 0.000000
-6.754800 0.000100
-6.741200 0.019600
-6.727500 0.072100
-6.713900 0.143000
-6.700200 0.166900
-6.686600 0.170000
-6.673000 0.189800
-6.659300 0.214800
-6.645700 0.241000
-6.632100 0.267200
-6.618400 0.287700
-6.604800 0.298600
-6.591200 0.304200
-6.577500 0.315500
-6.563900 0.330100
-6.550300 0.345200
-6.536600 0.360300
-6.523000 0.375300
-6.509400 0.390500
-6.495700 0.406700
-6.482100 0.422200
-6.468500 0.434800
-6.454800 0.445800
-6.441200 0.456500
-6.427600 0.466300
-6.413900 0.476900
-6.400300 0.487500
-6.386700 0.498500
-6.373000 0.510100
-6.359400 0.523000
-6.345800 0.536200
-6.332100 0.549800
-6.318500 0.563800
-6.304800 0.578000
-6.291200 0.591400
-6.277600 0.603100
-6.263900 0.613800
-6.250300 0.624900
-6.236700 0.635900
-6.223000 0.647300
-6.209400 0.659800
-6.195800 0.672500
-6.182100 0.685400
-6.168500 0.698500
-6.154900 0.711600
-6.141200 0.725100
-6.127600 0.738800
-6.114000 0.752600
-6.100300 0.766600
-6.086700 0.780800
-6.073100 0.795100
-6.059400 0.809800
-6.045800 0.825300
-6.032200 0.840400
-6.018500 0.855800
-6.004900 0.875000
-5.991300 0.899500
-5.977600 0.922600
-5.964000 0.946100
-5.950300 0.970400
-5.936700 0.995400
-5.923100 1.020900
-5.909400 1.046200
-5.895800 1.071900
-5.882200 1.099800
-5.868500 1.127100
-5.854900 1.137800
-5.841300 1.145600
-5.827600 1.156100
-5.814000 1.165400
-5.800400 1.173500
-5.786700 1.181700
-5.773100 1.190800
-5.759500 1.199600
-5.745800 1.207900
-5.732200 1.215700
-5.718600 1.226000
-5.704900 1.240700
-5.691300 1.254000
-5.677700 1.266600
-5.664000 1.279400
-5.650400 1.292300
-5.636800 1.305200
-5.623100 1.317800
-5.609500 1.330300
-5.595800 1.344100
-5.582200 1.358700
-5.568600 1.374100
-5.554900 1.391200
-5.541300 1.410300
-5.527700 1.433100
-5.514000 1.456700
-5.500400 1.481400
-5.486800 1.507500
-5.473100 1.536600
-5.459500 1.570100
-5.445900 1.607700
-5.432200 1.649300
-5.418600 1.699400
-5.405000 1.785100
-5.391300 1.823700
-5.377700 1.842500
-5.364100 1.852300
-5.350400 1.895900
-5.336800 1.938700
-5.323200 1.948500
-5.309500 1.970300
-5.295900 2.000400
-5.282300 2.041100
-5.268600 2.078900
-5.255000 2.125500
-5.241300 2.164200
-5.227700 2.070000
-5.214100 2.080600
-5.200400 2.104900
-5.186800 2.126800
-5.173200 2.149900
-5.159500 2.301600
-5.145900 2.466300
-5.132300 2.382200
-5.118600 2.494900
-5.105000 2.461400
-5.091400 1.847300
-5.077700 1.744500
-5.064100 1.648700
-5.050500 1.551000
-5.036800 1.484600
-5.023200 1.439500
-5.009600 1.412800
-4.995900 1.355300
-4.982300 1.279800
-4.968700 1.198800
-4.955000 1.118100
-4.941400 1.178100
-4.927800 0.987300
-4.914100 0.896300
-4.900500 0.824300
-4.886800 0.778300
-4.873200 0.732200
-4.859600 0.688300
-4.845900 0.674700
-4.832300 0.486000
-4.818700 0.477700
-4.805000 0.501400
-4.791400 0.533200
-4.777800 0.570300
-4.764100 0.714600
-4.750500 0.907900
-4.736900 1.150000
-4.723200 1.581500
-4.709600 2.118500
-4.696000 2.770700
-4.682300 3.403900
-4.668700 3.959900
-4.655100 3.890800
-4.641400 3.601300
-4.627800 3.532100
-4.614200 3.532700
-4.600500 3.606600
-4.586900 3.499500
-4.573300 3.452300
-4.559600 3.449900
-4.546000 3.432900
-4.532400 3.554400
-4.518700 3.283800
-4.505100 3.247000
-4.491400 3.073900
-4.477800 2.995800
-4.464200 2.989400
-4.450500 3.033000
-4.436900 2.996600
-4.423300 2.932900
-4.409600 2.968200
-4.396000 3.013600
-4.382400 3.185400
-4.368700 2.837200
-4.355100 2.433500
-4.341500 2.233300
-4.327800 2.093300
-4.314200 1.955000
-4.300600 1.822000
-4.286900 1.728200
-4.273300 1.654300
-4.259700 1.593400
-4.246000 1.536800
-4.232400 1.477300
-4.218800 1.416100
-4.205100 1.342800
-4.191500 1.279400
-4.177900 1.232600
-4.164200 1.187800
-4.150600 1.144500
-4.136900 1.101700
-4.123300 1.055900
-4.109700 1.010900
-4.096000 0.968900
-4.082400 0.934500
-4.068800 0.906300
-4.055100 0.879300
-4.041500 0.853300
-4.027900 0.823300
-4.014200 0.793800
-4.000600 0.760900
-3.987000 0.730200
-3.973300 0.713000
-3.959700 0.694700
-3.946100 0.672400
-3.932400 0.649800
-3.918800 0.627700
-3.905200 0.605400
-3.891500 0.578100
-3.877900 0.550800
-3.864300 0.526600
-3.850600 0.506600
-3.837000 0.486700
-3.823400 0.466000
-3.809700 0.443100
-3.796100 0.418300
-3.782400 0.396200
-3.768800 0.377100
-3.755200 0.360100
-3.741500 0.346500
-3.727900 0.332400
-3.714300 0.317500
-3.700600 0.301100
-3.687000 0.278800
-3.673400 0.261800
-3.659700 0.250500
-3.646100 0.237900
-3.632500 0.228200
-3.618800 0.210400
-3.605200 0.178000
-3.591600 0.146700
-3.577900 0.118000
-3.564300 0.091400
-3.550700 0.066800
-3.537000 0.044200
-3.523400 0.015000
-3.509800 0.000800
-3.496100 0.000000
-3.482500 0.000000
-3.468900 0.000000
-3.455200 0.000000
-3.441600 0.000000
-3.427900 0.000000
-3.414300 0.000000
-3.400700 0.000000
-3.387000 0.000000
-3.373400 0.000000
-3.359800 0.000000
-3.346100 0.000000
-3.332500 0.000000
-3.318900 0.000000
-3.305200 0.000000
-3.291600 0.000000
-3.278000 0.000000
-3.264300 0.000000
-3.250700 0.000000
-3.237100 0.000000
-3.223400 0.000000
-3.209800 0.000000
-3.196200 0.000000
-3.182500 0.000000
-3.168900 0.000000
-3.155300 0.000000
-3.141600 0.000000
-3.128000 0.000000
-3.114400 0.000000
-3.100700 0.000000
-3.087100 0.000000
-3.073500 0.000000
-3.059800 0.000000
-3.046200 0.000000
-3.032500 0.000000
-3.018900 0.000000
-3.005300 0.000000
-2.991600 0.000000
-2.978000 0.000000
-2.964400 0.000000
-2.950700 0.000000
-2.937100 0.000000
-2.923500 0.000000
-2.909800 0.000000
-2.896200 0.000000
-2.882600 0.000000
-2.868900 0.000000
-2.855300 0.000000
-2.841700 0.000000
-2.828000 0.000000
-2.814400 0.000000
-2.800800 0.000000
-2.787100 0.000000
-2.773500 0.000000
-2.759900 0.000000
-2.746200 0.000000
-2.732600 0.000000
-2.719000 0.000000
-2.705300 0.000000
-2.691700 0.000000
-2.678000 0.000000
-2.664400 0.000000
-2.650800 0.000000
-2.637100 0.000000
-2.623500 0.000000
-2.609900 0.000000
-2.596200 0.000000
-2.582600 0.000000
-2.569000 0.000000
-2.555300 0.000000
-2.541700 0.000000
-2.528100 0.000000
-2.514400 0.000000
-2.500800 0.000000
-2.487200 0.000000
-2.473500 0.000000
-2.459900 0.000000
-2.446300 0.000000
-2.432600 0.000000
-2.419000 0.000000
-2.405400 0.000000
-2.391700 0.000000
-2.378100 0.000000
-2.364500 0.000000
-2.350800 0.000000
-2.337200 0.000000
-2.323500 0.000000
-2.309900 0.000000
-2.296300 0.000000
-2.282600 0.000000
-2.269000 0.000000
-2.255400 0.000000
-2.241700 0.000000
-2.228100 0.000000
-2.214500 0.000000
-2.200800 0.000000
-2.187200 0.000000
-2.173600 0.000000
-2.159900 0.000000
-2.146300 0.000000
-2.132700 0.000000
-2.119000 0.000000
-2.105400 0.000000
-2.091800 0.000000
-2.078100 0.000000
-2.064500 0.000000
-2.050900 0.000000
-2.037200 0.000000
-2.023600 0.000000
-2.010000 0.000000
-1.996300 0.000000
-1.982700 0.000000
-1.969000 0.000000
-1.955400 0.000000
-1.941800 0.000000
-1.928100 0.000000
-1.914500 0.000000
-1.900900 0.000000
-1.887200 0.000000
-1.873600 0.000000
-1.860000 0.000000
-1.846300 0.000000
-1.832700 0.000000
-1.819100 0.000000
-1.805400 0.000000
-1.791800 0.000000
-1.778200 0.000000
-1.764500 0.000000
-1.750900 0.000000
-1.737300 0.000000
-1.723600 0.000000
-1.710000 0.000000
-1.696400 0.000000
-1.682700 0.000000
-1.669100 0.000000
-1.655500 0.000000
-1.641800 0.000000
-1.628200 0.000000
-1.614500 0.000000
-1.600900 0.000000
-1.587300 0.000000
-1.573600 0.000000
-1.560000 0.000000
-1.546400 0.000000
-1.532700 0.000000
-1.519100 0.000000
-1.505500 0.000000
-1.491800 0.000000
-1.478200 0.000000
-1.464600 0.000000
-1.450900 0.000000
-1.437300 0.000000
-1.423700 0.000000
-1.410000 0.000000
-1.396400 0.000000
-1.382800 0.000000
-1.369100 0.000000
-1.355500 0.000000
-1.341900 0.000000
-1.328200 0.000000
-1.314600 0.000000
-1.301000 0.000000
-1.287300 0.000000
-1.273700 0.000000
-1.260100 0.000000
-1.246400 0.000000
-1.232800 0.000000
-1.219100 0.000000
-1.205500 0.000000
-1.191900 0.000000
-1.178200 0.000000
-1.164600 0.000000
-1.151000 0.000000
-1.137300 0.000000
-1.123700 0.000000
-1.110100 0.000000
-1.096400 0.000000
-1.082800 0.000000
-1.069200 0.000000
-1.055500 0.000000
-1.041900 0.000000
-1.028300 0.000000
-1.014600 0.000000
-1.001000 0.000000
-0.987400 0.000000
-0.973700 0.000000
-0.960100 0.000000
-0.946500 0.000000
-0.932800 0.000000
-0.919200 0.000000
-0.905600 0.000000
-0.891900 0.000000
-0.878300 0.000000
-0.864600 0.000000
-0.851000 0.000000
-0.837400 0.000000
-0.823700 0.000000
-0.810100 0.000000
-0.796500 0.000000
-0.782800 0.000000
-0.769200 0.000000
-0.755600 0.000000
-0.741900 0.000000
-0.728300 0.000000
-0.714700 0.000000
-0.701000 0.000000
-0.687400 0.000000
-0.673800 0.000000
-0.660100 0.000000
-0.646500 0.000000
-0.632900 0.000000
-0.619200 0.000000
-0.605600 0.000000
-0.592000 0.000000
-0.578300 0.000000
-0.564700 0.000000
-0.551100 0.000000
-0.537400 0.000000
-0.523800 0.000000
-0.510100 0.000000
-0.496500 0.000000
-0.482900 0.000000
-0.469200 0.000000
-0.455600 0.000000
-0.442000 0.000000
-0.428300 0.000000
-0.414700 0.000000
-0.401100 0.000000
-0.387400 0.000000
-0.373800 0.000000
-0.360200 0.000000
-0.346500 0.000000
-0.332900 0.000000
-0.319300 0.000000
-0.305600 0.000000
-0.292000 0.000000
-0.278400 0.000000
-0.264700 0.000000
-0.251100 0.000000
-0.237500 0.000000
-0.223800 0.000000
-0.210200 0.000000
-0.196600 0.000000
-0.182900 0.000000
-0.169300 0.000000
-0.155600 0.000000
-0.142000 0.000000
-0.128400 0.000000
-0.114700 0.000000
-0.101100 0.000000
-0.087500 0.000000
-0.073800 0.000000
-0.060200 0.000000
-0.046600 0.000000
-0.032900 0.000000
-0.019300 0.000000
-0.005700 0.000000
0.008000 0.000000
0.021600 0.000000
0.035200 0.000000
0.048900 0.000000
0.062500 0.012900
0.076100 0.092900
0.089800 0.141100
0.103400 0.183600
0.117000 0.228100
0.130700 0.290500
0.144300 0.363700
0.157900 0.319400
0.171600 0.364700
0.185200 0.503600
0.198900 0.618700
0.212500 0.775500
0.226100 0.889400
0.239800 0.930700
0.253400 0.977000
0.267000 1.051200
0.280700 1.103700
0.294300 1.160800
0.307900 1.189200
0.321600 1.233800
0.335200 1.287000
0.348800 1.321700
0.362500 1.342500
0.376100 1.373700
0.389700 1.418600
0.403400 1.479900
0.417000 1.555400
0.430600 1.635200
0.444300 1.729500
0.457900 1.830800
0.471500 1.943400
0.485200 2.088000
0.498800 2.269200
0.512400 2.513800
0.526100 2.808700
0.539700 3.109800
0.553300 3.484900
0.567000 3.650200
0.580600 3.360400
0.594300 3.286700
0.607900 3.293200
0.621500 3.284400
0.635200 3.203500
0.648800 3.251100
0.662400 3.297600
0.676100 3.515200
0.689700 3.590100
0.703300 3.920400
0.717000 4.004900
0.730600 3.570000
0.744200 3.456400
0.757900 3.577800
0.771500 3.738900
0.785100 4.016400
0.798800 4.229800
0.812400 4.499100
0.826000 4.816000
0.839700 4.477000
0.853300 4.582900
0.866900 4.613500
0.880600 4.550200
0.894200 4.547400
0.907800 4.508300
0.921500 4.560100
0.935100 4.674100
0.948800 4.785400
0.962400 5.075400
0.976000 5.803200
0.989700 6.050500
1.003300 6.240100
1.016900 5.801400
1.030600 6.328000
1.044200 6.225900
1.057800 6.071900
1.071500 6.071900
1.085100 6.265300
1.098700 6.478300
1.112400 6.668200
1.126000 6.774000
1.139600 6.772400
1.153300 6.899800
1.166900 6.651600
1.180500 6.196200
1.194200 5.842500
1.207800 5.781600
1.221400 5.557000
1.235100 5.311400
1.248700 5.270900
1.262300 5.232200
1.276000 5.291400
1.289600 5.039300
1.303300 4.444900
1.316900 4.024000
1.330500 3.870700
1.344200 3.880200
1.357800 3.925100
1.371400 3.940700
1.385100 4.022200
1.398700 4.168000
1.412300 4.309700
1.426000 4.508400
1.439600 4.774600
1.453200 4.942300
1.466900 5.207800
1.480500 5.535200
1.494100 5.590900
1.507800 5.701000
1.521400 5.586100
1.535000 5.693900
1.548700 5.159900
1.562300 4.718100
1.575900 4.204100
1.589600 3.932200
1.603200 3.834700
1.616800 3.657600
1.630500 3.319600
1.644100 2.929900
1.657800 2.280900
1.671400 1.991500
1.685000 1.791200
1.698700 1.624100
1.712300 1.761500
1.725900 1.977800
1.739600 2.335200
1.753200 2.929600
1.766800 3.235300
1.780500 3.622300
1.794100 4.065900
1.807700 4.245500
1.821400 4.679800
1.835000 5.044200
1.848600 5.268900
1.862300 5.302200
1.875900 5.817000
1.889500 5.845000
1.903200 6.242500
1.916800 6.492500
1.930400 6.966500
1.944100 7.233100
1.957700 7.396400
1.971300 8.343800
1.985000 9.324000
1.998600 10.320400
2.012300 10.246500
2.025900 11.353000
2.039500 13.710000
2.053200 13.809200
2.066800 13.679500
2.080400 13.212900
2.094100 13.985100
2.107700 10.062700
2.121300 8.773700
2.135000 8.300600
2.148600 8.010100
2.162200 7.526500
2.175900 7.308600
2.189500 5.957800
2.203100 5.369500
2.216800 4.999300
2.230400 4.754000
2.244000 6.209700
2.257700 6.133400
2.271300 5.621200
2.284900 5.288500
2.298600 5.500300
2.312200 5.836800
2.325800 5.333200
2.339500 4.553500
2.353100 4.522400
2.366700 4.544600
2.380400 4.307600
2.394000 4.530900
2.407700 4.711400
2.421300 5.171000
2.434900 6.026400
2.448600 7.250900
2.462200 7.596000
2.475800 7.913900
2.489500 5.768400
2.503100 4.722500
2.516700 4.353900
2.530400 4.042900
2.544000 3.803500
2.557600 3.457700
2.571300 3.136100
2.584900 2.901000
2.598500 2.724000
2.612200 2.602900
2.625800 2.508900
2.639400 2.419900
2.653100 2.338500
2.666700 2.265300
2.680300 2.202100
2.694000 2.144700
2.707600 2.094500
2.721200 2.047000
2.734900 1.993800
2.748500 1.943800
2.762200 1.905600
2.775800 1.876300
2.789400 1.852600
2.803100 1.828700
2.816700 1.808400
2.830300 1.788100
2.844000 1.782900
2.857600 1.783000
2.871200 1.785400
2.884900 1.796200
2.898500 1.814400
2.912100 1.825700
2.925800 1.837000
2.939400 1.844500
2.953000 1.890200
2.966700 1.788000
2.980300 1.674900
2.993900 1.657700
3.007600 1.647200
3.021200 1.640200
3.034800 1.645100
3.048500 1.729000
3.062100 1.674500
3.075700 1.675200
3.089400 1.715000
3.103000 1.745300
3.116700 1.769800
3.130300 1.809700
3.143900 1.874200
3.157600 1.884100
3.171200 1.874300
3.184800 1.879100
3.198500 1.919500
3.212100 1.939700
3.225700 2.016100
3.239400 2.125900
3.253000 2.113500
3.266600 2.087100
3.280300 2.077800
3.293900 2.076900
3.307500 2.085800
3.321200 2.074200
3.334800 2.055200
3.348400 2.046100
3.362100 2.046000
3.375700 2.059400
3.389300 2.100100
3.403000 2.031700
3.416600 2.009700
3.430200 1.992000
3.443900 1.973000
3.457500 1.963000
3.471200 1.950000
3.484800 1.928500
3.498400 1.918800
3.512100 1.925600
3.525700 1.935400
3.539300 1.947800
3.553000 1.963600
3.566600 1.986000
3.580200 2.015400
3.593900 2.053200
3.607500 2.097200
3.621100 2.140200
3.634800 2.177800
3.648400 2.202000
3.662000 2.198900
3.675700 2.188200
3.689300 2.195000
3.702900 2.169200
3.716600 2.151400
3.730200 2.143600
3.743800 2.139900
3.757500 2.139700
3.771100 2.143600
3.784700 2.147300
3.798400 2.151200
3.812000 2.154800
3.825600 2.158600
3.839300 2.162300
3.852900 2.160100
3.866600 2.158600
3.880200 2.162100
3.893800 2.168700
3.907500 2.173300
3.921100 2.180900
3.934700 2.188500
3.948400 2.196300
3.962000 2.204000
3.975600 2.212300
3.989300 2.223200
4.002900 2.238000
4.016500 2.255600
4.030200 2.258600
4.043800 2.253400
4.057400 2.253200
4.071100 2.258100
4.084700 2.266000
4.098300 2.259100
4.112000 2.260600
4.125600 2.265700
4.139200 2.265400
4.152900 2.263500
4.166500 2.261900
4.180100 2.259300
4.193800 2.257500
4.207400 2.260900
4.221100 2.269800
4.234700 2.276800
4.248300 2.277700
4.262000 2.270700
4.275600 2.260000
4.289200 2.250700
4.302900 2.247200
4.316500 2.246500
4.330100 2.248200
4.343800 2.251100
4.357400 2.254700
4.371000 2.261400
4.384700 2.267100
4.398300 2.269800
4.411900 2.268300
4.425600 2.264400
4.439200 2.264400
4.452800 2.271600
4.466500 2.287400
4.480100 2.307900
4.493700 2.323400
4.507400 2.321200
4.521000 2.310800
4.534600 2.313400
4.548300 2.338000
4.561900 2.367400
4.575600 2.431900
4.589200 2.538900
4.602800 2.585400
4.616500 2.610200
4.630100 2.506400
4.643700 2.353100
4.657400 2.280700
4.671000 2.219300
4.684600 2.164000
4.698300 2.119400
4.711900 2.082400
4.725500 2.048200
4.739200 2.016900
4.752800 1.988600
4.766400 1.960100
4.780100 1.939300
4.793700 1.921200
4.807300 1.904100
4.821000 1.896600
4.834600 1.897800
4.848200 1.904900
4.861900 1.917400
4.875500 1.925000
4.889100 1.927800
4.902800 1.929000
4.916400 1.938500
4.930100 1.947700
4.943700 1.956000
4.957300 1.969400
4.971000 1.992600
4.984600 2.049800
4.998200 2.030500
5.011900 2.035500
5.025500 2.047400
5.039100 2.037900
5.052800 2.048400
5.066400 2.063200
5.080000 2.065900
5.093700 2.045300
5.107300 2.034700
5.120900 2.030200
5.134600 2.026900
5.148200 2.018400
5.161800 2.002200
5.175500 1.984400
5.189100 1.957500
5.202700 1.919000
5.216400 1.878400
5.230000 1.832200
5.243600 1.807400
5.257300 1.795700
5.270900 1.761500
5.284600 1.727200
5.298200 1.692400
5.311800 1.655600
5.325500 1.620900
5.339100 1.585100
5.352700 1.547000
5.366400 1.512900
5.380000 1.499400
5.393600 1.482900
5.407300 1.463500
5.420900 1.460100
5.434500 1.474200
5.448200 1.490000
5.461800 1.473600
5.475400 1.466600
5.489100 1.460600
5.502700 1.456400
5.516300 1.447200
5.530000 1.433900
5.543600 1.415700
5.557200 1.397200
5.570900 1.374000
5.584500 1.349200
5.598100 1.330500
5.611800 1.319800
5.625400 1.305000
5.639000 1.287300
5.652700 1.273900
5.666300 1.262800
5.680000 1.261700
5.693600 1.228600
5.707200 1.168400
5.720900 1.123200
5.734500 1.094100
5.748100 1.074500
5.761800 1.061000
5.775400 1.053200
5.789000 1.051000
5.802700 1.062500
5.816300 1.081200
5.829900 1.103300
5.843600 1.133500
5.857200 1.180100
5.870800 1.233300
5.884500 1.312900
5.898100 1.393600
5.911700 1.472300
5.925400 1.526500
5.939000 1.581800
5.952600 1.635400
5.966300 1.691900
5.979900 1.748300
5.993500 1.804700
6.007200 1.856200
6.020800 1.888600
6.034500 1.909100
6.048100 1.924500
6.061700 1.935800
6.075400 1.942300
6.089000 1.938700
6.102600 1.924600
6.116300 1.898300
6.129900 1.877200
6.143500 1.873000
6.157200 1.857600
6.170800 1.820700
6.184400 1.774100
6.198100 1.731600
6.211700 1.696100
6.225300 1.670500
6.239000 1.655600
6.252600 1.641400
6.266200 1.623300
6.279900 1.609000
6.293500 1.599400
6.307100 1.582600
6.320800 1.560800
6.334400 1.537000
6.348000 1.513300
6.361700 1.490200
6.375300 1.469100
6.389000 1.449200
6.402600 1.433900
6.416200 1.420900
6.429900 1.410900
6.443500 1.403800
6.457100 1.403300
6.470800 1.403400
