set title 'mp-571160 - Density of States'
set xlabel 'Energy (eV)'
set ylabel 'DOS (states/eV)'
set grid
set xrange [-10:10]
set yrange [0:114.533]
set xzeroaxis lt -1
set terminal png size 800,600
set output 'mp-571160_dos_gnuplot.png'
plot '-' using 1:2 with lines title 'DOS'
-6.168900 0.000000
-6.154500 0.000000
-6.140000 0.000000
-6.125600 0.000000
-6.111100 0.000000
-6.096700 0.000000
-6.082300 0.000000
-6.067800 0.000000
-6.053400 0.000000
-6.038900 0.000000
-6.024500 0.000000
-6.010000 0.000000
-5.995600 0.000000
-5.981100 0.000000
-5.966700 0.000000
-5.952300 0.000000
-5.937800 0.000000
-5.923400 0.000000
-5.908900 0.000000
-5.894500 0.000000
-5.880000 0.000000
-5.865600 0.000000
-5.851100 0.000000
-5.836700 0.000000
-5.822300 0.000000
-5.807800 0.000000
-5.793400 0.000000
-5.778900 0.000000
-5.764500 0.000000
-5.750000 0.000000
-5.735600 0.000000
-5.721100 0.000000
-5.706700 0.000000
-5.692300 0.000000
-5.677800 0.000000
-5.663400 0.000000
-5.648900 0.000000
-5.634500 0.000000
-5.620000 0.000000
-5.605600 0.000000
-5.591100 0.000000
-5.576700 0.000000
-5.562300 0.000000
-5.547800 0.000000
-5.533400 0.000000
-5.518900 0.000000
-5.504500 0.000000
-5.490000 0.000000
-5.475600 0.000000
-5.461100 0.000000
-5.446700 0.000000
-5.432300 0.000000
-5.417800 0.000000
-5.403400 0.000000
-5.388900 0.000000
-5.374500 0.000000
-5.360000 0.000000
-5.345600 0.000000
-5.331100 0.000000
-5.316700 0.000000
-5.302300 0.000000
-5.287800 0.000000
-5.273400 0.000000
-5.258900 0.000000
-5.244500 0.000000
-5.230000 0.000000
-5.215600 0.000000
-5.201100 0.000000
-5.186700 0.000000
-5.172300 0.000000
-5.157800 0.000000
-5.143400 0.000000
-5.128900 0.000000
-5.114500 0.000000
-5.100000 0.000000
-5.085600 0.000000
-5.071100 0.000000
-5.056700 0.000000
-5.042300 0.000000
-5.027800 0.000000
-5.013400 0.000000
-4.998900 0.000000
-4.984500 0.000000
-4.970000 0.000000
-4.955600 0.000000
-4.941100 0.000000
-4.926700 0.000000
-4.912300 0.000000
-4.897800 0.000000
-4.883400 0.000000
-4.868900 0.000000
-4.854500 0.590900
-4.840000 13.938700
-4.825600 50.016700
-4.811100 45.559800
-4.796700 51.699900
-4.782200 62.564000
-4.767800 36.803200
-4.753400 55.021100
-4.738900 40.115900
-4.724500 59.528600
-4.710000 34.152900
-4.695600 30.187900
-4.681100 46.957200
-4.666700 32.212200
-4.652200 39.858500
-4.637800 65.843100
-4.623400 42.335400
-4.608900 75.706400
-4.594500 59.534400
-4.580000 74.140300
-4.565600 68.536500
-4.551100 53.076800
-4.536700 89.218400
-4.522200 70.659800
-4.507800 62.528500
-4.493400 55.056000
-4.478900 42.506500
-4.464500 39.632200
-4.450000 40.548300
-4.435600 35.527400
-4.421100 42.595600
-4.406700 58.297900
-4.392200 59.791700
-4.377800 47.547800
-4.363400 48.442500
-4.348900 65.462300
-4.334500 33.939000
-4.320000 65.408700
-4.305600 59.465300
-4.291100 78.948300
-4.276700 60.358000
-4.262200 67.414500
-4.247800 60.891200
-4.233400 87.610100
-4.218900 81.348400
-4.204500 104.121100
-4.190000 82.868600
-4.175600 71.705000
-4.161100 65.292600
-4.146700 2.892700
-4.132200 0.000000
-4.117800 0.000000
-4.103400 0.000000
-4.088900 0.000000
-4.074500 0.000000
-4.060000 0.000000
-4.045600 0.000000
-4.031100 0.000000
-4.016700 0.000000
-4.002200 0.000000
-3.987800 0.000000
-3.973400 0.000000
-3.958900 0.000000
-3.944500 0.000000
-3.930000 0.000000
-3.915600 0.000000
-3.901100 0.000000
-3.886700 0.000000
-3.872200 0.000000
-3.857800 0.000000
-3.843400 0.000000
-3.828900 0.000000
-3.814500 0.000000
-3.800000 0.000000
-3.785600 0.000000
-3.771100 0.000000
-3.756700 0.000000
-3.742200 0.000000
-3.727800 0.000000
-3.713400 0.000000
-3.698900 0.000000
-3.684500 0.000000
-3.670000 0.000000
-3.655600 0.000000
-3.641100 0.000000
-3.626700 0.000000
-3.612200 0.000000
-3.597800 0.000000
-3.583400 0.000000
-3.568900 0.000000
-3.554500 0.000000
-3.540000 0.000000
-3.525600 0.000000
-3.511100 0.000000
-3.496700 0.000000
-3.482200 0.000000
-3.467800 0.000000
-3.453400 0.000000
-3.438900 0.000000
-3.424500 0.000000
-3.410000 0.000000
-3.395600 0.000000
-3.381100 0.000000
-3.366700 0.000000
-3.352200 0.000000
-3.337800 0.000000
-3.323400 0.000000
-3.308900 0.000000
-3.294500 0.000000
-3.280000 0.000000
-3.265600 0.000000
-3.251100 0.000000
-3.236700 0.000000
-3.222200 0.000000
-3.207800 0.000000
-3.193400 0.000000
-3.178900 0.000000
-3.164500 0.000000
-3.150000 0.000000
-3.135600 0.000000
-3.121100 0.000000
-3.106700 0.043600
-3.092200 0.100800
-3.077800 0.133300
-3.063400 0.160300
-3.048900 0.184000
-3.034500 0.210100
-3.020000 0.227600
-3.005600 0.239200
-2.991100 0.255200
-2.976700 0.272400
-2.962200 0.289900
-2.947800 0.298200
-2.933400 0.310300
-2.918900 0.323600
-2.904500 0.337100
-2.890000 0.351000
-2.875600 0.363700
-2.861100 0.371600
-2.846700 0.380000
-2.832200 0.389500
-2.817800 0.399300
-2.803400 0.409400
-2.788900 0.420100
-2.774500 0.430600
-2.760000 0.439100
-2.745600 0.446700
-2.731100 0.454300
-2.716700 0.462400
-2.702200 0.471300
-2.687800 0.480600
-2.673400 0.490000
-2.658900 0.499500
-2.644500 0.507700
-2.630000 0.514100
-2.615600 0.520700
-2.601100 0.527500
-2.586700 0.534400
-2.572200 0.541500
-2.557800 0.548900
-2.543400 0.556700
-2.528900 0.564600
-2.514500 0.572500
-2.500000 0.579000
-2.485600 0.585000
-2.471100 0.591600
-2.456700 0.598200
-2.442200 0.604900
-2.427800 0.611600
-2.413400 0.618300
-2.398900 0.625200
-2.384500 0.632300
-2.370000 0.639500
-2.355600 0.646800
-2.341100 0.653400
-2.326700 0.659000
-2.312200 0.664600
-2.297800 0.670400
-2.283400 0.676300
-2.268900 0.682100
-2.254500 0.688100
-2.240000 0.694300
-2.225600 0.700500
-2.211100 0.706700
-2.196700 0.713100
-2.182200 0.719600
-2.167800 0.725900
-2.153300 0.731500
-2.138900 0.737000
-2.124500 0.742500
-2.110000 0.748100
-2.095600 0.753900
-2.081100 0.759800
-2.066700 0.765800
-2.052200 0.771800
-2.037800 0.777800
-2.023300 0.783900
-2.008900 0.790100
-1.994500 0.796200
-1.980000 0.802400
-1.965600 0.808100
-1.951100 0.813400
-1.936700 0.818700
-1.922200 0.824000
-1.907800 0.829300
-1.893300 0.834800
-1.878900 0.840400
-1.864500 0.846000
-1.850000 0.851800
-1.835600 0.857600
-1.821100 0.863400
-1.806700 0.869300
-1.792200 0.875200
-1.777800 0.881200
-1.763300 0.887300
-1.748900 0.892600
-1.734500 0.898200
-1.720000 0.904600
-1.705600 0.911600
-1.691100 0.918900
-1.676700 0.926600
-1.662200 0.934700
-1.647800 0.943800
-1.633300 0.953800
-1.618900 0.964400
-1.604500 0.975600
-1.590000 0.987300
-1.575600 0.999500
-1.561100 1.012000
-1.546700 1.024900
-1.532200 1.038100
-1.517800 1.051700
-1.503300 1.066800
-1.488900 1.083100
-1.474500 1.091700
-1.460000 1.089000
-1.445600 1.087500
-1.431100 1.085300
-1.416700 1.082200
-1.402200 1.078500
-1.387800 1.075300
-1.373300 1.072100
-1.358900 1.068200
-1.344500 1.063700
-1.330000 1.059600
-1.315600 1.055500
-1.301100 1.051800
-1.286700 1.051800
-1.272200 1.054100
-1.257800 1.056100
-1.243300 1.057600
-1.228900 1.059000
-1.214500 1.061400
-1.200000 1.065800
-1.185600 1.077200
-1.171100 1.098100
-1.156700 1.117200
-1.142200 1.137000
-1.127800 1.161200
-1.113300 1.186200
-1.098900 1.209500
-1.084500 1.231100
-1.070000 1.249900
-1.055600 1.267100
-1.041100 1.283600
-1.026700 1.297900
-1.012200 1.311800
-0.997800 1.317900
-0.983300 1.310100
-0.968900 1.301700
-0.954500 1.289700
-0.940000 1.270600
-0.925600 1.257800
-0.911100 1.246500
-0.896700 1.232300
-0.882200 1.216800
-0.867800 1.205700
-0.853300 1.202000
-0.838900 1.200900
-0.824500 1.200500
-0.810000 1.198500
-0.795600 1.193000
-0.781100 1.185400
-0.766700 1.181000
-0.752200 1.183000
-0.737800 1.177300
-0.723300 1.162700
-0.708900 1.159000
-0.694500 1.163400
-0.680000 1.175500
-0.665600 1.185200
-0.651100 1.172000
-0.636700 1.151400
-0.622200 1.131700
-0.607800 1.129200
-0.593300 1.137300
-0.578900 1.149200
-0.564500 1.165400
-0.550000 1.187200
-0.535600 1.205400
-0.521100 1.221000
-0.506700 1.238200
-0.492200 1.275000
-0.477800 1.297200
-0.463300 1.351300
-0.448900 1.410400
-0.434500 1.464600
-0.420000 1.516300
-0.405600 1.565600
-0.391100 1.613400
-0.376700 1.660300
-0.362200 1.756100
-0.347800 1.751400
-0.333300 1.729700
-0.318900 1.688600
-0.304500 1.665200
-0.290000 1.662900
-0.275600 1.665900
-0.261100 1.670900
-0.246700 1.678400
-0.232200 1.688800
-0.217800 1.673800
-0.203300 1.655000
-0.188900 1.634000
-0.174500 1.625500
-0.160000 1.616900
-0.145600 1.589500
-0.131100 1.503200
-0.116700 1.471500
-0.102200 1.454400
-0.087800 1.449500
-0.073300 1.455700
-0.058900 1.472400
-0.044500 1.533200
-0.030000 1.563900
-0.015600 1.609600
-0.001100 1.646500
0.013300 1.687000
0.027800 1.729000
0.042200 1.774600
0.056700 1.819400
0.071100 1.860100
0.085500 1.873900
0.100000 1.899300
0.114400 1.916100
0.128900 1.928900
0.143300 1.951400
0.157800 1.976700
0.172200 1.979300
0.186700 1.959100
0.201100 1.934900
0.215500 1.912800
0.230000 1.892700
0.244400 1.876200
0.258900 1.867000
0.273300 1.843200
0.287800 1.865900
0.302200 1.960000
0.316700 2.039100
0.331100 2.083100
0.345600 2.102700
0.360000 2.106100
0.374400 2.102000
0.388900 2.136600
0.403300 2.111000
0.417800 2.109700
0.432200 2.114000
0.446700 2.122300
0.461100 2.134400
0.475600 2.150200
0.490000 2.168000
0.504400 2.184600
0.518900 2.198900
0.533300 2.209300
0.547800 2.218900
0.562200 2.227400
0.576700 2.226800
0.591100 2.219800
0.605600 2.224000
0.620000 2.239400
0.634400 2.259100
0.648900 2.281100
0.663300 2.309900
0.677800 2.336200
0.692200 2.356600
0.706700 2.374500
0.721100 2.391100
0.735600 2.409500
0.750000 2.423300
0.764400 2.437700
0.778900 2.452000
0.793300 2.467400
0.807800 2.490700
0.822200 2.516100
0.836700 2.540300
0.851100 2.563100
0.865600 2.589800
0.880000 2.631000
0.894400 2.661500
0.908900 2.698800
0.923300 2.745100
0.937800 2.780200
0.952200 2.816800
0.966700 2.875700
0.981100 2.942700
0.995600 3.010600
1.010000 2.892400
1.024400 2.877000
1.038900 2.828000
1.053300 2.811000
1.067800 2.797200
1.082200 2.782400
1.096700 2.765900
1.111100 2.786100
1.125600 2.839000
1.140000 2.833700
1.154400 2.863700
1.168900 2.952000
1.183300 3.057100
1.197800 3.130400
1.212200 3.159100
1.226700 3.199800
1.241100 3.249800
1.255600 3.313000
1.270000 3.437400
1.284400 3.637300
1.298900 3.861800
1.313300 4.597600
1.327800 4.815200
1.342200 5.346600
1.356700 5.864400
1.371100 5.305900
1.385600 4.595400
1.400000 4.212100
1.414400 3.850400
1.428900 3.606500
1.443300 3.491200
1.457800 3.360500
1.472200 3.187900
1.486700 3.051400
1.501100 2.928000
1.515600 2.858700
1.530000 2.808500
1.544400 2.763000
1.558900 2.726200
1.573300 2.634700
1.587800 3.068200
1.602200 2.739900
1.616700 2.587900
1.631100 2.481500
1.645600 2.386900
1.660000 2.362200
1.674400 2.350300
1.688900 2.293800
1.703300 2.202500
1.717800 2.136700
1.732200 2.089900
1.746700 2.032800
1.761100 2.034000
1.775600 2.066200
1.790000 1.995300
1.804400 1.994200
1.818900 1.879400
1.833300 1.647600
1.847800 1.515600
1.862200 1.412000
1.876700 1.331100
1.891100 1.273900
1.905600 1.222000
1.920000 1.172700
1.934400 1.130200
1.948900 1.097300
1.963300 1.066200
1.977800 1.036400
1.992200 1.009000
2.006700 0.988200
2.021100 0.971900
2.035600 0.956300
2.050000 0.941200
2.064400 0.926800
2.078900 0.915500
2.093300 0.907100
2.107800 0.900100
2.122200 0.894300
2.136700 0.894800
2.151100 0.905200
2.165600 0.918700
2.180000 0.935200
2.194400 0.953400
2.208900 0.975300
2.223300 1.003300
2.237800 1.038200
2.252200 1.118100
2.266700 1.215000
2.281100 1.373400
2.295600 1.574600
2.310000 1.729300
2.324400 1.821000
2.338900 1.921600
2.353300 1.999100
2.367800 2.082900
2.382200 2.186200
2.396700 2.314000
2.411100 2.555600
2.425600 2.970300
2.440000 2.808800
2.454400 2.808700
2.468900 2.813200
2.483300 2.827300
2.497800 2.825400
2.512200 2.260800
2.526700 2.123900
2.541100 2.014700
2.555600 1.908000
2.570000 1.803600
2.584400 1.698700
2.598900 1.613100
2.613300 1.591100
2.627800 1.570900
2.642200 1.548800
2.656700 1.525500
2.671100 1.501200
2.685600 1.471000
2.700000 1.431600
2.714400 1.390600
2.728900 1.356700
2.743300 1.323900
2.757800 1.292700
2.772200 1.261400
2.786700 1.240900
2.801100 1.342700
2.815600 1.340700
2.830000 1.343900
2.844400 1.351300
2.858900 1.361000
2.873300 1.369900
2.887800 1.380200
2.902200 1.394600
2.916700 1.412000
2.931100 1.432900
2.945600 1.456800
2.960000 1.482000
2.974500 1.509500
2.988900 1.583800
3.003300 1.679400
3.017800 1.798200
3.032200 2.346700
3.046700 2.693800
3.061100 3.347200
3.075600 3.898400
3.090000 4.765500
3.104500 6.647700
3.118900 6.218800
3.133300 6.216200
3.147800 6.245400
3.162200 5.996400
3.176700 5.983000
3.191100 6.145200
3.205600 6.191000
3.220000 6.145100
3.234500 6.063100
3.248900 5.834200
3.263300 5.584000
3.277800 5.288700
3.292200 5.151300
3.306700 5.000100
3.321100 4.956900
3.335600 4.997900
3.350000 5.098000
3.364500 5.194600
3.378900 5.344500
3.393300 5.572000
3.407800 5.995900
3.422200 6.631000
3.436700 6.913800
3.451100 6.930800
3.465600 6.823800
3.480000 6.667300
3.494500 6.467700
3.508900 6.462300
3.523300 6.326100
3.537800 6.206300
3.552200 6.198300
3.566700 6.267700
3.581100 6.327700
3.595600 5.734400
3.610000 5.434600
3.624500 5.313900
3.638900 5.205200
3.653300 5.238000
3.667800 5.429000
3.682200 6.101100
3.696700 6.162900
3.711100 6.202000
3.725600 5.657300
3.740000 5.449600
3.754500 5.254900
3.768900 5.416900
3.783300 5.431500
3.797800 5.166600
3.812200 5.087600
3.826700 5.285600
3.841100 6.140600
3.855600 6.669700
3.870000 6.620700
3.884500 7.133900
3.898900 7.984000
3.913300 8.892100
3.927800 8.866000
3.942200 9.087600
3.956700 9.502500
3.971100 9.764500
3.985600 10.438200
4.000000 10.042800
4.014500 8.293400
4.028900 7.554200
4.043300 7.205400
4.057800 6.254200
4.072200 5.694500
4.086700 5.916100
4.101100 8.584200
4.115600 11.414200
4.130000 9.730900
4.144500 8.231500
4.158900 9.009000
4.173300 9.600000
4.187800 9.905100
4.202200 9.140000
4.216700 8.773400
4.231100 8.778800
4.245600 8.686800
4.260000 9.475900
4.274500 8.590200
4.288900 9.703200
4.303300 13.399300
4.317800 13.434800
4.332200 11.834000
4.346700 11.238200
4.361100 10.902400
4.375600 10.623700
4.390000 10.285600
4.404500 9.898000
4.418900 9.789500
4.433300 9.555200
4.447800 9.277700
4.462200 9.145700
4.476700 9.265600
4.491100 9.077200
4.505600 9.022700
4.520000 8.962600
4.534500 9.496100
4.548900 9.531300
4.563300 9.819800
4.577800 10.112100
4.592200 9.783100
4.606700 9.253700
4.621100 8.567500
4.635600 7.837100
4.650000 7.518200
4.664500 7.418100
4.678900 8.248800
4.693300 8.896600
4.707800 9.329500
4.722200 8.466300
4.736700 7.704300
4.751100 7.143500
4.765600 6.675800
4.780000 6.585800
4.794500 6.447000
4.808900 6.322500
4.823300 6.078400
4.837800 5.693300
4.852200 5.367700
4.866700 5.217700
4.881100 5.056900
4.895600 4.841200
4.910000 4.567700
4.924500 4.310300
4.938900 4.318200
4.953300 4.352800
4.967800 4.420600
4.982200 4.498200
4.996700 4.615400
5.011100 4.858400
5.025600 5.125900
5.040000 5.423000
5.054500 5.903900
5.068900 5.946700
5.083300 5.862900
5.097800 6.044100
5.112200 6.039600
5.126700 6.011200
5.141100 6.154900
5.155600 6.667700
5.170000 6.725100
5.184500 6.548400
5.198900 6.894400
5.213300 7.324500
5.227800 7.092300
5.242200 7.002200
5.256700 6.905500
5.271100 6.612100
5.285600 6.277200
5.300000 6.049700
5.314500 5.957000
5.328900 6.164700
5.343300 6.681400
5.357800 8.366100
5.372200 8.367500
5.386700 7.322600
5.401100 6.714300
5.415600 6.354200
5.430000 6.334300
5.444500 6.391400
5.458900 6.524800
5.473400 6.668700
5.487800 6.382000
5.502200 6.549400
5.516700 6.837800
5.531100 7.169900
5.545600 7.800900
5.560000 8.968200
5.574500 10.700400
5.588900 9.318800
5.603400 8.330200
5.617800 7.784600
5.632200 7.322900
5.646700 8.948500
5.661100 5.501800
5.675600 3.664400
5.690000 1.889700
5.704500 2.071900
5.718900 2.214200
5.733400 2.474700
5.747800 2.590000
5.762200 2.706700
5.776700 2.858100
5.791100 2.778600
5.805600 2.785600
5.820000 2.865700
5.834500 2.995400
5.848900 3.230700
5.863400 3.606200
5.877800 3.894200
5.892200 4.019500
5.906700 4.244500
5.921100 4.495600
5.935600 4.765900
5.950000 4.887700
5.964500 4.722000
5.978900 4.539300
5.993400 4.528300
6.007800 4.414600
6.022200 4.238000
6.036700 4.069600
6.051100 3.977100
6.065600 3.915200
6.080000 3.824000
6.094500 3.717500
6.108900 3.534300
6.123400 3.450500
6.137800 3.153200
6.152200 3.084400
6.166700 3.048300
6.181100 2.950800
6.195600 2.894000
6.210000 2.856500
6.224500 2.832900
6.238900 2.837000
6.253400 2.856800
6.267800 2.879400
6.282200 2.905500
6.296700 2.918600
6.311100 2.918200
6.325600 2.908200
6.340000 2.853200
6.354500 2.763400
6.368900 2.649300
6.383400 2.566100
6.397800 2.515900
6.412200 2.475000
6.426700 2.444900
6.441100 2.422900
6.455600 2.405400
6.470000 2.385700
6.484500 2.365300
6.498900 2.344600
6.513400 2.322700
6.527800 2.301900
6.542200 2.285300
6.556700 2.214400
6.571100 2.186100
6.585600 2.169100
6.600000 2.141200
6.614500 2.119100
6.628900 2.102300
6.643400 2.111400
6.657800 2.081300
6.672200 2.050800
6.686700 2.019500
6.701100 1.993500
6.715600 1.956200
6.730000 1.906300
6.744500 1.854200
6.758900 1.812000
6.773400 1.773500
6.787800 1.763300
6.802200 1.773100
6.816700 1.797700
6.831100 1.787500
6.845600 1.768300
6.860000 1.724800
6.874500 1.691800
6.888900 1.663800
6.903400 1.681200
6.917800 1.624600
6.932200 1.619100
6.946700 1.627800
6.961100 1.951300
6.975600 1.935000
6.990000 1.923000
7.004500 2.068600
7.018900 2.068300
7.033400 2.080300
7.047800 2.199100
7.062200 2.331100
7.076700 2.397400
7.091100 2.544600
7.105600 2.719100
7.120000 2.833900
7.134500 2.935500
7.148900 3.100300
7.163400 3.152400
7.177800 3.174000
7.192200 3.246300
7.206700 3.307100
7.221100 3.372700
7.235600 3.430200
7.250000 3.515900
7.264500 3.626500
7.278900 3.750400
7.293400 3.847600
7.307800 3.908400
7.322200 3.987900
7.336700 4.068000
7.351100 4.122700
7.365600 4.201700
7.380000 4.312700
7.394500 4.432000
7.408900 4.539900
7.423400 4.559200
7.437800 4.407200
7.452200 4.269800
7.466700 4.104000
7.481100 3.858000
7.495600 3.521100
7.510000 3.395500
7.524500 3.289300
7.538900 3.176700
7.553400 3.029900
7.567800 2.806100
7.582200 2.657600
7.596700 2.562100
7.611100 2.482700
7.625600 2.377100
7.640000 2.355800
7.654500 2.286900
7.668900 2.210700
7.683400 2.281800
7.697800 2.331200
7.712200 2.312600
7.726700 2.111100
7.741100 2.073500
7.755600 2.061200
7.770000 2.036400
7.784500 2.025300
7.798900 2.078900
7.813400 2.240900
7.827800 2.404700
7.842200 2.387300
7.856700 2.402300
7.871100 2.622600
7.885600 2.347100
7.900000 2.271900
7.914500 2.173700
7.928900 2.099000
7.943400 2.047900
7.957800 1.997900
7.972200 1.988300
7.986700 1.995200
8.001100 2.008400
8.015600 2.022400
8.030000 2.038800
8.044500 2.061400
8.058900 2.085200
8.073400 2.104900
8.087800 2.128300
8.102300 2.173700
8.116700 2.221200
8.131100 2.290000
8.145600 2.364900
8.160000 2.433400
8.174500 2.505100
8.188900 2.572600
8.203400 2.656700
8.217800 2.722700
8.232300 2.776300
8.246700 2.819500
8.261100 2.894100
8.275600 2.858000
8.290000 2.905500
8.304500 2.890800
8.318900 2.861100
8.333400 2.842700
8.347800 2.832600
8.362300 2.826700
8.376700 2.818100
8.391100 2.814600
8.405600 2.868100
8.420000 2.917500
8.434500 2.939000
8.448900 2.919900
8.463400 2.908900
8.477800 2.914400
8.492300 2.921300
8.506700 2.930600
8.521100 2.815400
8.535600 2.739500
8.550000 2.714200
8.564500 2.732800
8.578900 2.708500
8.593400 2.702300
8.607800 2.730200
8.622300 2.670100
8.636700 2.628100
8.651100 2.571600
8.665600 2.519800
8.680000 2.490700
8.694500 2.443300
8.708900 2.396100
8.723400 2.356900
8.737800 2.328000
8.752300 2.311300
8.766700 2.300600
8.781100 2.302300
8.795600 2.302700
8.810000 2.290800
8.824500 2.424800
8.838900 2.390600
8.853400 2.368500
8.867800 2.356600
8.882300 2.364500
8.896700 2.380700
8.911100 2.387700
8.925600 2.344900
8.940000 2.360700
8.954500 2.398000
8.968900 2.444400
8.983400 2.438100
8.997800 2.439200
9.012300 2.440400
9.026700 2.436100
9.041100 2.435100
9.055600 2.439700
9.070000 2.446500
9.084500 2.465900
9.098900 2.456500
9.113400 2.448300
9.127800 2.430400
9.142300 2.457300
9.156700 2.474100
9.171100 2.415600
9.185600 2.328500
9.200000 2.242300
9.214500 2.172200
9.228900 2.050500
9.243400 1.985100
