set title 'mp-1187742 - Density of States'
set xlabel 'Energy (eV)'
set ylabel 'DOS (states/eV)'
set grid
set xrange [-10:10]
set yrange [0:108.810]
set xzeroaxis lt -1
set terminal png size 800,600
set output 'mp-1187742_dos_gnuplot.png'
plot '-' using 1:2 with lines title 'DOS'
-9.670600 0.000000
-9.652000 0.000000
-9.633500 0.000000
-9.614900 0.000000
-9.596400 0.000000
-9.577800 0.000000
-9.559300 0.000000
-9.540800 0.000000
-9.522200 0.000000
-9.503700 0.000000
-9.485100 0.000000
-9.466600 0.000000
-9.448000 0.000000
-9.429500 0.000000
-9.411000 0.000000
-9.392400 0.000000
-9.373900 0.000000
-9.355300 0.000000
-9.336800 0.000000
-9.318300 0.000000
-9.299700 0.000000
-9.281200 0.000000
-9.262600 0.000000
-9.244100 0.000000
-9.225500 0.000000
-9.207000 0.000000
-9.188500 0.000000
-9.169900 0.000000
-9.151400 0.000000
-9.132800 0.000000
-9.114300 0.000000
-9.095700 0.000000
-9.077200 0.000000
-9.058700 0.000000
-9.040100 0.000000
-9.021600 0.000000
-9.003000 0.000000
-8.984500 0.000000
-8.965900 0.000000
-8.947400 0.000000
-8.928900 0.000000
-8.910300 0.000000
-8.891800 0.000000
-8.873200 0.000000
-8.854700 0.000000
-8.836100 0.000000
-8.817600 0.000000
-8.799100 0.000000
-8.780500 0.000000
-8.762000 0.000000
-8.743400 0.000000
-8.724900 0.000000
-8.706300 0.000000
-8.687800 0.000000
-8.669300 0.000000
-8.650700 0.000000
-8.632200 0.000000
-8.613600 0.000000
-8.595100 0.000000
-8.576600 0.000000
-8.558000 0.000000
-8.539500 0.000000
-8.520900 0.000000
-8.502400 0.000000
-8.483800 0.000000
-8.465300 0.000000
-8.446800 0.000000
-8.428200 0.000000
-8.409700 0.000000
-8.391100 0.000000
-8.372600 0.000000
-8.354000 0.000000
-8.335500 0.000000
-8.317000 0.000000
-8.298400 0.000000
-8.279900 0.000000
-8.261300 0.000000
-8.242800 0.000000
-8.224200 0.000000
-8.205700 0.000000
-8.187200 0.000000
-8.168600 0.000000
-8.150100 0.000000
-8.131500 0.000100
-8.113000 0.000700
-8.094400 0.005700
-8.075900 0.035200
-8.057400 0.172600
-8.038800 0.676700
-8.020300 2.153300
-8.001700 5.642000
-7.983200 12.375500
-7.964600 23.130300
-7.946100 37.543800
-7.927600 54.031500
-7.909000 70.436100
-7.890500 84.645700
-7.871900 94.653400
-7.853400 98.918100
-7.834900 97.656400
-7.816300 93.482600
-7.797800 89.837700
-7.779200 88.562300
-7.760700 89.068000
-7.742100 89.552400
-7.723600 88.796700
-7.705100 86.942500
-7.686500 84.652400
-7.668000 81.490000
-7.649400 75.334800
-7.630900 64.005800
-7.612300 47.848900
-7.593800 30.386500
-7.575300 15.965200
-7.556700 6.804600
-7.538200 2.318200
-7.519600 0.624300
-7.501100 0.131800
-7.482500 0.021700
-7.464000 0.002800
-7.445500 0.000300
-7.426900 0.000000
-7.408400 0.000000
-7.389800 0.000000
-7.371300 0.000000
-7.352700 0.000000
-7.334200 0.000000
-7.315700 0.000000
-7.297100 0.000000
-7.278600 0.000000
-7.260000 0.000000
-7.241500 0.000000
-7.223000 0.000000
-7.204400 0.000000
-7.185900 0.000000
-7.167300 0.000000
-7.148800 0.000000
-7.130200 0.000000
-7.111700 0.000000
-7.093200 0.000000
-7.074600 0.000000
-7.056100 0.000000
-7.037500 0.000000
-7.019000 0.000000
-7.000400 0.000000
-6.981900 0.000000
-6.963400 0.000000
-6.944800 0.000000
-6.926300 0.000000
-6.907700 0.000000
-6.889200 0.000000
-6.870600 0.000000
-6.852100 0.000000
-6.833600 0.000000
-6.815000 0.000000
-6.796500 0.000000
-6.777900 0.000000
-6.759400 0.000000
-6.740800 0.000000
-6.722300 0.000000
-6.703800 0.000000
-6.685200 0.000000
-6.666700 0.000000
-6.648100 0.000000
-6.629600 0.000000
-6.611000 0.000000
-6.592500 0.000000
-6.574000 0.000000
-6.555400 0.000000
-6.536900 0.000000
-6.518300 0.000000
-6.499800 0.000000
-6.481300 0.000000
-6.462700 0.000000
-6.444200 0.000000
-6.425600 0.000000
-6.407100 0.000000
-6.388500 0.000000
-6.370000 0.000000
-6.351500 0.000000
-6.332900 0.000000
-6.314400 0.000000
-6.295800 0.000000
-6.277300 0.000000
-6.258700 0.000000
-6.240200 0.000000
-6.221700 0.000000
-6.203100 0.000000
-6.184600 0.000000
-6.166000 0.000000
-6.147500 0.000000
-6.128900 0.000000
-6.110400 0.000000
-6.091900 0.000000
-6.073300 0.000000
-6.054800 0.000000
-6.036200 0.000000
-6.017700 0.000000
-5.999100 0.000000
-5.980600 0.000000
-5.962100 0.000000
-5.943500 0.000000
-5.925000 0.000000
-5.906400 0.000000
-5.887900 0.000000
-5.869300 0.000000
-5.850800 0.000000
-5.832300 0.000000
-5.813700 0.000000
-5.795200 0.000000
-5.776600 0.000000
-5.758100 0.000000
-5.739600 0.000000
-5.721000 0.000000
-5.702500 0.000000
-5.683900 0.000000
-5.665400 0.000000
-5.646800 0.000000
-5.628300 0.000000
-5.609800 0.000000
-5.591200 0.000000
-5.572700 0.000000
-5.554100 0.000000
-5.535600 0.000000
-5.517000 0.000000
-5.498500 0.000000
-5.480000 0.000000
-5.461400 0.000000
-5.442900 0.000000
-5.424300 0.000000
-5.405800 0.000000
-5.387200 0.000000
-5.368700 0.000000
-5.350200 0.000000
-5.331600 0.000000
-5.313100 0.000000
-5.294500 0.000000
-5.276000 0.000000
-5.257400 0.000000
-5.238900 0.000000
-5.220400 0.000000
-5.201800 0.000000
-5.183300 0.000000
-5.164700 0.000000
-5.146200 0.000000
-5.127700 0.000000
-5.109100 0.000000
-5.090600 0.000000
-5.072000 0.000000
-5.053500 0.000000
-5.034900 0.000000
-5.016400 0.000000
-4.997900 0.000000
-4.979300 0.000000
-4.960800 0.000000
-4.942200 0.000000
-4.923700 0.000000
-4.905100 0.000000
-4.886600 0.000000
-4.868100 0.000100
-4.849500 0.001000
-4.831000 0.008900
-4.812400 0.061600
-4.793900 0.334300
-4.775300 1.428800
-4.756800 4.854300
-4.738300 13.237100
-4.719700 29.251100
-4.701200 52.795800
-4.682600 78.196600
-4.664100 95.097000
-4.645500 94.663600
-4.627000 76.699800
-4.608500 50.243000
-4.589900 26.428700
-4.571400 11.093800
-4.552800 3.695700
-4.534300 0.972400
-4.515700 0.201300
-4.497200 0.032700
-4.478700 0.004100
-4.460100 0.000400
-4.441600 0.000000
-4.423000 0.000000
-4.404500 0.000000
-4.386000 0.000000
-4.367400 0.000000
-4.348900 0.000000
-4.330300 0.000000
-4.311800 0.000000
-4.293200 0.000000
-4.274700 0.000000
-4.256200 0.000000
-4.237600 0.000000
-4.219100 0.000000
-4.200500 0.000000
-4.182000 0.000000
-4.163400 0.000000
-4.144900 0.000000
-4.126400 0.000000
-4.107800 0.000000
-4.089300 0.000000
-4.070700 0.000000
-4.052200 0.000000
-4.033600 0.000000
-4.015100 0.000000
-3.996600 0.000000
-3.978000 0.000000
-3.959500 0.000000
-3.940900 0.000000
-3.922400 0.000000
-3.903800 0.000000
-3.885300 0.000000
-3.866800 0.000000
-3.848200 0.000000
-3.829700 0.000000
-3.811100 0.000000
-3.792600 0.000000
-3.774000 0.000000
-3.755500 0.000000
-3.737000 0.000000
-3.718400 0.000000
-3.699900 0.000000
-3.681300 0.000000
-3.662800 0.000000
-3.644300 0.000000
-3.625700 0.000000
-3.607200 0.000000
-3.588600 0.000000
-3.570100 0.000000
-3.551500 0.000000
-3.533000 0.000000
-3.514500 0.000000
-3.495900 0.000000
-3.477400 0.000000
-3.458800 0.000000
-3.440300 0.000000
-3.421700 0.000000
-3.403200 0.000000
-3.384700 0.000000
-3.366100 0.000000
-3.347600 0.000000
-3.329000 0.000000
-3.310500 0.000000
-3.291900 0.000000
-3.273400 0.000000
-3.254900 0.000000
-3.236300 0.000000
-3.217800 0.000000
-3.199200 0.000000
-3.180700 0.000000
-3.162100 0.000000
-3.143600 0.000000
-3.125100 0.000000
-3.106500 0.000000
-3.088000 0.000000
-3.069400 0.000000
-3.050900 0.000000
-3.032300 0.000000
-3.013800 0.000000
-2.995300 0.000000
-2.976700 0.000000
-2.958200 0.000000
-2.939600 0.000000
-2.921100 0.000000
-2.902600 0.000000
-2.884000 0.000000
-2.865500 0.000000
-2.846900 0.000000
-2.828400 0.000000
-2.809800 0.000000
-2.791300 0.000000
-2.772800 0.000000
-2.754200 0.000000
-2.735700 0.000000
-2.717100 0.000000
-2.698600 0.000200
-2.680000 0.000800
-2.661500 0.003000
-2.643000 0.009200
-2.624400 0.021900
-2.605900 0.042200
-2.587300 0.067600
-2.568800 0.093700
-2.550200 0.116300
-2.531700 0.137000
-2.513200 0.169400
-2.494600 0.232700
-2.476100 0.322100
-2.457500 0.390500
-2.439000 0.383800
-2.420400 0.298100
-2.401900 0.187000
-2.383400 0.114600
-2.364800 0.116200
-2.346300 0.193500
-2.327700 0.317800
-2.309200 0.439000
-2.290700 0.514900
-2.272100 0.539300
-2.253600 0.537500
-2.235000 0.541700
-2.216500 0.569300
-2.197900 0.603800
-2.179400 0.597700
-2.160900 0.515800
-2.142300 0.375500
-2.123800 0.234300
-2.105200 0.145200
-2.086700 0.131500
-2.068100 0.187400
-2.049600 0.289400
-2.031100 0.410500
-2.012500 0.529600
-1.994000 0.630800
-1.975400 0.706000
-1.956900 0.769100
-1.938300 0.847900
-1.919800 0.940400
-1.901300 0.989600
-1.882700 0.929100
-1.864200 0.750800
-1.845600 0.518900
-1.827100 0.329400
-1.808500 0.253700
-1.790000 0.301600
-1.771500 0.421200
-1.752900 0.536300
-1.734400 0.598100
-1.715800 0.606600
-1.697300 0.592600
-1.678700 0.590300
-1.660200 0.619800
-1.641700 0.680900
-1.623100 0.753800
-1.604600 0.798900
-1.586000 0.770700
-1.567500 0.661300
-1.549000 0.526000
-1.530400 0.447200
-1.511900 0.476900
-1.493300 0.614700
-1.474800 0.815100
-1.456200 1.005900
-1.437700 1.128500
-1.419200 1.179000
-1.400600 1.194300
-1.382100 1.186000
-1.363500 1.110000
-1.345000 0.927500
-1.326400 0.672600
-1.307900 0.438700
-1.289400 0.312800
-1.270800 0.326700
-1.252300 0.442200
-1.233700 0.575900
-1.215200 0.665300
-1.196600 0.713600
-1.178100 0.752200
-1.159600 0.789200
-1.141000 0.835900
-1.122500 0.939200
-1.103900 1.118900
-1.085400 1.301200
-1.066800 1.375400
-1.048300 1.295000
-1.029800 1.090600
-1.011200 0.825100
-0.992700 0.577700
-0.974100 0.435200
-0.955600 0.447700
-0.937000 0.591700
-0.918500 0.797900
-0.900000 1.017900
-0.881400 1.246000
-0.862900 1.466000
-0.844300 1.606000
-0.825800 1.577400
-0.807300 1.361400
-0.788700 1.049000
-0.770200 0.788600
-0.751600 0.676800
-0.733100 0.695900
-0.714500 0.766100
-0.696000 0.845200
-0.677500 0.952700
-0.658900 1.110500
-0.640400 1.287500
-0.621800 1.401600
-0.603300 1.376000
-0.584700 1.207300
-0.566200 0.979600
-0.547700 0.805000
-0.529100 0.744600
-0.510600 0.784000
-0.492000 0.888600
-0.473500 1.053400
-0.454900 1.257400
-0.436400 1.403000
-0.417900 1.376500
-0.399300 1.174500
-0.380800 0.923000
-0.362200 0.773800
-0.343700 0.795600
-0.325100 0.932300
-0.306600 1.040700
-0.288100 1.003000
-0.269500 0.834200
-0.251000 0.661400
-0.232400 0.587100
-0.213900 0.599300
-0.195400 0.626200
-0.176800 0.636900
-0.158300 0.661000
-0.139700 0.730600
-0.121200 0.840700
-0.102600 0.959500
-0.084100 1.045800
-0.065600 1.056600
-0.047000 0.965800
-0.028500 0.791500
-0.009900 0.606600
0.008600 0.504300
0.027200 0.527100
0.045700 0.623200
0.064200 0.695000
0.082800 0.700300
0.101300 0.689600
0.119900 0.738800
0.138400 0.873300
0.157000 1.075100
0.175500 1.322700
0.194000 1.580400
0.212600 1.770700
0.231100 1.811400
0.249700 1.679900
0.268200 1.432600
0.286800 1.164700
0.305300 0.944500
0.323800 0.785400
0.342400 0.693500
0.360900 0.707400
0.379500 0.853100
0.398000 1.077900
0.416600 1.266600
0.435100 1.340000
0.453600 1.329100
0.472200 1.319500
0.490700 1.325900
0.509300 1.272200
0.527800 1.096300
0.546300 0.828200
0.564900 0.570900
0.583400 0.444400
0.602000 0.529900
0.620500 0.811900
0.639100 1.147800
0.657600 1.345200
0.676100 1.329600
0.694700 1.219100
0.713200 1.185500
0.731800 1.264900
0.750300 1.340400
0.768900 1.292700
0.787400 1.135000
0.805900 0.986700
0.824500 0.938400
0.843000 0.982100
0.861600 1.063300
0.880100 1.145000
0.898700 1.197200
0.917200 1.172500
0.935700 1.041800
0.954300 0.858800
0.972800 0.749800
0.991400 0.810400
1.009900 1.017300
1.028500 1.258500
1.047000 1.434300
1.065500 1.508900
1.084100 1.499100
1.102600 1.459500
1.121200 1.460600
1.139700 1.529800
1.158300 1.619700
1.176800 1.661700
1.195300 1.642100
1.213900 1.618100
1.232400 1.661400
1.251000 1.769800
1.269500 1.842300
1.288000 1.779500
1.306600 1.603800
1.325100 1.452900
1.343700 1.458700
1.362200 1.622600
1.380800 1.786800
1.399300 1.757800
1.417800 1.494800
1.436400 1.146500
1.454900 0.890500
1.473500 0.783800
1.492000 0.796200
1.510600 0.922600
1.529100 1.182700
1.547600 1.517600
1.566200 1.759900
1.584700 1.761000
1.603300 1.538800
1.621800 1.253000
1.640400 1.043700
1.658900 0.942500
1.677400 0.920600
1.696000 0.951900
1.714500 1.024100
1.733100 1.127000
1.751600 1.232600
1.770200 1.292500
1.788700 1.287400
1.807200 1.271800
1.825800 1.334500
1.844300 1.506000
1.862900 1.710100
1.881400 1.805400
1.900000 1.691100
1.918500 1.409000
1.937000 1.142300
1.955600 1.080900
1.974100 1.269600
1.992700 1.592500
2.011200 1.897700
2.029700 2.111400
2.048300 2.231300
2.066800 2.270200
2.085400 2.242100
2.103900 2.171000
2.122500 2.083800
2.141000 1.997300
2.159500 1.909000
2.178100 1.806200
2.196600 1.695600
2.215200 1.599600
2.233700 1.512100
2.252300 1.391700
2.270800 1.221400
2.289300 1.068600
2.307900 1.060000
2.326400 1.265700
2.345000 1.614600
2.363500 1.940900
2.382100 2.106000
2.400600 2.072800
2.419100 1.887700
2.437700 1.634700
2.456200 1.416000
2.474800 1.315900
2.493300 1.342700
2.511900 1.437800
2.530400 1.567800
2.548900 1.767300
2.567500 2.055600
2.586000 2.319400
2.604600 2.338800
2.623100 1.995300
2.641600 1.438500
2.660200 0.987600
2.678700 0.878400
2.697300 1.128000
2.715800 1.586900
2.734400 2.056400
2.752900 2.372600
2.771400 2.451000
2.790000 2.314800
2.808500 2.086200
2.827100 1.910400
2.845600 1.863200
2.864200 1.909800
2.882700 1.936200
2.901200 1.839700
2.919800 1.619100
2.938300 1.373200
2.956900 1.219800
2.975400 1.225800
2.994000 1.389000
3.012500 1.633600
3.031000 1.820300
3.049600 1.818000
3.068100 1.594500
3.086700 1.228200
3.105200 0.844900
3.123800 0.558800
3.142300 0.443000
3.160800 0.525300
3.179400 0.801700
3.197900 1.233100
3.216500 1.721700
3.235000 2.133900
3.253600 2.361100
3.272100 2.346000
3.290600 2.093400
3.309200 1.698300
3.327700 1.308700
3.346300 1.017800
3.364800 0.834500
3.383300 0.758000
3.401900 0.811800
3.420400 0.989400
3.439000 1.218800
3.457500 1.412900
3.476100 1.541400
3.494600 1.623100
3.513100 1.655700
3.531700 1.594200
3.550200 1.416500
3.568800 1.181400
3.587300 0.998300
3.605900 0.937200
3.624400 0.985400
3.642900 1.101900
3.661500 1.293800
3.680000 1.602400
3.698600 1.992800
3.717100 2.291400
3.735700 2.304700
3.754200 2.019100
3.772700 1.618500
3.791300 1.289800
3.809800 1.098400
3.828400 1.056900
3.846900 1.185000
3.865500 1.432700
3.884000 1.639500
3.902500 1.666100
3.921100 1.529600
3.939600 1.351500
3.958200 1.222100
3.976700 1.164900
3.995300 1.174000
4.013800 1.228200
4.032300 1.292900
4.050900 1.341400
4.069400 1.358800
4.088000 1.328400
4.106500 1.246100
4.125000 1.152700
4.143600 1.136800
4.162100 1.283800
4.180700 1.589300
4.199200 1.919600
4.217800 2.095800
4.236300 2.030400
4.254800 1.763000
4.273400 1.396700
4.291900 1.040400
4.310500 0.780900
4.329000 0.660800
4.347600 0.675700
4.366100 0.795100
4.384600 0.975500
4.403200 1.161900
4.421700 1.311600
4.440300 1.437500
4.458800 1.591900
4.477400 1.777600
4.495900 1.920000
4.514400 1.955700
4.533000 1.893700
4.551500 1.769100
4.570100 1.599300
4.588600 1.402700
4.607200 1.207200
4.625700 1.033400
4.644200 0.902300
4.662800 0.847900
4.681300 0.888000
4.699900 0.984800
4.718400 1.067300
4.736900 1.115300
4.755500 1.190700
4.774000 1.341400
4.792600 1.496400
4.811100 1.526600
4.829700 1.406200
4.848200 1.242000
4.866700 1.137000
4.885300 1.095100
4.903800 1.067100
4.922400 1.030200
4.940900 1.003500
4.959500 1.025100
4.978000 1.110000
4.996500 1.206500
5.015100 1.225100
5.033600 1.145500
5.052200 1.058400
5.070700 1.062400
5.089300 1.149300
5.107800 1.236600
5.126300 1.292300
5.144900 1.358300
5.163400 1.450100
5.182000 1.512000
5.200500 1.499200
5.219100 1.427900
5.237600 1.325400
5.256100 1.204100
5.274700 1.096600
5.293200 1.037300
5.311800 0.997800
5.330300 0.904600
5.348900 0.731300
5.367400 0.535900
5.385900 0.413500
5.404500 0.436300
5.423000 0.618900
5.441600 0.906200
5.460100 1.208800
5.478600 1.467400
5.497200 1.658600
5.515700 1.740300
5.534300 1.664600
5.552800 1.465100
5.571400 1.283000
5.589900 1.285300
5.608400 1.553700
5.627000 2.017200
5.645500 2.471000
5.664100 2.701200
5.682600 2.644000
5.701200 2.418400
5.719700 2.205000
5.738200 2.124800
5.756800 2.210200
5.775300 2.419200
5.793900 2.663900
5.812400 2.866400
5.831000 2.991500
5.849500 3.014300
5.868000 2.884100
5.886600 2.572000
5.905100 2.159600
5.923700 1.830200
5.942200 1.737800
5.960800 1.890500
5.979300 2.154800
5.997800 2.365200
6.016400 2.457200
6.034900 2.518700
6.053500 2.685100
6.072000 2.968900
6.090600 3.221200
6.109100 3.270100
6.127600 3.085800
6.146200 2.814400
6.164700 2.651000
6.183300 2.655900
6.201800 2.704800
6.220300 2.640800
6.238900 2.440200
6.257400 2.190300
6.276000 1.951900
6.294500 1.719400
6.313100 1.494100
6.331600 1.311300
6.350100 1.183700
6.368700 1.075900
6.387200 0.962900
6.405800 0.898100
6.424300 0.997500
6.442900 1.345900
6.461400 1.904100
6.479900 2.485300
6.498500 2.829600
6.517000 2.763000
6.535600 2.344500
6.554100 1.844700
6.572700 1.530600
6.591200 1.474100
6.609700 1.574400
6.628300 1.703400
6.646800 1.789500
6.665400 1.809600
6.683900 1.763700
6.702500 1.665100
6.721000 1.545800
6.739500 1.448500
6.758100 1.387500
6.776600 1.338000
6.795200 1.300900
6.813700 1.351700
6.832300 1.564900
6.850800 1.901300
6.869300 2.214300
6.887900 2.375400
6.906400 2.376300
6.925000 2.309600
6.943500 2.267100
6.962000 2.277900
6.980600 2.346900
6.999100 2.497800
7.017700 2.704500
7.036200 2.817000
7.054800 2.673200
7.073300 2.303500
7.091800 1.939200
7.110400 1.785800
7.128900 1.832700
7.147500 1.908700
7.166000 1.898900
7.184600 1.846800
7.203100 1.832100
7.221600 1.843200
7.240200 1.829700
7.258700 1.804700
7.277300 1.808300
7.295800 1.812200
7.314400 1.740400
7.332900 1.586500
7.351400 1.465800
7.370000 1.533700
7.388500 1.839900
7.407100 2.237400
7.425600 2.473100
7.444200 2.432300
7.462700 2.259000
7.481200 2.177200
7.499800 2.253800
7.518300 2.392000
7.536900 2.480300
7.555400 2.467000
7.573900 2.352600
7.592500 2.207000
7.611000 2.153700
7.629600 2.249200
7.648100 2.407500
7.666700 2.499000
7.685200 2.467800
7.703700 2.313300
7.722300 2.056400
7.740800 1.770700
7.759400 1.554800
7.777900 1.451500
7.796500 1.459900
7.815000 1.593400
7.833500 1.833400
7.852100 2.054500
7.870600 2.097000
7.889200 1.922900
7.907700 1.643200
7.926300 1.407500
7.944800 1.308600
7.963300 1.357100
7.981900 1.487700
8.000400 1.597500
8.019000 1.618700
8.037500 1.565800
8.056100 1.518500
8.074600 1.556200
8.093100 1.692100
8.111700 1.859500
8.130200 1.971900
8.148800 2.002100
8.167300 1.998000
8.185900 2.011300
8.204400 2.027900
8.222900 2.006700
8.241500 1.968400
8.260000 1.983900
8.278600 2.077600
8.297100 2.183500
8.315600 2.203100
8.334200 2.105600
8.352700 1.967400
8.371300 1.881100
8.389800 1.853000
8.408400 1.858200
8.426900 1.955300
8.445400 2.248400
8.464000 2.728300
8.482500 3.203200
8.501100 3.430700
8.519600 3.329200
8.538200 3.037900
8.556700 2.755700
8.575200 2.552700
8.593800 2.363000
8.612300 2.120300
8.630900 1.853000
8.649400 1.647700
8.668000 1.567800
8.686500 1.651200
8.705000 1.952500
8.723600 2.475900
8.742100 3.030400
8.760700 3.275100
8.779200 3.015100
8.797800 2.406100
8.816300 1.825600
8.834800 1.588700
8.853400 1.769600
8.871900 2.186100
8.890500 2.514500
8.909000 2.495200
8.927600 2.116200
8.946100 1.621600
8.964600 1.313900
8.983200 1.325500
9.001700 1.562000
9.020300 1.830300
9.038800 1.992400
9.057300 2.019100
9.075900 1.965100
9.094400 1.926900
9.113000 1.998800
9.131500 2.216800
9.150100 2.505700
9.168600 2.703800
9.187100 2.691000
9.205700 2.496600
9.224200 2.260000
9.242800 2.099100
9.261300 2.027200
9.279900 1.980500
9.298400 1.914000
9.316900 1.856500
9.335500 1.855600
9.354000 1.895100
9.372600 1.909500
9.391100 1.889400
9.409700 1.927200
9.428200 2.109000
9.446700 2.371400
9.465300 2.541600
9.483800 2.540800
9.502400 2.472900
9.520900 2.483800
9.539500 2.594000
9.558000 2.691500
9.576500 2.656800
9.595100 2.494000
9.613600 2.342000
9.632200 2.330100
9.650700 2.439200
9.669200 2.546100
9.687800 2.571700
9.706300 2.526500
9.724900 2.439100
9.743400 2.309300
9.762000 2.140800
9.780500 1.990700
9.799000 1.953500
9.817600 2.077500
9.836100 2.303200
9.854700 2.503400
9.873200 2.601500
9.891800 2.647500
9.910300 2.754000
9.928800 2.953900
9.947400 3.147100
9.965900 3.194200
9.984500 3.058800
10.003000 2.864000
10.021600 2.814900
10.040100 3.031800
