set title 'mp-15700 - Density of States'
set xlabel 'Energy (eV)'
set ylabel 'DOS (states/eV)'
set grid
set xrange [-10:10]
set yrange [0:1064.737]
set xzeroaxis lt -1
set terminal png size 800,600
set output 'mp-15700_dos_gnuplot.png'
plot '-' using 1:2 with lines title 'DOS'
-10.750700 0.000000
-10.737900 0.000000
-10.725100 0.000000
-10.712300 0.000000
-10.699500 0.000000
-10.686700 0.000000
-10.673900 0.000000
-10.661100 0.000000
-10.648300 0.000000
-10.635500 0.000000
-10.622700 0.000000
-10.609900 0.000000
-10.597100 0.000000
-10.584300 0.000000
-10.571500 0.000000
-10.558700 0.000000
-10.545900 0.000000
-10.533000 0.000000
-10.520200 0.000000
-10.507400 0.000000
-10.494600 0.000000
-10.481800 0.000000
-10.469000 0.000000
-10.456200 0.000000
-10.443400 0.000000
-10.430600 0.000000
-10.417800 0.000000
-10.405000 0.000000
-10.392200 0.000000
-10.379400 0.000000
-10.366600 0.000000
-10.353800 0.000000
-10.341000 0.000000
-10.328200 0.000000
-10.315400 0.000000
-10.302500 0.000000
-10.289700 0.000000
-10.276900 0.000000
-10.264100 0.000000
-10.251300 0.000000
-10.238500 0.000000
-10.225700 0.000000
-10.212900 0.000000
-10.200100 0.000000
-10.187300 0.000000
-10.174500 0.000000
-10.161700 0.000000
-10.148900 0.000000
-10.136100 0.000000
-10.123300 0.000000
-10.110500 0.000000
-10.097700 0.000000
-10.084900 0.000000
-10.072000 0.000000
-10.059200 0.000000
-10.046400 0.000000
-10.033600 0.000000
-10.020800 0.000000
-10.008000 0.000000
-9.995200 0.000000
-9.982400 0.000000
-9.969600 0.000000
-9.956800 0.000000
-9.944000 0.000000
-9.931200 0.000000
-9.918400 0.000000
-9.905600 0.000000
-9.892800 0.000000
-9.880000 0.000000
-9.867200 0.000000
-9.854400 0.000000
-9.841500 0.000000
-9.828700 0.000000
-9.815900 0.000000
-9.803100 0.000000
-9.790300 0.000000
-9.777500 0.000000
-9.764700 0.000000
-9.751900 0.000000
-9.739100 0.000000
-9.726300 0.000000
-9.713500 0.000000
-9.700700 0.000000
-9.687900 0.000000
-9.675100 0.000000
-9.662300 0.000000
-9.649500 0.000000
-9.636700 0.000000
-9.623900 0.000000
-9.611000 0.000000
-9.598200 0.000000
-9.585400 0.001000
-9.572600 0.139300
-9.559800 0.511800
-9.547000 1.118500
-9.534200 1.905000
-9.521400 2.637400
-9.508600 3.135500
-9.495800 3.399000
-9.483000 3.500800
-9.470200 3.618400
-9.457400 3.824300
-9.444600 4.119000
-9.431800 4.473300
-9.419000 4.834400
-9.406200 5.172800
-9.393400 5.484600
-9.380500 5.936000
-9.367700 7.229000
-9.354900 8.370500
-9.342100 9.134400
-9.329300 9.196700
-9.316500 8.673900
-9.303700 8.210400
-9.290900 8.037600
-9.278100 8.121700
-9.265300 8.187400
-9.252500 8.234800
-9.239700 8.203200
-9.226900 8.278300
-9.214100 8.400800
-9.201300 8.570800
-9.188500 8.864300
-9.175700 10.162300
-9.162900 10.410400
-9.150000 11.555200
-9.137200 13.410100
-9.124400 12.814600
-9.111600 12.068100
-9.098800 9.688300
-9.086000 8.609700
-9.073200 7.941800
-9.060400 7.233900
-9.047600 6.491500
-9.034800 7.043800
-9.022000 9.183100
-9.009200 9.859900
-8.996400 10.402400
-8.983600 9.517700
-8.970800 10.863900
-8.958000 13.683900
-8.945200 14.669400
-8.932400 14.782500
-8.919600 15.685100
-8.906700 16.223400
-8.893900 16.394400
-8.881100 17.021900
-8.868300 18.077500
-8.855500 22.723300
-8.842700 24.380700
-8.829900 24.227600
-8.817100 21.044300
-8.804300 16.355200
-8.791500 12.690000
-8.778700 11.289500
-8.765900 11.737400
-8.753100 12.108300
-8.740300 14.686900
-8.727500 17.008000
-8.714700 20.638600
-8.701900 28.929900
-8.689100 22.994900
-8.676200 27.396100
-8.663400 26.997500
-8.650600 27.432500
-8.637800 27.735000
-8.625000 27.854700
-8.612200 27.928600
-8.599400 28.414700
-8.586600 32.721600
-8.573800 41.558600
-8.561000 41.488800
-8.548200 49.601100
-8.535400 43.927500
-8.522600 44.316300
-8.509800 45.220700
-8.497000 46.961700
-8.484200 50.376900
-8.471400 44.426700
-8.458600 39.772700
-8.445700 31.282300
-8.432900 36.909900
-8.420100 49.684400
-8.407300 44.266500
-8.394500 49.704500
-8.381700 55.962800
-8.368900 36.848400
-8.356100 36.679000
-8.343300 44.982100
-8.330500 49.533500
-8.317700 46.390300
-8.304900 50.211500
-8.292100 51.570300
-8.279300 53.286900
-8.266500 60.271900
-8.253700 83.467000
-8.240900 79.820600
-8.228100 77.460700
-8.215200 78.562100
-8.202400 51.414400
-8.189600 15.113700
-8.176800 0.000000
-8.164000 0.000000
-8.151200 0.000000
-8.138400 0.000000
-8.125600 0.000000
-8.112800 0.000000
-8.100000 0.000000
-8.087200 0.000000
-8.074400 0.000000
-8.061600 0.000000
-8.048800 0.000000
-8.036000 0.000000
-8.023200 0.000000
-8.010400 0.000000
-7.997600 0.000000
-7.984700 0.000000
-7.971900 0.000000
-7.959100 0.000000
-7.946300 0.000000
-7.933500 0.000000
-7.920700 0.000000
-7.907900 0.000000
-7.895100 0.000000
-7.882300 0.000000
-7.869500 0.000000
-7.856700 0.000000
-7.843900 0.000000
-7.831100 0.000000
-7.818300 0.000000
-7.805500 0.000000
-7.792700 0.000000
-7.779900 0.000000
-7.767100 0.000000
-7.754200 0.000000
-7.741400 0.000000
-7.728600 0.000000
-7.715800 0.000000
-7.703000 0.000000
-7.690200 0.000000
-7.677400 0.000000
-7.664600 0.000000
-7.651800 0.000000
-7.639000 0.000000
-7.626200 0.000000
-7.613400 0.000000
-7.600600 0.000000
-7.587800 0.000000
-7.575000 0.000000
-7.562200 0.000000
-7.549400 0.000000
-7.536600 0.000000
-7.523700 0.000000
-7.510900 0.000000
-7.498100 0.000000
-7.485300 0.000000
-7.472500 0.000000
-7.459700 0.000000
-7.446900 0.000000
-7.434100 0.000000
-7.421300 0.000000
-7.408500 0.000000
-7.395700 0.000000
-7.382900 0.000000
-7.370100 0.000000
-7.357300 0.000000
-7.344500 0.000000
-7.331700 0.000000
-7.318900 0.000000
-7.306100 0.000000
-7.293300 0.000000
-7.280400 0.000000
-7.267600 0.000000
-7.254800 0.000000
-7.242000 0.000000
-7.229200 0.000000
-7.216400 0.000000
-7.203600 0.000000
-7.190800 0.000000
-7.178000 0.000000
-7.165200 0.000000
-7.152400 0.000000
-7.139600 0.000000
-7.126800 0.000000
-7.114000 0.000000
-7.101200 0.000000
-7.088400 0.000000
-7.075600 0.000000
-7.062800 0.000000
-7.049900 0.000000
-7.037100 0.000000
-7.024300 0.000000
-7.011500 0.000000
-6.998700 0.000000
-6.985900 0.000000
-6.973100 0.000000
-6.960300 0.000000
-6.947500 0.000000
-6.934700 0.000000
-6.921900 0.000000
-6.909100 0.000000
-6.896300 0.000000
-6.883500 0.000000
-6.870700 0.000000
-6.857900 0.000000
-6.845100 0.000000
-6.832300 0.000000
-6.819400 0.000000
-6.806600 0.000000
-6.793800 0.000000
-6.781000 0.000000
-6.768200 0.000000
-6.755400 0.000000
-6.742600 0.000000
-6.729800 0.000000
-6.717000 0.000000
-6.704200 0.000000
-6.691400 0.000000
-6.678600 0.000000
-6.665800 0.000000
-6.653000 0.000000
-6.640200 0.000000
-6.627400 0.000000
-6.614600 0.000000
-6.601800 0.000000
-6.588900 0.000000
-6.576100 0.000000
-6.563300 0.000000
-6.550500 0.000000
-6.537700 0.000000
-6.524900 0.000000
-6.512100 0.000000
-6.499300 0.000000
-6.486500 0.000000
-6.473700 0.000000
-6.460900 0.000000
-6.448100 0.000000
-6.435300 0.000000
-6.422500 0.000000
-6.409700 0.000000
-6.396900 0.000000
-6.384100 0.000000
-6.371300 0.000000
-6.358400 0.000000
-6.345600 0.000000
-6.332800 0.000000
-6.320000 0.000000
-6.307200 0.000000
-6.294400 0.000000
-6.281600 0.000000
-6.268800 0.000000
-6.256000 0.000000
-6.243200 0.000000
-6.230400 0.000000
-6.217600 0.000000
-6.204800 0.000000
-6.192000 0.000000
-6.179200 0.000000
-6.166400 0.000000
-6.153600 0.000000
-6.140800 0.000000
-6.127900 0.000000
-6.115100 0.000000
-6.102300 0.000000
-6.089500 0.000000
-6.076700 0.000000
-6.063900 0.000000
-6.051100 0.000000
-6.038300 0.000000
-6.025500 0.000000
-6.012700 0.000000
-5.999900 0.000000
-5.987100 0.000000
-5.974300 0.000000
-5.961500 0.000000
-5.948700 0.000000
-5.935900 0.000000
-5.923100 0.000000
-5.910300 0.000000
-5.897400 0.000000
-5.884600 0.000000
-5.871800 0.000000
-5.859000 0.000000
-5.846200 0.000000
-5.833400 0.000000
-5.820600 0.000000
-5.807800 0.000000
-5.795000 0.000000
-5.782200 0.000000
-5.769400 0.000000
-5.756600 0.000000
-5.743800 0.000000
-5.731000 0.000000
-5.718200 0.000000
-5.705400 0.000000
-5.692600 0.000000
-5.679800 0.000000
-5.666900 0.000000
-5.654100 0.000000
-5.641300 0.000000
-5.628500 0.000000
-5.615700 0.000000
-5.602900 0.000000
-5.590100 0.000000
-5.577300 0.000000
-5.564500 0.000000
-5.551700 0.000000
-5.538900 0.000000
-5.526100 0.000000
-5.513300 0.000000
-5.500500 0.000000
-5.487700 0.000000
-5.474900 0.000000
-5.462100 0.000000
-5.449300 0.000000
-5.436500 0.000000
-5.423600 0.000000
-5.410800 0.000000
-5.398000 0.000000
-5.385200 0.000000
-5.372400 0.000000
-5.359600 0.000000
-5.346800 0.000000
-5.334000 0.000000
-5.321200 0.000000
-5.308400 0.000000
-5.295600 0.000000
-5.282800 0.000000
-5.270000 0.000000
-5.257200 0.000000
-5.244400 0.000000
-5.231600 0.000000
-5.218800 0.000000
-5.206000 0.000000
-5.193100 0.000000
-5.180300 0.000000
-5.167500 0.000000
-5.154700 0.000000
-5.141900 0.000000
-5.129100 0.000000
-5.116300 0.000000
-5.103500 0.000000
-5.090700 0.000000
-5.077900 0.000000
-5.065100 0.000000
-5.052300 0.000000
-5.039500 0.000000
-5.026700 0.000000
-5.013900 6.477100
-5.001100 45.707400
-4.988300 102.611100
-4.975500 282.971300
-4.962600 308.444400
-4.949800 322.184000
-4.937000 251.278600
-4.924200 315.162100
-4.911400 232.031100
-4.898600 229.943900
-4.885800 386.331400
-4.873000 289.178700
-4.860200 548.743500
-4.847400 126.830500
-4.834600 252.467100
-4.821800 355.378500
-4.809000 620.542500
-4.796200 426.328200
-4.783400 579.257500
-4.770600 559.218300
-4.757800 471.212300
-4.745000 443.062800
-4.732100 288.223400
-4.719300 404.521100
-4.706500 263.868100
-4.693700 380.791300
-4.680900 397.097200
-4.668100 381.636400
-4.655300 361.561200
-4.642500 362.086700
-4.629700 425.680300
-4.616900 405.203800
-4.604100 653.930600
-4.591300 967.942400
-4.578500 737.128500
-4.565700 731.005100
-4.552900 244.098500
-4.540100 232.249800
-4.527300 272.556900
-4.514500 230.430800
-4.501600 378.818000
-4.488800 86.878100
-4.476000 81.036000
-4.463200 163.588900
-4.450400 403.940600
-4.437600 290.873500
-4.424800 109.498800
-4.412000 85.219300
-4.399200 79.546000
-4.386400 70.953300
-4.373600 54.204900
-4.360800 67.370400
-4.348000 103.609300
-4.335200 40.750500
-4.322400 42.814700
-4.309600 61.396300
-4.296800 105.386000
-4.284000 95.432300
-4.271100 98.147300
-4.258300 81.508600
-4.245500 93.761000
-4.232700 87.729000
-4.219900 87.888100
-4.207100 87.320800
-4.194300 37.167000
-4.181500 19.841300
-4.168700 0.036700
-4.155900 0.000000
-4.143100 0.000000
-4.130300 0.000000
-4.117500 0.000000
-4.104700 0.000000
-4.091900 0.000000
-4.079100 0.000000
-4.066300 0.000000
-4.053500 0.000000
-4.040600 0.000000
-4.027800 0.000000
-4.015000 0.000000
-4.002200 0.000000
-3.989400 0.000000
-3.976600 0.000000
-3.963800 0.000000
-3.951000 0.000000
-3.938200 0.000000
-3.925400 0.000000
-3.912600 0.000000
-3.899800 0.000000
-3.887000 0.000000
-3.874200 0.000000
-3.861400 0.000000
-3.848600 0.000000
-3.835800 0.000000
-3.823000 0.000000
-3.810200 0.000000
-3.797300 0.000000
-3.784500 0.000000
-3.771700 0.000000
-3.758900 0.000000
-3.746100 0.000000
-3.733300 0.000000
-3.720500 0.000000
-3.707700 0.000000
-3.694900 0.000000
-3.682100 0.000000
-3.669300 0.000000
-3.656500 0.000000
-3.643700 0.000000
-3.630900 0.000000
-3.618100 0.000000
-3.605300 0.000000
-3.592500 0.000000
-3.579700 0.000000
-3.566800 0.000000
-3.554000 0.000000
-3.541200 0.000000
-3.528400 0.000000
-3.515600 0.000000
-3.502800 0.000000
-3.490000 0.000000
-3.477200 0.000000
-3.464400 0.000000
-3.451600 0.000000
-3.438800 0.000000
-3.426000 0.000000
-3.413200 0.000000
-3.400400 0.000000
-3.387600 0.018900
-3.374800 0.093200
-3.362000 0.235200
-3.349200 0.445700
-3.336300 0.724700
-3.323500 1.069900
-3.310700 1.369600
-3.297900 1.745600
-3.285100 2.169100
-3.272300 2.645800
-3.259500 3.252200
-3.246700 4.091500
-3.233900 4.749000
-3.221100 5.536300
-3.208300 6.453200
-3.195500 7.025600
-3.182700 7.370400
-3.169900 7.549700
-3.157100 7.684100
-3.144300 7.840900
-3.131500 8.020000
-3.118700 8.107600
-3.105800 8.307200
-3.093000 8.530600
-3.080200 8.761900
-3.067400 8.996000
-3.054600 9.230500
-3.041800 9.518900
-3.029000 9.838200
-3.016200 10.138600
-3.003400 10.661900
-2.990600 11.400700
-2.977800 12.027500
-2.965000 12.578600
-2.952200 13.098300
-2.939400 13.490100
-2.926600 13.892900
-2.913800 10.762300
-2.901000 10.954100
-2.888200 11.150100
-2.875300 11.409800
-2.862500 11.811400
-2.849700 13.560200
-2.836900 15.016500
-2.824100 17.281300
-2.811300 19.149300
-2.798500 20.387900
-2.785700 21.087000
-2.772900 22.665300
-2.760100 23.393900
-2.747300 23.861800
-2.734500 27.062700
-2.721700 24.026000
-2.708900 24.000500
-2.696100 24.761100
-2.683300 26.501300
-2.670500 26.849900
-2.657700 27.002200
-2.644800 25.863700
-2.632000 25.762700
-2.619200 24.354300
-2.606400 20.771100
-2.593600 20.484100
-2.580800 20.403100
-2.568000 20.508900
-2.555200 20.866300
-2.542400 21.961100
-2.529600 20.520100
-2.516800 19.224700
-2.504000 17.526100
-2.491200 16.204400
-2.478400 16.223700
-2.465600 15.933600
-2.452800 15.904500
-2.440000 15.891900
-2.427200 16.422700
-2.414300 16.520300
-2.401500 16.681000
-2.388700 17.769200
-2.375900 17.872500
-2.363100 18.032800
-2.350300 17.993700
-2.337500 19.862800
-2.324700 28.467800
-2.311900 19.639400
-2.299100 17.894300
-2.286300 17.704600
-2.273500 17.759400
-2.260700 19.223400
-2.247900 24.428800
-2.235100 25.601900
-2.222300 27.428800
-2.209500 27.568600
-2.196700 24.218400
-2.183800 21.387700
-2.171000 20.577300
-2.158200 20.796100
-2.145400 20.822200
-2.132600 19.883100
-2.119800 19.791000
-2.107000 19.848700
-2.094200 20.114200
-2.081400 21.025100
-2.068600 21.089200
-2.055800 21.412500
-2.043000 21.895000
-2.030200 22.919400
-2.017400 25.859400
-2.004600 27.547600
-1.991800 26.573700
-1.979000 25.403600
-1.966200 21.131700
-1.953400 22.474800
-1.940500 23.414800
-1.927700 15.110000
-1.914900 13.573700
-1.902100 12.537900
-1.889300 11.612000
-1.876500 10.795900
-1.863700 10.089700
-1.850900 9.493300
-1.838100 11.195100
-1.825300 12.953000
-1.812500 12.154300
-1.799700 12.876400
-1.786900 13.694000
-1.774100 13.883400
-1.761300 13.690800
-1.748500 12.090000
-1.735700 10.154800
-1.722900 8.608100
-1.710000 7.330800
-1.697200 6.310200
-1.684400 5.546100
-1.671600 6.468900
-1.658800 14.017000
-1.646000 15.938800
-1.633200 17.644500
-1.620400 13.838200
-1.607600 12.517900
-1.594800 10.693000
-1.582000 31.857400
-1.569200 22.746900
-1.556400 15.093800
-1.543600 13.138100
-1.530800 13.287500
-1.518000 13.819000
-1.505200 14.211700
-1.492400 14.753300
-1.479500 15.464700
-1.466700 16.330100
-1.453900 17.385800
-1.441100 19.004900
-1.428300 20.545500
-1.415500 18.869000
-1.402700 15.560100
-1.389900 16.791400
-1.377100 16.054600
-1.364300 15.102100
-1.351500 13.943700
-1.338700 12.687800
-1.325900 11.792900
-1.313100 11.023000
-1.300300 10.194000
-1.287500 9.463100
-1.274700 8.929200
-1.261900 8.241100
-1.249000 8.610400
-1.236200 9.791200
-1.223400 11.123300
-1.210600 11.768800
-1.197800 10.722600
-1.185000 13.527700
-1.172200 13.693000
-1.159400 12.427800
-1.146600 12.433100
-1.133800 12.726400
-1.121000 12.728000
-1.108200 13.281400
-1.095400 14.121900
-1.082600 13.944300
-1.069800 13.941300
-1.057000 15.182400
-1.044200 13.594500
-1.031400 13.191900
-1.018500 12.449200
-1.005700 11.534100
-0.992900 10.751300
-0.980100 10.629100
-0.967300 10.731500
-0.954500 10.243300
-0.941700 13.605700
-0.928900 11.109800
-0.916100 11.208300
-0.903300 11.103200
-0.890500 10.990900
-0.877700 11.280300
-0.864900 11.477000
-0.852100 11.015300
-0.839300 11.824200
-0.826500 12.471900
-0.813700 11.961800
-0.800900 11.364600
-0.788000 10.680500
-0.775200 10.265200
-0.762400 13.274200
-0.749600 11.729900
-0.736800 11.899500
-0.724000 12.101200
-0.711200 12.335100
-0.698400 11.902400
-0.685600 11.963000
-0.672800 12.958000
-0.660000 16.124400
-0.647200 15.370400
-0.634400 15.775900
-0.621600 16.128600
-0.608800 15.840000
-0.596000 15.393100
-0.583200 15.056100
-0.570400 15.983900
-0.557500 16.273700
-0.544700 16.568500
-0.531900 16.534500
-0.519100 16.005200
-0.506300 14.402900
-0.493500 13.870700
-0.480700 13.887200
-0.467900 14.300500
-0.455100 14.795000
-0.442300 15.491600
-0.429500 16.151000
-0.416700 16.035300
-0.403900 15.610600
-0.391100 15.827900
-0.378300 15.612900
-0.365500 15.213700
-0.352700 15.194400
-0.339900 15.252000
-0.327100 17.871000
-0.314200 19.350800
-0.301400 21.071300
-0.288600 20.067000
-0.275800 19.890200
-0.263000 19.528500
-0.250200 18.593200
-0.237400 17.978900
-0.224600 17.694400
-0.211800 17.826600
-0.199000 16.975800
-0.186200 16.412700
-0.173400 15.282200
-0.160600 14.765700
-0.147800 15.075000
-0.135000 16.660900
-0.122200 19.335100
-0.109400 24.230000
-0.096600 25.535300
-0.083700 29.251400
-0.070900 31.193900
-0.058100 31.320100
-0.045300 27.380100
-0.032500 25.175900
-0.019700 24.711200
-0.006900 23.963700
0.005900 24.624800
0.018700 24.480300
0.031500 25.727700
0.044300 26.455600
0.057100 27.074300
0.069900 23.885400
0.082700 24.219000
0.095500 21.786800
0.108300 22.807700
0.121100 23.604900
0.133900 24.797600
0.146800 25.177600
0.159600 24.466100
0.172400 24.243800
0.185200 24.651400
0.198000 22.013400
0.210800 20.744600
0.223600 20.294600
0.236400 20.869700
0.249200 20.390700
0.262000 20.029600
0.274800 25.044400
0.287600 25.835700
0.300400 24.224000
0.313200 27.399600
0.326000 30.338500
0.338800 25.972000
0.351600 25.255400
0.364400 22.706300
0.377300 22.762900
0.390100 23.872900
0.402900 24.479400
0.415700 24.251100
0.428500 27.310900
0.441300 32.813700
0.454100 20.152200
0.466900 23.905600
0.479700 19.770000
0.492500 15.079700
0.505300 13.134300
0.518100 13.474900
0.530900 16.227200
0.543700 19.707500
0.556500 20.108200
0.569300 22.713300
0.582100 22.775600
0.594900 22.752300
0.607800 22.965100
0.620600 23.280600
0.633400 23.861100
0.646200 22.083000
0.659000 22.815000
0.671800 21.629400
0.684600 20.000900
0.697400 20.313000
0.710200 20.631200
0.723000 21.327500
0.735800 21.816200
0.748600 22.447600
0.761400 23.687700
0.774200 24.361800
0.787000 23.965900
0.799800 23.114400
0.812600 23.176300
0.825400 24.743500
0.838300 25.958500
0.851100 26.604100
0.863900 24.987500
0.876700 25.228800
0.889500 24.796000
0.902300 22.693400
0.915100 20.915500
0.927900 19.990900
0.940700 24.743700
0.953500 26.259300
0.966300 25.169500
0.979100 23.364800
0.991900 22.910200
1.004700 22.797300
1.017500 22.619200
1.030300 22.186900
1.043100 21.746500
1.055900 21.229400
1.068800 20.614900
1.081600 21.571700
1.094400 22.720000
1.107200 23.884000
1.120000 24.677800
1.132800 24.589000
1.145600 24.389600
1.158400 23.391000
1.171200 23.373100
1.184000 22.502000
1.196800 21.384400
1.209600 21.115000
1.222400 20.510600
1.235200 20.110000
1.248000 19.967600
1.260800 19.911500
1.273600 20.572400
1.286400 20.499300
1.299300 20.837700
1.312100 21.117000
1.324900 21.328000
1.337700 20.564800
1.350500 20.322400
1.363300 20.039800
1.376100 19.475900
1.388900 18.940000
1.401700 18.538400
1.414500 18.180400
1.427300 19.061500
1.440100 18.824100
1.452900 18.594400
1.465700 17.979600
1.478500 18.731900
1.491300 20.080800
1.504100 22.470400
1.516900 23.263100
1.529700 24.075300
1.542600 24.332000
1.555400 22.333300
1.568200 21.081400
1.581000 20.111700
1.593800 20.263400
1.606600 19.957600
1.619400 19.751100
1.632200 19.271600
1.645000 18.545600
1.657800 16.968700
1.670600 17.316000
1.683400 16.309700
1.696200 13.397800
1.709000 12.471300
1.721800 11.903900
1.734600 10.107200
1.747400 9.998900
1.760200 9.936900
1.773100 9.941600
1.785900 9.972100
1.798700 10.010400
1.811500 10.065100
1.824300 10.136200
1.837100 10.223600
1.849900 10.299900
1.862700 10.395800
1.875500 10.512300
1.888300 10.560300
1.901100 11.031600
1.913900 10.440400
1.926700 10.354000
1.939500 10.338600
1.952300 10.338500
1.965100 9.081300
1.977900 9.007500
1.990700 9.005600
2.003600 8.789100
2.016400 8.334200
2.029200 7.681400
2.042000 7.199800
2.054800 7.177000
2.067600 7.309800
2.080400 7.727200
2.093200 8.093400
2.106000 8.310800
2.118800 8.562600
2.131600 8.798000
2.144400 9.022000
2.157200 9.238900
2.170000 9.414300
2.182800 8.580200
2.195600 8.019200
2.208400 7.889600
2.221200 7.727900
2.234100 7.525200
