set title 'mp-571261 - Density of States'
set xlabel 'Energy (eV)'
set ylabel 'DOS (states/eV)'
set grid
set xrange [-10:10]
set yrange [0:3.838]
set xzeroaxis lt -1
set terminal png size 800,600
set output 'mp-571261_dos_gnuplot.png'
plot '-' using 1:2 with lines title 'DOS'
-36.019000 0.000000
-35.954200 0.000000
-35.889500 0.000000
-35.824700 0.000000
-35.759900 0.000000
-35.695200 0.000000
-35.630400 0.000000
-35.565700 0.000000
-35.500900 0.000000
-35.436100 0.000000
-35.371400 0.000000
-35.306600 0.000000
-35.241800 0.000000
-35.177100 0.000000
-35.112300 0.000000
-35.047500 0.000000
-34.982800 0.000000
-34.918000 0.000000
-34.853200 0.000000
-34.788500 0.000000
-34.723700 0.000000
-34.658900 0.000000
-34.594200 0.000000
-34.529400 0.000000
-34.464600 0.000000
-34.399900 0.000000
-34.335100 0.000000
-34.270300 0.000000
-34.205600 0.000000
-34.140800 0.000000
-34.076000 0.000000
-34.011300 0.000000
-33.946500 0.000000
-33.881700 0.000000
-33.817000 0.000000
-33.752200 0.000000
-33.687400 0.000000
-33.622700 0.000000
-33.557900 0.000000
-33.493100 0.000000
-33.428400 0.000000
-33.363600 0.000000
-33.298800 0.000000
-33.234100 0.000000
-33.169300 0.000000
-33.104600 0.000000
-33.039800 0.000000
-32.975000 0.000000
-32.910300 0.000000
-32.845500 0.000000
-32.780700 0.000000
-32.716000 0.000000
-32.651200 0.000000
-32.586400 0.000000
-32.521700 0.000000
-32.456900 0.000000
-32.392100 0.000000
-32.327400 0.000000
-32.262600 0.000000
-32.197800 0.000000
-32.133100 0.000000
-32.068300 0.000000
-32.003500 0.000000
-31.938800 0.000000
-31.874000 0.000000
-31.809200 0.000000
-31.744500 0.000000
-31.679700 0.000000
-31.614900 0.000000
-31.550200 0.000000
-31.485400 0.000000
-31.420600 0.000000
-31.355900 0.000000
-31.291100 0.000000
-31.226300 0.000000
-31.161600 0.000000
-31.096800 0.000000
-31.032000 0.000000
-30.967300 0.000000
-30.902500 0.000000
-30.837700 0.000000
-30.773000 0.000000
-30.708200 0.000000
-30.643400 0.000000
-30.578700 0.000000
-30.513900 0.000000
-30.449200 0.000000
-30.384400 0.000000
-30.319600 0.000000
-30.254900 0.000000
-30.190100 0.000000
-30.125300 0.007800
-30.060600 0.263900
-29.995800 0.390100
-29.931000 0.501500
-29.866300 0.597200
-29.801500 0.696200
-29.736700 0.792500
-29.672000 0.894400
-29.607200 1.003700
-29.542400 1.123000
-29.477700 1.259800
-29.412900 1.422800
-29.348100 1.639700
-29.283400 1.995300
-29.218600 2.416900
-29.153800 2.282600
-29.089100 2.161100
-29.024300 2.026300
-28.959500 1.883400
-28.894800 1.726300
-28.830000 1.570400
-28.765200 1.413200
-28.700500 1.125400
-28.635700 0.799800
-28.570900 0.562600
-28.506200 0.330400
-28.441400 0.209800
-28.376600 0.406800
-28.311900 0.884700
-28.247100 1.110100
-28.182300 1.269000
-28.117600 1.416500
-28.052800 1.554100
-27.988100 1.680600
-27.923300 1.795000
-27.858500 1.895700
-27.793800 2.001300
-27.729000 2.085800
-27.664200 2.164400
-27.599500 1.867800
-27.534700 1.527800
-27.469900 1.325500
-27.405200 1.176700
-27.340400 1.051300
-27.275600 0.942400
-27.210900 0.844500
-27.146100 0.753900
-27.081300 0.668900
-27.016600 0.585300
-26.951800 0.503700
-26.887000 0.420800
-26.822300 0.329000
-26.757500 0.216300
-26.692700 0.007400
-26.628000 0.000000
-26.563200 0.000000
-26.498400 0.000000
-26.433700 0.000000
-26.368900 0.000000
-26.304100 0.000000
-26.239400 0.000000
-26.174600 0.000000
-26.109800 0.000000
-26.045100 0.000000
-25.980300 0.000000
-25.915500 0.000000
-25.850800 0.000000
-25.786000 0.000000
-25.721200 0.000000
-25.656500 0.000000
-25.591700 0.000000
-25.527000 0.000000
-25.462200 0.000000
-25.397400 0.000000
-25.332700 0.000000
-25.267900 0.000000
-25.203100 0.000000
-25.138400 0.000000
-25.073600 0.000000
-25.008800 0.000000
-24.944100 0.000000
-24.879300 0.000000
-24.814500 0.000000
-24.749800 0.000000
-24.685000 0.000000
-24.620200 0.000000
-24.555500 0.000000
-24.490700 0.000000
-24.425900 0.000000
-24.361200 0.000000
-24.296400 0.000000
-24.231600 0.000000
-24.166900 0.000000
-24.102100 0.000000
-24.037300 0.000000
-23.972600 0.000000
-23.907800 0.000000
-23.843000 0.000000
-23.778300 0.000000
-23.713500 0.000000
-23.648700 0.000000
-23.584000 0.000000
-23.519200 0.000000
-23.454400 0.000000
-23.389700 0.000000
-23.324900 0.000000
-23.260100 0.000000
-23.195400 0.000000
-23.130600 0.000000
-23.065900 0.000000
-23.001100 0.000000
-22.936300 0.000000
-22.871600 0.000000
-22.806800 0.000000
-22.742000 0.000000
-22.677300 0.000000
-22.612500 0.000000
-22.547700 0.000000
-22.483000 0.000000
-22.418200 0.000000
-22.353400 0.000000
-22.288700 0.000000
-22.223900 0.000000
-22.159100 0.000000
-22.094400 0.000000
-22.029600 0.000000
-21.964800 0.000000
-21.900100 0.000000
-21.835300 0.000000
-21.770500 0.000000
-21.705800 0.000000
-21.641000 0.000000
-21.576200 0.000000
-21.511500 0.000000
-21.446700 0.000000
-21.381900 0.000000
-21.317200 0.000000
-21.252400 0.000000
-21.187600 0.000000
-21.122900 0.000000
-21.058100 0.000000
-20.993300 0.000000
-20.928600 0.000000
-20.863800 0.000000
-20.799000 0.000000
-20.734300 0.000000
-20.669500 0.000000
-20.604700 0.000000
-20.540000 0.000000
-20.475200 0.000000
-20.410500 0.000000
-20.345700 0.000000
-20.280900 0.000000
-20.216200 0.000000
-20.151400 0.000000
-20.086600 0.000000
-20.021900 0.000000
-19.957100 0.000000
-19.892300 0.000000
-19.827600 0.000000
-19.762800 0.000000
-19.698000 0.000000
-19.633300 0.000000
-19.568500 0.000000
-19.503700 0.000000
-19.439000 0.000000
-19.374200 0.000000
-19.309400 0.000000
-19.244700 0.000000
-19.179900 0.000000
-19.115100 0.000000
-19.050400 0.000000
-18.985600 0.000000
-18.920800 0.000000
-18.856100 0.000000
-18.791300 0.000000
-18.726500 0.000000
-18.661800 0.000000
-18.597000 0.000000
-18.532200 0.000000
-18.467500 0.000000
-18.402700 0.000000
-18.337900 0.000000
-18.273200 0.000000
-18.208400 0.000000
-18.143600 0.000000
-18.078900 0.000000
-18.014100 0.000000
-17.949400 0.000000
-17.884600 0.000000
-17.819800 0.000000
-17.755100 0.000000
-17.690300 0.000000
-17.625500 0.000000
-17.560800 0.000000
-17.496000 0.000000
-17.431200 0.000000
-17.366500 0.000000
-17.301700 0.000000
-17.236900 0.000000
-17.172200 0.000000
-17.107400 0.000000
-17.042600 0.000000
-16.977900 0.000000
-16.913100 0.000000
-16.848300 0.000000
-16.783600 0.000000
-16.718800 0.000000
-16.654000 0.000000
-16.589300 0.000000
-16.524500 0.000000
-16.459700 0.000000
-16.395000 0.000000
-16.330200 0.000000
-16.265400 0.000000
-16.200700 0.000000
-16.135900 0.000000
-16.071100 0.000000
-16.006400 0.000000
-15.941600 0.000000
-15.876800 0.000000
-15.812100 0.000000
-15.747300 0.000000
-15.682500 0.000000
-15.617800 0.000000
-15.553000 0.000000
-15.488300 0.000000
-15.423500 0.000000
-15.358700 0.000000
-15.294000 0.000000
-15.229200 0.000000
-15.164400 0.000000
-15.099700 0.000000
-15.034900 0.000000
-14.970100 0.000000
-14.905400 0.000000
-14.840600 0.000000
-14.775800 0.000000
-14.711100 0.000000
-14.646300 0.000000
-14.581500 0.000000
-14.516800 0.000000
-14.452000 0.000000
-14.387200 0.000000
-14.322500 0.000000
-14.257700 0.000000
-14.192900 0.000000
-14.128200 0.000000
-14.063400 0.000000
-13.998600 0.000000
-13.933900 0.000000
-13.869100 0.000000
-13.804300 0.000000
-13.739600 0.000000
-13.674800 0.000000
-13.610000 0.000000
-13.545300 0.000000
-13.480500 0.000000
-13.415700 0.000000
-13.351000 0.000000
-13.286200 0.000000
-13.221400 0.000000
-13.156700 0.000000
-13.091900 0.000000
-13.027200 0.000000
-12.962400 0.000000
-12.897600 0.000000
-12.832900 0.000000
-12.768100 0.000000
-12.703300 0.000000
-12.638600 0.000000
-12.573800 0.000000
-12.509000 0.000000
-12.444300 0.000000
-12.379500 0.000000
-12.314700 0.000000
-12.250000 0.000000
-12.185200 0.000000
-12.120400 0.000000
-12.055700 0.000000
-11.990900 0.000000
-11.926100 0.000000
-11.861400 0.000000
-11.796600 0.000000
-11.731800 0.000000
-11.667100 0.000000
-11.602300 0.000000
-11.537500 0.000000
-11.472800 0.000000
-11.408000 0.000000
-11.343200 0.000000
-11.278500 0.000000
-11.213700 0.000000
-11.148900 0.000000
-11.084200 0.000000
-11.019400 0.000000
-10.954600 0.000000
-10.889900 0.000000
-10.825100 0.000000
-10.760300 0.000000
-10.695600 0.000000
-10.630800 0.000000
-10.566000 0.000000
-10.501300 0.000000
-10.436500 0.000000
-10.371800 0.000000
-10.307000 0.000000
-10.242200 0.000000
-10.177500 0.000000
-10.112700 0.000000
-10.047900 0.000000
-9.983200 0.000000
-9.918400 0.000000
-9.853600 0.000000
-9.788900 0.000000
-9.724100 0.000000
-9.659300 0.000000
-9.594600 0.000000
-9.529800 0.000000
-9.465000 0.000000
-9.400300 0.000000
-9.335500 0.000000
-9.270700 0.000000
-9.206000 0.000000
-9.141200 0.000000
-9.076400 0.000000
-9.011700 0.000000
-8.946900 0.000000
-8.882100 0.000000
-8.817400 0.000000
-8.752600 0.000000
-8.687800 0.000000
-8.623100 0.000000
-8.558300 0.000000
-8.493500 0.000000
-8.428800 0.000000
-8.364000 0.000000
-8.299200 0.000000
-8.234500 0.000000
-8.169700 0.000000
-8.104900 0.000000
-8.040200 0.000000
-7.975400 0.000000
-7.910700 0.000000
-7.845900 0.000000
-7.781100 0.000000
-7.716400 0.000000
-7.651600 0.000000
-7.586800 0.000000
-7.522100 0.000000
-7.457300 0.000000
-7.392500 0.000000
-7.327800 0.000000
-7.263000 0.000000
-7.198200 0.000000
-7.133500 0.000000
-7.068700 0.000000
-7.003900 0.000000
-6.939200 0.000000
-6.874400 0.000000
-6.809600 0.088700
-6.744900 0.235100
-6.680100 0.368900
-6.615300 0.484700
-6.550600 0.607100
-6.485800 0.758300
-6.421000 0.946100
-6.356300 1.116500
-6.291500 1.322100
-6.226700 1.957600
-6.162000 2.017900
-6.097200 2.209600
-6.032400 2.543600
-5.967700 3.489100
-5.902900 2.475800
-5.838100 1.987900
-5.773400 1.747000
-5.708600 1.560100
-5.643800 1.423300
-5.579100 1.314800
-5.514300 1.221800
-5.449600 1.155600
-5.384800 1.090400
-5.320000 1.040500
-5.255300 0.981200
-5.190500 0.944000
-5.125700 0.916500
-5.061000 0.916100
-4.996200 0.920000
-4.931400 0.974700
-4.866700 1.063800
-4.801900 1.227300
-4.737100 1.187800
-4.672400 1.164900
-4.607600 1.144900
-4.542800 1.091900
-4.478100 1.062300
-4.413300 1.037000
-4.348500 1.020400
-4.283800 1.007900
-4.219000 0.995700
-4.154200 0.989300
-4.089500 0.977700
-4.024700 0.973200
-3.959900 0.983300
-3.895200 1.024900
-3.830400 1.119200
-3.765600 1.306800
-3.700900 1.711300
-3.636100 0.962500
-3.571300 0.640900
-3.506600 0.447900
-3.441800 0.620400
-3.377000 0.830000
-3.312300 0.903000
-3.247500 1.059500
-3.182700 1.289100
-3.118000 1.823000
-3.053200 1.984500
-2.988500 1.913100
-2.923700 1.642600
-2.858900 1.504200
-2.794200 1.333600
-2.729400 1.227400
-2.664600 1.182600
-2.599900 1.218700
-2.535100 1.244900
-2.470300 1.289100
-2.405600 1.469300
-2.340800 1.392900
-2.276000 1.205700
-2.211300 1.077200
-2.146500 0.973900
-2.081700 0.881100
-2.017000 0.874300
-1.952200 0.898700
-1.887400 1.019200
-1.822700 1.250100
-1.757900 1.294600
-1.693100 1.188400
-1.628400 1.149300
-1.563600 1.149200
-1.498800 1.232100
-1.434100 1.306700
-1.369300 1.515000
-1.304500 1.131300
-1.239800 1.129400
-1.175000 1.111500
-1.110200 1.099500
-1.045500 1.119700
-0.980700 1.119500
-0.915900 1.137000
-0.851200 1.140200
-0.786400 1.130100
-0.721600 1.052200
-0.656900 1.017200
-0.592100 0.946300
-0.527400 0.900100
-0.462600 0.846700
-0.397800 0.811300
-0.333100 0.785600
-0.268300 0.778800
-0.203500 0.796100
-0.138800 0.832400
-0.074000 0.813000
-0.009200 0.732700
0.055500 0.701800
0.120300 0.730900
0.185100 0.752400
0.249800 0.654600
0.314600 0.617600
0.379400 0.701400
0.444100 0.819000
0.508900 1.015000
0.573700 1.269900
0.638400 1.418200
0.703200 1.402000
0.768000 1.471700
0.832700 1.618800
0.897500 1.756100
0.962300 1.562600
1.027000 1.455100
1.091800 1.306100
1.156600 1.217400
1.221300 1.152900
1.286100 1.124200
1.350900 1.019700
1.415600 1.000800
1.480400 0.936700
1.545200 0.986000
1.609900 0.967200
1.674700 0.999000
1.739500 1.152400
1.804200 1.558100
1.869000 1.468800
1.933800 1.459200
1.998500 1.540200
2.063300 1.936900
2.128000 1.876500
2.192800 1.787700
2.257600 1.722000
2.322300 1.676100
2.387100 1.631000
2.451900 1.602800
2.516600 1.592700
2.581400 1.592600
2.646200 1.614200
2.710900 1.540900
2.775700 1.360800
2.840500 1.298000
2.905200 0.811200
2.970000 0.683900
3.034800 0.582700
3.099500 0.516900
3.164300 0.455500
3.229100 0.391900
3.293800 0.369600
3.358600 0.318100
3.423400 0.286300
3.488100 0.247700
3.552900 0.209300
3.617700 0.175000
3.682400 0.142400
3.747200 0.111300
3.812000 0.077400
3.876700 0.006600
3.941500 0.000000
4.006300 0.000000
4.071000 0.000000
4.135800 0.000000
4.200600 0.000000
4.265300 0.000000
4.330100 0.000000
4.394900 0.000000
4.459600 0.000000
4.524400 0.000000
4.589100 0.000000
4.653900 0.000000
4.718700 0.000000
4.783400 0.000000
4.848200 0.000000
4.913000 0.000000
4.977700 0.000000
5.042500 0.000000
5.107300 0.000000
5.172000 0.000000
5.236800 0.000000
5.301600 0.000000
5.366300 0.000000
5.431100 0.000000
5.495900 0.000000
5.560600 0.000000
5.625400 0.000000
5.690200 0.000000
5.754900 0.000000
5.819700 0.000000
5.884500 0.000000
5.949200 0.000000
6.014000 0.000000
6.078800 0.000000
6.143500 0.000000
6.208300 0.000000
6.273100 0.000000
6.337800 0.000000
6.402600 0.000000
6.467400 0.000000
6.532100 0.000000
6.596900 0.000000
6.661700 0.000000
6.726400 0.000000
6.791200 0.000000
6.856000 0.000000
6.920700 0.000000
6.985500 0.000000
7.050200 0.000000
7.115000 0.000000
7.179800 0.000000
7.244500 0.000000
7.309300 0.000000
7.374100 0.000000
7.438800 0.000000
7.503600 0.000000
7.568400 0.000000
7.633100 0.000000
7.697900 0.000000
7.762700 0.000000
7.827400 0.000000
7.892200 0.000000
7.957000 0.000000
8.021700 0.000000
8.086500 0.000000
8.151300 0.000000
8.216000 0.000000
8.280800 0.000000
8.345600 0.000000
8.410300 0.000000
8.475100 0.000000
8.539900 0.000000
8.604600 0.000000
8.669400 0.000000
8.734200 0.000000
8.798900 0.000000
8.863700 0.000000
8.928500 0.000000
8.993200 0.000000
9.058000 0.000000
9.122800 0.000000
9.187500 0.000000
9.252300 0.000000
9.317100 0.000000
9.381800 0.000000
9.446600 0.000000
9.511300 0.000000
9.576100 0.000000
9.640900 0.000000
9.705600 0.000000
9.770400 0.000000
9.835200 0.000000
9.899900 0.000000
9.964700 0.000000
10.029500 0.000000
10.094200 0.000000
10.159000 0.000000
10.223800 0.000000
10.288500 0.000000
10.353300 0.000000
10.418100 0.000000
10.482800 0.000000
10.547600 0.000000
10.612400 0.000000
10.677100 0.000000
10.741900 0.000000
10.806700 0.000000
10.871400 0.000000
10.936200 0.000000
11.001000 0.000000
11.065700 0.000000
11.130500 0.000000
11.195300 0.000000
11.260000 0.000000
11.324800 0.000000
11.389600 0.000000
11.454300 0.000000
11.519100 0.000000
11.583900 0.000000
11.648600 0.000000
11.713400 0.000000
11.778200 0.000000
11.842900 0.000000
11.907700 0.000000
11.972500 0.000000
12.037200 0.000000
12.102000 0.000000
12.166700 0.000000
12.231500 0.000000
12.296300 0.000000
12.361000 0.000000
12.425800 0.000000
12.490600 0.000000
12.555300 0.000000
12.620100 0.000000
12.684900 0.000000
12.749600 0.000000
12.814400 0.000000
12.879200 0.053100
12.943900 0.138900
13.008700 0.166100
13.073500 0.209200
13.138200 0.251500
13.203000 0.299500
13.267800 0.330600
13.332500 0.366000
13.397300 0.409500
13.462100 0.456700
13.526800 0.506700
13.591600 0.569000
13.656400 0.655200
13.721100 0.740500
13.785900 1.401300
13.850700 1.598500
13.915400 1.776900
13.980200 2.236300
14.045000 2.705900
14.109700 2.814500
14.174500 2.956900
14.239300 3.753600
14.304000 2.749700
14.368800 2.616100
14.433600 2.595400
14.498300 2.571300
14.563100 2.407900
14.627800 2.088000
14.692600 1.943300
14.757400 1.889600
14.822100 2.075300
14.886900 2.613000
14.951700 3.275400
15.016400 3.528300
15.081200 4.010900
15.146000 4.205200
15.210700 3.703700
15.275500 3.461000
15.340300 3.154600
15.405000 3.627400
15.469800 4.365400
15.534600 5.819600
15.599300 7.237900
15.664100 8.343400
15.728900 6.995500
15.793600 3.257000
15.858400 3.216900
15.923200 4.329500
15.987900 4.513600
16.052700 5.904000
16.117500 8.583900
16.182200 8.453300
16.247000 8.003500
16.311800 11.452300
16.376500 8.511000
16.441300 7.030200
16.506100 7.675300
16.570800 6.680300
16.635600 5.258900
16.700400 4.615400
16.765100 5.180600
16.829900 4.976100
16.894700 4.010400
16.959400 3.734600
17.024200 3.211500
17.088900 3.686000
17.153700 4.738300
17.218500 5.143900
17.283200 4.641600
17.348000 4.597600
17.412800 3.923800
17.477500 3.794200
17.542300 3.999100
17.607100 4.058000
17.671800 4.016500
17.736600 3.999700
17.801400 4.390600
17.866100 5.181100
17.930900 5.976100
17.995700 5.714600
18.060400 5.780800
18.125200 6.603900
18.190000 6.961800
18.254700 9.487100
18.319500 10.308400
18.384300 7.062300
18.449000 8.671400
18.513800 5.244300
18.578600 5.516900
18.643300 5.716500
18.708100 6.963300
18.772900 6.362900
18.837600 6.731200
18.902400 6.442000
18.967200 6.899400
19.031900 7.539100
19.096700 7.771900
19.161500 6.739600
19.226200 5.458100
19.291000 5.023700
19.355800 5.469500
19.420500 8.021200
19.485300 7.629200
19.550000 7.316100
19.614800 6.543400
19.679600 5.347700
19.744300 4.979400
19.809100 4.997400
19.873900 4.231800
19.938600 3.501500
20.003400 2.950300
20.068200 3.007100
20.132900 2.904600
20.197700 2.586200
20.262500 2.235900
20.327200 2.080400
20.392000 1.841400
20.456800 1.579900
20.521500 1.570600
20.586300 1.784900
20.651100 1.914600
20.715800 1.923200
20.780600 1.998500
20.845400 2.054200
20.910100 2.134300
20.974900 2.050200
21.039700 1.950700
21.104400 1.908600
21.169200 1.802300
21.234000 1.708600
21.298700 1.697500
21.363500 1.691700
21.428300 1.670400
21.493000 1.640300
21.557800 1.606500
21.622600 1.550300
21.687300 1.513700
21.752100 1.481300
21.816900 1.460700
21.881600 1.469100
21.946400 1.463600
22.011200 1.422700
22.075900 1.469400
22.140700 1.508000
22.205400 1.543700
22.270200 1.565300
22.335000 1.589400
22.399700 1.535100
22.464500 1.504400
22.529300 1.518400
22.594000 1.429700
22.658800 1.399100
22.723600 1.389900
22.788300 1.384700
22.853100 1.369800
22.917900 1.364000
22.982600 1.352600
23.047400 1.341300
23.112200 1.351100
23.176900 1.335500
23.241700 1.310600
23.306500 1.280700
23.371200 1.260500
23.436000 1.327200
23.500800 1.331300
23.565500 1.300900
23.630300 1.344300
23.695100 1.411400
23.759800 1.365500
23.824600 1.321400
23.889400 1.306000
23.954100 1.312600
24.018900 1.313200
24.083700 1.348100
24.148400 1.368500
24.213200 1.271700
24.278000 1.280600
24.342700 1.355800
24.407500 1.435000
24.472300 1.497100
24.537000 1.509800
24.601800 1.463200
24.666500 1.452900
24.731300 1.451300
24.796100 1.399100
24.860800 1.367200
24.925600 1.378500
24.990400 1.406700
25.055100 1.427000
25.119900 1.443000
25.184700 1.470100
25.249400 1.494700
25.314200 1.525000
25.379000 1.587300
25.443700 1.638700
25.508500 1.663500
25.573300 1.617600
25.638000 1.598900
25.702800 1.617600
25.767600 1.635700
25.832300 1.443100
25.897100 1.311200
25.961900 1.225100
26.026600 1.183400
26.091400 1.180500
26.156200 1.196100
26.220900 1.193000
26.285700 1.218500
26.350500 1.263800
26.415200 1.326800
26.480000 1.378300
26.544800 1.414500
26.609500 1.458600
26.674300 1.527700
26.739100 1.544200
26.803800 1.583400
26.868600 1.721000
26.933400 1.745300
26.998100 1.840000
27.062900 1.853300
27.127600 1.759900
27.192400 1.636600
27.257200 1.558800
27.321900 1.498800
27.386700 1.477900
27.451500 1.408600
27.516200 1.406900
27.581000 1.405700
27.645800 1.446000
27.710500 1.477200
27.775300 1.339700
27.840100 1.257800
27.904800 1.182100
27.969600 1.135700
28.034400 1.195400
28.099100 1.321100
28.163900 1.594500
28.228700 1.682700
28.293400 1.630200
28.358200 1.423000
28.423000 1.301500
28.487700 1.211100
28.552500 1.137900
28.617300 1.080600
28.682000 1.053600
28.746800 1.062900
28.811600 1.032900
28.876300 0.993700
28.941100 0.984700
29.005900 1.005200
29.070600 1.001100
29.135400 1.024800
29.200200 1.018800
29.264900 1.020600
29.329700 1.018200
29.394500 1.046400
29.459200 1.034600
29.524000 1.038100
29.588700 1.060500
29.653500 1.099600
29.718300 1.075700
29.783000 1.051600
29.847800 1.068900
29.912600 1.113900
29.977300 1.159600
30.042100 1.148500
30.106900 1.130200
30.171600 1.102100
30.236400 1.052800
