set title 'mp-1184252 - Density of States'
set xlabel 'Energy (eV)'
set ylabel 'DOS (states/eV)'
set grid
set xrange [-10:10]
set yrange [0:94.421]
set xzeroaxis lt -1
set terminal png size 800,600
set output 'mp-1184252_dos_gnuplot.png'
plot '-' using 1:2 with lines title 'DOS'
-9.573000 0.000000
-9.546700 0.000000
-9.520400 0.000000
-9.494000 0.000000
-9.467700 0.000000
-9.441400 0.000000
-9.415100 0.000000
-9.388800 0.000000
-9.362500 0.000000
-9.336100 0.000000
-9.309800 0.000000
-9.283500 0.000000
-9.257200 0.000000
-9.230900 0.000000
-9.204600 0.000000
-9.178200 0.000000
-9.151900 0.000000
-9.125600 0.000000
-9.099300 0.000000
-9.073000 0.000000
-9.046700 0.000000
-9.020300 0.000000
-8.994000 0.000000
-8.967700 0.000000
-8.941400 0.000000
-8.915100 0.000000
-8.888800 0.000000
-8.862400 0.000000
-8.836100 0.000000
-8.809800 0.000000
-8.783500 0.000000
-8.757200 0.000000
-8.730900 0.000000
-8.704600 0.000000
-8.678200 0.000000
-8.651900 0.000000
-8.625600 0.000000
-8.599300 0.000000
-8.573000 0.000000
-8.546700 0.000000
-8.520300 0.000000
-8.494000 0.000000
-8.467700 0.000000
-8.441400 0.000000
-8.415100 0.000000
-8.388800 0.000000
-8.362400 0.000000
-8.336100 0.000000
-8.309800 0.000000
-8.283500 0.000000
-8.257200 0.000000
-8.230900 0.000000
-8.204500 0.000000
-8.178200 0.000000
-8.151900 0.000000
-8.125600 0.000000
-8.099300 0.000000
-8.073000 0.000000
-8.046600 0.000000
-8.020300 0.000000
-7.994000 0.000000
-7.967700 0.000000
-7.941400 0.000000
-7.915100 0.000000
-7.888700 0.000000
-7.862400 0.000000
-7.836100 0.000000
-7.809800 0.000000
-7.783500 0.000000
-7.757200 0.000000
-7.730800 0.000000
-7.704500 0.000000
-7.678200 0.000000
-7.651900 0.000000
-7.625600 0.000000
-7.599300 0.000000
-7.572900 0.000000
-7.546600 0.000000
-7.520300 0.000000
-7.494000 0.000000
-7.467700 0.000000
-7.441400 0.000000
-7.415100 0.000000
-7.388700 0.000000
-7.362400 0.000000
-7.336100 0.000000
-7.309800 0.000400
-7.283500 0.007100
-7.257200 0.074100
-7.230800 0.500600
-7.204500 2.341900
-7.178200 8.227300
-7.151900 22.758700
-7.125600 48.635300
-7.099300 76.492800
-7.072900 85.837600
-7.046600 68.720300
-7.020300 40.335000
-6.994000 18.011000
-6.967700 6.178000
-6.941400 1.564200
-6.915000 0.273900
-6.888700 0.031300
-6.862400 0.002300
-6.836100 0.000100
-6.809800 0.000000
-6.783500 0.000000
-6.757100 0.000000
-6.730800 0.000000
-6.704500 0.000000
-6.678200 0.000000
-6.651900 0.000000
-6.625600 0.000000
-6.599200 0.000000
-6.572900 0.000000
-6.546600 0.000000
-6.520300 0.000000
-6.494000 0.000000
-6.467700 0.000000
-6.441300 0.000000
-6.415000 0.000000
-6.388700 0.000000
-6.362400 0.000000
-6.336100 0.000000
-6.309800 0.000000
-6.283400 0.000000
-6.257100 0.000000
-6.230800 0.000000
-6.204500 0.000000
-6.178200 0.000000
-6.151900 0.000000
-6.125600 0.000000
-6.099200 0.000000
-6.072900 0.000000
-6.046600 0.000000
-6.020300 0.000000
-5.994000 0.000000
-5.967700 0.000000
-5.941300 0.000000
-5.915000 0.000000
-5.888700 0.000000
-5.862400 0.000000
-5.836100 0.000000
-5.809800 0.000000
-5.783400 0.000000
-5.757100 0.000000
-5.730800 0.000000
-5.704500 0.000000
-5.678200 0.000000
-5.651900 0.000000
-5.625500 0.000000
-5.599200 0.000000
-5.572900 0.000000
-5.546600 0.000000
-5.520300 0.000100
-5.494000 0.000700
-5.467600 0.003700
-5.441300 0.012500
-5.415000 0.027200
-5.388700 0.045300
-5.362400 0.073400
-5.336100 0.120500
-5.309700 0.175900
-5.283400 0.208400
-5.257100 0.191500
-5.230800 0.141600
-5.204500 0.123500
-5.178200 0.180700
-5.151800 0.259300
-5.125500 0.276900
-5.099200 0.237300
-5.072900 0.215100
-5.046600 0.270300
-5.020300 0.375800
-4.993900 0.426000
-4.967600 0.362000
-4.941300 0.257400
-4.915000 0.210700
-4.888700 0.245600
-4.862400 0.333200
-4.836000 0.393000
-4.809700 0.351800
-4.783400 0.252600
-4.757100 0.214700
-4.730800 0.290300
-4.704500 0.414900
-4.678200 0.488900
-4.651800 0.489800
-4.625500 0.490400
-4.599200 0.546300
-4.572900 0.606800
-4.546600 0.567800
-4.520300 0.416100
-4.493900 0.266200
-4.467600 0.222500
-4.441300 0.281800
-4.415000 0.381800
-4.388700 0.440400
-4.362400 0.424200
-4.336000 0.422600
-4.309700 0.500300
-4.283400 0.583000
-4.257100 0.577900
-4.230800 0.491000
-4.204500 0.422500
-4.178100 0.451800
-4.151800 0.545200
-4.125500 0.629700
-4.099200 0.641000
-4.072900 0.561900
-4.046600 0.488700
-4.020200 0.504400
-3.993900 0.577000
-3.967600 0.633200
-3.941300 0.640500
-3.915000 0.634100
-3.888700 0.643700
-3.862300 0.626900
-3.836000 0.544900
-3.809700 0.437900
-3.783400 0.403900
-3.757100 0.515600
-3.730800 0.677900
-3.704400 0.704100
-3.678100 0.595900
-3.651800 0.485400
-3.625500 0.410300
-3.599200 0.387800
-3.572900 0.461400
-3.546500 0.606600
-3.520200 0.719800
-3.493900 0.686400
-3.467600 0.554700
-3.441300 0.539500
-3.415000 0.729000
-3.388700 0.917500
-3.362300 0.874300
-3.336000 0.708500
-3.309700 0.686300
-3.283400 0.765800
-3.257100 0.751600
-3.230800 0.668400
-3.204400 0.603100
-3.178100 0.591300
-3.151800 0.638300
-3.125500 0.654300
-3.099200 0.585900
-3.072900 0.488000
-3.046500 0.459500
-3.020200 0.555200
-2.993900 0.687700
-2.967600 0.758800
-2.941300 0.774600
-2.915000 0.739100
-2.888600 0.692700
-2.862300 0.718200
-2.836000 0.790300
-2.809700 0.796400
-2.783400 0.692300
-2.757100 0.570200
-2.730700 0.551800
-2.704400 0.655500
-2.678100 0.792600
-2.651800 0.851400
-2.625500 0.836700
-2.599200 0.908200
-2.572800 1.124200
-2.546500 1.254900
-2.520200 1.094300
-2.493900 0.808500
-2.467600 0.668600
-2.441300 0.716400
-2.414900 0.857900
-2.388600 0.957000
-2.362300 0.909800
-2.336000 0.720200
-2.309700 0.485000
-2.283400 0.376500
-2.257000 0.455500
-2.230700 0.561600
-2.204400 0.583600
-2.178100 0.625900
-2.151800 0.787400
-2.125500 0.994500
-2.099200 1.112700
-2.072800 1.044400
-2.046500 0.818400
-2.020200 0.702800
-1.993900 0.899400
-1.967600 1.136300
-1.941300 1.043300
-1.914900 0.751100
-1.888600 0.591100
-1.862300 0.624900
-1.836000 0.807300
-1.809700 1.041300
-1.783400 1.061300
-1.757000 0.790100
-1.730700 0.526900
-1.704400 0.534800
-1.678100 0.772000
-1.651800 0.994500
-1.625500 1.009300
-1.599100 0.880800
-1.572800 0.797900
-1.546500 0.847900
-1.520200 1.008700
-1.493900 1.130800
-1.467600 1.062600
-1.441200 0.900700
-1.414900 0.839600
-1.388600 0.900300
-1.362300 0.958700
-1.336000 0.959500
-1.309700 0.952900
-1.283300 0.977300
-1.257000 1.034200
-1.230700 1.111000
-1.204400 1.188100
-1.178100 1.211200
-1.151800 1.139500
-1.125400 1.011400
-1.099100 0.895000
-1.072800 0.786300
-1.046500 0.638900
-1.020200 0.504400
-0.993900 0.516900
-0.967500 0.687700
-0.941200 0.849300
-0.914900 0.874900
-0.888600 0.824200
-0.862300 0.839100
-0.836000 0.931200
-0.809700 1.020400
-0.783300 1.086200
-0.757000 1.056800
-0.730700 0.890600
-0.704400 0.747300
-0.678100 0.825400
-0.651800 1.118700
-0.625400 1.378200
-0.599100 1.452600
-0.572800 1.415000
-0.546500 1.241500
-0.520200 0.897200
-0.493900 0.621000
-0.467500 0.631600
-0.441200 0.883300
-0.414900 1.234100
-0.388600 1.509300
-0.362300 1.544000
-0.336000 1.364700
-0.309600 1.153400
-0.283300 1.041100
-0.257000 1.084300
-0.230700 1.224500
-0.204400 1.265100
-0.178100 1.070100
-0.151700 0.752500
-0.125400 0.568100
-0.099100 0.673700
-0.072800 1.018900
-0.046500 1.319300
-0.020200 1.342200
0.006200 1.202100
0.032500 1.098300
0.058800 1.031900
0.085100 0.938700
0.111400 0.926600
0.137700 1.108000
0.164100 1.280000
0.190400 1.219600
0.216700 1.068900
0.243000 1.010200
0.269300 0.950600
0.295600 0.827400
0.322000 0.777100
0.348300 0.823900
0.374600 0.839500
0.400900 0.883300
0.427200 1.120100
0.453500 1.468600
0.479900 1.618100
0.506200 1.432700
0.532500 1.175700
0.558800 1.163600
0.585100 1.419400
0.611400 1.623200
0.637700 1.424900
0.664100 1.009700
0.690400 0.855300
0.716700 0.961800
0.743000 0.986400
0.769300 0.909600
0.795600 0.953200
0.822000 1.124700
0.848300 1.323300
0.874600 1.584400
0.900900 1.850300
0.927200 1.845000
0.953500 1.566500
0.979900 1.391300
1.006200 1.429700
1.032500 1.364300
1.058800 1.023800
1.085100 0.690300
1.111400 0.676900
1.137800 0.880700
1.164100 1.031800
1.190400 1.172700
1.216700 1.445700
1.243000 1.676700
1.269300 1.627100
1.295700 1.347000
1.322000 1.121300
1.348300 1.106600
1.374600 1.125600
1.400900 1.057000
1.427200 1.021300
1.453600 1.048700
1.479900 1.080700
1.506200 1.234700
1.532500 1.526700
1.558800 1.558300
1.585100 1.153900
1.611500 0.723100
1.637800 0.613300
1.664100 0.770800
1.690400 0.989800
1.716700 1.098200
1.743000 1.006500
1.769400 0.813500
1.795700 0.756900
1.822000 0.954900
1.848300 1.294000
1.874600 1.570700
1.900900 1.641600
1.927200 1.474900
1.953600 1.228300
1.979900 1.141100
2.006200 1.165400
2.032500 1.059400
2.058800 0.856800
2.085100 0.786600
2.111500 0.898100
2.137800 1.061400
2.164100 1.145800
2.190400 1.126800
2.216700 1.127100
2.243000 1.257800
2.269400 1.439600
2.295700 1.630900
2.322000 1.882200
2.348300 2.057700
2.374600 1.991300
2.400900 1.718400
2.427300 1.402400
2.453600 1.196100
2.479900 1.066100
2.506200 0.926100
2.532500 0.849300
2.558800 0.884400
2.585200 0.978200
2.611500 1.130900
2.637800 1.345400
2.664100 1.490400
2.690400 1.413100
2.716700 1.146700
2.743100 0.892100
2.769400 0.820600
2.795700 0.936300
2.822000 1.153800
2.848300 1.351800
2.874600 1.461300
2.901000 1.556100
2.927300 1.603600
2.953600 1.522000
2.979900 1.485900
3.006200 1.602700
3.032500 1.656400
3.058900 1.565400
3.085200 1.490200
3.111500 1.486000
3.137800 1.529800
3.164100 1.554500
3.190400 1.441900
3.216700 1.260500
3.243100 1.197600
3.269400 1.259200
3.295700 1.315200
3.322000 1.266100
3.348300 1.152900
3.374600 1.062500
3.401000 0.982000
3.427300 0.969700
3.453600 1.109400
3.479900 1.275200
3.506200 1.334100
3.532500 1.344300
3.558900 1.350200
3.585200 1.306700
3.611500 1.236700
3.637800 1.222000
3.664100 1.289700
3.690400 1.329200
3.716800 1.205300
3.743100 1.085000
3.769400 1.321800
3.795700 1.781300
3.822000 1.894600
3.848300 1.496800
3.874700 0.984200
3.901000 0.805100
3.927300 1.179500
3.953600 1.871300
3.979900 2.302200
4.006200 2.309600
4.032600 2.229200
4.058900 2.174400
4.085200 1.993200
4.111500 1.710300
4.137800 1.496900
4.164100 1.437600
4.190500 1.486200
4.216800 1.490900
4.243100 1.360500
4.269400 1.221300
4.295700 1.234500
4.322000 1.361100
4.348400 1.423900
4.374700 1.330600
4.401000 1.163500
4.427300 1.011500
4.453600 0.927200
4.479900 0.951000
4.506300 0.993900
4.532600 0.948900
4.558900 0.955200
4.585200 1.268100
4.611500 1.877300
4.637800 2.473500
4.664100 2.689800
4.690500 2.414500
4.716800 1.898700
4.743100 1.481700
4.769400 1.317200
4.795700 1.395600
4.822000 1.591400
4.848400 1.689400
4.874700 1.610300
4.901000 1.503800
4.927300 1.556200
4.953600 1.720500
4.979900 1.701900
5.006300 1.387000
5.032600 1.065100
5.058900 1.073500
5.085200 1.361300
5.111500 1.510800
5.137800 1.336300
5.164200 1.113100
5.190500 1.099500
5.216800 1.310700
5.243100 1.657300
5.269400 2.019600
5.295700 2.193900
5.322100 2.043600
5.348400 1.754800
5.374700 1.607300
5.401000 1.656700
5.427300 1.688700
5.453600 1.474200
5.480000 1.143800
5.506300 1.099500
5.532600 1.449200
5.558900 1.779900
5.585200 1.736900
5.611500 1.498000
5.637900 1.382200
5.664200 1.386500
5.690500 1.358200
5.716800 1.384800
5.743100 1.699800
5.769400 2.162900
5.795800 2.342500
5.822100 2.157800
5.848400 1.882800
5.874700 1.616700
5.901000 1.342900
5.927300 1.259100
5.953600 1.516700
5.980000 1.893000
6.006300 1.994700
6.032600 1.758700
6.058900 1.510600
6.085200 1.462700
6.111500 1.510900
6.137900 1.542200
6.164200 1.607100
6.190500 1.724900
6.216800 1.737500
6.243100 1.563100
6.269400 1.331900
6.295800 1.108200
6.322100 0.933400
6.348400 0.995100
6.374700 1.306800
6.401000 1.514200
6.427300 1.333200
6.453700 0.985200
6.480000 0.847900
6.506300 0.968800
6.532600 1.171900
6.558900 1.363300
6.585200 1.540600
6.611600 1.665700
6.637900 1.756400
6.664200 1.845900
6.690500 1.913600
6.716800 1.915800
6.743100 1.822000
6.769500 1.790300
6.795800 1.986900
6.822100 2.206700
6.848400 2.073900
6.874700 1.647900
6.901000 1.384400
6.927400 1.491400
6.953700 1.824200
6.980000 2.119200
7.006300 2.150700
7.032600 1.972800
7.058900 1.783100
7.085300 1.612200
7.111600 1.455400
7.137900 1.369500
7.164200 1.459100
7.190500 1.792500
7.216800 2.176300
7.243100 2.325300
7.269500 2.156100
7.295800 1.777300
7.322100 1.390300
7.348400 1.156400
7.374700 1.128700
7.401000 1.313700
7.427400 1.556400
7.453700 1.584300
7.480000 1.427800
7.506300 1.343200
7.532600 1.360400
7.558900 1.385900
7.585300 1.472200
7.611600 1.673400
7.637900 1.873200
7.664200 1.798800
7.690500 1.410500
7.716800 1.134600
7.743200 1.302100
7.769500 1.759900
7.795800 2.125400
7.822100 2.184000
7.848400 2.029700
7.874700 1.867400
7.901100 1.854200
7.927400 2.007000
7.953700 2.141700
7.980000 2.152600
8.006300 2.160000
8.032600 2.195300
8.059000 2.134700
8.085300 1.945800
8.111600 1.737200
8.137900 1.655100
8.164200 1.775000
8.190500 2.021500
8.216900 2.148000
8.243200 1.964800
8.269500 1.643600
8.295800 1.505600
8.322100 1.595800
8.348400 1.580000
8.374800 1.270700
8.401100 1.033100
8.427400 1.262900
8.453700 1.800900
8.480000 2.199300
8.506300 2.292500
8.532700 2.144500
8.559000 1.863100
8.585300 1.607600
8.611600 1.398400
8.637900 1.235500
8.664200 1.244800
8.690500 1.341300
8.716900 1.348800
8.743200 1.464800
8.769500 1.896000
8.795800 2.325600
8.822100 2.336700
8.848400 1.975900
8.874800 1.641900
8.901100 1.608900
8.927400 1.775800
8.953700 1.880900
8.980000 1.834200
9.006300 1.777700
9.032700 1.892700
9.059000 2.153600
9.085300 2.334900
9.111600 2.333500
9.137900 2.268000
9.164200 2.141800
9.190600 1.861000
9.216900 1.647200
9.243200 1.801900
9.269500 2.138600
9.295800 2.210300
9.322100 2.008900
9.348500 1.879600
9.374800 1.887000
9.401100 1.852000
9.427400 1.767800
9.453700 1.762700
9.480000 1.808800
9.506400 1.749300
9.532700 1.631100
9.559000 1.678100
9.585300 1.930800
9.611600 2.132200
9.637900 2.044500
9.664300 1.844900
9.690600 1.891300
9.716900 2.235100
9.743200 2.556700
9.769500 2.489500
9.795800 2.122700
9.822200 1.906300
9.848500 1.951900
9.874800 1.968700
9.901100 1.876300
9.927400 1.844200
9.953700 1.851000
9.980000 1.771600
10.006400 1.670300
10.032700 1.760800
10.059000 2.077400
10.085300 2.222000
10.111600 1.905700
10.137900 1.509900
10.164300 1.527700
10.190600 1.938600
10.216900 2.407400
10.243200 2.610800
10.269500 2.385900
10.295800 1.923200
10.322200 1.612600
10.348500 1.528500
10.374800 1.473400
10.401100 1.411300
10.427400 1.476900
10.453700 1.754900
10.480100 2.088200
10.506400 2.207200
10.532700 2.137900
10.559000 2.082300
10.585300 2.130600
10.611600 2.376500
10.638000 2.692200
10.664300 2.626700
10.690600 2.158200
10.716900 1.784700
10.743200 1.729400
10.769500 1.803900
10.795900 1.878700
10.822200 2.028800
10.848500 2.214300
10.874800 2.265700
10.901100 2.227300
10.927400 2.195800
10.953800 2.027700
10.980100 1.624000
11.006400 1.231600
11.032700 1.210900
11.059000 1.599800
11.085300 2.093000
11.111700 2.429100
11.138000 2.547800
11.164300 2.447300
11.190600 2.210500
11.216900 2.026200
11.243200 2.029800
11.269500 2.144800
11.295900 2.220100
11.322200 2.396900
11.348500 2.856800
11.374800 3.255000
11.401100 3.187400
11.427400 2.823900
11.453800 2.402000
11.480100 1.914400
11.506400 1.534600
11.532700 1.505700
11.559000 1.683900
11.585300 1.791500
11.611700 1.890000
11.638000 2.191000
11.664300 2.531500
11.690600 2.515400
11.716900 2.146600
11.743200 1.799800
11.769600 1.689600
11.795900 1.639700
11.822200 1.448200
11.848500 1.326700
11.874800 1.597200
11.901100 2.192600
11.927500 2.677900
11.953800 2.668500
11.980100 2.271000
12.006400 1.944800
12.032700 1.974100
12.059000 2.232900
12.085400 2.291500
12.111700 1.985700
12.138000 1.760400
12.164300 1.895200
12.190600 2.086800
12.216900 2.188500
12.243300 2.264900
12.269600 2.122200
12.295900 1.813900
12.322200 1.750200
12.348500 1.951800
12.374800 2.064200
12.401200 1.883700
12.427500 1.581400
12.453800 1.457700
12.480100 1.630500
12.506400 2.014500
12.532700 2.342000
12.559100 2.402600
12.585400 2.282600
12.611700 2.127200
12.638000 1.974600
12.664300 1.873200
12.690600 1.793100
12.716900 1.637400
12.743300 1.531800
12.769600 1.744400
12.795900 2.229400
12.822200 2.629900
12.848500 2.653500
12.874800 2.258100
12.901200 1.781200
12.927500 1.583200
12.953800 1.525200
12.980100 1.416200
13.006400 1.354400
13.032700 1.337700
13.059100 1.315700
13.085400 1.449300
13.111700 1.833600
13.138000 2.235300
13.164300 2.433400
13.190600 2.489100
13.217000 2.473700
13.243300 2.341300
13.269600 2.094800
13.295900 1.928200
13.322200 2.024900
13.348500 2.233400
13.374900 2.327900
13.401200 2.310800
13.427500 2.185100
13.453800 1.965500
13.480100 1.858200
13.506400 1.921100
13.532800 1.961300
13.559100 1.959800
13.585400 2.014100
13.611700 2.084400
13.638000 2.163000
13.664300 2.329900
13.690700 2.645500
13.717000 2.998200
13.743300 2.953900
13.769600 2.360100
13.795900 1.752600
13.822200 1.511100
13.848600 1.476300
13.874900 1.532500
13.901200 1.713800
13.927500 1.888200
13.953800 1.881100
13.980100 1.751200
14.006400 1.722600
14.032800 1.870800
14.059100 1.994200
14.085400 1.923700
14.111700 1.763700
14.138000 1.721300
14.164300 1.872700
14.190700 2.030100
14.217000 1.910400
14.243300 1.539700
14.269600 1.268200
14.295900 1.429300
14.322200 1.989900
14.348600 2.518700
14.374900 2.657400
14.401200 2.445300
14.427500 2.148500
14.453800 2.013700
14.480100 2.046100
14.506500 2.032300
14.532800 1.966800
14.559100 2.060400
14.585400 2.209700
14.611700 2.114600
14.638000 1.796700
14.664400 1.511700
14.690700 1.414800
14.717000 1.474400
14.743300 1.599500
14.769600 1.730100
14.795900 1.747500
14.822300 1.630700
14.848600 1.701600
14.874900 2.225000
14.901200 2.883600
14.927500 3.124300
14.953800 2.962200
14.980200 2.857500
15.006500 2.908200
15.032800 2.696900
15.059100 2.097100
15.085400 1.662600
15.111700 1.741400
15.138100 2.031000
15.164400 2.158300
15.190700 2.056600
15.217000 1.851300
15.243300 1.684900
15.269600 1.613000
15.295900 1.596100
15.322300 1.577100
15.348600 1.508500
15.374900 1.371200
15.401200 1.245800
15.427500 1.287800
15.453800 1.474300
15.480200 1.584100
15.506500 1.507300
15.532800 1.311000
15.559100 1.187500
15.585400 1.414100
15.611700 2.044900
15.638100 2.803100
15.664400 3.290000
15.690700 3.156500
15.717000 2.533600
15.743300 1.964100
15.769600 1.688200
15.796000 1.643600
15.822300 1.695300
15.848600 1.628700
15.874900 1.410800
15.901200 1.259500
15.927500 1.355600
15.953900 1.585900
15.980200 1.595100
16.006500 1.286600
16.032800 0.973800
16.059100 0.936700
16.085400 1.195500
16.111800 1.602000
16.138100 2.039600
16.164400 2.532000
16.190700 3.032700
16.217000 3.405800
16.243300 3.638700
16.269700 3.739500
16.296000 3.568800
16.322300 3.012100
16.348600 2.388300
16.374900 2.267500
16.401200 2.584200
16.427600 2.656100
16.453900 2.202800
16.480200 1.653300
16.506500 1.515600
16.532800 1.816800
16.559100 2.191600
16.585500 2.362800
16.611800 2.243100
16.638100 1.917600
16.664400 1.638700
16.690700 1.467700
16.717000 1.239100
16.743300 0.999600
16.769700 1.007000
16.796000 1.275600
16.822300 1.588600
16.848600 1.942900
16.874900 2.438400
16.901200 2.861200
16.927600 2.927900
16.953900 2.664600
16.980200 2.407700
17.006500 2.559500
17.032800 3.086300
17.059100 3.353500
17.085500 2.971400
17.111800 2.370700
17.138100 2.065600
17.164400 2.048200
17.190700 2.127100
17.217000 2.278700
17.243400 2.517300
17.269700 2.749400
17.296000 2.774900
17.322300 2.411700
17.348600 1.831900
17.374900 1.480000
17.401300 1.477300
17.427600 1.580400
17.453900 1.654700
17.480200 1.814700
17.506500 2.161300
17.532800 2.559400
17.559200 2.813000
17.585500 2.851900
17.611800 2.722600
17.638100 2.619200
17.664400 2.635600
17.690700 2.616800
17.717100 2.489500
17.743400 2.368600
17.769700 2.422200
17.796000 2.658500
17.822300 2.800000
17.848600 2.608600
17.875000 2.176300
17.901300 1.816300
17.927600 1.764200
17.953900 1.939400
17.980200 2.206300
18.006500 2.550500
18.032800 2.698400
18.059200 2.495000
18.085500 2.351400
18.111800 2.486800
18.138100 2.634300
18.164400 2.714000
18.190700 2.873100
18.217100 3.017300
