set title 'mp-30339 - Density of States'
set xlabel 'Energy (eV)'
set ylabel 'DOS (states/eV)'
set grid
set xrange [-10:10]
set yrange [0:21.515]
set xzeroaxis lt -1
set terminal png size 800,600
set output 'mp-30339_dos_gnuplot.png'
plot '-' using 1:2 with lines title 'DOS'
-25.386900 0.000000
-25.344600 0.000000
-25.302400 0.000000
-25.260100 0.000000
-25.217900 0.000000
-25.175600 0.000000
-25.133400 0.000000
-25.091100 0.000000
-25.048900 0.000000
-25.006600 0.000000
-24.964400 0.000000
-24.922100 0.000000
-24.879800 0.000000
-24.837600 0.000000
-24.795300 0.000000
-24.753100 0.000000
-24.710800 0.000000
-24.668600 0.000000
-24.626300 0.000000
-24.584100 0.000000
-24.541800 0.000000
-24.499600 0.000000
-24.457300 0.000000
-24.415100 0.000000
-24.372800 0.000000
-24.330500 0.000000
-24.288300 0.000000
-24.246000 0.000000
-24.203800 0.000000
-24.161500 0.000000
-24.119300 0.000000
-24.077000 0.000000
-24.034800 0.000000
-23.992500 0.000000
-23.950300 0.000000
-23.908000 0.000000
-23.865800 0.000000
-23.823500 0.000000
-23.781200 0.000000
-23.739000 0.000000
-23.696700 0.000000
-23.654500 0.000000
-23.612200 0.000000
-23.570000 0.000000
-23.527700 0.000000
-23.485500 0.000000
-23.443200 0.000000
-23.401000 0.000000
-23.358700 0.000000
-23.316500 0.000000
-23.274200 0.000000
-23.231900 0.000000
-23.189700 0.000000
-23.147400 0.000000
-23.105200 0.000000
-23.062900 0.000000
-23.020700 0.000000
-22.978400 0.000000
-22.936200 0.000000
-22.893900 0.000000
-22.851700 0.000000
-22.809400 0.000000
-22.767200 0.000000
-22.724900 0.000000
-22.682700 0.000000
-22.640400 0.000000
-22.598100 0.000000
-22.555900 0.000000
-22.513600 0.000000
-22.471400 0.000000
-22.429100 0.000000
-22.386900 0.000000
-22.344600 0.000000
-22.302400 0.000000
-22.260100 0.000000
-22.217900 0.000000
-22.175600 0.000000
-22.133400 0.000000
-22.091100 0.000000
-22.048800 0.000000
-22.006600 0.000000
-21.964300 0.000000
-21.922100 0.000000
-21.879800 0.000000
-21.837600 0.000000
-21.795300 0.000000
-21.753100 0.000000
-21.710800 0.000000
-21.668600 0.001200
-21.626300 0.075300
-21.584100 1.361800
-21.541800 8.046300
-21.499500 20.260900
-21.457300 33.092600
-21.415000 35.349800
-21.372800 24.532800
-21.330500 14.292800
-21.288300 4.479600
-21.246000 0.490100
-21.203800 0.016000
-21.161500 0.000100
-21.119300 0.000000
-21.077000 0.000000
-21.034800 0.000000
-20.992500 0.000000
-20.950200 0.000000
-20.908000 0.000000
-20.865700 0.000000
-20.823500 0.000000
-20.781200 0.000000
-20.739000 0.000000
-20.696700 0.000000
-20.654500 0.000000
-20.612200 0.000000
-20.570000 0.000000
-20.527700 0.000000
-20.485500 0.000000
-20.443200 0.000000
-20.401000 0.000000
-20.358700 0.000000
-20.316400 0.000000
-20.274200 0.000000
-20.231900 0.000000
-20.189700 0.000000
-20.147400 0.000000
-20.105200 0.000000
-20.062900 0.000000
-20.020700 0.000000
-19.978400 0.000000
-19.936200 0.000000
-19.893900 0.000000
-19.851700 0.000000
-19.809400 0.000000
-19.767100 0.000000
-19.724900 0.000000
-19.682600 0.000000
-19.640400 0.000000
-19.598100 0.000000
-19.555900 0.000000
-19.513600 0.000000
-19.471400 0.000000
-19.429100 0.000000
-19.386900 0.000000
-19.344600 0.000000
-19.302400 0.000000
-19.260100 0.000000
-19.217800 0.000000
-19.175600 0.000000
-19.133300 0.000000
-19.091100 0.000000
-19.048800 0.000000
-19.006600 0.000000
-18.964300 0.000000
-18.922100 0.000000
-18.879800 0.000000
-18.837600 0.000000
-18.795300 0.000000
-18.753100 0.000000
-18.710800 0.000000
-18.668500 0.000000
-18.626300 0.000000
-18.584000 0.000000
-18.541800 0.000000
-18.499500 0.000000
-18.457300 0.000000
-18.415000 0.000000
-18.372800 0.000000
-18.330500 0.000000
-18.288300 0.000000
-18.246000 0.000000
-18.203800 0.000000
-18.161500 0.000000
-18.119200 0.000000
-18.077000 0.000000
-18.034700 0.000000
-17.992500 0.000000
-17.950200 0.000000
-17.908000 0.000000
-17.865700 0.000000
-17.823500 0.000000
-17.781200 0.000000
-17.739000 0.000000
-17.696700 0.000000
-17.654500 0.000000
-17.612200 0.000000
-17.570000 0.000000
-17.527700 0.000000
-17.485400 0.000000
-17.443200 0.000000
-17.400900 0.000000
-17.358700 0.000000
-17.316400 0.000000
-17.274200 0.000000
-17.231900 0.000000
-17.189700 0.000000
-17.147400 0.000000
-17.105200 0.000000
-17.062900 0.000000
-17.020700 0.000000
-16.978400 0.000000
-16.936100 0.000000
-16.893900 0.000000
-16.851600 0.000000
-16.809400 0.000000
-16.767100 0.000000
-16.724900 0.000000
-16.682600 0.000000
-16.640400 0.000000
-16.598100 0.000000
-16.555900 0.000000
-16.513600 0.000000
-16.471400 0.000000
-16.429100 0.000000
-16.386800 0.000000
-16.344600 0.000000
-16.302300 0.000000
-16.260100 0.000000
-16.217800 0.000000
-16.175600 0.000000
-16.133300 0.000000
-16.091100 0.000000
-16.048800 0.000000
-16.006600 0.000000
-15.964300 0.000000
-15.922100 0.000000
-15.879800 0.000000
-15.837500 0.000000
-15.795300 0.000000
-15.753000 0.000000
-15.710800 0.000000
-15.668500 0.000000
-15.626300 0.000000
-15.584000 0.000000
-15.541800 0.000000
-15.499500 0.000000
-15.457300 0.000000
-15.415000 0.000000
-15.372800 0.000000
-15.330500 0.000000
-15.288200 0.000000
-15.246000 0.000000
-15.203700 0.000000
-15.161500 0.000000
-15.119200 0.000000
-15.077000 0.000000
-15.034700 0.000000
-14.992500 0.000000
-14.950200 0.000000
-14.908000 0.000000
-14.865700 0.000000
-14.823500 0.000000
-14.781200 0.000000
-14.739000 0.000000
-14.696700 0.000000
-14.654400 0.000000
-14.612200 0.000000
-14.569900 0.000000
-14.527700 0.000000
-14.485400 0.000000
-14.443200 0.000000
-14.400900 0.000000
-14.358700 0.000000
-14.316400 0.000000
-14.274200 0.000000
-14.231900 0.000000
-14.189700 0.000000
-14.147400 0.000000
-14.105100 0.000000
-14.062900 0.000000
-14.020600 0.000000
-13.978400 0.000000
-13.936100 0.000000
-13.893900 0.000000
-13.851600 0.000000
-13.809400 0.000000
-13.767100 0.000000
-13.724900 0.000000
-13.682600 0.000000
-13.640400 0.000000
-13.598100 0.000000
-13.555800 0.000000
-13.513600 0.000000
-13.471300 0.000000
-13.429100 0.000000
-13.386800 0.000000
-13.344600 0.000000
-13.302300 0.000000
-13.260100 0.000000
-13.217800 0.000000
-13.175600 0.000000
-13.133300 0.000000
-13.091100 0.000000
-13.048800 0.000000
-13.006500 0.000000
-12.964300 0.000000
-12.922000 0.000000
-12.879800 0.000000
-12.837500 0.000000
-12.795300 0.000000
-12.753000 0.000000
-12.710800 0.000000
-12.668500 0.000000
-12.626300 0.000000
-12.584000 0.000000
-12.541800 0.000000
-12.499500 0.000000
-12.457300 0.000000
-12.415000 0.000000
-12.372700 0.000000
-12.330500 0.000000
-12.288200 0.000000
-12.246000 0.000000
-12.203700 0.000000
-12.161500 0.000000
-12.119200 0.000000
-12.077000 0.000000
-12.034700 0.000000
-11.992500 0.000000
-11.950200 0.000000
-11.908000 0.000000
-11.865700 0.000000
-11.823400 0.000000
-11.781200 0.000000
-11.738900 0.000000
-11.696700 0.000000
-11.654400 0.000000
-11.612200 0.000000
-11.569900 0.000000
-11.527700 0.000000
-11.485400 0.000000
-11.443200 0.000000
-11.400900 0.000000
-11.358700 0.000000
-11.316400 0.000000
-11.274100 0.000000
-11.231900 0.000000
-11.189600 0.000000
-11.147400 0.000000
-11.105100 0.000000
-11.062900 0.000000
-11.020600 0.000000
-10.978400 0.000000
-10.936100 0.000000
-10.893900 0.000000
-10.851600 0.000000
-10.809400 0.000000
-10.767100 0.000000
-10.724800 0.000000
-10.682600 0.000000
-10.640300 0.000000
-10.598100 0.000000
-10.555800 0.000000
-10.513600 0.000000
-10.471300 0.000000
-10.429100 0.000000
-10.386800 0.000000
-10.344600 0.000000
-10.302300 0.000000
-10.260100 0.000000
-10.217800 0.000000
-10.175500 0.000000
-10.133300 0.000000
-10.091000 0.000000
-10.048800 0.000000
-10.006500 0.000000
-9.964300 0.000000
-9.922000 0.000000
-9.879800 0.000000
-9.837500 0.000000
-9.795300 0.000000
-9.753000 0.000000
-9.710800 0.000000
-9.668500 0.000000
-9.626300 0.000000
-9.584000 0.000000
-9.541700 0.000000
-9.499500 0.000000
-9.457200 0.000000
-9.415000 0.000000
-9.372700 0.000000
-9.330500 0.000000
-9.288200 0.000000
-9.246000 0.000000
-9.203700 0.000000
-9.161500 0.000000
-9.119200 0.000000
-9.077000 0.000000
-9.034700 0.000000
-8.992400 0.000000
-8.950200 0.000000
-8.907900 0.000000
-8.865700 0.000000
-8.823400 0.000000
-8.781200 0.000000
-8.738900 0.000000
-8.696700 0.000000
-8.654400 0.000000
-8.612200 0.000000
-8.569900 0.000000
-8.527700 0.000000
-8.485400 0.000000
-8.443100 0.000000
-8.400900 0.000000
-8.358600 0.000000
-8.316400 0.000000
-8.274100 0.000000
-8.231900 0.000000
-8.189600 0.000000
-8.147400 0.000000
-8.105100 0.000000
-8.062900 0.000000
-8.020600 0.000000
-7.978400 0.000000
-7.936100 0.000000
-7.893800 0.000000
-7.851600 0.000000
-7.809300 0.000000
-7.767100 0.000000
-7.724800 0.000000
-7.682600 0.000000
-7.640300 0.000000
-7.598100 0.000000
-7.555800 0.000000
-7.513600 0.000000
-7.471300 0.000000
-7.429100 0.000000
-7.386800 0.000000
-7.344500 0.000000
-7.302300 0.000000
-7.260000 0.000000
-7.217800 0.000000
-7.175500 0.000000
-7.133300 0.000000
-7.091000 0.000000
-7.048800 0.000000
-7.006500 0.000000
-6.964300 0.000000
-6.922000 0.000000
-6.879800 0.000000
-6.837500 0.000000
-6.795300 0.000000
-6.753000 0.000000
-6.710700 0.000000
-6.668500 0.000000
-6.626200 0.000000
-6.584000 0.000000
-6.541700 0.000000
-6.499500 0.000000
-6.457200 0.000000
-6.415000 0.000000
-6.372700 0.000000
-6.330500 0.000000
-6.288200 0.000000
-6.246000 0.000000
-6.203700 0.000000
-6.161400 0.000000
-6.119200 0.000000
-6.076900 0.000000
-6.034700 0.000000
-5.992400 0.000000
-5.950200 0.000000
-5.907900 0.000000
-5.865700 0.000000
-5.823400 0.000000
-5.781200 0.000000
-5.738900 0.000000
-5.696700 0.000000
-5.654400 0.000000
-5.612100 0.000000
-5.569900 0.000000
-5.527600 0.000000
-5.485400 0.000000
-5.443100 0.000000
-5.400900 0.000000
-5.358600 0.000000
-5.316400 0.000000
-5.274100 0.000000
-5.231900 0.000000
-5.189600 0.000000
-5.147400 0.000000
-5.105100 0.000000
-5.062800 0.000000
-5.020600 0.000000
-4.978300 0.000000
-4.936100 0.000000
-4.893800 0.000000
-4.851600 0.000000
-4.809300 0.000000
-4.767100 0.000000
-4.724800 0.000000
-4.682600 0.000000
-4.640300 0.000000
-4.598100 0.000000
-4.555800 0.000000
-4.513600 0.000000
-4.471300 0.000000
-4.429000 0.000000
-4.386800 0.000000
-4.344500 0.000000
-4.302300 0.000000
-4.260000 0.000000
-4.217800 0.000000
-4.175500 0.000000
-4.133300 0.000000
-4.091000 0.000000
-4.048800 0.000000
-4.006500 0.000000
-3.964300 0.000000
-3.922000 0.000000
-3.879700 0.000000
-3.837500 0.000000
-3.795200 0.000000
-3.753000 0.000000
-3.710700 0.000000
-3.668500 0.000000
-3.626200 0.000000
-3.584000 0.000000
-3.541700 0.000100
-3.499500 0.001500
-3.457200 0.011800
-3.415000 0.028500
-3.372700 0.043300
-3.330400 0.082800
-3.288200 0.149500
-3.245900 0.187000
-3.203700 0.120700
-3.161400 0.052700
-3.119200 0.125300
-3.076900 0.244600
-3.034700 0.235900
-2.992400 0.189500
-2.950200 0.249400
-2.907900 0.346400
-2.865700 0.258300
-2.823400 0.153700
-2.781100 0.220900
-2.738900 0.384400
-2.696600 0.343600
-2.654400 0.235800
-2.612100 0.267000
-2.569900 0.381100
-2.527600 0.416400
-2.485400 0.516700
-2.443100 0.802000
-2.400900 0.983600
-2.358600 1.576200
-2.316400 3.857600
-2.274100 6.701000
-2.231800 7.791000
-2.189600 8.632900
-2.147300 7.712600
-2.105100 6.269600
-2.062800 7.106800
-2.020600 10.386900
-1.978300 15.115800
-1.936100 18.058500
-1.893800 19.246200
-1.851600 19.559400
-1.809300 18.968400
-1.767100 18.102200
-1.724800 16.621400
-1.682600 15.118200
-1.640300 13.581500
-1.598000 10.417800
-1.555800 8.314700
-1.513500 7.136700
-1.471300 5.768800
-1.429000 5.127000
-1.386800 4.844400
-1.344500 4.623200
-1.302300 5.486900
-1.260000 7.813200
-1.217800 11.032200
-1.175500 13.247800
-1.133300 14.029800
-1.091000 13.866100
-1.048700 13.289900
-1.006500 12.040400
-0.964200 11.151300
-0.922000 11.409800
-0.879700 12.213400
-0.837500 13.938700
-0.795200 14.933600
-0.753000 14.025900
-0.710700 12.133200
-0.668500 9.885400
-0.626200 9.033600
-0.584000 8.900100
-0.541700 6.627600
-0.499400 3.411800
-0.457200 1.417100
-0.414900 1.221700
-0.372700 1.096800
-0.330400 0.664000
-0.288200 0.900500
-0.245900 1.080500
-0.203700 0.847300
-0.161400 0.542000
-0.119200 0.625100
-0.076900 0.881300
-0.034700 0.854600
0.007600 0.835000
0.049900 0.692300
0.092100 0.727600
0.134400 0.924600
0.176600 1.057000
0.218900 0.763300
0.261100 0.552800
0.303400 0.760400
0.345600 0.954900
0.387900 0.856400
0.430100 0.719700
0.472400 0.985300
0.514600 1.594500
0.556900 1.480800
0.599200 0.946400
0.641400 0.505500
0.683700 0.376900
0.725900 0.537200
0.768200 0.919700
0.810400 1.235500
0.852700 0.957400
0.894900 0.751700
0.937200 0.702800
0.979400 0.490100
1.021700 0.712600
1.063900 1.049700
1.106200 1.162700
1.148400 1.183400
1.190700 1.307700
1.233000 1.801400
1.275200 2.277000
1.317500 1.767200
1.359700 0.926700
1.402000 0.728600
1.444200 0.945800
1.486500 1.063900
1.528700 1.152300
1.571000 1.106700
1.613200 1.163400
1.655500 1.413500
1.697700 1.776500
1.740000 1.564900
1.782300 0.986900
1.824500 1.068400
1.866800 1.310300
1.909000 1.209200
1.951300 1.144900
1.993500 1.209000
2.035800 1.272200
2.078000 1.115200
2.120300 1.001100
2.162500 0.806200
2.204800 0.745200
2.247000 1.399400
2.289300 1.863500
2.331600 1.420400
2.373800 0.939400
2.416100 0.963500
2.458300 0.917600
2.500600 0.832600
2.542800 1.063700
2.585100 1.321700
2.627300 1.258800
2.669600 1.337400
2.711800 1.593700
2.754100 1.666400
2.796300 1.491800
2.838600 1.156600
2.880900 1.138800
2.923100 1.572100
2.965400 2.120900
3.007600 1.889000
3.049900 1.330500
3.092100 1.296600
3.134400 1.313700
3.176600 1.398800
3.218900 1.414900
3.261100 1.179000
3.303400 0.904300
3.345600 0.861800
3.387900 1.038100
3.430100 1.056900
3.472400 1.102100
3.514700 1.280100
3.556900 1.267100
3.599200 1.142400
3.641400 0.948900
3.683700 1.026800
3.725900 1.412900
3.768200 1.560700
3.810400 1.195200
3.852700 0.967400
3.894900 0.945100
3.937200 0.889900
3.979400 1.043800
4.021700 1.064400
4.064000 0.815700
4.106200 0.682200
4.148500 0.553800
4.190700 0.288100
4.233000 0.225700
4.275200 0.660300
4.317500 1.519500
4.359700 2.350600
4.402000 2.920800
4.444200 2.785300
4.486500 1.868900
4.528700 1.188400
4.571000 0.970100
4.613300 1.196900
4.655500 1.376200
4.697800 1.463600
4.740000 2.033600
4.782300 2.285300
4.824500 1.884000
4.866800 1.832800
4.909000 1.856700
4.951300 2.085500
4.993500 2.594700
5.035800 2.479100
5.078000 2.280800
5.120300 2.321700
5.162600 2.079600
5.204800 1.595100
5.247100 1.744600
5.289300 2.743700
5.331600 3.601000
5.373800 3.206700
5.416100 3.016100
5.458300 4.037400
5.500600 4.798800
5.542800 4.559200
5.585100 3.933900
5.627300 3.106000
5.669600 3.039900
5.711900 3.077900
5.754100 2.726400
5.796400 2.617100
5.838600 3.025800
5.880900 3.734300
5.923100 3.451000
5.965400 3.054300
6.007600 3.458300
6.049900 4.503500
6.092100 4.947400
6.134400 4.367200
6.176600 3.499800
6.218900 2.952400
6.261100 3.347700
6.303400 3.415800
6.345700 2.677200
6.387900 1.993000
6.430200 1.638200
6.472400 1.579000
6.514700 1.589400
6.556900 1.826400
6.599200 2.109100
6.641400 1.903700
6.683700 1.387800
6.725900 0.941300
6.768200 0.848000
6.810400 0.943700
6.852700 1.034400
6.895000 1.602900
6.937200 2.189400
6.979500 2.004800
7.021700 2.233200
7.064000 2.797000
7.106200 2.661200
7.148500 2.522500
7.190700 2.918500
7.233000 2.995100
7.275200 3.182600
7.317500 3.651300
7.359700 3.551100
7.402000 2.823400
7.444300 2.558100
7.486500 2.113800
7.528800 1.117600
7.571000 0.535900
7.613300 0.299900
7.655500 0.269700
7.697800 0.347800
7.740000 0.250100
7.782300 0.199000
7.824500 0.334300
7.866800 0.493400
7.909000 0.433500
7.951300 0.297300
7.993600 0.281600
8.035800 0.270400
8.078100 0.273100
8.120300 0.457300
8.162600 0.861600
8.204800 0.961900
8.247100 0.745400
8.289300 0.658500
8.331600 0.517700
8.373800 0.263600
8.416100 0.320000
8.458300 0.622100
8.500600 0.879400
8.542800 0.965100
8.585100 0.991200
8.627400 0.970700
8.669600 1.008900
8.711900 1.371600
8.754100 1.735400
8.796400 1.630600
8.838600 2.343200
8.880900 3.109000
8.923100 2.770400
8.965400 2.497900
9.007600 1.820000
9.049900 1.003500
9.092100 0.725800
9.134400 0.962500
9.176700 1.482200
9.218900 1.390300
9.261200 1.068400
9.303400 1.281800
9.345700 1.136400
9.387900 0.805200
9.430200 0.539700
9.472400 0.457200
9.514700 0.595700
9.556900 0.861900
9.599200 1.032900
9.641400 1.031100
9.683700 1.146600
9.726000 1.376200
9.768200 1.251900
9.810500 1.000300
9.852700 0.834300
9.895000 0.879700
9.937200 1.259300
9.979500 1.427100
10.021700 1.061700
10.064000 0.781800
10.106200 1.042800
10.148500 1.168300
10.190700 0.943200
10.233000 0.966100
10.275300 1.108200
10.317500 1.017100
10.359800 1.210900
10.402000 1.592800
10.444300 1.465900
10.486500 1.234300
10.528800 1.305500
10.571000 1.444800
10.613300 1.915500
10.655500 2.320500
10.697800 2.117500
10.740000 2.121200
10.782300 2.333200
10.824600 2.108200
10.866800 1.458700
10.909100 1.367000
10.951300 1.718400
10.993600 1.593200
11.035800 1.196300
11.078100 1.174400
11.120300 1.250400
11.162600 1.657900
11.204800 2.211100
11.247100 2.429300
11.289300 2.616900
11.331600 2.618400
11.373800 2.343400
11.416100 2.523100
11.458400 2.901100
11.500600 3.096900
11.542900 2.947600
11.585100 2.298100
11.627400 2.341500
11.669600 2.574700
11.711900 2.116800
11.754100 1.692800
11.796400 1.713600
11.838600 1.957300
11.880900 1.849000
11.923100 1.780200
11.965400 2.129300
12.007700 2.240600
12.049900 1.672100
12.092200 1.437800
12.134400 1.507300
12.176700 1.610700
12.218900 1.892900
12.261200 1.685800
12.303400 1.469200
12.345700 1.701400
12.387900 1.958000
12.430200 1.761000
12.472400 1.575300
12.514700 1.709800
12.557000 1.924900
12.599200 1.911500
12.641500 2.001000
12.683700 1.817700
12.726000 1.192500
12.768200 1.283600
12.810500 1.751100
12.852700 1.709200
12.895000 1.789800
12.937200 1.987800
12.979500 2.191100
13.021700 2.495700
13.064000 2.815100
13.106300 2.845600
13.148500 2.193600
13.190800 1.696000
13.233000 1.507300
13.275300 1.183700
13.317500 1.136900
13.359800 1.518800
13.402000 2.036500
13.444300 2.159500
13.486500 1.693100
13.528800 1.700200
13.571000 2.389000
13.613300 2.488600
13.655600 1.887900
13.697800 1.658300
13.740100 1.512300
13.782300 1.564200
13.824600 1.784600
13.866800 2.129000
13.909100 2.286100
13.951300 1.977900
13.993600 1.357500
14.035800 1.405600
14.078100 1.904100
14.120300 2.285600
14.162600 2.009800
14.204800 1.774300
14.247100 1.889100
14.289400 1.578700
14.331600 1.308000
14.373900 1.268900
14.416100 1.698400
14.458400 2.064800
14.500600 1.963300
14.542900 1.685300
14.585100 1.537400
14.627400 1.762500
14.669600 1.839100
14.711900 1.398500
14.754100 1.240500
14.796400 1.806000
14.838700 2.434400
14.880900 2.839200
14.923200 2.822000
14.965400 2.170400
15.007700 1.268000
15.049900 1.085200
15.092200 1.687100
15.134400 1.906600
15.176700 1.889600
15.218900 1.660600
15.261200 1.670100
15.303400 2.005600
15.345700 2.705000
15.388000 3.047300
15.430200 2.434700
15.472500 2.270300
15.514700 2.032800
15.557000 1.777000
15.599200 2.248700
15.641500 2.596400
15.683700 2.350700
15.726000 2.298200
15.768200 2.726400
15.810500 2.916100
15.852700 2.679800
15.895000 2.131100
15.937300 1.552400
15.979500 1.085900
16.021800 1.316500
16.064000 1.869000
16.106300 1.876300
16.148500 1.870800
16.190800 2.119800
16.233000 2.078600
16.275300 2.047200
16.317500 1.838700
16.359800 1.720200
16.402000 1.716500
16.444300 1.571200
16.486500 1.157600
16.528800 1.152300
16.571100 1.317800
16.613300 1.245100
16.655600 1.229800
16.697800 1.316900
16.740100 1.623600
16.782300 1.859800
16.824600 1.888400
16.866800 2.004400
16.909100 2.174000
16.951300 2.215400
16.993600 2.278800
17.035800 2.340100
17.078100 2.687800
17.120400 3.147700
17.162600 2.849700
17.204900 2.270400
17.247100 1.792000
17.289400 1.788400
17.331600 2.238400
17.373900 2.481000
17.416100 2.439600
17.458400 2.259100
17.500600 1.861200
17.542900 1.706500
17.585100 1.652900
17.627400 1.915400
17.669700 2.251100
17.711900 2.239600
17.754200 2.321900
17.796400 2.838500
17.838700 3.015400
17.880900 2.465500
17.923200 1.828000
17.965400 2.146100
18.007700 2.299100
18.049900 1.887400
