set title 'mp-1078904 - Density of States'
set xlabel 'Energy (eV)'
set ylabel 'DOS (states/eV)'
set grid
set xrange [-10:10]
set yrange [0:14.519]
set xzeroaxis lt -1
set terminal png size 800,600
set output 'mp-1078904_dos_gnuplot.png'
plot '-' using 1:2 with lines title 'DOS'
-7.908600 0.000000
-7.893800 0.000000
-7.879100 0.000000
-7.864400 0.000000
-7.849700 0.000000
-7.835000 0.000000
-7.820200 0.000000
-7.805500 0.000000
-7.790800 0.000000
-7.776100 0.000000
-7.761300 0.000000
-7.746600 0.000000
-7.731900 0.000000
-7.717200 0.000000
-7.702400 0.000000
-7.687700 0.000000
-7.673000 0.000000
-7.658300 0.000000
-7.643600 0.000000
-7.628800 0.000000
-7.614100 0.000000
-7.599400 0.000000
-7.584700 0.000000
-7.569900 0.000000
-7.555200 0.000000
-7.540500 0.000000
-7.525800 0.000000
-7.511000 0.000000
-7.496300 0.000000
-7.481600 0.000000
-7.466900 0.000000
-7.452200 0.000000
-7.437400 0.000000
-7.422700 0.000000
-7.408000 0.000000
-7.393300 0.000000
-7.378500 0.000000
-7.363800 0.000000
-7.349100 0.000000
-7.334400 0.000000
-7.319600 0.000000
-7.304900 0.000000
-7.290200 0.000000
-7.275500 0.000000
-7.260800 0.000000
-7.246000 0.000000
-7.231300 0.000000
-7.216600 0.000000
-7.201900 0.000000
-7.187100 0.000000
-7.172400 0.000000
-7.157700 0.000000
-7.143000 0.000000
-7.128200 0.000000
-7.113500 0.000000
-7.098800 0.000000
-7.084100 0.000000
-7.069400 0.000000
-7.054600 0.000000
-7.039900 0.000000
-7.025200 0.000000
-7.010500 0.000000
-6.995700 0.000000
-6.981000 0.000000
-6.966300 0.000000
-6.951600 0.000000
-6.936900 0.000000
-6.922100 0.000000
-6.907400 0.000000
-6.892700 0.000000
-6.878000 0.000000
-6.863200 0.000000
-6.848500 0.000000
-6.833800 0.000000
-6.819100 0.000000
-6.804300 0.000000
-6.789600 0.000000
-6.774900 0.000000
-6.760200 0.000000
-6.745500 0.000000
-6.730700 0.000000
-6.716000 0.000000
-6.701300 0.000000
-6.686600 0.000000
-6.671800 0.000000
-6.657100 0.000000
-6.642400 0.000000
-6.627700 0.000000
-6.612900 0.000000
-6.598200 0.000000
-6.583500 0.000000
-6.568800 0.000300
-6.554100 0.044600
-6.539300 0.163700
-6.524600 0.357700
-6.509900 0.614700
-6.495200 0.773500
-6.480400 0.863400
-6.465700 0.894100
-6.451000 0.935300
-6.436300 1.004600
-6.421500 1.077600
-6.406800 1.152300
-6.392100 1.228400
-6.377400 1.305900
-6.362700 1.384900
-6.347900 1.465400
-6.333200 1.536900
-6.318500 1.583500
-6.303800 1.613400
-6.289000 1.663000
-6.274300 1.712100
-6.259600 1.760400
-6.244900 1.808900
-6.230100 1.856300
-6.215400 1.900000
-6.200700 1.947300
-6.186000 2.000000
-6.171300 2.059100
-6.156500 2.122000
-6.141800 2.188100
-6.127100 2.257600
-6.112400 2.332400
-6.097600 2.412600
-6.082900 2.499900
-6.068200 2.731100
-6.053500 2.962600
-6.038700 3.164200
-6.024000 3.153900
-6.009300 3.142600
-5.994600 3.180700
-5.979900 3.204900
-5.965100 3.178100
-5.950400 3.099400
-5.935700 2.946500
-5.921000 2.923100
-5.906200 2.969900
-5.891500 2.969600
-5.876800 2.970300
-5.862100 2.973200
-5.847400 2.985300
-5.832600 3.013200
-5.817900 3.047400
-5.803200 3.104500
-5.788500 3.183400
-5.773700 3.101700
-5.759000 2.926000
-5.744300 2.975500
-5.729600 3.467000
-5.714800 3.532900
-5.700100 3.607100
-5.685400 4.024800
-5.670700 4.357600
-5.656000 4.557700
-5.641200 4.724300
-5.626500 4.867800
-5.611800 4.580600
-5.597100 4.443300
-5.582300 4.426900
-5.567600 4.443000
-5.552900 4.517300
-5.538200 4.613200
-5.523400 4.856800
-5.508700 5.191200
-5.494000 5.405400
-5.479300 5.102300
-5.464600 4.853500
-5.449800 4.886600
-5.435100 4.806000
-5.420400 4.695900
-5.405700 4.577300
-5.390900 4.485900
-5.376200 4.372500
-5.361500 4.169700
-5.346800 4.010400
-5.332000 3.974500
-5.317300 4.055200
-5.302600 3.926900
-5.287900 3.819400
-5.273200 3.783500
-5.258400 3.751100
-5.243700 3.854800
-5.229000 3.975200
-5.214300 4.064400
-5.199500 4.115200
-5.184800 4.142500
-5.170100 4.149000
-5.155400 4.144000
-5.140600 4.154500
-5.125900 4.192200
-5.111200 4.220100
-5.096500 4.357800
-5.081800 4.350700
-5.067000 4.368800
-5.052300 4.322300
-5.037600 4.139100
-5.022900 4.114700
-5.008100 4.081200
-4.993400 4.052200
-4.978700 4.180500
-4.964000 4.678500
-4.949200 5.080900
-4.934500 5.365300
-4.919800 5.733500
-4.905100 6.540100
-4.890400 6.738500
-4.875600 7.262400
-4.860900 9.153800
-4.846200 8.450200
-4.831500 7.948300
-4.816700 7.919500
-4.802000 8.280500
-4.787300 8.132000
-4.772600 6.739400
-4.757900 6.556500
-4.743100 6.254700
-4.728400 5.899300
-4.713700 5.787600
-4.699000 5.890800
-4.684200 6.161600
-4.669500 7.129100
-4.654800 7.560600
-4.640100 7.871100
-4.625300 8.185700
-4.610600 9.164400
-4.595900 10.597700
-4.581200 10.879600
-4.566500 10.152400
-4.551700 10.125200
-4.537000 9.937400
-4.522300 9.723500
-4.507600 10.321200
-4.492800 10.923000
-4.478100 11.324500
-4.463400 10.703500
-4.448700 10.214500
-4.433900 9.322700
-4.419200 9.001700
-4.404500 8.653400
-4.389800 9.102500
-4.375100 10.550500
-4.360300 6.711100
-4.345600 6.998500
-4.330900 6.856400
-4.316200 6.626900
-4.301400 6.684500
-4.286700 6.828300
-4.272000 6.625500
-4.257300 6.932300
-4.242500 7.410200
-4.227800 8.264900
-4.213100 9.397900
-4.198400 10.891800
-4.183700 9.794100
-4.168900 7.641900
-4.154200 6.297200
-4.139500 5.413400
-4.124800 4.648800
-4.110000 3.914500
-4.095300 3.391300
-4.080600 2.771000
-4.065900 2.145300
-4.051100 1.425700
-4.036400 0.581900
-4.021700 0.000000
-4.007000 0.000000
-3.992300 0.000000
-3.977500 0.000000
-3.962800 0.000000
-3.948100 0.000000
-3.933400 0.000000
-3.918600 0.000000
-3.903900 0.000000
-3.889200 0.000000
-3.874500 0.000000
-3.859700 0.000000
-3.845000 0.000000
-3.830300 0.000000
-3.815600 0.000000
-3.800900 0.000000
-3.786100 0.000000
-3.771400 0.000000
-3.756700 0.000000
-3.742000 0.000000
-3.727200 0.000000
-3.712500 0.000000
-3.697800 0.000000
-3.683100 0.000000
-3.668400 0.000000
-3.653600 0.000000
-3.638900 0.000000
-3.624200 0.000000
-3.609500 0.000000
-3.594700 0.000000
-3.580000 0.000000
-3.565300 0.000000
-3.550600 0.000000
-3.535800 0.000000
-3.521100 0.000000
-3.506400 0.000000
-3.491700 0.000000
-3.477000 0.000000
-3.462200 0.000000
-3.447500 0.000000
-3.432800 0.000000
-3.418100 0.000000
-3.403300 0.000000
-3.388600 0.000000
-3.373900 0.000000
-3.359200 0.000000
-3.344400 0.000000
-3.329700 0.000000
-3.315000 0.000000
-3.300300 0.000000
-3.285600 0.000000
-3.270800 0.000000
-3.256100 0.000000
-3.241400 0.000000
-3.226700 0.000000
-3.211900 0.000000
-3.197200 0.016800
-3.182500 0.109700
-3.167800 0.283300
-3.153000 0.530000
-3.138300 0.848100
-3.123600 1.237500
-3.108900 1.736800
-3.094200 2.147600
-3.079400 3.163800
-3.064700 2.865800
-3.050000 3.248000
-3.035300 3.797000
-3.020500 3.942800
-3.005800 4.213800
-2.991100 4.513600
-2.976400 4.754700
-2.961600 5.022200
-2.946900 5.886500
-2.932200 5.700900
-2.917500 5.446600
-2.902800 5.120900
-2.888000 4.874000
-2.873300 4.632300
-2.858600 4.484600
-2.843900 4.516900
-2.829100 4.829900
-2.814400 5.666900
-2.799700 5.980900
-2.785000 6.120600
-2.770300 6.082000
-2.755500 5.927200
-2.740800 5.884800
-2.726100 5.900500
-2.711400 5.828200
-2.696600 5.753100
-2.681900 5.788100
-2.667200 5.826400
-2.652500 5.834200
-2.637700 5.673900
-2.623000 5.351900
-2.608300 5.062900
-2.593600 4.781000
-2.578900 4.513500
-2.564100 4.369900
-2.549400 4.317600
-2.534700 4.284800
-2.520000 4.212200
-2.505200 4.123600
-2.490500 4.025800
-2.475800 3.994000
-2.461100 4.145800
-2.446300 4.192600
-2.431600 4.083100
-2.416900 4.146100
-2.402200 4.223300
-2.387500 4.296000
-2.372700 4.303600
-2.358000 4.426500
-2.343300 4.944100
-2.328600 5.191200
-2.313800 5.084100
-2.299100 4.947600
-2.284400 4.959200
-2.269700 5.183700
-2.254900 5.172000
-2.240200 4.977400
-2.225500 4.616700
-2.210800 4.307900
-2.196100 4.156200
-2.181300 4.141200
-2.166600 4.130000
-2.151900 4.119100
-2.137200 4.150000
-2.122400 4.183500
-2.107700 4.215400
-2.093000 4.277600
-2.078300 4.424000
-2.063500 4.706100
-2.048800 5.074400
-2.034100 5.604600
-2.019400 6.063000
-2.004700 6.094600
-1.989900 5.527700
-1.975200 4.995900
-1.960500 4.530400
-1.945800 4.107300
-1.931000 4.121700
-1.916300 3.863100
-1.901600 3.587900
-1.886900 3.246400
-1.872100 3.038500
-1.857400 2.575700
-1.842700 2.075000
-1.828000 1.475300
-1.813300 1.293500
-1.798500 1.227100
-1.783800 1.240700
-1.769100 1.161400
-1.754400 1.034300
-1.739600 1.196300
-1.724900 1.443000
-1.710200 1.709100
-1.695500 2.013100
-1.680800 2.356200
-1.666000 2.600200
-1.651300 2.837100
-1.636600 3.102300
-1.621900 3.492200
-1.607100 3.728000
-1.592400 3.773400
-1.577700 3.870200
-1.563000 3.755700
-1.548200 3.462200
-1.533500 3.436400
-1.518800 3.467100
-1.504100 3.497900
-1.489400 3.491700
-1.474600 3.453900
-1.459900 3.413100
-1.445200 3.368700
-1.430500 3.322100
-1.415700 3.292100
-1.401000 3.289300
-1.386300 3.288700
-1.371600 3.218400
-1.356800 3.137700
-1.342100 3.033200
-1.327400 3.035700
-1.312700 3.051400
-1.298000 3.052000
-1.283200 3.033100
-1.268500 2.968500
-1.253800 2.855900
-1.239100 2.635500
-1.224300 2.336400
-1.209600 2.276700
-1.194900 2.225200
-1.180200 2.181900
-1.165400 1.776000
-1.150700 1.649300
-1.136000 1.533400
-1.121300 1.422900
-1.106600 1.320500
-1.091800 1.226700
-1.077100 1.142500
-1.062400 1.087500
-1.047700 0.995300
-1.032900 0.907500
-1.018200 0.820300
-1.003500 0.732700
-0.988800 0.644900
-0.974000 0.556800
-0.959300 0.491800
-0.944600 0.416200
-0.929900 0.217800
-0.915200 0.007400
-0.900400 0.000000
-0.885700 0.000000
-0.871000 0.000000
-0.856300 0.000000
-0.841500 0.000000
-0.826800 0.000000
-0.812100 0.000000
-0.797400 0.000000
-0.782600 0.000000
-0.767900 0.000000
-0.753200 0.000000
-0.738500 0.000000
-0.723800 0.000000
-0.709000 0.000000
-0.694300 0.000000
-0.679600 0.000000
-0.664900 0.000000
-0.650100 0.000000
-0.635400 0.000000
-0.620700 0.000000
-0.606000 0.000000
-0.591300 0.000000
-0.576500 0.000000
-0.561800 0.000000
-0.547100 0.000000
-0.532400 0.000000
-0.517600 0.000000
-0.502900 0.000000
-0.488200 0.000000
-0.473500 0.000000
-0.458700 0.000000
-0.444000 0.000000
-0.429300 0.000000
-0.414600 0.000000
-0.399900 0.000000
-0.385100 0.000000
-0.370400 0.000000
-0.355700 0.000000
-0.341000 0.000000
-0.326200 0.000000
-0.311500 0.000000
-0.296800 0.000000
-0.282100 0.000000
-0.267300 0.000000
-0.252600 0.000000
-0.237900 0.000000
-0.223200 0.000000
-0.208500 0.000000
-0.193700 0.000000
-0.179000 0.000000
-0.164300 0.000000
-0.149600 0.000000
-0.134800 0.000000
-0.120100 0.000000
-0.105400 0.000000
-0.090700 0.000000
-0.075900 0.000000
-0.061200 0.000000
-0.046500 0.000000
-0.031800 0.000000
-0.017100 0.000000
-0.002300 0.000000
0.012400 0.000000
0.027100 0.000000
0.041800 0.000000
0.056600 0.000000
0.071300 0.000000
0.086000 0.000000
0.100700 0.000000
0.115500 0.000000
0.130200 0.000000
0.144900 0.000000
0.159600 0.000000
0.174300 0.000000
0.189100 0.000000
0.203800 0.000000
0.218500 0.000000
0.233200 0.000000
0.248000 0.000000
0.262700 0.000000
0.277400 0.000000
0.292100 0.000000
0.306900 0.000000
0.321600 0.000000
0.336300 0.000000
0.351000 0.000000
0.365700 0.000000
0.380500 0.000000
0.395200 0.000000
0.409900 0.000000
0.424600 0.000000
0.439400 0.000000
0.454100 0.000000
0.468800 0.000000
0.483500 0.000000
0.498200 0.000000
0.513000 0.000000
0.527700 0.000000
0.542400 0.000000
0.557100 0.000000
0.571900 0.000000
0.586600 0.000000
0.601300 0.000000
0.616000 0.000000
0.630800 0.000000
0.645500 0.000000
0.660200 0.000000
0.674900 0.000000
0.689600 0.000000
0.704400 0.000000
0.719100 0.000000
0.733800 0.000000
0.748500 0.000000
0.763300 0.000000
0.778000 0.000000
0.792700 0.000000
0.807400 0.000000
0.822200 0.000000
0.836900 0.000000
0.851600 0.000000
0.866300 0.000000
0.881000 0.000000
0.895800 0.000000
0.910500 0.000000
0.925200 0.000000
0.939900 0.000000
0.954700 0.000000
0.969400 0.000000
0.984100 0.000000
0.998800 0.000000
1.013600 0.000000
1.028300 0.000000
1.043000 0.000000
1.057700 0.000000
1.072400 1.223300
1.087200 0.793800
1.101900 0.731500
1.116600 0.741000
1.131300 0.810800
1.146100 0.887100
1.160800 0.964200
1.175500 1.042400
1.190200 1.121400
1.205000 1.199600
1.219700 1.276700
1.234400 1.337600
1.249100 1.402900
1.263800 1.483700
1.278600 1.580000
1.293300 1.696300
1.308000 1.832500
1.322700 1.983600
1.337500 2.144400
1.352200 2.326500
1.366900 2.534000
1.381600 2.752400
1.396300 2.942700
1.411100 3.108300
1.425800 3.276200
1.440500 3.448100
1.455200 3.647900
1.470000 3.899800
1.484700 4.308000
1.499400 5.001100
1.514100 5.884300
1.528900 6.346300
1.543600 6.374100
1.558300 6.433000
1.573000 6.377500
1.587700 6.380700
1.602500 6.379900
1.617200 6.419200
1.631900 6.372900
1.646600 6.079600
1.661400 6.058000
1.676100 6.094800
1.690800 5.972600
1.705500 5.766200
1.720300 5.505100
1.735000 5.127400
1.749700 4.826300
1.764400 4.926900
1.779100 5.496600
1.793900 5.858600
1.808600 5.368700
1.823300 5.231800
1.838000 5.204000
1.852800 5.231700
1.867500 5.334200
1.882200 5.439900
1.896900 5.647500
1.911700 6.092600
1.926400 6.530200
1.941100 6.486700
1.955800 6.161100
1.970500 5.722200
1.985300 5.398200
2.000000 5.291400
2.014700 5.373500
2.029400 5.566300
2.044200 5.704200
2.058900 5.847800
2.073600 6.090600
2.088300 6.431500
2.103100 6.808100
2.117800 7.045000
2.132500 7.146500
2.147200 7.071400
2.161900 6.674500
2.176700 6.491000
2.191400 6.536800
2.206100 6.753900
2.220800 6.979700
2.235600 7.283000
2.250300 7.558800
2.265000 7.822500
2.279700 8.058700
2.294500 8.251100
2.309200 8.350700
2.323900 8.283800
2.338600 8.343400
2.353300 8.449600
2.368100 8.538400
2.382800 8.463800
2.397500 7.982900
2.412200 7.577600
2.427000 7.371300
2.441700 8.078600
2.456400 7.896000
2.471100 7.880500
2.485800 8.070900
2.500600 7.904900
2.515300 7.816700
2.530000 7.734100
2.544700 7.667600
2.559500 7.587100
2.574200 7.395800
2.588900 7.245800
2.603600 7.277500
2.618400 7.399700
2.633100 7.248100
2.647800 7.522600
2.662500 7.717600
2.677200 7.788500
2.692000 7.860100
2.706700 7.767400
2.721400 7.704800
2.736100 7.869800
2.750900 7.986700
2.765600 8.018800
2.780300 8.002500
2.795000 7.974700
2.809800 8.256100
2.824500 8.208900
2.839200 7.794100
2.853900 7.809700
2.868600 7.850000
2.883400 8.009200
2.898100 7.892500
2.912800 7.884800
2.927500 7.814600
2.942300 7.609900
2.957000 7.423300
2.971700 7.473300
2.986400 7.491100
3.001200 7.593400
3.015900 7.769100
3.030600 7.615000
3.045300 7.480700
3.060000 7.285600
3.074800 7.209800
3.089500 7.217000
3.104200 7.279000
3.118900 7.409800
3.133700 7.574700
3.148400 7.722800
3.163100 7.772700
3.177800 8.239700
3.192600 8.099500
3.207300 7.912100
3.222000 7.755500
3.236700 7.612900
3.251400 7.376300
3.266200 7.099800
3.280900 6.903800
3.295600 6.683700
3.310300 6.382800
3.325100 6.122600
3.339800 5.920200
3.354500 5.859400
3.369200 5.903800
3.384000 5.987300
3.398700 6.157400
3.413400 6.004000
3.428100 5.833700
3.442800 5.674900
3.457600 5.719000
3.472300 5.879800
3.487000 6.115300
3.501700 6.410100
3.516500 6.473000
3.531200 6.707600
3.545900 7.021000
3.560600 6.972100
3.575300 7.002400
3.590100 7.181900
3.604800 7.417700
3.619500 7.809700
3.634200 8.317200
3.649000 8.792000
3.663700 8.862000
3.678400 8.682000
3.693100 8.121800
3.707900 7.316800
3.722600 7.379300
3.737300 7.585100
3.752000 7.937600
3.766700 8.478600
3.781500 8.797800
3.796200 8.633800
3.810900 8.215900
3.825600 8.191900
3.840400 8.344600
3.855100 8.328100
3.869800 8.310100
3.884500 7.937300
3.899300 7.801600
3.914000 7.627400
3.928700 7.707800
3.943400 8.106300
3.958100 8.196400
3.972900 7.995800
3.987600 7.914000
4.002300 7.842800
4.017000 7.731100
4.031800 7.548200
4.046500 7.390300
4.061200 7.376600
4.075900 7.614800
4.090700 8.096600
4.105400 8.830900
4.120100 8.829300
4.134800 9.169800
4.149500 9.775800
4.164300 10.947100
4.179000 11.426300
4.193700 12.785900
4.208400 13.198800
4.223200 12.590600
4.237900 12.047000
4.252600 11.160500
4.267300 10.582200
4.282100 9.770400
4.296800 9.730200
4.311500 8.355700
4.326200 7.769100
4.340900 7.943500
4.355700 8.931600
4.370400 9.506300
4.385100 9.975000
4.399800 10.353300
4.414600 10.258600
4.429300 9.691400
4.444000 9.120500
4.458700 8.353300
4.473400 7.768800
4.488200 7.499400
4.502900 7.452400
4.517600 7.809900
4.532300 7.965800
4.547100 7.906500
4.561800 7.877100
4.576500 8.474600
4.591200 9.253300
4.606000 9.719300
4.620700 10.194700
4.635400 10.062100
4.650100 9.370900
4.664800 8.042900
4.679600 7.728900
4.694300 8.039300
4.709000 8.571800
4.723700 9.491100
4.738500 10.184200
4.753200 9.559000
4.767900 8.429700
4.782600 7.862300
4.797400 7.625900
4.812100 7.516500
4.826800 7.450400
4.841500 7.398200
4.856200 7.505900
4.871000 7.743600
4.885700 7.695800
4.900400 7.636400
4.915100 7.609800
4.929900 7.521300
4.944600 7.840700
4.959300 9.056700
4.974000 9.114700
4.988800 8.830300
5.003500 8.325600
5.018200 7.845300
5.032900 7.501900
5.047600 7.164600
5.062400 6.801000
5.077100 6.707300
5.091800 6.642100
5.106500 6.661400
5.121300 6.647700
5.136000 6.517400
5.150700 6.348100
5.165400 6.224100
5.180200 6.112400
5.194900 6.002500
5.209600 5.895300
5.224300 5.780400
5.239000 5.604100
5.253800 5.429100
5.268500 5.355400
5.283200 5.438800
5.297900 5.584800
5.312700 5.775100
5.327400 6.072900
5.342100 6.495100
5.356800 6.410000
5.371600 6.379600
5.386300 6.386700
5.401000 6.570700
5.415700 7.032800
5.430400 6.728000
5.445200 6.928800
5.459900 7.169300
5.474600 7.782100
5.489300 7.766100
5.504100 7.613900
5.518800 7.884500
5.533500 8.141100
5.548200 8.323000
5.562900 8.090200
5.577700 8.004300
5.592400 7.582700
5.607100 7.570600
5.621800 7.004100
5.636600 7.047600
5.651300 6.328000
5.666000 5.515000
5.680700 4.984600
5.695500 5.151600
5.710200 5.559000
5.724900 5.808300
5.739600 5.961500
5.754300 6.126000
5.769100 6.162400
5.783800 6.237600
5.798500 6.996500
5.813200 5.257100
5.828000 5.119500
5.842700 4.859300
5.857400 4.581200
5.872100 4.363900
5.886900 4.105400
5.901600 3.904900
5.916300 3.749000
5.931000 3.465600
5.945700 3.235500
5.960500 3.041800
5.975200 2.897700
5.989900 2.783000
6.004600 2.716100
6.019400 2.749900
6.034100 2.803500
6.048800 2.869700
6.063500 2.996400
6.078300 3.111000
6.093000 3.244900
6.107700 3.372500
6.122400 3.422900
6.137100 3.452700
6.151900 3.470600
6.166600 3.490700
6.181300 3.507900
6.196000 3.457100
6.210800 3.453800
6.225500 3.466900
6.240200 3.458400
6.254900 3.447400
6.269700 3.423700
6.284400 3.378700
6.299100 3.292300
6.313800 3.193700
6.328500 3.120800
6.343300 3.083900
6.358000 3.069300
6.372700 3.055800
6.387400 3.047300
6.402200 3.114400
6.416900 3.173400
6.431600 3.217700
6.446300 3.247200
6.461100 3.262000
6.475800 3.261300
6.490500 3.214000
6.505200 3.181700
6.519900 3.155100
6.534700 3.134000
6.549400 3.118600
6.564100 3.110400
6.578800 3.110000
6.593600 3.117100
6.608300 3.128900
6.623000 3.146100
6.637700 3.183500
6.652400 3.244300
6.667200 3.330200
6.681900 3.412300
6.696600 3.508800
6.711300 3.586800
6.726100 3.988200
6.740800 4.265600
6.755500 4.283800
6.770200 4.280900
6.785000 4.308300
6.799700 4.419800
6.814400 4.592100
6.829100 4.740300
6.843800 4.905000
6.858600 5.079400
6.873300 5.185200
6.888000 5.291600
6.902700 5.347700
6.917500 5.397100
6.932200 5.365800
6.946900 5.519100
6.961600 5.601000
6.976400 5.616900
6.991100 5.626800
7.005800 5.649400
7.020500 5.709000
7.035200 5.786900
7.050000 5.867700
7.064700 5.929200
7.079400 5.930100
7.094100 6.029100
7.108900 6.104400
7.123600 6.174400
7.138300 6.108300
7.153000 6.026700
7.167800 5.988700
7.182500 5.979100
7.197200 6.034100
7.211900 6.235500
7.226600 6.689800
7.241400 6.840700
7.256100 6.930800
7.270800 7.275800
7.285500 7.187600
7.300300 6.912500
7.315000 6.857400
7.329700 6.803900
7.344400 6.691600
7.359200 6.585600
7.373900 6.509200
7.388600 6.466500
7.403300 6.426400
7.418000 6.341800
7.432800 6.170100
7.447500 5.961300
7.462200 5.894900
7.476900 5.956200
7.491700 6.058900
7.506400 6.154200
7.521100 6.297000
7.535800 6.479500
7.550600 6.450600
7.565300 6.588000
7.580000 6.698500
7.594700 6.890100
7.609400 7.195200
7.624200 7.530000
7.638900 7.567000
7.653600 7.354000
7.668300 7.180400
7.683100 6.990600
7.697800 6.800300
7.712500 6.672700
7.727200 6.727600
7.741900 6.717000
