set title 'mp-1094064 - Density of States'
set xlabel 'Energy (eV)'
set ylabel 'DOS (states/eV)'
set grid
set xrange [-10:10]
set yrange [0:1.640]
set xzeroaxis lt -1
set terminal png size 800,600
set output 'mp-1094064_dos_gnuplot.png'
plot '-' using 1:2 with lines title 'DOS'
-10.189900 0.000000
-10.151700 0.000000
-10.113600 0.000000
-10.075400 0.000000
-10.037300 0.000000
-9.999100 0.000000
-9.961000 0.000000
-9.922800 0.000000
-9.884700 0.000000
-9.846500 0.000000
-9.808400 0.000000
-9.770200 0.000000
-9.732100 0.000000
-9.693900 0.000000
-9.655700 0.000000
-9.617600 0.000000
-9.579400 0.000000
-9.541300 0.000000
-9.503100 0.000000
-9.465000 0.000000
-9.426800 0.000000
-9.388700 0.000000
-9.350500 0.000000
-9.312400 0.000000
-9.274200 0.000000
-9.236100 0.000000
-9.197900 0.000000
-9.159800 0.000000
-9.121600 0.000000
-9.083500 0.000000
-9.045300 0.000000
-9.007200 0.000000
-8.969000 0.000000
-8.930900 0.000000
-8.892700 0.000000
-8.854600 0.000000
-8.816400 0.000000
-8.778300 0.000000
-8.740100 0.000000
-8.702000 0.000000
-8.663800 0.000000
-8.625600 0.000000
-8.587500 0.000000
-8.549300 0.000000
-8.511200 0.000000
-8.473000 0.000000
-8.434900 0.000000
-8.396700 0.000000
-8.358600 0.000000
-8.320400 0.000000
-8.282300 0.000000
-8.244100 0.000000
-8.206000 0.000000
-8.167800 0.000000
-8.129700 0.000000
-8.091500 0.000000
-8.053400 0.000000
-8.015200 0.000000
-7.977100 0.000000
-7.938900 0.000000
-7.900800 0.000000
-7.862600 0.000000
-7.824500 0.000000
-7.786300 0.000000
-7.748200 0.000000
-7.710000 0.000000
-7.671900 0.000000
-7.633700 0.000000
-7.595600 0.000000
-7.557400 0.000000
-7.519200 0.000000
-7.481100 0.000000
-7.442900 0.000000
-7.404800 0.000000
-7.366600 0.000000
-7.328500 0.000000
-7.290300 0.000000
-7.252200 0.000000
-7.214000 0.000000
-7.175900 0.000000
-7.137700 0.000000
-7.099600 0.000000
-7.061400 0.000000
-7.023300 0.000000
-6.985100 0.000000
-6.947000 0.000000
-6.908800 0.000000
-6.870700 0.000000
-6.832500 0.000000
-6.794400 0.000000
-6.756200 0.000000
-6.718100 0.000100
-6.679900 0.020600
-6.641800 0.068600
-6.603600 0.071500
-6.565500 0.085300
-6.527300 0.102200
-6.489100 0.115300
-6.451000 0.125400
-6.412800 0.129600
-6.374700 0.138900
-6.336500 0.148600
-6.298400 0.157200
-6.260200 0.163600
-6.222100 0.171000
-6.183900 0.180200
-6.145800 0.186100
-6.107600 0.192000
-6.069500 0.197600
-6.031300 0.204000
-5.993200 0.208900
-5.955000 0.214700
-5.916900 0.220600
-5.878700 0.226400
-5.840600 0.232500
-5.802400 0.239300
-5.764300 0.245100
-5.726100 0.249200
-5.688000 0.254200
-5.649800 0.259300
-5.611700 0.263700
-5.573500 0.267800
-5.535400 0.272300
-5.497200 0.277200
-5.459000 0.282100
-5.420900 0.287200
-5.382700 0.292300
-5.344600 0.297500
-5.306400 0.302700
-5.268300 0.308000
-5.230100 0.312400
-5.192000 0.317000
-5.153800 0.321000
-5.115700 0.325000
-5.077500 0.329000
-5.039400 0.333300
-5.001200 0.337500
-4.963100 0.341700
-4.924900 0.346100
-4.886800 0.350800
-4.848600 0.355600
-4.810500 0.360600
-4.772300 0.365800
-4.734200 0.371000
-4.696000 0.376300
-4.657900 0.381400
-4.619700 0.385500
-4.581600 0.390000
-4.543400 0.394400
-4.505300 0.398900
-4.467100 0.403600
-4.429000 0.408400
-4.390800 0.413500
-4.352600 0.418800
-4.314500 0.424300
-4.276300 0.429900
-4.238200 0.435700
-4.200000 0.441900
-4.161900 0.448300
-4.123700 0.454900
-4.085600 0.461600
-4.047400 0.468500
-4.009300 0.476000
-3.971100 0.484100
-3.933000 0.492700
-3.894800 0.501900
-3.856700 0.512000
-3.818500 0.524800
-3.780400 0.541700
-3.742200 0.555300
-3.704100 0.575900
-3.665900 0.578100
-3.627800 0.583200
-3.589600 0.588700
-3.551500 0.596000
-3.513300 0.604400
-3.475200 0.620100
-3.437000 0.654100
-3.398900 0.679000
-3.360700 0.696600
-3.322500 0.707300
-3.284400 0.716000
-3.246200 0.713500
-3.208100 0.708800
-3.169900 0.699900
-3.131800 0.691600
-3.093600 0.677400
-3.055500 0.675100
-3.017300 0.643300
-2.979200 0.636000
-2.941000 0.628700
-2.902900 0.617900
-2.864700 0.603300
-2.826600 0.587600
-2.788400 0.580800
-2.750300 0.606300
-2.712100 0.525700
-2.674000 0.497000
-2.635800 0.471000
-2.597700 0.446600
-2.559500 0.423700
-2.521400 0.403100
-2.483200 0.389400
-2.445100 0.377700
-2.406900 0.365200
-2.368800 0.352100
-2.330600 0.341700
-2.292500 0.325400
-2.254300 0.314300
-2.216100 0.306500
-2.178000 0.299000
-2.139800 0.291400
-2.101700 0.283100
-2.063500 0.274400
-2.025400 0.265300
-1.987200 0.256300
-1.949100 0.247700
-1.910900 0.241800
-1.872800 0.236300
-1.834600 0.230500
-1.796500 0.224300
-1.758300 0.218000
-1.720200 0.211700
-1.682000 0.205500
-1.643900 0.199400
-1.605700 0.194500
-1.567600 0.195300
-1.529400 0.187400
-1.491300 0.187600
-1.453100 0.191800
-1.415000 0.194000
-1.376800 0.193000
-1.338700 0.238900
-1.300500 0.219600
-1.262400 0.236900
-1.224200 0.271200
-1.186000 0.267600
-1.147900 0.278100
-1.109700 0.291300
-1.071600 0.302500
-1.033400 0.310800
-0.995300 0.274800
-0.957100 0.274300
-0.919000 0.302700
-0.880800 0.314500
-0.842700 0.326000
-0.804500 0.348600
-0.766400 0.367600
-0.728200 0.387100
-0.690100 0.395700
-0.651900 0.403400
-0.613800 0.420000
-0.575600 0.437700
-0.537500 0.456400
-0.499300 0.477900
-0.461200 0.507400
-0.423000 0.536600
-0.384900 0.564100
-0.346700 0.591100
-0.308600 0.619500
-0.270400 0.670800
-0.232300 0.685100
-0.194100 0.646300
-0.155900 0.623300
-0.117800 0.612900
-0.079600 0.604400
-0.041500 0.599500
-0.003300 0.596900
0.034800 0.596600
0.073000 0.604500
0.111100 0.617700
0.149300 0.631800
0.187400 0.646500
0.225600 0.677600
0.263700 0.673900
0.301900 0.707700
0.340000 0.762600
0.378200 0.850800
0.416300 0.999400
0.454500 0.912700
0.492600 0.863300
0.530800 0.846800
0.568900 0.819300
0.607100 0.800400
0.645200 0.782000
0.683400 0.759800
0.721500 0.746500
0.759700 0.722600
0.797800 0.700700
0.836000 0.684900
0.874100 0.658700
0.912300 0.640600
0.950500 0.609200
0.988600 0.604300
1.026800 0.599300
1.064900 0.595500
1.103100 0.593000
1.141200 0.591300
1.179400 0.598300
1.217500 0.621800
1.255700 0.624700
1.293800 0.634100
1.332000 0.644600
1.370100 0.657900
1.408300 0.670100
1.446400 0.689800
1.484600 0.693400
1.522700 0.697900
1.560900 0.700000
1.599000 0.709100
1.637200 0.722500
1.675300 0.738800
1.713500 0.731400
1.751600 0.719200
1.789800 0.713400
1.827900 0.712100
1.866100 0.710600
1.904200 0.699400
1.942400 0.697600
1.980600 0.695800
2.018700 0.694200
2.056900 0.693000
2.095000 0.693600
2.133200 0.697300
2.171300 0.703000
2.209500 0.708400
2.247600 0.712000
2.285800 0.714800
2.323900 0.719200
2.362100 0.743400
2.400200 0.740200
2.438400 0.737500
2.476500 0.738700
2.514700 0.738200
2.552800 0.737600
2.591000 0.737000
2.629100 0.736700
2.667300 0.739000
2.705400 0.742600
2.743600 0.745900
2.781700 0.749000
2.819900 0.751000
2.858000 0.754400
2.896200 0.759000
2.934300 0.764100
2.972500 0.769200
3.010700 0.768800
3.048800 0.778100
3.087000 0.784500
3.125100 0.789100
3.163300 0.806300
3.201400 0.806800
3.239600 0.814200
3.277700 0.819300
3.315900 0.825100
3.354000 0.830400
3.392200 0.833200
3.430300 0.838900
3.468500 0.846000
3.506600 0.860800
3.544800 0.875500
3.582900 0.881200
3.621100 0.887700
3.659200 0.910500
3.697400 0.989300
3.735500 0.972100
3.773700 0.966500
3.811800 0.958100
3.850000 0.955400
3.888100 0.960900
3.926300 0.931300
3.964400 0.926700
4.002600 0.922500
4.040700 0.920800
4.078900 0.939200
4.117100 0.930400
4.155200 0.925900
4.193400 0.926000
4.231500 0.934400
4.269700 0.923300
4.307800 0.926900
4.346000 0.934000
4.384100 0.942300
4.422300 0.950300
4.460400 0.955000
4.498600 0.965400
4.536700 0.978800
4.574900 0.968200
4.613000 0.954800
4.651200 0.935700
4.689300 0.918300
4.727500 0.908700
4.765600 0.900200
4.803800 0.895900
4.841900 0.882500
4.880100 0.876000
4.918200 0.870100
4.956400 0.856000
4.994500 0.852100
5.032700 0.853100
5.070800 0.863500
5.109000 0.849400
5.147200 0.826500
5.185300 0.813700
5.223500 0.817600
5.261600 0.819600
5.299800 0.822000
5.337900 0.830100
5.376100 0.840000
5.414200 0.839300
5.452400 0.819900
5.490500 0.808500
5.528700 0.826100
5.566800 0.806100
5.605000 0.823400
5.643100 0.827400
5.681300 0.825300
5.719400 0.829000
5.757600 0.834300
5.795700 0.844200
5.833900 0.850600
5.872000 0.859200
5.910200 0.866400
5.948300 0.908400
5.986500 1.013500
6.024600 1.001700
6.062800 1.014200
6.100900 1.032200
6.139100 1.037800
6.177300 1.039800
6.215400 1.043500
6.253600 1.044200
6.291700 1.039800
6.329900 1.035300
6.368000 1.032000
6.406200 1.049200
6.444300 1.088300
6.482500 1.159700
6.520600 1.056800
6.558800 0.983900
6.596900 0.921700
6.635100 0.887200
6.673200 0.859800
6.711400 0.833500
6.749500 0.820800
6.787700 0.804600
6.825800 0.772900
6.864000 0.753000
6.902100 0.734200
6.940300 0.715600
6.978400 0.698700
7.016600 0.685200
7.054700 0.672700
7.092900 0.657700
7.131000 0.649300
7.169200 0.657300
7.207300 0.640700
7.245500 0.631900
7.283700 0.623800
7.321800 0.623100
7.360000 0.620700
7.398100 0.615400
7.436300 0.621000
7.474400 0.626700
7.512600 0.620000
7.550700 0.617700
7.588900 0.621700
7.627000 0.627600
7.665200 0.636300
7.703300 0.644100
7.741500 0.648900
7.779600 0.657800
7.817800 0.662000
7.855900 0.657200
7.894100 0.648900
7.932200 0.626800
7.970400 0.625800
8.008500 0.627900
8.046700 0.637900
8.084800 0.642900
8.123000 0.653600
8.161100 0.669500
8.199300 0.685200
8.237400 0.703300
8.275600 0.720100
8.313800 0.738400
8.351900 0.760700
8.390100 0.791700
8.428200 0.844400
8.466400 0.895600
8.504500 0.949100
8.542700 1.011600
8.580800 1.059400
8.619000 1.097200
8.657100 1.107200
8.695300 1.114000
8.733400 1.120100
8.771600 1.138500
8.809700 1.161000
8.847900 1.204900
8.886000 1.255200
8.924200 1.310300
8.962300 1.371300
9.000500 1.424500
9.038600 1.462500
9.076800 1.490500
9.114900 1.489200
9.153100 1.473300
9.191200 1.458600
9.229400 1.436800
9.267500 1.409800
9.305700 1.384000
9.343900 1.348300
9.382000 1.301700
9.420200 1.283800
9.458300 1.257600
9.496500 1.232300
9.534600 1.223700
9.572800 1.254500
9.610900 1.321100
9.649100 1.349000
9.687200 1.373500
9.725400 1.419500
9.763500 1.433400
9.801700 1.426500
9.839800 1.389800
9.878000 1.280300
9.916100 1.179300
9.954300 1.091400
9.992400 1.008500
10.030600 0.927200
10.068700 0.877300
10.106900 0.847100
10.145000 0.813700
10.183200 0.780100
10.221300 0.762200
10.259500 0.760000
10.297600 0.703200
10.335800 0.692100
10.373900 0.675100
10.412100 0.660800
10.450300 0.647800
10.488400 0.638900
10.526600 0.644000
10.564700 0.643800
10.602900 0.629700
10.641000 0.625400
10.679200 0.631600
10.717300 0.596600
10.755500 0.590800
10.793600 0.585000
10.831800 0.579500
10.869900 0.577500
10.908100 0.581600
10.946200 0.585400
10.984400 0.587900
11.022500 0.584600
11.060700 0.584300
11.098800 0.583900
11.137000 0.585400
11.175100 0.587700
11.213300 0.586800
11.251400 0.590800
11.289600 0.600300
11.327700 0.610200
11.365900 0.622800
11.404000 0.646300
11.442200 0.649800
11.480400 0.650800
11.518500 0.662600
11.556700 0.677800
11.594800 0.691900
11.633000 0.707400
11.671100 0.724000
11.709300 0.743800
11.747400 0.787800
11.785600 0.819400
11.823700 0.855100
11.861900 0.924700
11.900000 0.912000
11.938200 0.956900
11.976300 1.007700
12.014500 1.069600
12.052600 1.050100
12.090800 0.989300
12.128900 0.942300
12.167100 0.891600
12.205200 0.853600
12.243400 0.765700
12.281500 0.740300
12.319700 0.730500
12.357800 0.731500
12.396000 0.739400
12.434100 0.770400
12.472300 0.824900
12.510400 0.827800
12.548600 0.802600
12.586800 0.775700
12.624900 0.706600
12.663100 0.672600
12.701200 0.630500
12.739400 0.592000
12.777500 0.552400
12.815700 0.560100
12.853800 0.482300
12.892000 0.432600
12.930100 0.428100
12.968300 0.423600
13.006400 0.419100
13.044600 0.414800
13.082700 0.411600
13.120900 0.410000
13.159000 0.409000
13.197200 0.408700
13.235300 0.409000
13.273500 0.413000
13.311600 0.422500
13.349800 0.435700
13.387900 0.452400
13.426100 0.477700
13.464200 0.554900
13.502400 0.599400
13.540500 0.568400
13.578700 0.595800
13.616900 0.581100
13.655000 0.635800
13.693200 0.675400
13.731300 0.698400
13.769500 0.709500
13.807600 0.634600
13.845800 0.633100
13.883900 0.638500
13.922100 0.660300
13.960200 0.687500
13.998400 0.742200
14.036500 0.850000
14.074700 0.829500
14.112800 0.849700
14.151000 0.868600
14.189100 0.889600
14.227300 0.891900
14.265400 0.901900
14.303600 0.870700
14.341700 0.845400
14.379900 0.817400
14.418000 0.821600
14.456200 0.847800
14.494300 0.890700
14.532500 0.910400
14.570600 0.919000
14.608800 0.915900
14.647000 0.922600
14.685100 0.908500
14.723300 0.881500
14.761400 0.848800
14.799600 0.814000
14.837700 0.809100
14.875900 0.811200
14.914000 0.810900
14.952200 0.809400
14.990300 0.815500
15.028500 0.826800
15.066600 0.841800
15.104800 0.875400
15.142900 0.907300
15.181100 0.924100
15.219200 0.958100
15.257400 0.983200
15.295500 1.031500
15.333700 1.110000
15.371800 1.175200
15.410000 1.209100
15.448100 1.255900
15.486300 1.286300
15.524400 1.294900
15.562600 1.292200
15.600700 1.284000
15.638900 1.277200
15.677000 1.283400
15.715200 1.278700
15.753400 1.287200
15.791500 1.295600
15.829700 1.289800
15.867800 1.307100
15.906000 1.314000
15.944100 1.280200
15.982300 1.268400
16.020400 1.257800
16.058600 1.247000
16.096700 1.233700
16.134900 1.216300
16.173000 1.175200
16.211200 1.149200
16.249300 1.083000
16.287500 1.030600
16.325600 0.991300
16.363800 0.971200
16.401900 0.968300
16.440100 0.984300
16.478200 0.980400
16.516400 0.985900
16.554500 0.981300
16.592700 0.964100
16.630800 0.950100
16.669000 0.948200
16.707100 0.950400
16.745300 0.958600
16.783500 0.969800
16.821600 0.998300
16.859800 1.014000
16.897900 1.026900
16.936100 1.027100
16.974200 1.036400
17.012400 1.058500
17.050500 1.074900
17.088700 1.067000
17.126800 1.071400
17.165000 1.080400
17.203100 1.089300
17.241300 1.110600
17.279400 1.129900
17.317600 1.150300
17.355700 1.175400
17.393900 1.190900
17.432000 1.225100
17.470200 1.205600
17.508300 1.186000
17.546500 1.184900
17.584600 1.190100
17.622800 1.201500
17.660900 1.266600
17.699100 1.235200
17.737200 1.223400
17.775400 1.211400
17.813600 1.209100
17.851700 1.217500
17.889900 1.242400
17.928000 1.241200
17.966200 1.220800
18.004300 1.213100
18.042500 1.212100
18.080600 1.215700
18.118800 1.225200
18.156900 1.244200
18.195100 1.271600
18.233200 1.310500
18.271400 1.372200
18.309500 1.494900
18.347700 1.533100
18.385800 1.512300
18.424000 1.448300
18.462100 1.412700
18.500300 1.427400
18.538400 1.409200
18.576600 1.391700
18.614700 1.376400
18.652900 1.358100
18.691000 1.380200
18.729200 1.495300
18.767300 1.549100
18.805500 1.479900
18.843600 1.449500
18.881800 1.436300
18.920000 1.425700
18.958100 1.394200
18.996300 1.371400
19.034400 1.350900
19.072600 1.328100
19.110700 1.298700
19.148900 1.276500
19.187000 1.268300
19.225200 1.252900
19.263300 1.230100
19.301500 1.200100
19.339600 1.155500
19.377800 1.121500
19.415900 1.096500
19.454100 1.081200
19.492200 1.069600
19.530400 1.059100
19.568500 1.052800
19.606700 1.042700
19.644800 1.046400
19.683000 1.058300
19.721100 1.088600
19.759300 1.159000
19.797400 1.167500
19.835600 1.169400
19.873700 1.192800
19.911900 1.263400
19.950100 1.288200
19.988200 1.317200
20.026400 1.342600
20.064500 1.353800
20.102700 1.377900
20.140800 1.393900
20.179000 1.417900
20.217100 1.447800
20.255300 1.478700
20.293400 1.510900
20.331600 1.537400
20.369700 1.546800
20.407900 1.551300
20.446000 1.529600
20.484200 1.469900
20.522300 1.454900
20.560500 1.439800
20.598600 1.430000
20.636800 1.414200
20.674900 1.380000
20.713100 1.338500
20.751200 1.339300
20.789400 1.342900
20.827500 1.360800
20.865700 1.408400
20.903800 1.488900
20.942000 1.555400
20.980200 1.645100
21.018300 1.689900
21.056500 1.710900
21.094600 1.746900
21.132800 1.785300
21.170900 1.779500
21.209100 1.785500
21.247200 1.770700
21.285400 1.762900
21.323500 1.734200
21.361700 1.707100
21.399800 1.679400
21.438000 1.657200
21.476100 1.652000
21.514300 1.603000
21.552400 1.515900
21.590600 1.458100
21.628700 1.436600
21.666900 1.437600
21.705000 1.424500
21.743200 1.436200
21.781300 1.435300
21.819500 1.447200
21.857600 1.468900
21.895800 1.487700
21.933900 1.544100
21.972100 1.636200
22.010200 1.710500
22.048400 1.702600
22.086600 1.713200
22.124700 1.722200
22.162900 1.658000
22.201000 1.613800
22.239200 1.528100
22.277300 1.454800
22.315500 1.442500
22.353600 1.435200
22.391800 1.437800
22.429900 1.464600
22.468100 1.494500
22.506200 1.536700
22.544400 1.597900
22.582500 1.636800
22.620700 1.654600
22.658800 1.637500
22.697000 1.656800
22.735100 1.634200
22.773300 1.602800
22.811400 1.599400
22.849600 1.633800
22.887700 1.669000
22.925900 1.648700
22.964000 1.629900
23.002200 1.573700
23.040300 1.559900
23.078500 1.572000
23.116700 1.583800
23.154800 1.564300
23.193000 1.559800
23.231100 1.551600
23.269300 1.528700
23.307400 1.523600
23.345600 1.572400
23.383700 1.649300
23.421900 1.722900
23.460000 1.789200
23.498200 1.836100
23.536300 1.842000
23.574500 1.823500
23.612600 1.789300
23.650800 1.766700
23.688900 1.736500
23.727100 1.695200
23.765200 1.685400
23.803400 1.666200
23.841500 1.610900
23.879700 1.579100
23.917800 1.570500
23.956000 1.611400
23.994100 1.638100
24.032300 1.687700
24.070400 1.737700
24.108600 1.728200
24.146700 1.710100
24.184900 1.686700
24.223100 1.639000
24.261200 1.621000
24.299400 1.650700
24.337500 1.684300
24.375700 1.688600
24.413800 1.639400
24.452000 1.564500
24.490100 1.540300
24.528300 1.539600
24.566400 1.559700
24.604600 1.559000
24.642700 1.540000
24.680900 1.518500
24.719000 1.490500
24.757200 1.416400
24.795300 1.371200
24.833500 1.334100
24.871600 1.313200
24.909800 1.308400
24.947900 1.332400
24.986100 1.342100
25.024200 1.351400
25.062400 1.391700
25.100500 1.342300
25.138700 1.319700
25.176800 1.324800
25.215000 1.363300
25.253200 1.418500
25.291300 1.573600
25.329500 1.663300
25.367600 1.710800
25.405800 1.749900
25.443900 1.769400
25.482100 1.777100
25.520200 1.781000
25.558400 1.777200
25.596500 1.781700
25.634700 1.778600
25.672800 1.777500
25.711000 1.782400
25.749100 1.799900
25.787300 1.841300
25.825400 1.835500
25.863600 1.643900
25.901700 1.643400
25.939900 1.686400
25.978000 1.767200
26.016200 1.838800
26.054300 1.886600
26.092500 1.782200
26.130600 1.799000
26.168800 1.850700
26.206900 1.892200
26.245100 1.985200
26.283300 2.094100
26.321400 2.245500
26.359600 2.391200
26.397700 2.508500
26.435900 2.444600
26.474000 2.212700
26.512200 2.003100
26.550300 1.867200
26.588500 1.710800
26.626600 1.635000
26.664800 1.563700
26.702900 1.515900
26.741100 1.496300
26.779200 1.487200
26.817400 1.480700
26.855500 1.477400
26.893700 1.474400
26.931800 1.447800
26.970000 1.469800
27.008100 1.528500
27.046300 1.619100
27.084400 1.677000
27.122600 1.729300
27.160700 1.790700
27.198900 1.751800
27.237000 1.766100
27.275200 1.766000
27.313300 1.763500
27.351500 1.704500
27.389700 1.678300
27.427800 1.646900
27.466000 1.624900
27.504100 1.607300
27.542300 1.628100
27.580400 1.669100
27.618600 1.645400
27.656700 1.630200
27.694900 1.647800
27.733000 1.907000
27.771200 2.135800
27.809300 2.244900
27.847500 2.259200
27.885600 2.255600
27.923800 2.276900
27.961900 2.278500
28.000100 2.276400
28.038200 2.221400
28.076400 2.153700
28.114500 2.024600
28.152700 1.888800
28.190800 1.756000
28.229000 1.698600
28.267100 1.617600
28.305300 1.608600
28.343400 1.606300
28.381600 1.626500
28.419800 1.603700
28.457900 1.624500
28.496100 1.652300
28.534200 1.695100
28.572400 1.832700
28.610500 1.840900
28.648700 1.938600
28.686800 2.005300
28.725000 2.145500
28.763100 2.258200
28.801300 2.289100
28.839400 2.368500
28.877600 2.362200
28.915700 2.216000
28.953900 2.070600
28.992000 2.033100
29.030200 1.985800
29.068300 1.990800
29.106500 2.002500
29.144600 2.083400
29.182800 2.168500
29.220900 2.287500
29.259100 2.391300
29.297200 2.447900
29.335400 2.502200
29.373500 2.533000
29.411700 2.511800
29.449900 2.301300
29.488000 2.250200
29.526200 2.246700
29.564300 2.265800
29.602500 2.119300
29.640600 2.017900
29.678800 1.932000
29.716900 1.877800
29.755100 1.832600
29.793200 1.816400
29.831400 1.829700
29.869500 1.865800
