set title 'mp-639774 - Density of States'
set xlabel 'Energy (eV)'
set ylabel 'DOS (states/eV)'
set grid
set xrange [-10:10]
set yrange [0:4.989]
set xzeroaxis lt -1
set terminal png size 800,600
set output 'mp-639774_dos_gnuplot.png'
plot '-' using 1:2 with lines title 'DOS'
-41.059200 0.000000
-40.997200 0.000000
-40.935300 0.000000
-40.873300 0.000000
-40.811300 0.000000
-40.749400 0.000000
-40.687400 0.000000
-40.625500 0.000000
-40.563500 0.000000
-40.501600 0.000000
-40.439600 0.000000
-40.377700 0.000000
-40.315700 0.000000
-40.253800 0.000000
-40.191800 0.000000
-40.129900 0.000000
-40.067900 0.000000
-40.006000 0.000000
-39.944000 0.000000
-39.882000 0.000000
-39.820100 0.000000
-39.758100 0.000000
-39.696200 0.000000
-39.634200 0.000000
-39.572300 0.000000
-39.510300 0.000000
-39.448400 0.000000
-39.386400 0.000000
-39.324500 0.000000
-39.262500 0.000000
-39.200600 0.000000
-39.138600 0.000000
-39.076700 0.000000
-39.014700 0.000000
-38.952700 0.000000
-38.890800 0.000000
-38.828800 0.000000
-38.766900 0.000000
-38.704900 0.000000
-38.643000 0.000000
-38.581000 0.000000
-38.519100 0.000000
-38.457100 0.000000
-38.395200 0.000000
-38.333200 0.000000
-38.271300 0.000000
-38.209300 0.000000
-38.147400 0.000000
-38.085400 0.000000
-38.023400 0.000000
-37.961500 0.000000
-37.899500 0.000000
-37.837600 0.000000
-37.775600 0.000000
-37.713700 0.000000
-37.651700 0.000000
-37.589800 0.000000
-37.527800 0.000000
-37.465900 0.000000
-37.403900 0.000000
-37.342000 0.000000
-37.280000 0.000000
-37.218100 0.000000
-37.156100 0.000000
-37.094100 0.000000
-37.032200 0.000000
-36.970200 0.000000
-36.908300 0.000000
-36.846300 0.000000
-36.784400 0.000000
-36.722400 0.000000
-36.660500 0.000000
-36.598500 0.000000
-36.536600 0.000000
-36.474600 0.000000
-36.412700 0.000000
-36.350700 0.000000
-36.288800 0.000000
-36.226800 0.000000
-36.164900 0.000000
-36.102900 0.000000
-36.040900 0.000000
-35.979000 0.000000
-35.917000 0.000000
-35.855100 0.000000
-35.793100 0.000000
-35.731200 0.000000
-35.669200 0.000000
-35.607300 0.000000
-35.545300 0.000000
-35.483400 0.000000
-35.421400 16.205600
-35.359500 0.000000
-35.297500 0.000000
-35.235600 0.000000
-35.173600 0.000000
-35.111600 0.000000
-35.049700 0.000000
-34.987700 0.000000
-34.925800 0.000000
-34.863800 0.000000
-34.801900 0.000000
-34.739900 0.000000
-34.678000 0.000000
-34.616000 0.000000
-34.554100 0.000000
-34.492100 0.000000
-34.430200 0.000000
-34.368200 0.000000
-34.306300 0.000000
-34.244300 0.000000
-34.182300 0.000000
-34.120400 0.000000
-34.058400 0.000000
-33.996500 0.000000
-33.934500 0.000000
-33.872600 0.000000
-33.810600 0.000000
-33.748700 0.000000
-33.686700 0.000000
-33.624800 0.000000
-33.562800 0.000000
-33.500900 0.000000
-33.438900 0.000000
-33.377000 0.000000
-33.315000 0.000000
-33.253000 0.000000
-33.191100 0.000000
-33.129100 0.000000
-33.067200 0.000000
-33.005200 0.000000
-32.943300 0.000000
-32.881300 0.000000
-32.819400 0.000000
-32.757400 0.000000
-32.695500 0.000000
-32.633500 0.000000
-32.571600 0.000000
-32.509600 0.000000
-32.447700 0.000000
-32.385700 0.000000
-32.323700 0.000000
-32.261800 0.000000
-32.199800 0.000000
-32.137900 0.000000
-32.075900 0.000000
-32.014000 0.000000
-31.952000 0.000000
-31.890100 0.000000
-31.828100 0.000000
-31.766200 0.000000
-31.704200 0.000000
-31.642300 0.000000
-31.580300 0.000000
-31.518400 0.000000
-31.456400 0.000000
-31.394400 0.000000
-31.332500 0.000000
-31.270500 0.000000
-31.208600 0.000000
-31.146600 0.000000
-31.084700 0.000000
-31.022700 0.000000
-30.960800 0.000000
-30.898800 0.000000
-30.836900 0.000000
-30.774900 0.000000
-30.713000 0.000000
-30.651000 0.000000
-30.589100 0.000000
-30.527100 0.000000
-30.465100 0.000000
-30.403200 0.000000
-30.341200 0.000000
-30.279300 0.000000
-30.217300 0.000000
-30.155400 0.000000
-30.093400 0.000000
-30.031500 0.000000
-29.969500 0.000000
-29.907600 0.000000
-29.845600 0.000000
-29.783700 0.000000
-29.721700 0.000000
-29.659800 0.000000
-29.597800 0.000000
-29.535800 0.000000
-29.473900 0.000000
-29.411900 0.000000
-29.350000 0.000000
-29.288000 0.000000
-29.226100 0.000000
-29.164100 0.000000
-29.102200 0.000000
-29.040200 0.000000
-28.978300 0.000000
-28.916300 0.000000
-28.854400 0.000000
-28.792400 0.000000
-28.730500 0.000000
-28.668500 0.000000
-28.606500 0.000000
-28.544600 0.000000
-28.482600 0.000000
-28.420700 0.000000
-28.358700 0.000000
-28.296800 0.000000
-28.234800 0.000000
-28.172900 0.000000
-28.110900 0.000000
-28.049000 0.000000
-27.987000 0.000000
-27.925100 0.000000
-27.863100 0.000000
-27.801200 0.000000
-27.739200 0.000000
-27.677200 0.000000
-27.615300 0.000000
-27.553300 0.000000
-27.491400 0.000000
-27.429400 0.000000
-27.367500 0.000000
-27.305500 0.000000
-27.243600 0.000000
-27.181600 0.000000
-27.119700 0.000000
-27.057700 0.000000
-26.995800 0.000000
-26.933800 0.000000
-26.871900 0.000000
-26.809900 0.000000
-26.747900 0.000000
-26.686000 0.000000
-26.624000 0.000000
-26.562100 0.000000
-26.500100 0.000000
-26.438200 0.000000
-26.376200 0.000000
-26.314300 0.000000
-26.252300 0.000000
-26.190400 0.000000
-26.128400 0.000000
-26.066500 0.000000
-26.004500 0.000000
-25.942600 0.000000
-25.880600 0.000000
-25.818700 0.000000
-25.756700 0.000000
-25.694700 0.000000
-25.632800 0.000000
-25.570800 0.000000
-25.508900 0.000000
-25.446900 0.000000
-25.385000 0.000000
-25.323000 0.000000
-25.261100 0.000000
-25.199100 0.000000
-25.137200 0.000000
-25.075200 0.000000
-25.013300 0.000000
-24.951300 0.000000
-24.889400 0.000000
-24.827400 0.000000
-24.765400 0.000000
-24.703500 0.000000
-24.641500 0.000000
-24.579600 0.000000
-24.517600 0.000000
-24.455700 0.000000
-24.393700 0.000000
-24.331800 0.000000
-24.269800 0.000000
-24.207900 0.000000
-24.145900 0.000000
-24.084000 0.000000
-24.022000 0.000000
-23.960100 0.000000
-23.898100 0.000000
-23.836100 0.000000
-23.774200 0.000000
-23.712200 0.000000
-23.650300 0.000000
-23.588300 0.000000
-23.526400 0.000000
-23.464400 0.000000
-23.402500 0.000000
-23.340500 0.000000
-23.278600 0.000000
-23.216600 0.000000
-23.154700 0.000000
-23.092700 0.000000
-23.030800 0.000000
-22.968800 0.000000
-22.906800 0.000000
-22.844900 0.000000
-22.782900 0.000000
-22.721000 0.000000
-22.659000 0.000000
-22.597100 0.000000
-22.535100 0.000000
-22.473200 0.000000
-22.411200 0.000000
-22.349300 0.000000
-22.287300 0.000000
-22.225400 0.000000
-22.163400 0.000000
-22.101500 0.000000
-22.039500 0.000000
-21.977500 0.000000
-21.915600 0.000000
-21.853600 0.000000
-21.791700 0.000000
-21.729700 0.000000
-21.667800 0.000000
-21.605800 0.000000
-21.543900 0.000000
-21.481900 0.000000
-21.420000 0.000000
-21.358000 0.000000
-21.296100 0.000000
-21.234100 0.000000
-21.172200 0.000000
-21.110200 0.000000
-21.048200 0.000000
-20.986300 0.000000
-20.924300 0.000000
-20.862400 0.000000
-20.800400 0.000000
-20.738500 0.000000
-20.676500 0.000000
-20.614600 0.000000
-20.552600 0.000000
-20.490700 0.000000
-20.428700 0.000000
-20.366800 0.000000
-20.304800 0.000000
-20.242900 0.000000
-20.180900 0.000000
-20.118900 0.000000
-20.057000 0.000000
-19.995000 0.000000
-19.933100 0.000000
-19.871100 0.000000
-19.809200 0.000000
-19.747200 0.000000
-19.685300 0.000000
-19.623300 0.000000
-19.561400 0.000000
-19.499400 0.000000
-19.437500 0.000000
-19.375500 0.000000
-19.313600 0.000000
-19.251600 0.000000
-19.189600 0.000000
-19.127700 0.000000
-19.065700 0.000000
-19.003800 0.000000
-18.941800 0.000000
-18.879900 0.000000
-18.817900 0.000000
-18.756000 0.000000
-18.694000 0.000000
-18.632100 0.000000
-18.570100 0.000000
-18.508200 0.000000
-18.446200 0.000000
-18.384300 0.000000
-18.322300 0.000000
-18.260300 0.000000
-18.198400 0.000000
-18.136400 0.000000
-18.074500 0.000000
-18.012500 0.000000
-17.950600 0.000000
-17.888600 0.000000
-17.826700 0.000000
-17.764700 0.000000
-17.702800 0.000000
-17.640800 0.000000
-17.578900 28.032600
-17.516900 17.226700
-17.455000 15.975100
-17.393000 15.403300
-17.331000 23.188700
-17.269100 0.000000
-17.207100 0.000000
-17.145200 0.000000
-17.083200 0.000000
-17.021300 0.000000
-16.959300 0.000000
-16.897400 0.000000
-16.835400 0.000000
-16.773500 0.000000
-16.711500 0.000000
-16.649600 0.000000
-16.587600 0.000000
-16.525700 0.000000
-16.463700 0.000000
-16.401700 0.000000
-16.339800 0.000000
-16.277800 0.000000
-16.215900 0.000000
-16.153900 0.000000
-16.092000 0.000000
-16.030000 0.000000
-15.968100 0.000000
-15.906100 0.000000
-15.844200 0.000000
-15.782200 0.000000
-15.720300 0.000000
-15.658300 0.000000
-15.596400 0.000000
-15.534400 0.000000
-15.472500 0.000000
-15.410500 0.000000
-15.348500 0.000000
-15.286600 0.000000
-15.224600 0.000000
-15.162700 0.000000
-15.100700 0.000000
-15.038800 0.000000
-14.976800 0.000000
-14.914900 0.000000
-14.852900 0.000000
-14.791000 0.000000
-14.729000 0.000000
-14.667100 0.000000
-14.605100 0.000000
-14.543200 0.000000
-14.481200 0.000000
-14.419200 0.000000
-14.357300 0.000000
-14.295300 0.000000
-14.233400 0.000000
-14.171400 0.000000
-14.109500 0.000000
-14.047500 0.000000
-13.985600 0.000000
-13.923600 0.000000
-13.861700 0.000000
-13.799700 0.000000
-13.737800 0.000000
-13.675800 0.000000
-13.613900 0.000000
-13.551900 0.000000
-13.489900 0.000000
-13.428000 0.000000
-13.366000 0.000000
-13.304100 0.000000
-13.242100 0.000000
-13.180200 0.000000
-13.118200 0.000000
-13.056300 0.000000
-12.994300 0.000000
-12.932400 0.000000
-12.870400 0.000000
-12.808500 0.000000
-12.746500 0.000000
-12.684600 0.000000
-12.622600 0.000000
-12.560600 0.000000
-12.498700 0.000000
-12.436700 0.000000
-12.374800 0.000000
-12.312800 0.000000
-12.250900 0.000000
-12.188900 0.000000
-12.127000 0.000000
-12.065000 0.000000
-12.003100 0.000000
-11.941100 0.000000
-11.879200 0.000000
-11.817200 0.000000
-11.755300 0.000000
-11.693300 0.000000
-11.631300 0.000000
-11.569400 0.000000
-11.507400 0.000000
-11.445500 0.000000
-11.383500 0.000000
-11.321600 0.000000
-11.259600 0.000000
-11.197700 0.000000
-11.135700 0.000000
-11.073800 0.000000
-11.011800 0.000000
-10.949900 0.000000
-10.887900 0.000000
-10.826000 0.000000
-10.764000 0.000000
-10.702000 0.000000
-10.640100 0.000000
-10.578100 0.000000
-10.516200 0.000000
-10.454200 0.000000
-10.392300 0.000000
-10.330300 0.000000
-10.268400 0.000000
-10.206400 0.000000
-10.144500 0.000000
-10.082500 0.000000
-10.020600 0.000000
-9.958600 0.000000
-9.896700 0.000000
-9.834700 0.000000
-9.772700 0.000000
-9.710800 0.000000
-9.648800 0.000000
-9.586900 0.000000
-9.524900 0.000000
-9.463000 0.000000
-9.401000 0.000000
-9.339100 0.000000
-9.277100 0.000000
-9.215200 0.000000
-9.153200 0.000000
-9.091300 0.000000
-9.029300 0.000000
-8.967400 0.000000
-8.905400 0.000000
-8.843400 0.000000
-8.781500 0.000000
-8.719500 0.000000
-8.657600 0.000000
-8.595600 0.000000
-8.533700 0.000000
-8.471700 0.000000
-8.409800 0.000000
-8.347800 0.000000
-8.285900 0.000000
-8.223900 0.000000
-8.162000 0.000000
-8.100000 0.000000
-8.038100 0.000000
-7.976100 0.000000
-7.914100 0.000000
-7.852200 0.000000
-7.790200 0.000000
-7.728300 0.000000
-7.666300 0.000000
-7.604400 0.000000
-7.542400 0.000000
-7.480500 0.000000
-7.418500 0.000000
-7.356600 0.000000
-7.294600 0.000000
-7.232700 0.000000
-7.170700 0.000000
-7.108800 0.000000
-7.046800 0.000000
-6.984800 0.000000
-6.922900 0.000000
-6.860900 0.000000
-6.799000 0.000000
-6.737000 0.000000
-6.675100 0.000000
-6.613100 0.000000
-6.551200 0.000000
-6.489200 0.000000
-6.427300 0.000000
-6.365300 0.000000
-6.303400 0.000000
-6.241400 0.000000
-6.179500 0.000000
-6.117500 0.000000
-6.055600 0.000000
-5.993600 0.000000
-5.931600 0.000000
-5.869700 0.000000
-5.807700 0.000000
-5.745800 0.000000
-5.683800 0.000000
-5.621900 0.000000
-5.559900 0.000000
-5.498000 0.000000
-5.436000 0.000000
-5.374100 0.000000
-5.312100 0.000000
-5.250200 0.000000
-5.188200 0.000000
-5.126300 0.000000
-5.064300 0.000000
-5.002300 0.000000
-4.940400 0.000000
-4.878400 0.000000
-4.816500 0.000000
-4.754500 0.000000
-4.692600 0.000000
-4.630600 0.000000
-4.568700 0.000000
-4.506700 0.000000
-4.444800 0.000000
-4.382800 0.000000
-4.320900 0.000000
-4.258900 0.000000
-4.197000 0.000000
-4.135000 0.000000
-4.073000 0.000000
-4.011100 0.000000
-3.949100 0.000000
-3.887200 0.000000
-3.825200 0.000000
-3.763300 0.000000
-3.701300 0.000000
-3.639400 0.000000
-3.577400 0.000000
-3.515500 0.000000
-3.453500 0.000000
-3.391600 0.000000
-3.329600 0.000000
-3.267700 0.000000
-3.205700 0.000000
-3.143700 0.000000
-3.081800 0.000000
-3.019800 0.000000
-2.957900 0.000000
-2.895900 0.000000
-2.834000 0.000000
-2.772000 0.000000
-2.710100 0.000000
-2.648100 0.000000
-2.586200 0.000000
-2.524200 0.000000
-2.462300 0.000000
-2.400300 0.000000
-2.338400 0.000000
-2.276400 0.000000
-2.214400 0.000000
-2.152500 0.000000
-2.090500 0.000000
-2.028600 0.000000
-1.966600 0.056400
-1.904700 0.090200
-1.842700 0.130300
-1.780800 0.138100
-1.718800 0.154400
-1.656900 0.168100
-1.594900 0.186200
-1.533000 0.206900
-1.471000 0.221900
-1.409100 0.235400
-1.347100 0.246900
-1.285100 0.259100
-1.223200 0.273600
-1.161200 0.289200
-1.099300 0.305400
-1.037300 0.321800
-0.975400 0.333800
-0.913400 0.347600
-0.851500 0.361200
-0.789500 0.375900
-0.727600 0.390900
-0.665600 0.406000
-0.603700 0.421200
-0.541700 0.436500
-0.479800 0.455300
-0.417800 0.475300
-0.355800 0.495600
-0.293900 0.516200
-0.231900 0.535900
-0.170000 0.555400
-0.108000 0.575400
-0.046100 0.599000
0.015900 0.624100
0.077800 0.710300
0.139800 0.736400
0.201700 0.757300
0.263700 0.741600
0.325600 0.745500
0.387600 0.761500
0.449500 0.782600
0.511500 0.810400
0.573500 0.847000
0.635400 0.877300
0.697400 0.914500
0.759300 1.024100
0.821300 1.169700
0.883200 2.895200
0.945200 1.535100
1.007100 1.093300
1.069100 0.986600
1.131000 0.863900
1.193000 0.699700
1.254900 1.940400
1.316900 1.324900
1.378800 1.195300
1.440800 1.114300
1.502800 1.107800
1.564700 1.112000
1.626700 1.153000
1.688600 1.159800
1.750600 1.441900
1.812500 1.443700
1.874500 1.514000
1.936400 1.721200
1.998400 1.818600
2.060300 1.937000
2.122300 2.697200
2.184200 3.687100
2.246200 4.279900
2.308100 3.447500
2.370100 2.663300
2.432100 2.247800
2.494000 1.997800
2.556000 1.960900
2.617900 2.230300
2.679900 2.187300
2.741800 2.249800
2.803800 2.441800
2.865700 2.618300
2.927700 2.433100
2.989600 2.129000
3.051600 1.879700
3.113500 1.521200
3.175500 1.283000
3.237400 1.236700
3.299400 0.918600
3.361400 0.857700
3.423300 0.843300
3.485300 1.651300
3.547200 1.794700
3.609200 2.426900
3.671100 2.386800
3.733100 2.411600
3.795000 2.009400
3.857000 1.933700
3.918900 1.835200
3.980900 1.750700
4.042800 1.727100
4.104800 1.357000
4.166700 1.315200
4.228700 1.371600
4.290600 1.413300
4.352600 1.411000
4.414600 1.451400
4.476500 1.928900
4.538500 2.573800
4.600400 3.755100
4.662400 3.987000
4.724300 4.116400
4.786300 4.384200
4.848200 4.535400
4.910200 3.455000
4.972100 3.407500
5.034100 3.294800
5.096000 3.204600
5.158000 2.996200
5.219900 2.650200
5.281900 2.200700
5.343900 2.003500
5.405800 1.885800
5.467800 1.775000
5.529700 1.813200
5.591700 1.562700
5.653600 1.476700
5.715600 1.437600
5.777500 1.304800
5.839500 1.254600
5.901400 1.199500
5.963400 1.160900
6.025300 1.239600
6.087300 0.997100
6.149200 1.277100
6.211200 0.535200
6.273200 0.407600
6.335100 0.072100
6.397100 0.090100
6.459000 0.067900
6.521000 0.071500
6.582900 0.074900
6.644900 0.078100
6.706800 0.081200
6.768800 0.084100
6.830700 0.089100
6.892700 0.094800
6.954600 0.198500
7.016600 0.285700
7.078500 0.360000
7.140500 0.497700
7.202500 0.659900
7.264400 0.784300
7.326400 1.368000
7.388300 2.114200
7.450300 4.313400
7.512200 3.198500
7.574200 2.641700
7.636100 2.522200
7.698100 2.256900
7.760000 1.921700
7.822000 1.581600
7.883900 1.514600
7.945900 1.308900
8.007800 1.232900
8.069800 1.130400
8.131800 1.048800
8.193700 0.942900
8.255700 0.935300
8.317600 0.971100
8.379600 1.039700
8.441500 1.272400
8.503500 1.999200
8.565400 2.244200
8.627400 1.828100
8.689300 1.720300
8.751300 1.668400
8.813200 1.737100
8.875200 1.583900
8.937100 1.558700
8.999100 1.543200
9.061100 1.532800
9.123000 1.468400
9.185000 1.440500
9.246900 1.384900
9.308900 1.329200
9.370800 1.298600
9.432800 1.302800
9.494700 1.315000
9.556700 1.415400
9.618600 1.546300
9.680600 1.656700
9.742500 1.763600
9.804500 1.666600
9.866400 1.543100
9.928400 1.367900
9.990400 1.230600
10.052300 1.146300
10.114300 1.189400
10.176200 1.240700
10.238200 1.462400
10.300100 1.777300
10.362100 2.042500
10.424000 2.228900
10.486000 1.824100
10.547900 1.642300
10.609900 1.443300
10.671800 1.216700
10.733800 1.095600
10.795700 1.120300
10.857700 1.109000
10.919700 1.155300
10.981600 0.997400
11.043600 0.907600
11.105500 1.174000
11.167500 1.582800
11.229400 2.742900
11.291400 2.784300
11.353300 2.471300
11.415300 2.212200
11.477200 2.168100
11.539200 1.959800
11.601100 1.790200
11.663100 1.895600
11.725000 2.090800
11.787000 1.731100
11.849000 1.694700
11.910900 1.624800
11.972900 1.589400
12.034800 1.530700
12.096800 1.619700
12.158700 1.459400
12.220700 1.653100
12.282600 1.806700
12.344600 2.028200
12.406500 1.981300
12.468500 1.973300
12.530400 2.119100
12.592400 2.088700
12.654300 2.141200
12.716300 2.293700
12.778300 2.284300
12.840200 2.308600
12.902200 2.252200
12.964100 2.291900
13.026100 2.271500
13.088000 2.142300
13.150000 1.714800
13.211900 1.563200
13.273900 1.508400
13.335800 1.416200
13.397800 1.296400
13.459700 1.193900
13.521700 1.076600
13.583600 1.040600
13.645600 0.998300
13.707600 0.967400
13.769500 0.985000
13.831500 1.023400
13.893400 1.468400
13.955400 1.095800
14.017300 1.166100
14.079300 1.271800
14.141200 1.346700
14.203200 1.416600
14.265100 1.564200
14.327100 1.465600
14.389000 1.206800
14.451000 0.895400
14.512900 0.745400
14.574900 0.789200
14.636800 1.048000
14.698800 0.887200
14.760800 0.967800
14.822700 1.021100
14.884700 1.046200
14.946600 1.082400
15.008600 1.358100
15.070500 1.532200
15.132500 1.925700
15.194400 2.110000
15.256400 1.919400
15.318300 1.861000
15.380300 1.604200
15.442200 1.688400
15.504200 1.932700
15.566100 2.164500
15.628100 2.207300
15.690100 2.267000
15.752000 2.113400
15.814000 2.079500
15.875900 1.816700
15.937900 1.613900
15.999800 1.710500
16.061800 1.905900
16.123700 1.968700
16.185700 2.117900
16.247600 2.269400
16.309600 2.175000
16.371500 1.728400
16.433500 1.341300
16.495400 1.121100
16.557400 0.986600
16.619400 1.040900
16.681300 1.108700
16.743300 1.198500
16.805200 1.331200
16.867200 1.240500
16.929100 1.277600
16.991100 1.361000
17.053000 1.432300
17.115000 1.481700
17.176900 1.782200
17.238900 1.935000
17.300800 1.881300
17.362800 1.884700
17.424700 2.006400
17.486700 2.015600
17.548700 1.881600
17.610600 1.919600
17.672600 1.890700
17.734500 1.893400
17.796500 1.919400
17.858400 1.930700
17.920400 2.005200
17.982300 2.112600
18.044300 2.300100
18.106200 2.748300
18.168200 3.281700
18.230100 3.061200
18.292100 2.799400
18.354000 3.150100
18.416000 2.815400
18.478000 3.271900
18.539900 2.085200
18.601900 1.954300
18.663800 2.380300
18.725800 2.193700
18.787700 1.936900
18.849700 1.968600
18.911600 1.431600
18.973600 1.318600
19.035500 1.577200
19.097500 1.817100
19.159400 2.026000
19.221400 2.129200
19.283300 2.171900
19.345300 2.265000
19.407300 2.024000
19.469200 1.883100
19.531200 1.809600
19.593100 1.601200
19.655100 1.477300
19.717000 1.372500
19.779000 1.474700
19.840900 1.454700
19.902900 1.360000
19.964800 1.195400
20.026800 1.218800
20.088700 1.304100
20.150700 1.426800
20.212600 1.365900
20.274600 1.382900
20.336600 1.382600
20.398500 1.348300
20.460500 1.317200
20.522400 1.286000
20.584400 1.335100
20.646300 1.597800
20.708300 2.001100
20.770200 2.935500
20.832200 2.786400
20.894100 2.671000
20.956100 2.336600
21.018000 2.168800
21.080000 2.159900
21.141900 2.167800
21.203900 2.755500
21.265900 2.805400
21.327800 2.948300
21.389800 3.076600
21.451700 2.742700
21.513700 2.007000
21.575600 1.771000
21.637600 1.641900
21.699500 1.776500
21.761500 1.750000
21.823400 2.098800
21.885400 1.828000
21.947300 1.819500
22.009300 1.603200
