set title 'mp-1096826 - Density of States'
set xlabel 'Energy (eV)'
set ylabel 'DOS (states/eV)'
set grid
set xrange [-10:10]
set yrange [0:0.845]
set xzeroaxis lt -1
set terminal png size 800,600
set output 'mp-1096826_dos_gnuplot.png'
plot '-' using 1:2 with lines title 'DOS'
-14.169100 0.000000
-14.107800 0.000000
-14.046600 0.000000
-13.985300 0.000000
-13.924000 0.000000
-13.862800 0.000000
-13.801500 0.000000
-13.740300 0.000000
-13.679000 0.000000
-13.617800 0.000000
-13.556500 0.000000
-13.495200 0.000000
-13.434000 0.000000
-13.372700 0.000000
-13.311500 0.000000
-13.250200 0.000000
-13.189000 0.000000
-13.127700 0.000000
-13.066400 0.000000
-13.005200 0.000000
-12.943900 0.000000
-12.882700 0.000000
-12.821400 0.000000
-12.760200 0.000000
-12.698900 0.000000
-12.637600 0.000000
-12.576400 0.000000
-12.515100 0.000000
-12.453900 0.000000
-12.392600 0.000000
-12.331400 0.000000
-12.270100 0.000000
-12.208800 0.000000
-12.147600 0.000000
-12.086300 0.000000
-12.025100 0.000000
-11.963800 0.000000
-11.902600 0.000000
-11.841300 0.000000
-11.780000 0.000000
-11.718800 0.000000
-11.657500 0.000000
-11.596300 0.000000
-11.535000 0.000000
-11.473800 0.000000
-11.412500 0.000000
-11.351200 0.000000
-11.290000 0.000000
-11.228700 0.000000
-11.167500 0.000000
-11.106200 0.000000
-11.045000 0.000000
-10.983700 0.000000
-10.922400 0.000000
-10.861200 0.000000
-10.799900 0.000000
-10.738700 0.000000
-10.677400 0.000000
-10.616100 0.000000
-10.554900 0.000000
-10.493600 0.000000
-10.432400 0.000000
-10.371100 0.000000
-10.309900 0.000000
-10.248600 0.000000
-10.187300 0.000000
-10.126100 0.000000
-10.064800 0.000000
-10.003600 0.000000
-9.942300 0.000000
-9.881100 0.000000
-9.819800 0.000000
-9.758500 0.000000
-9.697300 0.000000
-9.636000 0.000000
-9.574800 0.000000
-9.513500 0.000000
-9.452300 0.000000
-9.391000 0.000000
-9.329700 0.000000
-9.268500 0.000000
-9.207200 0.000000
-9.146000 0.000000
-9.084700 0.000000
-9.023500 0.000000
-8.962200 0.000000
-8.900900 0.000000
-8.839700 0.000000
-8.778400 0.000000
-8.717200 0.000000
-8.655900 0.000000
-8.594700 0.013500
-8.533400 0.039600
-8.472100 0.054900
-8.410900 0.064200
-8.349600 0.075000
-8.288400 0.083800
-8.227100 0.090700
-8.165900 0.098500
-8.104600 0.106000
-8.043300 0.111300
-7.982100 0.117300
-7.920800 0.124200
-7.859600 0.129700
-7.798300 0.134400
-7.737100 0.139500
-7.675800 0.145100
-7.614500 0.150900
-7.553300 0.155000
-7.492000 0.159500
-7.430800 0.163900
-7.369500 0.168800
-7.308200 0.173900
-7.247000 0.178300
-7.185700 0.182200
-7.124500 0.186200
-7.063200 0.190600
-7.002000 0.195100
-6.940700 0.199700
-6.879400 0.203900
-6.818200 0.207700
-6.756900 0.211600
-6.695700 0.215700
-6.634400 0.219800
-6.573200 0.224200
-6.511900 0.228800
-6.450600 0.232600
-6.389400 0.236500
-6.328100 0.240300
-6.266900 0.244500
-6.205600 0.248800
-6.144400 0.253200
-6.083100 0.257700
-6.021800 0.262000
-5.960600 0.266100
-5.899300 0.270400
-5.838100 0.274700
-5.776800 0.279200
-5.715600 0.283800
-5.654300 0.288700
-5.593000 0.293800
-5.531800 0.298900
-5.470500 0.303800
-5.409300 0.308700
-5.348000 0.313900
-5.286800 0.319500
-5.225500 0.325500
-5.164200 0.331700
-5.103000 0.338100
-5.041700 0.344900
-4.980500 0.351600
-4.919200 0.359200
-4.858000 0.367200
-4.796700 0.375900
-4.735400 0.385300
-4.674200 0.395600
-4.612900 0.407200
-4.551700 0.421100
-4.490400 0.437600
-4.429200 0.458800
-4.367900 0.489000
-4.306600 0.529000
-4.245400 0.542200
-4.184100 0.526200
-4.122900 0.535200
-4.061600 0.522100
-4.000300 0.512900
-3.939100 0.508500
-3.877800 0.508700
-3.816600 0.501100
-3.755300 0.495400
-3.694100 0.491100
-3.632800 0.488100
-3.571500 0.486000
-3.510300 0.478900
-3.449000 0.474700
-3.387800 0.470900
-3.326500 0.470100
-3.265300 0.469100
-3.204000 0.466400
-3.142700 0.461000
-3.081500 0.459900
-3.020200 0.460300
-2.959000 0.465300
-2.897700 0.462300
-2.836500 0.460700
-2.775200 0.466900
-2.713900 0.480800
-2.652700 0.511700
-2.591400 0.519800
-2.530200 0.625300
-2.468900 0.601000
-2.407700 0.390200
-2.346400 0.239800
-2.285100 0.127200
-2.223900 0.000000
-2.162600 0.000000
-2.101400 0.000000
-2.040100 0.000000
-1.978900 0.000000
-1.917600 0.000000
-1.856300 0.000000
-1.795100 0.000000
-1.733800 0.000000
-1.672600 0.000000
-1.611300 0.000000
-1.550100 0.000000
-1.488800 0.000000
-1.427500 0.000000
-1.366300 0.000000
-1.305000 0.000000
-1.243800 0.000000
-1.182500 0.000000
-1.121300 0.000000
-1.060000 0.000000
-0.998700 0.000000
-0.937500 0.000000
-0.876200 0.000000
-0.815000 0.000000
-0.753700 0.000000
-0.692400 0.000000
-0.631200 0.000000
-0.569900 0.000000
-0.508700 0.000000
-0.447400 0.000000
-0.386200 0.000000
-0.324900 0.000000
-0.263600 0.000000
-0.202400 0.037800
-0.141100 0.072200
-0.079900 0.084100
-0.018600 0.111600
0.042600 0.166200
0.103900 0.130000
0.165200 0.149500
0.226400 0.157300
0.287700 0.168200
0.348900 0.177200
0.410200 0.193300
0.471400 0.205800
0.532700 0.209800
0.594000 0.220500
0.655200 0.231600
0.716500 0.243100
0.777700 0.256000
0.839000 0.263900
0.900200 0.320600
0.961500 0.333000
1.022800 0.357800
1.084000 0.381600
1.145300 0.410600
1.206500 0.431800
1.267800 0.454000
1.329000 0.479000
1.390300 0.501700
1.451600 0.528800
1.512800 0.565100
1.574100 0.608400
1.635300 0.674000
1.696600 0.768200
1.757800 0.756700
1.819100 0.755700
1.880400 0.738400
1.941600 0.716000
2.002900 0.703200
2.064100 0.691100
2.125400 0.697000
2.186600 0.682500
2.247900 0.660900
2.309200 0.632000
2.370400 0.606200
2.431700 0.490700
2.492900 0.448200
2.554200 0.406600
2.615500 0.348700
2.676700 0.334900
2.738000 0.364300
2.799200 0.384000
2.860500 0.396900
2.921700 0.426500
2.983000 0.455100
3.044300 0.455300
3.105500 0.448000
3.166800 0.450600
3.228000 0.455800
3.289300 0.460100
3.350500 0.465800
3.411800 0.466900
3.473100 0.465500
3.534300 0.464200
3.595600 0.464200
3.656800 0.465000
3.718100 0.466300
3.779300 0.467900
3.840600 0.469800
3.901900 0.471500
3.963100 0.471200
4.024400 0.470200
4.085600 0.468200
4.146900 0.466500
4.208100 0.465900
4.269400 0.465200
4.330700 0.464200
4.391900 0.463400
4.453200 0.462500
4.514400 0.461700
4.575700 0.461100
4.636900 0.460500
4.698200 0.459600
4.759500 0.457500
4.820700 0.478400
4.882000 0.481100
4.943200 0.487300
5.004500 0.494600
5.065700 0.502500
5.127000 0.504900
5.188300 0.508700
5.249500 0.512300
5.310800 0.517200
5.372000 0.521200
5.433300 0.525400
5.494500 0.529600
5.555800 0.535100
5.617100 0.539000
5.678300 0.543100
5.739600 0.546600
5.800800 0.550700
5.862100 0.556000
5.923400 0.561000
5.984600 0.567500
6.045900 0.574500
6.107100 0.581400
6.168400 0.587200
6.229600 0.592600
6.290900 0.598300
6.352200 0.606100
6.413400 0.615400
6.474700 0.624600
6.535900 0.635700
6.597200 0.647900
6.658400 0.661800
6.719700 0.676200
6.781000 0.694500
6.842200 0.748600
6.903500 0.767400
6.964700 0.768300
7.026000 0.750000
7.087200 0.744900
7.148500 0.749000
7.209800 0.737100
7.271000 0.734300
7.332300 0.727500
7.393500 0.722900
7.454800 0.727800
7.516000 0.718100
7.577300 0.708200
7.638600 0.703000
7.699800 0.698100
7.761100 0.695900
7.822300 0.702400
7.883600 0.692600
7.944800 0.685100
8.006100 0.678400
8.067400 0.671100
8.128600 0.667400
8.189900 0.668200
8.251100 0.671300
8.312400 0.663000
8.373600 0.655900
8.434900 0.649500
8.496200 0.645200
8.557400 0.642600
8.618700 0.637700
8.679900 0.634100
8.741200 0.633700
8.802400 0.631800
8.863700 0.627200
8.925000 0.624800
8.986200 0.621200
9.047500 0.616800
9.108700 0.611100
9.170000 0.605500
9.231300 0.602700
9.292500 0.604100
9.353800 0.603100
9.415000 0.599100
9.476300 0.594200
9.537500 0.589200
9.598800 0.586100
9.660100 0.582100
9.721300 0.576300
9.782600 0.572100
9.843800 0.572300
9.905100 0.576900
9.966300 0.574000
10.027600 0.571100
10.088900 0.567300
10.150100 0.562500
10.211400 0.546700
10.272600 0.506700
10.333900 0.468000
10.395100 0.444100
10.456400 0.431900
10.517700 0.397200
10.578900 0.372200
10.640200 0.354500
10.701400 0.345300
10.762700 0.332900
10.823900 0.324800
10.885200 0.311400
10.946500 0.333300
11.007700 0.283200
11.069000 0.273500
11.130200 0.264100
11.191500 0.251400
11.252700 0.247800
11.314000 0.237100
11.375300 0.222400
11.436500 0.215200
11.497800 0.219700
11.559000 0.221700
11.620300 0.213100
11.681500 0.213700
11.742800 0.214300
11.804100 0.199200
11.865300 0.187500
11.926600 0.145600
11.987800 0.097200
12.049100 0.102000
12.110300 0.125400
12.171600 0.133800
12.232900 0.154600
12.294100 0.160100
12.355400 0.171300
12.416600 0.180900
12.477900 0.192700
12.539200 0.200400
12.600400 0.215300
12.661700 0.219600
12.722900 0.228500
12.784200 0.235900
12.845400 0.244000
12.906700 0.252700
12.968000 0.265200
13.029200 0.275000
13.090500 0.279500
13.151700 0.286100
13.213000 0.292500
13.274200 0.299700
13.335500 0.307700
13.396800 0.315300
13.458000 0.323500
13.519300 0.335500
13.580500 0.341500
13.641800 0.346800
13.703000 0.353400
13.764300 0.360700
13.825600 0.368500
13.886800 0.376100
13.948100 0.383700
14.009300 0.391300
14.070600 0.401200
14.131800 0.409600
14.193100 0.416200
14.254400 0.422800
14.315600 0.429700
14.376900 0.437400
14.438100 0.445400
14.499400 0.453700
14.560600 0.462400
14.621900 0.471300
14.683200 0.480700
14.744400 0.490400
14.805700 0.500200
14.866900 0.509200
14.928200 0.518300
14.989400 0.527800
15.050700 0.538200
15.112000 0.549600
15.173200 0.562200
15.234500 0.575900
15.295700 0.591000
15.357000 0.607800
15.418200 0.627400
15.479500 0.652100
15.540800 0.682600
15.602000 0.719400
15.663300 0.771000
15.724500 0.793800
15.785800 0.805200
15.847100 0.771200
15.908300 0.760000
15.969600 0.749500
16.030800 0.760700
16.092100 0.854500
16.153300 0.857200
16.214600 0.850500
16.275900 0.848500
16.337100 0.791400
16.398400 0.802100
16.459600 0.648500
16.520900 0.616300
16.582100 0.569500
16.643400 0.544500
16.704700 0.530400
16.765900 0.524500
16.827200 0.490200
16.888400 0.494000
16.949700 0.511400
17.010900 0.520500
17.072200 0.561900
17.133500 0.607600
17.194700 0.620400
17.256000 0.598100
17.317200 0.601800
17.378500 0.611700
17.439700 0.627800
17.501000 0.661300
17.562300 0.669800
17.623500 0.690400
17.684800 0.709000
17.746000 0.733000
17.807300 0.781800
17.868500 0.821400
17.929800 0.916400
17.991100 0.901000
18.052300 0.876900
18.113600 0.912100
18.174800 0.853700
18.236100 0.815000
18.297300 0.746900
18.358600 0.720700
18.419900 0.697900
18.481100 0.679900
18.542400 0.664800
18.603600 0.649700
18.664900 0.650100
18.726100 0.637300
18.787400 0.642000
18.848700 0.619900
18.909900 0.623200
18.971200 0.649000
19.032400 0.644000
19.093700 0.643800
19.155000 0.681800
19.216200 0.751500
19.277500 0.710000
19.338700 0.629400
19.400000 0.578400
19.461200 0.585500
19.522500 0.680400
19.583800 0.735200
19.645000 0.767000
19.706300 0.786500
19.767500 0.830900
19.828800 0.802000
19.890000 0.768000
19.951300 0.752200
20.012600 0.743000
20.073800 0.717600
20.135100 0.704900
20.196300 0.700600
20.257600 0.710500
20.318800 0.722200
20.380100 0.744600
20.441400 0.767400
20.502600 0.798300
20.563900 0.780000
20.625100 0.770900
20.686400 0.773400
20.747600 0.758800
20.808900 0.747700
20.870200 0.739700
20.931400 0.727600
20.992700 0.722600
21.053900 0.719000
21.115200 0.724000
21.176400 0.718700
21.237700 0.714700
21.299000 0.706900
21.360200 0.690700
21.421500 0.685900
21.482700 0.686200
21.544000 0.689100
21.605200 0.712000
21.666500 0.710500
21.727800 0.728100
21.789000 0.730000
21.850300 0.722400
21.911500 0.718000
21.972800 0.708000
22.034000 0.697200
22.095300 0.696800
22.156600 0.708300
22.217800 0.684000
22.279100 0.680600
22.340300 0.683400
22.401600 0.681300
22.462900 0.692000
22.524100 0.712400
22.585400 0.728300
22.646600 0.719900
22.707900 0.712900
22.769100 0.670500
22.830400 0.713500
22.891700 0.747400
22.952900 0.785900
23.014200 0.840600
23.075400 0.878600
23.136700 0.910500
23.197900 0.949200
23.259200 0.976300
23.320500 0.995400
23.381700 1.020600
23.443000 1.007900
23.504200 0.946100
23.565500 0.906300
23.626700 0.876800
23.688000 0.855300
23.749300 0.837100
23.810500 0.826000
23.871800 0.820600
23.933000 0.814200
23.994300 0.813200
24.055500 0.813200
24.116800 0.796900
24.178100 0.787200
24.239300 0.778700
24.300600 0.768700
24.361800 0.756300
24.423100 0.747800
24.484300 0.735400
24.545600 0.729100
24.606900 0.706900
24.668100 0.695200
24.729400 0.688500
24.790600 0.688100
24.851900 0.689500
24.913100 0.686500
24.974400 0.686000
25.035700 0.688200
25.096900 0.701400
25.158200 0.706800
25.219400 0.709200
25.280700 0.712500
25.341900 0.713700
25.403200 0.715900
25.464500 0.725100
25.525700 0.728200
25.587000 0.725000
25.648200 0.724700
25.709500 0.722900
25.770800 0.719100
25.832000 0.713800
25.893300 0.711200
25.954500 0.714700
26.015800 0.721000
26.077000 0.733800
26.138300 0.749800
26.199600 0.755500
26.260800 0.769000
26.322100 0.766300
26.383300 0.770100
26.444600 0.769800
26.505800 0.766900
26.567100 0.762300
26.628400 0.764900
26.689600 0.772300
26.750900 0.783200
26.812100 0.798900
26.873400 0.837400
26.934600 0.838600
26.995900 0.840800
27.057200 0.854300
27.118400 0.853500
27.179700 0.861000
27.240900 0.885100
27.302200 0.860100
27.363400 0.855400
27.424700 0.857100
27.486000 0.868900
27.547200 0.866900
27.608500 0.865700
27.669700 0.863700
27.731000 0.860900
27.792200 0.861800
27.853500 0.861200
27.914800 0.856500
27.976000 0.850400
28.037300 0.845300
28.098500 0.843900
28.159800 0.843700
28.221000 0.840400
28.282300 0.836800
28.343600 0.834600
28.404800 0.831000
28.466100 0.821700
28.527300 0.818800
28.588600 0.814800
28.649800 0.819000
28.711100 0.812500
28.772400 0.809500
28.833600 0.807200
28.894900 0.807700
28.956100 0.819500
29.017400 0.790300
29.078600 0.781000
29.139900 0.783500
29.201200 0.784100
29.262400 0.785400
29.323700 0.791300
29.384900 0.792200
29.446200 0.785900
29.507500 0.782400
29.568700 0.773900
29.630000 0.771800
29.691200 0.772100
29.752500 0.778300
29.813700 0.780100
29.875000 0.777900
29.936300 0.781200
29.997500 0.783900
30.058800 0.789100
30.120000 0.794200
30.181300 0.801700
30.242500 0.808100
30.303800 0.815900
30.365100 0.839000
30.426300 0.846300
30.487600 0.851900
30.548800 0.843500
30.610100 0.836500
30.671300 0.836000
30.732600 0.841000
30.793900 0.850500
30.855100 0.861800
30.916400 0.876500
30.977600 0.890000
31.038900 0.904300
31.100100 0.912200
31.161400 0.929700
31.222700 0.906200
31.283900 0.885700
31.345200 0.877000
31.406400 0.821900
31.467700 0.815900
31.528900 0.814300
31.590200 0.812100
31.651500 0.805500
31.712700 0.806600
31.774000 0.819000
31.835200 0.834400
31.896500 0.843900
31.957700 0.872300
32.019000 0.879200
32.080300 0.886800
32.141500 0.963400
32.202800 0.980900
32.264000 0.978000
32.325300 0.969700
32.386500 0.971100
32.447800 0.979300
32.509100 0.986000
32.570300 0.998800
32.631600 0.988400
32.692800 0.972300
32.754100 0.963800
32.815400 0.920900
32.876600 0.909600
32.937900 0.887000
32.999100 0.898400
33.060400 0.885200
33.121600 0.866500
33.182900 0.867900
33.244200 0.897500
33.305400 0.940800
33.366700 0.941600
33.427900 0.940500
33.489200 0.936100
33.550400 0.930100
33.611700 0.941200
33.673000 0.967700
33.734200 0.992000
33.795500 0.943400
33.856700 0.956600
33.918000 0.969400
33.979200 1.003400
34.040500 1.026100
34.101800 1.041000
34.163000 1.053700
34.224300 1.034400
34.285500 1.002700
34.346800 0.999900
34.408000 0.990700
34.469300 0.984000
34.530600 0.954500
34.591800 0.961600
34.653100 0.965100
34.714300 0.966000
34.775600 0.909300
34.836800 0.856700
34.898100 0.828900
34.959400 0.810900
35.020600 0.809900
35.081900 0.813300
35.143100 0.814400
35.204400 0.829900
35.265600 0.835400
35.326900 0.832400
35.388200 0.874500
35.449400 0.857600
35.510700 0.884000
35.571900 0.942100
35.633200 0.962300
35.694400 0.941700
35.755700 0.947700
35.817000 0.914600
35.878200 0.894600
35.939500 0.877400
36.000700 0.866400
36.062000 0.851500
36.123300 0.835400
36.184500 0.845400
36.245800 0.872900
36.307000 0.958000
36.368300 0.995100
36.429500 1.043900
36.490800 1.046900
36.552100 1.043300
36.613300 0.982000
36.674600 0.909800
36.735800 0.892600
36.797100 0.884700
36.858300 0.865400
36.919600 0.872100
36.980900 0.888800
37.042100 0.884300
37.103400 0.897000
37.164600 0.904100
37.225900 0.955000
37.287100 0.979300
37.348400 0.978900
37.409700 0.974200
37.470900 0.961200
37.532200 0.989400
37.593400 0.986700
37.654700 0.981500
37.715900 0.975100
37.777200 0.976100
37.838500 1.031200
37.899700 1.051400
37.961000 0.978700
38.022200 0.957700
38.083500 0.936400
38.144700 0.924100
38.206000 0.901400
38.267300 0.871900
38.328500 0.865800
38.389800 0.854000
38.451000 0.860700
38.512300 0.864500
38.573500 0.869800
38.634800 0.879600
38.696100 0.881700
38.757300 0.882200
38.818600 0.891700
38.879800 0.905000
38.941100 0.927100
39.002300 0.950300
39.063600 0.974400
39.124900 1.005900
39.186100 1.018900
39.247400 1.028500
39.308600 0.990500
39.369900 0.963700
39.431200 0.947900
39.492400 0.942500
39.553700 0.942200
39.614900 0.944700
39.676200 0.927000
39.737400 0.894800
39.798700 0.862300
39.860000 0.855500
39.921200 0.836800
39.982500 0.839800
40.043700 0.866800
40.105000 0.875800
40.166200 0.869200
40.227500 0.883200
40.288800 0.898400
40.350000 0.918400
40.411300 0.935100
40.472500 1.006500
40.533800 0.990600
40.595000 0.995600
40.656300 0.989200
40.717600 0.992600
40.778800 0.968800
40.840100 0.963000
40.901300 0.959700
40.962600 0.959300
41.023800 0.971600
41.085100 1.003000
41.146400 1.066000
41.207600 1.055700
41.268900 1.075600
41.330100 1.103600
41.391400 1.139200
41.452600 1.197200
41.513900 1.179700
41.575200 1.165000
41.636400 1.126100
41.697700 1.133400
41.758900 1.125600
41.820200 1.113400
41.881400 1.057400
41.942700 1.020700
42.004000 0.966400
42.065200 0.966700
42.126500 0.956300
42.187700 0.944700
42.249000 0.941000
42.310200 0.942800
42.371500 0.962900
42.432800 0.967400
42.494000 0.974500
42.555300 0.951700
42.616500 0.940300
42.677800 0.909800
42.739100 0.878200
42.800300 0.874100
42.861600 0.860700
42.922800 0.835500
42.984100 0.827600
43.045300 0.824500
43.106600 0.820600
43.167900 0.816500
43.229100 0.827400
43.290400 0.844200
43.351600 0.823900
43.412900 0.830200
43.474100 0.843100
43.535400 0.860600
43.596700 0.805600
43.657900 0.824000
43.719200 0.794100
43.780400 0.824500
43.841700 0.886300
43.902900 0.950100
43.964200 1.029500
44.025500 1.031300
44.086700 1.024100
44.148000 1.088900
44.209200 1.194500
44.270500 1.316100
44.331700 1.302300
44.393000 1.247500
44.454300 1.198100
44.515500 1.167900
44.576800 1.135000
44.638000 1.083000
44.699300 1.044900
44.760500 0.992400
44.821800 0.979700
44.883100 1.016000
44.944300 1.030600
45.005600 1.040100
45.066800 1.063600
45.128100 1.101300
45.189300 1.141400
45.250600 1.158200
45.311900 1.118400
45.373100 1.075200
45.434400 1.001700
45.495600 0.961300
45.556900 0.937700
45.618100 0.915400
45.679400 0.894300
45.740700 0.893100
45.801900 0.887000
45.863200 0.889200
45.924400 0.896500
45.985700 0.944100
46.047000 0.989300
46.108200 1.049700
46.169500 1.067900
46.230700 1.107000
46.292000 1.126400
46.353200 1.116100
46.414500 1.123800
46.475800 1.081400
46.537000 1.051100
46.598300 1.016200
46.659500 0.997300
46.720800 1.001500
46.782000 0.994200
46.843300 0.988600
46.904600 1.002600
46.965800 1.020200
47.027100 1.043400
47.088300 1.069300
47.149600 1.130500
47.210800 1.177700
47.272100 1.161000
47.333400 1.215700
47.394600 1.241500
47.455900 1.261300
47.517100 1.225100
47.578400 1.220500
47.639600 1.194900
47.700900 1.159900
47.762200 1.083400
47.823400 1.011700
47.884700 0.970100
47.945900 0.941700
48.007200 0.915000
48.068400 0.897400
48.129700 0.883400
48.191000 0.893900
48.252200 0.928700
48.313500 0.923400
48.374700 0.937500
48.436000 0.966700
48.497200 0.987800
48.558500 1.018600
48.619800 1.062000
48.681000 1.070300
48.742300 1.083500
48.803500 1.062700
48.864800 1.042800
48.926000 1.015200
48.987300 0.995900
49.048600 0.984600
49.109800 0.986600
49.171100 0.996300
49.232300 1.035800
49.293600 1.071600
49.354900 1.065900
49.416100 1.089600
49.477400 1.164500
49.538600 1.077700
49.599900 1.082100
