set title 'mp-10630 - Density of States'
set xlabel 'Energy (eV)'
set ylabel 'DOS (states/eV)'
set grid
set xrange [-10:10]
set yrange [0:1.440]
set xzeroaxis lt -1
set terminal png size 800,600
set output 'mp-10630_dos_gnuplot.png'
plot '-' using 1:2 with lines title 'DOS'
-6.156100 0.000000
-6.137500 0.000000
-6.118800 0.000000
-6.100100 0.000000
-6.081400 0.000000
-6.062800 0.000000
-6.044100 0.000000
-6.025400 0.000000
-6.006700 0.000000
-5.988100 0.000000
-5.969400 0.000000
-5.950700 0.000000
-5.932000 0.000000
-5.913400 0.000000
-5.894700 0.000000
-5.876000 0.000000
-5.857300 0.000000
-5.838700 0.000000
-5.820000 0.000000
-5.801300 0.000000
-5.782600 0.000000
-5.764000 0.000000
-5.745300 0.000000
-5.726600 0.000000
-5.707900 0.000000
-5.689300 0.000000
-5.670600 0.000000
-5.651900 0.000000
-5.633200 0.000000
-5.614600 0.000000
-5.595900 0.000000
-5.577200 0.000000
-5.558500 0.000000
-5.539900 0.000000
-5.521200 0.000000
-5.502500 0.000000
-5.483800 0.000000
-5.465200 0.000000
-5.446500 0.000000
-5.427800 0.000000
-5.409100 0.000000
-5.390500 0.000000
-5.371800 0.000000
-5.353100 0.000000
-5.334400 0.000000
-5.315800 0.000000
-5.297100 0.000000
-5.278400 0.000000
-5.259700 0.000000
-5.241100 0.000000
-5.222400 0.000000
-5.203700 0.000000
-5.185000 0.000000
-5.166400 0.000000
-5.147700 0.000000
-5.129000 0.000000
-5.110300 0.000000
-5.091700 0.000000
-5.073000 0.000000
-5.054300 0.000000
-5.035600 0.000000
-5.016900 0.000000
-4.998300 0.000000
-4.979600 0.000000
-4.960900 0.000000
-4.942200 0.000000
-4.923600 0.000000
-4.904900 0.000000
-4.886200 0.000000
-4.867500 0.000000
-4.848900 0.000000
-4.830200 0.000000
-4.811500 0.000000
-4.792800 0.000000
-4.774200 0.000000
-4.755500 0.000000
-4.736800 0.000000
-4.718100 0.000000
-4.699500 0.000000
-4.680800 0.000000
-4.662100 0.000000
-4.643400 0.000000
-4.624800 0.000000
-4.606100 0.000000
-4.587400 0.000000
-4.568700 0.000000
-4.550100 0.000000
-4.531400 0.000000
-4.512700 0.000000
-4.494000 0.000000
-4.475400 0.000000
-4.456700 0.012800
-4.438000 0.029200
-4.419300 0.039700
-4.400700 0.046400
-4.382000 0.053400
-4.363300 0.062700
-4.344600 0.066100
-4.326000 0.069400
-4.307300 0.074300
-4.288600 0.079800
-4.269900 0.085400
-4.251300 0.088600
-4.232600 0.091300
-4.213900 0.094800
-4.195200 0.098500
-4.176600 0.102200
-4.157900 0.106000
-4.139200 0.110300
-4.120500 0.112900
-4.101900 0.115200
-4.083200 0.117900
-4.064500 0.120700
-4.045800 0.123500
-4.027200 0.126500
-4.008500 0.129700
-3.989800 0.133100
-3.971100 0.135900
-3.952500 0.138100
-3.933800 0.140100
-3.915100 0.142400
-3.896400 0.144800
-3.877800 0.147100
-3.859100 0.149700
-3.840400 0.152300
-3.821700 0.154900
-3.803100 0.157600
-3.784400 0.160300
-3.765700 0.162200
-3.747000 0.164100
-3.728400 0.166100
-3.709700 0.168200
-3.691000 0.170200
-3.672300 0.172200
-3.653700 0.174400
-3.635000 0.176600
-3.616300 0.178900
-3.597600 0.181200
-3.579000 0.183600
-3.560300 0.186000
-3.541600 0.187800
-3.522900 0.189400
-3.504300 0.191200
-3.485600 0.193000
-3.466900 0.194800
-3.448200 0.196700
-3.429500 0.198700
-3.410900 0.200700
-3.392200 0.202700
-3.373500 0.204700
-3.354800 0.206700
-3.336200 0.208800
-3.317500 0.210900
-3.298800 0.212900
-3.280100 0.214600
-3.261500 0.216200
-3.242800 0.217800
-3.224100 0.219600
-3.205400 0.221300
-3.186800 0.223000
-3.168100 0.224800
-3.149400 0.226600
-3.130700 0.228400
-3.112100 0.230200
-3.093400 0.232100
-3.074700 0.234000
-3.056000 0.236000
-3.037400 0.238000
-3.018700 0.240000
-3.000000 0.241600
-2.981300 0.243100
-2.962700 0.244700
-2.944000 0.246400
-2.925300 0.247900
-2.906600 0.249600
-2.888000 0.251300
-2.869300 0.253000
-2.850600 0.254800
-2.831900 0.256500
-2.813300 0.258300
-2.794600 0.260100
-2.775900 0.262000
-2.757200 0.263800
-2.738600 0.265700
-2.719900 0.267500
-2.701200 0.269400
-2.682500 0.270900
-2.663900 0.272500
-2.645200 0.274100
-2.626500 0.275800
-2.607800 0.277400
-2.589200 0.279100
-2.570500 0.280800
-2.551800 0.282500
-2.533100 0.284200
-2.514500 0.285900
-2.495800 0.287700
-2.477100 0.289400
-2.458400 0.291200
-2.439800 0.293000
-2.421100 0.294900
-2.402400 0.296800
-2.383700 0.298700
-2.365100 0.300600
-2.346400 0.302400
-2.327700 0.304100
-2.309000 0.305800
-2.290400 0.307500
-2.271700 0.309200
-2.253000 0.310900
-2.234300 0.312600
-2.215700 0.314300
-2.197000 0.316100
-2.178300 0.317900
-2.159600 0.319800
-2.141000 0.321700
-2.122300 0.323700
-2.103600 0.325600
-2.084900 0.327600
-2.066300 0.329500
-2.047600 0.331500
-2.028900 0.333500
-2.010200 0.335600
-1.991600 0.337600
-1.972900 0.339500
-1.954200 0.341400
-1.935500 0.343200
-1.916900 0.345200
-1.898200 0.347200
-1.879500 0.349200
-1.860800 0.351300
-1.842100 0.353300
-1.823500 0.355400
-1.804800 0.357500
-1.786100 0.359700
-1.767400 0.361900
-1.748800 0.364000
-1.730100 0.366300
-1.711400 0.368500
-1.692700 0.370800
-1.674100 0.373100
-1.655400 0.375500
-1.636700 0.378000
-1.618000 0.380500
-1.599400 0.383100
-1.580700 0.385600
-1.562000 0.388100
-1.543300 0.390600
-1.524700 0.393100
-1.506000 0.395600
-1.487300 0.398200
-1.468600 0.400900
-1.450000 0.403600
-1.431300 0.406400
-1.412600 0.409200
-1.393900 0.412000
-1.375300 0.415100
-1.356600 0.418200
-1.337900 0.421500
-1.319200 0.424800
-1.300600 0.428200
-1.281900 0.431600
-1.263200 0.435200
-1.244500 0.438900
-1.225900 0.442600
-1.207200 0.446500
-1.188500 0.450400
-1.169800 0.454600
-1.151200 0.458700
-1.132500 0.462900
-1.113800 0.467400
-1.095100 0.472200
-1.076500 0.477300
-1.057800 0.482700
-1.039100 0.488300
-1.020400 0.494200
-1.001800 0.500600
-0.983100 0.507300
-0.964400 0.514500
-0.945700 0.522400
-0.927100 0.531200
-0.908400 0.541300
-0.889700 0.552700
-0.871000 0.566400
-0.852400 0.584400
-0.833700 0.613700
-0.815000 0.621200
-0.796300 0.632000
-0.777700 0.637300
-0.759000 0.625800
-0.740300 0.622600
-0.721600 0.619200
-0.703000 0.617200
-0.684300 0.634000
-0.665600 0.620900
-0.646900 0.616200
-0.628300 0.612300
-0.609600 0.608000
-0.590900 0.604200
-0.572200 0.602000
-0.553600 0.603400
-0.534900 0.603300
-0.516200 0.603600
-0.497500 0.600000
-0.478900 0.595300
-0.460200 0.593000
-0.441500 0.590200
-0.422800 0.587300
-0.404200 0.585300
-0.385500 0.583500
-0.366800 0.582700
-0.348100 0.579900
-0.329500 0.579400
-0.310800 0.578100
-0.292100 0.575800
-0.273400 0.572300
-0.254700 0.569700
-0.236100 0.567800
-0.217400 0.566200
-0.198700 0.564800
-0.180000 0.562900
-0.161400 0.561500
-0.142700 0.560700
-0.124000 0.559300
-0.105300 0.557300
-0.086700 0.556300
-0.068000 0.555000
-0.049300 0.553500
-0.030600 0.550300
-0.012000 0.546800
0.006700 0.545100
0.025400 0.543700
0.044100 0.542600
0.062700 0.541400
0.081400 0.540000
0.100100 0.538900
0.118800 0.539700
0.137400 0.538800
0.156100 0.537400
0.174800 0.537800
0.193500 0.537300
0.212100 0.536300
0.230800 0.535000
0.249500 0.532900
0.268200 0.530400
0.286800 0.529400
0.305500 0.529000
0.324200 0.529100
0.342900 0.529900
0.361500 0.532300
0.380200 0.537900
0.398900 0.538800
0.417600 0.537300
0.436200 0.535200
0.454900 0.533700
0.473600 0.532400
0.492300 0.531000
0.510900 0.534000
0.529600 0.538000
0.548300 0.540800
0.567000 0.545700
0.585600 0.552400
0.604300 0.561600
0.623000 0.578600
0.641700 0.596700
0.660300 0.603700
0.679000 0.605400
0.697700 0.603700
0.716400 0.601600
0.735000 0.712200
0.753700 0.717100
0.772400 0.711400
0.791100 0.880700
0.809700 0.557800
0.828400 0.452900
0.847100 0.367900
0.865800 0.301000
0.884400 0.264700
0.903100 0.214100
0.921800 0.156600
0.940500 0.100000
0.959100 0.000000
0.977800 0.000000
0.996500 0.000000
1.015200 0.000000
1.033800 0.000000
1.052500 0.000000
1.071200 0.000000
1.089900 0.000000
1.108500 0.000000
1.127200 0.000000
1.145900 0.000000
1.164600 0.000000
1.183200 0.000000
1.201900 0.000000
1.220600 0.000000
1.239300 0.000000
1.258000 0.000000
1.276600 0.000000
1.295300 0.000000
1.314000 0.000000
1.332700 0.000000
1.351300 0.000000
1.370000 0.000000
1.388700 0.000000
1.407400 0.000000
1.426000 0.000000
1.444700 0.000000
1.463400 0.000000
1.482100 0.000000
1.500700 0.000000
1.519400 0.000000
1.538100 0.000000
1.556800 0.000000
1.575400 0.000000
1.594100 0.000000
1.612800 0.000000
1.631500 0.000000
1.650100 0.000000
1.668800 0.000000
1.687500 0.000000
1.706200 0.000000
1.724800 0.000000
1.743500 0.000000
1.762200 0.000000
1.780900 0.000000
1.799500 0.000000
1.818200 0.000000
1.836900 0.000000
1.855600 0.000000
1.874200 0.000000
1.892900 0.000000
1.911600 0.000000
1.930300 0.000000
1.948900 0.000000
1.967600 0.000000
1.986300 0.000000
2.005000 0.000000
2.023600 0.000000
2.042300 0.000000
2.061000 0.000000
2.079700 0.000000
2.098300 0.000000
2.117000 0.000000
2.135700 0.000000
2.154400 0.000000
2.173000 0.000000
2.191700 0.000000
2.210400 0.000000
2.229100 0.000000
2.247700 0.000000
2.266400 0.000000
2.285100 0.000000
2.303800 0.000000
2.322400 0.000000
2.341100 0.000000
2.359800 0.000000
2.378500 0.000000
2.397100 0.000000
2.415800 0.000000
2.434500 0.000000
2.453200 0.000000
2.471800 0.000000
2.490500 0.000000
2.509200 0.000000
2.527900 0.000000
2.546500 0.000000
2.565200 0.000000
2.583900 0.000000
2.602600 0.000000
2.621200 0.025900
2.639900 0.040800
2.658600 0.059100
2.677300 0.072600
2.695900 0.082100
2.714600 0.083200
2.733300 0.093300
2.752000 0.104000
2.770600 0.121700
2.789300 0.119600
2.808000 0.122200
2.826700 0.125100
2.845400 0.132300
2.864000 0.140500
2.882700 0.149600
2.901400 0.157800
2.920100 0.163600
2.938700 0.162700
2.957400 0.167700
2.976100 0.172600
2.994800 0.176700
3.013400 0.179600
3.032100 0.186100
3.050800 0.193200
3.069500 0.201100
3.088100 0.207600
3.106800 0.211400
3.125500 0.213600
3.144200 0.214400
3.162800 0.217200
3.181500 0.222400
3.200200 0.227500
3.218900 0.232100
3.237500 0.237000
3.256200 0.241800
3.274900 0.246800
3.293600 0.252100
3.312200 0.259100
3.330900 0.262200
3.349600 0.264800
3.368300 0.268700
3.386900 0.271600
3.405600 0.274900
3.424300 0.278200
3.443000 0.281500
3.461600 0.286200
3.480300 0.291400
3.499000 0.296400
3.517700 0.332800
3.536300 0.353700
3.555000 0.355800
3.573700 0.365800
3.592400 0.378100
3.611000 0.386100
3.629700 0.393000
3.648400 0.400800
3.667100 0.410600
3.685700 0.421500
3.704400 0.432300
3.723100 0.440700
3.741800 0.449900
3.760400 0.459500
3.779100 0.469300
3.797800 0.477600
3.816500 0.486800
3.835100 0.496900
3.853800 0.506200
3.872500 0.515800
3.891200 0.526200
3.909800 0.536500
3.928500 0.545400
3.947200 0.554700
3.965900 0.563600
3.984500 0.573800
4.003200 0.584600
4.021900 0.595500
4.040600 0.606300
4.059200 0.619600
4.077900 0.633600
4.096600 0.647900
4.115300 0.663200
4.133900 0.679700
4.152600 0.697900
4.171300 0.718100
4.190000 0.741900
4.208600 0.774300
4.227300 0.819100
4.246000 0.862500
4.264700 0.899800
4.283300 0.899100
4.302000 0.892000
4.320700 0.881200
4.339400 0.862800
4.358000 0.851100
4.376700 0.850000
4.395400 0.843500
4.414100 0.837900
4.432800 0.829900
4.451400 0.823100
4.470100 0.815700
4.488800 0.808900
4.507500 0.802700
4.526100 0.795500
4.544800 0.790700
4.563500 0.782400
4.582200 0.775200
4.600800 0.771100
4.619500 0.776000
4.638200 0.775800
4.656900 0.771700
4.675500 0.768600
4.694200 0.770900
4.712900 0.765000
4.731600 0.754500
4.750200 0.741300
4.768900 0.734300
4.787600 0.735700
4.806300 0.720900
4.824900 0.712500
4.843600 0.704700
4.862300 0.694900
4.881000 0.613400
4.899600 0.583600
4.918300 0.555300
4.937000 0.531000
4.955700 0.511700
4.974300 0.497500
4.993000 0.484400
5.011700 0.475200
5.030400 0.419500
5.049000 0.412300
5.067700 0.404800
5.086400 0.397500
5.105100 0.390300
5.123700 0.404300
5.142400 0.422000
5.161100 0.442900
5.179800 0.456400
5.198400 0.456200
5.217100 0.448100
5.235800 0.463100
5.254500 0.478900
5.273100 0.461600
5.291800 0.510200
5.310500 0.506400
5.329200 0.516500
5.347800 0.525100
5.366500 0.525500
5.385200 0.524700
5.403900 0.521400
5.422500 0.517200
5.441200 0.518500
5.459900 0.519700
5.478600 0.520400
5.497200 0.520700
5.515900 0.521800
5.534600 0.522700
5.553300 0.525900
5.571900 0.529100
5.590600 0.532700
5.609300 0.535600
5.628000 0.537600
5.646600 0.539200
5.665300 0.539100
5.684000 0.538300
5.702700 0.537500
5.721300 0.537100
5.740000 0.536700
5.758700 0.535900
5.777400 0.536100
5.796000 0.536600
5.814700 0.537100
5.833400 0.537600
5.852100 0.538100
5.870700 0.538700
5.889400 0.539500
5.908100 0.540300
5.926800 0.541300
5.945500 0.542300
5.964100 0.543300
5.982800 0.544300
6.001500 0.545000
6.020200 0.545200
6.038800 0.545500
6.057500 0.546000
6.076200 0.546400
6.094900 0.546700
6.113500 0.546400
6.132200 0.545100
6.150900 0.544300
6.169600 0.543700
6.188200 0.543300
6.206900 0.543200
6.225600 0.543100
6.244300 0.542900
6.262900 0.542700
6.281600 0.542400
6.300300 0.542000
6.319000 0.541700
6.337600 0.541300
6.356300 0.540600
6.375000 0.540400
6.393700 0.540400
6.412300 0.540500
6.431000 0.540500
6.449700 0.540100
6.468400 0.540000
6.487000 0.539900
6.505700 0.539900
6.524400 0.540000
6.543100 0.540100
6.561700 0.540100
6.580400 0.540000
6.599100 0.539900
6.617800 0.539700
6.636400 0.539100
6.655100 0.537900
6.673800 0.536600
6.692500 0.535200
6.711100 0.534000
6.729800 0.533200
6.748500 0.532500
6.767200 0.531900
6.785800 0.531300
6.804500 0.530800
6.823200 0.530200
6.841900 0.529600
6.860500 0.529000
6.879200 0.528400
6.897900 0.527900
6.916600 0.548500
6.935200 0.552400
6.953900 0.556600
6.972600 0.555300
6.991300 0.558400
7.009900 0.561700
7.028600 0.565000
7.047300 0.568300
7.066000 0.571800
7.084600 0.575600
7.103300 0.579600
7.122000 0.580100
7.140700 0.581100
7.159300 0.582700
7.178000 0.584300
7.196700 0.585700
7.215400 0.586900
7.234000 0.588100
7.252700 0.590000
7.271400 0.592100
7.290100 0.594100
7.308700 0.595000
7.327400 0.596400
7.346100 0.598100
7.364800 0.599800
7.383400 0.601700
7.402100 0.603800
7.420800 0.606400
7.439500 0.609200
7.458100 0.611300
7.476800 0.612500
7.495500 0.613700
7.514200 0.615200
7.532900 0.616900
7.551500 0.618100
7.570200 0.619400
7.588900 0.620700
7.607600 0.622800
7.626200 0.624900
7.644900 0.626800
7.663600 0.628900
7.682300 0.631200
7.700900 0.633400
7.719600 0.635700
7.738300 0.637900
7.757000 0.640200
7.775600 0.642400
7.794300 0.644700
7.813000 0.647100
7.831700 0.649300
7.850300 0.651700
7.869000 0.653300
7.887700 0.654800
7.906400 0.656500
7.925000 0.658100
7.943700 0.659600
7.962400 0.661200
7.981100 0.662800
7.999700 0.664800
8.018400 0.668500
8.037100 0.671300
8.055800 0.674300
8.074400 0.677000
8.093100 0.679700
8.111800 0.682400
8.130500 0.685400
8.149100 0.688400
8.167800 0.691400
8.186500 0.694400
8.205200 0.697600
8.223800 0.700900
8.242500 0.704300
8.261200 0.707700
8.279900 0.711200
8.298500 0.714700
8.317200 0.717700
8.335900 0.722900
8.354600 0.727400
8.373200 0.731300
8.391900 0.734700
8.410600 0.739700
8.429300 0.745200
8.447900 0.750900
8.466600 0.756500
8.485300 0.762100
8.504000 0.767800
8.522600 0.773700
8.541300 0.779700
8.560000 0.785700
8.578700 0.796800
8.597300 0.817300
8.616000 0.834000
8.634700 0.855600
8.653400 0.869400
8.672000 0.871300
8.690700 0.869000
8.709400 0.879200
8.728100 0.870500
8.746700 0.862400
8.765400 0.858500
8.784100 0.855700
8.802800 0.854800
8.821400 0.852400
8.840100 0.850000
8.858800 1.309400
8.877500 0.853100
8.896100 0.845200
8.914800 0.842900
8.933500 0.840100
8.952200 0.838500
8.970800 0.834200
8.989500 0.831200
9.008200 0.828400
9.026900 0.826000
9.045500 0.824500
9.064200 0.827300
9.082900 0.838300
9.101600 0.826700
9.120300 0.821400
9.138900 0.819800
9.157600 0.817300
9.176300 0.814300
9.195000 0.811300
9.213600 0.809600
9.232300 0.808500
9.251000 0.807100
9.269700 0.804800
9.288300 0.801900
9.307000 0.799400
9.325700 0.798600
9.344400 0.800000
9.363000 0.802900
9.381700 0.796500
9.400400 0.792100
9.419100 0.789400
9.437700 0.787100
9.456400 0.784500
9.475100 0.782100
9.493800 0.780100
9.512400 0.778300
9.531100 0.776300
9.549800 0.774300
9.568500 0.772700
9.587100 0.772300
9.605800 0.771200
9.624500 0.769200
9.643200 0.767000
9.661800 0.765700
9.680500 0.765300
9.699200 0.765400
9.717900 0.761700
9.736500 0.757700
9.755200 0.754500
9.773900 0.752100
9.792600 0.749800
9.811200 0.748500
9.829900 0.748200
9.848600 0.747100
9.867300 0.745400
9.885900 0.743500
9.904600 0.741200
9.923300 0.738800
9.942000 0.736200
9.960600 0.733500
9.979300 0.730900
9.998000 0.728500
10.016700 0.726600
10.035300 0.725100
10.054000 0.723900
10.072700 0.723300
10.091400 0.724300
10.110000 0.723100
10.128700 0.721800
10.147400 0.720900
10.166100 0.719500
10.184700 0.717200
10.203400 0.715000
10.222100 0.712700
10.240800 0.710300
10.259400 0.707700
10.278100 0.705100
10.296800 0.702500
10.315500 0.700100
10.334100 0.697700
10.352800 0.695300
10.371500 0.693000
10.390200 0.690900
10.408800 0.688900
10.427500 0.687600
10.446200 0.687100
10.464900 0.687000
10.483500 0.687100
10.502200 0.686900
10.520900 0.686600
10.539600 0.685700
10.558200 0.683600
10.576900 0.681700
10.595600 0.680000
10.614300 0.677900
10.633000 0.676000
10.651600 0.673900
10.670300 0.671600
10.689000 0.669300
10.707700 0.667300
10.726300 0.665300
10.745000 0.664100
10.763700 0.662500
10.782400 0.660700
10.801000 0.658800
10.819700 0.656800
10.838400 0.654500
10.857100 0.652100
10.875700 0.650200
10.894400 0.648400
10.913100 0.646800
10.931800 0.645600
10.950400 0.644600
10.969100 0.643900
10.987800 0.643700
11.006500 0.642700
11.025100 0.641700
11.043800 0.641500
11.062500 0.641000
11.081200 0.639300
11.099800 0.637400
11.118500 0.635400
11.137200 0.633300
11.155900 0.631000
11.174500 0.628500
11.193200 0.625700
11.211900 0.623500
11.230600 0.621900
11.249200 0.620200
11.267900 0.618900
11.286600 0.617400
11.305300 0.615700
11.323900 0.613700
11.342600 0.611900
11.361300 0.610200
11.380000 0.608500
11.398600 0.607000
11.417300 0.605600
11.436000 0.604600
11.454700 0.604500
11.473300 0.604900
11.492000 0.606100
11.510700 0.607000
11.529400 0.605800
11.548000 0.604300
11.566700 0.602800
11.585400 0.600900
11.604100 0.599100
11.622700 0.598800
11.641400 0.597700
11.660100 0.595400
11.678800 0.592900
11.697400 0.590600
11.716100 0.587900
11.734800 0.588300
11.753500 0.577600
11.772100 0.565400
11.790800 0.543700
11.809500 0.529200
11.828200 0.524300
11.846800 0.504700
11.865500 0.487900
11.884200 0.479500
11.902900 0.472400
11.921500 0.464500
11.940200 0.458800
11.958900 0.468200
11.977600 0.445200
11.996200 0.435500
12.014900 0.426600
12.033600 0.417700
12.052300 0.408000
12.070900 0.400400
12.089600 0.393900
12.108300 0.387300
12.127000 0.381200
12.145600 0.395600
12.164300 0.374400
12.183000 0.369100
12.201700 0.363700
12.220400 0.359100
12.239000 0.355100
12.257700 0.351000
12.276400 0.346600
12.295100 0.342500
12.313700 0.339500
12.332400 0.336500
12.351100 0.336700
12.369800 0.331300
12.388400 0.327600
12.407100 0.323100
12.425800 0.316100
12.444500 0.311600
12.463100 0.320700
12.481800 0.321100
12.500500 0.322100
12.519200 0.318200
12.537800 0.317800
12.556500 0.317400
12.575200 0.318400
12.593900 0.322300
12.612500 0.419700
12.631200 0.322300
12.649900 0.331600
12.668600 0.333000
12.687200 0.330000
12.705900 0.332600
12.724600 0.335300
12.743300 0.338200
12.761900 0.341700
12.780600 0.345900
12.799300 0.360800
12.818000 0.356400
12.836600 0.354600
12.855300 0.355400
12.874000 0.396700
12.892700 0.355700
12.911300 0.357300
12.930000 0.358500
12.948700 0.379300
12.967400 0.396100
12.986000 0.393400
13.004700 0.393000
13.023400 0.399500
13.042100 0.402400
13.060700 0.407900
13.079400 0.402800
13.098100 0.405800
13.116800 0.419600
13.135400 0.411700
13.154100 0.413600
13.172800 0.433700
13.191500 0.430500
13.210100 0.426500
13.228800 0.427100
13.247500 0.428000
13.266200 0.427300
13.284800 0.424900
13.303500 0.425800
13.322200 0.450800
13.340900 0.423600
13.359500 0.427900
13.378200 0.413800
13.396900 0.443000
13.415600 0.413900
13.434200 0.387900
13.452900 0.317700
13.471600 0.313300
13.490300 0.316400
13.508900 0.320700
13.527600 0.324800
13.546300 0.326500
13.565000 0.330000
13.583600 0.333900
13.602300 0.337900
13.621000 0.341900
13.639700 0.345100
13.658300 0.348500
13.677000 0.352500
13.695700 0.357000
13.714400 0.361400
13.733000 0.371500
