set title 'mp-1217756 - Density of States'
set xlabel 'Energy (eV)'
set ylabel 'DOS (states/eV)'
set grid
set xrange [-10:10]
set yrange [0:2.322]
set xzeroaxis lt -1
set terminal png size 800,600
set output 'mp-1217756_dos_gnuplot.png'
plot '-' using 1:2 with lines title 'DOS'
-36.100100 0.000000
-36.033700 0.000000
-35.967300 0.000000
-35.900900 0.000000
-35.834500 0.000000
-35.768000 0.000000
-35.701600 0.000000
-35.635200 0.000000
-35.568800 0.000000
-35.502400 0.000000
-35.435900 0.000000
-35.369500 0.000000
-35.303100 0.000000
-35.236700 0.000000
-35.170300 0.000000
-35.103800 0.000000
-35.037400 0.000000
-34.971000 0.000000
-34.904600 0.000000
-34.838200 0.000000
-34.771700 0.000000
-34.705300 0.000000
-34.638900 0.000000
-34.572500 0.000000
-34.506100 0.000000
-34.439600 0.000000
-34.373200 0.000000
-34.306800 0.000000
-34.240400 0.000000
-34.174000 0.000000
-34.107500 0.000000
-34.041100 0.000000
-33.974700 0.000000
-33.908300 0.000000
-33.841900 0.000000
-33.775400 0.000000
-33.709000 0.000000
-33.642600 0.000000
-33.576200 0.000000
-33.509800 0.000000
-33.443300 0.000000
-33.376900 0.000000
-33.310500 0.000000
-33.244100 0.000000
-33.177700 0.000000
-33.111200 0.000000
-33.044800 0.000000
-32.978400 0.000000
-32.912000 0.000000
-32.845600 0.000000
-32.779100 0.000000
-32.712700 0.000000
-32.646300 0.000000
-32.579900 0.000000
-32.513500 0.000000
-32.447000 0.000000
-32.380600 0.000000
-32.314200 0.000000
-32.247800 0.000000
-32.181400 0.000000
-32.114900 0.000000
-32.048500 0.000000
-31.982100 0.000000
-31.915700 0.000000
-31.849300 0.000000
-31.782800 0.000000
-31.716400 0.000000
-31.650000 0.000000
-31.583600 0.000000
-31.517200 0.000000
-31.450700 0.000000
-31.384300 0.000000
-31.317900 0.000000
-31.251500 0.000000
-31.185100 0.000000
-31.118600 0.000000
-31.052200 0.000000
-30.985800 0.000000
-30.919400 0.000000
-30.853000 0.000000
-30.786500 0.000000
-30.720100 0.000000
-30.653700 0.000000
-30.587300 0.000000
-30.520900 0.000000
-30.454400 0.000000
-30.388000 0.000000
-30.321600 0.000000
-30.255200 0.000000
-30.188800 0.000000
-30.122300 0.000000
-30.055900 0.887500
-29.989500 2.677300
-29.923100 5.103800
-29.856700 6.837200
-29.790200 6.671600
-29.723800 5.279800
-29.657400 4.136400
-29.591000 4.045000
-29.524600 3.870000
-29.458100 3.507300
-29.391700 3.433300
-29.325300 3.383000
-29.258900 3.272400
-29.192500 3.682200
-29.126000 4.402100
-29.059600 4.156900
-28.993200 4.761200
-28.926800 5.948400
-28.860400 7.478400
-28.793900 4.797600
-28.727500 1.344200
-28.661100 0.000000
-28.594700 0.000000
-28.528300 0.000000
-28.461800 0.000000
-28.395400 0.000000
-28.329000 0.000000
-28.262600 0.000000
-28.196200 0.000000
-28.129700 0.000000
-28.063300 0.000000
-27.996900 0.000000
-27.930500 0.000000
-27.864100 0.000000
-27.797600 0.000000
-27.731200 0.000000
-27.664800 0.000000
-27.598400 0.000000
-27.532000 0.000000
-27.465500 0.000000
-27.399100 0.000000
-27.332700 0.000000
-27.266300 0.000000
-27.199900 0.000000
-27.133400 0.000000
-27.067000 0.000000
-27.000600 0.000000
-26.934200 0.000000
-26.867800 0.000000
-26.801300 0.000000
-26.734900 0.000000
-26.668500 0.000000
-26.602100 0.000000
-26.535700 0.000000
-26.469200 0.000000
-26.402800 0.000000
-26.336400 0.000000
-26.270000 0.000000
-26.203600 0.000000
-26.137100 0.000000
-26.070700 0.000000
-26.004300 0.000000
-25.937900 0.000000
-25.871500 0.000000
-25.805000 0.000000
-25.738600 0.000000
-25.672200 0.000000
-25.605800 0.000000
-25.539400 0.000000
-25.472900 0.000000
-25.406500 0.000000
-25.340100 0.000000
-25.273700 0.000000
-25.207300 0.000000
-25.140800 0.000000
-25.074400 0.000000
-25.008000 0.000000
-24.941600 0.000000
-24.875200 0.000000
-24.808700 0.000000
-24.742300 0.000000
-24.675900 0.000000
-24.609500 0.000000
-24.543100 0.000000
-24.476600 0.000000
-24.410200 0.000000
-24.343800 0.000000
-24.277400 0.000000
-24.211000 0.000000
-24.144500 0.000000
-24.078100 0.000000
-24.011700 0.000000
-23.945300 0.000000
-23.878900 0.000000
-23.812400 0.000000
-23.746000 0.000000
-23.679600 0.000000
-23.613200 0.000000
-23.546800 0.000000
-23.480400 0.000000
-23.413900 0.000000
-23.347500 0.000000
-23.281100 0.000000
-23.214700 0.000000
-23.148300 0.000000
-23.081800 0.000000
-23.015400 0.000000
-22.949000 0.000000
-22.882600 0.000000
-22.816200 0.000000
-22.749700 0.000000
-22.683300 0.000000
-22.616900 0.000000
-22.550500 0.000000
-22.484100 0.000000
-22.417600 0.000000
-22.351200 0.000000
-22.284800 0.000000
-22.218400 0.000000
-22.152000 0.000000
-22.085500 0.000000
-22.019100 0.000000
-21.952700 0.000000
-21.886300 0.000000
-21.819900 0.000000
-21.753400 0.000000
-21.687000 0.000000
-21.620600 0.000000
-21.554200 0.000000
-21.487800 0.000000
-21.421300 0.000000
-21.354900 0.000000
-21.288500 0.000000
-21.222100 0.000000
-21.155700 0.000000
-21.089200 0.000000
-21.022800 0.000000
-20.956400 0.000000
-20.890000 0.000000
-20.823600 0.000000
-20.757100 0.000000
-20.690700 0.000000
-20.624300 0.000000
-20.557900 0.000000
-20.491500 0.000000
-20.425000 0.000000
-20.358600 0.000000
-20.292200 0.000000
-20.225800 0.000000
-20.159400 0.000000
-20.092900 0.000000
-20.026500 0.000000
-19.960100 0.000000
-19.893700 0.000000
-19.827300 0.000000
-19.760800 0.000000
-19.694400 0.000000
-19.628000 0.000000
-19.561600 0.000000
-19.495200 0.000000
-19.428700 0.000000
-19.362300 0.000000
-19.295900 0.000000
-19.229500 0.000000
-19.163100 0.000000
-19.096600 0.000000
-19.030200 0.000000
-18.963800 0.000000
-18.897400 0.000000
-18.831000 0.000000
-18.764500 0.000000
-18.698100 0.000000
-18.631700 0.000000
-18.565300 0.000000
-18.498900 0.000000
-18.432400 0.000000
-18.366000 0.000000
-18.299600 0.000000
-18.233200 0.000000
-18.166800 0.000000
-18.100300 0.000000
-18.033900 0.000000
-17.967500 0.000000
-17.901100 0.000000
-17.834700 0.000000
-17.768200 0.000000
-17.701800 0.000000
-17.635400 0.000000
-17.569000 0.000000
-17.502600 0.000000
-17.436100 0.000000
-17.369700 0.000000
-17.303300 0.000000
-17.236900 0.000000
-17.170500 0.000000
-17.104000 0.000000
-17.037600 0.000000
-16.971200 0.000000
-16.904800 0.000000
-16.838400 0.000000
-16.771900 0.000000
-16.705500 0.000000
-16.639100 0.000000
-16.572700 0.000000
-16.506300 0.000000
-16.439800 0.000000
-16.373400 0.000000
-16.307000 0.000000
-16.240600 0.000000
-16.174200 0.000000
-16.107700 0.000000
-16.041300 0.000000
-15.974900 0.000000
-15.908500 0.000000
-15.842100 0.000000
-15.775600 0.000000
-15.709200 0.000000
-15.642800 0.000000
-15.576400 0.000000
-15.510000 0.000000
-15.443500 0.000000
-15.377100 0.000000
-15.310700 0.000000
-15.244300 0.000000
-15.177900 0.000000
-15.111400 0.000000
-15.045000 0.000000
-14.978600 0.000000
-14.912200 0.000000
-14.845800 0.000000
-14.779300 0.000000
-14.712900 0.000000
-14.646500 0.000000
-14.580100 0.000000
-14.513700 0.000000
-14.447200 0.000000
-14.380800 0.000000
-14.314400 0.000000
-14.248000 0.000000
-14.181600 0.000000
-14.115100 0.000000
-14.048700 0.000000
-13.982300 0.000000
-13.915900 0.000000
-13.849500 0.000000
-13.783000 0.000000
-13.716600 0.000000
-13.650200 0.000000
-13.583800 0.000000
-13.517400 0.000000
-13.450900 0.000000
-13.384500 0.000000
-13.318100 0.000000
-13.251700 0.000000
-13.185300 0.000000
-13.118800 0.000000
-13.052400 0.000000
-12.986000 0.000000
-12.919600 0.000000
-12.853200 0.000000
-12.786700 0.000000
-12.720300 0.000000
-12.653900 0.000000
-12.587500 0.000000
-12.521100 0.000000
-12.454600 0.000000
-12.388200 0.000000
-12.321800 0.000000
-12.255400 0.000000
-12.189000 0.000000
-12.122500 0.000000
-12.056100 0.000000
-11.989700 0.000000
-11.923300 0.000000
-11.856900 0.000000
-11.790400 0.000000
-11.724000 0.000000
-11.657600 0.000000
-11.591200 0.000000
-11.524800 0.000000
-11.458300 0.000000
-11.391900 0.000000
-11.325500 0.000000
-11.259100 0.000000
-11.192700 0.000000
-11.126200 0.000000
-11.059800 0.000000
-10.993400 0.000000
-10.927000 0.000000
-10.860600 0.000000
-10.794200 0.000000
-10.727700 0.000000
-10.661300 0.000000
-10.594900 0.000000
-10.528500 0.000000
-10.462100 0.000000
-10.395600 0.000000
-10.329200 0.000000
-10.262800 0.000000
-10.196400 0.000000
-10.130000 0.000000
-10.063500 0.000000
-9.997100 0.000000
-9.930700 0.000000
-9.864300 0.000000
-9.797900 0.000000
-9.731400 0.000000
-9.665000 0.000000
-9.598600 0.000000
-9.532200 0.000000
-9.465800 0.000000
-9.399300 0.000000
-9.332900 0.000000
-9.266500 0.000000
-9.200100 0.000000
-9.133700 0.000000
-9.067200 0.000000
-9.000800 0.000000
-8.934400 0.000000
-8.868000 0.000000
-8.801600 0.000000
-8.735100 0.000000
-8.668700 0.000000
-8.602300 0.000000
-8.535900 0.000000
-8.469500 0.000000
-8.403000 0.000000
-8.336600 0.000000
-8.270200 0.000000
-8.203800 0.000000
-8.137400 0.000000
-8.070900 0.000000
-8.004500 0.000000
-7.938100 0.000000
-7.871700 0.000000
-7.805300 0.000000
-7.738800 0.000000
-7.672400 0.000000
-7.606000 0.000000
-7.539600 0.000000
-7.473200 0.000000
-7.406700 0.000000
-7.340300 0.000000
-7.273900 0.000000
-7.207500 0.000000
-7.141100 0.000000
-7.074600 0.000000
-7.008200 0.000000
-6.941800 0.000000
-6.875400 0.000000
-6.809000 0.000000
-6.742500 0.000000
-6.676100 0.000000
-6.609700 0.000000
-6.543300 0.000000
-6.476900 0.000000
-6.410400 0.000000
-6.344000 0.000000
-6.277600 0.000000
-6.211200 0.000000
-6.144800 0.000000
-6.078300 0.000000
-6.011900 0.000000
-5.945500 0.000000
-5.879100 0.000000
-5.812700 0.000000
-5.746200 0.000000
-5.679800 0.000000
-5.613400 0.000000
-5.547000 0.000000
-5.480600 0.000000
-5.414100 0.000000
-5.347700 0.000000
-5.281300 0.000000
-5.214900 0.000000
-5.148500 0.000000
-5.082000 0.000000
-5.015600 0.000000
-4.949200 0.000000
-4.882800 0.000000
-4.816400 0.000000
-4.749900 0.000000
-4.683500 0.000000
-4.617100 0.000000
-4.550700 0.000000
-4.484300 0.000000
-4.417800 0.000000
-4.351400 0.000000
-4.285000 0.000000
-4.218600 0.000000
-4.152200 0.000000
-4.085700 0.000000
-4.019300 0.000000
-3.952900 0.000000
-3.886500 0.000000
-3.820100 0.000000
-3.753600 0.000000
-3.687200 0.000000
-3.620800 0.000000
-3.554400 0.000000
-3.488000 0.000000
-3.421500 0.000000
-3.355100 0.000000
-3.288700 0.000000
-3.222300 0.000000
-3.155900 0.000000
-3.089400 0.000000
-3.023000 0.000000
-2.956600 0.000000
-2.890200 0.000000
-2.823800 0.000000
-2.757300 0.000000
-2.690900 0.011600
-2.624500 0.020800
-2.558100 0.031900
-2.491700 0.037500
-2.425200 0.042800
-2.358800 0.047400
-2.292400 0.052200
-2.226000 0.058300
-2.159600 0.063000
-2.093100 0.067300
-2.026700 0.071000
-1.960300 0.074700
-1.893900 0.079100
-1.827500 0.083800
-1.761000 0.088700
-1.694600 0.093000
-1.628200 0.097000
-1.561800 0.101000
-1.495400 0.105100
-1.428900 0.109500
-1.362500 0.114000
-1.296100 0.118600
-1.229700 0.123300
-1.163300 0.128100
-1.096800 0.132700
-1.030400 0.137500
-0.964000 0.142400
-0.897600 0.147400
-0.831200 0.152400
-0.764700 0.157500
-0.698300 0.162900
-0.631900 0.168600
-0.565500 0.174600
-0.499100 0.180800
-0.432600 0.187000
-0.366200 0.193300
-0.299800 0.199600
-0.233400 0.205900
-0.167000 0.213300
-0.100500 0.220800
-0.034100 0.229100
0.032300 0.237700
0.098700 0.246700
0.165100 0.256000
0.231600 0.265100
0.298000 0.275700
0.364400 0.286700
0.430800 0.301000
0.497200 0.316900
0.563700 0.333800
0.630100 0.460600
0.696500 0.532800
0.762900 0.606100
0.829300 0.650000
0.895800 0.696600
0.962200 0.740500
1.028600 0.799400
1.095000 0.847100
1.161400 0.932500
1.227900 1.042600
1.294300 1.183900
1.360700 1.169600
1.427100 1.165100
1.493500 1.182100
1.560000 1.153100
1.626400 1.147700
1.692800 1.152900
1.759200 1.201000
1.825600 1.249800
1.892000 1.461800
1.958500 1.708600
2.024900 1.039100
2.091300 0.579700
2.157700 0.432500
2.224100 0.435100
2.290600 0.503000
2.357000 0.582400
2.423400 0.604700
2.489800 0.776700
2.556200 0.981400
2.622700 1.179200
2.689100 1.321700
2.755500 1.447100
2.821900 1.583900
2.888300 1.705900
2.954800 1.908200
3.021200 2.111200
3.087600 1.903100
3.154000 1.823500
3.220400 1.618100
3.286900 1.280900
3.353300 1.196000
3.419700 1.142100
3.486100 1.152000
3.552500 1.203800
3.619000 1.224000
3.685400 1.319700
3.751800 1.428400
3.818200 1.646300
3.884600 1.864100
3.951100 1.822100
4.017500 2.017400
4.083900 1.805200
4.150300 1.507700
4.216700 1.330600
4.283200 1.173400
4.349600 1.075100
4.416000 0.897900
4.482400 0.892600
4.548800 0.865600
4.615300 0.799200
4.681700 0.800200
4.748100 0.710200
4.814500 0.658400
4.880900 0.600400
4.947400 0.563200
5.013800 0.541400
5.080200 0.501700
5.146600 0.487200
5.213000 0.483300
5.279500 0.491700
5.345900 0.545700
5.412300 0.589900
5.478700 0.617500
5.545100 0.666600
5.611600 0.724500
5.678000 0.799100
5.744400 0.932000
5.810800 1.089000
5.877200 1.185800
5.943700 1.147500
6.010100 1.038400
6.076500 1.056600
6.142900 1.072500
6.209300 1.074700
6.275800 1.084400
6.342200 1.173000
6.408600 1.261600
6.475000 1.061500
6.541400 1.042400
6.607900 1.043700
6.674300 1.038400
6.740700 1.271400
6.807100 1.167500
6.873500 1.138600
6.940000 1.096700
7.006400 1.258400
7.072800 1.010500
7.139200 0.913500
7.205600 0.925700
7.272100 1.031000
7.338500 1.034700
7.404900 1.103200
7.471300 1.082300
7.537700 1.175100
7.604200 1.326100
7.670600 1.515500
7.737000 1.618100
7.803400 1.673800
7.869800 1.762500
7.936300 1.790100
8.002700 1.833000
8.069100 1.611400
8.135500 1.607400
8.201900 1.657900
8.268400 1.685500
8.334800 1.732500
8.401200 1.629500
8.467600 1.556600
8.534000 1.373000
8.600500 1.268400
8.666900 1.198500
8.733300 1.145800
8.799700 1.085100
8.866100 1.083000
8.932600 1.076400
8.999000 1.060400
9.065400 1.051100
9.131800 1.114600
9.198200 1.116900
9.264700 1.118600
9.331100 1.080900
9.397500 1.051800
9.463900 1.046300
9.530300 1.003700
9.596800 0.946900
9.663200 0.924200
9.729600 0.881700
9.796000 0.857200
9.862400 0.841400
9.928900 0.824300
9.995300 0.809700
10.061700 0.814600
10.128100 0.766900
10.194500 0.757600
10.261000 0.739700
10.327400 0.717100
10.393800 0.685800
10.460200 0.620800
10.526600 0.574400
10.593100 0.506200
10.659500 0.447700
10.725900 0.398200
10.792300 0.268200
10.858700 0.262000
10.925200 0.257100
10.991600 0.251300
11.058000 0.248800
11.124400 0.243100
11.190800 0.237300
11.257300 0.231800
11.323700 0.225400
11.390100 0.217400
11.456500 0.214400
11.522900 0.206900
11.589400 0.199800
11.655800 0.193200
11.722200 0.187100
11.788600 0.181600
11.855000 0.176600
11.921500 0.171700
11.987900 0.168700
12.054300 0.163700
12.120700 0.158800
12.187100 0.151900
12.253600 0.148000
12.320000 0.144500
12.386400 0.145000
12.452800 0.140700
12.519200 0.151700
12.585700 0.148500
12.652100 0.139100
12.718500 0.109400
12.784900 0.356100
12.851300 0.144300
12.917800 0.140200
12.984200 0.136300
13.050600 0.178100
13.117000 0.177100
13.183400 0.185200
13.249900 0.201000
13.316300 0.210600
13.382700 0.225100
13.449100 0.216000
13.515500 0.212600
13.582000 0.173400
13.648400 0.178700
13.714800 0.183300
13.781200 0.255800
13.847600 0.319400
13.914100 0.370100
13.980500 0.458600
14.046900 0.556000
14.113300 0.689000
14.179700 0.982900
14.246200 1.391200
14.312600 1.492700
14.379000 1.128200
14.445400 1.025900
14.511800 0.929200
14.578200 0.858600
14.644700 0.819600
14.711100 0.791200
14.777500 0.756400
14.843900 0.723100
14.910300 0.723100
14.976800 0.738400
15.043200 0.731200
15.109600 0.643800
15.176000 0.588200
15.242400 0.564700
15.308900 0.552100
15.375300 0.545000
15.441700 0.539500
15.508100 0.526200
15.574500 0.529600
15.641000 0.545500
15.707400 0.541600
15.773800 0.538500
15.840200 0.535900
15.906600 0.533000
15.973100 0.535300
16.039500 0.529400
16.105900 0.508400
16.172300 0.481800
16.238700 0.438200
16.305200 0.433500
16.371600 0.429900
16.438000 0.427400
16.504400 0.432300
16.570800 0.434600
16.637300 0.440700
16.703700 0.455700
16.770100 0.451700
16.836500 0.461600
16.902900 0.478200
16.969400 0.499100
17.035800 0.539600
17.102200 0.583700
17.168600 0.730700
17.235000 1.060500
17.301500 2.067400
17.367900 3.857300
17.434300 1.436200
17.500700 1.105300
17.567100 0.940000
17.633600 0.860500
17.700000 0.843200
17.766400 0.848200
17.832800 0.838700
17.899200 0.815100
17.965700 0.738200
18.032100 0.727300
18.098500 0.660500
18.164900 0.652900
18.231300 0.657500
18.297800 0.664700
18.364200 0.673500
18.430600 0.904900
18.497000 0.653800
18.563400 0.888200
18.629900 0.716100
18.696300 0.728000
18.762700 0.781000
18.829100 0.805700
18.895500 0.821900
18.962000 0.816000
19.028400 0.804100
19.094800 0.787000
19.161200 0.773800
19.227600 0.755500
19.294100 0.751800
19.360500 0.751100
19.426900 0.754100
19.493300 0.752500
19.559700 0.755100
19.626200 0.761900
19.692600 0.785900
19.759000 0.816300
19.825400 0.839700
19.891800 0.862800
19.958300 0.859000
20.024700 0.840300
20.091100 0.819300
20.157500 0.779000
20.223900 0.723500
20.290400 0.686800
20.356800 0.644700
20.423200 0.591800
20.489600 0.510300
20.556000 0.450600
20.622500 0.464600
20.688900 0.510700
20.755300 0.594100
20.821700 0.661700
20.888100 0.764500
20.954600 0.857300
21.021000 0.974300
21.087400 1.094800
21.153800 1.171900
21.220200 1.141000
21.286700 1.092800
21.353100 1.051500
21.419500 1.022800
21.485900 1.008100
21.552300 0.970500
21.618800 0.893200
21.685200 0.869600
21.751600 0.845100
21.818000 0.819600
21.884400 0.797000
21.950900 0.830800
22.017300 0.789100
22.083700 0.740900
22.150100 0.795700
22.216500 0.616400
22.283000 0.584700
22.349400 0.454800
22.415800 0.433700
22.482200 0.426400
22.548600 0.448200
22.615100 0.452700
22.681500 0.457900
22.747900 0.451700
22.814300 0.474800
22.880700 0.503100
22.947200 0.569000
23.013600 0.654800
23.080000 0.710400
23.146400 0.751200
23.212800 0.757400
23.279300 0.751200
23.345700 0.772000
23.412100 0.822200
23.478500 0.846700
23.544900 0.873900
23.611400 0.902500
23.677800 0.906900
23.744200 0.921300
23.810600 0.947100
23.877000 0.978800
23.943500 1.025900
24.009900 1.042400
24.076300 1.122700
24.142700 1.191000
24.209100 1.190400
24.275600 1.096000
24.342000 1.022400
24.408400 0.906200
24.474800 0.760800
24.541200 0.713800
24.607700 0.670300
24.674100 0.663300
24.740500 0.655700
24.806900 0.687600
24.873300 0.721900
24.939800 0.745900
25.006200 0.828200
25.072600 0.832000
25.139000 0.835000
25.205400 0.922200
25.271900 0.993700
25.338300 1.017000
25.404700 1.107300
25.471100 1.207600
25.537500 1.088300
25.604000 1.124700
25.670400 1.158600
25.736800 1.045900
25.803200 1.056600
25.869600 1.096400
25.936100 1.127500
26.002500 1.131600
26.068900 1.123400
26.135300 1.126000
26.201700 1.116000
26.268200 1.110900
26.334600 1.127800
26.401000 1.129900
26.467400 1.134600
26.533800 1.151700
26.600300 1.207500
26.666700 1.235800
26.733100 1.215100
26.799500 1.170900
26.865900 1.088900
26.932400 0.974400
26.998800 0.930500
27.065200 0.884300
27.131600 0.854700
27.198000 0.813500
27.264500 0.784200
27.330900 0.762100
27.397300 0.741800
27.463700 0.715300
27.530100 0.689000
27.596500 0.681600
27.663000 0.681800
27.729400 0.685600
27.795800 0.671600
27.862200 0.654700
27.928600 0.629800
27.995100 0.599000
28.061500 0.558500
28.127900 0.508200
28.194300 0.483200
28.260700 0.474200
28.327200 0.465400
28.393600 0.443900
28.460000 0.447100
28.526400 0.455900
28.592800 0.461400
28.659300 0.462400
28.725700 0.466200
28.792100 0.468800
28.858500 0.471300
28.924900 0.485400
28.991400 0.509100
29.057800 0.538800
29.124200 0.572300
29.190600 0.629900
29.257000 0.822400
29.323500 0.830500
29.389900 0.828400
29.456300 0.792200
29.522700 0.709500
29.589100 0.645900
29.655600 0.541300
29.722000 0.443500
29.788400 0.374000
29.854800 0.314600
29.921200 0.274100
29.987700 0.253500
30.054100 0.242300
30.120500 0.340600
30.186900 0.358000
30.253300 0.391200
30.319800 0.437100
30.386200 0.553800
30.452600 0.647800
30.519000 0.746600
30.585400 0.787200
30.651900 0.819100
30.718300 0.848100
30.784700 0.859100
30.851100 0.868100
30.917500 0.868700
30.984000 0.868200
31.050400 0.880100
31.116800 0.930000
31.183200 0.832100
31.249600 0.835000
31.316100 0.828400
31.382500 0.831300
31.448900 0.868900
31.515300 0.916200
31.581700 0.966700
31.648200 1.023900
31.714600 1.087100
31.781000 1.289200
31.847400 1.410200
31.913800 1.015800
