set title 'mp-568286 - Density of States'
set xlabel 'Energy (eV)'
set ylabel 'DOS (states/eV)'
set grid
set xrange [-10:10]
set yrange [0:2.587]
set xzeroaxis lt -1
set terminal png size 800,600
set output 'mp-568286_dos_gnuplot.png'
plot '-' using 1:2 with lines title 'DOS'
-19.001600 0.000000
-18.971900 0.000000
-18.942200 0.000000
-18.912600 0.000000
-18.882900 0.000000
-18.853200 0.000000
-18.823500 0.000000
-18.793800 0.000000
-18.764100 0.000000
-18.734500 0.000000
-18.704800 0.000000
-18.675100 0.000000
-18.645400 0.000000
-18.615700 0.000000
-18.586000 0.000000
-18.556400 0.000000
-18.526700 0.000000
-18.497000 0.000000
-18.467300 0.000000
-18.437600 0.000000
-18.407900 0.000000
-18.378300 0.000000
-18.348600 0.000000
-18.318900 0.000000
-18.289200 0.000000
-18.259500 0.000000
-18.229800 0.000000
-18.200200 0.000000
-18.170500 0.000000
-18.140800 0.000000
-18.111100 0.000000
-18.081400 0.000000
-18.051700 0.000000
-18.022100 0.000000
-17.992400 0.000000
-17.962700 0.000000
-17.933000 0.000000
-17.903300 0.000000
-17.873600 0.000000
-17.844000 0.000000
-17.814300 0.000000
-17.784600 0.000000
-17.754900 0.000000
-17.725200 0.000000
-17.695500 0.000000
-17.665900 0.000000
-17.636200 0.000000
-17.606500 0.000000
-17.576800 0.000000
-17.547100 0.000000
-17.517400 0.000000
-17.487800 0.000000
-17.458100 0.000000
-17.428400 0.000000
-17.398700 0.000000
-17.369000 0.000000
-17.339300 0.000000
-17.309700 0.000000
-17.280000 0.000000
-17.250300 0.000000
-17.220600 0.000000
-17.190900 0.000000
-17.161200 0.000000
-17.131600 0.000000
-17.101900 0.000000
-17.072200 0.000000
-17.042500 0.000000
-17.012800 0.000000
-16.983200 0.000000
-16.953500 0.000000
-16.923800 0.000000
-16.894100 0.000000
-16.864400 0.000000
-16.834700 0.000000
-16.805100 0.000000
-16.775400 0.000000
-16.745700 0.000000
-16.716000 0.000000
-16.686300 0.000000
-16.656600 0.000000
-16.627000 0.000000
-16.597300 0.000000
-16.567600 0.000000
-16.537900 0.000000
-16.508200 0.000000
-16.478500 0.000000
-16.448900 0.000000
-16.419200 0.000000
-16.389500 0.000000
-16.359800 0.000000
-16.330100 0.000000
-16.300400 0.002900
-16.270800 0.215700
-16.241100 0.396200
-16.211400 0.585800
-16.181700 0.584500
-16.152000 0.608800
-16.122300 0.637400
-16.092700 0.631600
-16.063000 0.610200
-16.033300 0.591400
-16.003600 0.601900
-15.973900 0.618500
-15.944200 0.635100
-15.914600 0.633000
-15.884900 0.631600
-15.855200 0.607800
-15.825500 0.604200
-15.795800 0.604000
-15.766100 0.606800
-15.736500 0.614400
-15.706800 0.622900
-15.677100 0.631400
-15.647400 0.637000
-15.617700 0.631000
-15.588000 0.620300
-15.558400 0.610500
-15.528700 0.609200
-15.499000 0.610900
-15.469300 0.612500
-15.439600 0.614300
-15.409900 0.617600
-15.380300 0.621700
-15.350600 0.626900
-15.320900 0.632100
-15.291200 0.637200
-15.261500 0.630800
-15.231900 0.626000
-15.202200 0.618600
-15.172500 0.615200
-15.142800 0.614200
-15.113100 0.614800
-15.083400 0.617000
-15.053800 0.619100
-15.024100 0.621300
-14.994400 0.623400
-14.964700 0.625600
-14.935000 0.628300
-14.905300 0.631400
-14.875700 0.635000
-14.846000 0.636000
-14.816300 0.632600
-14.786600 0.626800
-14.756900 0.622400
-14.727200 0.621900
-14.697600 0.621600
-14.667900 0.621200
-14.638200 0.621200
-14.608500 0.622100
-14.578800 0.623800
-14.549100 0.625700
-14.519500 0.627700
-14.489800 0.629600
-14.460100 0.631500
-14.430400 0.633500
-14.400700 0.635400
-14.371000 0.637500
-14.341400 0.639800
-14.311700 0.636500
-14.282000 0.632300
-14.252300 0.630000
-14.222600 0.628200
-14.192900 0.627500
-14.163300 0.627800
-14.133600 0.628400
-14.103900 0.629100
-14.074200 0.629700
-14.044500 0.630300
-14.014800 0.631100
-13.985200 0.632200
-13.955500 0.633800
-13.925800 0.635500
-13.896100 0.637200
-13.866400 0.638900
-13.836700 0.640600
-13.807100 0.642300
-13.777400 0.644000
-13.747700 0.644200
-13.718000 0.641900
-13.688300 0.638600
-13.658600 0.636700
-13.629000 0.636600
-13.599300 0.636500
-13.569600 0.636400
-13.539900 0.636500
-13.510200 0.637000
-13.480500 0.638000
-13.450900 0.638900
-13.421200 0.639900
-13.391500 0.640900
-13.361800 0.641900
-13.332100 0.642900
-13.302500 0.643800
-13.272800 0.645000
-13.243100 0.646400
-13.213400 0.648000
-13.183700 0.649500
-13.154000 0.651100
-13.124400 0.652600
-13.094700 0.653100
-13.065000 0.652300
-13.035300 0.649600
-13.005600 0.648700
-12.975900 0.648100
-12.946300 0.648100
-12.916600 0.648600
-12.886900 0.649300
-12.857200 0.650000
-12.827500 0.650700
-12.797800 0.651400
-12.768200 0.652300
-12.738500 0.653400
-12.708800 0.654600
-12.679100 0.655900
-12.649400 0.657200
-12.619700 0.658400
-12.590100 0.659700
-12.560400 0.661000
-12.530700 0.662300
-12.501000 0.663500
-12.471300 0.664900
-12.441600 0.666500
-12.412000 0.668200
-12.382300 0.669600
-12.352600 0.669600
-12.322900 0.668800
-12.293200 0.668800
-12.263500 0.669600
-12.233900 0.670400
-12.204200 0.671300
-12.174500 0.672300
-12.144800 0.673600
-12.115100 0.675200
-12.085400 0.676800
-12.055800 0.678600
-12.026100 0.680600
-11.996400 0.682700
-11.966700 0.684700
-11.937000 0.686900
-11.907300 0.689600
-11.877700 0.692700
-11.848000 0.695800
-11.818300 0.698800
-11.788600 0.701900
-11.758900 0.705000
-11.729200 0.708100
-11.699600 0.711200
-11.669900 0.714300
-11.640200 0.717400
-11.610500 0.721800
-11.580800 0.728400
-11.551200 0.737000
-11.521500 0.746000
-11.491800 0.755600
-11.462100 0.765800
-11.432400 0.776400
-11.402700 0.787000
-11.373100 0.797600
-11.343400 0.808200
-11.313700 0.821800
-11.284000 0.839400
-11.254300 0.934200
-11.224600 1.052400
-11.195000 1.032700
-11.165300 0.997300
-11.135600 0.961900
-11.105900 1.204400
-11.076200 1.355500
-11.046500 1.070200
-11.016900 0.789200
-10.987200 0.641200
-10.957500 0.614800
-10.927800 0.593700
-10.898100 0.572600
-10.868400 0.551500
-10.838800 0.530500
-10.809100 0.509600
-10.779400 0.491800
-10.749700 0.483800
-10.720000 0.788500
-10.690300 0.780500
-10.660700 0.436100
-10.631000 0.423500
-10.601300 0.410900
-10.571600 0.398300
-10.541900 0.385700
-10.512200 0.373100
-10.482600 0.360500
-10.452900 0.347900
-10.423200 0.335300
-10.393500 0.322600
-10.363800 0.310000
-10.334100 0.297400
-10.304500 0.284800
-10.274800 0.272200
-10.245100 0.259600
-10.215400 0.247000
-10.185700 0.235700
-10.156000 0.252300
-10.126400 0.282100
-10.096700 0.312000
-10.067000 0.341900
-10.037300 0.371800
-10.007600 0.269500
-9.977900 0.160400
-9.948300 0.173300
-9.918600 0.262200
-9.888900 0.352400
-9.859200 0.442700
-9.829500 0.532900
-9.799800 0.623200
-9.770200 0.623300
-9.740500 0.470600
-9.710800 0.494600
-9.681100 0.701800
-9.651400 1.206200
-9.621800 0.949300
-9.592100 0.583500
-9.562400 0.586600
-9.532700 0.589600
-9.503000 0.592700
-9.473300 0.595700
-9.443700 0.598800
-9.414000 0.601800
-9.384300 0.604800
-9.354600 0.611000
-9.324900 0.635600
-9.295200 0.664900
-9.265600 1.337100
-9.235900 0.771100
-9.206200 0.808600
-9.176500 0.846000
-9.146800 0.883500
-9.117100 0.921000
-9.087500 0.958500
-9.057800 0.995900
-9.028100 1.034600
-8.998400 1.077400
-8.968700 1.121800
-8.939000 1.129700
-8.909400 0.829500
-8.879700 0.819300
-8.850000 0.809100
-8.820300 0.798900
-8.790600 0.788700
-8.760900 0.778700
-8.731300 0.768800
-8.701600 0.758900
-8.671900 0.749100
-8.642200 0.739700
-8.612500 0.731200
-8.582800 0.723000
-8.553200 0.714700
-8.523500 0.706400
-8.493800 0.698100
-8.464100 0.689800
-8.434400 0.681500
-8.404700 0.673200
-8.375100 0.664900
-8.345400 0.656600
-8.315700 0.648000
-8.286000 0.639200
-8.256300 0.633700
-8.226600 0.631200
-8.197000 0.628700
-8.167300 0.626300
-8.137600 0.623900
-8.107900 0.621600
-8.078200 0.619200
-8.048500 0.616900
-8.018900 0.614500
-7.989200 0.612200
-7.959500 0.609800
-7.929800 0.607300
-7.900100 0.604700
-7.870500 0.602200
-7.840800 0.599700
-7.811100 0.597200
-7.781400 0.594600
-7.751700 0.583000
-7.722000 0.554700
-7.692400 0.553500
-7.662700 0.552400
-7.633000 0.551200
-7.603300 0.550100
-7.573600 0.549000
-7.543900 0.547800
-7.514300 0.546700
-7.484600 0.545500
-7.454900 0.544300
-7.425200 0.543100
-7.395500 0.541900
-7.365800 0.540700
-7.336200 0.539500
-7.306500 0.539500
-7.276800 0.563400
-7.247100 0.588200
-7.217400 0.612900
-7.187700 0.637600
-7.158100 0.662400
-7.128400 0.687100
-7.098700 0.711900
-7.069000 0.736600
-7.039300 0.761300
-7.009600 0.786100
-6.980000 0.787300
-6.950300 0.721700
-6.920600 0.720600
-6.890900 0.721300
-6.861200 0.722000
-6.831500 0.722400
-6.801900 0.722400
-6.772200 0.722200
-6.742500 0.722100
-6.712800 0.722000
-6.683100 0.721900
-6.653400 0.721800
-6.623800 0.722000
-6.594100 0.726500
-6.564400 0.731800
-6.534700 0.737000
-6.505000 0.742200
-6.475300 0.747500
-6.445700 0.752700
-6.416000 0.758000
-6.386300 0.763200
-6.356600 0.768400
-6.326900 0.773600
-6.297200 0.778400
-6.267600 0.758200
-6.237900 0.755600
-6.208200 0.755000
-6.178500 0.755100
-6.148800 0.755400
-6.119200 0.755800
-6.089500 0.756100
-6.059800 0.756500
-6.030100 0.756800
-6.000400 0.757200
-5.970700 0.757500
-5.941100 0.757900
-5.911400 0.773800
-5.881700 0.783400
-5.852000 0.785500
-5.822300 0.787600
-5.792600 0.789600
-5.763000 0.791700
-5.733300 0.793700
-5.703600 0.795400
-5.673900 0.795400
-5.644200 0.795100
-5.614500 0.794700
-5.584900 0.794300
-5.555200 0.794000
-5.525500 0.793600
-5.495800 0.793200
-5.466100 0.792900
-5.436400 0.792500
-5.406800 0.794000
-5.377100 0.797100
-5.347400 0.802600
-5.317700 0.808900
-5.288000 0.815200
-5.258300 0.820500
-5.228700 0.825100
-5.199000 0.829700
-5.169300 0.834300
-5.139600 0.838900
-5.109900 0.843300
-5.080200 0.847300
-5.050600 0.851200
-5.020900 0.855100
-4.991200 0.857800
-4.961500 0.859200
-4.931800 0.860600
-4.902100 0.862100
-4.872500 0.863500
-4.842800 0.865000
-4.813100 0.866400
-4.783400 0.867800
-4.753700 0.869300
-4.724000 0.870700
-4.694400 0.891600
-4.664700 0.954400
-4.635000 0.989000
-4.605300 0.986500
-4.575600 1.016500
-4.545900 1.073100
-4.516300 1.117500
-4.486600 1.149300
-4.456900 1.175200
-4.427200 1.190500
-4.397500 1.191700
-4.367800 1.203500
-4.338200 1.213400
-4.308500 1.220600
-4.278800 1.226900
-4.249100 1.240400
-4.219400 1.271400
-4.189800 1.296700
-4.160100 1.322900
-4.130400 1.348100
-4.100700 1.373000
-4.071000 1.399800
-4.041300 1.423300
-4.011700 1.453800
-3.982000 1.509400
-3.952300 1.540600
-3.922600 1.534500
-3.892900 1.554100
-3.863200 1.579300
-3.833600 1.643500
-3.803900 1.690300
-3.774200 1.727600
-3.744500 1.768500
-3.714800 1.806800
-3.685100 1.840100
-3.655500 1.868000
-3.625800 1.888800
-3.596100 1.906100
-3.566400 1.917700
-3.536700 1.927100
-3.507000 1.933800
-3.477400 1.873400
-3.447700 1.817400
-3.418000 1.772900
-3.388300 1.728600
-3.358600 1.699800
-3.328900 1.893300
-3.299300 2.115400
-3.269600 2.170400
-3.239900 2.246200
-3.210200 2.305900
-3.180500 2.352000
-3.150800 2.045100
-3.121200 1.948300
-3.091500 1.923600
-3.061800 1.802300
-3.032100 1.771200
-3.002400 1.762000
-2.972700 1.771100
-2.943100 1.804900
-2.913400 1.846500
-2.883700 1.851600
-2.854000 1.996500
-2.824300 1.824500
-2.794600 1.777600
-2.765000 1.735500
-2.735300 1.686900
-2.705600 1.688200
-2.675900 1.716700
-2.646200 1.677700
-2.616500 1.589900
-2.586900 1.525500
-2.557200 1.455300
-2.527500 1.532300
-2.497800 1.358700
-2.468100 1.192300
-2.438500 1.049800
-2.408800 1.135100
-2.379100 1.220300
-2.349400 1.208300
-2.319700 1.260400
-2.290000 1.329000
-2.260400 1.352800
-2.230700 1.332500
-2.201000 1.324400
-2.171300 1.298100
-2.141600 1.300200
-2.111900 1.507800
-2.082300 1.600400
-2.052600 1.539500
-2.022900 1.482500
-1.993200 1.456900
-1.963500 1.447000
-1.933800 1.435000
-1.904200 1.423700
-1.874500 1.413900
-1.844800 1.403200
-1.815100 1.388100
-1.785400 1.364200
-1.755700 1.338000
-1.726100 1.311300
-1.696400 1.299900
-1.666700 1.288200
-1.637000 1.279700
-1.607300 1.272600
-1.577600 1.264200
-1.548000 1.256100
-1.518300 1.248400
-1.488600 1.241100
-1.458900 1.234400
-1.429200 1.228300
-1.399500 1.222400
-1.369900 1.216700
-1.340200 1.211000
-1.310500 1.205200
-1.280800 1.199300
-1.251100 1.193300
-1.221400 1.187200
-1.191800 1.181500
-1.162100 1.178500
-1.132400 1.175100
-1.102700 1.175400
-1.073000 1.197800
-1.043300 1.193700
-1.013700 1.187700
-0.984000 1.181700
-0.954300 1.175700
-0.924600 1.169300
-0.894900 1.163100
-0.865200 1.156900
-0.835600 1.150700
-0.805900 1.144600
-0.776200 1.138500
-0.746500 1.132500
-0.716800 1.126700
-0.687100 1.121900
-0.657500 1.122800
-0.627800 1.125900
-0.598100 1.130100
-0.568400 1.145100
-0.538700 1.158700
-0.509100 1.154200
-0.479400 1.149700
-0.449700 1.145300
-0.420000 1.139300
-0.390300 1.130900
-0.360600 1.122400
-0.331000 1.114300
-0.301300 1.106500
-0.271600 1.098900
-0.241900 1.093500
-0.212200 1.108900
-0.182500 1.128500
-0.152900 1.142900
-0.123200 1.132200
-0.093500 1.118900
-0.063800 1.105800
-0.034100 1.118200
-0.004400 1.178000
0.025200 1.131300
0.054900 1.085100
0.084600 1.184900
0.114300 1.081700
0.144000 0.949400
0.173700 0.817500
0.203300 0.717500
0.233000 0.720200
0.262700 0.727500
0.292400 0.735100
0.322100 0.743200
0.351800 0.751900
0.381400 0.761500
0.411100 0.772600
0.440800 0.785000
0.470500 0.799100
0.500200 0.815300
0.529900 0.833600
0.559500 0.853800
0.589200 0.892200
0.618900 0.911600
0.648600 0.928300
0.678300 0.944100
0.708000 0.989700
0.737600 1.040700
0.767300 1.089400
0.797000 1.084600
0.826700 1.128600
0.856400 1.188900
0.886100 1.224400
0.915700 1.031500
0.945400 0.971400
0.975100 0.891400
1.004800 0.883800
1.034500 0.852200
1.064200 0.815000
1.093800 0.795300
1.123500 0.771300
1.153200 0.740900
1.182900 0.715600
1.212600 0.682800
1.242200 0.632800
1.271900 0.601000
1.301600 0.569100
1.331300 0.561400
1.361000 0.552800
1.390700 0.548600
1.420300 0.544900
1.450000 0.541800
1.479700 0.496800
1.509400 0.472300
1.539100 0.456700
1.568800 0.452800
1.598400 0.440900
1.628100 0.427600
1.657800 0.414700
1.687500 0.407200
1.717200 0.400100
1.746900 0.393100
1.776500 0.384300
1.806200 0.372700
1.835900 0.364700
1.865600 0.354000
1.895300 0.342100
1.925000 0.329800
1.954600 0.316800
1.984300 0.303700
2.014000 0.290800
2.043700 0.278200
2.073400 0.265700
2.103100 0.260300
2.132700 0.257000
2.162400 0.253800
2.192100 0.250700
2.221800 0.247900
2.251500 0.245400
2.281200 0.239000
2.310800 0.235100
2.340500 0.226600
2.370200 0.207600
2.399900 0.192900
2.429600 0.179700
2.459300 0.174700
2.488900 0.169700
2.518600 0.160200
2.548300 0.150400
2.578000 0.140600
2.607700 0.134000
2.637400 0.127100
2.667000 0.119300
2.696700 0.110800
2.726400 0.103400
2.756100 0.096000
2.785800 0.088600
2.815500 0.081200
2.845100 0.073800
2.874800 0.066400
2.904500 0.059000
2.934200 0.051600
2.963900 0.044200
2.993600 0.036800
3.023200 0.029400
3.052900 0.022500
3.082600 0.016300
3.112300 0.010700
3.142000 0.005500
3.171600 0.001400
3.201300 0.000100
3.231000 0.000000
3.260700 0.000100
3.290400 0.001500
3.320100 0.005200
3.349700 0.009700
3.379400 0.014700
3.409100 0.020300
3.438800 0.026500
3.468500 0.033800
3.498200 0.041500
3.527800 0.049300
3.557500 0.057000
3.587200 0.064800
3.616900 0.072500
3.646600 0.080300
3.676300 0.088000
3.705900 0.095800
3.735600 0.103600
3.765300 0.111300
3.795000 0.119100
3.824700 0.126200
3.854400 0.133900
3.884000 0.143400
3.913700 0.154700
3.943400 0.168800
3.973100 0.200600
4.002800 0.222100
4.032500 0.231300
4.062100 0.241700
4.091800 0.249100
4.121500 0.254100
4.151200 0.257400
4.180900 0.258400
4.210600 0.259500
4.240200 0.263000
4.269900 0.272800
4.299600 0.283700
4.329300 0.296600
4.359000 0.313000
4.388700 0.333300
4.418300 0.354400
4.448000 0.375500
4.477700 0.396600
4.507400 0.417600
4.537100 0.504100
4.566800 0.486800
4.596400 0.504000
4.626100 0.542100
4.655800 0.614000
4.685500 0.723200
4.715200 0.722300
4.744900 0.750000
4.774500 0.775200
4.804200 0.797800
4.833900 0.789400
4.863600 0.827700
4.893300 0.850400
4.922900 1.462300
4.952600 1.234700
4.982300 1.361000
5.012000 1.242300
5.041700 1.199100
5.071400 1.101400
5.101000 1.051100
5.130700 0.996300
5.160400 0.969200
5.190100 0.959800
5.219800 0.936500
5.249500 0.880700
5.279100 0.860100
5.308800 0.829100
5.338500 0.796300
5.368200 0.775200
5.397900 0.756300
5.427600 0.738800
5.457200 0.723000
5.486900 0.707900
5.516600 0.693600
5.546300 0.677200
5.576000 0.664500
5.605700 0.653700
5.635300 0.645400
5.665000 0.637700
5.694700 0.630300
5.724400 0.623200
5.754100 0.616100
5.783800 0.609600
5.813400 0.603500
5.843100 0.597700
5.872800 0.592100
5.902500 0.586700
5.932200 0.581600
5.961900 0.576600
5.991500 0.571600
6.021200 0.566800
6.050900 0.562100
6.080600 0.557500
6.110300 0.552800
6.140000 0.548300
6.169600 0.543800
6.199300 0.539500
6.229000 0.535300
6.258700 0.531000
6.288400 0.526700
6.318100 0.522300
6.347700 0.517800
6.377400 0.513300
6.407100 0.508800
6.436800 0.504500
6.466500 0.499800
6.496200 0.494100
6.525800 0.490200
6.555500 0.495900
6.585200 0.509700
6.614900 0.518100
6.644600 0.527400
6.674300 0.537500
6.703900 0.548400
6.733600 0.555700
6.763300 0.556400
6.793000 0.559100
6.822700 0.561500
6.852300 0.563700
6.882000 0.565600
6.911700 0.567400
6.941400 0.569800
6.971100 0.573100
7.000800 0.576900
7.030400 0.579500
7.060100 0.582000
7.089800 0.584100
7.119500 0.586000
7.149200 0.587600
7.178900 0.589200
7.208500 0.591400
7.238200 0.593700
7.267900 0.595700
7.297600 0.597500
7.327300 0.599300
7.357000 0.601100
7.386600 0.602600
7.416300 0.603500
7.446000 0.602600
7.475700 0.602900
7.505400 0.603500
7.535100 0.605100
7.564700 0.607000
7.594400 0.609200
7.624100 0.611600
7.653800 0.613900
7.683500 0.616700
7.713200 0.619500
7.742800 0.622500
7.772500 0.625500
7.802200 0.628600
7.831900 0.631700
7.861600 0.633700
7.891300 0.632900
7.920900 0.630600
7.950600 0.629400
7.980300 0.627900
8.010000 0.626100
8.039700 0.624600
8.069400 0.623100
8.099000 0.622100
8.128700 0.621300
8.158400 0.620600
8.188100 0.619900
8.217800 0.619100
8.247500 0.618200
8.277100 0.617900
8.306800 0.619800
8.336500 0.623800
8.366200 0.627300
8.395900 0.631000
8.425600 0.634400
8.455200 0.637600
8.484900 0.640500
8.514600 0.643300
8.544300 0.646000
8.574000 0.649400
8.603600 0.653400
8.633300 0.664600
8.663000 0.694600
8.692700 0.717100
8.722400 0.735000
8.752100 0.747000
8.781700 0.753400
8.811400 0.754000
8.841100 0.750300
8.870800 0.745500
8.900500 0.739700
8.930200 0.732700
8.959800 0.724600
8.989500 0.715400
9.019200 0.705800
9.048900 0.696800
9.078600 0.687100
9.108300 0.670100
9.137900 0.656400
9.167600 0.655300
9.197300 0.634000
9.227000 0.591600
9.256700 0.560900
9.286400 0.542000
9.316000 0.528600
9.345700 0.514000
9.375400 0.499800
9.405100 0.493400
9.434800 0.497600
9.464500 0.500700
9.494100 0.503400
9.523800 0.516200
9.553500 0.539000
9.583200 0.553000
9.612900 0.590200
9.642600 0.600500
9.672200 0.606700
9.701900 0.646300
9.731600 0.667100
9.761300 0.682900
9.791000 0.699300
9.820700 0.716200
9.850300 0.732100
9.880000 0.742100
9.909700 0.746800
9.939400 0.749900
9.969100 0.753700
9.998800 0.759100
10.028400 0.766600
10.058100 0.777400
10.087800 0.791300
10.117500 0.799100
10.147200 0.798300
10.176900 0.797300
10.206500 0.805200
10.236200 0.814600
10.265900 0.822800
10.295600 0.828900
10.325300 0.833000
10.355000 0.837700
10.384600 0.839800
10.414300 0.832500
10.444000 0.824600
10.473700 0.817800
10.503400 0.795600
10.533000 0.783300
10.562700 0.808100
10.592400 1.059200
10.622100 1.295800
10.651800 1.561500
10.681500 1.764500
10.711100 1.903500
10.740800 2.000900
10.770500 2.058400
10.800200 2.091900
10.829900 2.028100
10.859600 1.886500
10.889200 1.790000
10.918900 1.677300
10.948600 1.641100
10.978300 1.640100
11.008000 1.663400
11.037700 1.727400
11.067300 1.783600
11.097000 1.825900
11.126700 1.858500
11.156400 1.879200
11.186100 1.897200
11.215800 1.915600
11.245400 1.927200
11.275100 1.939500
11.304800 1.904300
11.334500 1.917400
11.364200 1.944900
11.393900 1.984200
11.423500 2.033100
11.453200 2.086800
11.482900 2.147300
11.512600 2.230600
11.542300 3.039200
11.572000 3.397700
11.601600 4.349300
11.631300 4.318400
11.661000 4.005900
11.690700 3.813800
11.720400 3.475500
11.750100 2.844700
11.779700 2.526600
11.809400 2.438200
