set title 'mp-978533 - Density of States'
set xlabel 'Energy (eV)'
set ylabel 'DOS (states/eV)'
set grid
set xrange [-10:10]
set yrange [0:30.367]
set xzeroaxis lt -1
set terminal png size 800,600
set output 'mp-978533_dos_gnuplot.png'
plot '-' using 1:2 with lines title 'DOS'
-8.045900 0.000000
-8.027500 0.000000
-8.009000 0.000000
-7.990600 0.000000
-7.972100 0.000000
-7.953700 0.000000
-7.935200 0.000000
-7.916800 0.000000
-7.898300 0.000000
-7.879900 0.000000
-7.861400 0.000000
-7.843000 0.000000
-7.824500 0.000000
-7.806000 0.000000
-7.787600 0.000000
-7.769100 0.000000
-7.750700 0.000000
-7.732200 0.000000
-7.713800 0.000000
-7.695300 0.000000
-7.676900 0.000000
-7.658400 0.000000
-7.640000 0.000000
-7.621500 0.000000
-7.603100 0.000000
-7.584600 0.000000
-7.566200 0.000000
-7.547700 0.000000
-7.529300 0.000000
-7.510800 0.000000
-7.492300 0.000000
-7.473900 0.000000
-7.455400 0.000000
-7.437000 0.000000
-7.418500 0.000000
-7.400100 0.000000
-7.381600 0.000000
-7.363200 0.000000
-7.344700 0.000000
-7.326300 0.000000
-7.307800 0.000000
-7.289400 0.000000
-7.270900 0.000000
-7.252500 0.000000
-7.234000 0.000000
-7.215600 0.000000
-7.197100 0.000000
-7.178600 0.000000
-7.160200 0.000000
-7.141700 0.000000
-7.123300 0.000000
-7.104800 0.000000
-7.086400 0.000000
-7.067900 0.000000
-7.049500 0.000000
-7.031000 0.000000
-7.012600 0.000000
-6.994100 0.000000
-6.975700 0.000000
-6.957200 0.000000
-6.938800 0.000000
-6.920300 0.000000
-6.901900 0.000000
-6.883400 0.000000
-6.864900 0.000000
-6.846500 0.000000
-6.828000 0.000000
-6.809600 0.000000
-6.791100 0.000000
-6.772700 0.000000
-6.754200 0.000000
-6.735800 0.000000
-6.717300 0.000000
-6.698900 0.000000
-6.680400 0.000000
-6.662000 0.000000
-6.643500 0.000000
-6.625100 0.000000
-6.606600 0.000000
-6.588200 0.000000
-6.569700 0.000000
-6.551200 0.000000
-6.532800 0.000000
-6.514300 0.000000
-6.495900 0.000000
-6.477400 0.000000
-6.459000 0.000000
-6.440500 0.000000
-6.422100 0.000000
-6.403600 0.000000
-6.385200 0.000000
-6.366700 0.000100
-6.348300 0.011400
-6.329800 0.041900
-6.311400 0.089300
-6.292900 0.132200
-6.274500 0.171700
-6.256000 0.186200
-6.237500 0.200400
-6.219100 0.215000
-6.200600 0.231600
-6.182200 0.238600
-6.163700 0.255900
-6.145300 0.274600
-6.126800 0.293800
-6.108400 0.313700
-6.089900 0.334100
-6.071500 0.351600
-6.053000 0.363700
-6.034600 0.371500
-6.016100 0.381900
-5.997700 0.393500
-5.979200 0.406000
-5.960800 0.418500
-5.942300 0.431100
-5.923800 0.443600
-5.905400 0.456800
-5.886900 0.470600
-5.868500 0.484700
-5.850000 0.499100
-5.831600 0.513900
-5.813100 0.529800
-5.794700 0.547200
-5.776200 0.565300
-5.757800 0.584200
-5.739300 0.602000
-5.720900 0.618400
-5.702400 0.634500
-5.684000 0.650600
-5.665500 0.666900
-5.647100 0.684400
-5.628600 0.702400
-5.610100 0.720700
-5.591700 0.739500
-5.573200 0.758700
-5.554800 0.779400
-5.536300 0.810000
-5.517900 0.842400
-5.499400 0.879400
-5.481000 0.925500
-5.462500 0.975900
-5.444100 1.030200
-5.425600 1.070700
-5.407200 1.097500
-5.388700 1.110600
-5.370300 1.123600
-5.351800 1.151700
-5.333300 1.183300
-5.314900 1.221900
-5.296400 1.267500
-5.278000 1.307600
-5.259500 1.344700
-5.241100 1.390800
-5.222600 1.446900
-5.204200 1.516600
-5.185700 1.598700
-5.167300 1.686500
-5.148800 1.782900
-5.130400 2.759200
-5.111900 4.840500
-5.093500 6.314800
-5.075000 6.193800
-5.056600 5.144400
-5.038100 4.735200
-5.019600 4.326500
-5.001200 3.932300
-4.982700 3.343300
-4.964300 2.817700
-4.945800 2.539800
-4.927400 2.388100
-4.908900 2.305100
-4.890500 2.094800
-4.872000 1.865500
-4.853600 1.741200
-4.835100 1.675400
-4.816700 1.479000
-4.798200 1.159600
-4.779800 0.805300
-4.761300 0.497300
-4.742900 0.236000
-4.724400 0.045500
-4.705900 0.000000
-4.687500 0.000000
-4.669000 0.015100
-4.650600 0.176200
-4.632100 0.422300
-4.613700 0.742400
-4.595200 0.813200
-4.576800 0.882400
-4.558300 1.035800
-4.539900 1.253300
-4.521400 1.582300
-4.503000 2.284400
-4.484500 3.043400
-4.466100 3.924300
-4.447600 5.879900
-4.429200 6.490700
-4.410700 6.798200
-4.392200 6.780700
-4.373800 7.051300
-4.355300 7.911800
-4.336900 7.689200
-4.318400 7.825600
-4.300000 8.301400
-4.281500 7.585200
-4.263100 8.027900
-4.244600 8.397600
-4.226200 8.341400
-4.207700 8.456500
-4.189300 8.715700
-4.170800 9.461700
-4.152400 11.314400
-4.133900 13.737600
-4.115500 16.468600
-4.097000 17.820200
-4.078500 17.888600
-4.060100 18.078300
-4.041600 15.669400
-4.023200 15.263000
-4.004700 15.828100
-3.986300 13.678100
-3.967800 14.829200
-3.949400 16.994500
-3.930900 19.607800
-3.912500 17.622400
-3.894000 16.004100
-3.875600 13.576600
-3.857100 12.640000
-3.838700 20.825000
-3.820200 26.386500
-3.801800 16.112200
-3.783300 17.599200
-3.764800 17.119900
-3.746400 12.111800
-3.727900 15.118600
-3.709500 16.955600
-3.691000 13.417800
-3.672600 8.856200
-3.654100 9.138500
-3.635700 11.929500
-3.617200 18.434800
-3.598800 16.687400
-3.580300 13.702600
-3.561900 14.545600
-3.543400 11.111900
-3.525000 14.977700
-3.506500 24.699800
-3.488100 27.606300
-3.469600 11.428100
-3.451100 15.539900
-3.432700 17.861200
-3.414200 18.263100
-3.395800 16.740800
-3.377300 19.517800
-3.358900 26.268100
-3.340400 20.107600
-3.322000 22.401700
-3.303500 19.246700
-3.285100 19.009500
-3.266600 18.899800
-3.248200 17.438900
-3.229700 16.576600
-3.211300 19.093700
-3.192800 24.476000
-3.174400 24.465700
-3.155900 22.831400
-3.137400 18.729000
-3.119000 17.811700
-3.100500 17.697600
-3.082100 18.076300
-3.063600 19.104900
-3.045200 17.234800
-3.026700 16.195300
-3.008300 13.937700
-2.989800 13.279900
-2.971400 13.081500
-2.952900 12.160800
-2.934500 13.940100
-2.916000 13.658000
-2.897600 14.395000
-2.879100 16.047700
-2.860600 17.693400
-2.842200 17.729100
-2.823700 17.297300
-2.805300 15.862500
-2.786800 15.700800
-2.768400 16.760800
-2.749900 20.386200
-2.731500 15.816400
-2.713000 19.684900
-2.694600 18.471500
-2.676100 12.453600
-2.657700 11.167200
-2.639200 9.838300
-2.620800 9.343000
-2.602300 5.665300
-2.583900 5.878400
-2.565400 6.620100
-2.546900 8.625000
-2.528500 8.650500
-2.510000 8.296300
-2.491600 7.590100
-2.473100 5.683400
-2.454700 3.793400
-2.436200 3.286600
-2.417800 2.799100
-2.399300 2.498000
-2.380900 2.432600
-2.362400 2.359200
-2.344000 2.296100
-2.325500 2.141100
-2.307100 2.086200
-2.288600 2.009500
-2.270200 1.929600
-2.251700 1.847500
-2.233200 1.762900
-2.214800 1.669300
-2.196300 1.624200
-2.177900 1.682000
-2.159400 1.744400
-2.141000 1.754900
-2.122500 1.638600
-2.104100 1.421100
-2.085600 1.208100
-2.067200 1.032300
-2.048700 1.023400
-2.030300 1.212500
-2.011800 1.328600
-1.993400 1.371900
-1.974900 1.482500
-1.956500 1.597300
-1.938000 1.659200
-1.919500 1.703400
-1.901100 1.730400
-1.882600 1.740400
-1.864200 1.730700
-1.845700 1.687900
-1.827300 1.624300
-1.808800 1.616000
-1.790400 1.606100
-1.771900 1.585300
-1.753500 1.552500
-1.735000 1.515800
-1.716600 1.488900
-1.698100 1.455800
-1.679700 1.406000
-1.661200 1.379200
-1.642800 1.213400
-1.624300 1.217500
-1.605800 1.225000
-1.587400 1.232800
-1.568900 1.241200
-1.550500 1.250100
-1.532000 1.258600
-1.513600 1.269300
-1.495100 1.282000
-1.476700 1.296800
-1.458200 1.309600
-1.439800 1.316700
-1.421300 1.319900
-1.402900 1.324500
-1.384400 1.335700
-1.366000 1.337600
-1.347500 1.342000
-1.329100 1.350000
-1.310600 1.358800
-1.292100 1.367200
-1.273700 1.370800
-1.255200 1.374200
-1.236800 1.379700
-1.218300 1.403900
-1.199900 1.432400
-1.181400 1.456600
-1.163000 1.475400
-1.144500 1.488200
-1.126100 1.494200
-1.107600 1.499600
-1.089200 1.495000
-1.070700 1.465600
-1.052300 1.461200
-1.033800 1.462900
-1.015400 1.462900
-0.996900 1.462400
-0.978400 1.456400
-0.960000 1.450700
-0.941500 1.447900
-0.923100 1.448700
-0.904600 1.452000
-0.886200 1.457400
-0.867700 1.462600
-0.849300 1.467500
-0.830800 1.469900
-0.812400 1.472500
-0.793900 1.475100
-0.775500 1.512500
-0.757000 1.510500
-0.738600 1.509100
-0.720100 1.508500
-0.701600 1.508400
-0.683200 1.522900
-0.664700 1.518500
-0.646300 1.507900
-0.627800 1.508500
-0.609400 1.466400
-0.590900 1.453700
-0.572500 1.445700
-0.554000 1.458300
-0.535600 1.440400
-0.517100 1.422500
-0.498700 1.407900
-0.480200 1.392700
-0.461800 1.377200
-0.443300 1.361100
-0.424900 1.343100
-0.406400 1.323100
-0.387900 1.326900
-0.369500 1.351200
-0.351000 1.276700
-0.332600 1.216100
-0.314100 1.182300
-0.295700 1.203800
-0.277200 1.212900
-0.258800 1.219700
-0.240300 1.218900
-0.221900 1.199300
-0.203400 1.181700
-0.185000 1.163500
-0.166500 1.144400
-0.148100 1.124600
-0.129600 1.117600
-0.111200 1.118700
-0.092700 1.128300
-0.074200 1.120700
-0.055800 1.133800
-0.037300 1.144700
-0.018900 1.153300
-0.000400 1.158700
0.018000 1.209200
0.036500 1.218700
0.054900 1.228700
0.073400 1.225600
0.091800 1.219000
0.110300 1.213800
0.128700 1.204400
0.147200 1.226800
0.165600 1.209100
0.184100 1.199400
0.202500 1.194000
0.221000 1.192900
0.239500 1.195800
0.257900 1.224500
0.276400 1.253700
0.294800 1.291300
0.313300 1.339900
0.331700 1.371200
0.350200 1.364700
0.368600 1.340000
0.387100 1.333300
0.405500 1.308700
0.424000 1.301300
0.442400 1.298500
0.460900 1.299000
0.479300 1.286900
0.497800 1.257900
0.516200 1.253800
0.534700 1.221700
0.553200 1.210500
0.571600 1.197900
0.590100 1.188100
0.608500 1.125000
0.627000 1.110400
0.645400 1.096600
0.663900 1.082800
0.682300 1.068700
0.700800 1.054300
0.719200 1.039200
0.737700 1.023400
0.756100 1.008300
0.774600 0.995200
0.793000 0.988800
0.811500 0.984100
0.829900 0.979900
0.848400 0.976200
0.866900 0.973100
0.885300 0.968100
0.903800 0.969800
0.922200 0.972900
0.940700 0.976900
0.959100 0.982700
0.977600 0.999800
0.996000 1.026700
1.014500 1.077600
1.032900 1.154900
1.051400 1.213200
1.069800 1.231500
1.088300 1.272500
1.106700 1.337700
1.125200 1.416400
1.143600 1.508000
1.162100 1.596200
1.180600 1.650900
1.199000 1.778200
1.217500 1.876600
1.235900 1.888800
1.254400 1.927200
1.272800 1.992700
1.291300 2.069500
1.309700 2.212800
1.328200 2.311300
1.346600 2.400800
1.365100 2.454700
1.383500 2.481000
1.402000 2.482600
1.420400 2.451000
1.438900 2.415200
1.457300 2.395400
1.475800 2.259800
1.494300 2.170500
1.512700 2.123500
1.531200 2.098600
1.549600 2.110700
1.568100 2.084100
1.586500 2.067200
1.605000 2.008200
1.623400 1.940100
1.641900 1.816600
1.660300 1.726900
1.678800 1.664400
1.697200 1.589300
1.715700 1.513600
1.734100 1.452600
1.752600 1.393000
1.771100 1.344600
1.789500 1.305100
1.808000 1.342300
1.826400 1.339000
1.844900 1.295400
1.863300 1.278700
1.881800 1.274900
1.900200 1.273400
1.918700 1.265000
1.937100 1.257200
1.955600 1.257400
1.974000 1.263600
1.992500 1.280100
2.010900 1.285000
2.029400 1.296100
2.047800 1.337300
2.066300 1.332300
2.084800 1.273600
2.103200 1.250600
2.121700 1.230100
2.140100 1.213000
2.158600 1.203900
2.177000 1.204300
2.195500 1.164100
2.213900 1.160400
2.232400 1.137900
2.250800 1.121800
2.269300 1.112600
2.287700 1.110600
2.306200 1.115500
2.324600 1.125600
2.343100 1.136500
2.361500 1.155200
2.380000 1.179200
2.398500 1.206500
2.416900 1.238500
2.435400 1.275700
2.453800 1.315700
2.472300 1.496800
2.490700 1.373500
2.509200 1.392500
2.527600 1.407200
2.546100 1.421500
2.564500 1.438900
2.583000 1.452700
2.601400 1.463900
2.619900 1.472900
2.638300 1.479600
2.656800 1.483500
2.675200 1.485600
2.693700 1.489600
2.712200 1.495800
2.730600 1.504400
2.749100 1.461800
2.767500 1.442200
2.786000 1.435900
2.804400 1.428700
2.822900 1.419300
2.841300 1.407900
2.859800 1.401500
2.878200 1.397000
2.896700 1.397900
2.915100 1.400900
2.933600 1.406500
2.952000 1.417000
2.970500 1.440200
2.988900 1.463400
3.007400 1.474400
3.025900 1.470900
3.044300 1.485300
3.062800 1.492700
3.081200 1.498700
3.099700 1.511800
3.118100 1.530700
3.136600 1.554600
3.155000 1.573600
3.173500 1.603800
3.191900 1.636000
3.210400 1.650500
3.228800 1.685100
3.247300 1.721800
3.265700 1.758300
3.284200 1.795800
3.302600 1.833000
3.321100 1.867600
3.339600 1.899000
3.358000 1.927700
3.376500 1.952800
3.394900 1.976900
3.413400 1.992600
3.431800 1.997300
3.450300 2.000900
3.468700 2.011400
3.487200 2.025300
3.505600 2.041200
3.524100 2.051200
3.542500 2.055900
3.561000 2.057300
3.579400 2.058800
3.597900 2.064100
3.616300 2.097500
3.634800 2.254000
3.653300 2.284500
3.671700 2.167800
3.690200 2.111900
3.708600 2.091200
3.727100 2.082100
3.745500 2.084500
3.764000 2.097700
3.782400 2.120300
3.800900 2.146200
3.819300 2.101700
3.837800 2.089200
3.856200 2.073100
3.874700 2.044600
3.893100 2.029000
3.911600 2.016300
3.930100 2.015500
3.948500 2.114800
3.967000 2.344300
3.985400 1.988000
4.003900 1.917300
4.022300 1.821800
4.040800 1.759400
4.059200 1.728000
4.077700 1.698600
4.096100 1.673600
4.114600 1.650100
4.133000 1.639500
4.151500 1.622100
4.169900 1.609800
4.188400 1.597800
4.206800 1.584700
4.225300 1.573200
4.243800 1.560600
4.262200 1.549200
4.280700 1.533100
4.299100 1.517000
4.317600 1.511600
4.336000 1.509700
4.354500 1.572500
4.372900 1.567200
4.391400 1.569300
4.409800 1.585400
4.428300 1.604000
4.446700 1.612600
4.465200 1.717600
4.483600 1.704100
4.502100 1.718100
4.520500 1.732700
4.539000 1.747500
4.557500 1.760100
4.575900 1.771700
4.594400 1.780300
4.612800 1.789800
4.631300 1.801000
4.649700 1.816000
4.668200 1.837500
4.686600 1.844500
4.705100 1.859200
4.723500 1.876900
4.742000 1.885500
4.760400 1.886800
4.778900 1.888400
4.797300 1.896000
4.815800 1.953500
4.834200 1.963100
4.852700 1.958600
4.871200 1.898100
4.889600 1.862900
4.908100 1.854600
4.926500 1.847800
4.945000 1.831400
4.963400 1.826400
4.981900 1.824300
5.000300 1.825700
5.018800 1.826400
5.037200 1.827400
5.055700 1.834900
5.074100 1.842000
5.092600 1.852100
5.111000 1.874100
5.129500 1.855400
5.147900 1.835200
5.166400 1.828600
5.184900 1.835500
5.203300 1.844000
5.221800 1.858100
5.240200 1.870600
5.258700 1.897400
5.277100 1.929100
5.295600 1.970200
5.314000 2.002600
5.332500 2.030400
5.350900 2.057100
5.369400 2.083600
5.387800 2.121300
5.406300 2.133900
5.424700 2.125600
5.443200 2.194300
5.461600 2.130500
5.480100 2.071400
5.498600 1.945100
5.517000 1.948200
5.535500 1.983600
5.553900 2.007900
5.572400 2.023200
5.590800 2.034200
5.609300 2.043800
5.627700 2.054400
5.646200 2.061900
5.664600 2.067600
5.683100 2.077700
5.701500 2.071700
5.720000 2.059800
5.738400 2.042000
5.756900 2.022700
5.775300 2.068100
5.793800 2.067100
5.812300 2.065700
5.830700 1.939300
5.849200 1.860600
5.867600 1.779100
5.886100 1.723300
5.904500 1.675000
5.923000 1.621300
5.941400 1.558800
5.959900 1.443000
5.978300 1.365500
5.996800 1.337500
6.015200 1.355200
6.033700 1.350900
6.052100 1.345500
6.070600 1.345700
6.089000 1.345100
6.107500 1.342600
6.126000 1.337200
6.144400 1.297200
6.162900 1.145200
6.181300 1.041100
6.199800 0.997100
6.218200 0.989900
6.236700 0.986600
6.255100 0.992100
6.273600 1.006200
6.292000 1.026400
6.310500 1.049400
6.328900 1.072500
6.347400 1.086800
6.365800 1.109000
6.384300 1.130800
6.402800 1.153900
6.421200 1.177300
6.439700 1.202500
6.458100 1.226500
6.476600 1.248500
6.495000 1.313100
6.513500 1.352100
6.531900 1.377200
6.550400 1.401400
6.568800 1.425000
6.587300 1.452900
6.605700 1.487500
6.624200 1.511900
6.642600 1.532400
6.661100 1.555900
6.679500 1.582300
6.698000 1.635200
6.716500 1.639300
6.734900 1.632600
6.753400 1.620200
6.771800 1.600200
6.790300 1.567700
6.808700 1.525900
6.827200 1.476700
6.845600 1.442000
6.864100 1.417400
6.882500 1.393400
6.901000 1.375700
6.919400 1.382600
6.937900 1.393300
6.956300 1.409900
6.974800 1.436200
6.993200 1.466200
7.011700 1.465800
7.030200 1.482900
7.048600 1.507700
7.067100 1.531400
7.085500 1.557600
7.104000 1.585600
7.122400 1.623900
7.140900 1.686500
7.159300 1.702700
7.177800 1.826700
7.196200 1.881000
7.214700 1.925000
7.233100 1.964100
7.251600 1.988100
7.270000 1.992200
7.288500 1.986400
7.306900 1.976500
7.325400 2.010800
7.343900 2.060700
7.362300 2.108000
7.380800 2.156500
7.399200 2.205800
7.417700 2.242700
7.436100 2.274100
7.454600 2.305800
7.473000 2.340600
7.491500 2.384800
7.509900 2.444100
7.528400 2.494200
7.546800 2.646100
7.565300 2.703700
7.583700 2.732600
7.602200 2.910500
7.620600 2.791100
7.639100 2.345800
7.657600 2.254100
7.676000 2.159700
7.694500 2.083900
7.712900 2.032400
7.731400 1.986300
7.749800 1.937800
7.768300 1.887200
7.786700 1.838400
7.805200 1.793400
7.823600 1.748200
7.842100 1.694700
7.860500 1.672400
7.879000 1.649800
7.897400 1.627000
7.915900 1.593500
7.934300 1.573100
7.952800 1.551700
7.971300 1.539400
7.989700 1.548400
8.008200 1.567000
8.026600 1.596600
8.045100 1.635200
8.063500 1.663300
8.082000 1.685600
8.100400 1.704900
8.118900 1.737200
8.137300 1.780300
8.155800 1.844900
8.174200 1.947400
8.192700 2.096300
8.211100 2.273600
8.229600 2.482700
8.248000 2.669700
8.266500 2.833000
8.285000 2.968500
8.303400 3.097500
8.321900 3.201200
8.340300 3.272100
8.358800 3.325100
8.377200 3.266900
8.395700 3.165600
8.414100 3.079800
8.432600 3.043900
8.451000 2.927900
8.469500 2.877800
8.487900 2.882700
8.506400 2.883400
8.524800 2.871800
8.543300 2.764900
8.561700 2.657400
8.580200 2.606500
8.598700 2.534700
8.617100 2.496200
8.635600 2.448600
8.654000 2.385900
8.672500 2.306400
8.690900 2.207800
8.709400 2.033200
8.727800 1.997000
8.746300 1.998700
8.764700 2.001700
8.783200 2.004500
8.801600 2.002600
8.820100 1.960600
8.838500 1.913500
8.857000 1.915200
8.875500 1.939900
8.893900 2.010900
8.912400 2.065100
8.930800 2.110800
8.949300 2.146300
8.967700 2.179300
8.986200 2.219700
9.004600 2.334700
9.023100 2.417300
9.041500 2.488500
9.060000 2.513300
9.078400 2.491200
9.096900 2.465200
9.115300 2.395000
9.133800 2.329000
9.152200 2.269700
9.170700 2.228900
9.189200 2.202600
9.207600 2.197400
9.226100 2.157600
9.244500 2.111800
9.263000 2.036500
9.281400 1.944100
9.299900 1.876200
9.318300 1.789600
9.336800 1.734600
9.355200 1.696400
9.373700 1.656900
9.392100 1.623300
9.410600 1.604600
9.429000 1.778500
9.447500 1.717900
9.465900 1.761200
9.484400 1.973400
9.502900 1.966300
9.521300 1.917300
9.539800 1.986500
9.558200 1.887100
9.576700 1.935500
9.595100 1.988800
9.613600 2.052700
9.632000 2.107900
9.650500 2.160000
9.668900 2.240800
9.687400 2.285400
9.705800 2.301300
9.724300 2.327800
9.742700 2.357600
9.761200 2.393200
9.779600 2.416100
9.798100 2.437600
9.816600 2.468500
9.835000 2.509700
9.853500 2.575400
9.871900 2.557900
9.890400 2.526000
9.908800 2.493300
9.927300 2.498200
9.945700 2.495000
9.964200 2.481300
9.982600 2.457500
10.001100 2.426300
10.019500 2.388800
10.038000 2.341700
10.056400 2.282000
10.074900 2.212100
10.093300 2.140900
10.111800 2.087800
10.130300 2.031400
10.148700 1.964700
10.167200 1.909800
10.185600 1.866000
10.204100 1.832100
10.222500 1.825000
10.241000 1.862600
10.259400 1.896800
10.277900 1.927600
10.296300 1.946800
10.314800 1.962200
10.333200 1.965600
10.351700 1.957300
10.370100 1.955400
10.388600 1.949300
10.407000 1.937700
10.425500 1.933800
10.444000 1.896300
10.462400 1.876600
10.480900 1.868300
10.499300 1.872800
10.517800 1.885500
10.536200 1.905200
10.554700 1.949000
10.573100 2.012700
10.591600 2.058400
10.610000 2.114300
10.628500 2.086300
10.646900 2.058200
10.665400 2.055200
10.683800 2.052900
10.702300 2.062300
10.720700 2.162400
10.739200 2.192200
10.757700 2.211500
10.776100 2.230500
10.794600 2.245000
10.813000 2.258400
10.831500 2.278700
10.849900 2.302100
10.868400 2.315000
10.886800 2.306400
10.905300 2.262400
10.923700 2.251800
10.942200 2.245600
10.960600 2.256300
10.979100 2.252200
10.997500 2.254300
11.016000 2.258500
11.034500 2.263500
11.052900 2.277500
11.071400 2.301200
11.089800 2.330300
11.108300 2.368500
11.126700 2.406300
11.145200 2.444700
11.163600 2.632800
11.182100 2.661300
11.200500 2.662000
11.219000 2.656600
11.237400 2.637500
11.255900 2.609300
11.274300 2.583500
11.292800 2.606100
11.311200 2.514800
11.329700 2.402500
11.348200 2.302900
11.366600 2.214200
11.385100 2.140000
11.403500 2.092500
11.422000 2.037200
11.440400 1.993200
11.458900 1.960500
11.477300 1.947700
11.495800 1.933200
11.514200 1.921300
11.532700 1.912000
