set title 'mp-169 - Density of States'
set xlabel 'Energy (eV)'
set ylabel 'DOS (states/eV)'
set grid
set xrange [-10:10]
set yrange [0:1.139]
set xzeroaxis lt -1
set terminal png size 800,600
set output 'mp-169_dos_gnuplot.png'
plot '-' using 1:2 with lines title 'DOS'
-23.813200 0.000000
-23.730600 0.000000
-23.648100 0.000000
-23.565500 0.000000
-23.482900 0.000000
-23.400300 0.000000
-23.317800 0.000000
-23.235200 0.000000
-23.152600 0.000000
-23.070000 0.000000
-22.987500 0.000000
-22.904900 0.000000
-22.822300 0.000000
-22.739800 0.000000
-22.657200 0.000000
-22.574600 0.000000
-22.492000 0.000000
-22.409500 0.000000
-22.326900 0.000000
-22.244300 0.000000
-22.161700 0.000000
-22.079200 0.000000
-21.996600 0.000000
-21.914000 0.000000
-21.831400 0.000000
-21.748900 0.000000
-21.666300 0.000000
-21.583700 0.000000
-21.501200 0.000000
-21.418600 0.000000
-21.336000 0.000000
-21.253400 0.000000
-21.170900 0.000000
-21.088300 0.000000
-21.005700 0.000000
-20.923100 0.000000
-20.840600 0.000000
-20.758000 0.000000
-20.675400 0.000000
-20.592800 0.000000
-20.510300 0.000000
-20.427700 0.000000
-20.345100 0.000000
-20.262600 0.000000
-20.180000 0.000000
-20.097400 0.000000
-20.014800 0.000000
-19.932300 0.000000
-19.849700 0.000000
-19.767100 0.000000
-19.684500 0.000000
-19.602000 0.000000
-19.519400 0.000000
-19.436800 0.000000
-19.354200 0.000000
-19.271700 0.000000
-19.189100 0.000000
-19.106500 0.000000
-19.024000 0.000000
-18.941400 0.000000
-18.858800 0.000000
-18.776200 0.000000
-18.693700 0.000000
-18.611100 0.000000
-18.528500 0.000000
-18.445900 0.000000
-18.363400 0.000000
-18.280800 0.000000
-18.198200 0.000000
-18.115600 0.000000
-18.033100 0.000000
-17.950500 0.000000
-17.867900 0.000000
-17.785400 0.000000
-17.702800 0.000000
-17.620200 0.000000
-17.537600 0.000000
-17.455100 0.000000
-17.372500 0.000000
-17.289900 0.000000
-17.207300 0.000000
-17.124800 0.000000
-17.042200 0.000000
-16.959600 0.000000
-16.877000 0.000000
-16.794500 0.000000
-16.711900 0.000000
-16.629300 0.000000
-16.546800 0.000000
-16.464200 0.000000
-16.381600 0.000000
-16.299000 0.002700
-16.216500 0.129800
-16.133900 0.307700
-16.051300 0.378200
-15.968700 0.268600
-15.886200 0.283700
-15.803600 0.298800
-15.721000 0.313800
-15.638400 0.328900
-15.555900 0.336600
-15.473300 0.319900
-15.390700 0.301900
-15.308200 0.292100
-15.225600 0.297600
-15.143000 0.303000
-15.060400 0.308400
-14.977900 0.313900
-14.895300 0.319300
-14.812700 0.324800
-14.730100 0.330200
-14.647600 0.325300
-14.565000 0.311500
-14.482400 0.310800
-14.399800 0.310100
-14.317300 0.309500
-14.234700 0.308800
-14.152100 0.309300
-14.069600 0.312300
-13.987000 0.315200
-13.904400 0.318200
-13.821800 0.321200
-13.739300 0.324200
-13.656700 0.327100
-13.574100 0.330100
-13.491500 0.332000
-13.409000 0.327300
-13.326400 0.322000
-13.243800 0.318800
-13.161200 0.320300
-13.078700 0.321700
-12.996100 0.323200
-12.913500 0.324700
-12.831000 0.326100
-12.748400 0.327600
-12.665800 0.329100
-12.583200 0.331200
-12.500700 0.335500
-12.418100 0.339900
-12.335500 0.344200
-12.252900 0.348600
-12.170400 0.352900
-12.087800 0.357300
-12.005200 0.361600
-11.922600 0.364000
-11.840100 0.373700
-11.757500 0.383500
-11.674900 0.393300
-11.592400 0.403100
-11.509800 0.733600
-11.427200 0.650500
-11.344600 0.567500
-11.262100 0.484400
-11.179500 0.401300
-11.096900 0.318300
-11.014300 0.263100
-10.931800 0.247300
-10.849200 0.231400
-10.766600 0.215500
-10.684000 0.199600
-10.601500 0.183800
-10.518900 0.167900
-10.436300 0.199400
-10.353800 0.780300
-10.271200 0.000000
-10.188600 0.000000
-10.106000 0.000000
-10.023500 0.000000
-9.940900 0.017100
-9.858300 0.042000
-9.775700 0.066900
-9.693200 0.091800
-9.610600 0.116800
-9.528000 0.141700
-9.445400 0.170700
-9.362900 0.352000
-9.280300 0.537400
-9.197700 0.722700
-9.115200 0.467500
-9.032600 0.405900
-8.950000 0.431000
-8.867400 0.456000
-8.784900 0.481100
-8.702300 0.506200
-8.619700 0.376600
-8.537100 0.371600
-8.454600 0.366700
-8.372000 0.361700
-8.289400 0.356700
-8.206800 0.351700
-8.124300 0.346800
-8.041700 0.342800
-7.959100 0.339400
-7.876500 0.336000
-7.794000 0.332600
-7.711400 0.312800
-7.628800 0.259200
-7.546300 0.257900
-7.463700 0.256600
-7.381100 0.255300
-7.298500 0.254000
-7.216000 0.252700
-7.133400 0.251400
-7.050800 0.250100
-6.968200 0.248900
-6.885700 0.342400
-6.803100 0.348400
-6.720500 0.353300
-6.637900 0.356300
-6.555400 0.359200
-6.472800 0.362200
-6.390200 0.365100
-6.307700 0.368100
-6.225100 0.371100
-6.142500 0.374000
-6.059900 0.377000
-5.977400 0.379900
-5.894800 0.382900
-5.812200 0.385800
-5.729600 0.388800
-5.647100 0.394900
-5.564500 0.400000
-5.481900 0.404100
-5.399300 0.408400
-5.316800 0.412700
-5.234200 0.454600
-5.151600 0.458200
-5.069100 0.461700
-4.986500 0.465200
-4.903900 0.468700
-4.821300 0.472200
-4.738800 0.475800
-4.656200 0.489400
-4.573600 0.524300
-4.491000 0.570700
-4.408500 0.605100
-4.325900 0.617200
-4.243300 0.733300
-4.160700 0.773400
-4.078200 0.804700
-3.995600 0.846100
-3.913000 0.887500
-3.830500 1.035000
-3.747900 1.017700
-3.665300 0.988700
-3.582700 0.955400
-3.500200 0.936200
-3.417600 0.930200
-3.335000 0.909200
-3.252400 0.877600
-3.169900 0.808300
-3.087300 0.661500
-3.004700 0.528100
-2.922100 0.450000
-2.839600 0.614000
-2.757000 0.786800
-2.674400 0.910000
-2.591900 0.958700
-2.509300 0.966400
-2.426700 0.991500
-2.344100 0.749500
-2.261600 0.596100
-2.179000 0.594200
-2.096400 0.597900
-2.013800 0.634900
-1.931300 0.672900
-1.848700 0.702600
-1.766100 0.724000
-1.683500 0.734300
-1.601000 0.723300
-1.518400 0.697400
-1.435800 0.671300
-1.353300 0.642800
-1.270700 0.631100
-1.188100 0.626800
-1.105500 0.615200
-1.023000 0.605500
-0.940400 0.596500
-0.857800 0.587500
-0.775200 0.578300
-0.692700 0.605700
-0.610100 0.587800
-0.527500 0.570700
-0.444900 0.553800
-0.362400 0.537800
-0.279800 0.643200
-0.197200 0.593400
-0.114700 0.544300
-0.032100 0.496100
0.050500 0.449500
0.133100 0.403200
0.215600 0.383400
0.298200 0.393500
0.380800 0.406400
0.463400 0.422100
0.545900 0.441300
0.628500 0.612300
0.711100 0.662200
0.793700 0.620700
0.876200 0.651600
0.958800 0.372800
1.041400 0.333700
1.123900 0.313100
1.206500 0.292500
1.289100 0.271900
1.371700 0.251300
1.454200 0.230700
1.536800 0.210000
1.619400 0.189400
1.702000 0.179500
1.784500 0.179400
1.867100 0.190900
1.949700 0.205800
2.032300 0.221000
2.114800 0.247900
2.197400 0.246200
2.280000 0.107900
2.362500 0.000000
2.445100 0.000000
2.527700 0.000000
2.610300 0.000000
2.692800 0.000000
2.775400 0.000000
2.858000 0.000000
2.940600 0.000000
3.023100 0.000000
3.105700 0.000000
3.188300 0.000000
3.270900 0.000000
3.353400 0.000000
3.436000 0.000000
3.518600 0.000000
3.601100 0.000000
3.683700 0.000000
3.766300 0.000000
3.848900 0.000000
3.931400 0.000000
4.014000 0.000000
4.096600 0.000000
4.179200 0.153500
4.261700 0.405300
4.344300 0.335200
4.426900 0.241400
4.509500 0.171700
4.592000 0.183200
4.674600 0.214900
4.757200 0.247000
4.839700 0.300400
4.922300 0.374500
5.004900 0.472000
5.087500 0.609200
5.170000 0.657200
5.252600 0.623300
5.335200 0.566800
5.417800 0.415700
5.500300 0.396400
5.582900 0.378400
5.665500 0.360300
5.748100 0.342300
5.830600 0.323500
5.913200 0.303600
5.995800 0.286800
6.078300 0.278500
6.160900 0.272300
6.243500 0.266400
6.326100 0.261300
6.408600 0.256800
6.491200 0.252800
6.573800 0.251600
6.656400 0.264700
6.738900 0.277100
6.821500 0.287200
6.904100 0.289400
6.986700 0.293500
7.069200 0.295700
7.151800 0.296400
7.234400 0.299100
7.316900 0.302000
7.399500 0.305200
7.482100 0.310100
7.564700 0.315400
7.647200 0.321900
7.729800 0.327700
7.812400 0.333300
7.895000 0.339000
7.977500 0.344800
8.060100 0.351000
8.142700 0.354800
8.225300 0.360200
8.307800 0.366400
8.390400 0.372900
8.473000 0.379800
8.555500 0.387200
8.638100 0.394500
8.720700 0.375500
8.803300 0.355400
8.885800 0.333900
8.968400 0.287700
9.051000 0.274200
9.133600 0.264500
9.216100 0.247200
9.298700 0.234100
9.381300 0.230400
9.463900 0.232000
9.546400 0.235900
9.629000 0.240100
9.711600 0.244000
9.794100 0.249500
9.876700 0.258800
9.959300 0.278400
10.041900 0.321600
10.124400 0.679500
10.207000 0.523000
10.289600 0.512700
10.372200 0.501100
10.454700 0.488200
10.537300 0.488100
10.619900 0.604900
10.702500 0.760500
10.785000 0.793400
10.867600 0.813800
10.950200 0.823500
11.032700 0.817500
11.115300 0.816200
11.197900 0.844400
11.280500 0.879300
11.363000 0.918400
11.445600 0.984000
11.528200 1.588100
11.610800 1.543800
11.693300 1.407000
11.775900 1.319800
11.858500 1.294600
11.941100 1.263500
12.023600 1.212600
12.106200 1.223300
12.188800 1.384500
12.271300 1.649800
12.353900 1.323800
12.436500 1.290200
12.519100 0.602700
12.601600 0.590700
12.684200 0.580000
12.766800 0.572400
12.849400 0.566500
12.931900 0.563000
13.014500 0.562000
13.097100 0.562900
13.179700 0.568000
13.262200 0.577200
13.344800 0.594600
13.427400 0.616900
13.509900 0.677700
13.592500 0.856600
13.675100 1.040000
13.757700 1.518300
13.840200 1.771400
13.922800 1.364300
14.005400 0.992600
14.088000 1.088400
14.170500 1.081500
14.253100 0.844700
14.335700 0.842600
14.418300 0.830400
14.500800 0.788100
14.583400 0.643800
14.666000 0.565800
14.748500 0.519300
14.831100 0.472900
14.913700 0.429100
14.996300 0.391200
15.078800 0.353400
15.161400 0.391000
15.244000 0.653300
15.326600 0.883400
15.409100 0.507500
15.491700 0.553300
15.574300 0.623200
15.656900 0.720300
15.739400 0.818400
15.822000 0.865500
15.904600 0.899600
15.987100 0.948100
16.069700 1.005300
16.152300 0.911000
16.234900 0.942600
16.317400 1.011600
16.400000 1.009700
16.482600 0.970200
16.565200 0.955500
16.647700 0.945100
16.730300 0.955500
16.812900 1.078000
16.895500 0.965200
16.978000 0.871100
17.060600 0.905500
17.143200 0.937100
17.225700 0.957400
17.308300 0.960000
17.390900 0.914600
17.473500 0.884600
17.556000 0.868200
17.638600 0.852300
17.721200 0.834600
17.803800 0.825400
17.886300 0.833600
17.968900 0.846500
18.051500 0.868200
18.134100 0.894000
18.216600 0.984600
18.299200 0.910100
18.381800 0.848000
18.464300 0.830200
18.546900 0.827000
18.629500 0.879500
18.712100 0.853700
18.794600 0.907900
18.877200 0.928200
18.959800 0.896900
19.042400 0.879400
19.124900 0.858000
19.207500 0.813400
19.290100 0.747600
19.372700 0.719200
19.455200 0.695000
19.537800 0.611100
19.620400 0.582100
19.702900 0.583400
19.785500 0.589800
19.868100 0.604200
19.950700 0.627000
20.033200 0.660500
20.115800 0.704300
20.198400 0.706700
20.281000 0.742200
20.363500 0.776100
20.446100 0.793900
20.528700 0.799100
20.611300 0.776000
20.693800 0.741100
20.776400 0.711000
20.859000 0.696100
20.941500 0.690300
21.024100 0.683100
21.106700 0.673800
21.189300 0.670600
21.271800 0.670400
21.354400 0.673000
21.437000 0.708800
21.519600 0.766000
21.602100 0.827100
21.684700 0.894500
21.767300 0.955700
21.849900 0.960400
21.932400 0.946000
22.015000 0.917400
22.097600 0.961600
22.180100 0.987700
22.262700 1.037400
22.345300 0.973900
22.427900 0.884000
22.510400 0.840300
22.593000 0.808200
22.675600 0.831400
22.758200 0.798400
22.840700 0.774700
22.923300 0.776300
23.005900 0.765800
23.088500 0.708800
23.171000 0.678600
23.253600 0.681100
23.336200 0.630500
23.418700 0.602900
23.501300 0.607800
23.583900 0.617400
23.666500 0.629600
23.749000 0.645900
23.831600 0.798600
23.914200 0.912400
23.996800 0.936100
24.079300 0.952900
24.161900 0.972300
24.244500 0.999500
24.327100 1.011700
24.409600 0.946200
24.492200 0.894700
24.574800 0.862500
24.657300 0.846700
24.739900 0.823800
24.822500 0.811600
24.905100 0.813400
24.987600 0.834400
25.070200 0.872000
25.152800 0.925900
25.235400 0.994700
25.317900 1.030200
25.400500 1.049500
25.483100 1.044200
25.565700 1.008900
25.648200 0.983100
25.730800 0.882200
25.813400 0.920000
25.895900 0.950700
25.978500 1.014600
26.061100 1.176400
26.143700 1.465200
26.226200 1.602900
26.308800 1.574800
26.391400 1.562800
26.474000 1.405900
26.556500 1.432900
26.639100 1.208700
26.721700 1.071100
26.804300 0.986500
26.886800 0.923300
26.969400 0.875300
27.052000 0.836400
27.134500 0.859400
27.217100 0.826900
27.299700 0.749600
27.382300 0.678100
27.464800 0.640500
27.547400 0.554600
27.630000 0.553100
27.712600 0.567300
27.795100 0.626600
27.877700 0.707900
27.960300 0.801100
28.042900 0.885700
28.125400 0.977000
28.208000 1.057400
28.290600 1.072800
28.373200 1.064000
28.455700 1.040000
28.538300 1.009800
28.620900 0.948500
28.703400 0.804000
28.786000 0.764300
28.868600 0.748200
28.951200 0.740900
29.033700 0.736800
29.116300 0.733700
29.198900 0.731900
29.281500 0.729400
29.364000 0.732900
29.446600 0.775800
29.529200 0.835000
29.611800 0.890700
29.694300 0.917300
29.776900 0.966500
29.859500 1.026900
29.942000 1.058000
30.024600 1.215800
30.107200 1.265700
30.189800 1.312900
30.272300 1.354600
30.354900 1.355700
30.437500 1.292800
30.520100 1.218100
30.602600 1.168900
30.685200 1.114100
30.767800 0.963900
30.850400 0.848200
30.932900 0.887500
31.015500 0.887300
31.098100 0.883000
31.180600 0.889300
31.263200 0.927600
31.345800 1.037300
31.428400 0.966000
31.510900 0.964200
31.593500 0.956600
31.676100 0.937300
31.758700 0.764700
31.841200 0.747100
31.923800 0.799200
32.006400 0.765500
32.089000 0.726800
32.171500 0.705200
32.254100 0.659200
32.336700 0.616300
32.419200 0.609300
32.501800 0.622300
32.584400 0.644800
32.667000 0.674100
32.749500 0.724200
32.832100 0.793300
32.914700 0.859500
32.997300 0.726100
33.079800 0.655400
33.162400 0.641300
33.245000 0.606800
33.327600 0.592100
33.410100 0.604100
33.492700 0.580000
33.575300 0.664400
33.657800 0.689000
33.740400 0.750100
33.823000 0.824800
33.905600 0.886200
33.988100 0.900700
34.070700 0.868100
34.153300 0.872800
34.235900 0.917100
34.318400 0.973500
34.401000 0.982600
34.483600 0.978500
34.566200 0.970400
34.648700 0.997600
34.731300 1.039800
34.813900 1.051800
34.896400 1.029500
34.979000 0.967500
35.061600 0.907400
35.144200 0.862700
35.226700 0.798600
35.309300 0.774200
35.391900 0.765000
35.474500 0.745000
35.557000 0.725400
35.639600 0.723100
35.722200 0.760800
35.804800 0.945500
35.887300 0.981600
35.969900 1.011400
36.052500 1.040700
36.135000 1.046800
36.217600 0.949200
36.300200 0.873900
36.382800 0.820600
36.465300 0.772200
36.547900 0.719500
36.630500 0.657300
36.713100 0.641400
36.795600 0.641000
36.878200 0.648800
36.960800 0.653500
37.043400 0.657700
37.125900 0.735300
37.208500 0.769500
37.291100 0.758500
37.373600 0.765200
37.456200 0.778200
37.538800 0.779800
37.621400 0.770700
37.703900 0.757400
37.786500 0.740200
37.869100 0.721600
37.951700 0.706700
38.034200 0.696700
38.116800 0.690600
38.199400 0.702400
38.282000 0.664500
38.364500 0.657200
38.447100 0.578900
38.529700 0.544100
38.612200 0.529800
38.694800 0.517600
38.777400 0.506500
38.860000 0.517600
38.942500 0.549400
39.025100 0.567500
39.107700 0.597200
39.190300 0.624200
39.272800 0.653200
39.355400 0.678900
39.438000 0.708200
39.520600 0.749600
39.603100 0.715100
39.685700 0.743800
39.768300 0.791200
39.850800 0.789400
39.933400 0.840400
40.016000 0.881100
40.098600 0.928800
40.181100 0.993900
40.263700 1.079100
40.346300 1.247000
40.428900 1.425800
40.511400 1.603300
40.594000 1.673000
40.676600 1.673600
40.759200 1.658400
40.841700 1.460700
40.924300 1.371100
41.006900 1.309300
41.089400 1.239000
41.172000 1.109800
41.254600 1.039700
41.337200 0.983700
41.419700 0.909500
41.502300 0.880100
41.584900 0.857800
41.667500 0.867100
41.750000 0.886700
41.832600 0.917500
41.915200 0.977500
41.997800 1.098300
42.080300 1.098200
42.162900 1.082600
42.245500 1.077500
42.328000 1.102900
42.410600 1.158800
42.493200 1.171000
42.575800 1.147000
42.658300 1.120600
42.740900 1.167200
42.823500 1.201500
42.906100 1.027700
42.988600 0.904100
43.071200 0.901300
43.153800 0.902400
43.236400 0.904600
43.318900 0.916300
43.401500 0.941000
43.484100 0.967400
43.566600 0.987600
43.649200 1.138800
43.731800 1.299300
43.814400 1.230300
43.896900 1.148500
43.979500 1.139800
44.062100 1.055200
44.144700 1.030000
44.227200 1.001100
44.309800 0.980500
44.392400 1.048100
44.475000 1.025000
44.557500 1.003400
44.640100 0.972000
44.722700 0.948400
44.805200 0.934500
44.887800 0.909900
44.970400 0.911100
45.053000 0.913200
45.135500 0.895400
45.218100 0.855100
45.300700 0.876100
45.383300 0.923100
45.465800 1.000200
45.548400 0.942400
45.631000 0.937500
45.713600 0.942700
45.796100 0.958900
45.878700 0.950000
45.961300 0.972200
46.043800 1.020600
46.126400 1.058300
46.209000 1.083400
46.291600 1.327600
46.374100 1.317900
46.456700 1.379600
46.539300 1.451000
46.621900 1.551100
46.704400 1.694300
46.787000 1.739600
46.869600 1.645500
46.952200 1.573900
47.034700 1.350200
47.117300 1.155100
47.199900 1.138300
47.282400 1.168600
47.365000 1.228400
47.447600 1.311400
47.530200 1.370200
47.612700 1.354200
47.695300 1.384300
47.777900 1.372100
47.860500 1.399000
47.943000 1.425600
48.025600 1.447700
48.108200 1.408600
48.190800 1.414300
48.273300 1.293000
48.355900 1.148900
48.438500 1.114200
48.521000 1.114300
48.603600 1.142200
48.686200 1.138000
48.768800 1.127400
48.851300 1.097800
48.933900 1.108700
49.016500 1.127800
49.099100 1.156800
49.181600 1.189400
49.264200 1.214300
49.346800 1.197700
49.429400 1.144600
49.511900 1.093200
49.594500 1.071500
49.677100 1.031700
49.759600 0.995800
49.842200 0.971100
49.924800 0.943700
50.007400 0.918700
50.089900 0.913800
50.172500 0.936400
50.255100 0.945000
50.337700 0.942400
50.420200 0.946700
50.502800 0.934500
50.585400 0.988600
50.668000 1.068700
50.750500 1.237200
50.833100 1.572100
50.915700 1.382700
50.998200 1.332100
51.080800 1.302100
51.163400 1.272600
51.246000 1.259300
51.328500 1.206400
51.411100 1.155600
51.493700 1.128700
51.576300 1.128500
51.658800 1.115200
51.741400 1.043600
51.824000 1.031500
51.906600 1.022700
51.989100 1.042200
52.071700 1.075200
52.154300 1.098000
52.236800 1.128600
52.319400 1.156700
52.402000 1.172000
52.484600 1.154200
52.567100 1.110300
52.649700 1.073000
52.732300 1.028900
52.814900 0.998000
52.897400 0.984600
52.980000 0.978200
53.062600 0.976000
53.145200 0.988000
53.227700 1.001900
53.310300 1.011300
53.392900 1.025800
53.475400 1.017400
53.558000 1.008600
53.640600 1.002000
53.723200 0.998800
53.805700 0.999200
53.888300 1.001300
53.970900 1.014400
54.053500 1.032900
54.136000 1.059900
54.218600 1.112200
54.301200 1.215000
54.383800 1.158600
54.466300 1.191900
54.548900 1.226600
54.631500 1.387200
54.714000 1.297900
54.796600 1.241500
54.879200 1.257300
54.961800 1.268500
55.044300 1.230100
55.126900 1.119900
55.209500 1.034200
55.292100 1.005900
55.374600 0.976100
55.457200 0.948200
55.539800 0.928000
55.622400 0.914800
55.704900 0.950600
55.787500 0.963900
55.870100 0.914400
55.952600 0.934100
56.035200 0.949500
56.117800 0.937300
56.200400 0.946600
56.282900 0.936400
56.365500 0.942700
56.448100 0.948000
56.530700 0.943300
56.613200 0.941000
56.695800 0.944700
56.778400 0.972300
56.861000 0.990100
56.943500 0.995200
57.026100 1.055200
57.108700 1.027600
57.191200 1.036200
57.273800 1.042600
57.356400 1.047100
57.439000 1.042100
57.521500 1.028900
57.604100 1.025000
57.686700 1.030700
57.769300 1.044100
57.851800 1.076600
57.934400 1.155200
58.017000 1.209700
58.099600 1.230600
58.182100 1.251000
58.264700 1.273900
58.347300 1.248100
58.429800 1.229300
58.512400 1.195800
58.595000 1.191200
58.677600 1.199200
58.760100 1.156100
58.842700 1.148100
58.925300 1.175600
59.007900 1.189500
59.090400 1.186700
59.173000 1.184500
59.255600 1.218800
59.338200 1.222900
59.420700 1.282800
59.503300 1.406400
59.585900 1.332300
59.668400 1.291800
59.751000 1.281200
59.833600 1.255400
59.916200 1.263400
59.998700 1.253800
60.081300 1.248400
60.163900 1.237500
60.246500 1.221100
60.329000 1.197500
60.411600 1.181900
60.494200 1.298200
60.576800 1.399800
60.659300 1.571100
60.741900 1.346900
60.824500 1.293800
60.907000 1.240500
60.989600 1.225900
61.072200 1.230600
61.154800 1.224400
61.237300 1.230900
61.319900 1.292400
61.402500 1.291300
61.485100 1.291000
61.567600 1.260400
