set title 'mp-1184709 - Density of States'
set xlabel 'Energy (eV)'
set ylabel 'DOS (states/eV)'
set grid
set xrange [-10:10]
set yrange [0:68.768]
set xzeroaxis lt -1
set terminal png size 800,600
set output 'mp-1184709_dos_gnuplot.png'
plot '-' using 1:2 with lines title 'DOS'
-7.428200 0.000000
-7.414000 0.000000
-7.399800 0.000000
-7.385500 0.000000
-7.371300 0.000000
-7.357100 0.000000
-7.342900 0.000000
-7.328600 0.000000
-7.314400 0.000000
-7.300200 0.000000
-7.286000 0.000000
-7.271700 0.000000
-7.257500 0.000000
-7.243300 0.000000
-7.229100 0.000000
-7.214800 0.000000
-7.200600 0.000000
-7.186400 0.000000
-7.172200 0.000000
-7.157900 0.000000
-7.143700 0.000000
-7.129500 0.000000
-7.115300 0.000000
-7.101000 0.000000
-7.086800 0.000000
-7.072600 0.000000
-7.058400 0.000000
-7.044200 0.000000
-7.029900 0.000000
-7.015700 0.000000
-7.001500 0.000000
-6.987300 0.000000
-6.973000 0.000000
-6.958800 0.000000
-6.944600 0.000000
-6.930400 0.000000
-6.916100 0.000000
-6.901900 0.000000
-6.887700 0.000000
-6.873500 0.000000
-6.859200 0.000000
-6.845000 0.000000
-6.830800 0.000000
-6.816600 0.000000
-6.802300 0.000000
-6.788100 0.000000
-6.773900 0.000000
-6.759700 0.000000
-6.745400 0.000000
-6.731200 0.000000
-6.717000 0.000000
-6.702800 0.000000
-6.688500 0.000000
-6.674300 0.000000
-6.660100 0.000000
-6.645900 0.000000
-6.631600 0.000000
-6.617400 0.000000
-6.603200 0.000000
-6.589000 0.000000
-6.574700 0.000000
-6.560500 0.000000
-6.546300 0.000000
-6.532100 0.000000
-6.517800 0.000000
-6.503600 0.000000
-6.489400 0.000000
-6.475200 0.000000
-6.461000 0.000000
-6.446700 0.000000
-6.432500 0.000000
-6.418300 0.000000
-6.404100 0.000000
-6.389800 0.000000
-6.375600 0.000000
-6.361400 0.000000
-6.347200 0.000000
-6.332900 0.000000
-6.318700 0.000000
-6.304500 0.000000
-6.290300 0.000000
-6.276000 0.000000
-6.261800 0.000000
-6.247600 0.000000
-6.233400 0.000000
-6.219100 0.000000
-6.204900 0.000000
-6.190700 0.000000
-6.176500 0.000000
-6.162200 0.000000
-6.148000 0.000000
-6.133800 0.000000
-6.119600 0.006400
-6.105300 0.023700
-6.091100 0.051800
-6.076900 0.090700
-6.062700 0.140400
-6.048400 0.198300
-6.034200 0.235100
-6.020000 0.270800
-6.005800 0.305300
-5.991500 0.338600
-5.977300 0.503000
-5.963100 2.170400
-5.948900 5.255100
-5.934700 9.436800
-5.920400 14.087300
-5.906200 17.022500
-5.892000 19.099800
-5.877800 20.751900
-5.863500 22.761600
-5.849300 28.485400
-5.835100 34.517400
-5.820900 49.106500
-5.806600 44.799800
-5.792400 38.590200
-5.778200 37.519000
-5.764000 39.212100
-5.749700 40.344300
-5.735500 50.609100
-5.721300 41.826800
-5.707100 37.422300
-5.692800 35.000800
-5.678600 29.523100
-5.664400 27.237200
-5.650200 28.311400
-5.635900 30.232300
-5.621700 24.262100
-5.607500 24.452300
-5.593300 26.002000
-5.579000 37.641800
-5.564800 53.563000
-5.550600 59.148100
-5.536400 52.713500
-5.522100 62.516100
-5.507900 46.216000
-5.493700 44.492600
-5.479500 31.453300
-5.465200 42.822500
-5.451000 41.184600
-5.436800 39.176200
-5.422600 45.085400
-5.408300 48.326600
-5.394100 39.768800
-5.379900 30.867500
-5.365700 28.015700
-5.351500 23.163000
-5.337200 26.240500
-5.323000 31.710600
-5.308800 35.970600
-5.294600 32.786200
-5.280300 31.604800
-5.266100 34.627300
-5.251900 45.757100
-5.237700 52.772000
-5.223400 45.973400
-5.209200 50.366900
-5.195000 42.354600
-5.180800 41.109200
-5.166500 43.547000
-5.152300 38.554800
-5.138100 42.211600
-5.123900 39.948500
-5.109600 37.958900
-5.095400 34.231400
-5.081200 36.472700
-5.067000 35.124900
-5.052700 38.551700
-5.038500 43.096400
-5.024300 39.227400
-5.010100 39.993000
-4.995800 42.236000
-4.981600 45.131700
-4.967400 45.610700
-4.953200 58.594800
-4.938900 44.825300
-4.924700 49.146600
-4.910500 55.023600
-4.896300 42.904600
-4.882000 22.893200
-4.867800 1.242300
-4.853600 1.155800
-4.839400 1.117000
-4.825100 1.086800
-4.810900 1.065100
-4.796700 1.051800
-4.782500 1.048000
-4.768300 1.048300
-4.754000 1.048900
-4.739800 1.047800
-4.725600 1.037300
-4.711400 1.016600
-4.697100 0.986100
-4.682900 0.958500
-4.668700 0.937900
-4.654500 0.924100
-4.640200 0.917100
-4.626000 0.913800
-4.611800 0.910200
-4.597600 0.906200
-4.583300 0.902000
-4.569100 0.897400
-4.554900 0.892500
-4.540700 0.887300
-4.526400 0.882100
-4.512200 0.880100
-4.498000 0.878000
-4.483800 0.876100
-4.469500 0.874800
-4.455300 0.874100
-4.441100 0.873900
-4.426900 0.874700
-4.412600 0.876200
-4.398400 0.878300
-4.384200 0.881000
-4.370000 0.884000
-4.355700 0.887000
-4.341500 0.890100
-4.327300 0.893200
-4.313100 0.896400
-4.298800 0.899700
-4.284600 0.903200
-4.270400 0.906900
-4.256200 0.910700
-4.242000 0.914700
-4.227700 0.918800
-4.213500 0.922900
-4.199300 0.927100
-4.185100 0.931400
-4.170800 0.935600
-4.156600 0.939900
-4.142400 0.944200
-4.128200 0.947100
-4.113900 0.949700
-4.099700 0.952100
-4.085500 0.954400
-4.071300 0.956800
-4.057000 0.960000
-4.042800 0.963300
-4.028600 0.966500
-4.014400 0.969800
-4.000100 0.973000
-3.985900 0.976200
-3.971700 0.979500
-3.957500 0.982900
-3.943200 0.986600
-3.929000 0.990300
-3.914800 0.994200
-3.900600 0.998100
-3.886300 1.002100
-3.872100 1.006000
-3.857900 1.009900
-3.843700 1.013900
-3.829400 1.017700
-3.815200 1.021500
-3.801000 1.025100
-3.786800 1.028700
-3.772500 1.032100
-3.758300 1.035800
-3.744100 1.039600
-3.729900 1.043400
-3.715600 1.047100
-3.701400 1.050900
-3.687200 1.054700
-3.673000 1.058500
-3.658800 1.062300
-3.644500 1.066000
-3.630300 1.069700
-3.616100 1.073500
-3.601900 1.077200
-3.587600 1.081000
-3.573400 1.084700
-3.559200 1.088500
-3.545000 1.092300
-3.530700 1.096100
-3.516500 1.099900
-3.502300 1.103800
-3.488100 1.107900
-3.473800 1.112000
-3.459600 1.116300
-3.445400 1.120500
-3.431200 1.124800
-3.416900 1.129000
-3.402700 1.133100
-3.388500 1.137000
-3.374300 1.140800
-3.360000 1.144500
-3.345800 1.148000
-3.331600 1.151600
-3.317400 1.155300
-3.303100 1.159000
-3.288900 1.162900
-3.274700 1.166900
-3.260500 1.170900
-3.246200 1.174900
-3.232000 1.178900
-3.217800 1.182900
-3.203600 1.187000
-3.189300 1.191100
-3.175100 1.195200
-3.160900 1.199300
-3.146700 1.203400
-3.132400 1.207500
-3.118200 1.211700
-3.104000 1.215800
-3.089800 1.220000
-3.075600 1.224200
-3.061300 1.228500
-3.047100 1.232800
-3.032900 1.237100
-3.018700 1.241500
-3.004400 1.245900
-2.990200 1.250300
-2.976000 1.254800
-2.961800 1.259200
-2.947500 1.263700
-2.933300 1.268200
-2.919100 1.272600
-2.904900 1.277000
-2.890600 1.281300
-2.876400 1.285700
-2.862200 1.290100
-2.848000 1.294400
-2.833700 1.298900
-2.819500 1.303500
-2.805300 1.308100
-2.791100 1.312700
-2.776800 1.317400
-2.762600 1.322100
-2.748400 1.326800
-2.734200 1.331600
-2.719900 1.336300
-2.705700 1.341100
-2.691500 1.345900
-2.677300 1.350700
-2.663000 1.355500
-2.648800 1.360400
-2.634600 1.365200
-2.620400 1.370200
-2.606100 1.375200
-2.591900 1.380400
-2.577700 1.385600
-2.563500 1.391000
-2.549300 1.396500
-2.535000 1.402000
-2.520800 1.407700
-2.506600 1.413400
-2.492400 1.419200
-2.478100 1.425000
-2.463900 1.430900
-2.449700 1.436900
-2.435500 1.442900
-2.421200 1.448900
-2.407000 1.455100
-2.392800 1.461300
-2.378600 1.467800
-2.364300 1.474400
-2.350100 1.481300
-2.335900 1.488400
-2.321700 1.495600
-2.307400 1.503100
-2.293200 1.510600
-2.279000 1.518300
-2.264800 1.526100
-2.250500 1.534000
-2.236300 1.542100
-2.222100 1.550300
-2.207900 1.558600
-2.193600 1.567500
-2.179400 1.576700
-2.165200 1.585900
-2.151000 1.595300
-2.136700 1.604700
-2.122500 1.614300
-2.108300 1.624100
-2.094100 1.634000
-2.079800 1.644000
-2.065600 1.679800
-2.051400 1.718200
-2.037200 1.754500
-2.022900 1.788700
-2.008700 1.820800
-1.994500 1.834100
-1.980300 1.843800
-1.966100 1.852800
-1.951800 1.861200
-1.937600 1.869000
-1.923400 1.876200
-1.909200 1.882900
-1.894900 1.888900
-1.880700 1.894400
-1.866500 1.899900
-1.852300 1.905200
-1.838000 1.910400
-1.823800 1.915600
-1.809600 1.919900
-1.795400 1.923200
-1.781100 1.925300
-1.766900 1.926500
-1.752700 1.926800
-1.738500 1.926500
-1.724200 1.927500
-1.710000 1.930300
-1.695800 1.934900
-1.681600 1.941200
-1.667300 1.983900
-1.653100 2.056100
-1.638900 2.115300
-1.624700 2.161500
-1.610400 2.194700
-1.596200 2.193100
-1.582000 2.157900
-1.567800 2.115100
-1.553500 2.084500
-1.539300 2.068000
-1.525100 2.068300
-1.510900 2.122600
-1.496600 2.312900
-1.482400 2.164000
-1.468200 2.123000
-1.454000 2.115800
-1.439700 2.107800
-1.425500 2.098900
-1.411300 2.089000
-1.397100 2.075400
-1.382900 2.056200
-1.368600 2.035900
-1.354400 2.018400
-1.340200 2.003900
-1.326000 1.992300
-1.311700 2.010700
-1.297500 2.158600
-1.283300 1.915800
-1.269100 1.772900
-1.254800 1.777000
-1.240600 1.781300
-1.226400 1.785800
-1.212200 1.790100
-1.197900 1.794100
-1.183700 1.797900
-1.169500 1.801400
-1.155300 1.804700
-1.141000 1.805500
-1.126800 1.802400
-1.112600 1.804600
-1.098400 1.812500
-1.084100 1.820600
-1.069900 1.828600
-1.055700 1.923200
-1.041500 1.920400
-1.027200 1.918100
-1.013000 1.916500
-0.998800 1.865400
-0.984600 1.932900
-0.970300 2.032400
-0.956100 2.130600
-0.941900 2.206900
-0.927700 2.259900
-0.913400 2.288500
-0.899200 2.293200
-0.885000 2.271600
-0.870800 2.192500
-0.856600 2.117600
-0.842300 2.074700
-0.828100 2.079000
-0.813900 2.088900
-0.799700 2.102100
-0.785400 1.882700
-0.771200 1.906900
-0.757000 1.928200
-0.742800 1.949800
-0.728500 1.971800
-0.714300 1.994000
-0.700100 2.016600
-0.685900 2.046700
-0.671600 2.069500
-0.657400 2.064500
-0.643200 2.056900
-0.629000 2.053200
-0.614700 2.068000
-0.600500 2.082000
-0.586300 2.095200
-0.572100 2.107300
-0.557800 2.150700
-0.543600 2.192900
-0.529400 2.233800
-0.515200 2.273300
-0.500900 2.313100
-0.486700 2.353700
-0.472500 2.714400
-0.458300 2.885700
-0.444000 3.068700
-0.429800 3.155500
-0.415600 3.074200
-0.401400 2.893900
-0.387100 2.905100
-0.372900 3.002100
-0.358700 3.005200
-0.344500 3.086200
-0.330200 3.172200
-0.316000 3.121300
-0.301800 3.087300
-0.287600 3.070300
-0.273400 3.054600
-0.259100 3.020900
-0.244900 2.996000
-0.230700 3.007900
-0.216500 2.548000
-0.202200 2.398800
-0.188000 2.267900
-0.173800 2.261900
-0.159600 2.213200
-0.145300 2.044100
-0.131100 1.896000
-0.116900 1.766800
-0.102700 1.635900
-0.088400 1.497500
-0.074200 1.351700
-0.060000 1.198400
-0.045800 1.039800
-0.031500 0.895700
-0.017300 0.768600
-0.003100 0.656900
0.011100 0.562600
0.025400 0.485500
0.039600 0.425700
0.053800 0.218200
0.068000 0.042200
0.082300 0.000000
0.096500 0.000000
0.110700 0.000000
0.124900 0.000000
0.139200 0.000000
0.153400 0.000000
0.167600 0.000000
0.181800 0.000000
0.196100 0.000000
0.210300 0.000000
0.224500 0.000000
0.238700 0.000000
0.253000 0.000000
0.267200 0.000000
0.281400 0.000000
0.295600 0.000000
0.309800 0.000000
0.324100 0.000000
0.338300 0.000000
0.352500 0.000000
0.366700 0.000000
0.381000 0.000000
0.395200 0.000400
0.409400 0.001100
0.423600 0.002300
0.437900 0.003900
0.452100 0.005900
0.466300 0.008300
0.480500 0.011000
0.494800 0.014200
0.509000 0.017700
0.523200 0.019700
0.537400 0.022200
0.551700 0.025100
0.565900 0.028600
0.580100 0.032600
0.594300 0.037200
0.608600 0.042300
0.622800 0.047900
0.637000 0.054100
0.651200 0.060800
0.665500 0.068100
0.679700 0.075900
0.693900 0.084200
0.708100 0.093100
0.722400 0.102500
0.736600 0.112500
0.750800 0.123000
0.765000 0.134000
0.779300 0.145600
0.793500 0.157600
0.807700 0.170100
0.821900 0.183000
0.836100 0.196500
0.850400 0.210700
0.864600 0.260900
0.878800 0.373500
0.893000 0.667200
0.907300 0.625900
0.921500 0.391000
0.935700 0.400400
0.949900 0.410200
0.964200 0.420400
0.978400 0.431100
0.992600 0.442200
1.006800 0.453700
1.021100 0.465700
1.035300 0.478100
1.049500 0.490900
1.063700 0.504200
1.078000 0.517900
1.092200 0.532100
1.106400 0.546700
1.120600 0.561800
1.134900 0.577700
1.149100 0.594400
1.163300 0.611800
1.177500 0.636200
1.191800 0.665200
1.206000 0.691700
1.220200 0.715800
1.234400 0.737500
1.248700 0.758500
1.262900 0.780900
1.277100 0.805900
1.291300 0.833300
1.305600 0.863000
1.319800 0.895100
1.334000 0.929600
1.348200 0.966300
1.362500 1.005300
1.376700 1.044300
1.390900 1.082300
1.405100 1.118700
1.419300 1.153600
1.433600 1.186900
1.447800 1.219300
1.462000 1.261700
1.476200 1.302600
1.490500 1.339500
1.504700 1.372500
1.518900 1.402600
1.533100 1.430700
1.547400 1.456700
1.561600 1.479400
1.575800 1.493900
1.590000 1.500300
1.604300 1.499100
1.618500 1.490400
1.632700 1.475000
1.646900 1.489200
1.661200 1.498500
1.675400 1.502600
1.689600 1.501600
1.703800 1.495900
1.718100 1.492100
1.732300 1.491300
1.746500 1.493400
1.760700 1.498500
1.775000 1.506500
1.789200 1.517500
1.803400 1.531200
1.817600 1.545900
1.831900 1.560800
1.846100 1.576000
1.860300 1.594300
1.874500 1.612900
1.888800 1.631600
1.903000 1.650400
1.917200 1.669200
1.931400 1.688400
1.945700 1.707700
1.959900 1.776800
1.974100 1.845200
1.988300 1.886400
2.002500 1.901600
2.016800 1.968700
2.031000 2.072800
2.045200 2.169900
2.059400 2.160000
2.073700 2.129900
2.087900 2.097100
2.102100 2.504800
2.116300 2.450500
2.130600 2.203500
2.144800 2.142900
2.159000 2.103100
2.173200 2.083900
2.187500 2.090700
2.201700 2.133100
2.215900 2.212500
2.230100 2.193300
2.244400 2.150500
2.258600 2.109500
2.272800 2.070300
2.287000 2.001300
2.301300 1.963000
2.315500 1.947700
2.329700 1.923200
2.343900 1.890300
2.358200 1.858800
2.372400 1.864100
2.386600 1.900800
2.400800 1.940400
2.415100 1.979900
2.429300 2.017300
2.443500 2.048400
2.457700 2.072900
2.472000 2.094500
2.486200 2.115900
2.500400 2.139000
2.514600 2.163800
2.528800 2.194600
2.543100 2.233200
2.557300 2.267400
2.571500 2.297200
2.585700 2.322700
2.600000 2.343700
2.614200 2.359700
2.628400 2.370500
2.642600 2.373000
2.656900 2.346600
2.671100 2.468300
2.685300 2.526800
2.699500 2.599200
2.713800 2.651700
2.728000 2.686700
2.742200 2.728300
2.756400 2.706100
2.770700 2.748200
2.784900 2.791000
2.799100 2.834500
2.813300 2.873100
2.827600 2.906700
2.841800 2.939100
2.856000 2.970300
2.870200 2.988500
2.884500 2.987900
2.898700 2.978900
2.912900 2.939000
2.927100 2.878800
2.941400 2.841100
2.955600 2.806000
2.969800 2.764100
2.984000 2.711300
2.998300 2.648200
3.012500 2.574800
3.026700 2.598300
3.040900 2.541300
3.055200 2.482900
3.069400 2.437700
3.083600 2.333900
3.097800 2.299300
3.112000 2.279400
3.126300 2.257700
3.140500 2.127100
3.154700 2.104700
3.168900 2.078600
3.183200 2.048400
3.197400 2.015500
3.211600 1.980200
3.225800 1.943000
3.240100 1.921700
3.254300 1.903300
3.268500 1.887400
3.282700 1.874000
3.297000 1.863100
3.311200 1.854600
3.325400 1.861200
3.339600 1.861500
3.353900 1.860000
3.368100 1.859100
3.382300 1.858300
3.396500 1.857800
3.410800 1.857600
3.425000 1.858200
3.439200 1.860500
3.453400 1.863300
3.467700 1.866800
3.481900 1.871400
3.496100 1.876900
3.510300 1.883400
3.524600 1.892700
3.538800 1.899300
3.553000 1.900500
3.567200 1.898100
3.581500 1.894900
3.595700 1.888700
3.609900 1.841700
3.624100 1.827900
3.638400 1.809500
3.652600 1.796600
3.666800 1.792800
3.681000 1.798300
3.695200 1.813400
3.709500 1.835700
3.723700 1.831200
3.737900 1.775000
3.752100 1.732700
3.766400 1.710700
3.780600 1.705100
3.794800 1.709200
3.809000 1.718700
3.823300 1.732200
3.837500 1.749700
3.851700 1.815500
3.865900 2.243800
3.880200 1.849300
3.894400 1.856500
3.908600 1.855200
3.922800 1.853900
3.937100 1.853000
3.951300 1.852300
3.965500 1.852000
3.979700 1.853400
3.994000 1.857600
4.008200 1.864700
4.022400 1.876200
4.036600 1.890000
4.050900 1.906000
4.065100 1.900200
4.079300 1.895600
4.093500 1.895100
4.107800 1.895700
4.122000 1.897500
4.136200 1.900700
4.150400 1.904800
4.164700 1.909700
4.178900 1.914900
4.193100 1.919500
4.207300 1.923600
4.221500 1.927100
4.235800 1.930300
4.250000 1.927200
4.264200 1.921400
4.278400 1.915300
4.292700 1.909000
4.306900 1.902500
4.321100 1.895600
4.335300 1.894000
4.349600 1.893200
4.363800 1.893000
4.378000 1.893700
4.392200 1.895600
4.406500 1.898400
4.420700 1.900700
4.434900 1.901200
4.449100 1.901400
4.463400 1.903300
4.477600 1.906800
4.491800 1.912300
4.506000 1.921100
4.520300 1.933000
4.534500 1.947800
4.548700 1.965200
4.562900 1.985300
4.577200 2.008100
4.591400 2.038000
4.605600 2.081300
4.619800 2.123600
4.634100 2.164200
4.648300 2.261700
4.662500 2.283800
4.676700 2.302800
4.691000 2.319100
4.705200 2.332200
4.719400 2.222200
4.733600 2.236600
4.747900 2.252000
4.762100 2.267800
4.776300 2.289500
4.790500 2.309800
4.804700 2.328100
4.819000 2.327800
4.833200 2.312800
4.847400 2.297000
4.861600 2.294500
4.875900 2.291500
4.890100 2.286500
4.904300 2.278400
4.918500 2.267100
4.932800 2.252600
4.947000 2.234100
4.961200 2.212600
4.975400 2.205500
4.989700 2.199400
5.003900 2.193000
5.018100 2.186800
5.032300 2.180300
5.046600 2.173900
5.060800 2.167600
5.075000 2.161500
5.089200 2.143200
5.103500 2.135800
5.117700 2.129200
5.131900 2.123200
5.146100 2.118000
5.160400 2.113400
5.174600 2.110300
5.188800 2.107800
5.203000 2.105400
5.217300 2.102700
5.231500 2.098400
5.245700 2.094000
5.259900 2.089500
5.274200 2.084600
5.288400 2.079500
5.302600 2.074100
5.316800 2.068700
5.331100 2.064300
5.345300 2.073100
5.359500 2.083000
5.373700 2.094100
5.387900 2.105300
5.402200 2.140300
5.416400 2.204700
5.430600 2.144400
5.444800 2.098800
5.459100 2.067800
5.473300 2.054200
5.487500 2.064300
5.501700 2.084200
5.516000 2.109800
5.530200 2.139800
5.544400 2.170400
5.558600 2.202000
5.572900 2.234500
5.587100 2.276600
5.601300 2.313700
5.615500 2.351800
5.629800 2.389800
5.644000 2.417900
5.658200 2.372300
5.672400 2.381800
5.686700 2.390200
5.700900 2.397500
5.715100 2.403600
5.729300 2.408600
5.743600 2.398500
5.757800 2.348100
5.772000 2.280500
5.786200 2.279300
5.800500 2.284100
5.814700 2.288600
5.828900 2.293000
5.843100 2.297300
5.857400 2.301400
5.871600 2.305400
5.885800 2.310500
5.900000 2.320800
5.914200 2.335600
5.928500 2.354700
5.942700 2.377900
5.956900 2.406000
5.971100 2.437100
5.985400 2.415200
5.999600 2.407100
6.013800 2.426700
6.028000 2.449100
6.042300 2.469200
6.056500 2.485700
6.070700 2.498600
6.084900 2.462400
6.099200 2.469200
6.113400 2.486200
6.127600 2.503700
6.141800 2.525000
6.156100 2.550000
6.170300 2.576100
6.184500 2.605100
6.198700 2.637400
6.213000 2.673000
6.227200 2.660300
6.241400 2.637200
6.255600 2.648700
6.269900 2.660300
6.284100 2.671200
6.298300 2.658100
6.312500 2.635800
6.326800 2.615700
6.341000 2.597200
6.355200 2.580200
6.369400 2.564500
6.383700 2.550200
6.397900 2.536500
6.412100 2.522800
6.426300 2.509500
6.440600 2.505600
6.454800 2.514400
6.469000 2.531800
6.483200 2.550600
6.497400 2.549800
6.511700 2.545100
6.525900 2.544200
6.540100 2.546900
6.554300 2.551800
6.568600 2.555300
6.582800 2.559000
6.597000 2.567600
6.611200 2.576700
6.625500 2.586900
6.639700 2.598200
6.653900 2.610600
6.668100 2.623600
6.682400 2.636400
6.696600 2.648800
6.710800 2.659900
6.725000 2.668100
6.739300 2.672500
6.753500 2.673000
6.767700 2.669700
6.781900 2.662900
6.796200 2.654500
6.810400 2.643600
6.824600 2.637600
6.838800 2.632800
6.853100 2.642000
6.867300 2.656400
6.881500 2.725100
6.895700 2.739900
6.910000 2.741100
6.924200 2.744900
6.938400 2.753400
6.952600 2.766400
6.966900 2.776700
6.981100 2.783600
6.995300 2.787400
7.009500 2.787700
7.023800 2.783500
7.038000 2.774600
7.052200 2.766000
7.066400 2.765200
7.080600 2.761100
7.094900 2.764300
7.109100 2.769300
7.123300 2.776100
7.137500 2.783200
7.151800 2.788900
7.166000 2.805800
7.180200 2.812200
7.194400 2.819100
7.208700 2.827600
7.222900 2.841800
7.237100 2.848600
7.251300 2.852100
7.265600 2.855900
7.279800 2.860000
7.294000 2.862700
7.308200 2.861000
7.322500 2.860300
7.336700 3.027500
7.350900 2.965400
7.365100 2.977100
7.379400 2.989800
7.393600 3.000800
7.407800 3.010200
7.422000 3.017900
7.436300 3.023900
7.450500 3.028000
7.464700 3.030300
7.478900 3.036100
7.493200 3.054200
7.507400 3.084000
7.521600 3.072300
7.535800 3.038200
7.550100 3.008700
7.564300 2.983900
7.578500 2.962600
7.592700 2.943100
7.606900 2.925300
7.621200 2.910000
7.635400 2.901700
7.649600 2.888000
7.663800 2.873500
