set title 'mp-561488 - Density of States'
set xlabel 'Energy (eV)'
set ylabel 'DOS (states/eV)'
set grid
set xrange [-10:10]
set yrange [0:97.401]
set xzeroaxis lt -1
set terminal png size 800,600
set output 'mp-561488_dos_gnuplot.png'
plot '-' using 1:2 with lines title 'DOS'
-23.217800 0.000000
-23.199300 0.000000
-23.180800 0.000000
-23.162200 0.000000
-23.143700 0.000000
-23.125200 0.000000
-23.106700 0.000000
-23.088200 0.000000
-23.069700 0.000000
-23.051200 0.000000
-23.032600 0.000000
-23.014100 0.000000
-22.995600 0.000000
-22.977100 0.000000
-22.958600 0.000000
-22.940100 0.000000
-22.921600 0.000000
-22.903000 0.000000
-22.884500 0.000000
-22.866000 0.000000
-22.847500 0.000000
-22.829000 0.000000
-22.810500 0.000000
-22.792000 0.000000
-22.773400 0.000000
-22.754900 0.000000
-22.736400 0.000000
-22.717900 0.000000
-22.699400 0.000000
-22.680900 0.000000
-22.662300 0.000000
-22.643800 0.000000
-22.625300 0.000000
-22.606800 0.000000
-22.588300 0.000000
-22.569800 0.000000
-22.551300 0.000000
-22.532700 0.000000
-22.514200 0.000000
-22.495700 0.000000
-22.477200 0.000000
-22.458700 0.000000
-22.440200 0.000000
-22.421700 0.000000
-22.403100 0.000000
-22.384600 0.000000
-22.366100 0.000000
-22.347600 0.000000
-22.329100 0.000000
-22.310600 0.000000
-22.292100 0.000000
-22.273500 0.000000
-22.255000 0.000000
-22.236500 0.000000
-22.218000 0.000000
-22.199500 0.000000
-22.181000 0.000000
-22.162500 0.000000
-22.143900 0.000000
-22.125400 0.000000
-22.106900 0.000000
-22.088400 0.000000
-22.069900 0.000000
-22.051400 0.000000
-22.032900 0.000000
-22.014300 0.000000
-21.995800 0.000000
-21.977300 0.000000
-21.958800 0.000000
-21.940300 0.000000
-21.921800 0.000000
-21.903300 0.000000
-21.884700 0.000000
-21.866200 0.000000
-21.847700 0.000000
-21.829200 0.000000
-21.810700 0.000000
-21.792200 0.000000
-21.773700 0.000000
-21.755100 0.000000
-21.736600 0.000000
-21.718100 0.000000
-21.699600 0.000000
-21.681100 0.000000
-21.662600 0.000000
-21.644100 0.000000
-21.625500 0.000000
-21.607000 0.000000
-21.588500 0.000000
-21.570000 0.000000
-21.551500 0.000000
-21.533000 0.001700
-21.514400 0.249500
-21.495900 0.916400
-21.477400 2.002600
-21.458900 6.185900
-21.440400 10.320000
-21.421900 13.992100
-21.403400 17.763800
-21.384800 20.817000
-21.366300 26.219300
-21.347800 10.817900
-21.329300 2.684100
-21.310800 2.134400
-21.292300 3.511200
-21.273800 5.229000
-21.255200 7.287600
-21.236700 9.687100
-21.218200 10.365200
-21.199700 9.668300
-21.181200 8.836200
-21.162700 7.868800
-21.144200 6.766100
-21.125600 5.528200
-21.107100 4.155000
-21.088600 5.588000
-21.070100 8.862500
-21.051600 9.372500
-21.033100 9.760200
-21.014600 10.116500
-20.996000 10.441300
-20.977500 10.730800
-20.959000 10.881500
-20.940500 10.846300
-20.922000 10.630200
-20.903500 9.162900
-20.885000 7.207000
-20.866400 0.572500
-20.847900 1.347500
-20.829400 4.648800
-20.810900 6.819400
-20.792400 8.409900
-20.773900 8.938600
-20.755400 9.334000
-20.736800 9.596300
-20.718300 9.725300
-20.699800 9.721000
-20.681300 9.583500
-20.662800 9.312800
-20.644300 6.230400
-20.625800 6.985500
-20.607200 7.345700
-20.588700 8.141000
-20.570200 9.371600
-20.551700 11.037400
-20.533200 14.327900
-20.514700 35.673100
-20.496200 31.915100
-20.477600 19.251800
-20.459100 22.323600
-20.440600 32.711400
-20.422100 20.426400
-20.403600 0.000000
-20.385100 0.000000
-20.366600 0.000000
-20.348000 0.000000
-20.329500 0.000000
-20.311000 0.000000
-20.292500 77.831300
-20.274000 25.755800
-20.255500 15.548100
-20.236900 13.256600
-20.218400 13.722600
-20.199900 16.079800
-20.181400 18.264800
-20.162900 25.803500
-20.144400 3.090000
-20.125900 2.787400
-20.107300 2.785300
-20.088800 2.995600
-20.070300 3.413500
-20.051800 4.039000
-20.033300 5.095100
-20.014800 6.636300
-19.996300 8.189900
-19.977700 9.755900
-19.959200 11.334400
-19.940700 17.395700
-19.922200 10.248700
-19.903700 8.102300
-19.885200 6.506900
-19.866700 5.106800
-19.848100 4.174800
-19.829600 5.803100
-19.811100 8.220700
-19.792600 10.734800
-19.774100 12.309000
-19.755600 15.243900
-19.737100 18.079900
-19.718500 32.082200
-19.700000 31.824400
-19.681500 27.591100
-19.663000 23.071900
-19.644500 18.262000
-19.626000 19.556100
-19.607500 24.332100
-19.588900 24.193700
-19.570400 23.776300
-19.551900 17.837600
-19.533400 10.496800
-19.514900 4.390200
-19.496400 0.000000
-19.477900 0.000000
-19.459300 0.000000
-19.440800 6.074600
-19.422300 62.602600
-19.403800 46.465700
-19.385300 20.095100
-19.366800 62.506000
-19.348300 91.228500
-19.329700 32.308500
-19.311200 5.026500
-19.292700 39.670000
-19.274200 8.880200
-19.255700 49.342700
-19.237200 28.389900
-19.218700 63.041800
-19.200100 40.905600
-19.181600 5.129600
-19.163100 0.004300
-19.144600 25.412700
-19.126100 27.089400
-19.107600 30.021100
-19.089000 30.191400
-19.070500 27.694700
-19.052000 24.294100
-19.033500 19.989700
-19.015000 14.781500
-18.996500 8.773100
-18.978000 4.401500
-18.959400 1.934600
-18.940900 0.673900
-18.922400 0.130600
-18.903900 0.005700
-18.885400 0.183000
-18.866900 0.608800
-18.848400 1.283100
-18.829800 2.893000
-18.811300 4.629500
-18.792800 6.763500
-18.774300 10.033600
-18.755800 13.088900
-18.737300 15.784600
-18.718800 18.121000
-18.700200 20.097800
-18.681700 22.155000
-18.663200 23.327800
-18.644700 21.203200
-18.626200 10.334500
-18.607700 9.123400
-18.589200 9.070100
-18.570600 8.604000
-18.552100 7.725200
-18.533600 6.433500
-18.515100 0.000000
-18.496600 0.000000
-18.478100 0.000000
-18.459600 0.000000
-18.441000 5.086500
-18.422500 10.349500
-18.404000 13.339500
-18.385500 15.137300
-18.367000 15.786400
-18.348500 31.861000
-18.330000 8.341400
-18.311400 4.732200
-18.292900 8.501500
-18.274400 20.681500
-18.255900 28.834000
-18.237400 21.396200
-18.218900 15.130600
-18.200400 8.728100
-18.181800 2.348300
-18.163300 0.863900
-18.144800 0.106600
-18.126300 0.000000
-18.107800 0.000000
-18.089300 0.000000
-18.070800 0.000000
-18.052200 0.000000
-18.033700 0.000000
-18.015200 0.000000
-17.996700 0.000000
-17.978200 0.000000
-17.959700 0.000000
-17.941100 0.000000
-17.922600 0.000000
-17.904100 0.000000
-17.885600 0.000000
-17.867100 0.000000
-17.848600 0.000000
-17.830100 0.000000
-17.811500 0.000000
-17.793000 0.000000
-17.774500 0.000000
-17.756000 0.000000
-17.737500 0.000000
-17.719000 0.000000
-17.700500 0.000000
-17.681900 0.000000
-17.663400 0.000000
-17.644900 0.000000
-17.626400 0.000000
-17.607900 0.000000
-17.589400 0.000000
-17.570900 0.000000
-17.552300 0.000000
-17.533800 0.000000
-17.515300 0.000000
-17.496800 0.000000
-17.478300 0.000000
-17.459800 0.000000
-17.441300 0.000000
-17.422700 0.000000
-17.404200 0.000000
-17.385700 0.000000
-17.367200 0.000000
-17.348700 0.000000
-17.330200 0.000000
-17.311700 0.000000
-17.293100 0.000000
-17.274600 0.000000
-17.256100 0.000000
-17.237600 0.000000
-17.219100 0.000000
-17.200600 0.000000
-17.182100 0.000000
-17.163500 0.000000
-17.145000 0.000000
-17.126500 0.000000
-17.108000 0.000000
-17.089500 0.000000
-17.071000 0.000000
-17.052500 0.000000
-17.033900 0.000000
-17.015400 0.000000
-16.996900 0.000000
-16.978400 0.000000
-16.959900 0.000000
-16.941400 0.000000
-16.922900 0.000000
-16.904300 0.000000
-16.885800 0.000000
-16.867300 0.000000
-16.848800 0.000000
-16.830300 0.000000
-16.811800 0.000000
-16.793200 0.000000
-16.774700 0.000000
-16.756200 0.000000
-16.737700 0.000000
-16.719200 0.000000
-16.700700 0.000000
-16.682200 0.000000
-16.663600 0.000000
-16.645100 0.000000
-16.626600 0.000000
-16.608100 0.000000
-16.589600 0.000000
-16.571100 0.000000
-16.552600 0.000000
-16.534000 0.000000
-16.515500 0.000000
-16.497000 0.000000
-16.478500 0.000000
-16.460000 0.000000
-16.441500 0.000000
-16.423000 0.000000
-16.404400 0.000000
-16.385900 0.000000
-16.367400 0.000000
-16.348900 0.000000
-16.330400 0.000000
-16.311900 0.000000
-16.293400 0.000000
-16.274800 0.000000
-16.256300 0.000000
-16.237800 0.000000
-16.219300 0.000000
-16.200800 0.000000
-16.182300 0.000000
-16.163800 0.000000
-16.145200 0.000000
-16.126700 0.000000
-16.108200 0.000000
-16.089700 0.000000
-16.071200 0.000000
-16.052700 0.000000
-16.034200 0.000000
-16.015600 0.000000
-15.997100 0.000000
-15.978600 0.000000
-15.960100 0.000000
-15.941600 0.000000
-15.923100 0.000000
-15.904600 0.000000
-15.886000 0.000000
-15.867500 0.000000
-15.849000 0.000000
-15.830500 0.000000
-15.812000 0.000000
-15.793500 0.000000
-15.775000 0.000000
-15.756400 0.000000
-15.737900 0.000000
-15.719400 0.000000
-15.700900 0.000000
-15.682400 0.000000
-15.663900 0.000000
-15.645300 0.000000
-15.626800 0.000000
-15.608300 0.000000
-15.589800 0.000000
-15.571300 0.000000
-15.552800 0.000000
-15.534300 0.000000
-15.515700 0.000000
-15.497200 0.000000
-15.478700 0.000000
-15.460200 0.000000
-15.441700 0.000000
-15.423200 0.000000
-15.404700 0.000000
-15.386100 0.000000
-15.367600 0.000000
-15.349100 0.000000
-15.330600 0.000000
-15.312100 0.000000
-15.293600 0.000000
-15.275100 0.000000
-15.256500 0.000000
-15.238000 0.000000
-15.219500 0.000000
-15.201000 0.000000
-15.182500 0.000000
-15.164000 0.000000
-15.145500 0.000000
-15.126900 0.000000
-15.108400 0.000000
-15.089900 0.000000
-15.071400 0.000000
-15.052900 0.000000
-15.034400 0.000000
-15.015900 0.000000
-14.997300 0.000000
-14.978800 0.000000
-14.960300 0.000000
-14.941800 0.000000
-14.923300 0.000000
-14.904800 0.000000
-14.886300 0.000000
-14.867700 0.000000
-14.849200 0.000000
-14.830700 0.000000
-14.812200 0.000000
-14.793700 0.000000
-14.775200 0.000000
-14.756700 0.000000
-14.738100 0.000000
-14.719600 0.000000
-14.701100 0.000000
-14.682600 0.000000
-14.664100 0.000000
-14.645600 0.000000
-14.627100 0.000000
-14.608500 0.000000
-14.590000 0.000000
-14.571500 0.000000
-14.553000 0.000000
-14.534500 0.000000
-14.516000 0.000000
-14.497400 0.000000
-14.478900 0.000000
-14.460400 0.000000
-14.441900 0.000000
-14.423400 0.000000
-14.404900 0.000000
-14.386400 0.000000
-14.367800 0.000000
-14.349300 0.000000
-14.330800 0.000000
-14.312300 0.000000
-14.293800 0.000000
-14.275300 0.000000
-14.256800 0.000000
-14.238200 0.000000
-14.219700 0.000000
-14.201200 0.000000
-14.182700 0.000000
-14.164200 0.000000
-14.145700 0.000000
-14.127200 0.000000
-14.108600 0.000000
-14.090100 0.000000
-14.071600 0.000000
-14.053100 0.000000
-14.034600 0.000000
-14.016100 0.000000
-13.997600 0.000000
-13.979000 0.000000
-13.960500 0.000000
-13.942000 0.000000
-13.923500 0.000000
-13.905000 0.000000
-13.886500 0.000000
-13.868000 0.000000
-13.849400 0.000000
-13.830900 0.000000
-13.812400 0.000000
-13.793900 0.000000
-13.775400 0.000000
-13.756900 0.000000
-13.738400 0.000000
-13.719800 0.000000
-13.701300 0.000000
-13.682800 0.000000
-13.664300 0.000000
-13.645800 0.000000
-13.627300 0.000000
-13.608800 0.000000
-13.590200 0.000000
-13.571700 0.000000
-13.553200 0.000000
-13.534700 0.000000
-13.516200 0.000000
-13.497700 0.000000
-13.479200 0.000000
-13.460600 0.000000
-13.442100 0.000000
-13.423600 0.000000
-13.405100 0.000000
-13.386600 0.000000
-13.368100 0.000000
-13.349500 0.000000
-13.331000 0.000000
-13.312500 0.000000
-13.294000 0.000000
-13.275500 0.000000
-13.257000 0.000000
-13.238500 0.000000
-13.219900 0.000000
-13.201400 0.000000
-13.182900 0.000000
-13.164400 0.000000
-13.145900 0.000000
-13.127400 0.000000
-13.108900 0.000000
-13.090300 0.000000
-13.071800 0.000000
-13.053300 0.000000
-13.034800 0.000000
-13.016300 0.000000
-12.997800 0.000000
-12.979300 0.000000
-12.960700 0.000000
-12.942200 0.000000
-12.923700 0.000000
-12.905200 0.000000
-12.886700 0.000000
-12.868200 0.000000
-12.849700 0.000000
-12.831100 0.000000
-12.812600 0.000000
-12.794100 0.000000
-12.775600 0.000000
-12.757100 0.000000
-12.738600 0.000000
-12.720100 0.000000
-12.701500 0.000000
-12.683000 0.000000
-12.664500 0.000000
-12.646000 0.000000
-12.627500 0.000000
-12.609000 0.000000
-12.590500 0.000000
-12.571900 0.000000
-12.553400 0.000000
-12.534900 0.000000
-12.516400 0.000000
-12.497900 0.000000
-12.479400 0.000000
-12.460900 0.000000
-12.442300 0.000000
-12.423800 0.000000
-12.405300 0.000000
-12.386800 0.000000
-12.368300 0.000000
-12.349800 0.000000
-12.331300 0.000000
-12.312700 0.000000
-12.294200 0.000000
-12.275700 0.000000
-12.257200 0.000000
-12.238700 0.000000
-12.220200 0.000000
-12.201600 0.000000
-12.183100 0.000000
-12.164600 0.000000
-12.146100 0.000000
-12.127600 0.000000
-12.109100 0.000000
-12.090600 0.000000
-12.072000 0.000000
-12.053500 0.000000
-12.035000 0.000000
-12.016500 0.000000
-11.998000 0.000000
-11.979500 0.000000
-11.961000 0.000000
-11.942400 0.000000
-11.923900 0.000000
-11.905400 0.000000
-11.886900 0.000000
-11.868400 0.000000
-11.849900 0.000000
-11.831400 0.000000
-11.812800 0.000000
-11.794300 0.000000
-11.775800 0.000000
-11.757300 0.000000
-11.738800 0.000000
-11.720300 0.000000
-11.701800 0.000000
-11.683200 0.000000
-11.664700 0.000000
-11.646200 0.000000
-11.627700 0.000000
-11.609200 0.000000
-11.590700 0.000000
-11.572200 0.000000
-11.553600 0.000000
-11.535100 0.000000
-11.516600 0.000000
-11.498100 0.000000
-11.479600 0.000000
-11.461100 0.000000
-11.442600 0.000000
-11.424000 0.000000
-11.405500 0.000000
-11.387000 0.000000
-11.368500 0.000000
-11.350000 0.000000
-11.331500 0.000000
-11.313000 0.000000
-11.294400 0.000000
-11.275900 0.000000
-11.257400 0.000000
-11.238900 0.000000
-11.220400 0.000000
-11.201900 0.000000
-11.183400 0.000000
-11.164800 0.000000
-11.146300 0.000000
-11.127800 0.000000
-11.109300 0.000000
-11.090800 0.000000
-11.072300 0.000000
-11.053700 0.000000
-11.035200 0.000000
-11.016700 0.000000
-10.998200 0.000000
-10.979700 0.000000
-10.961200 0.000000
-10.942700 0.000000
-10.924100 0.000000
-10.905600 0.000000
-10.887100 0.007400
-10.868600 0.055900
-10.850100 0.149600
-10.831600 0.288500
-10.813100 0.472700
-10.794500 0.702100
-10.776000 0.976700
-10.757500 1.523200
-10.739000 2.846000
-10.720500 4.085500
-10.702000 5.241600
-10.683500 6.314400
-10.664900 7.303700
-10.646400 8.209800
-10.627900 9.573300
-10.609400 10.572600
-10.590900 11.029500
-10.572400 10.944200
-10.553900 10.316600
-10.535300 9.750200
-10.516800 9.835600
-10.498300 0.819300
-10.479800 1.523900
-10.461300 2.445400
-10.442800 3.583800
-10.424300 5.222500
-10.405700 6.877400
-10.387200 8.489300
-10.368700 10.058200
-10.350200 11.584200
-10.331700 13.067100
-10.313200 16.392200
-10.294700 13.179000
-10.276100 1.736800
-10.257600 1.575900
-10.239100 1.422800
-10.220600 1.277600
-10.202100 1.140100
-10.183600 3.760300
-10.165100 7.329100
-10.146500 9.117000
-10.128000 9.946300
-10.109500 9.817200
-10.091000 9.215300
-10.072500 8.900100
-10.054000 8.493600
-10.035500 7.995900
-10.016900 7.406900
-9.998400 6.726700
-9.979900 5.955300
-9.961400 5.092700
-9.942900 4.139500
-9.924400 3.204500
-9.905800 2.365500
-9.887300 1.622500
-9.868800 0.972100
-9.850300 0.410000
-9.831800 0.226200
-9.813300 0.123500
-9.794800 7.439200
-9.776200 22.548700
-9.757700 44.489000
-9.739200 5.027800
-9.720700 4.424500
-9.702200 4.098000
-9.683700 4.306000
-9.665200 6.613600
-9.646600 8.830100
-9.628100 10.955500
-9.609600 12.989800
-9.591100 14.933100
-9.572600 16.070100
-9.554100 19.338900
-9.535600 15.269500
-9.517000 10.594200
-9.498500 7.766700
-9.480000 4.614700
-9.461500 5.674600
-9.443000 6.911600
-9.424500 8.325600
-9.406000 9.916600
-9.387400 12.091700
-9.368900 11.645200
-9.350400 10.580400
-9.331900 10.020200
-9.313400 8.698900
-9.294900 6.484200
-9.276400 3.047600
-9.257800 0.000000
-9.239300 0.000000
-9.220800 0.009800
-9.202300 0.528900
-9.183800 1.837400
-9.165300 3.935500
-9.146800 6.823000
-9.128200 14.536400
-9.109700 21.589800
-9.091200 30.902400
-9.072700 17.246400
-9.054200 11.096800
-9.035700 7.787600
-9.017200 12.647100
-8.998600 19.899600
-8.980100 21.407200
-8.961600 12.704200
-8.943100 10.717100
-8.924600 8.884800
-8.906100 7.207400
-8.887600 5.684900
-8.869000 4.317200
-8.850500 3.104400
-8.832000 2.097500
-8.813500 2.607600
-8.795000 3.173300
-8.776500 3.794300
-8.757900 7.818000
-8.739400 11.852500
-8.720900 13.459700
-8.702400 12.246400
-8.683900 8.059500
-8.665400 7.193600
-8.646900 6.249600
-8.628300 5.227300
-8.609800 4.126800
-8.591300 2.948100
-8.572800 1.691200
-8.554300 1.308700
-8.535800 1.172500
-8.517300 1.043700
-8.498700 0.922500
-8.480200 0.808700
-8.461700 0.702400
-8.443200 0.603600
-8.424700 0.512300
-8.406200 0.428500
-8.387700 0.352100
-8.369100 1.576700
-8.350600 4.474000
-8.332100 6.780100
-8.313600 8.495000
-8.295100 9.741700
-8.276600 10.664200
-8.258100 11.261500
-8.239500 11.701800
-8.221000 11.985100
-8.202500 8.926200
-8.184000 6.397500
-8.165500 5.095100
-8.147000 4.004700
-8.128500 3.126100
-8.109900 2.459400
-8.091400 2.004600
-8.072900 0.677400
-8.054400 0.889500
-8.035900 2.496900
-8.017400 3.496600
-7.998900 4.512600
-7.980300 5.544900
-7.961800 6.593600
-7.943300 7.658600
-7.924800 8.740000
-7.906300 12.243800
-7.887800 15.016900
-7.869300 15.100500
-7.850700 12.753800
-7.832200 8.577900
-7.813700 2.928900
-7.795200 1.114200
-7.776700 1.601000
-7.758200 2.975700
-7.739700 5.164600
-7.721100 8.167700
-7.702600 11.984900
-7.684100 25.980000
-7.665600 18.517400
-7.647100 12.333700
-7.628600 7.465900
-7.610000 3.481000
-7.591500 4.498600
-7.573000 5.745000
-7.554500 6.918500
-7.536000 8.019000
-7.517500 9.046500
-7.499000 10.001100
-7.480400 12.328500
-7.461900 13.341600
-7.443400 9.929100
-7.424900 8.122300
-7.406400 6.078800
-7.387900 6.999500
-7.369400 1.964700
-7.350800 0.024900
-7.332300 1.710800
-7.313800 7.873200
-7.295300 23.624700
-7.276800 55.337300
-7.258300 8.301500
-7.239800 12.220900
-7.221200 18.094700
-7.202700 19.553500
-7.184200 18.710700
-7.165700 17.482900
-7.147200 15.907300
-7.128700 19.933300
-7.110200 10.292000
-7.091600 12.006300
-7.073100 18.629900
-7.054600 24.049800
-7.036100 28.770000
-7.017600 25.350800
-6.999100 21.574000
-6.980600 18.582300
-6.962000 18.698500
-6.943500 28.113100
-6.925000 9.599200
-6.906500 9.388300
-6.888000 10.155100
-6.869500 16.717700
-6.851000 17.343800
-6.832400 16.933600
-6.813900 17.049100
-6.795400 16.450400
-6.776900 16.112200
-6.758400 16.073300
-6.739900 15.844600
-6.721400 15.178600
-6.702800 13.741000
-6.684300 11.878400
-6.665800 10.352400
-6.647300 8.388700
-6.628800 5.987400
-6.610300 9.801200
-6.591800 15.438900
-6.573200 15.115900
-6.554700 15.914400
-6.536200 15.783300
-6.517700 11.843300
-6.499200 10.798000
-6.480700 20.779500
-6.462100 27.430900
-6.443600 30.684300
-6.425100 17.433300
-6.406600 11.093500
-6.388100 8.552500
-6.369600 6.725600
-6.351100 4.676700
-6.332500 20.371000
-6.314000 29.402500
-6.295500 20.089000
-6.277000 13.694500
-6.258500 8.119100
-6.240000 3.362700
-6.221500 2.271900
-6.202900 3.243800
-6.184400 4.388200
-6.165900 7.136500
-6.147400 25.015300
-6.128900 32.982700
-6.110400 19.352900
-6.091900 9.022800
-6.073300 2.106500
-6.054800 6.088500
-6.036300 18.276100
-6.017800 34.339500
-5.999300 40.199100
-5.980800 33.646500
-5.962300 27.020200
-5.943700 13.642600
-5.925200 10.526800
-5.906700 9.118900
-5.888200 7.390000
-5.869700 5.340100
-5.851200 1.148100
-5.832700 19.408100
-5.814100 22.971000
-5.795600 26.048900
-5.777100 25.353900
-5.758600 17.536800
-5.740100 12.826400
-5.721600 16.941300
-5.703100 22.428700
-5.684500 34.606000
-5.666000 0.000000
-5.647500 0.000000
-5.629000 0.000000
-5.610500 0.000000
-5.592000 0.049900
-5.573500 0.454000
-5.554900 1.263700
-5.536400 2.479000
-5.517900 7.119700
-5.499400 13.099900
-5.480900 11.861000
-5.462400 9.889900
-5.443900 8.649600
-5.425300 8.054700
-5.406800 7.450600
-5.388300 6.837200
-5.369800 6.214600
-5.351300 5.582700
-5.332800 4.941600
-5.314200 4.291300
-5.295700 7.971500
-5.277200 9.320100
-5.258700 10.920700
-5.240200 11.192000
-5.221700 17.367500
-5.203200 13.131200
-5.184600 10.658300
-5.166100 10.407700
-5.147600 10.341500
-5.129100 10.496800
-5.110600 9.788400
-5.092100 8.216200
-5.073600 6.500700
-5.055000 8.529200
-5.036500 10.749000
-5.018000 12.968400
-4.999500 15.187400
-4.981000 17.735300
-4.962500 20.761400
-4.944000 23.841000
-4.925400 25.935600
