set title 'mp-1008806 - Density of States'
set xlabel 'Energy (eV)'
set ylabel 'DOS (states/eV)'
set grid
set xrange [-10:10]
set yrange [0:3.553]
set xzeroaxis lt -1
set terminal png size 800,600
set output 'mp-1008806_dos_gnuplot.png'
plot '-' using 1:2 with lines title 'DOS'
-39.352800 0.000000
-39.293600 0.000000
-39.234300 0.000000
-39.175000 0.000000
-39.115800 0.000000
-39.056500 0.000000
-38.997200 0.000000
-38.937900 0.000000
-38.878700 0.000000
-38.819400 0.000000
-38.760100 0.000000
-38.700900 0.000000
-38.641600 0.000000
-38.582300 0.000000
-38.523000 0.000000
-38.463800 0.000000
-38.404500 0.000000
-38.345200 0.000000
-38.285900 0.000000
-38.226700 0.000000
-38.167400 0.000000
-38.108100 0.000000
-38.048900 0.000000
-37.989600 0.000000
-37.930300 0.000000
-37.871000 0.000000
-37.811800 0.000000
-37.752500 0.000000
-37.693200 0.000000
-37.633900 0.000000
-37.574700 0.000000
-37.515400 0.000000
-37.456100 0.000000
-37.396900 0.000000
-37.337600 0.000000
-37.278300 0.000000
-37.219000 0.000000
-37.159800 0.000000
-37.100500 0.000000
-37.041200 0.000000
-36.981900 0.000000
-36.922700 0.000000
-36.863400 0.000000
-36.804100 0.000000
-36.744900 0.000000
-36.685600 0.000000
-36.626300 0.000000
-36.567000 0.000000
-36.507800 0.000000
-36.448500 0.000000
-36.389200 0.000000
-36.329900 0.000000
-36.270700 0.000000
-36.211400 0.000000
-36.152100 0.000000
-36.092900 0.000000
-36.033600 0.000000
-35.974300 0.000000
-35.915000 0.000000
-35.855800 0.000000
-35.796500 0.000000
-35.737200 0.000000
-35.678000 0.000000
-35.618700 0.000000
-35.559400 0.000000
-35.500100 0.000000
-35.440900 0.000000
-35.381600 0.000000
-35.322300 0.000000
-35.263000 0.000000
-35.203800 0.000000
-35.144500 0.000000
-35.085200 0.000000
-35.026000 0.000000
-34.966700 0.000000
-34.907400 0.000000
-34.848100 0.000000
-34.788900 0.000000
-34.729600 0.000000
-34.670300 0.000000
-34.611000 0.000000
-34.551800 0.000000
-34.492500 0.000000
-34.433200 0.000000
-34.374000 0.000000
-34.314700 0.000000
-34.255400 0.000000
-34.196100 0.000000
-34.136900 0.000000
-34.077600 0.000600
-34.018300 0.089600
-33.959000 1.562900
-33.899800 5.378300
-33.840500 7.633500
-33.781200 6.155100
-33.722000 5.051900
-33.662700 4.251900
-33.603400 4.378600
-33.544100 4.911000
-33.484900 10.000100
-33.425600 18.346000
-33.366300 17.241900
-33.307100 10.457400
-33.247800 4.978100
-33.188500 0.772000
-33.129200 0.018600
-33.070000 0.000000
-33.010700 0.000000
-32.951400 0.000000
-32.892100 0.000000
-32.832900 0.000000
-32.773600 0.000000
-32.714300 0.000000
-32.655100 0.000000
-32.595800 0.000000
-32.536500 0.000000
-32.477200 0.000000
-32.418000 0.000000
-32.358700 0.000000
-32.299400 0.000000
-32.240100 0.000000
-32.180900 0.000000
-32.121600 0.000000
-32.062300 0.000000
-32.003100 0.000000
-31.943800 0.000000
-31.884500 0.000000
-31.825200 0.000000
-31.766000 0.000000
-31.706700 0.000000
-31.647400 0.000000
-31.588100 0.000000
-31.528900 0.000000
-31.469600 0.000000
-31.410300 0.000000
-31.351100 0.000000
-31.291800 0.000000
-31.232500 0.000000
-31.173200 0.000000
-31.114000 0.000000
-31.054700 0.000000
-30.995400 0.000000
-30.936100 0.000000
-30.876900 0.000000
-30.817600 0.000000
-30.758300 0.000000
-30.699100 0.000000
-30.639800 0.000000
-30.580500 0.000000
-30.521200 0.000000
-30.462000 0.000000
-30.402700 0.000000
-30.343400 0.000000
-30.284200 0.000000
-30.224900 0.000000
-30.165600 0.000000
-30.106300 0.000000
-30.047100 0.000000
-29.987800 0.000000
-29.928500 0.000000
-29.869200 0.000000
-29.810000 0.000000
-29.750700 0.000000
-29.691400 0.000000
-29.632200 0.000000
-29.572900 0.000000
-29.513600 0.000000
-29.454300 0.000000
-29.395100 0.000000
-29.335800 0.000000
-29.276500 0.000000
-29.217200 0.000000
-29.158000 0.000000
-29.098700 0.000000
-29.039400 0.000000
-28.980200 0.000000
-28.920900 0.000000
-28.861600 0.000000
-28.802300 0.000000
-28.743100 0.000000
-28.683800 0.000000
-28.624500 0.000000
-28.565200 0.000000
-28.506000 0.000000
-28.446700 0.000000
-28.387400 0.000000
-28.328200 0.000000
-28.268900 0.000000
-28.209600 0.000000
-28.150300 0.000000
-28.091100 0.000000
-28.031800 0.000000
-27.972500 0.000000
-27.913300 0.000000
-27.854000 0.000000
-27.794700 0.000000
-27.735400 0.000000
-27.676200 0.000000
-27.616900 0.000000
-27.557600 0.000000
-27.498300 0.000000
-27.439100 0.000000
-27.379800 0.000000
-27.320500 0.000000
-27.261300 0.000000
-27.202000 0.000000
-27.142700 0.000000
-27.083400 0.000000
-27.024200 0.000000
-26.964900 0.000000
-26.905600 0.000000
-26.846300 0.000000
-26.787100 0.000000
-26.727800 0.000000
-26.668500 0.000000
-26.609300 0.000000
-26.550000 0.000000
-26.490700 0.000000
-26.431400 0.000000
-26.372200 0.000000
-26.312900 0.000000
-26.253600 0.000000
-26.194300 0.000000
-26.135100 0.000000
-26.075800 0.000000
-26.016500 0.000000
-25.957300 0.000000
-25.898000 0.000000
-25.838700 0.000000
-25.779400 0.000000
-25.720200 0.000000
-25.660900 0.000000
-25.601600 0.000000
-25.542300 0.000000
-25.483100 0.000000
-25.423800 0.000000
-25.364500 0.000000
-25.305300 0.000000
-25.246000 0.000000
-25.186700 0.000000
-25.127400 0.000000
-25.068200 0.000000
-25.008900 0.000000
-24.949600 0.000000
-24.890400 0.000000
-24.831100 0.000000
-24.771800 0.000000
-24.712500 0.000000
-24.653300 0.000000
-24.594000 0.000000
-24.534700 0.000000
-24.475400 0.000000
-24.416200 0.000000
-24.356900 0.000000
-24.297600 0.000000
-24.238400 0.000000
-24.179100 0.000000
-24.119800 0.000000
-24.060500 0.000000
-24.001300 0.000000
-23.942000 0.000000
-23.882700 0.000000
-23.823400 0.000000
-23.764200 0.000000
-23.704900 0.000000
-23.645600 0.000000
-23.586400 0.000000
-23.527100 0.000000
-23.467800 0.000000
-23.408500 0.000000
-23.349300 0.000000
-23.290000 0.000000
-23.230700 0.000000
-23.171400 0.000000
-23.112200 0.000000
-23.052900 0.000000
-22.993600 0.000000
-22.934400 0.000000
-22.875100 0.000000
-22.815800 0.000000
-22.756500 0.000000
-22.697300 0.000000
-22.638000 0.000000
-22.578700 0.000000
-22.519500 0.000000
-22.460200 0.000000
-22.400900 0.000000
-22.341600 0.000000
-22.282400 0.000000
-22.223100 0.000000
-22.163800 0.000000
-22.104500 0.000000
-22.045300 0.000000
-21.986000 0.000000
-21.926700 0.000000
-21.867500 0.000000
-21.808200 0.000000
-21.748900 0.000000
-21.689600 0.000000
-21.630400 0.000000
-21.571100 0.000000
-21.511800 0.000000
-21.452500 0.000000
-21.393300 0.000000
-21.334000 0.000000
-21.274700 0.000000
-21.215500 0.000000
-21.156200 0.000000
-21.096900 0.000000
-21.037600 0.000000
-20.978400 0.000000
-20.919100 0.000000
-20.859800 0.000000
-20.800500 0.000000
-20.741300 0.000000
-20.682000 0.000000
-20.622700 0.000000
-20.563500 0.000000
-20.504200 0.000000
-20.444900 0.000000
-20.385600 0.000000
-20.326400 0.000000
-20.267100 0.000000
-20.207800 0.000000
-20.148500 0.000000
-20.089300 0.000000
-20.030000 0.000000
-19.970700 0.000000
-19.911500 0.000000
-19.852200 0.000000
-19.792900 0.000000
-19.733600 0.000000
-19.674400 0.000000
-19.615100 0.000000
-19.555800 0.000000
-19.496600 0.000000
-19.437300 0.000000
-19.378000 0.000000
-19.318700 0.000000
-19.259500 0.000000
-19.200200 0.000000
-19.140900 0.000000
-19.081600 0.000000
-19.022400 0.000000
-18.963100 0.000000
-18.903800 0.000000
-18.844600 0.000000
-18.785300 0.000000
-18.726000 0.000000
-18.666700 0.000000
-18.607500 0.000000
-18.548200 0.000000
-18.488900 0.000000
-18.429600 0.000000
-18.370400 0.000000
-18.311100 0.000000
-18.251800 0.000000
-18.192600 0.000000
-18.133300 0.000000
-18.074000 0.000000
-18.014700 0.000000
-17.955500 0.000000
-17.896200 0.000000
-17.836900 0.000000
-17.777600 0.000000
-17.718400 0.000000
-17.659100 0.000000
-17.599800 0.000000
-17.540600 0.000000
-17.481300 0.000000
-17.422000 0.000000
-17.362700 0.000000
-17.303500 0.000000
-17.244200 0.000000
-17.184900 0.000000
-17.125700 0.000000
-17.066400 0.000000
-17.007100 0.000000
-16.947800 0.000000
-16.888600 0.000000
-16.829300 0.000000
-16.770000 0.000000
-16.710700 0.000000
-16.651500 0.000000
-16.592200 0.000000
-16.532900 0.000000
-16.473700 0.000000
-16.414400 0.000000
-16.355100 0.000000
-16.295800 0.000000
-16.236600 0.000000
-16.177300 0.000000
-16.118000 0.000000
-16.058700 0.000000
-15.999500 0.000000
-15.940200 0.000000
-15.880900 0.000000
-15.821700 0.000000
-15.762400 0.000000
-15.703100 0.000000
-15.643800 0.000000
-15.584600 0.000000
-15.525300 0.000000
-15.466000 0.000000
-15.406700 0.000000
-15.347500 0.000000
-15.288200 0.000000
-15.228900 0.000000
-15.169700 0.000000
-15.110400 0.000000
-15.051100 0.000000
-14.991800 0.000000
-14.932600 0.000000
-14.873300 0.000000
-14.814000 0.000000
-14.754800 0.000000
-14.695500 0.000000
-14.636200 0.000000
-14.576900 0.000000
-14.517700 0.000000
-14.458400 0.000000
-14.399100 0.000000
-14.339800 0.000000
-14.280600 0.000000
-14.221300 0.000000
-14.162000 0.000000
-14.102800 0.000000
-14.043500 0.000000
-13.984200 0.000000
-13.924900 0.000000
-13.865700 0.000000
-13.806400 0.000000
-13.747100 0.000000
-13.687800 0.000000
-13.628600 0.000000
-13.569300 0.000000
-13.510000 0.000000
-13.450800 0.000000
-13.391500 0.000000
-13.332200 0.000000
-13.272900 0.000000
-13.213700 0.000000
-13.154400 0.000000
-13.095100 0.000000
-13.035800 0.000000
-12.976600 0.000000
-12.917300 0.000000
-12.858000 0.000000
-12.798800 0.000000
-12.739500 0.000000
-12.680200 0.000000
-12.620900 0.000000
-12.561700 0.000000
-12.502400 0.000000
-12.443100 0.000000
-12.383800 0.000000
-12.324600 0.000000
-12.265300 0.000000
-12.206000 0.000000
-12.146800 0.000000
-12.087500 0.000000
-12.028200 0.000000
-11.968900 0.000000
-11.909700 0.000000
-11.850400 0.000000
-11.791100 0.000000
-11.731900 0.000000
-11.672600 0.000000
-11.613300 0.000000
-11.554000 0.000000
-11.494800 0.000000
-11.435500 0.000000
-11.376200 0.000000
-11.316900 0.000000
-11.257700 0.000000
-11.198400 0.000000
-11.139100 0.000000
-11.079900 0.000000
-11.020600 0.000000
-10.961300 0.000000
-10.902000 0.000000
-10.842800 0.000000
-10.783500 0.000000
-10.724200 0.000000
-10.664900 0.000000
-10.605700 0.000000
-10.546400 0.000000
-10.487100 0.000000
-10.427900 0.000000
-10.368600 0.000000
-10.309300 0.000000
-10.250000 0.000000
-10.190800 0.000000
-10.131500 0.000000
-10.072200 0.000000
-10.012900 0.000000
-9.953700 0.000000
-9.894400 0.000000
-9.835100 0.000000
-9.775900 0.000000
-9.716600 0.000000
-9.657300 0.000000
-9.598000 0.000000
-9.538800 0.000000
-9.479500 0.000000
-9.420200 0.000000
-9.361000 0.000000
-9.301700 0.000000
-9.242400 0.000000
-9.183100 0.000000
-9.123900 0.000000
-9.064600 0.000000
-9.005300 0.000000
-8.946000 0.000000
-8.886800 0.000000
-8.827500 0.000000
-8.768200 0.000000
-8.709000 0.000000
-8.649700 0.000000
-8.590400 0.000000
-8.531100 0.000000
-8.471900 0.000000
-8.412600 0.000000
-8.353300 0.000000
-8.294000 0.000000
-8.234800 0.000000
-8.175500 0.000000
-8.116200 0.000000
-8.057000 0.000000
-7.997700 0.000000
-7.938400 0.000000
-7.879100 0.000000
-7.819900 0.000100
-7.760600 0.003500
-7.701300 0.015300
-7.642000 0.038700
-7.582800 0.079700
-7.523500 0.056300
-7.464200 0.051500
-7.405000 0.114900
-7.345700 0.096000
-7.286400 0.138500
-7.227100 0.115100
-7.167900 0.075000
-7.108600 0.152300
-7.049300 0.142500
-6.990000 0.117000
-6.930800 0.160100
-6.871500 0.156700
-6.812200 0.230800
-6.753000 0.206500
-6.693700 0.155300
-6.634400 0.134500
-6.575100 0.118300
-6.515900 0.193400
-6.456600 0.265900
-6.397300 0.220400
-6.338100 0.243600
-6.278800 0.289300
-6.219500 0.299000
-6.160200 0.188300
-6.101000 0.143700
-6.041700 0.179800
-5.982400 0.246500
-5.923100 0.370500
-5.863900 0.323200
-5.804600 0.256500
-5.745300 0.285400
-5.686100 0.294600
-5.626800 0.288600
-5.567500 0.258100
-5.508200 0.458200
-5.449000 0.449900
-5.389700 0.247700
-5.330400 0.191700
-5.271100 0.424900
-5.211900 0.424200
-5.152600 0.218200
-5.093300 0.268000
-5.034100 0.412500
-4.974800 0.519500
-4.915500 0.615300
-4.856200 0.561000
-4.797000 0.430900
-4.737700 0.315000
-4.678400 0.427100
-4.619100 0.403800
-4.559900 0.536600
-4.500600 0.525900
-4.441300 0.569000
-4.382100 0.591200
-4.322800 0.282600
-4.263500 0.445100
-4.204200 0.765400
-4.145000 0.788900
-4.085700 0.711900
-4.026400 0.701900
-3.967200 0.466700
-3.907900 0.780900
-3.848600 1.103900
-3.789300 0.882500
-3.730100 0.904600
-3.670800 1.172400
-3.611500 1.066400
-3.552200 1.091500
-3.493000 1.196500
-3.433700 1.379200
-3.374400 1.211600
-3.315200 1.003200
-3.255900 0.889600
-3.196600 0.689600
-3.137300 0.727400
-3.078100 0.693300
-3.018800 0.444400
-2.959500 0.481800
-2.900200 0.540300
-2.841000 0.402800
-2.781700 0.298600
-2.722400 0.624400
-2.663200 1.026900
-2.603900 0.990600
-2.544600 0.952800
-2.485300 0.734700
-2.426100 0.759300
-2.366800 0.980400
-2.307500 1.078900
-2.248200 0.751800
-2.189000 0.895700
-2.129700 0.890300
-2.070400 0.688200
-2.011200 0.675700
-1.951900 0.761300
-1.892600 1.016400
-1.833300 0.889500
-1.774100 0.654700
-1.714800 0.587100
-1.655500 0.710400
-1.596200 0.537700
-1.537000 0.526000
-1.477700 0.823500
-1.418400 0.558300
-1.359200 0.599800
-1.299900 0.626800
-1.240600 0.703100
-1.181300 0.705000
-1.122100 0.502600
-1.062800 0.436800
-1.003500 0.339100
-0.944300 0.349300
-0.885000 0.522800
-0.825700 0.531000
-0.766400 0.627200
-0.707200 0.522400
-0.647900 0.367300
-0.588600 0.344600
-0.529300 0.407200
-0.470100 0.367500
-0.410800 0.338300
-0.351500 0.300500
-0.292300 0.282900
-0.233000 0.354000
-0.173700 0.424900
-0.114400 0.412700
-0.055200 0.248500
0.004100 0.332900
0.063400 0.232500
0.122700 0.147600
0.181900 0.140700
0.241200 0.252600
0.300500 0.409600
0.359700 0.321100
0.419000 0.385700
0.478300 0.343800
0.537600 0.129800
0.596800 0.201600
0.656100 0.356000
0.715400 0.317800
0.774700 0.272100
0.833900 0.303300
0.893200 0.444200
0.952500 0.689700
1.011700 0.556300
1.071000 0.915000
1.130300 1.001900
1.189600 0.749200
1.248800 0.955100
1.308100 0.919200
1.367400 1.046700
1.426600 0.978900
1.485900 0.839100
1.545200 0.990900
1.604500 0.950600
1.663700 0.947700
1.723000 1.073700
1.782300 1.086100
1.841600 1.595700
1.900800 1.587800
1.960100 0.886300
2.019400 0.894900
2.078600 1.120400
2.137900 1.321600
2.197200 1.281800
2.256500 1.126000
2.315700 1.168900
2.375000 1.116700
2.434300 0.957700
2.493600 0.708200
2.552800 0.585600
2.612100 0.625300
2.671400 0.615400
2.730600 0.870800
2.789900 0.912500
2.849200 0.808500
2.908500 0.657800
2.967700 0.593100
3.027000 0.834300
3.086300 1.015600
3.145600 0.991500
3.204800 1.164300
3.264100 1.401700
3.323400 0.802100
3.382600 0.575200
3.441900 0.760100
3.501200 1.396900
3.560500 1.651000
3.619700 1.637700
3.679000 1.814700
3.738300 1.549300
3.797600 1.154900
3.856800 0.975500
3.916100 1.058600
3.975400 1.314900
4.034600 1.388500
4.093900 1.257600
4.153200 1.433900
4.212500 1.377300
4.271700 1.221400
4.331000 1.142700
4.390300 1.091000
4.449500 1.338100
4.508800 1.888100
4.568100 2.087000
4.627400 1.952200
4.686600 1.424300
4.745900 1.899000
4.805200 2.016500
4.864500 1.723800
4.923700 2.446900
4.983000 3.138900
5.042300 3.229900
5.101500 2.363800
5.160800 1.915300
5.220100 2.084500
5.279400 2.611900
5.338600 2.239800
5.397900 2.157400
5.457200 2.311100
5.516500 2.315100
5.575700 2.549700
5.635000 3.063900
5.694300 3.222300
5.753500 2.942600
5.812800 2.991300
5.872100 2.925500
5.931400 2.925100
5.990600 2.293100
6.049900 1.834500
6.109200 1.744300
6.168500 1.733500
6.227700 1.655200
6.287000 1.724900
6.346300 1.763800
6.405500 1.237400
6.464800 1.104800
6.524100 1.277500
6.583400 1.307400
6.642600 1.491700
6.701900 1.446600
6.761200 1.238000
6.820400 1.141200
6.879700 1.012600
6.939000 0.840100
6.998300 0.901100
7.057500 1.147200
7.116800 1.063600
7.176100 0.682500
7.235400 0.669700
7.294600 0.588000
7.353900 0.600400
7.413200 0.578400
7.472400 0.328600
7.531700 0.542900
7.591000 0.773800
7.650300 0.722900
7.709500 0.656200
7.768800 0.648700
7.828100 0.606100
7.887400 0.693200
7.946600 1.022900
8.005900 0.956400
8.065200 0.866300
8.124400 0.874100
8.183700 0.991400
8.243000 0.838900
8.302300 0.845100
8.361500 1.024900
8.420800 0.800000
8.480100 0.690600
8.539400 0.675700
8.598600 0.712000
8.657900 0.722900
8.717200 0.699800
8.776400 0.889600
8.835700 0.781000
8.895000 0.807100
8.954300 0.918700
9.013500 0.907500
9.072800 0.810600
9.132100 0.679500
9.191400 0.870300
9.250600 0.808200
9.309900 0.854900
9.369200 0.784200
9.428400 0.674000
9.487700 0.891000
9.547000 0.897400
9.606300 0.734000
9.665500 0.841400
9.724800 1.110200
9.784100 1.034500
9.843300 1.150000
9.902600 1.068800
9.961900 1.426800
10.021200 1.317000
10.080400 0.996200
10.139700 1.262600
10.199000 1.228000
10.258300 1.333600
10.317500 1.556700
10.376800 1.341600
10.436100 1.247300
10.495300 1.449600
10.554600 1.345000
10.613900 1.323900
10.673200 1.089400
10.732400 1.219800
10.791700 1.559400
10.851000 1.185600
10.910300 1.317500
10.969500 1.721100
11.028800 1.609900
11.088100 1.759400
11.147300 1.458400
11.206600 1.086200
11.265900 1.155800
11.325200 1.524700
11.384400 1.495800
11.443700 1.215400
11.503000 1.327700
11.562300 1.593300
11.621500 1.578600
11.680800 1.596900
11.740100 1.863000
11.799300 2.087100
11.858600 2.452300
11.917900 2.216000
11.977200 2.082800
12.036400 1.943800
12.095700 1.494100
12.155000 1.354100
12.214200 1.035300
12.273500 0.831400
12.332800 1.221500
12.392100 1.439000
12.451300 1.456300
12.510600 1.557100
12.569900 1.125500
12.629200 0.714400
12.688400 0.752500
12.747700 1.196900
12.807000 1.608900
12.866200 1.514000
12.925500 1.290500
12.984800 1.342200
13.044100 1.523000
13.103300 1.424000
13.162600 1.198300
13.221900 1.575200
13.281200 1.662100
13.340400 1.329300
13.399700 1.065600
13.459000 0.975500
13.518200 1.226300
13.577500 1.504800
13.636800 1.480800
13.696100 1.632400
13.755300 1.632100
13.814600 1.549000
13.873900 1.263600
13.933200 1.172900
13.992400 1.332100
14.051700 1.323100
14.111000 1.615200
14.170200 1.841700
14.229500 1.789900
14.288800 1.568600
14.348100 1.125500
14.407300 1.266800
14.466600 1.271700
14.525900 1.563600
14.585200 2.379600
14.644400 2.495600
14.703700 2.771100
14.763000 3.394300
14.822200 3.666900
14.881500 3.637800
14.940800 3.578400
15.000100 3.489900
15.059300 3.038800
15.118600 2.712100
15.177900 2.232800
15.237100 2.147400
15.296400 2.470400
15.355700 2.272400
15.415000 1.848700
15.474200 1.892100
15.533500 1.813400
15.592800 1.955500
15.652100 1.771200
15.711300 1.819500
15.770600 1.695700
15.829900 1.622700
15.889100 1.856500
15.948400 1.739800
16.007700 1.933300
16.067000 2.071900
16.126200 1.784000
16.185500 1.531700
16.244800 1.215600
16.304100 0.820700
16.363300 0.589200
16.422600 0.236400
16.481900 0.086200
16.541100 0.159500
16.600400 0.209900
16.659700 0.093900
16.719000 0.033100
16.778200 0.067800
16.837500 0.048800
16.896800 0.017300
16.956100 0.001700
17.015300 0.008300
17.074600 0.039900
17.133900 0.059900
17.193100 0.120100
17.252400 0.111400
17.311700 0.032100
17.371000 0.131300
17.430200 0.237100
17.489500 0.138500
17.548800 0.143100
17.608000 0.140700
17.667300 0.344500
17.726600 0.319800
17.785900 0.222000
17.845100 0.169200
17.904400 0.240800
17.963700 0.217400
18.023000 0.169000
18.082200 0.229600
18.141500 0.228000
18.200800 0.389300
18.260000 0.522300
18.319300 0.456100
18.378600 0.319300
18.437900 0.210700
18.497100 0.291700
18.556400 0.475200
18.615700 0.502600
18.675000 0.442800
18.734200 0.513800
18.793500 0.485200
18.852800 0.521200
18.912000 0.608500
18.971300 0.640200
19.030600 0.535600
19.089900 0.569200
19.149100 0.669700
19.208400 0.761500
19.267700 0.705900
19.327000 0.799700
19.386200 0.720400
19.445500 0.823100
19.504800 1.140600
19.564000 0.864100
19.623300 0.782100
19.682600 1.128400
19.741900 1.261000
19.801100 1.088400
19.860400 0.882000
19.919700 1.023600
19.979000 1.428600
20.038200 1.261400
20.097500 1.327200
20.156800 1.534600
20.216000 1.123600
20.275300 1.149100
20.334600 1.094500
20.393900 0.739800
20.453100 0.429000
20.512400 0.394900
20.571700 0.374700
20.630900 0.301200
20.690200 0.339000
20.749500 0.264200
20.808800 0.191900
20.868000 0.202800
20.927300 0.166300
20.986600 0.172400
21.045900 0.173900
