set title 'mp-684673 - Density of States'
set xlabel 'Energy (eV)'
set ylabel 'DOS (states/eV)'
set grid
set xrange [-10:10]
set yrange [0:1.016]
set xzeroaxis lt -1
set terminal png size 800,600
set output 'mp-684673_dos_gnuplot.png'
plot '-' using 1:2 with lines title 'DOS'
-11.770600 0.000000
-11.743100 0.000000
-11.715600 0.000000
-11.688100 0.000000
-11.660700 0.000000
-11.633200 0.000000
-11.605700 0.000000
-11.578200 0.000000
-11.550700 0.000000
-11.523300 0.000000
-11.495800 0.000000
-11.468300 0.000000
-11.440800 0.000000
-11.413300 0.000000
-11.385900 0.000000
-11.358400 0.000000
-11.330900 0.000000
-11.303400 0.000000
-11.275900 0.000000
-11.248500 0.000000
-11.221000 0.000000
-11.193500 0.000000
-11.166000 0.000000
-11.138500 0.000000
-11.111100 0.000000
-11.083600 0.000000
-11.056100 0.000000
-11.028600 0.000000
-11.001100 0.000000
-10.973700 0.000000
-10.946200 0.000000
-10.918700 0.000000
-10.891200 0.000000
-10.863700 0.000000
-10.836300 0.000000
-10.808800 0.000000
-10.781300 0.000000
-10.753800 0.000000
-10.726300 0.000000
-10.698900 0.000000
-10.671400 0.000000
-10.643900 0.000000
-10.616400 0.000000
-10.588900 0.000000
-10.561500 0.000000
-10.534000 0.000000
-10.506500 0.000000
-10.479000 0.000000
-10.451500 0.000000
-10.424100 0.000000
-10.396600 0.000000
-10.369100 0.000000
-10.341600 0.000000
-10.314100 0.000000
-10.286700 0.000000
-10.259200 0.000000
-10.231700 0.000000
-10.204200 0.000000
-10.176700 0.000000
-10.149300 0.000000
-10.121800 0.000000
-10.094300 0.000000
-10.066800 0.000000
-10.039300 0.000000
-10.011900 0.000000
-9.984400 0.000000
-9.956900 0.000000
-9.929400 0.000000
-9.901900 0.000000
-9.874500 0.000000
-9.847000 0.000000
-9.819500 0.000000
-9.792000 0.000000
-9.764500 0.000000
-9.737100 0.000000
-9.709600 0.000000
-9.682100 0.000000
-9.654600 0.000000
-9.627100 0.000000
-9.599700 0.000000
-9.572200 0.000000
-9.544700 0.000000
-9.517200 0.000000
-9.489700 0.000000
-9.462300 0.000000
-9.434800 0.000000
-9.407300 0.000000
-9.379800 0.000000
-9.352300 0.000000
-9.324900 0.000000
-9.297400 0.000000
-9.269900 0.000100
-9.242400 0.019100
-9.214900 0.028400
-9.187500 0.037500
-9.160000 0.046900
-9.132500 0.050200
-9.105000 0.055000
-9.077500 0.060600
-9.050100 0.066300
-9.022600 0.070300
-8.995100 0.073700
-8.967600 0.076900
-8.940100 0.080300
-8.912700 0.084400
-8.885200 0.088600
-8.857700 0.092600
-8.830200 0.094700
-8.802700 0.097400
-8.775300 0.100200
-8.747800 0.103100
-8.720300 0.106000
-8.692800 0.109200
-8.665300 0.112500
-8.637900 0.115800
-8.610400 0.117900
-8.582900 0.120100
-8.555400 0.122200
-8.527900 0.124700
-8.500500 0.127200
-8.473000 0.129800
-8.445500 0.132300
-8.418000 0.135000
-8.390500 0.137700
-8.363100 0.140400
-8.335600 0.142300
-8.308100 0.144400
-8.280600 0.146500
-8.253100 0.148500
-8.225700 0.150600
-8.198200 0.152900
-8.170700 0.155200
-8.143200 0.157600
-8.115700 0.159900
-8.088300 0.162300
-8.060800 0.164700
-8.033300 0.166800
-8.005800 0.168700
-7.978300 0.170500
-7.950900 0.172500
-7.923400 0.174600
-7.895900 0.176600
-7.868400 0.178700
-7.840900 0.180700
-7.813500 0.182900
-7.786000 0.185100
-7.758500 0.187300
-7.731000 0.189500
-7.703500 0.191800
-7.676100 0.193800
-7.648600 0.195600
-7.621100 0.197500
-7.593600 0.199400
-7.566100 0.201400
-7.538700 0.203400
-7.511200 0.205400
-7.483700 0.207400
-7.456200 0.209500
-7.428700 0.211600
-7.401300 0.213700
-7.373800 0.215800
-7.346300 0.218000
-7.318800 0.220200
-7.291300 0.222300
-7.263900 0.224300
-7.236400 0.226200
-7.208900 0.228200
-7.181400 0.230200
-7.153900 0.232300
-7.126500 0.234300
-7.099000 0.236400
-7.071500 0.238600
-7.044000 0.240700
-7.016500 0.242900
-6.989100 0.245100
-6.961600 0.247300
-6.934100 0.249500
-6.906600 0.251700
-6.879100 0.254000
-6.851700 0.256300
-6.824200 0.258400
-6.796700 0.260600
-6.769200 0.262900
-6.741700 0.265100
-6.714300 0.267400
-6.686800 0.269700
-6.659300 0.272100
-6.631800 0.274400
-6.604300 0.276800
-6.576900 0.279300
-6.549400 0.281700
-6.521900 0.284200
-6.494400 0.286700
-6.466900 0.289300
-6.439500 0.291800
-6.412000 0.294400
-6.384500 0.297100
-6.357000 0.299700
-6.329500 0.302500
-6.302100 0.305300
-6.274600 0.308100
-6.247100 0.310900
-6.219600 0.313800
-6.192100 0.316800
-6.164700 0.319800
-6.137200 0.322800
-6.109700 0.325900
-6.082200 0.329100
-6.054700 0.332300
-6.027300 0.335600
-5.999800 0.338900
-5.972300 0.342300
-5.944800 0.345700
-5.917300 0.349300
-5.889900 0.353100
-5.862400 0.357000
-5.834900 0.361100
-5.807400 0.365200
-5.779900 0.369500
-5.752500 0.373900
-5.725000 0.378400
-5.697500 0.383100
-5.670000 0.387900
-5.642500 0.392900
-5.615100 0.398000
-5.587600 0.403400
-5.560100 0.409000
-5.532600 0.415000
-5.505100 0.421100
-5.477700 0.427600
-5.450200 0.434300
-5.422700 0.441900
-5.395200 0.450400
-5.367700 0.459700
-5.340300 0.470000
-5.312800 0.481500
-5.285300 0.494200
-5.257800 0.508400
-5.230300 0.529300
-5.202900 0.565100
-5.175400 0.578500
-5.147900 0.617500
-5.120400 0.592200
-5.092900 0.584400
-5.065500 0.581500
-5.038000 0.577500
-5.010500 0.573800
-4.983000 0.569700
-4.955500 0.570400
-4.928100 0.580100
-4.900600 0.580000
-4.873100 0.574400
-4.845600 0.570400
-4.818100 0.568300
-4.790700 0.566800
-4.763200 0.565400
-4.735700 0.563600
-4.708200 0.560900
-4.680700 0.557300
-4.653300 0.553400
-4.625800 0.553400
-4.598300 0.553200
-4.570800 0.553500
-4.543300 0.554600
-4.515900 0.555500
-4.488400 0.552600
-4.460900 0.550900
-4.433400 0.549200
-4.405900 0.548400
-4.378500 0.548100
-4.351000 0.547300
-4.323500 0.546300
-4.296000 0.545200
-4.268500 0.544000
-4.241100 0.541800
-4.213600 0.541900
-4.186100 0.542900
-4.158600 0.545200
-4.131100 0.547300
-4.103700 0.548400
-4.076200 0.548600
-4.048700 0.548600
-4.021200 0.548600
-3.993700 0.549100
-3.966300 0.550300
-3.938800 0.552200
-3.911300 0.554600
-3.883800 0.558300
-3.856300 0.564100
-3.828900 0.568800
-3.801400 0.573900
-3.773900 0.580800
-3.746400 0.587000
-3.718900 0.594200
-3.691500 0.603800
-3.664000 0.620400
-3.636500 0.641100
-3.609000 0.664000
-3.581500 0.722600
-3.554100 0.783600
-3.526600 0.852800
-3.499100 0.690100
-3.471600 0.470600
-3.444100 0.393900
-3.416700 0.305400
-3.389200 0.197900
-3.361700 0.120300
-3.334200 0.000000
-3.306700 0.000000
-3.279300 0.000000
-3.251800 0.000000
-3.224300 0.000000
-3.196800 0.000000
-3.169300 0.000000
-3.141900 0.000000
-3.114400 0.000000
-3.086900 0.000000
-3.059400 0.000000
-3.031900 0.000000
-3.004500 0.000000
-2.977000 0.000000
-2.949500 0.000000
-2.922000 0.000000
-2.894500 0.000000
-2.867100 0.000000
-2.839600 0.000000
-2.812100 0.000000
-2.784600 0.000000
-2.757100 0.000000
-2.729700 0.000000
-2.702200 0.000000
-2.674700 0.000000
-2.647200 0.000000
-2.619700 0.000000
-2.592300 0.000000
-2.564800 0.000000
-2.537300 0.000000
-2.509800 0.000000
-2.482300 0.000000
-2.454900 0.000000
-2.427400 0.000000
-2.399900 0.000000
-2.372400 0.000000
-2.344900 0.000000
-2.317500 0.000000
-2.290000 0.000000
-2.262500 0.000000
-2.235000 0.000000
-2.207500 0.000000
-2.180100 0.000000
-2.152600 0.000000
-2.125100 0.000000
-2.097600 0.000000
-2.070100 0.000000
-2.042700 0.000000
-2.015200 0.000000
-1.987700 0.000000
-1.960200 0.000000
-1.932700 0.000000
-1.905300 0.000000
-1.877800 0.000000
-1.850300 0.000000
-1.822800 0.000000
-1.795300 0.000000
-1.767900 0.000000
-1.740400 0.000000
-1.712900 0.000000
-1.685400 0.000000
-1.657900 0.000000
-1.630500 0.000000
-1.603000 0.000000
-1.575500 0.000000
-1.548000 0.000000
-1.520500 0.000000
-1.493100 0.000000
-1.465600 0.000000
-1.438100 0.000000
-1.410600 0.000000
-1.383100 0.000000
-1.355700 0.000000
-1.328200 0.000000
-1.300700 0.000000
-1.273200 0.000000
-1.245700 0.000000
-1.218300 0.000000
-1.190800 0.000000
-1.163300 0.000000
-1.135800 0.000000
-1.108300 0.000000
-1.080900 0.000000
-1.053400 0.000000
-1.025900 0.000000
-0.998400 0.000000
-0.970900 0.000000
-0.943500 0.000000
-0.916000 0.000000
-0.888500 0.000000
-0.861000 0.000000
-0.833500 0.000000
-0.806100 0.000000
-0.778600 0.000000
-0.751100 0.000000
-0.723600 0.000000
-0.696100 0.000000
-0.668700 0.000000
-0.641200 0.000000
-0.613700 0.000000
-0.586200 0.000000
-0.558700 0.000000
-0.531300 0.000000
-0.503800 0.000000
-0.476300 0.000000
-0.448800 0.000000
-0.421300 0.000000
-0.393900 0.000000
-0.366400 0.000000
-0.338900 0.000000
-0.311400 0.000000
-0.283900 0.000000
-0.256500 0.000000
-0.229000 0.000000
-0.201500 0.000000
-0.174000 0.000000
-0.146500 0.000000
-0.119100 0.000000
-0.091600 0.000000
-0.064100 0.000000
-0.036600 0.000000
-0.009100 0.000000
0.018300 0.000000
0.045800 0.000000
0.073300 0.000000
0.100800 0.036000
0.128300 0.052800
0.155700 0.072500
0.183200 0.093600
0.210700 0.095900
0.238200 0.102800
0.265700 0.107800
0.293100 0.115100
0.320600 0.123300
0.348100 0.132800
0.375600 0.144100
0.403000 0.153800
0.430500 0.157400
0.458000 0.160600
0.485500 0.165500
0.513000 0.170900
0.540400 0.176300
0.567900 0.181900
0.595400 0.188200
0.622900 0.194900
0.650400 0.201500
0.677800 0.208600
0.705300 0.215900
0.732800 0.220800
0.760300 0.224600
0.787800 0.229000
0.815200 0.233900
0.842700 0.238700
0.870200 0.243400
0.897700 0.248100
0.925200 0.253100
0.952600 0.258300
0.980100 0.264300
1.007600 0.270400
1.035100 0.276600
1.062600 0.295800
1.090000 0.319300
1.117500 0.331900
1.145000 0.354400
1.172500 0.362000
1.200000 0.380700
1.227400 0.388300
1.254900 0.399600
1.282400 0.414000
1.309900 0.431500
1.337400 0.443400
1.364800 0.455000
1.392300 0.465100
1.419800 0.476100
1.447300 0.487900
1.474800 0.501800
1.502200 0.517600
1.529700 0.533900
1.557200 0.549600
1.584700 0.562600
1.612200 0.578700
1.639600 0.594800
1.667100 0.611500
1.694600 0.630600
1.722100 0.652500
1.749600 0.677300
1.777000 0.706500
1.804500 0.743300
1.832000 0.788100
1.859500 0.845100
1.887000 0.923700
1.914400 0.875100
1.941900 0.850400
1.969400 0.862800
1.996900 0.863300
2.024400 0.851000
2.051800 0.839000
2.079300 0.819300
2.106800 0.810600
2.134300 0.806100
2.161800 0.797900
2.189200 0.790100
2.216700 0.784800
2.244200 0.783600
2.271700 0.781500
2.299200 0.781200
2.326600 0.776600
2.354100 0.766200
2.381600 0.766100
2.409100 0.767100
2.436600 0.752000
2.464000 0.738100
2.491500 0.708900
2.519000 0.633700
2.546500 0.573200
2.574000 0.535300
2.601400 0.513200
2.628900 0.489300
2.656400 0.473500
2.683900 0.426800
2.711400 0.402700
2.738800 0.382700
2.766300 0.366300
2.793800 0.352500
2.821300 0.352600
2.848800 0.353700
2.876200 0.357900
2.903700 0.365200
2.931200 0.374400
2.958700 0.381900
2.986200 0.380500
3.013600 0.385400
3.041100 0.388700
3.068600 0.398000
3.096100 0.406900
3.123600 0.461500
3.151000 0.460100
3.178500 0.459800
3.206000 0.460500
3.233500 0.464100
3.261000 0.465800
3.288400 0.468000
3.315900 0.470800
3.343400 0.472700
3.370900 0.474100
3.398400 0.474900
3.425800 0.473700
3.453300 0.474700
3.480800 0.472200
3.508300 0.471700
3.535800 0.472900
3.563200 0.474800
3.590700 0.476800
3.618200 0.478800
3.645700 0.480800
3.673200 0.482800
3.700600 0.485000
3.728100 0.487000
3.755600 0.489300
3.783100 0.492300
3.810600 0.493200
3.838000 0.494000
3.865500 0.494600
3.893000 0.494900
3.920500 0.492800
3.948000 0.490100
3.975400 0.487900
4.002900 0.487600
4.030400 0.487900
4.057900 0.488300
4.085400 0.488800
4.112800 0.489600
4.140300 0.490600
4.167800 0.491900
4.195300 0.493600
4.222800 0.494300
4.250200 0.494600
4.277700 0.494500
4.305200 0.494500
4.332700 0.494500
4.360200 0.495800
4.387600 0.495300
4.415100 0.494700
4.442600 0.494100
4.470100 0.493300
4.497600 0.493200
4.525000 0.492100
4.552500 0.489800
4.580000 0.488600
4.607500 0.487600
4.635000 0.487400
4.662400 0.488100
4.689900 0.488200
4.717400 0.488000
4.744900 0.488600
4.772400 0.489900
4.799800 0.489800
4.827300 0.489600
4.854800 0.489300
4.882300 0.488700
4.909800 0.488000
4.937200 0.487300
4.964700 0.486800
4.992200 0.486500
5.019700 0.507800
5.047200 0.513300
5.074600 0.525300
5.102100 0.517300
5.129600 0.518900
5.157100 0.521400
5.184600 0.523700
5.212000 0.528200
5.239500 0.534600
5.267000 0.541400
5.294500 0.548400
5.322000 0.555100
5.349400 0.554300
5.376900 0.554000
5.404400 0.558300
5.431900 0.561800
5.459400 0.565600
5.486800 0.572500
5.514300 0.573800
5.541800 0.575000
5.569300 0.576700
5.596800 0.579500
5.624200 0.582600
5.651700 0.586000
5.679200 0.589800
5.706700 0.608400
5.734200 0.596700
5.761600 0.602100
5.789100 0.609900
5.816600 0.611600
5.844100 0.612400
5.871600 0.612700
5.899000 0.623100
5.926500 0.623000
5.954000 0.633300
5.981500 0.631300
6.009000 0.636600
6.036400 0.642500
6.063900 0.649000
6.091400 0.656400
6.118900 0.664800
6.146400 0.669200
6.173800 0.676800
6.201300 0.687900
6.228800 0.686000
6.256300 0.687600
6.283800 0.692200
6.311200 0.698400
6.338700 0.706200
6.366200 0.716400
6.393700 0.729100
6.421200 0.743800
6.448600 0.767100
6.476100 0.769800
6.503600 0.785200
6.531100 0.815500
6.558600 0.835300
6.586000 0.858300
6.613500 0.896700
6.641000 0.885300
6.668500 0.897200
6.696000 0.881000
6.723400 0.877600
6.750900 0.875400
6.778400 0.875500
6.805900 0.880300
6.833400 0.872000
6.860800 0.865000
6.888300 0.863000
6.915800 0.861700
6.943300 0.864500
6.970800 0.862000
6.998200 0.859800
7.025700 0.860600
7.053200 0.859700
7.080700 0.857900
7.108200 0.856900
7.135600 0.854700
7.163100 0.852800
7.190600 0.852400
7.218100 0.851100
7.245600 0.850000
7.273000 0.848000
7.300500 0.845600
7.328000 0.842200
7.355500 0.838500
7.383000 0.835300
7.410400 0.832700
7.437900 0.832700
7.465400 0.833100
7.492900 0.833500
7.520400 0.832000
7.547800 0.830100
7.575300 0.827900
7.602800 0.825500
7.630300 0.823400
7.657800 0.821700
7.685200 0.821100
7.712700 0.821300
7.740200 0.820500
7.767700 0.819000
7.795200 0.817300
7.822600 0.815700
7.850100 0.815000
7.877600 0.816900
7.905100 0.817100
7.932600 0.815900
7.960000 0.813700
7.987500 0.810800
8.015000 0.807600
8.042500 0.805200
8.070000 0.803500
8.097400 0.801500
8.124900 0.799400
8.152400 0.797900
8.179900 0.796900
8.207400 0.797100
8.234800 0.798700
8.262300 0.800100
8.289800 0.801500
8.317300 0.802300
8.344800 0.801500
8.372200 0.799100
8.399700 0.797600
8.427200 0.796900
8.454700 0.796100
8.482200 0.795000
8.509600 0.793700
8.537100 0.792700
8.564600 0.792600
8.592100 0.792200
8.619600 0.791000
8.647000 0.789900
8.674500 0.788900
8.702000 0.788900
8.729500 0.788700
8.757000 0.788500
8.784400 0.790400
8.811900 0.790200
8.839400 0.789900
8.866900 0.789800
8.894400 0.789100
8.921800 0.788400
8.949300 0.788200
8.976800 0.788800
9.004300 0.787400
9.031800 0.784700
9.059200 0.782300
9.086700 0.779900
9.114200 0.784000
9.141700 0.789800
9.169200 0.790400
9.196600 0.787200
9.224100 0.784600
9.251600 0.788400
9.279100 0.783100
9.306600 0.753900
9.334000 0.699900
9.361500 0.652100
9.389000 0.628300
9.416500 0.605300
9.444000 0.588500
9.471400 0.574400
9.498900 0.558000
9.526400 0.541900
9.553900 0.528400
9.581400 0.516600
9.608800 0.504000
9.636300 0.491200
9.663800 0.478700
9.691300 0.466600
9.718800 0.457200
9.746200 0.447700
9.773700 0.438800
9.801200 0.431700
9.828700 0.422000
9.856200 0.411500
9.883600 0.401800
9.911100 0.392400
9.938600 0.383600
9.966100 0.374900
9.993600 0.366200
10.021000 0.358300
10.048500 0.349800
10.076000 0.340600
10.103500 0.331700
10.131000 0.323700
10.158400 0.316300
10.185900 0.311200
10.213400 0.303500
10.240900 0.291300
10.268400 0.278800
10.295800 0.266500
10.323300 0.254600
10.350800 0.250400
10.378300 0.239100
10.405800 0.229600
10.433200 0.219300
10.460700 0.212500
10.488200 0.196200
10.515700 0.172300
10.543200 0.137500
10.570600 0.084200
10.598100 0.014900
10.625600 0.000000
10.653100 0.000000
10.680600 0.000000
10.708000 0.000000
10.735500 0.000000
10.763000 0.000000
10.790500 0.000000
10.818000 0.000000
10.845400 0.000000
10.872900 0.000000
10.900400 0.000000
10.927900 0.000000
10.955400 0.000000
10.982800 0.000000
11.010300 0.000000
11.037800 0.000000
11.065300 0.000000
11.092800 0.000000
11.120200 0.000000
11.147700 0.000000
11.175200 0.000000
11.202700 0.000000
11.230200 0.000000
11.257600 0.000000
11.285100 0.000000
11.312600 0.000000
11.340100 0.000000
11.367600 0.000000
11.395000 0.000000
11.422500 0.000000
11.450000 0.000000
11.477500 0.000000
11.505000 0.000000
11.532400 0.000000
11.559900 0.000000
11.587400 0.000000
11.614900 0.000000
11.642400 0.000000
11.669800 0.000000
11.697300 0.000000
11.724800 0.000000
11.752300 0.000000
11.779800 0.000000
11.807200 0.000000
11.834700 0.000000
11.862200 0.000000
11.889700 0.000000
11.917200 0.000000
11.944600 0.000000
11.972100 0.000000
11.999600 0.000000
12.027100 0.000000
12.054600 0.000000
12.082000 0.000000
12.109500 0.000000
12.137000 0.000000
12.164500 0.000000
12.192000 0.000000
12.219400 0.000000
12.246900 0.000000
12.274400 0.000000
12.301900 0.000000
12.329400 0.000000
12.356800 0.000000
12.384300 0.000000
12.411800 0.000000
12.439300 0.000000
12.466800 0.000000
12.494200 0.000000
12.521700 0.000000
12.549200 0.000000
12.576700 0.000000
12.604200 0.000000
12.631600 0.000000
12.659100 0.000000
12.686600 0.000000
12.714100 0.000000
12.741600 0.000000
12.769000 0.000000
12.796500 0.000000
12.824000 0.000000
12.851500 0.001300
12.879000 0.007200
12.906400 0.011800
12.933900 0.015900
12.961400 0.021600
12.988900 0.027900
13.016400 0.034800
13.043800 0.037000
13.071300 0.040100
13.098800 0.042500
13.126300 0.046900
13.153800 0.052200
13.181200 0.057700
13.208700 0.063300
13.236200 0.069200
13.263700 0.075200
13.291200 0.081400
13.318600 0.081500
13.346100 0.084700
13.373600 0.089700
13.401100 0.096100
13.428600 0.104100
13.456000 0.112900
13.483500 0.122500
13.511000 0.132500
13.538500 0.141400
13.566000 0.148100
13.593400 0.153800
13.620900 0.158300
13.648400 0.160800
13.675900 0.161300
13.703400 0.164600
13.730800 0.168500
13.758300 0.172900
13.785800 0.176800
13.813300 0.181300
13.840800 0.186100
13.868200 0.191000
13.895700 0.196100
13.923200 0.201300
13.950700 0.206800
13.978200 0.212300
14.005600 0.216900
14.033100 0.222700
14.060600 0.228500
14.088100 0.232800
14.115600 0.236400
14.143000 0.239000
14.170500 0.241700
14.198000 0.244900
14.225500 0.248500
14.253000 0.252500
14.280400 0.256700
14.307900 0.260400
14.335400 0.263900
14.362900 0.267500
14.390400 0.270800
14.417800 0.274600
14.445300 0.277900
14.472800 0.281400
14.500300 0.285100
14.527800 0.288900
14.555200 0.292800
14.582700 0.296700
14.610200 0.300800
14.637700 0.304900
14.665200 0.308300
14.692600 0.310500
14.720100 0.314200
14.747600 0.317800
14.775100 0.321200
14.802600 0.324700
14.830000 0.327300
14.857500 0.330600
14.885000 0.334500
14.912500 0.338600
14.940000 0.342500
14.967400 0.346400
14.994900 0.350400
15.022400 0.354400
15.049900 0.358400
15.077400 0.362100
15.104800 0.366100
15.132300 0.370800
15.159800 0.376200
15.187300 0.380600
15.214800 0.384500
15.242200 0.388500
15.269700 0.391400
15.297200 0.395000
15.324700 0.398600
15.352200 0.402200
15.379600 0.405100
15.407100 0.408200
15.434600 0.411700
15.462100 0.415500
15.489600 0.419500
15.517000 0.423500
15.544500 0.427400
15.572000 0.431400
15.599500 0.435400
15.627000 0.439500
15.654400 0.443800
15.681900 0.448100
15.709400 0.452700
15.736900 0.457200
15.764400 0.461200
15.791800 0.465800
15.819300 0.470500
15.846800 0.475200
15.874300 0.479400
15.901800 0.483800
15.929200 0.488400
15.956700 0.493200
15.984200 0.498200
16.011700 0.501900
16.039200 0.507000
16.066600 0.512300
16.094100 0.517700
16.121600 0.523600
16.149100 0.529700
16.176600 0.535400
16.204000 0.541000
16.231500 0.546700
16.259000 0.552500
16.286500 0.558500
16.314000 0.564400
16.341400 0.570700
16.368900 0.577500
16.396400 0.584600
16.423900 0.592000
16.451400 0.599600
16.478800 0.607600
16.506300 0.615900
16.533800 0.624300
16.561300 0.633100
16.588800 0.642500
16.616200 0.652700
16.643700 0.663500
16.671200 0.675400
16.698700 0.689500
16.726200 0.705000
16.753600 0.724600
16.781100 0.749100
16.808600 0.778900
16.836100 0.802400
16.863600 0.821700
16.891000 0.843000
16.918500 0.875800
16.946000 0.920600
16.973500 0.984500
17.001000 0.949200
17.028400 0.985200
17.055900 0.939100
17.083400 0.934700
17.110900 0.951300
17.138400 0.954800
