set title 'mp-1182070 - Density of States'
set xlabel 'Energy (eV)'
set ylabel 'DOS (states/eV)'
set grid
set xrange [-10:10]
set yrange [0:4.489]
set xzeroaxis lt -1
set terminal png size 800,600
set output 'mp-1182070_dos_gnuplot.png'
plot '-' using 1:2 with lines title 'DOS'
-9.422600 0.000000
-9.404500 0.000000
-9.386500 0.000000
-9.368400 0.000000
-9.350400 0.000000
-9.332400 0.000000
-9.314300 0.000000
-9.296300 0.000000
-9.278200 0.000000
-9.260200 0.000000
-9.242200 0.000000
-9.224100 0.000000
-9.206100 0.000000
-9.188100 0.000000
-9.170000 0.000000
-9.152000 0.000000
-9.133900 0.000000
-9.115900 0.000000
-9.097900 0.000000
-9.079800 0.000000
-9.061800 0.000000
-9.043800 0.000000
-9.025700 0.000000
-9.007700 0.000000
-8.989600 0.000000
-8.971600 0.000000
-8.953600 0.000000
-8.935500 0.000000
-8.917500 0.000000
-8.899500 0.000000
-8.881400 0.000000
-8.863400 0.000000
-8.845300 0.000000
-8.827300 0.000000
-8.809300 0.000000
-8.791200 0.000000
-8.773200 0.000000
-8.755200 0.000000
-8.737100 0.000000
-8.719100 0.000000
-8.701000 0.000000
-8.683000 0.000000
-8.665000 0.000000
-8.646900 0.000000
-8.628900 0.000000
-8.610800 0.000000
-8.592800 0.000000
-8.574800 0.000000
-8.556700 0.000000
-8.538700 0.000000
-8.520700 0.000000
-8.502600 0.000000
-8.484600 0.000000
-8.466500 0.000000
-8.448500 0.000000
-8.430500 0.000000
-8.412400 0.000000
-8.394400 0.000000
-8.376400 0.000000
-8.358300 0.000000
-8.340300 0.000000
-8.322200 0.000000
-8.304200 0.000000
-8.286200 0.000000
-8.268100 0.000000
-8.250100 0.000000
-8.232100 0.000000
-8.214000 0.000000
-8.196000 0.000000
-8.177900 0.000000
-8.159900 0.000000
-8.141900 0.000000
-8.123800 0.000000
-8.105800 0.000000
-8.087800 0.000000
-8.069700 0.000000
-8.051700 0.000000
-8.033600 0.000000
-8.015600 0.000000
-7.997600 0.000000
-7.979500 0.000000
-7.961500 0.000000
-7.943400 0.000000
-7.925400 0.000000
-7.907400 0.000000
-7.889300 0.000000
-7.871300 0.000000
-7.853300 0.000000
-7.835200 0.000000
-7.817200 0.000000
-7.799100 0.000000
-7.781100 0.000200
-7.763100 0.021700
-7.745000 0.079700
-7.727000 0.174000
-7.709000 0.278900
-7.690900 0.351000
-7.672900 0.387300
-7.654800 0.396500
-7.636800 0.411500
-7.618800 0.438500
-7.600700 0.477000
-7.582700 0.519600
-7.564700 0.563200
-7.546600 0.604100
-7.528600 0.641000
-7.510500 0.666700
-7.492500 0.683700
-7.474500 0.695500
-7.456400 0.709700
-7.438400 0.729300
-7.420400 0.752700
-7.402300 0.777300
-7.384300 0.801800
-7.366200 0.826100
-7.348200 0.850200
-7.330200 0.874300
-7.312100 0.898600
-7.294100 0.923100
-7.276100 0.947900
-7.258000 0.973400
-7.240000 1.015500
-7.221900 1.097800
-7.203900 1.174100
-7.185900 1.228600
-7.167800 1.216100
-7.149800 1.197600
-7.131700 1.181700
-7.113700 1.194600
-7.095700 1.209700
-7.077600 1.224800
-7.059600 1.239700
-7.041600 1.254500
-7.023500 1.266800
-7.005500 1.283400
-6.987400 1.301200
-6.969400 1.321900
-6.951400 1.345200
-6.933300 1.371900
-6.915300 1.399000
-6.897300 1.427000
-6.879200 1.455600
-6.861200 1.501100
-6.843100 1.576600
-6.825100 1.641300
-6.807100 1.688200
-6.789000 1.676000
-6.771000 1.664800
-6.753000 1.656800
-6.734900 1.667800
-6.716900 1.679400
-6.698800 1.689800
-6.680800 1.696400
-6.662800 1.703100
-6.644700 1.707000
-6.626700 1.713500
-6.608700 1.713600
-6.590600 1.716800
-6.572600 1.722500
-6.554500 1.732400
-6.536500 1.742600
-6.518500 1.754700
-6.500400 1.774700
-6.482400 1.795300
-6.464300 1.812500
-6.446300 1.823700
-6.428300 1.835100
-6.410200 1.847400
-6.392200 1.859400
-6.374200 1.870500
-6.356100 1.873600
-6.338100 1.860800
-6.320000 1.852000
-6.302000 1.854000
-6.284000 1.857500
-6.265900 1.862300
-6.247900 1.869000
-6.229900 1.878400
-6.211800 1.889100
-6.193800 1.901700
-6.175700 1.915900
-6.157700 1.936300
-6.139700 1.963000
-6.121600 1.994900
-6.103600 2.034700
-6.085600 2.083500
-6.067500 2.143400
-6.049500 2.211400
-6.031400 2.279800
-6.013400 2.350000
-5.995400 2.410700
-5.977300 2.452500
-5.959300 2.478300
-5.941300 2.504600
-5.923200 2.517300
-5.905200 2.559400
-5.887100 2.608200
-5.869100 2.647900
-5.851100 2.679500
-5.833000 2.707100
-5.815000 2.736200
-5.797000 2.783400
-5.778900 2.784700
-5.760900 2.877700
-5.742800 3.039100
-5.724800 3.285600
-5.706800 3.443400
-5.688700 3.565800
-5.670700 3.606700
-5.652600 3.622500
-5.634600 3.627900
-5.616600 3.625500
-5.598500 3.634200
-5.580500 3.620800
-5.562500 3.433700
-5.544400 3.119300
-5.526400 2.582400
-5.508300 2.079800
-5.490300 1.801700
-5.472300 1.516700
-5.454200 1.236200
-5.436200 1.004700
-5.418200 0.881600
-5.400100 0.826800
-5.382100 0.756600
-5.364000 0.776500
-5.346000 0.913100
-5.328000 1.097200
-5.309900 1.412100
-5.291900 1.904100
-5.273900 2.335200
-5.255800 2.778600
-5.237800 3.261700
-5.219700 3.617200
-5.201700 3.765200
-5.183700 3.909700
-5.165600 3.975500
-5.147600 3.888300
-5.129600 3.720300
-5.111500 3.518200
-5.093500 3.304500
-5.075400 3.087200
-5.057400 2.882000
-5.039400 2.695500
-5.021300 2.536700
-5.003300 2.400200
-4.985200 2.321800
-4.967200 2.260100
-4.949200 2.208100
-4.931100 2.184600
-4.913100 2.174100
-4.895100 2.154300
-4.877000 2.134200
-4.859000 2.118100
-4.840900 2.217700
-4.822900 2.300100
-4.804900 2.281800
-4.786800 2.264200
-4.768800 2.246500
-4.750800 2.225600
-4.732700 2.209800
-4.714700 2.196700
-4.696600 2.184500
-4.678600 2.172800
-4.660600 2.155000
-4.642500 2.123100
-4.624500 2.098600
-4.606500 2.088300
-4.588400 2.075000
-4.570400 2.059600
-4.552300 2.045400
-4.534300 2.034300
-4.516300 2.023600
-4.498200 2.012900
-4.480200 2.002300
-4.462200 1.991900
-4.444100 1.982500
-4.426100 1.975700
-4.408000 1.968100
-4.390000 1.958100
-4.372000 1.948100
-4.353900 1.941500
-4.335900 1.941000
-4.317800 1.944700
-4.299800 1.947900
-4.281800 1.950400
-4.263700 1.950800
-4.245700 1.941000
-4.227700 1.923700
-4.209600 1.900300
-4.191600 1.874700
-4.173500 1.851900
-4.155500 1.829000
-4.137500 1.801700
-4.119400 1.776400
-4.101400 1.771000
-4.083400 1.764500
-4.065300 1.755600
-4.047300 1.743200
-4.029200 1.729500
-4.011200 1.715900
-3.993200 1.695900
-3.975100 1.653300
-3.957100 1.591300
-3.939100 1.531700
-3.921000 1.472700
-3.903000 1.413800
-3.884900 1.356600
-3.866900 1.307000
-3.848900 1.257500
-3.830800 1.210400
-3.812800 1.171000
-3.794800 1.139200
-3.776700 1.115200
-3.758700 1.076900
-3.740600 1.040600
-3.722600 1.005900
-3.704600 0.972600
-3.686500 0.940400
-3.668500 0.909300
-3.650500 0.879700
-3.632400 0.853600
-3.614400 0.837800
-3.596300 0.822300
-3.578300 0.807300
-3.560300 0.793300
-3.542200 0.780200
-3.524200 0.771700
-3.506100 0.765800
-3.488100 0.760300
-3.470100 0.755300
-3.452000 0.751200
-3.434000 0.748000
-3.416000 0.730500
-3.397900 0.708900
-3.379900 0.686600
-3.361800 0.663000
-3.343800 0.638500
-3.325800 0.613000
-3.307700 0.586500
-3.289700 0.561500
-3.271700 0.548000
-3.253600 0.535200
-3.235600 0.522700
-3.217500 0.510200
-3.199500 0.497700
-3.181500 0.485200
-3.163400 0.472400
-3.145400 0.459800
-3.127400 0.448000
-3.109300 0.437000
-3.091300 0.426400
-3.073200 0.415900
-3.055200 0.405400
-3.037200 0.395100
-3.019100 0.383900
-3.001100 0.371000
-2.983100 0.356800
-2.965000 0.341800
-2.947000 0.326200
-2.928900 0.310700
-2.910900 0.295500
-2.892900 0.280700
-2.874800 0.266300
-2.856800 0.253100
-2.838700 0.241900
-2.820700 0.232600
-2.802700 0.225300
-2.784600 0.219900
-2.766600 0.215600
-2.748600 0.208500
-2.730500 0.196900
-2.712500 0.180600
-2.694400 0.159700
-2.676400 0.134100
-2.658400 0.104000
-2.640300 0.074900
-2.622300 0.050500
-2.604300 0.031000
-2.586200 0.016100
-2.568200 0.006100
-2.550100 0.000900
-2.532100 0.000000
-2.514100 0.000000
-2.496000 0.000000
-2.478000 0.000000
-2.460000 0.000000
-2.441900 0.000000
-2.423900 0.000000
-2.405800 0.000000
-2.387800 0.000000
-2.369800 0.000000
-2.351700 0.000000
-2.333700 0.000000
-2.315700 0.000000
-2.297600 0.000000
-2.279600 0.000000
-2.261500 0.000000
-2.243500 0.000000
-2.225500 0.000000
-2.207400 0.000000
-2.189400 0.000000
-2.171300 0.000000
-2.153300 0.000000
-2.135300 0.000000
-2.117200 0.000000
-2.099200 0.000000
-2.081200 0.000000
-2.063100 0.000000
-2.045100 0.000000
-2.027000 0.000000
-2.009000 0.000000
-1.991000 0.000000
-1.972900 0.000000
-1.954900 0.000000
-1.936900 0.000000
-1.918800 0.000000
-1.900800 0.000000
-1.882700 0.000000
-1.864700 0.000000
-1.846700 0.000000
-1.828600 0.000000
-1.810600 0.000000
-1.792600 0.000000
-1.774500 0.000000
-1.756500 0.000000
-1.738400 0.000000
-1.720400 0.000000
-1.702400 0.000000
-1.684300 0.000000
-1.666300 0.000000
-1.648300 0.000000
-1.630200 0.000000
-1.612200 0.000000
-1.594100 0.000000
-1.576100 0.000000
-1.558100 0.000000
-1.540000 0.000000
-1.522000 0.000000
-1.504000 0.000000
-1.485900 0.000000
-1.467900 0.000000
-1.449800 0.000000
-1.431800 0.000000
-1.413800 0.000000
-1.395700 0.000000
-1.377700 0.000000
-1.359600 0.000000
-1.341600 0.000000
-1.323600 0.000000
-1.305500 0.000000
-1.287500 0.000000
-1.269500 0.000000
-1.251400 0.000000
-1.233400 0.000000
-1.215300 0.000000
-1.197300 0.000000
-1.179300 0.000000
-1.161200 0.000000
-1.143200 0.000000
-1.125200 0.000000
-1.107100 0.000000
-1.089100 0.000000
-1.071000 0.000000
-1.053000 0.000000
-1.035000 0.000000
-1.016900 0.000000
-0.998900 0.000000
-0.980900 0.000000
-0.962800 0.000000
-0.944800 0.000000
-0.926700 0.000000
-0.908700 0.000000
-0.890700 0.000000
-0.872600 0.000000
-0.854600 0.000000
-0.836600 0.000000
-0.818500 0.000000
-0.800500 0.000000
-0.782400 0.000000
-0.764400 0.000000
-0.746400 0.000000
-0.728300 0.000000
-0.710300 0.000000
-0.692200 0.000000
-0.674200 0.000000
-0.656200 0.000000
-0.638100 0.000000
-0.620100 0.000000
-0.602100 0.000000
-0.584000 0.000000
-0.566000 0.000000
-0.547900 0.000000
-0.529900 0.000000
-0.511900 0.000000
-0.493800 0.000000
-0.475800 0.000000
-0.457800 0.000000
-0.439700 0.000000
-0.421700 0.000000
-0.403600 0.000000
-0.385600 0.000000
-0.367600 0.000000
-0.349500 0.000000
-0.331500 0.000000
-0.313500 0.000000
-0.295400 0.000000
-0.277400 0.000000
-0.259300 0.000000
-0.241300 0.000000
-0.223300 0.000000
-0.205200 0.000000
-0.187200 0.000000
-0.169200 0.000000
-0.151100 0.000000
-0.133100 0.000000
-0.115000 0.000000
-0.097000 0.000000
-0.079000 0.000000
-0.060900 0.000000
-0.042900 0.000000
-0.024800 0.000000
-0.006800 0.000000
0.011200 0.000000
0.029300 0.000000
0.047300 0.000000
0.065300 0.000000
0.083400 0.000000
0.101400 0.000000
0.119500 0.000000
0.137500 0.000000
0.155500 0.000000
0.173600 0.000000
0.191600 0.000000
0.209600 0.000000
0.227700 0.000000
0.245700 0.000000
0.263800 0.000000
0.281800 0.000000
0.299800 0.000000
0.317900 0.000000
0.335900 0.000000
0.353900 0.000000
0.372000 0.000000
0.390000 0.000000
0.408100 0.000000
0.426100 0.000000
0.444100 0.000800
0.462200 0.008100
0.480200 0.023200
0.498200 0.045500
0.516300 0.067800
0.534300 0.145800
0.552400 0.332900
0.570400 0.421600
0.588400 0.477900
0.606500 0.533600
0.624500 0.586100
0.642500 0.638200
0.660600 0.690400
0.678600 0.742100
0.696700 0.784300
0.714700 0.817700
0.732700 0.857700
0.750800 0.897200
0.768800 0.933400
0.786900 0.966400
0.804900 0.998700
0.822900 1.034100
0.841000 1.072700
0.859000 1.112800
0.877000 1.153600
0.895100 1.207600
0.913100 1.248500
0.931200 1.269600
0.949200 1.290400
0.967200 1.433100
0.985300 1.451400
1.003300 1.467500
1.021300 1.480500
1.039400 1.490400
1.057400 1.499900
1.075500 1.511200
1.093500 1.525500
1.111500 1.542300
1.129600 1.561000
1.147600 1.584200
1.165600 1.603600
1.183700 1.616700
1.201700 1.624200
1.219800 1.629200
1.237800 1.632700
1.255800 1.635000
1.273900 1.635000
1.291900 1.637100
1.309900 1.644800
1.328000 1.655800
1.346000 1.717000
1.364100 1.778800
1.382100 1.838400
1.400100 1.907000
1.418200 1.977000
1.436200 2.049800
1.454300 2.115500
1.472300 2.161100
1.490300 2.196200
1.508400 2.231900
1.526400 2.272600
1.544400 2.261100
1.562500 2.253300
1.580500 2.259000
1.598600 2.269100
1.616600 2.282500
1.634600 2.299400
1.652700 2.324900
1.670700 2.342000
1.688700 2.361100
1.706800 2.341700
1.724800 2.284000
1.742900 2.235700
1.760900 2.224800
1.778900 2.216700
1.797000 2.218800
1.815000 2.225800
1.833000 2.238700
1.851100 2.263100
1.869100 2.290300
1.887200 2.333300
1.905200 2.367300
1.923200 2.425700
1.941300 2.484100
1.959300 2.534900
1.977300 2.591500
1.995400 2.658500
2.013400 2.736700
2.031500 2.822200
2.049500 2.901800
2.067500 2.986300
2.085600 3.101800
2.103600 3.229700
2.121600 3.378700
2.139700 3.364700
2.157700 3.341200
2.175800 3.318300
2.193800 3.340100
2.211800 3.346800
2.229900 3.345900
2.247900 3.340100
2.266000 3.360300
2.284000 3.331500
2.302000 3.293500
2.320100 3.210200
2.338100 3.220700
2.356100 3.166400
2.374200 3.156600
2.392200 3.168900
2.410300 3.253300
2.428300 3.385000
2.446300 3.484000
2.464400 3.444200
2.482400 3.426500
2.500400 3.385300
2.518500 3.388700
2.536500 3.393200
2.554600 3.411200
2.572600 3.429700
2.590600 3.452000
2.608700 3.477100
2.626700 3.480000
2.644700 3.500600
2.662800 3.550000
2.680800 3.561300
2.698900 3.534800
2.716900 3.556200
2.734900 4.081000
2.753000 3.533400
2.771000 3.478800
2.789000 3.450200
2.807100 3.436100
2.825100 3.435400
2.843200 3.446800
2.861200 3.462000
2.879200 3.469000
2.897300 3.480500
2.915300 3.506400
2.933400 3.556400
2.951400 3.611800
2.969400 3.671000
2.987500 3.704200
3.005500 3.750800
3.023500 3.806000
3.041600 3.860800
3.059600 3.877900
3.077700 3.823500
3.095700 3.759900
3.113700 3.737900
3.131800 3.711000
3.149800 3.692400
3.167800 3.679300
3.185900 3.668600
3.203900 3.663200
3.222000 3.576100
3.240000 3.539300
3.258000 3.498600
3.276100 3.435700
3.294100 3.359000
3.312100 3.294100
3.330200 3.220300
3.348200 3.076900
3.366300 3.022300
3.384300 3.030600
3.402300 3.060300
3.420400 3.143500
3.438400 3.283200
3.456400 3.396900
3.474500 3.471200
3.492500 3.522100
3.510600 3.563800
3.528600 3.594200
3.546600 3.634700
3.564700 3.621400
3.582700 3.568900
3.600800 3.492300
3.618800 3.446200
3.636800 3.381000
3.654900 3.309100
3.672900 3.231700
3.690900 3.157500
3.709000 3.091400
3.727000 3.025500
3.745100 2.961700
3.763100 2.900700
3.781100 2.851800
3.799200 2.819800
3.817200 2.802600
3.835200 2.795500
3.853300 2.820400
3.871300 2.882900
3.889400 2.950500
3.907400 3.023500
3.925400 3.086200
3.943500 3.149200
3.961500 3.239300
3.979500 3.147000
3.997600 3.165600
4.015600 3.173400
4.033700 3.170900
4.051700 3.168500
4.069700 3.168700
4.087800 3.153400
4.105800 3.133900
4.123800 3.118500
4.141900 3.093400
4.159900 3.037700
4.178000 2.954300
4.196000 2.892500
4.214000 2.872800
4.232100 2.871500
4.250100 2.905100
4.268100 2.971100
4.286200 3.001000
4.304200 2.923700
4.322300 2.826300
4.340300 2.757200
4.358300 2.702800
4.376400 2.647400
4.394400 2.591800
4.412500 2.547400
4.430500 2.505500
4.448500 2.488600
4.466600 2.496000
4.484600 2.500500
4.502600 2.512300
4.520700 2.537400
4.538700 2.579400
4.556800 2.557300
4.574800 2.493000
4.592800 2.454600
4.610900 2.411100
4.628900 2.354800
4.646900 2.332900
4.665000 2.344200
4.683000 2.369800
4.701100 2.403900
4.719100 2.443600
4.737100 2.545800
4.755200 2.538900
4.773200 2.665300
4.791200 2.801100
4.809300 2.917500
4.827300 3.014100
4.845400 3.120300
4.863400 3.250200
4.881400 3.176200
4.899500 3.165300
4.917500 2.836600
4.935500 2.513200
4.953600 2.220600
4.971600 1.917400
4.989700 1.627700
5.007700 1.382300
5.025700 1.167400
5.043800 0.965700
5.061800 0.789500
5.079900 0.648600
5.097900 0.528700
5.115900 0.435400
5.134000 0.394200
5.152000 0.391800
5.170000 0.437400
5.188100 0.538200
5.206100 0.609100
5.224200 0.675900
5.242200 0.760200
5.260200 0.859700
5.278300 0.928700
5.296300 1.118900
5.314300 1.241500
5.332400 1.517300
5.350400 1.667800
5.368500 1.795400
5.386500 1.816700
5.404500 1.836800
5.422600 1.840200
5.440600 1.836500
5.458600 1.833300
5.476700 1.834000
5.494700 1.895200
5.512800 1.975100
5.530800 2.080500
5.548800 2.149700
5.566900 2.161200
5.584900 2.143700
5.602900 2.125200
5.621000 2.135000
5.639000 2.183500
5.657100 2.215700
5.675100 2.207200
5.693100 2.180900
5.711200 2.130500
5.729200 2.112300
5.747300 2.118300
5.765300 2.019900
5.783300 1.946500
5.801400 1.921000
5.819400 1.909900
5.837400 1.914400
5.855500 1.935300
5.873500 1.978500
5.891600 2.038800
5.909600 2.099200
5.927600 2.159200
5.945700 2.242700
5.963700 2.306200
5.981700 2.353700
5.999800 2.393500
6.017800 2.424100
6.035900 2.423800
6.053900 2.441500
6.071900 2.442400
6.090000 2.436700
6.108000 2.440100
6.126000 2.446400
6.144100 2.456600
6.162100 2.457500
6.180200 2.449300
6.198200 2.437400
6.216200 2.419100
6.234300 2.407800
6.252300 2.394400
6.270300 2.382400
6.288400 2.371600
6.306400 2.409700
6.324500 2.550900
6.342500 2.579400
6.360500 2.496500
6.378600 2.466200
6.396600 2.434900
6.414600 2.413300
6.432700 2.394000
6.450700 2.373200
6.468800 2.349700
6.486800 2.323800
6.504800 2.297600
6.522900 2.268700
6.540900 2.237700
6.559000 2.209700
6.577000 2.191900
6.595000 2.186000
6.613100 2.194500
6.631100 2.215200
6.649100 2.238100
6.667200 2.261900
6.685200 2.287400
6.703300 2.328200
6.721300 2.360600
6.739300 2.362300
6.757400 2.362400
6.775400 2.371400
6.793400 2.387300
6.811500 2.402300
6.829500 2.411800
6.847600 2.416000
6.865600 2.416300
6.883600 2.417700
6.901700 2.420500
6.919700 2.423500
6.937700 2.426100
6.955800 2.428700
6.973800 2.432200
6.991900 2.436300
7.009900 2.441000
7.027900 2.455000
7.046000 2.503800
7.064000 2.554600
7.082000 2.580200
7.100100 2.603200
7.118100 2.622500
7.136200 2.637800
7.154200 2.650300
7.172200 2.660700
7.190300 2.670200
7.208300 2.681700
7.226400 2.695500
7.244400 2.712100
7.262400 2.731900
7.280500 2.750500
7.298500 2.774000
7.316500 2.799400
7.334600 2.825300
7.352600 2.851800
7.370700 2.884700
7.388700 2.928300
7.406700 2.937700
7.424800 2.986300
7.442800 3.074200
7.460800 3.273900
7.478900 3.483100
7.496900 3.570100
7.515000 3.515700
7.533000 3.382000
7.551000 3.243100
7.569100 3.141800
7.587100 3.069400
7.605100 3.040700
7.623200 3.004300
7.641200 2.901800
7.659300 2.934500
7.677300 3.009200
7.695300 3.097900
7.713400 3.161800
7.731400 3.192700
7.749400 3.130900
7.767500 3.029000
7.785500 2.981600
7.803600 2.940200
7.821600 2.888800
7.839600 2.839700
7.857700 2.786200
7.875700 2.721100
7.893800 2.671400
7.911800 2.665300
7.929800 2.695100
7.947900 2.729700
7.965900 2.775400
7.983900 2.831600
8.002000 2.916100
8.020000 3.018700
8.038100 3.064200
8.056100 3.104300
8.074100 3.131300
8.092200 3.122000
8.110200 3.093200
8.128200 3.076300
8.146300 3.115200
8.164300 3.120300
8.182400 3.060000
8.200400 3.032800
8.218400 3.016900
8.236500 3.003900
8.254500 3.048300
8.272500 3.049400
8.290600 3.036100
8.308600 3.012100
8.326700 2.993400
8.344700 2.975900
8.362700 2.955200
8.380800 2.951400
8.398800 2.900900
8.416800 2.859600
8.434900 2.972600
8.452900 3.065100
8.471000 3.112000
8.489000 3.101500
8.507000 3.043100
8.525100 3.019700
8.543100 2.998800
8.561100 2.975300
8.579200 2.943300
8.597200 2.901800
8.615300 2.856200
8.633300 2.848300
8.651300 2.866800
8.669400 2.910700
8.687400 3.002100
8.705500 3.106400
8.723500 3.202600
8.741500 3.300500
8.759600 3.397300
8.777600 3.509500
8.795600 3.583000
8.813700 3.616700
8.831700 3.613200
8.849800 3.528200
8.867800 3.295700
8.885800 2.956500
8.903900 2.754700
8.921900 2.603900
8.939900 2.456500
8.958000 2.357400
8.976000 2.304000
8.994100 2.277400
9.012100 2.265600
9.030100 2.262500
9.048200 2.246600
9.066200 2.241000
9.084200 2.218000
9.102300 2.239600
9.120300 2.292200
9.138400 2.388100
9.156400 2.472500
9.174400 2.546600
9.192500 2.605800
9.210500 2.636400
9.228500 2.671200
9.246600 2.664300
9.264600 2.670900
9.282700 2.743500
9.300700 2.825100
9.318700 2.795300
9.336800 2.540700
9.354800 2.482800
9.372900 2.472400
9.390900 2.494500
9.408900 2.578900
9.427000 2.796700
9.445000 3.020300
9.463000 3.104000
9.481100 3.096400
9.499100 3.003500
9.517200 2.824700
9.535200 2.673900
9.553200 2.525600
9.571300 2.480300
9.589300 2.451100
9.607300 2.420000
9.625400 2.386700
9.643400 2.367600
9.661500 2.377200
9.679500 2.347100
9.697500 2.317400
9.715600 2.281800
9.733600 2.250400
9.751600 2.227000
9.769700 2.209100
9.787700 2.190300
