set title 'mp-1445439 - Density of States'
set xlabel 'Energy (eV)'
set ylabel 'DOS (states/eV)'
set grid
set xrange [-10:10]
set yrange [0:7.830]
set xzeroaxis lt -1
set terminal png size 800,600
set output 'mp-1445439_dos_gnuplot.png'
plot '-' using 1:2 with lines title 'DOS'
-14.557100 0.000000
-14.533100 0.000000
-14.509100 0.000000
-14.485100 0.000000
-14.461100 0.000000
-14.437100 0.000000
-14.413100 0.000000
-14.389100 0.000000
-14.365100 0.000000
-14.341100 0.000000
-14.317100 0.000000
-14.293000 0.000000
-14.269000 0.000000
-14.245000 0.000000
-14.221000 0.000000
-14.197000 0.000000
-14.173000 0.000000
-14.149000 0.000000
-14.125000 0.000000
-14.101000 0.000000
-14.077000 0.000000
-14.053000 0.000000
-14.029000 0.000000
-14.005000 0.000000
-13.980900 0.000000
-13.956900 0.000000
-13.932900 0.000000
-13.908900 0.000000
-13.884900 0.000000
-13.860900 0.000000
-13.836900 0.000000
-13.812900 0.000000
-13.788900 0.000000
-13.764900 0.000000
-13.740900 0.000000
-13.716900 0.000000
-13.692900 0.000000
-13.668800 0.000000
-13.644800 0.000000
-13.620800 0.000000
-13.596800 0.000000
-13.572800 0.000000
-13.548800 0.000000
-13.524800 0.000000
-13.500800 0.000000
-13.476800 0.000000
-13.452800 0.000000
-13.428800 0.000000
-13.404800 0.000000
-13.380800 0.000000
-13.356700 0.000000
-13.332700 0.000000
-13.308700 0.000000
-13.284700 0.000000
-13.260700 0.000000
-13.236700 0.000000
-13.212700 0.000000
-13.188700 0.000000
-13.164700 0.000000
-13.140700 0.000000
-13.116700 0.000000
-13.092700 0.000000
-13.068700 0.000000
-13.044600 0.000000
-13.020600 0.000000
-12.996600 0.000000
-12.972600 0.000000
-12.948600 0.000000
-12.924600 0.000000
-12.900600 0.000000
-12.876600 0.000000
-12.852600 0.000000
-12.828600 0.000000
-12.804600 0.000000
-12.780600 0.000000
-12.756600 0.000000
-12.732500 0.000000
-12.708500 0.000000
-12.684500 0.000000
-12.660500 0.000000
-12.636500 0.000000
-12.612500 0.000000
-12.588500 0.000000
-12.564500 0.000000
-12.540500 0.000000
-12.516500 0.000000
-12.492500 0.000000
-12.468500 0.000000
-12.444500 0.000000
-12.420400 0.000000
-12.396400 0.000000
-12.372400 0.014900
-12.348400 0.120900
-12.324400 0.205000
-12.300400 0.269200
-12.276400 0.304500
-12.252400 0.326400
-12.228400 0.361500
-12.204400 0.400600
-12.180400 0.439900
-12.156400 0.474900
-12.132400 0.499200
-12.108300 0.519500
-12.084300 0.542800
-12.060300 0.567600
-12.036300 0.594100
-12.012300 0.621800
-11.988300 0.649000
-11.964300 0.674400
-11.940300 0.696200
-11.916300 0.718300
-11.892300 0.741700
-11.868300 0.766300
-11.844300 0.790600
-11.820300 0.815900
-11.796200 0.842100
-11.772200 0.869100
-11.748200 0.895800
-11.724200 0.922600
-11.700200 0.948400
-11.676200 0.974200
-11.652200 1.001300
-11.628200 1.029900
-11.604200 1.059400
-11.580200 1.091000
-11.556200 1.126700
-11.532200 1.168100
-11.508200 1.213000
-11.484100 1.262000
-11.460100 1.315500
-11.436100 1.374100
-11.412100 1.438400
-11.388100 1.511800
-11.364100 1.604000
-11.340100 1.733600
-11.316100 1.923600
-11.292100 2.096000
-11.268100 2.213300
-11.244100 2.145300
-11.220100 2.030000
-11.196100 1.970200
-11.172000 1.919300
-11.148000 1.845000
-11.124000 1.765300
-11.100000 1.700100
-11.076000 1.465300
-11.052000 1.348900
-11.028000 1.289700
-11.004000 1.234200
-10.980000 1.187300
-10.956000 1.146100
-10.932000 1.135300
-10.908000 1.090700
-10.884000 1.036200
-10.859900 1.007300
-10.835900 0.983800
-10.811900 0.962200
-10.787900 0.947500
-10.763900 0.932800
-10.739900 0.920000
-10.715900 0.907800
-10.691900 0.895900
-10.667900 0.884200
-10.643900 0.869900
-10.619900 0.861900
-10.595900 0.855100
-10.571900 0.848300
-10.547800 0.840600
-10.523800 0.831500
-10.499800 0.822100
-10.475800 0.814300
-10.451800 0.807700
-10.427800 0.802000
-10.403800 0.797400
-10.379800 0.794400
-10.355800 0.792600
-10.331800 0.792200
-10.307800 0.792500
-10.283800 0.792800
-10.259800 0.793300
-10.235700 0.793900
-10.211700 0.794800
-10.187700 0.797400
-10.163700 0.803400
-10.139700 0.811600
-10.115700 0.820200
-10.091700 0.828000
-10.067700 0.835200
-10.043700 0.843100
-10.019700 0.852300
-9.995700 0.839300
-9.971700 0.837900
-9.947700 0.837900
-9.923600 0.839300
-9.899600 0.842100
-9.875600 0.845300
-9.851600 0.850100
-9.827600 0.857400
-9.803600 0.861600
-9.779600 0.862500
-9.755600 0.866500
-9.731600 0.806700
-9.707600 0.839400
-9.683600 0.869100
-9.659600 0.893000
-9.635600 0.916900
-9.611500 0.941900
-9.587500 0.968100
-9.563500 0.996200
-9.539500 1.026600
-9.515500 1.058400
-9.491500 1.093000
-9.467500 1.135500
-9.443500 1.187000
-9.419500 1.253800
-9.395500 1.374200
-9.371500 1.620200
-9.347500 1.731800
-9.323500 1.774800
-9.299400 1.865600
-9.275400 1.886200
-9.251400 1.825700
-9.227400 1.784400
-9.203400 1.777400
-9.179400 1.775200
-9.155400 1.697800
-9.131400 1.550800
-9.107400 1.413000
-9.083400 1.323800
-9.059400 1.254800
-9.035400 1.200600
-9.011400 1.155900
-8.987300 1.118500
-8.963300 1.086600
-8.939300 1.055900
-8.915300 1.033200
-8.891300 1.013500
-8.867300 0.998500
-8.843300 0.983900
-8.819300 0.969100
-8.795300 0.959600
-8.771300 0.957200
-8.747300 0.964200
-8.723300 0.985400
-8.699300 1.026200
-8.675200 1.102000
-8.651200 1.262900
-8.627200 1.582400
-8.603200 1.810800
-8.579200 0.597600
-8.555200 0.060200
-8.531200 0.000000
-8.507200 0.000000
-8.483200 0.028700
-8.459200 0.333200
-8.435200 1.002100
-8.411200 1.864400
-8.387200 2.948600
-8.363100 3.035900
-8.339100 3.205200
-8.315100 3.271200
-8.291100 2.234300
-8.267100 2.143000
-8.243100 2.072600
-8.219100 2.013700
-8.195100 1.970100
-8.171100 1.927800
-8.147100 1.888200
-8.123100 1.862900
-8.099100 1.840100
-8.075100 1.704100
-8.051000 1.668700
-8.027000 1.612900
-8.003000 1.357900
-7.979000 1.214200
-7.955000 1.205200
-7.931000 1.197100
-7.907000 1.189800
-7.883000 1.183500
-7.859000 1.178000
-7.835000 1.173300
-7.811000 1.169600
-7.787000 1.166800
-7.763000 1.165500
-7.739000 1.166200
-7.714900 1.168300
-7.690900 1.170200
-7.666900 1.175100
-7.642900 1.195300
-7.618900 1.222000
-7.594900 1.300200
-7.570900 1.347200
-7.546900 1.351600
-7.522900 1.356500
-7.498900 1.384400
-7.474900 1.423000
-7.450900 1.471500
-7.426900 1.501800
-7.402800 1.493000
-7.378800 1.487200
-7.354800 1.456500
-7.330800 1.431900
-7.306800 1.416100
-7.282800 1.405300
-7.258800 1.395600
-7.234800 1.392700
-7.210800 1.397100
-7.186800 1.372300
-7.162800 1.374900
-7.138800 1.358100
-7.114800 1.388300
-7.090700 1.531400
-7.066700 1.589300
-7.042700 1.678200
-7.018700 1.825600
-6.994700 1.985100
-6.970700 2.058700
-6.946700 2.081400
-6.922700 2.093400
-6.898700 2.111400
-6.874700 2.149700
-6.850700 2.179200
-6.826700 2.303100
-6.802700 2.339400
-6.778600 2.362900
-6.754600 2.398900
-6.730600 2.358400
-6.706600 2.358900
-6.682600 2.405100
-6.658600 2.415300
-6.634600 2.436900
-6.610600 2.323100
-6.586600 2.266000
-6.562600 2.266500
-6.538600 2.099700
-6.514600 1.985700
-6.490600 1.841200
-6.466500 1.683100
-6.442500 1.603200
-6.418500 1.529900
-6.394500 1.459500
-6.370500 1.421200
-6.346500 1.421000
-6.322500 1.409100
-6.298500 1.419800
-6.274500 1.486900
-6.250500 1.472400
-6.226500 1.400000
-6.202500 1.269100
-6.178500 1.174700
-6.154400 1.093300
-6.130400 1.009900
-6.106400 0.887200
-6.082400 0.771900
-6.058400 0.687700
-6.034400 0.656300
-6.010400 0.523500
-5.986400 0.304600
-5.962400 0.269000
-5.938400 0.287400
-5.914400 0.304500
-5.890400 0.321300
-5.866400 0.338300
-5.842300 0.356400
-5.818300 0.375100
-5.794300 0.394300
-5.770300 0.413900
-5.746300 0.433800
-5.722300 0.453900
-5.698300 0.474900
-5.674300 0.500100
-5.650300 0.531800
-5.626300 0.567300
-5.602300 0.604900
-5.578300 0.644600
-5.554300 0.686500
-5.530200 0.733000
-5.506200 0.786800
-5.482200 0.857900
-5.458200 0.927700
-5.434200 0.961300
-5.410200 0.982700
-5.386200 1.004000
-5.362200 1.019200
-5.338200 1.022900
-5.314200 1.012900
-5.290200 0.999200
-5.266200 0.994100
-5.242200 0.988300
-5.218100 0.982800
-5.194100 0.974000
-5.170100 0.969600
-5.146100 0.966900
-5.122100 0.968900
-5.098100 0.973500
-5.074100 0.980400
-5.050100 0.978600
-5.026100 0.966200
-5.002100 0.964200
-4.978100 0.982400
-4.954100 0.835300
-4.930100 0.837300
-4.906000 0.836300
-4.882000 0.834800
-4.858000 0.826700
-4.834000 0.819800
-4.810000 0.821900
-4.786000 0.827900
-4.762000 0.835800
-4.738000 0.844700
-4.714000 0.855500
-4.690000 0.888700
-4.666000 0.888600
-4.642000 0.888400
-4.618000 0.896700
-4.593900 0.920400
-4.569900 1.051400
-4.545900 1.090400
-4.521900 1.108900
-4.497900 1.085900
-4.473900 1.076400
-4.449900 1.071900
-4.425900 1.070000
-4.401900 1.061500
-4.377900 1.062000
-4.353900 1.061300
-4.329900 1.074500
-4.305900 1.058900
-4.281800 1.046400
-4.257800 1.043400
-4.233800 0.971300
-4.209800 0.929700
-4.185800 0.909200
-4.161800 0.885600
-4.137800 0.861700
-4.113800 0.838800
-4.089800 0.819700
-4.065800 0.804600
-4.041800 0.791100
-4.017800 0.778400
-3.993800 0.767300
-3.969700 0.756900
-3.945700 0.747000
-3.921700 0.738500
-3.897700 0.731800
-3.873700 0.725700
-3.849700 0.720400
-3.825700 0.716100
-3.801700 0.712300
-3.777700 0.708700
-3.753700 0.704700
-3.729700 0.699700
-3.705700 0.694500
-3.681700 0.690200
-3.657600 0.686000
-3.633600 0.682000
-3.609600 0.678000
-3.585600 0.673500
-3.561600 0.669000
-3.537600 0.664700
-3.513600 0.660400
-3.489600 0.649900
-3.465600 0.643500
-3.441600 0.638600
-3.417600 0.634400
-3.393600 0.630700
-3.369600 0.627900
-3.345500 0.625400
-3.321500 0.623200
-3.297500 0.621500
-3.273500 0.620000
-3.249500 0.618800
-3.225500 0.617800
-3.201500 0.617400
-3.177500 0.617500
-3.153500 0.617900
-3.129500 0.618300
-3.105500 0.618900
-3.081500 0.619700
-3.057500 0.621500
-3.033400 0.623900
-3.009400 0.627000
-2.985400 0.630800
-2.961400 0.634900
-2.937400 0.639200
-2.913400 0.644100
-2.889400 0.650100
-2.865400 0.657100
-2.841400 0.664300
-2.817400 0.671800
-2.793400 0.680200
-2.769400 0.689500
-2.745400 0.699000
-2.721300 0.709600
-2.697300 0.721400
-2.673300 0.732800
-2.649300 0.742500
-2.625300 0.752200
-2.601300 0.762100
-2.577300 0.773500
-2.553300 0.786900
-2.529300 0.803700
-2.505300 0.826900
-2.481300 0.854900
-2.457300 0.898900
-2.433300 0.971600
-2.409200 0.992200
-2.385200 1.007800
-2.361200 1.029000
-2.337200 1.107300
-2.313200 1.116200
-2.289200 1.123300
-2.265200 1.131300
-2.241200 1.142800
-2.217200 1.152700
-2.193200 1.175700
-2.169200 1.189400
-2.145200 1.193400
-2.121200 1.183500
-2.097100 1.169600
-2.073100 1.154600
-2.049100 1.088900
-2.025100 1.007300
-2.001100 0.956200
-1.977100 0.905000
-1.953100 0.852200
-1.929100 0.805100
-1.905100 0.756700
-1.881100 0.736900
-1.857100 0.724400
-1.833100 0.714300
-1.809100 0.705500
-1.785000 0.698300
-1.761000 0.692900
-1.737000 0.687200
-1.713000 0.681300
-1.689000 0.675100
-1.665000 0.672700
-1.641000 0.671100
-1.617000 0.671700
-1.593000 0.673800
-1.569000 0.675100
-1.545000 0.672600
-1.521000 0.646300
-1.497000 0.660000
-1.472900 0.681800
-1.448900 0.636300
-1.424900 0.678000
-1.400900 0.729100
-1.376900 0.788900
-1.352900 0.789700
-1.328900 0.734500
-1.304900 0.731000
-1.280900 0.797100
-1.256900 0.804500
-1.232900 0.906900
-1.208900 1.000100
-1.184900 1.123700
-1.160800 1.227800
-1.136800 1.343200
-1.112800 1.444000
-1.088800 1.565000
-1.064800 1.686400
-1.040800 2.072200
-1.016800 1.733000
-0.992800 1.389500
-0.968800 1.267600
-0.944800 1.248100
-0.920800 1.231400
-0.896800 1.215100
-0.872800 1.203600
-0.848700 1.193700
-0.824700 1.183800
-0.800700 1.168700
-0.776700 1.164100
-0.752700 1.146400
-0.728700 1.131700
-0.704700 1.120400
-0.680700 1.090100
-0.656700 1.097200
-0.632700 1.102500
-0.608700 1.113100
-0.584700 1.142100
-0.560700 1.167600
-0.536600 1.149600
-0.512600 1.165100
-0.488600 1.188000
-0.464600 1.134200
-0.440600 1.155900
-0.416600 1.176700
-0.392600 1.160500
-0.368600 1.153500
-0.344600 1.128300
-0.320600 1.086300
-0.296600 1.148500
-0.272600 1.200800
-0.248600 1.191300
-0.224500 1.165100
-0.200500 1.155500
-0.176500 1.146500
-0.152500 1.147800
-0.128500 1.151900
-0.104500 1.156800
-0.080500 1.167600
-0.056500 1.178100
-0.032500 1.197800
-0.008500 1.237900
0.015500 1.294500
0.039500 1.338200
0.063500 1.394000
0.087600 1.473500
0.111600 1.552600
0.135600 1.638300
0.159600 1.737900
0.183600 1.847500
0.207600 1.991700
0.231600 2.265800
0.255600 2.610200
0.279600 2.637200
0.303600 2.523900
0.327600 2.325700
0.351600 2.256500
0.375600 2.236400
0.399700 2.296600
0.423700 2.403000
0.447700 2.531400
0.471700 2.567500
0.495700 2.484800
0.519700 2.498100
0.543700 2.413600
0.567700 2.225600
0.591700 2.254200
0.615700 2.404300
0.639700 2.717700
0.663700 3.123400
0.687700 3.136000
0.711700 2.846500
0.735800 2.751400
0.759800 2.707700
0.783800 2.740000
0.807800 2.861500
0.831800 2.988500
0.855800 3.053700
0.879800 3.138700
0.903800 3.125700
0.927800 3.113100
0.951800 3.093900
0.975800 3.024200
0.999800 2.909000
1.023800 2.965200
1.047900 2.910800
1.071900 2.808400
1.095900 2.605100
1.119900 2.446000
1.143900 2.411400
1.167900 2.367200
1.191900 2.321300
1.215900 2.265900
1.239900 2.258100
1.263900 2.278400
1.287900 2.367500
1.311900 2.406400
1.335900 2.495700
1.360000 2.687600
1.384000 3.107000
1.408000 3.130500
1.432000 2.855800
1.456000 2.976200
1.480000 3.099300
1.504000 2.842600
1.528000 2.641600
1.552000 2.685500
1.576000 2.363700
1.600000 2.214700
1.624000 2.038300
1.648000 1.904100
1.672100 1.868200
1.696100 1.820500
1.720100 1.748700
1.744100 1.737700
1.768100 1.728000
1.792100 1.722500
1.816100 1.720500
1.840100 1.718500
1.864100 1.723200
1.888100 1.728300
1.912100 1.715200
1.936100 1.703800
1.960100 1.700700
1.984200 1.719800
2.008200 1.726700
2.032200 1.730900
2.056200 1.739200
2.080200 1.743300
2.104200 1.721900
2.128200 1.679200
2.152200 1.682900
2.176200 1.700400
2.200200 1.743300
2.224200 1.852900
2.248200 1.992000
2.272200 1.756800
2.296300 1.771400
2.320300 1.796200
2.344300 1.813200
2.368300 1.840100
2.392300 1.882100
2.416300 1.848800
2.440300 1.832600
2.464300 1.800800
2.488300 1.793400
2.512300 1.821700
2.536300 1.848800
2.560300 1.954000
2.584300 1.926300
2.608400 1.817200
2.632400 1.800100
2.656400 1.796900
2.680400 1.807000
2.704400 1.829400
2.728400 1.845800
2.752400 1.863000
2.776400 1.888800
2.800400 1.914500
2.824400 1.939000
2.848400 1.968900
2.872400 2.005100
2.896400 2.040200
2.920500 2.082800
2.944500 2.142800
2.968500 2.196500
2.992500 2.234600
3.016500 2.257500
3.040500 2.219300
3.064500 2.206000
3.088500 2.216900
3.112500 2.214900
3.136500 2.214300
3.160500 2.209200
3.184500 2.226000
3.208500 2.205300
3.232600 2.127200
3.256600 2.132400
3.280600 2.118900
3.304600 2.104100
3.328600 2.075200
3.352600 2.056700
3.376600 1.973900
3.400600 1.914000
3.424600 1.874100
3.448600 1.844700
3.472600 1.870700
3.496600 1.913900
3.520600 1.846300
3.544700 1.806800
3.568700 1.691900
3.592700 1.544000
3.616700 1.337800
3.640700 1.294000
3.664700 1.306300
3.688700 1.306700
3.712700 1.299400
3.736700 1.290800
3.760700 1.325800
3.784700 1.422100
3.808700 1.571300
3.832700 1.663500
3.856800 1.774900
3.880800 1.867600
3.904800 1.974000
3.928800 2.119100
3.952800 2.114500
3.976800 2.140800
4.000800 2.224200
4.024800 2.449000
4.048800 2.578900
4.072800 2.642000
4.096800 2.638100
4.120800 2.654000
4.144800 2.862200
4.168900 3.142700
4.192900 3.271300
4.216900 3.281200
4.240900 2.963100
4.264900 2.879000
4.288900 2.768800
4.312900 2.701800
4.336900 2.703400
4.360900 2.542700
4.384900 2.422900
4.408900 2.566900
4.432900 2.673000
4.456900 3.095400
4.481000 3.405800
4.505000 3.543600
4.529000 3.573900
4.553000 3.518400
4.577000 3.130100
4.601000 2.825000
4.625000 2.537100
4.649000 2.392400
4.673000 2.233100
4.697000 2.437900
4.721000 2.601200
4.745000 2.902100
4.769000 3.413300
4.793100 3.756600
4.817100 3.918900
4.841100 3.882300
4.865100 4.228100
4.889100 4.972500
4.913100 5.723600
4.937100 5.636900
4.961100 5.416200
4.985100 5.293100
5.009100 5.283800
5.033100 5.334600
5.057100 5.630300
5.081100 6.076500
5.105200 6.099100
5.129200 6.368400
5.153200 6.460400
5.177200 6.641700
5.201200 6.778800
5.225200 6.647300
5.249200 6.977200
5.273200 7.015600
5.297200 7.107800
5.321200 7.118400
5.345200 6.885900
5.369200 5.445900
5.393200 4.502900
5.417300 4.005800
5.441300 3.277300
5.465300 2.517500
5.489300 2.093300
5.513300 1.684100
5.537300 1.773500
5.561300 2.283500
5.585300 2.681800
5.609300 3.517000
5.633300 4.184400
5.657300 3.364200
5.681300 3.025800
5.705300 2.889900
5.729400 2.903300
5.753400 2.961200
5.777400 2.902800
5.801400 2.829200
5.825400 2.734700
5.849400 2.737300
5.873400 2.793700
5.897400 2.933700
5.921400 3.305200
5.945400 3.626600
5.969400 3.716700
5.993400 3.780300
6.017400 3.895500
6.041500 4.024500
6.065500 4.168200
6.089500 4.294000
6.113500 4.230800
6.137500 4.278300
6.161500 4.377700
6.185500 4.694300
6.209500 4.936400
6.233500 5.179500
6.257500 5.654600
6.281500 6.068300
6.305500 6.273100
6.329500 6.274300
6.353600 5.331800
6.377600 4.665500
6.401600 4.018500
6.425600 3.475900
6.449600 3.472900
6.473600 3.338000
6.497600 3.115900
6.521600 3.144400
6.545600 3.063600
6.569600 2.854100
6.593600 2.900400
6.617600 2.023500
6.641600 1.155700
6.665700 0.097200
6.689700 0.100800
6.713700 0.104500
6.737700 0.108200
6.761700 0.112100
6.785700 0.116100
6.809700 0.120200
6.833700 0.125900
6.857700 0.132200
6.881700 0.138300
6.905700 0.144600
6.929700 0.151400
6.953700 0.158800
6.977800 0.166900
7.001800 0.175300
7.025800 0.183900
7.049800 0.192200
7.073800 0.200500
7.097800 0.208700
7.121800 0.216800
7.145800 0.225000
7.169800 0.233400
7.193800 0.241300
7.217800 0.249100
7.241800 0.258000
7.265800 0.267600
7.289900 0.278100
7.313900 0.290400
7.337900 0.302900
7.361900 0.316100
7.385900 0.329400
7.409900 0.342500
7.433900 0.355400
7.457900 0.368300
7.481900 0.381600
7.505900 0.395200
7.529900 0.409200
7.553900 0.423600
7.577900 0.439900
7.602000 0.458700
7.626000 0.479900
7.650000 0.502100
7.674000 0.526100
7.698000 0.551100
7.722000 0.578200
7.746000 0.606700
7.770000 0.638100
7.794000 0.673200
7.818000 0.711900
7.842000 0.755000
7.866000 0.813900
7.890000 0.927300
7.914100 1.110900
7.938100 1.215000
7.962100 1.317600
7.986100 1.391000
8.010100 1.308500
8.034100 1.211100
8.058100 1.103900
8.082100 1.042100
8.106100 1.001900
8.130100 0.975000
8.154100 0.935500
8.178100 0.910400
8.202100 0.964800
8.226200 0.985200
8.250200 0.989200
8.274200 0.992600
8.298200 1.005900
8.322200 1.025500
8.346200 1.051000
8.370200 1.080500
8.394200 1.112100
8.418200 1.145600
8.442200 1.180800
8.466200 1.214800
8.490200 1.241900
8.514200 1.278000
8.538300 1.326000
8.562300 1.397200
8.586300 1.474900
8.610300 1.615700
8.634300 1.738900
8.658300 1.695600
8.682300 1.654800
8.706300 1.611300
8.730300 1.585100
8.754300 1.601500
8.778300 1.683000
8.802300 1.602100
8.826300 1.522100
8.850300 1.448700
8.874400 1.444600
8.898400 1.460100
8.922400 1.474600
8.946400 1.499400
8.970400 1.541500
8.994400 1.597800
9.018400 1.664900
9.042400 1.733800
9.066400 1.789700
9.090400 1.921800
9.114400 2.079500
9.138400 2.208300
9.162400 2.610800
9.186500 3.187300
9.210500 3.853400
9.234500 4.050900
9.258500 4.384300
9.282500 3.725700
9.306500 3.435600
9.330500 3.391000
9.354500 3.620100
9.378500 3.789300
9.402500 3.757300
9.426500 3.541000
9.450500 3.285700
9.474500 2.983000
9.498600 2.574600
9.522600 2.044000
9.546600 1.762200
9.570600 1.593200
9.594600 1.457300
9.618600 1.294100
9.642600 1.012000
9.666600 0.833300
9.690600 0.768400
9.714600 0.721900
9.738600 0.686000
9.762600 0.661200
9.786600 0.646000
9.810700 0.630200
9.834700 0.611700
9.858700 0.594800
9.882700 0.577500
9.906700 0.559600
9.930700 0.540500
9.954700 0.519500
9.978700 0.495300
10.002700 0.470100
10.026700 0.447000
10.050700 0.426100
10.074700 0.407400
10.098700 0.390900
10.122800 0.379400
10.146800 0.285300
10.170800 0.299300
10.194800 0.304700
10.218800 0.315300
10.242800 0.335300
10.266800 0.354900
10.290800 0.366000
10.314800 0.376300
10.338800 0.360100
10.362800 0.336200
10.386800 0.308400
10.410800 0.253200
10.434900 0.255200
10.458900 0.000000
10.482900 0.000000
10.506900 0.000000
10.530900 0.000000
10.554900 0.021000
10.578900 0.060500
10.602900 0.106300
