set title 'mp-1202723 - Density of States'
set xlabel 'Energy (eV)'
set ylabel 'DOS (states/eV)'
set grid
set xrange [-10:10]
set yrange [0:12.318]
set xzeroaxis lt -1
set terminal png size 800,600
set output 'mp-1202723_dos_gnuplot.png'
plot '-' using 1:2 with lines title 'DOS'
-12.096300 0.000000
-12.078300 0.000000
-12.060200 0.000000
-12.042200 0.000000
-12.024200 0.000000
-12.006200 0.000000
-11.988200 0.000000
-11.970100 0.000000
-11.952100 0.000000
-11.934100 0.000000
-11.916100 0.000000
-11.898100 0.000000
-11.880100 0.000000
-11.862000 0.000000
-11.844000 0.000000
-11.826000 0.000000
-11.808000 0.000000
-11.790000 0.000000
-11.771900 0.000000
-11.753900 0.000000
-11.735900 0.000000
-11.717900 0.000000
-11.699900 0.000000
-11.681900 0.000000
-11.663800 0.000000
-11.645800 0.000000
-11.627800 0.000000
-11.609800 0.000000
-11.591800 0.000000
-11.573800 0.000000
-11.555700 0.000000
-11.537700 0.000000
-11.519700 0.000000
-11.501700 0.000000
-11.483700 0.000000
-11.465600 0.000000
-11.447600 0.000000
-11.429600 0.000000
-11.411600 0.000000
-11.393600 0.000000
-11.375600 0.000000
-11.357500 0.000000
-11.339500 0.000000
-11.321500 0.000000
-11.303500 0.000000
-11.285500 0.000000
-11.267500 0.000000
-11.249400 0.000000
-11.231400 0.000000
-11.213400 0.000000
-11.195400 0.000000
-11.177400 0.000000
-11.159300 0.000000
-11.141300 0.000000
-11.123300 0.000000
-11.105300 0.000000
-11.087300 0.000000
-11.069300 0.000000
-11.051200 0.000000
-11.033200 0.000000
-11.015200 0.000000
-10.997200 0.000000
-10.979200 0.000000
-10.961200 0.000000
-10.943100 0.000000
-10.925100 0.000000
-10.907100 0.000000
-10.889100 0.000000
-10.871100 0.000000
-10.853000 0.000000
-10.835000 0.000000
-10.817000 0.000000
-10.799000 0.000000
-10.781000 0.000000
-10.763000 0.000000
-10.744900 0.000000
-10.726900 0.000000
-10.708900 0.000000
-10.690900 0.000000
-10.672900 0.000000
-10.654800 0.000000
-10.636800 0.000000
-10.618800 0.000000
-10.600800 0.000000
-10.582800 0.000000
-10.564800 0.000000
-10.546700 0.000000
-10.528700 0.000000
-10.510700 0.000000
-10.492700 0.000000
-10.474700 0.000000
-10.456700 0.112300
-10.438600 0.264600
-10.420600 0.358800
-10.402600 0.420900
-10.384600 0.497400
-10.366600 0.569800
-10.348500 0.614600
-10.330500 0.660800
-10.312500 0.720500
-10.294500 0.782800
-10.276500 0.832100
-10.258500 0.875400
-10.240400 0.923200
-10.222400 0.972800
-10.204400 1.025100
-10.186400 1.086600
-10.168400 1.143800
-10.150400 1.191900
-10.132300 1.241800
-10.114300 1.299100
-10.096300 1.363500
-10.078300 1.430400
-10.060300 1.500600
-10.042200 1.569800
-10.024200 1.645500
-10.006200 1.729400
-9.988200 1.818900
-9.970200 1.912500
-9.952200 2.011800
-9.934100 2.133500
-9.916100 2.280400
-9.898100 2.444100
-9.880100 2.632500
-9.862100 2.863500
-9.844100 3.232400
-9.826000 4.099800
-9.808000 3.929900
-9.790000 3.998200
-9.772000 3.987600
-9.754000 3.960100
-9.735900 3.940900
-9.717900 4.046100
-9.699900 4.143100
-9.681900 4.121500
-9.663900 4.042900
-9.645900 4.052400
-9.627800 4.699900
-9.609800 4.907300
-9.591800 4.696600
-9.573800 11.198000
-9.555800 0.000000
-9.537700 0.000000
-9.519700 0.000000
-9.501700 0.000000
-9.483700 0.000000
-9.465700 0.000000
-9.447700 0.000000
-9.429600 0.000000
-9.411600 0.000000
-9.393600 0.000000
-9.375600 0.000000
-9.357600 0.000000
-9.339600 0.000000
-9.321500 0.000000
-9.303500 0.000000
-9.285500 0.000000
-9.267500 0.000000
-9.249500 0.000000
-9.231400 0.000000
-9.213400 0.000000
-9.195400 0.000000
-9.177400 0.000000
-9.159400 0.000000
-9.141400 0.000000
-9.123300 0.000000
-9.105300 0.000000
-9.087300 0.000000
-9.069300 0.000000
-9.051300 0.000000
-9.033300 0.000000
-9.015200 0.000000
-8.997200 0.000000
-8.979200 0.000000
-8.961200 0.000000
-8.943200 0.000000
-8.925100 0.000000
-8.907100 0.000000
-8.889100 0.000000
-8.871100 0.000000
-8.853100 0.000000
-8.835100 0.000000
-8.817000 0.000000
-8.799000 0.000000
-8.781000 0.000000
-8.763000 0.000000
-8.745000 0.000000
-8.727000 0.000000
-8.708900 0.000000
-8.690900 0.000000
-8.672900 0.000000
-8.654900 0.000000
-8.636900 0.000000
-8.618800 0.000000
-8.600800 0.000000
-8.582800 0.000000
-8.564800 0.000000
-8.546800 0.000000
-8.528800 0.000000
-8.510700 0.000000
-8.492700 0.000000
-8.474700 0.000000
-8.456700 0.000000
-8.438700 0.000000
-8.420600 0.000000
-8.402600 0.000000
-8.384600 0.000000
-8.366600 0.000000
-8.348600 0.000000
-8.330600 0.000000
-8.312500 0.000000
-8.294500 0.000000
-8.276500 0.000000
-8.258500 0.000000
-8.240500 0.000000
-8.222500 0.000000
-8.204400 0.000000
-8.186400 0.000000
-8.168400 0.000000
-8.150400 0.000000
-8.132400 0.000000
-8.114300 0.000000
-8.096300 0.000000
-8.078300 0.000000
-8.060300 0.000000
-8.042300 0.000000
-8.024300 0.000000
-8.006200 0.000000
-7.988200 0.000000
-7.970200 0.000000
-7.952200 0.000000
-7.934200 0.000000
-7.916200 0.000000
-7.898100 0.000000
-7.880100 0.000000
-7.862100 0.000000
-7.844100 0.000000
-7.826100 0.000000
-7.808000 0.000000
-7.790000 0.000000
-7.772000 0.000000
-7.754000 0.000000
-7.736000 0.000000
-7.718000 0.000000
-7.699900 0.000000
-7.681900 0.000000
-7.663900 0.000000
-7.645900 0.000000
-7.627900 0.000000
-7.609900 0.000000
-7.591800 0.348900
-7.573800 0.743200
-7.555800 1.173800
-7.537800 1.312000
-7.519800 1.553400
-7.501700 1.827000
-7.483700 2.193000
-7.465700 2.391700
-7.447700 2.598000
-7.429700 2.817100
-7.411700 3.143200
-7.393600 3.588000
-7.375600 4.432200
-7.357600 4.756800
-7.339600 4.784200
-7.321600 4.610900
-7.303500 4.308100
-7.285500 4.143800
-7.267500 4.032200
-7.249500 3.831200
-7.231500 4.755600
-7.213500 2.989900
-7.195400 2.356400
-7.177400 2.046600
-7.159400 1.768900
-7.141400 1.640200
-7.123400 1.523300
-7.105400 1.417100
-7.087300 1.309800
-7.069300 1.244900
-7.051300 1.805700
-7.033300 1.996700
-7.015300 2.536900
-6.997200 2.257700
-6.979200 2.254900
-6.961200 2.256300
-6.943200 2.235400
-6.925200 2.230800
-6.907200 2.211700
-6.889100 2.234700
-6.871100 2.256800
-6.853100 2.275200
-6.835100 2.285000
-6.817100 2.274900
-6.799100 2.259900
-6.781000 2.245000
-6.763000 2.226200
-6.745000 2.216700
-6.727000 2.208300
-6.709000 2.203400
-6.690900 2.204000
-6.672900 2.202200
-6.654900 2.200200
-6.636900 2.198500
-6.618900 2.191300
-6.600900 2.180300
-6.582800 2.153700
-6.564800 2.134400
-6.546800 2.124300
-6.528800 2.108800
-6.510800 2.093200
-6.492800 2.079100
-6.474700 2.066000
-6.456700 2.052700
-6.438700 2.058900
-6.420700 2.053800
-6.402700 2.040400
-6.384600 2.022400
-6.366600 1.998900
-6.348600 2.417600
-6.330600 2.648500
-6.312600 2.758300
-6.294600 3.039500
-6.276500 3.355500
-6.258500 3.567800
-6.240500 4.380100
-6.222500 4.491400
-6.204500 4.242400
-6.186400 4.441300
-6.168400 4.331300
-6.150400 4.260300
-6.132400 4.223600
-6.114400 4.170700
-6.096400 4.113000
-6.078300 4.181300
-6.060300 4.180500
-6.042300 4.137800
-6.024300 4.080900
-6.006300 4.037000
-5.988300 3.996000
-5.970200 4.000900
-5.952200 4.017200
-5.934200 4.073700
-5.916200 4.041500
-5.898200 3.995900
-5.880100 3.970600
-5.862100 3.967900
-5.844100 3.918300
-5.826100 3.876100
-5.808100 3.872200
-5.790100 3.999900
-5.772000 4.061700
-5.754000 3.998800
-5.736000 3.840000
-5.718000 3.519600
-5.700000 3.161600
-5.682000 2.693900
-5.663900 2.500100
-5.645900 2.341700
-5.627900 2.154800
-5.609900 2.010200
-5.591900 1.788900
-5.573800 1.620200
-5.555800 1.516100
-5.537800 1.310900
-5.519800 1.236600
-5.501800 1.199600
-5.483800 1.059500
-5.465700 0.802400
-5.447700 0.606400
-5.429700 0.686300
-5.411700 0.237100
-5.393700 0.000000
-5.375700 0.000000
-5.357600 0.000000
-5.339600 0.000000
-5.321600 0.000000
-5.303600 0.000000
-5.285600 0.000000
-5.267500 0.000000
-5.249500 0.000000
-5.231500 0.000000
-5.213500 0.000000
-5.195500 0.000000
-5.177500 0.000000
-5.159400 0.000000
-5.141400 0.000000
-5.123400 0.000000
-5.105400 0.000000
-5.087400 0.000000
-5.069300 0.000000
-5.051300 0.000000
-5.033300 0.000000
-5.015300 0.000000
-4.997300 0.000000
-4.979300 0.000000
-4.961200 0.000000
-4.943200 0.000000
-4.925200 0.000000
-4.907200 0.000000
-4.889200 0.000000
-4.871200 0.000000
-4.853100 0.116400
-4.835100 0.150900
-4.817100 0.146700
-4.799100 0.172000
-4.781100 0.198800
-4.763000 0.227200
-4.745000 0.243800
-4.727000 0.270500
-4.709000 0.298300
-4.691000 0.327200
-4.673000 0.357300
-4.654900 0.387000
-4.636900 0.412300
-4.618900 0.426700
-4.600900 0.446200
-4.582900 0.464800
-4.564900 0.482500
-4.546800 0.499100
-4.528800 0.518300
-4.510800 0.541200
-4.492800 0.566600
-4.474800 0.589500
-4.456700 0.617600
-4.438700 0.646700
-4.420700 0.676700
-4.402700 0.707800
-4.384700 0.740000
-4.366700 0.773400
-4.348600 0.825400
-4.330600 0.891800
-4.312600 0.978900
-4.294600 1.083800
-4.276600 1.141300
-4.258600 1.266700
-4.240500 1.367600
-4.222500 1.377600
-4.204500 1.452100
-4.186500 1.533800
-4.168500 1.622300
-4.150400 1.718600
-4.132400 1.844900
-4.114400 1.994300
-4.096400 2.145700
-4.078400 2.290600
-4.060400 2.509300
-4.042300 2.771800
-4.024300 3.085300
-4.006300 3.234600
-3.988300 3.288200
-3.970300 3.526700
-3.952200 3.660000
-3.934200 3.237200
-3.916200 3.176000
-3.898200 3.095200
-3.880200 3.020000
-3.862200 2.948400
-3.844100 2.870100
-3.826100 2.813700
-3.808100 2.806000
-3.790100 2.868400
-3.772100 2.718700
-3.754100 2.490100
-3.736000 2.322100
-3.718000 2.167200
-3.700000 2.054700
-3.682000 2.052600
-3.664000 1.855300
-3.645900 1.826100
-3.627900 1.841800
-3.609900 1.167900
-3.591900 1.039700
-3.573900 0.952500
-3.555900 0.796500
-3.537800 0.713900
-3.519800 0.617200
-3.501800 0.546100
-3.483800 0.620900
-3.465800 0.214100
-3.447800 0.176700
-3.429700 0.182500
-3.411700 0.276000
-3.393700 1.152700
-3.375700 1.053700
-3.357700 1.784400
-3.339600 2.498000
-3.321600 2.999200
-3.303600 3.770700
-3.285600 4.831100
-3.267600 5.943700
-3.249600 7.517300
-3.231500 8.193200
-3.213500 6.555200
-3.195500 5.166400
-3.177500 4.097700
-3.159500 3.829300
-3.141500 3.836800
-3.123400 3.946900
-3.105400 4.016100
-3.087400 4.103300
-3.069400 4.197200
-3.051400 3.857100
-3.033300 3.801100
-3.015300 3.771500
-2.997300 3.813200
-2.979300 3.759300
-2.961300 3.785000
-2.943300 3.830700
-2.925200 3.804000
-2.907200 3.780500
-2.889200 3.757500
-2.871200 3.689500
-2.853200 3.652200
-2.835100 3.437800
-2.817100 3.291800
-2.799100 3.056200
-2.781100 2.674600
-2.763100 2.581200
-2.745100 2.506800
-2.727000 2.428900
-2.709000 2.444900
-2.691000 2.552200
-2.673000 2.729100
-2.655000 2.790900
-2.637000 2.757900
-2.618900 2.734800
-2.600900 2.683800
-2.582900 2.799800
-2.564900 2.806800
-2.546900 2.805000
-2.528800 2.838100
-2.510800 2.957000
-2.492800 2.957300
-2.474800 3.090200
-2.456800 3.117800
-2.438800 3.174700
-2.420700 3.261100
-2.402700 3.161900
-2.384700 3.059800
-2.366700 3.140000
-2.348700 3.092900
-2.330700 3.113700
-2.312600 3.156000
-2.294600 3.150100
-2.276600 3.153100
-2.258600 3.409900
-2.240600 3.461800
-2.222500 3.267500
-2.204500 3.068800
-2.186500 3.116000
-2.168500 3.077100
-2.150500 3.032400
-2.132500 2.876500
-2.114400 2.576900
-2.096400 2.585400
-2.078400 2.530200
-2.060400 2.467200
-2.042400 2.473800
-2.024400 2.332500
-2.006300 2.353600
-1.988300 2.427100
-1.970300 2.557500
-1.952300 2.750900
-1.934300 3.006900
-1.916200 3.336700
-1.898200 3.546300
-1.880200 3.846200
-1.862200 4.088600
-1.844200 3.964900
-1.826200 3.757100
-1.808100 3.392900
-1.790100 3.242900
-1.772100 3.099100
-1.754100 2.957300
-1.736100 3.063900
-1.718000 3.212400
-1.700000 2.728500
-1.682000 2.631700
-1.664000 2.596600
-1.646000 2.763800
-1.628000 2.723100
-1.609900 2.654600
-1.591900 2.691300
-1.573900 2.775500
-1.555900 2.977500
-1.537900 3.434100
-1.519900 3.602900
-1.501800 3.521200
-1.483800 3.831900
-1.465800 3.905900
-1.447800 3.827300
-1.429800 3.682700
-1.411700 3.652800
-1.393700 3.579200
-1.375700 3.571200
-1.357700 3.538300
-1.339700 3.507300
-1.321700 3.449400
-1.303600 3.394400
-1.285600 3.334200
-1.267600 5.777700
-1.249600 2.980000
-1.231600 2.953800
-1.213600 2.932600
-1.195500 2.937900
-1.177500 2.924300
-1.159500 2.914300
-1.141500 2.925500
-1.123500 2.893300
-1.105400 2.891300
-1.087400 2.875400
-1.069400 2.753100
-1.051400 2.692800
-1.033400 2.698800
-1.015400 2.705800
-0.997300 2.724300
-0.979300 2.746500
-0.961300 2.773300
-0.943300 2.790800
-0.925300 2.797200
-0.907300 2.895300
-0.889200 2.946700
-0.871200 2.929100
-0.853200 2.921900
-0.835200 2.906100
-0.817200 2.881900
-0.799100 2.869600
-0.781100 2.948100
-0.763100 2.822000
-0.745100 2.874100
-0.727100 2.947300
-0.709100 3.076000
-0.691000 3.333200
-0.673000 3.724200
-0.655000 4.282400
-0.637000 3.728700
-0.619000 3.587700
-0.600900 3.545500
-0.582900 3.517000
-0.564900 3.429100
-0.546900 3.346500
-0.528900 3.297900
-0.510900 3.235800
-0.492800 3.064300
-0.474800 2.881200
-0.456800 2.791900
-0.438800 2.728000
-0.420800 2.677400
-0.402800 2.667100
-0.384700 2.677400
-0.366700 2.757100
-0.348700 3.048400
-0.330700 3.420200
-0.312700 3.550700
-0.294600 3.759400
-0.276600 3.916600
-0.258600 3.946500
-0.240600 4.167700
-0.222600 4.153600
-0.204600 3.897200
-0.186500 3.814300
-0.168500 3.716600
-0.150500 3.687800
-0.132500 3.722200
-0.114500 3.746500
-0.096500 3.805100
-0.078400 3.780600
-0.060400 3.641000
-0.042400 3.296900
-0.024400 3.011200
-0.006400 2.808400
0.011700 2.654600
0.029700 2.625000
0.047700 2.545700
0.065700 2.495600
0.083700 2.315000
0.101700 2.250100
0.119800 2.184500
0.137800 2.121000
0.155800 2.059100
0.173800 1.999700
0.191800 1.946700
0.209800 1.918800
0.227900 1.878700
0.245900 4.847000
0.263900 1.725300
0.281900 1.811200
0.299900 1.831700
0.318000 1.924300
0.336000 2.060300
0.354000 2.850300
0.372000 4.842000
0.390000 1.672900
0.408000 2.710700
0.426100 4.807900
0.444100 6.262200
0.462100 4.946600
0.480100 5.031000
0.498100 5.045500
0.516200 5.071200
0.534200 5.129200
0.552200 5.055800
0.570200 5.213500
0.588200 5.291100
0.606200 5.258900
0.624300 5.047800
0.642300 4.839900
0.660300 4.564400
0.678300 4.392800
0.696300 4.342900
0.714300 4.456800
0.732400 4.666900
0.750400 4.798500
0.768400 4.689200
0.786400 4.647200
0.804400 4.531300
0.822500 4.432000
0.840500 4.584800
0.858500 4.243600
0.876500 4.158300
0.894500 4.007800
0.912500 3.914900
0.930600 3.843100
0.948600 3.760800
0.966600 3.740600
0.984600 3.760400
1.002600 3.832300
1.020600 3.611900
1.038700 3.651200
1.056700 3.708200
1.074700 3.727900
1.092700 3.676800
1.110700 3.599300
1.128800 3.624800
1.146800 3.683000
1.164800 3.794500
1.182800 3.878100
1.200800 3.996800
1.218800 4.196500
1.236900 4.292900
1.254900 4.355600
1.272900 4.366700
1.290900 4.349200
1.308900 4.202800
1.326900 4.072200
1.345000 3.587600
1.363000 3.205800
1.381000 2.987400
1.399000 2.763000
1.417000 2.524700
1.435100 2.538700
1.453100 2.623900
1.471100 2.657100
1.489100 2.712500
1.507100 2.978500
1.525100 3.598300
1.543200 3.768300
1.561200 4.095600
1.579200 4.526600
1.597200 4.882600
1.615200 5.124000
1.633300 5.352300
1.651300 5.373500
1.669300 5.427900
1.687300 5.558300
1.705300 5.563400
1.723300 5.601300
1.741400 5.717200
1.759400 5.498900
1.777400 5.343600
1.795400 4.777400
1.813400 3.961400
1.831400 3.400400
1.849500 2.941300
1.867500 2.333700
1.885500 2.266800
1.903500 2.492900
1.921500 2.672700
1.939600 2.860100
1.957600 3.296100
1.975600 6.709700
1.993600 6.002100
2.011600 8.170900
2.029600 7.783000
2.047700 7.266500
2.065700 6.774300
2.083700 6.144700
2.101700 5.349800
2.119700 4.101400
2.137700 2.966400
2.155800 2.284000
2.173800 2.076800
2.191800 2.007400
2.209800 1.968300
2.227800 1.991600
2.245900 2.100700
2.263900 2.287800
2.281900 2.726400
2.299900 3.198100
2.317900 3.451400
2.335900 5.162900
2.354000 3.872200
2.372000 4.459500
2.390000 4.716100
2.408000 5.013000
2.426000 5.437800
2.444000 5.559000
2.462100 5.625500
2.480100 5.672900
2.498100 5.786200
2.516100 5.591700
2.534100 5.255100
2.552200 4.721000
2.570200 4.314900
2.588200 4.009800
2.606200 3.804000
2.624200 3.903800
2.642200 3.747600
2.660300 3.953500
2.678300 4.616300
2.696300 5.013400
2.714300 5.327400
2.732300 5.508900
2.750400 5.783700
2.768400 5.852900
2.786400 6.246000
2.804400 6.536000
2.822400 6.865000
2.840400 8.769500
2.858500 9.027200
2.876500 6.253100
2.894500 6.002600
2.912500 5.700600
2.930500 5.755000
2.948500 5.120100
2.966600 5.746200
2.984600 6.347600
3.002600 7.198400
3.020600 8.523900
3.038600 7.451500
3.056700 6.696600
3.074700 7.028400
3.092700 5.841200
3.110700 6.368200
3.128700 6.580000
3.146700 6.460300
3.164800 6.115500
3.182800 5.785500
3.200800 5.668900
3.218800 5.589100
3.236800 5.548300
3.254800 5.365400
3.272900 5.722900
3.290900 6.907100
3.308900 8.131600
3.326900 7.049600
3.344900 6.275300
3.363000 6.219100
3.381000 5.735600
3.399000 5.378200
3.417000 5.433100
3.435000 5.482800
3.453000 5.461700
3.471100 5.511000
3.489100 5.645200
3.507100 6.039900
3.525100 7.463300
3.543100 7.391000
3.561100 6.740400
3.579200 5.742100
3.597200 4.786000
3.615200 4.058900
3.633200 3.658900
3.651200 3.116200
3.669300 2.556000
3.687300 2.001000
3.705300 1.169000
3.723300 1.187700
3.741300 0.718100
3.759300 0.589900
3.777400 0.465000
3.795400 0.497800
3.813400 0.301600
3.831400 0.264800
3.849400 0.231400
3.867500 0.201300
3.885500 0.174700
3.903500 0.172300
3.921500 0.136400
3.939500 0.104200
3.957500 0.075700
3.975600 0.000000
3.993600 0.000000
4.011600 0.000000
4.029600 0.000000
4.047600 0.000000
4.065600 0.000000
4.083700 0.000000
4.101700 0.000000
4.119700 0.000000
4.137700 0.000000
4.155700 0.000000
4.173800 0.000000
4.191800 0.000000
4.209800 0.000000
4.227800 0.000000
4.245800 0.000000
4.263800 0.000000
4.281900 0.000000
4.299900 0.000000
4.317900 0.000000
4.335900 0.000000
4.353900 0.000000
4.371900 0.000000
4.390000 0.000000
4.408000 0.000000
4.426000 0.000000
4.444000 0.000000
4.462000 0.000000
4.480100 0.000000
4.498100 0.000000
4.516100 0.000000
4.534100 0.000000
4.552100 0.000000
4.570100 0.000000
4.588200 0.000000
4.606200 0.000000
4.624200 0.000000
4.642200 0.000000
4.660200 0.000000
4.678200 0.000000
4.696300 0.000000
4.714300 0.000000
4.732300 0.000000
4.750300 0.000000
4.768300 0.000000
4.786400 0.000000
4.804400 0.000000
4.822400 0.000000
4.840400 0.000000
4.858400 0.000000
4.876400 0.000000
4.894500 0.000000
4.912500 0.000000
4.930500 0.000000
4.948500 0.000000
4.966500 0.000000
4.984600 0.000000
5.002600 0.000000
5.020600 0.000000
5.038600 0.000000
5.056600 0.000000
5.074600 0.000000
5.092700 0.000000
5.110700 0.000000
5.128700 0.000000
5.146700 0.000000
5.164700 0.000000
5.182700 0.000000
5.200800 0.000000
5.218800 0.000000
5.236800 0.000000
5.254800 0.000000
5.272800 0.000000
5.290900 0.253100
5.308900 0.412300
5.326900 0.362300
5.344900 0.428100
5.362900 0.493900
5.380900 0.563300
5.399000 0.636600
5.417000 0.791700
5.435000 0.907200
5.453000 0.880000
5.471000 0.935600
5.489000 0.980700
5.507100 1.024500
5.525100 1.030300
5.543100 1.069200
5.561100 1.107100
5.579100 1.132600
5.597200 1.125600
5.615200 1.103400
5.633200 1.071000
5.651200 1.078100
5.669200 1.084700
5.687200 1.090900
5.705300 1.096200
5.723300 1.106500
5.741300 1.123400
5.759300 1.141800
5.777300 1.160600
5.795300 1.196300
5.813400 1.221300
5.831400 1.245700
5.849400 1.248100
5.867400 1.264800
5.885400 1.280500
5.903500 1.294500
5.921500 1.307500
5.939500 1.319300
5.957500 1.327500
5.975500 1.335600
5.993500 1.349600
6.011600 1.364400
6.029600 1.377100
6.047600 1.398600
6.065600 1.420400
6.083600 1.430600
6.101700 1.441900
6.119700 1.454300
6.137700 1.467400
6.155700 1.482600
6.173700 1.493100
6.191700 1.504400
6.209800 1.516100
6.227800 1.528600
6.245800 1.556500
6.263800 1.593500
6.281800 1.625800
6.299800 1.667600
6.317900 1.704100
6.335900 1.729800
6.353900 1.750300
6.371900 1.766600
6.389900 1.785200
6.408000 1.804000
6.426000 1.821800
6.444000 1.839400
6.462000 1.845200
6.480000 1.856200
6.498000 1.890300
6.516100 1.913400
6.534100 1.931700
6.552100 1.954300
6.570100 1.979500
6.588100 2.012600
6.606100 2.052000
6.624200 2.097600
6.642200 2.923400
6.660200 2.875100
6.678200 2.793400
6.696200 2.800000
6.714300 2.957200
6.732300 2.756300
6.750300 2.503100
6.768300 2.541000
6.786300 2.563600
6.804300 2.450000
6.822400 2.381000
