set title 'mp-556750 - Density of States'
set xlabel 'Energy (eV)'
set ylabel 'DOS (states/eV)'
set grid
set xrange [-10:10]
set yrange [0:5.652]
set xzeroaxis lt -1
set terminal png size 800,600
set output 'mp-556750_dos_gnuplot.png'
plot '-' using 1:2 with lines title 'DOS'
-26.904800 0.000000
-26.863000 0.000000
-26.821300 0.000000
-26.779500 0.000000
-26.737700 0.000000
-26.695900 0.000000
-26.654100 0.000000
-26.612300 0.000000
-26.570500 0.000000
-26.528800 0.000000
-26.487000 0.000000
-26.445200 0.000000
-26.403400 0.000000
-26.361600 0.000000
-26.319800 0.000000
-26.278100 0.000000
-26.236300 0.000000
-26.194500 0.000000
-26.152700 0.000000
-26.110900 0.000000
-26.069100 0.000000
-26.027300 0.000000
-25.985600 0.000000
-25.943800 0.000000
-25.902000 0.000000
-25.860200 0.000000
-25.818400 0.000000
-25.776600 0.000000
-25.734900 0.000000
-25.693100 0.000000
-25.651300 0.000000
-25.609500 0.000000
-25.567700 0.000000
-25.525900 0.000000
-25.484100 0.000000
-25.442400 0.000000
-25.400600 0.000000
-25.358800 0.000000
-25.317000 0.000000
-25.275200 0.000000
-25.233400 0.000000
-25.191700 0.000000
-25.149900 0.000000
-25.108100 0.000000
-25.066300 0.000000
-25.024500 0.000000
-24.982700 0.000000
-24.940900 0.000000
-24.899200 0.000000
-24.857400 0.000000
-24.815600 0.000000
-24.773800 0.000000
-24.732000 0.000000
-24.690200 0.000000
-24.648500 0.000000
-24.606700 0.000000
-24.564900 0.000000
-24.523100 0.000000
-24.481300 0.000000
-24.439500 0.000000
-24.397800 0.000000
-24.356000 0.000000
-24.314200 0.000000
-24.272400 0.000000
-24.230600 0.000000
-24.188800 0.000000
-24.147000 0.000000
-24.105300 0.000000
-24.063500 0.000000
-24.021700 0.000000
-23.979900 0.000000
-23.938100 0.000000
-23.896300 0.000000
-23.854600 0.000000
-23.812800 0.000000
-23.771000 0.000000
-23.729200 0.000000
-23.687400 0.000000
-23.645600 0.000000
-23.603800 0.000000
-23.562100 0.000000
-23.520300 0.000000
-23.478500 0.000000
-23.436700 0.000000
-23.394900 0.000000
-23.353100 0.000000
-23.311400 0.000000
-23.269600 0.000000
-23.227800 0.000000
-23.186000 0.000000
-23.144200 0.000000
-23.102400 0.481300
-23.060600 0.373300
-23.018900 0.331000
-22.977100 0.365700
-22.935300 0.366700
-22.893500 0.365500
-22.851700 0.382200
-22.809900 0.401100
-22.768200 0.395000
-22.726400 0.403900
-22.684600 0.417000
-22.642800 0.430700
-22.601000 0.438100
-22.559200 0.449900
-22.517400 0.462200
-22.475700 0.477800
-22.433900 0.494200
-22.392100 0.512200
-22.350300 0.529500
-22.308500 0.549000
-22.266700 0.573000
-22.225000 0.594500
-22.183200 0.632700
-22.141400 0.667800
-22.099600 0.708800
-22.057800 0.745300
-22.016000 0.820200
-21.974300 0.915700
-21.932500 1.022600
-21.890700 1.342800
-21.848900 1.195700
-21.807100 1.040600
-21.765300 0.941200
-21.723500 0.916600
-21.681800 0.880700
-21.640000 0.929600
-21.598200 1.121900
-21.556400 10.632300
-21.514600 4.080100
-21.472800 3.098100
-21.431100 2.660200
-21.389300 2.396300
-21.347500 2.169700
-21.305700 1.974200
-21.263900 1.955600
-21.222100 0.000000
-21.180300 0.000000
-21.138600 0.000000
-21.096800 0.000000
-21.055000 0.000000
-21.013200 0.000000
-20.971400 0.000000
-20.929600 0.000000
-20.887900 0.000000
-20.846100 0.000000
-20.804300 0.000000
-20.762500 0.000000
-20.720700 0.000000
-20.678900 0.000000
-20.637100 0.000000
-20.595400 0.000000
-20.553600 0.000000
-20.511800 0.000000
-20.470000 0.000000
-20.428200 0.000000
-20.386400 0.000000
-20.344700 0.000000
-20.302900 0.000000
-20.261100 0.000000
-20.219300 0.000000
-20.177500 0.000000
-20.135700 0.000000
-20.093900 0.000000
-20.052200 0.000000
-20.010400 0.000000
-19.968600 0.000000
-19.926800 0.000000
-19.885000 0.000000
-19.843200 0.000000
-19.801500 0.000000
-19.759700 0.000000
-19.717900 0.000000
-19.676100 0.000000
-19.634300 0.000000
-19.592500 0.000000
-19.550800 0.000000
-19.509000 0.000000
-19.467200 0.000000
-19.425400 0.000000
-19.383600 0.000000
-19.341800 0.000000
-19.300000 0.000000
-19.258300 0.000000
-19.216500 0.000000
-19.174700 0.000000
-19.132900 0.000000
-19.091100 0.000000
-19.049300 0.000000
-19.007600 0.000000
-18.965800 0.000000
-18.924000 0.000000
-18.882200 0.000000
-18.840400 0.000000
-18.798600 0.000000
-18.756800 0.000000
-18.715100 0.000000
-18.673300 0.000000
-18.631500 0.000000
-18.589700 0.000000
-18.547900 0.000000
-18.506100 0.000000
-18.464400 0.000000
-18.422600 0.000000
-18.380800 0.000000
-18.339000 0.000000
-18.297200 0.000000
-18.255400 0.000000
-18.213600 0.000000
-18.171900 0.000000
-18.130100 0.000000
-18.088300 0.000000
-18.046500 0.000000
-18.004700 0.000000
-17.962900 0.000000
-17.921200 0.000000
-17.879400 0.000000
-17.837600 0.000000
-17.795800 0.000000
-17.754000 0.000000
-17.712200 0.000000
-17.670400 0.000000
-17.628700 0.000000
-17.586900 0.000000
-17.545100 0.000000
-17.503300 0.000000
-17.461500 0.000000
-17.419700 0.000000
-17.378000 0.000000
-17.336200 0.000000
-17.294400 0.000000
-17.252600 0.000000
-17.210800 0.000000
-17.169000 0.000000
-17.127300 0.000000
-17.085500 0.000000
-17.043700 0.000000
-17.001900 0.000000
-16.960100 0.000000
-16.918300 0.000000
-16.876500 0.000000
-16.834800 0.000000
-16.793000 0.000000
-16.751200 0.000000
-16.709400 0.000000
-16.667600 0.000000
-16.625800 0.000000
-16.584100 0.000000
-16.542300 0.000000
-16.500500 0.000000
-16.458700 0.000000
-16.416900 0.000000
-16.375100 0.000000
-16.333300 0.000000
-16.291600 0.000000
-16.249800 0.000000
-16.208000 0.000000
-16.166200 0.000000
-16.124400 0.000000
-16.082600 0.000000
-16.040900 0.000000
-15.999100 0.000000
-15.957300 0.000000
-15.915500 0.000000
-15.873700 0.000000
-15.831900 0.000000
-15.790100 0.000000
-15.748400 0.000000
-15.706600 0.000000
-15.664800 0.000000
-15.623000 0.000000
-15.581200 0.000000
-15.539400 0.000000
-15.497700 0.000000
-15.455900 0.000000
-15.414100 0.000000
-15.372300 0.000000
-15.330500 0.000000
-15.288700 0.000000
-15.246900 0.000000
-15.205200 0.000000
-15.163400 0.000000
-15.121600 0.000000
-15.079800 0.000000
-15.038000 0.000000
-14.996200 0.000000
-14.954500 0.000000
-14.912700 0.000000
-14.870900 0.000000
-14.829100 0.000000
-14.787300 0.000000
-14.745500 0.000000
-14.703800 0.000000
-14.662000 0.000000
-14.620200 0.000000
-14.578400 0.000000
-14.536600 0.000000
-14.494800 0.000000
-14.453000 0.000000
-14.411300 0.000000
-14.369500 0.000000
-14.327700 0.000000
-14.285900 0.000000
-14.244100 0.000000
-14.202300 0.000000
-14.160600 0.000000
-14.118800 0.000000
-14.077000 0.000000
-14.035200 0.000000
-13.993400 0.000000
-13.951600 0.000000
-13.909800 0.000000
-13.868100 0.000000
-13.826300 0.000000
-13.784500 0.000000
-13.742700 0.000000
-13.700900 0.000000
-13.659100 0.000000
-13.617400 0.000000
-13.575600 0.000000
-13.533800 0.000000
-13.492000 0.000000
-13.450200 0.000000
-13.408400 0.000000
-13.366600 0.000000
-13.324900 0.000000
-13.283100 0.000000
-13.241300 0.000000
-13.199500 0.000000
-13.157700 0.000000
-13.115900 0.000000
-13.074200 0.000000
-13.032400 0.000000
-12.990600 0.000000
-12.948800 0.000000
-12.907000 0.000000
-12.865200 0.000000
-12.823400 0.000000
-12.781700 0.000000
-12.739900 0.000000
-12.698100 0.000000
-12.656300 0.000000
-12.614500 0.000000
-12.572700 0.000000
-12.531000 0.000000
-12.489200 0.000000
-12.447400 0.000000
-12.405600 0.000000
-12.363800 0.000000
-12.322000 0.000000
-12.280200 0.000000
-12.238500 0.000000
-12.196700 0.000000
-12.154900 0.000000
-12.113100 0.000000
-12.071300 0.000000
-12.029500 0.000000
-11.987800 0.000000
-11.946000 0.000000
-11.904200 0.000000
-11.862400 0.000000
-11.820600 0.000000
-11.778800 0.000000
-11.737100 0.000000
-11.695300 0.000000
-11.653500 0.000000
-11.611700 0.000000
-11.569900 0.594900
-11.528100 0.707800
-11.486300 0.712500
-11.444600 0.854000
-11.402800 2.301100
-11.361000 2.829500
-11.319200 1.630600
-11.277400 1.299900
-11.235600 1.118100
-11.193900 0.916200
-11.152100 0.830100
-11.110300 0.949000
-11.068500 0.958300
-11.026700 0.927300
-10.984900 0.904600
-10.943100 1.432500
-10.901400 1.416800
-10.859600 1.739500
-10.817800 1.577900
-10.776000 3.298400
-10.734200 3.973200
-10.692400 3.489000
-10.650700 3.442900
-10.608900 3.980400
-10.567100 3.453100
-10.525300 3.133800
-10.483500 2.164300
-10.441700 1.357200
-10.399900 1.106700
-10.358200 0.898200
-10.316400 0.526900
-10.274600 0.567600
-10.232800 0.664800
-10.191000 0.719100
-10.149200 0.712100
-10.107500 0.645100
-10.065700 0.641800
-10.023900 0.949100
-9.982100 1.176800
-9.940300 1.332800
-9.898500 1.503500
-9.856700 1.677600
-9.815000 2.032600
-9.773200 2.299200
-9.731400 2.286500
-9.689600 2.043500
-9.647800 2.016900
-9.606000 2.191500
-9.564300 2.734800
-9.522500 2.157200
-9.480700 1.577000
-9.438900 1.985000
-9.397100 1.248400
-9.355300 1.123000
-9.313600 1.332400
-9.271800 1.663100
-9.230000 1.234100
-9.188200 1.267200
-9.146400 0.891800
-9.104600 0.858100
-9.062800 0.881300
-9.021100 0.910100
-8.979300 1.028500
-8.937500 1.285900
-8.895700 0.920600
-8.853900 0.950000
-8.812100 0.945300
-8.770400 1.699500
-8.728600 0.833500
-8.686800 0.805700
-8.645000 0.776400
-8.603200 0.838800
-8.561400 0.909000
-8.519600 0.982900
-8.477900 1.070800
-8.436100 1.127400
-8.394300 1.630600
-8.352500 1.268700
-8.310700 1.379800
-8.268900 2.119300
-8.227200 0.851600
-8.185400 0.249500
-8.143600 0.292800
-8.101800 0.284900
-8.060000 0.468700
-8.018200 0.548300
-7.976400 0.638500
-7.934700 0.933600
-7.892900 0.765900
-7.851100 0.849900
-7.809300 0.912600
-7.767500 0.884700
-7.725700 0.684900
-7.684000 0.672400
-7.642200 0.790900
-7.600400 0.781200
-7.558600 0.836500
-7.516800 1.163900
-7.475000 1.417500
-7.433200 1.599200
-7.391500 1.488100
-7.349700 1.511900
-7.307900 1.411200
-7.266100 1.670800
-7.224300 1.288700
-7.182500 1.302000
-7.140800 1.334200
-7.099000 1.413200
-7.057200 1.104900
-7.015400 0.987300
-6.973600 0.979800
-6.931800 0.978000
-6.890100 1.089400
-6.848300 1.018000
-6.806500 0.909100
-6.764700 0.770300
-6.722900 2.058300
-6.681100 1.443600
-6.639300 1.528400
-6.597600 1.888500
-6.555800 1.749300
-6.514000 1.847400
-6.472200 2.129000
-6.430400 1.779600
-6.388600 1.591100
-6.346900 1.418900
-6.305100 1.266100
-6.263300 1.304500
-6.221500 1.696700
-6.179700 1.548400
-6.137900 1.366200
-6.096100 1.193900
-6.054400 1.184800
-6.012600 1.174600
-5.970800 1.166700
-5.929000 1.149500
-5.887200 1.136900
-5.845400 1.203100
-5.803700 1.281000
-5.761900 1.325800
-5.720100 2.349200
-5.678300 1.770600
-5.636500 1.789700
-5.594700 1.639500
-5.552900 1.143300
-5.511200 1.102100
-5.469400 1.063700
-5.427600 1.057900
-5.385800 1.062600
-5.344000 1.239900
-5.302200 1.931300
-5.260500 0.684500
-5.218700 2.337800
-5.176900 1.126600
-5.135100 1.179400
-5.093300 2.213700
-5.051500 0.866300
-5.009700 1.212600
-4.968000 0.000000
-4.926200 0.000000
-4.884400 0.000000
-4.842600 0.000000
-4.800800 0.000000
-4.759000 0.000000
-4.717300 0.778000
-4.675500 0.752600
-4.633700 0.677500
-4.591900 0.726600
-4.550100 0.831800
-4.508300 0.934100
-4.466600 5.138300
-4.424800 3.352000
-4.383000 2.195500
-4.341200 1.957900
-4.299400 1.817000
-4.257600 1.783900
-4.215800 1.125600
-4.174100 0.879900
-4.132300 0.747900
-4.090500 0.675000
-4.048700 0.670000
-4.006900 0.201800
-3.965100 0.243800
-3.923400 0.321900
-3.881600 0.245100
-3.839800 0.278100
-3.798000 0.284000
-3.756200 0.295500
-3.714400 0.345900
-3.672600 0.381400
-3.630900 0.414200
-3.589100 0.472100
-3.547300 0.592300
-3.505500 0.673800
-3.463700 1.664900
-3.421900 2.684000
-3.380200 1.091900
-3.338400 1.038700
-3.296600 0.894200
-3.254800 0.890100
-3.213000 0.935500
-3.171200 0.952800
-3.129400 1.030100
-3.087700 1.178800
-3.045900 1.614800
-3.004100 1.489200
-2.962300 1.187800
-2.920500 1.035000
-2.878700 0.307400
-2.837000 0.283900
-2.795200 0.378800
-2.753400 0.000000
-2.711600 0.000000
-2.669800 0.000000
-2.628000 0.000000
-2.586200 0.000000
-2.544500 0.000000
-2.502700 0.000000
-2.460900 0.000000
-2.419100 0.000000
-2.377300 0.000000
-2.335500 0.000000
-2.293800 0.000000
-2.252000 0.000000
-2.210200 0.000000
-2.168400 0.000000
-2.126600 0.000000
-2.084800 0.000000
-2.043100 0.000000
-2.001300 0.000000
-1.959500 0.000000
-1.917700 0.000000
-1.875900 0.000000
-1.834100 0.000000
-1.792300 0.000000
-1.750600 0.000000
-1.708800 0.000000
-1.667000 0.000000
-1.625200 0.000000
-1.583400 0.000000
-1.541600 0.000000
-1.499900 0.000000
-1.458100 0.000000
-1.416300 0.000000
-1.374500 0.000000
-1.332700 0.000000
-1.290900 0.000000
-1.249100 0.000000
-1.207400 0.000000
-1.165600 0.000000
-1.123800 0.000000
-1.082000 0.000000
-1.040200 0.000000
-0.998400 0.000000
-0.956700 0.000000
-0.914900 0.000000
-0.873100 0.000000
-0.831300 0.000000
-0.789500 0.000000
-0.747700 0.000000
-0.705900 0.000000
-0.664200 0.000000
-0.622400 0.000000
-0.580600 0.000000
-0.538800 0.000000
-0.497000 0.000000
-0.455200 0.000000
-0.413500 0.000000
-0.371700 0.000000
-0.329900 0.000000
-0.288100 0.000000
-0.246300 0.000000
-0.204500 0.000000
-0.162700 0.000000
-0.121000 0.000000
-0.079200 0.000000
-0.037400 0.000000
0.004400 0.000000
0.046200 0.000000
0.088000 0.000000
0.129700 0.000000
0.171500 0.000000
0.213300 0.000000
0.255100 0.000000
0.296900 0.000000
0.338700 0.000000
0.380400 0.000000
0.422200 0.000000
0.464000 0.000000
0.505800 0.000000
0.547600 0.000000
0.589400 0.000000
0.631200 0.000000
0.672900 0.000000
0.714700 0.000000
0.756500 0.000000
0.798300 0.000000
0.840100 0.000000
0.881900 0.000000
0.923600 0.000000
0.965400 0.000000
1.007200 0.000000
1.049000 0.000000
1.090800 0.000000
1.132600 0.000000
1.174400 0.000000
1.216100 0.000000
1.257900 0.000000
1.299700 0.000000
1.341500 0.000000
1.383300 0.000000
1.425100 0.000000
1.466800 0.000000
1.508600 0.000000
1.550400 0.000000
1.592200 0.000000
1.634000 0.000000
1.675800 0.000000
1.717600 0.000000
1.759300 0.000000
1.801100 0.000000
1.842900 0.000000
1.884700 0.000000
1.926500 0.000000
1.968300 0.000000
2.010000 0.000000
2.051800 0.000000
2.093600 0.000000
2.135400 0.000000
2.177200 0.000000
2.219000 0.000000
2.260800 0.000000
2.302500 0.000000
2.344300 0.000000
2.386100 0.000000
2.427900 0.000000
2.469700 0.000000
2.511500 0.000000
2.553200 0.000000
2.595000 0.000000
2.636800 0.040800
2.678600 0.050300
2.720400 0.069000
2.762200 0.102800
2.803900 0.100600
2.845700 0.104100
2.887500 0.106500
2.929300 0.105800
2.971100 0.105100
3.012900 0.105900
3.054700 0.107400
3.096400 0.110600
3.138200 0.112200
3.180000 0.114100
3.221800 0.115500
3.263600 0.116200
3.305400 0.115500
3.347100 0.116500
3.388900 0.117600
3.430700 0.118900
3.472500 0.146200
3.514300 0.166400
3.556100 0.179300
3.597900 0.190900
3.639600 0.198700
3.681400 0.206000
3.723200 0.215600
3.765000 0.225200
3.806800 0.235300
3.848600 0.243800
3.890300 0.299500
3.932100 0.285700
3.973900 0.293100
4.015700 0.295000
4.057500 0.294900
4.099300 0.296600
4.141100 0.300600
4.182800 0.303900
4.224600 0.305400
4.266400 0.304800
4.308200 0.305700
4.350000 0.306500
4.391800 0.308300
4.433500 0.310800
4.475300 0.313300
4.517100 0.315600
4.558900 0.317000
4.600700 0.318000
4.642500 0.319800
4.684300 0.321900
4.726000 0.360100
4.767800 0.361800
4.809600 0.369500
4.851400 0.376700
4.893200 0.381500
4.935000 0.386100
4.976700 0.391000
5.018500 0.396700
5.060300 0.403300
5.102100 0.410400
5.143900 0.417300
5.185700 0.424200
5.227400 0.430600
5.269200 0.437000
5.311000 0.443800
5.352800 0.487900
5.394600 0.478700
5.436400 0.485000
5.478200 0.488700
5.519900 0.488100
5.561700 0.488900
5.603500 0.490600
5.645300 0.495100
5.687100 0.499700
5.728900 0.503600
5.770600 0.506700
5.812400 0.509700
5.854200 0.513400
5.896000 0.516900
5.937800 0.544900
5.979600 0.559100
6.021400 0.569000
6.063100 0.579800
6.104900 0.590500
6.146700 0.600900
6.188500 0.611000
6.230300 0.619000
6.272100 0.629300
6.313800 0.663500
6.355600 0.665300
6.397400 0.675600
6.439200 0.686400
6.481000 0.695700
6.522800 0.703200
6.564600 0.712300
6.606300 0.722400
6.648100 0.731600
6.689900 0.743200
6.731700 0.755800
6.773500 0.769100
6.815300 0.859300
6.857000 0.849100
6.898800 0.819200
6.940600 0.794400
6.982400 0.802100
7.024200 0.813800
7.066000 0.838100
7.107800 0.874900
7.149500 0.904800
7.191300 0.833300
7.233100 0.827200
7.274900 0.821700
7.316700 0.814800
7.358500 0.807100
7.400200 0.803100
7.442000 0.809600
7.483800 0.818700
7.525600 0.829400
7.567400 0.842800
7.609200 0.862200
7.650900 0.876000
7.692700 0.896300
7.734500 0.909000
7.776300 0.884500
7.818100 0.905400
7.859900 0.966500
7.901700 0.921000
7.943400 0.874700
7.985200 0.945900
8.027000 0.981200
8.068800 1.052100
8.110600 1.040500
8.152400 1.070700
8.194100 1.109800
8.235900 1.129800
8.277700 1.135100
8.319500 1.096000
8.361300 1.068100
8.403100 1.019000
8.444900 0.998800
8.486600 1.234300
8.528400 1.210100
8.570200 1.211600
8.612000 1.250200
8.653800 1.263600
8.695600 1.272900
8.737300 1.290200
8.779100 1.228200
8.820900 1.214000
8.862700 1.185200
8.904500 1.146400
8.946300 1.128100
8.988100 1.092700
9.029800 1.022600
9.071600 0.994700
9.113400 0.951800
9.155200 0.926200
9.197000 0.905200
9.238800 0.912100
9.280500 0.946000
9.322300 0.936700
9.364100 0.915900
9.405900 0.826700
9.447700 0.768000
9.489500 0.731800
9.531300 0.684800
9.573000 0.990100
9.614800 1.233200
9.656600 1.244700
9.698400 1.408800
9.740200 1.451400
9.782000 1.393800
9.823700 1.375800
9.865500 1.377500
9.907300 1.233900
9.949100 1.002900
9.990900 1.001200
10.032700 0.951300
10.074400 1.016400
10.116200 1.189300
10.158000 1.259800
10.199800 1.266300
10.241600 1.192300
10.283400 1.156800
10.325200 1.142000
10.366900 1.078600
10.408700 1.028700
10.450500 0.978000
10.492300 1.018400
10.534100 1.314800
10.575900 1.304300
10.617600 1.306300
10.659400 1.222100
10.701200 1.142700
10.743000 1.149100
10.784800 0.852800
10.826600 0.826900
10.868400 0.750600
10.910100 0.676600
10.951900 0.615100
10.993700 0.646100
11.035500 0.737700
11.077300 0.971900
11.119100 1.037300
11.160800 1.217700
11.202600 1.367900
11.244400 1.293200
11.286200 1.231200
11.328000 1.200800
11.369800 1.188400
11.411600 1.415900
11.453300 1.522800
11.495100 1.840700
11.536900 1.815300
11.578700 1.596500
11.620500 1.507900
11.662300 1.509700
11.704000 1.426100
11.745800 1.279300
11.787600 1.217300
11.829400 1.403800
11.871200 1.264200
11.913000 1.189800
11.954800 1.165900
11.996500 1.252600
12.038300 1.290400
12.080100 1.180500
12.121900 1.138500
12.163700 1.128300
12.205500 1.116600
12.247200 1.012600
12.289000 0.982100
12.330800 0.991300
12.372600 1.043900
12.414400 1.013800
12.456200 0.951300
12.497900 0.947100
12.539700 0.974200
12.581500 0.981300
12.623300 0.992800
12.665100 0.979800
12.706900 0.952200
12.748700 0.934900
12.790400 0.942900
12.832200 0.938800
12.874000 0.939200
12.915800 0.955100
12.957600 0.980700
12.999400 1.015700
13.041100 1.050400
13.082900 1.066100
13.124700 1.127700
13.166500 1.008700
13.208300 0.988700
13.250100 1.000100
13.291900 1.017300
13.333600 1.025400
13.375400 1.011400
13.417200 1.059600
13.459000 1.025400
13.500800 1.031600
13.542600 1.026300
13.584300 0.983700
13.626100 0.978200
13.667900 0.966200
13.709700 1.029400
13.751500 1.138100
13.793300 0.971500
13.835100 0.915800
13.876800 0.920600
13.918600 0.868200
13.960400 0.832700
14.002200 0.807800
14.044000 0.806200
14.085800 0.808300
14.127500 0.815700
14.169300 0.835600
14.211100 0.874800
14.252900 0.886900
14.294700 0.924400
14.336500 0.945300
14.378300 0.932100
14.420000 0.940100
14.461800 0.962700
14.503600 0.998200
14.545400 1.066900
14.587200 1.025600
14.629000 1.022500
14.670700 0.997200
14.712500 0.990900
14.754300 1.011600
14.796100 1.051500
14.837900 1.113700
14.879700 1.265900
14.921400 1.300500
14.963200 1.249800
15.005000 1.173400
15.046800 1.121400
15.088600 1.114800
15.130400 1.023900
15.172200 1.007400
15.213900 1.038700
15.255700 1.056000
15.297500 1.055000
15.339300 1.082800
15.381100 1.102500
15.422900 1.110000
15.464600 1.110800
15.506400 1.097500
15.548200 1.090500
15.590000 1.089800
15.631800 1.108200
15.673600 1.126100
15.715400 1.121100
15.757100 1.120700
15.798900 1.143200
15.840700 1.154000
15.882500 1.179900
15.924300 1.149700
15.966100 1.105500
16.007800 1.072400
16.049600 1.057500
