set title 'mp-976404 - Density of States'
set xlabel 'Energy (eV)'
set ylabel 'DOS (states/eV)'
set grid
set xrange [-10:10]
set yrange [0:37.413]
set xzeroaxis lt -1
set terminal png size 800,600
set output 'mp-976404_dos_gnuplot.png'
plot '-' using 1:2 with lines title 'DOS'
-27.696200 0.000000
-27.657500 0.000000
-27.618800 0.000000
-27.580000 0.000000
-27.541300 0.000000
-27.502500 0.000000
-27.463800 0.000000
-27.425000 0.000000
-27.386300 0.000000
-27.347500 0.000000
-27.308800 0.000000
-27.270000 0.000000
-27.231300 0.000000
-27.192600 0.000000
-27.153800 0.000000
-27.115100 0.000000
-27.076300 0.000000
-27.037600 0.000000
-26.998800 0.000000
-26.960100 0.000000
-26.921300 0.000000
-26.882600 0.000000
-26.843800 0.000000
-26.805100 0.000000
-26.766400 0.000000
-26.727600 0.000000
-26.688900 0.000000
-26.650100 0.000000
-26.611400 0.000000
-26.572600 0.000000
-26.533900 0.000000
-26.495100 0.000000
-26.456400 0.000000
-26.417600 0.000000
-26.378900 0.000000
-26.340200 0.000000
-26.301400 0.000000
-26.262700 0.000000
-26.223900 0.000000
-26.185200 0.000000
-26.146400 0.000000
-26.107700 0.000000
-26.068900 0.000000
-26.030200 0.000000
-25.991400 0.000000
-25.952700 0.000000
-25.914000 0.000000
-25.875200 0.000000
-25.836500 0.000000
-25.797700 0.000000
-25.759000 0.000000
-25.720200 0.000000
-25.681500 0.000000
-25.642700 0.000000
-25.604000 0.000000
-25.565200 0.000000
-25.526500 0.000000
-25.487800 0.000000
-25.449000 0.000000
-25.410300 0.000000
-25.371500 0.000000
-25.332800 0.000000
-25.294000 0.000000
-25.255300 0.000000
-25.216500 0.000000
-25.177800 0.000000
-25.139000 0.000000
-25.100300 0.000000
-25.061600 0.000000
-25.022800 0.000000
-24.984100 0.000000
-24.945300 0.000000
-24.906600 0.000000
-24.867800 0.000000
-24.829100 0.000000
-24.790300 0.000000
-24.751600 0.000000
-24.712800 0.000000
-24.674100 0.000000
-24.635400 0.000000
-24.596600 0.000000
-24.557900 0.000000
-24.519100 0.000000
-24.480400 0.000000
-24.441600 0.000000
-24.402900 0.000000
-24.364100 0.000000
-24.325400 0.000000
-24.286600 0.000000
-24.247900 0.000000
-24.209200 0.000000
-24.170400 0.060800
-24.131700 1.755100
-24.092900 1.707200
-24.054200 1.664700
-24.015400 1.718100
-23.976700 1.857500
-23.937900 1.807800
-23.899200 1.836100
-23.860400 1.943600
-23.821700 2.021700
-23.783000 2.020700
-23.744200 2.092300
-23.705500 2.159000
-23.666700 2.292300
-23.628000 2.349200
-23.589200 2.410500
-23.550500 2.563600
-23.511700 2.682900
-23.473000 3.067000
-23.434200 4.107200
-23.395500 2.932800
-23.356800 2.568700
-23.318000 2.158000
-23.279300 1.028100
-23.240500 16.271600
-23.201800 3.830200
-23.163000 3.349400
-23.124300 2.953800
-23.085500 2.876000
-23.046800 2.652000
-23.008000 2.490400
-22.969300 2.311100
-22.930600 2.217900
-22.891800 2.171500
-22.853100 2.037800
-22.814300 1.940000
-22.775600 1.809500
-22.736800 1.873500
-22.698100 6.197400
-22.659300 6.951300
-22.620600 8.331400
-22.581800 11.676800
-22.543100 10.890700
-22.504400 5.564100
-22.465600 4.062700
-22.426900 3.099100
-22.388100 2.536900
-22.349400 1.639400
-22.310600 0.811300
-22.271900 0.000000
-22.233100 0.000000
-22.194400 0.000000
-22.155600 0.000000
-22.116900 0.000000
-22.078200 0.000000
-22.039400 0.000000
-22.000700 0.000000
-21.961900 0.000000
-21.923200 0.000000
-21.884400 0.000000
-21.845700 33.292700
-21.806900 38.848200
-21.768200 2.217100
-21.729400 2.314900
-21.690700 2.813600
-21.652000 3.548500
-21.613200 4.205600
-21.574500 5.855500
-21.535700 11.529200
-21.497000 6.221400
-21.458200 5.100400
-21.419500 4.447300
-21.380700 3.616100
-21.342000 0.000000
-21.303200 0.000000
-21.264500 0.000000
-21.225800 0.000000
-21.187000 0.000000
-21.148300 0.000000
-21.109500 0.000000
-21.070800 0.000000
-21.032000 0.000000
-20.993300 0.000000
-20.954500 0.000000
-20.915800 0.000000
-20.877000 0.000000
-20.838300 0.000000
-20.799600 0.000000
-20.760800 0.000000
-20.722100 0.000000
-20.683300 0.000000
-20.644600 0.000000
-20.605800 0.000000
-20.567100 0.000000
-20.528300 0.000000
-20.489600 0.000000
-20.450800 0.000000
-20.412100 0.000000
-20.373400 0.000000
-20.334600 0.000000
-20.295900 0.000000
-20.257100 0.000000
-20.218400 0.000000
-20.179600 0.000000
-20.140900 0.000000
-20.102100 0.000000
-20.063400 0.000000
-20.024600 0.000000
-19.985900 0.000000
-19.947200 0.000000
-19.908400 0.000000
-19.869700 0.000000
-19.830900 0.000000
-19.792200 0.000000
-19.753400 0.000000
-19.714700 0.000000
-19.675900 0.000000
-19.637200 0.000000
-19.598400 0.000000
-19.559700 0.000000
-19.521000 0.000000
-19.482200 0.000000
-19.443500 0.000000
-19.404700 0.000000
-19.366000 0.000000
-19.327200 0.000000
-19.288500 0.000000
-19.249700 0.000000
-19.211000 0.000000
-19.172200 0.000000
-19.133500 0.000000
-19.094800 0.000000
-19.056000 0.000000
-19.017300 0.000000
-18.978500 0.000000
-18.939800 0.000000
-18.901000 0.000000
-18.862300 0.000000
-18.823500 0.000000
-18.784800 0.000000
-18.746000 0.000000
-18.707300 0.000000
-18.668600 0.000000
-18.629800 0.000000
-18.591100 0.000000
-18.552300 0.000000
-18.513600 0.000000
-18.474800 0.000000
-18.436100 0.000000
-18.397300 0.000000
-18.358600 0.000000
-18.319800 0.000000
-18.281100 0.000000
-18.242400 0.000000
-18.203600 0.000000
-18.164900 0.000000
-18.126100 0.000000
-18.087400 0.000000
-18.048600 0.000000
-18.009900 0.000000
-17.971100 0.000000
-17.932400 0.000000
-17.893600 0.000000
-17.854900 0.000000
-17.816200 0.000000
-17.777400 0.000000
-17.738700 0.000000
-17.699900 0.000000
-17.661200 0.000000
-17.622400 0.000000
-17.583700 0.000000
-17.544900 0.000000
-17.506200 0.000000
-17.467400 0.000000
-17.428700 0.000000
-17.390000 0.000000
-17.351200 0.000000
-17.312500 0.000000
-17.273700 0.000000
-17.235000 0.000000
-17.196200 0.000000
-17.157500 0.000000
-17.118700 0.000000
-17.080000 0.000000
-17.041200 0.000000
-17.002500 0.000000
-16.963800 0.000000
-16.925000 0.000000
-16.886300 0.000000
-16.847500 0.000000
-16.808800 0.000000
-16.770000 0.000000
-16.731300 0.000000
-16.692500 0.000000
-16.653800 0.000000
-16.615000 0.000000
-16.576300 0.000000
-16.537600 0.000000
-16.498800 0.000000
-16.460100 0.000000
-16.421300 0.000000
-16.382600 0.000000
-16.343800 0.000000
-16.305100 0.000000
-16.266300 0.000000
-16.227600 0.000000
-16.188800 0.000000
-16.150100 0.000000
-16.111400 0.000000
-16.072600 0.000000
-16.033900 0.000000
-15.995100 0.000000
-15.956400 0.000000
-15.917600 0.000000
-15.878900 0.000000
-15.840100 0.000000
-15.801400 0.000000
-15.762600 0.000000
-15.723900 0.000000
-15.685200 0.000000
-15.646400 0.000000
-15.607700 0.000000
-15.568900 0.000000
-15.530200 0.000000
-15.491400 0.000000
-15.452700 0.000000
-15.413900 0.000000
-15.375200 0.000000
-15.336400 0.000000
-15.297700 0.000000
-15.259000 0.000000
-15.220200 0.000000
-15.181500 0.000000
-15.142700 0.000000
-15.104000 0.000000
-15.065200 0.000000
-15.026500 0.000000
-14.987700 0.000000
-14.949000 0.000000
-14.910200 0.000000
-14.871500 0.000000
-14.832800 0.000000
-14.794000 0.000000
-14.755300 0.000000
-14.716500 0.000000
-14.677800 0.000000
-14.639000 0.000000
-14.600300 0.000000
-14.561500 0.000000
-14.522800 0.000000
-14.484000 0.000000
-14.445300 0.000000
-14.406600 0.000000
-14.367800 0.000000
-14.329100 0.000000
-14.290300 0.000000
-14.251600 0.000000
-14.212800 0.000000
-14.174100 0.000000
-14.135300 0.000000
-14.096600 0.000000
-14.057800 0.000000
-14.019100 0.000000
-13.980400 0.000000
-13.941600 0.000000
-13.902900 0.000000
-13.864100 0.000000
-13.825400 0.000000
-13.786600 0.000000
-13.747900 0.000000
-13.709100 0.000000
-13.670400 0.000000
-13.631700 0.000000
-13.592900 0.000000
-13.554200 0.000000
-13.515400 0.000000
-13.476700 0.000000
-13.437900 0.000000
-13.399200 0.000000
-13.360400 0.000000
-13.321700 0.000000
-13.282900 0.000000
-13.244200 0.000000
-13.205500 0.000000
-13.166700 0.000000
-13.128000 0.000000
-13.089200 0.000000
-13.050500 0.000000
-13.011700 0.000000
-12.973000 0.000000
-12.934200 0.000000
-12.895500 0.000000
-12.856700 0.000000
-12.818000 0.000000
-12.779300 0.000000
-12.740500 0.000000
-12.701800 0.000000
-12.663000 0.000000
-12.624300 0.000000
-12.585500 0.000000
-12.546800 0.000000
-12.508000 0.000000
-12.469300 0.000000
-12.430500 0.000000
-12.391800 0.000000
-12.353100 0.000000
-12.314300 0.000000
-12.275600 0.000000
-12.236800 0.000000
-12.198100 0.000000
-12.159300 0.000000
-12.120600 0.000000
-12.081800 0.000000
-12.043100 0.000000
-12.004300 0.000000
-11.965600 0.000000
-11.926900 0.000000
-11.888100 0.000000
-11.849400 0.000000
-11.810600 0.000000
-11.771900 0.000000
-11.733100 0.000000
-11.694400 0.000000
-11.655600 0.000000
-11.616900 0.000000
-11.578100 0.000000
-11.539400 0.000000
-11.500700 0.000000
-11.461900 0.000000
-11.423200 0.000000
-11.384400 0.000000
-11.345700 0.000000
-11.306900 0.000000
-11.268200 0.000000
-11.229400 0.000000
-11.190700 0.000000
-11.151900 0.000000
-11.113200 0.000000
-11.074500 0.000000
-11.035700 0.000000
-10.997000 0.000000
-10.958200 0.000000
-10.919500 0.000000
-10.880700 0.000000
-10.842000 0.000000
-10.803200 0.000000
-10.764500 0.000000
-10.725700 0.000000
-10.687000 0.000000
-10.648300 0.000000
-10.609500 0.000000
-10.570800 0.000000
-10.532000 0.000000
-10.493300 0.000000
-10.454500 0.000000
-10.415800 0.000000
-10.377000 0.000000
-10.338300 0.000000
-10.299500 0.000000
-10.260800 0.000000
-10.222100 0.000000
-10.183300 0.000000
-10.144600 0.000000
-10.105800 0.000000
-10.067100 0.000000
-10.028300 0.000000
-9.989600 0.000000
-9.950800 0.000000
-9.912100 0.000000
-9.873300 0.000000
-9.834600 0.000000
-9.795900 0.000000
-9.757100 0.000000
-9.718400 0.000000
-9.679600 0.000000
-9.640900 0.000000
-9.602100 0.000000
-9.563400 0.000000
-9.524600 0.000000
-9.485900 0.000000
-9.447100 0.000000
-9.408400 0.000000
-9.369700 0.000000
-9.330900 0.000000
-9.292200 0.000000
-9.253400 0.000000
-9.214700 0.000000
-9.175900 0.000000
-9.137200 0.000000
-9.098400 0.000000
-9.059700 0.000000
-9.020900 0.000000
-8.982200 0.000000
-8.943500 0.000000
-8.904700 0.000000
-8.866000 0.000000
-8.827200 0.000000
-8.788500 0.000000
-8.749700 0.000000
-8.711000 0.000000
-8.672200 0.000000
-8.633500 0.000000
-8.594700 0.000000
-8.556000 0.000000
-8.517300 0.000000
-8.478500 0.000000
-8.439800 0.000000
-8.401000 0.000000
-8.362300 0.000000
-8.323500 0.000000
-8.284800 0.000000
-8.246000 0.000000
-8.207300 0.000000
-8.168500 0.000000
-8.129800 0.000000
-8.091100 0.000000
-8.052300 0.000000
-8.013600 0.000000
-7.974800 0.000000
-7.936100 0.000000
-7.897300 0.000000
-7.858600 0.000000
-7.819800 0.000000
-7.781100 0.000000
-7.742300 0.000000
-7.703600 0.000000
-7.664900 0.000000
-7.626100 0.000000
-7.587400 0.000000
-7.548600 0.000000
-7.509900 0.000000
-7.471100 0.000000
-7.432400 0.000000
-7.393600 0.000000
-7.354900 0.000000
-7.316100 0.000000
-7.277400 0.000000
-7.238700 0.000000
-7.199900 0.000000
-7.161200 0.000000
-7.122400 0.000000
-7.083700 0.000000
-7.044900 0.000000
-7.006200 0.000000
-6.967400 0.000000
-6.928700 0.000000
-6.889900 0.000000
-6.851200 0.000000
-6.812500 0.000000
-6.773700 0.000000
-6.735000 0.000000
-6.696200 0.692900
-6.657500 0.762400
-6.618700 1.172700
-6.580000 1.842800
-6.541200 1.509500
-6.502500 1.655600
-6.463700 1.832000
-6.425000 1.724600
-6.386300 1.648900
-6.347500 1.676400
-6.308800 1.787900
-6.270000 1.893900
-6.231300 1.963900
-6.192500 1.876800
-6.153800 1.875000
-6.115000 1.946900
-6.076300 2.030800
-6.037500 2.133600
-5.998800 2.264200
-5.960100 2.225100
-5.921300 2.303900
-5.882600 2.443300
-5.843800 2.582100
-5.805100 3.611600
-5.766300 3.369900
-5.727600 3.451600
-5.688800 3.447700
-5.650100 3.449300
-5.611300 3.447400
-5.572600 3.362200
-5.533900 3.387200
-5.495100 3.502600
-5.456400 3.656700
-5.417600 3.956100
-5.378900 4.366800
-5.340100 4.851800
-5.301400 5.634000
-5.262600 5.319700
-5.223900 4.589300
-5.185100 3.045200
-5.146400 2.570800
-5.107700 4.350000
-5.068900 6.424300
-5.030200 6.092700
-4.991400 6.100300
-4.952700 5.931300
-4.913900 5.330700
-4.875200 4.658300
-4.836400 2.674100
-4.797700 1.995600
-4.758900 2.399100
-4.720200 2.843900
-4.681500 3.195900
-4.642700 4.382300
-4.604000 5.082300
-4.565200 5.138200
-4.526500 5.173100
-4.487700 4.457900
-4.449000 4.140300
-4.410200 3.748300
-4.371500 3.687000
-4.332700 3.653900
-4.294000 3.500700
-4.255300 3.472600
-4.216500 3.446500
-4.177800 3.683200
-4.139000 3.786500
-4.100300 3.655800
-4.061500 3.694700
-4.022800 3.776500
-3.984000 5.831100
-3.945300 6.692600
-3.906500 5.545000
-3.867800 5.930100
-3.829100 7.619300
-3.790300 6.819800
-3.751600 7.507600
-3.712800 6.940700
-3.674100 6.553700
-3.635300 6.632300
-3.596600 6.824700
-3.557800 7.579400
-3.519100 10.829600
-3.480300 11.157000
-3.441600 34.012100
-3.402900 15.443600
-3.364100 13.451600
-3.325400 4.772500
-3.286600 5.706100
-3.247900 7.878600
-3.209100 9.424700
-3.170400 11.483400
-3.131600 8.164800
-3.092900 7.751900
-3.054100 6.998200
-3.015400 4.602300
-2.976700 3.244100
-2.937900 4.089700
-2.899200 2.820300
-2.860400 4.135900
-2.821700 2.093000
-2.782900 1.698700
-2.744200 0.000000
-2.705400 0.000000
-2.666700 0.000000
-2.627900 0.000000
-2.589200 0.000000
-2.550500 0.000000
-2.511700 0.000000
-2.473000 0.000000
-2.434200 0.000000
-2.395500 0.000000
-2.356700 0.000000
-2.318000 0.000000
-2.279200 0.000000
-2.240500 0.000000
-2.201700 0.000000
-2.163000 0.000000
-2.124300 0.000000
-2.085500 0.000000
-2.046800 0.000000
-2.008000 0.000000
-1.969300 0.000000
-1.930500 0.000000
-1.891800 0.000000
-1.853000 0.000000
-1.814300 0.000000
-1.775500 0.000000
-1.736800 0.000000
-1.698100 0.000000
-1.659300 0.000000
-1.620600 0.000000
-1.581800 0.000000
-1.543100 0.000000
-1.504300 0.000000
-1.465600 0.000000
-1.426800 0.000000
-1.388100 0.000000
-1.349300 0.000000
-1.310600 0.000000
-1.271900 0.000000
-1.233100 0.000000
-1.194400 0.000000
-1.155600 0.000000
-1.116900 0.000000
-1.078100 0.000000
-1.039400 0.000000
-1.000600 0.000000
-0.961900 0.000000
-0.923100 0.000000
-0.884400 0.000000
-0.845700 0.000000
-0.806900 0.000000
-0.768200 0.000000
-0.729400 0.000000
-0.690700 0.000000
-0.651900 0.000000
-0.613200 0.000000
-0.574400 0.000000
-0.535700 0.000000
-0.496900 0.000000
-0.458200 0.000000
-0.419500 0.000000
-0.380700 0.000000
-0.342000 0.000000
-0.303200 0.000000
-0.264500 0.000000
-0.225700 0.000000
-0.187000 0.000000
-0.148200 0.000000
-0.109500 0.000000
-0.070700 0.000000
-0.032000 0.000000
0.006700 0.000000
0.045500 0.000000
0.084200 0.000000
0.123000 0.000000
0.161700 0.000000
0.200500 0.000000
0.239200 0.000000
0.278000 0.000000
0.316700 0.000000
0.355500 0.000000
0.394200 0.000000
0.432900 0.000000
0.471700 0.000000
0.510400 0.000000
0.549200 0.000000
0.587900 0.000000
0.626700 0.000000
0.665400 0.000000
0.704200 0.000000
0.742900 0.000000
0.781700 0.000000
0.820400 0.000000
0.859100 0.000000
0.897900 0.000000
0.936600 0.000000
0.975400 0.000000
1.014100 0.000000
1.052900 0.000000
1.091600 0.000000
1.130400 0.000000
1.169100 0.000000
1.207900 0.000000
1.246600 0.000000
1.285300 0.000000
1.324100 0.000000
1.362800 0.000000
1.401600 0.000000
1.440300 0.000000
1.479100 0.000000
1.517800 0.000000
1.556600 0.000000
1.595300 0.000000
1.634100 0.000000
1.672800 0.000000
1.711500 0.000000
1.750300 0.000000
1.789000 0.000000
1.827800 0.000000
1.866500 0.000000
1.905300 0.000000
1.944000 0.000000
1.982800 0.000000
2.021500 0.000000
2.060300 0.000000
2.099000 0.000000
2.137700 0.000000
2.176500 0.000000
2.215200 0.000000
2.254000 0.000000
2.292700 0.000000
2.331500 0.000000
2.370200 0.000000
2.409000 0.000000
2.447700 0.000000
2.486500 0.000000
2.525200 0.000000
2.563900 0.000000
2.602700 0.000000
2.641400 0.000000
2.680200 0.000000
2.718900 0.000000
2.757700 0.000000
2.796400 0.000000
2.835200 0.000000
2.873900 0.000000
2.912700 0.000000
2.951400 0.000000
2.990100 0.000000
3.028900 0.000000
3.067600 0.000000
3.106400 0.000000
3.145100 0.000000
3.183900 0.000000
3.222600 0.000000
3.261400 0.000000
3.300100 0.000000
3.338900 0.000000
3.377600 0.000000
3.416300 0.000000
3.455100 0.000000
3.493800 0.000000
3.532600 0.000000
3.571300 0.000000
3.610100 0.000000
3.648800 0.000000
3.687600 0.000000
3.726300 0.000000
3.765100 0.000000
3.803800 0.000000
3.842500 0.000000
3.881300 0.000000
3.920000 0.000000
3.958800 0.000000
3.997500 0.000000
4.036300 0.000000
4.075000 0.000000
4.113800 0.000000
4.152500 0.000000
4.191300 0.000000
4.230000 0.000000
4.268700 0.000000
4.307500 0.000000
4.346200 0.000000
4.385000 0.000000
4.423700 0.000000
4.462500 0.000000
4.501200 0.000000
4.540000 0.000000
4.578700 0.000000
4.617500 0.000000
4.656200 0.000000
4.694900 0.000000
4.733700 0.000000
4.772400 0.000000
4.811200 0.000000
4.849900 0.000000
4.888700 0.000000
4.927400 0.000000
4.966200 0.000000
5.004900 0.000000
5.043700 0.000000
5.082400 0.000000
5.121100 0.000000
5.159900 0.000000
5.198600 0.000000
5.237400 0.000000
5.276100 0.000000
5.314900 0.000000
5.353600 0.000000
5.392400 0.000000
5.431100 0.000000
5.469900 0.000000
5.508600 0.001900
5.547300 0.013700
5.586100 0.032700
5.624800 0.051300
5.663600 0.066700
5.702300 0.075200
5.741100 0.082300
5.779800 0.085500
5.818600 0.091900
5.857300 0.100500
5.896100 0.109300
5.934800 0.118600
5.973500 0.128200
6.012300 0.136800
6.051000 0.141500
6.089800 0.145800
6.128500 0.151300
6.167300 0.157200
6.206000 0.163100
6.244800 0.169300
6.283500 0.175800
6.322300 0.182400
6.361000 0.188900
6.399700 0.195500
6.438500 0.202200
6.477200 0.209200
6.516000 0.216700
6.554700 0.224500
6.593500 0.231100
6.632200 0.237400
6.671000 0.243300
6.709700 0.249600
6.748500 0.256300
6.787200 0.263300
6.825900 0.270500
6.864700 0.277600
6.903400 0.284800
6.942200 0.292200
6.980900 0.300400
7.019700 0.308900
7.058400 0.317700
7.097200 0.326800
7.135900 0.337400
7.174700 0.353100
7.213400 0.373400
7.252100 0.390400
7.290900 0.399500
7.329600 0.400900
7.368400 0.405400
7.407100 0.402500
7.445900 0.406900
7.484600 0.411700
7.523400 0.417000
7.562100 0.420300
7.600900 0.420000
7.639600 0.420700
7.678300 0.422600
7.717100 0.426200
7.755800 0.430200
7.794600 0.434100
7.833300 0.437800
7.872100 0.441200
7.910800 0.444300
7.949600 0.447200
7.988300 0.449900
8.027100 0.452400
8.065800 0.453900
8.104500 0.457600
8.143300 0.461300
8.182000 0.464700
8.220800 0.468000
8.259500 0.471300
8.298300 0.474700
8.337000 0.478100
8.375800 0.481800
8.414500 0.485500
8.453300 0.489100
8.492000 0.492600
8.530700 0.496000
8.569500 0.498600
8.608200 0.501500
8.647000 0.505000
8.685700 0.509100
8.724500 0.513600
8.763200 0.518200
8.802000 0.523000
8.840700 0.528100
8.879500 0.533400
8.918200 0.538800
8.956900 0.545300
8.995700 0.553200
9.034400 0.562100
9.073200 0.572500
9.111900 0.586300
9.150700 0.619400
9.189400 0.654100
9.228200 0.705500
9.266900 0.753800
9.305700 0.792500
9.344400 0.826300
9.383100 0.847100
9.421900 0.838500
9.460600 0.839600
9.499400 0.844600
9.538100 0.843600
9.576900 0.840100
9.615600 0.832600
9.654400 0.816800
9.693100 0.782200
9.731900 0.749100
9.770600 0.724100
9.809300 0.699200
9.848100 0.682200
9.886800 0.669600
9.925600 0.663700
9.964300 0.669300
10.003100 0.670900
10.041800 0.671900
10.080600 0.697400
10.119300 0.752100
10.158100 0.811700
10.196800 0.868800
10.235500 0.912900
10.274300 0.929800
10.313000 0.950500
10.351800 0.969900
10.390500 0.994100
10.429300 1.014200
10.468000 1.032600
10.506800 1.032800
10.545500 1.027100
10.584300 1.029100
10.623000 1.212800
10.661700 0.835500
10.700500 0.830400
10.739200 0.832500
10.778000 0.837200
10.816700 0.853300
10.855500 0.878500
10.894200 0.902800
10.933000 0.914500
10.971700 0.923900
11.010500 0.941000
11.049200 0.962400
11.087900 0.992500
11.126700 1.025400
11.165400 1.041900
11.204200 1.056700
11.242900 1.081500
11.281700 1.107500
11.320400 1.132400
11.359200 1.160100
11.397900 1.192700
11.436700 1.231200
11.475400 1.268600
11.514100 1.307900
11.552900 1.354800
11.591600 1.400500
11.630400 1.452400
11.669100 1.519000
11.707900 1.598300
11.746600 1.689700
11.785400 1.907700
11.824100 1.876000
11.862900 1.846300
11.901600 1.864600
11.940300 1.873800
11.979100 1.909700
12.017800 2.104700
