set title 'mp-1224349 - Density of States'
set xlabel 'Energy (eV)'
set ylabel 'DOS (states/eV)'
set grid
set xrange [-10:10]
set yrange [0:0.685]
set xzeroaxis lt -1
set terminal png size 800,600
set output 'mp-1224349_dos_gnuplot.png'
plot '-' using 1:2 with lines title 'DOS'
-26.702500 0.000000
-26.638800 0.000000
-26.575000 0.000000
-26.511300 0.000000
-26.447500 0.000000
-26.383800 0.000000
-26.320000 0.000000
-26.256300 0.000000
-26.192600 0.000000
-26.128800 0.000000
-26.065100 0.000000
-26.001300 0.000000
-25.937600 0.000000
-25.873900 0.000000
-25.810100 0.000000
-25.746400 0.000000
-25.682600 0.000000
-25.618900 0.000000
-25.555100 0.000000
-25.491400 0.000000
-25.427700 0.000000
-25.363900 0.000000
-25.300200 0.000000
-25.236400 0.000000
-25.172700 0.000000
-25.109000 0.000000
-25.045200 0.000000
-24.981500 0.000000
-24.917700 0.000000
-24.854000 0.000000
-24.790200 0.000000
-24.726500 0.000000
-24.662800 0.000000
-24.599000 0.000000
-24.535300 0.000000
-24.471500 0.000000
-24.407800 0.000000
-24.344100 0.000000
-24.280300 0.000000
-24.216600 0.000000
-24.152800 0.000000
-24.089100 0.000000
-24.025300 0.000000
-23.961600 0.000000
-23.897900 0.000000
-23.834100 0.000000
-23.770400 0.000000
-23.706600 0.000000
-23.642900 0.000000
-23.579200 0.000000
-23.515400 0.000000
-23.451700 0.000000
-23.387900 0.000000
-23.324200 0.000000
-23.260400 0.000000
-23.196700 0.000000
-23.133000 0.000000
-23.069200 0.000000
-23.005500 0.000000
-22.941700 0.000000
-22.878000 0.000000
-22.814300 0.000000
-22.750500 0.000000
-22.686800 0.000000
-22.623000 0.000000
-22.559300 0.000000
-22.495500 0.000000
-22.431800 0.000000
-22.368100 0.000000
-22.304300 0.000000
-22.240600 0.000000
-22.176800 0.000000
-22.113100 0.000000
-22.049400 0.000000
-21.985600 0.000000
-21.921900 0.000000
-21.858100 0.000000
-21.794400 0.000000
-21.730600 0.000000
-21.666900 0.000000
-21.603200 0.000000
-21.539400 0.000000
-21.475700 0.000000
-21.411900 0.000000
-21.348200 0.000000
-21.284500 0.000000
-21.220700 0.000000
-21.157000 0.000000
-21.093200 0.000000
-21.029500 0.000000
-20.965800 0.000000
-20.902000 2.881000
-20.838300 38.774100
-20.774500 60.293700
-20.710800 55.560400
-20.647000 8.118100
-20.583300 0.000000
-20.519600 0.000000
-20.455800 0.000000
-20.392100 0.000000
-20.328300 0.000000
-20.264600 0.000000
-20.200900 0.000000
-20.137100 0.000000
-20.073400 0.000000
-20.009600 0.000000
-19.945900 0.000000
-19.882100 0.000000
-19.818400 0.000000
-19.754700 0.000000
-19.690900 0.000000
-19.627200 0.000000
-19.563400 0.000000
-19.499700 0.000000
-19.436000 0.000000
-19.372200 0.000000
-19.308500 0.000000
-19.244700 0.000000
-19.181000 0.000000
-19.117200 0.000000
-19.053500 0.000000
-18.989800 0.000000
-18.926000 0.000000
-18.862300 0.000000
-18.798500 0.000000
-18.734800 0.000000
-18.671100 0.000000
-18.607300 0.000000
-18.543600 0.000000
-18.479800 0.000000
-18.416100 0.000000
-18.352300 0.000000
-18.288600 0.000000
-18.224900 0.000000
-18.161100 0.000000
-18.097400 0.000000
-18.033600 0.000000
-17.969900 0.000000
-17.906200 0.000000
-17.842400 0.000000
-17.778700 0.000000
-17.714900 0.000000
-17.651200 0.000000
-17.587400 0.000000
-17.523700 0.000000
-17.460000 0.000000
-17.396200 0.000000
-17.332500 0.000000
-17.268700 0.000000
-17.205000 0.000000
-17.141300 0.000000
-17.077500 0.000000
-17.013800 0.000000
-16.950000 0.000000
-16.886300 0.000000
-16.822500 0.000000
-16.758800 0.000000
-16.695100 0.000000
-16.631300 0.000000
-16.567600 0.000000
-16.503800 0.000000
-16.440100 0.000000
-16.376400 0.000000
-16.312600 0.000000
-16.248900 0.000000
-16.185100 0.000000
-16.121400 0.000000
-16.057600 0.000000
-15.993900 0.000000
-15.930200 0.000000
-15.866400 0.000000
-15.802700 0.000000
-15.738900 0.000000
-15.675200 0.000000
-15.611500 0.000000
-15.547700 0.000000
-15.484000 0.000000
-15.420200 0.000000
-15.356500 0.000000
-15.292700 0.000000
-15.229000 0.000000
-15.165300 0.000000
-15.101500 0.000000
-15.037800 0.000000
-14.974000 0.000000
-14.910300 0.000000
-14.846600 0.000000
-14.782800 0.000000
-14.719100 0.000000
-14.655300 0.000000
-14.591600 0.000000
-14.527800 0.000000
-14.464100 0.000000
-14.400400 0.000000
-14.336600 0.000000
-14.272900 0.000000
-14.209100 0.000000
-14.145400 0.000000
-14.081700 0.000000
-14.017900 0.000000
-13.954200 0.000000
-13.890400 0.000000
-13.826700 0.000000
-13.762900 0.000000
-13.699200 0.000000
-13.635500 0.000000
-13.571700 0.000000
-13.508000 0.000000
-13.444200 0.000000
-13.380500 0.000000
-13.316800 0.000000
-13.253000 0.000000
-13.189300 0.000000
-13.125500 0.000000
-13.061800 0.000000
-12.998000 0.000000
-12.934300 0.000000
-12.870600 0.000000
-12.806800 0.000000
-12.743100 0.000000
-12.679300 0.000000
-12.615600 0.000000
-12.551900 0.000000
-12.488100 0.000000
-12.424400 0.000000
-12.360600 0.000000
-12.296900 0.000000
-12.233100 0.000000
-12.169400 0.000000
-12.105700 0.000000
-12.041900 0.000000
-11.978200 0.000000
-11.914400 0.000000
-11.850700 0.000000
-11.787000 0.000000
-11.723200 0.000000
-11.659500 0.000000
-11.595700 0.000000
-11.532000 0.000000
-11.468200 0.000000
-11.404500 0.000000
-11.340800 0.000000
-11.277000 0.000000
-11.213300 0.000000
-11.149500 0.000000
-11.085800 0.000000
-11.022100 0.000000
-10.958300 0.000000
-10.894600 0.000000
-10.830800 0.000000
-10.767100 0.000000
-10.703300 0.000000
-10.639600 0.000000
-10.575900 0.000000
-10.512100 0.000000
-10.448400 0.000000
-10.384600 0.000000
-10.320900 0.000000
-10.257200 0.000000
-10.193400 0.000000
-10.129700 0.000000
-10.065900 0.000000
-10.002200 0.000000
-9.938400 0.000000
-9.874700 0.000000
-9.811000 0.000000
-9.747200 0.000000
-9.683500 0.000000
-9.619700 0.000000
-9.556000 0.000000
-9.492300 0.000000
-9.428500 0.000000
-9.364800 0.000000
-9.301000 0.000000
-9.237300 0.000000
-9.173500 0.000000
-9.109800 0.000000
-9.046100 0.000000
-8.982300 0.000000
-8.918600 0.019200
-8.854800 0.042900
-8.791100 0.053100
-8.727400 0.068200
-8.663600 0.074800
-8.599900 0.081000
-8.536100 0.089200
-8.472400 0.097600
-8.408600 0.104300
-8.344900 0.109500
-8.281200 0.114400
-8.217400 0.119400
-8.153700 0.125100
-8.089900 0.131300
-8.026200 0.136600
-7.962500 0.140800
-7.898700 0.145100
-7.835000 0.149000
-7.771200 0.153200
-7.707500 0.157800
-7.643700 0.162400
-7.580000 0.167000
-7.516300 0.171100
-7.452500 0.174700
-7.388800 0.178500
-7.325000 0.182400
-7.261300 0.185900
-7.197600 0.189700
-7.133800 0.193400
-7.070100 0.197300
-7.006300 0.201200
-6.942600 0.205000
-6.878800 0.208700
-6.815100 0.212100
-6.751400 0.215600
-6.687600 0.219100
-6.623900 0.222900
-6.560100 0.226400
-6.496400 0.229900
-6.432700 0.233600
-6.368900 0.237300
-6.305200 0.241000
-6.241400 0.244900
-6.177700 0.248800
-6.113900 0.252500
-6.050200 0.256300
-5.986500 0.260100
-5.922700 0.264100
-5.859000 0.268100
-5.795200 0.272200
-5.731500 0.276400
-5.667800 0.281700
-5.604000 0.286900
-5.540300 0.292400
-5.476500 0.298000
-5.412800 0.303600
-5.349000 0.309400
-5.285300 0.315500
-5.221600 0.337500
-5.157800 0.336600
-5.094100 0.341100
-5.030300 0.345400
-4.966600 0.347200
-4.902900 0.351600
-4.839100 0.362200
-4.775400 0.365100
-4.711600 0.363300
-4.647900 0.371700
-4.584100 0.365900
-4.520400 0.366500
-4.456700 0.366900
-4.392900 0.366800
-4.329200 0.366700
-4.265400 0.367100
-4.201700 0.368500
-4.138000 0.370900
-4.074200 0.376500
-4.010500 0.388200
-3.946700 0.388800
-3.883000 0.396500
-3.819200 0.395300
-3.755500 0.384500
-3.691800 0.378400
-3.628000 0.370000
-3.564300 0.365200
-3.500500 0.360900
-3.436800 0.353400
-3.373100 0.345000
-3.309300 0.336700
-3.245600 0.341300
-3.181800 0.330300
-3.118100 0.305100
-3.054300 0.292400
-2.990600 0.278800
-2.926900 0.270100
-2.863100 0.262200
-2.799400 0.254600
-2.735600 0.246400
-2.671900 0.239200
-2.608200 0.233100
-2.544400 0.227100
-2.480700 0.221100
-2.416900 0.215300
-2.353200 0.209400
-2.289400 0.204300
-2.225700 0.199600
-2.162000 0.194800
-2.098200 0.190000
-2.034500 0.185100
-1.970700 0.180500
-1.907000 0.175600
-1.843300 0.170900
-1.779500 0.167000
-1.715800 0.163100
-1.652000 0.178000
-1.588300 0.174900
-1.524500 0.178600
-1.460800 0.194500
-1.397100 0.190200
-1.333300 0.194400
-1.269600 0.208800
-1.205800 0.232400
-1.142100 0.238700
-1.078400 0.248100
-1.014600 0.255300
-0.950900 0.265900
-0.887100 0.274200
-0.823400 0.282800
-0.759700 0.282100
-0.695900 0.285200
-0.632200 0.289700
-0.568400 0.296200
-0.504700 0.303700
-0.440900 0.311300
-0.377200 0.314700
-0.313500 0.321000
-0.249700 0.328100
-0.186000 0.335900
-0.122200 0.348300
-0.058500 0.354500
0.005200 0.360200
0.069000 0.368100
0.132700 0.377800
0.196500 0.388400
0.260200 0.390500
0.324000 0.387100
0.387700 0.383300
0.451400 0.379300
0.515200 0.380400
0.578900 0.380300
0.642700 0.380600
0.706400 0.380400
0.770100 0.382400
0.833900 0.388600
0.897600 0.387500
0.961400 0.380800
1.025100 0.384600
1.088900 0.389400
1.152600 0.399900
1.216300 0.409700
1.280100 0.420900
1.343800 0.435000
1.407600 0.448000
1.471300 0.461700
1.535000 0.494100
1.598800 0.489600
1.662500 0.496200
1.726300 0.508600
1.790000 0.522800
1.853800 0.536600
1.917500 0.547800
1.981200 0.558900
2.045000 0.572500
2.108700 0.554600
2.172500 0.550000
2.236200 0.544300
2.299900 0.522800
2.363700 0.521100
2.427400 0.531100
2.491200 0.547500
2.554900 0.550800
2.618700 0.536400
2.682400 0.536000
2.746100 0.509800
2.809900 0.489200
2.873600 0.486600
2.937400 0.480500
3.001100 0.424800
3.064800 0.417800
3.128600 0.414300
3.192300 0.414700
3.256100 0.425400
3.319800 0.428100
3.383600 0.431300
3.447300 0.431100
3.511000 0.433800
3.574800 0.431200
3.638500 0.436500
3.702300 0.442200
3.766000 0.437700
3.829700 0.429200
3.893500 0.427900
3.957200 0.426800
4.021000 0.426500
4.084700 0.431300
4.148500 0.434100
4.212200 0.443000
4.275900 0.449100
4.339700 0.452500
4.403400 0.450600
4.467200 0.449200
4.530900 0.447200
4.594600 0.444500
4.658400 0.443100
4.722100 0.436900
4.785900 0.440100
4.849600 0.443800
4.913400 0.446400
4.977100 0.449900
5.040800 0.455800
5.104600 0.460500
5.168300 0.468300
5.232100 0.452600
5.295800 0.447300
5.359500 0.445800
5.423300 0.447500
5.487000 0.443700
5.550800 0.439500
5.614500 0.443400
5.678300 0.453400
5.742000 0.460500
5.805700 0.459600
5.869500 0.457500
5.933200 0.455700
5.997000 0.456100
6.060700 0.455600
6.124400 0.452200
6.188200 0.455300
6.251900 0.455300
6.315700 0.454400
6.379400 0.455100
6.443200 0.457900
6.506900 0.464500
6.570600 0.470600
6.634400 0.474700
6.698100 0.475100
6.761900 0.473800
6.825600 0.474500
6.889300 0.475300
6.953100 0.477700
7.016800 0.479900
7.080600 0.483200
7.144300 0.489500
7.208100 0.497700
7.271800 0.511700
7.335500 0.520000
7.399300 0.514700
7.463000 0.517500
7.526800 0.517700
7.590500 0.519800
7.654200 0.534200
7.718000 0.537500
7.781700 0.541700
7.845500 0.540200
7.909200 0.541100
7.973000 0.534500
8.036700 0.533300
8.100400 0.534900
8.164200 0.546500
8.227900 0.542700
8.291700 0.550200
8.355400 0.560000
8.419100 0.567200
8.482900 0.574300
8.546600 0.583200
8.610400 0.594600
8.674100 0.608700
8.737900 0.618700
8.801600 0.622600
8.865300 0.619200
8.929100 0.620700
8.992800 0.618100
9.056600 0.614800
9.120300 0.601300
9.184000 0.592700
9.247800 0.595700
9.311500 0.596800
9.375300 0.598700
9.439000 0.595900
9.502800 0.591300
9.566500 0.590500
9.630200 0.588500
9.694000 0.591300
9.757700 0.598300
9.821500 0.599600
9.885200 0.596900
9.948900 0.588300
10.012700 0.584800
10.076400 0.582300
10.140200 0.581600
10.203900 0.577100
10.267700 0.573400
10.331400 0.568700
10.395100 0.563400
10.458900 0.560000
10.522600 0.558800
10.586400 0.556800
10.650100 0.557800
10.713800 0.555400
10.777600 0.546600
10.841300 0.545800
10.905100 0.543000
10.968800 0.538900
11.032600 0.534100
11.096300 0.529700
11.160000 0.524700
11.223800 0.520700
11.287500 0.517000
11.351300 0.520200
11.415000 0.521600
11.478700 0.519600
11.542500 0.515400
11.606200 0.511300
11.670000 0.507700
11.733700 0.504800
11.797500 0.502200
11.861200 0.498800
11.924900 0.493900
11.988700 0.486500
12.052400 0.479500
12.116200 0.472300
12.179900 0.467900
12.243600 0.467400
12.307400 0.468400
12.371100 0.471400
12.434900 0.472500
12.498600 0.474000
12.562400 0.479100
12.626100 0.487200
12.689800 0.493500
12.753600 0.495500
12.817300 0.493000
12.881100 0.490700
12.944800 0.485600
13.008500 0.484500
13.072300 0.484700
13.136000 0.483700
13.199800 0.483600
13.263500 0.482100
13.327300 0.478600
13.391000 0.477400
13.454700 0.479900
13.518500 0.487000
13.582200 0.488000
13.646000 0.490900
13.709700 0.496000
13.773400 0.500200
13.837200 0.504300
13.900900 0.508500
13.964700 0.511600
14.028400 0.514600
14.092200 0.518200
14.155900 0.519600
14.219600 0.522800
14.283400 0.525900
14.347100 0.528700
14.410900 0.523700
14.474600 0.522700
14.538300 0.531100
14.602100 0.537500
14.665800 0.542700
14.729600 0.549800
14.793300 0.558000
14.857100 0.565700
14.920800 0.568700
14.984500 0.570500
15.048300 0.569200
15.112000 0.567900
15.175800 0.567500
15.239500 0.579400
15.303200 0.580500
15.367000 0.563300
15.430700 0.555500
15.494500 0.544000
15.558200 0.538800
15.622000 0.537600
15.685700 0.537200
15.749400 0.537200
15.813200 0.536300
15.876900 0.533700
15.940700 0.536500
16.004400 0.536700
16.068100 0.537800
16.131900 0.541400
16.195600 0.552800
16.259400 0.562800
16.323100 0.579000
16.386900 0.605100
16.450600 0.640200
16.514300 0.673700
16.578100 0.629200
16.641800 0.631300
16.705600 0.642000
16.769300 0.648400
16.833000 0.646900
16.896800 0.647500
16.960500 0.696400
17.024300 0.651000
17.088000 0.657400
17.151800 0.656100
17.215500 0.651400
17.279200 0.643700
17.343000 0.641000
17.406700 0.645300
17.470500 0.646500
17.534200 0.644200
17.597900 0.640500
17.661700 0.641100
17.725400 0.646700
17.789200 0.655000
17.852900 0.660700
17.916700 0.665800
17.980400 0.681200
18.044100 0.704800
18.107900 0.715100
18.171600 0.730200
18.235400 0.754600
18.299100 0.762000
18.362800 0.747000
18.426600 0.745800
18.490300 0.744500
18.554100 0.735500
18.617800 0.725200
18.681600 0.716700
18.745300 0.704500
18.809000 0.703000
18.872800 0.708200
18.936500 0.695000
19.000300 0.669400
19.064000 0.654700
19.127700 0.638900
19.191500 0.628900
19.255200 0.611800
19.319000 0.612900
19.382700 0.613900
19.446400 0.611000
19.510200 0.603700
19.573900 0.606100
19.637700 0.616100
19.701400 0.622900
19.765200 0.614800
19.828900 0.603000
19.892600 0.588500
19.956400 0.579800
20.020100 0.592900
20.083900 0.580800
20.147600 0.601100
20.211300 0.626100
20.275100 0.653700
20.338800 0.668100
20.402600 0.670300
20.466300 0.684400
20.530100 0.702300
20.593800 0.718500
20.657500 0.741300
20.721300 0.761500
20.785000 0.792100
20.848800 0.817100
20.912500 0.827700
20.976200 0.829700
21.040000 0.827700
21.103700 0.810500
21.167500 0.788200
21.231200 0.788500
21.295000 0.751200
21.358700 0.718800
21.422400 0.691200
21.486200 0.671600
21.549900 0.660700
21.613700 0.660700
21.677400 0.663100
21.741100 0.669300
21.804900 0.680800
21.868600 0.692500
21.932400 0.707700
21.996100 0.715700
22.059900 0.714600
22.123600 0.714000
22.187300 0.715900
22.251100 0.716500
22.314800 0.712300
22.378600 0.717900
22.442300 0.726400
22.506000 0.734300
22.569800 0.739500
22.633500 0.742000
22.697300 0.741500
22.761000 0.738000
22.824800 0.724500
22.888500 0.714900
22.952200 0.727100
23.016000 0.719000
23.079700 0.715200
23.143500 0.712300
23.207200 0.709200
23.270900 0.699900
23.334700 0.684400
23.398400 0.683100
23.462200 0.693300
23.525900 0.711100
23.589700 0.716400
23.653400 0.714200
23.717100 0.713600
23.780900 0.715100
23.844600 0.721500
23.908400 0.725900
23.972100 0.725000
24.035800 0.729400
24.099600 0.730800
24.163300 0.737300
24.227100 0.750300
24.290800 0.761400
24.354600 0.769100
24.418300 0.772100
24.482000 0.770300
24.545800 0.767300
24.609500 0.760500
24.673300 0.770000
24.737000 0.775900
24.800700 0.778600
24.864500 0.774600
24.928200 0.767800
24.992000 0.756600
25.055700 0.761500
25.119500 0.770500
25.183200 0.780800
25.246900 0.785400
25.310700 0.781900
25.374400 0.783900
25.438200 0.782200
25.501900 0.790400
25.565600 0.808600
25.629400 0.805300
25.693100 0.806300
25.756900 0.810200
25.820600 0.814500
25.884400 0.827600
25.948100 0.806900
26.011800 0.801300
26.075600 0.799900
26.139300 0.799700
26.203100 0.805700
26.266800 0.807400
26.330500 0.800500
26.394300 0.791400
26.458000 0.782500
26.521800 0.774600
26.585500 0.771400
26.649300 0.777500
26.713000 0.789500
26.776700 0.790300
26.840500 0.792500
26.904200 0.792600
26.968000 0.792200
27.031700 0.789900
27.095400 0.797700
27.159200 0.787000
27.222900 0.786600
27.286700 0.776000
27.350400 0.767800
27.414200 0.768800
27.477900 0.766600
27.541600 0.761200
27.605400 0.758500
27.669100 0.757100
27.732900 0.754700
27.796600 0.758600
27.860300 0.759200
27.924100 0.762500
27.987800 0.768300
28.051600 0.781100
28.115300 0.781600
28.179100 0.780000
28.242800 0.782800
28.306500 0.789200
28.370300 0.800800
28.434000 0.815100
28.497800 0.826000
28.561500 0.840700
28.625200 0.854100
28.689000 0.892100
28.752700 0.902200
28.816500 0.899400
28.880200 0.900800
28.944000 0.897600
29.007700 0.888400
29.071400 0.876600
29.135200 0.865900
29.198900 0.851600
29.262700 0.842000
29.326400 0.837400
29.390100 0.832500
29.453900 0.819000
29.517600 0.808600
29.581400 0.809000
29.645100 0.811000
29.708900 0.812800
29.772600 0.819500
29.836300 0.827400
29.900100 0.836100
29.963800 0.842600
30.027600 0.848200
30.091300 0.859100
30.155000 0.853500
30.218800 0.844400
30.282500 0.834500
30.346300 0.832800
30.410000 0.835100
30.473800 0.839000
30.537500 0.841600
30.601200 0.854800
30.665000 0.873100
30.728700 0.894000
30.792500 0.891000
30.856200 0.898300
30.919900 0.945400
30.983700 0.906600
31.047400 0.907400
31.111200 0.900300
31.174900 0.896000
31.238700 0.886800
31.302400 0.884300
31.366100 0.889400
31.429900 0.889400
31.493600 0.883900
31.557400 0.865500
31.621100 0.865500
31.684800 0.877600
31.748600 0.868100
31.812300 0.866500
31.876100 0.867200
31.939800 0.862800
32.003600 0.862100
32.067300 0.865200
32.131000 0.863500
32.194800 0.870200
32.258500 0.875000
32.322300 0.879800
32.386000 0.884800
32.449700 0.885600
32.513500 0.882300
32.577200 0.878800
32.641000 0.877300
32.704700 0.873500
32.768500 0.867800
32.832200 0.864000
32.895900 0.862900
32.959700 0.863100
33.023400 0.864000
33.087200 0.866900
33.150900 0.874000
33.214600 0.872300
33.278400 0.866300
33.342100 0.863200
33.405900 0.862200
33.469600 0.861600
33.533400 0.850100
33.597100 0.834800
33.660800 0.827200
33.724600 0.823600
33.788300 0.826500
33.852100 0.825100
33.915800 0.822400
33.979500 0.826100
34.043300 0.835100
34.107000 0.839100
34.170800 0.843100
34.234500 0.846000
34.298300 0.841400
34.362000 0.840500
34.425700 0.841500
34.489500 0.835100
34.553200 0.835100
34.617000 0.836500
34.680700 0.839000
34.744400 0.844500
34.808200 0.851000
34.871900 0.857800
34.935700 0.862800
34.999400 0.873800
35.063200 0.880100
35.126900 0.885600
35.190600 0.889500
35.254400 0.898200
35.318100 0.906700
35.381900 0.910300
35.445600 0.915400
35.509300 0.925200
35.573100 0.931700
35.636800 0.929200
35.700600 0.918700
35.764300 0.910900
35.828100 0.899900
35.891800 0.890700
35.955500 0.887800
36.019300 0.882700
36.083000 0.878400
36.146800 0.879700
36.210500 0.885300
36.274200 0.896100
36.338000 0.907400
36.401700 0.913300
36.465500 0.911700
36.529200 0.922800
36.593000 0.928000
36.656700 0.940800
36.720400 0.940200
36.784200 0.959500
36.847900 0.949500
36.911700 0.947100
36.975400 0.942200
37.039100 0.935800
37.102900 0.933200
37.166600 0.941400
37.230400 0.933800
37.294100 0.929000
37.357900 0.930100
37.421600 0.914500
37.485300 0.904200
37.549100 0.899400
37.612800 0.894500
37.676600 0.898200
37.740300 0.901900
37.804000 0.897200
37.867800 0.892800
37.931500 0.888100
37.995300 0.880800
38.059000 0.876700
38.122800 0.870300
38.186500 0.864800
38.250200 0.862100
38.314000 0.855100
38.377700 0.875600
38.441500 0.889000
38.505200 0.903800
38.568900 0.920700
38.632700 0.916300
38.696400 0.922300
38.760200 0.916400
38.823900 0.898100
38.887700 0.891800
38.951400 0.898000
39.015100 0.902400
