set title 'mp-23 - Density of States'
set xlabel 'Energy (eV)'
set ylabel 'DOS (states/eV)'
set grid
set xrange [-10:10]
set yrange [0:2.829]
set xzeroaxis lt -1
set terminal png size 800,600
set output 'mp-23_dos_gnuplot.png'
plot '-' using 1:2 with lines title 'DOS'
-69.795800 0.000000
-69.644500 0.000000
-69.493200 0.000000
-69.342000 0.000000
-69.190700 0.000000
-69.039500 0.000000
-68.888200 0.000000
-68.736900 0.000000
-68.585700 0.000000
-68.434400 0.000000
-68.283100 0.000000
-68.131900 0.000000
-67.980600 0.000000
-67.829400 0.000000
-67.678100 0.000000
-67.526800 0.000000
-67.375600 0.000000
-67.224300 0.000000
-67.073100 0.000000
-66.921800 0.000000
-66.770500 0.000000
-66.619300 0.000000
-66.468000 0.000000
-66.316800 0.000000
-66.165500 0.000000
-66.014200 0.000000
-65.863000 0.000000
-65.711700 0.000000
-65.560500 0.000000
-65.409200 0.000000
-65.257900 0.000000
-65.106700 0.000000
-64.955400 0.000000
-64.804100 0.000000
-64.652900 0.000000
-64.501600 0.000000
-64.350400 0.000000
-64.199100 0.000000
-64.047800 0.000000
-63.896600 0.000000
-63.745300 0.000000
-63.594100 0.000000
-63.442800 0.000000
-63.291500 0.000000
-63.140300 0.000000
-62.989000 0.000000
-62.837800 0.000000
-62.686500 0.000000
-62.535200 0.000000
-62.384000 0.000000
-62.232700 0.000000
-62.081500 0.000000
-61.930200 0.000000
-61.778900 0.000000
-61.627700 0.000000
-61.476400 0.000000
-61.325100 0.000000
-61.173900 0.000000
-61.022600 0.000000
-60.871400 0.000000
-60.720100 0.000000
-60.568800 0.000000
-60.417600 0.000000
-60.266300 0.000000
-60.115100 0.000000
-59.963800 0.000000
-59.812500 0.000000
-59.661300 0.000000
-59.510000 0.000000
-59.358800 0.000000
-59.207500 0.000000
-59.056200 0.000000
-58.905000 0.000000
-58.753700 0.000000
-58.602500 0.000000
-58.451200 0.000000
-58.299900 0.000000
-58.148700 0.000000
-57.997400 0.000000
-57.846100 0.000000
-57.694900 0.000000
-57.543600 0.000000
-57.392400 0.000000
-57.241100 0.000000
-57.089800 0.000000
-56.938600 0.000000
-56.787300 0.000000
-56.636100 0.000000
-56.484800 0.000000
-56.333500 0.000000
-56.182300 0.000000
-56.031000 4.886700
-55.879800 23.369000
-55.728500 0.000000
-55.577200 0.000000
-55.426000 0.000000
-55.274700 0.000000
-55.123500 0.000000
-54.972200 0.000000
-54.820900 0.000000
-54.669700 0.000000
-54.518400 0.000000
-54.367100 0.000000
-54.215900 0.000000
-54.064600 0.000000
-53.913400 0.000000
-53.762100 0.000000
-53.610800 0.000000
-53.459600 0.000000
-53.308300 0.000000
-53.157100 0.000000
-53.005800 0.000000
-52.854500 0.000000
-52.703300 0.000000
-52.552000 0.000000
-52.400800 0.000000
-52.249500 0.000000
-52.098200 0.000000
-51.947000 0.000000
-51.795700 0.000000
-51.644500 0.000000
-51.493200 0.000000
-51.341900 0.000000
-51.190700 0.000000
-51.039400 0.000000
-50.888200 0.000000
-50.736900 0.000000
-50.585600 0.000000
-50.434400 0.000000
-50.283100 0.000000
-50.131800 0.000000
-49.980600 0.000000
-49.829300 0.000000
-49.678100 0.000000
-49.526800 0.000000
-49.375500 0.000000
-49.224300 0.000000
-49.073000 0.000000
-48.921800 0.000000
-48.770500 0.000000
-48.619200 0.000000
-48.468000 0.000000
-48.316700 0.000000
-48.165500 0.000000
-48.014200 0.000000
-47.862900 0.000000
-47.711700 0.000000
-47.560400 0.000000
-47.409200 0.000000
-47.257900 0.000000
-47.106600 0.000000
-46.955400 0.000000
-46.804100 0.000000
-46.652800 0.000000
-46.501600 0.000000
-46.350300 0.000000
-46.199100 0.000000
-46.047800 0.000000
-45.896500 0.000000
-45.745300 0.000000
-45.594000 0.000000
-45.442800 0.000000
-45.291500 0.000000
-45.140200 0.000000
-44.989000 0.000000
-44.837700 0.000000
-44.686500 0.000000
-44.535200 0.000000
-44.383900 0.000000
-44.232700 0.000000
-44.081400 0.000000
-43.930200 0.000000
-43.778900 0.000000
-43.627600 0.000000
-43.476400 0.000000
-43.325100 0.000000
-43.173800 0.000000
-43.022600 0.000000
-42.871300 0.000000
-42.720100 0.000000
-42.568800 0.000000
-42.417500 0.000000
-42.266300 0.000000
-42.115000 0.000000
-41.963800 0.000000
-41.812500 0.000000
-41.661200 0.000000
-41.510000 0.000000
-41.358700 0.000000
-41.207500 0.000000
-41.056200 0.000000
-40.904900 0.000000
-40.753700 0.000000
-40.602400 0.000000
-40.451200 0.000000
-40.299900 0.000000
-40.148600 0.000000
-39.997400 0.000000
-39.846100 0.000000
-39.694800 0.000000
-39.543600 0.000000
-39.392300 0.000000
-39.241100 0.000000
-39.089800 0.000000
-38.938500 0.000000
-38.787300 0.000000
-38.636000 0.000000
-38.484800 0.000000
-38.333500 0.000000
-38.182200 0.000000
-38.031000 0.000000
-37.879700 0.000000
-37.728500 0.000000
-37.577200 0.000000
-37.425900 0.000000
-37.274700 0.000000
-37.123400 0.000000
-36.972200 0.000000
-36.820900 0.000000
-36.669600 0.000000
-36.518400 0.000000
-36.367100 0.000000
-36.215800 0.000000
-36.064600 0.000000
-35.913300 0.000000
-35.762100 0.000000
-35.610800 0.000000
-35.459500 0.000000
-35.308300 0.000000
-35.157000 0.000000
-35.005800 0.000000
-34.854500 0.000000
-34.703200 0.000000
-34.552000 0.000000
-34.400700 0.000000
-34.249500 0.000000
-34.098200 0.000000
-33.946900 0.000000
-33.795700 0.000000
-33.644400 0.000000
-33.493200 0.000000
-33.341900 0.000000
-33.190600 0.000000
-33.039400 0.000000
-32.888100 0.000000
-32.736800 0.000000
-32.585600 0.000000
-32.434300 0.000000
-32.283100 0.000000
-32.131800 0.000000
-31.980500 0.000000
-31.829300 0.000000
-31.678000 0.000000
-31.526800 0.000000
-31.375500 0.000000
-31.224200 0.000000
-31.073000 0.000000
-30.921700 0.000000
-30.770500 0.000000
-30.619200 0.000000
-30.467900 0.000000
-30.316700 0.000000
-30.165400 0.000000
-30.014200 0.000000
-29.862900 0.000000
-29.711600 0.000000
-29.560400 0.000000
-29.409100 0.000000
-29.257800 0.000000
-29.106600 0.000000
-28.955300 0.000000
-28.804100 0.000000
-28.652800 0.000000
-28.501500 0.000000
-28.350300 0.000000
-28.199000 0.000000
-28.047800 0.000000
-27.896500 0.000000
-27.745200 0.000000
-27.594000 0.000000
-27.442700 0.000000
-27.291500 0.000000
-27.140200 0.000000
-26.988900 0.000000
-26.837700 0.000000
-26.686400 0.000000
-26.535200 0.000000
-26.383900 0.000000
-26.232600 0.000000
-26.081400 0.000000
-25.930100 0.000000
-25.778900 0.000000
-25.627600 0.000000
-25.476300 0.000000
-25.325100 0.000000
-25.173800 0.000000
-25.022500 0.000000
-24.871300 0.000000
-24.720000 0.000000
-24.568800 0.000000
-24.417500 0.000000
-24.266200 0.000000
-24.115000 0.000000
-23.963700 0.000000
-23.812500 0.000000
-23.661200 0.000000
-23.509900 0.000000
-23.358700 0.000000
-23.207400 0.000000
-23.056200 0.000000
-22.904900 0.000000
-22.753600 0.000000
-22.602400 0.000000
-22.451100 0.000000
-22.299900 0.000000
-22.148600 0.000000
-21.997300 0.000000
-21.846100 0.000000
-21.694800 0.000000
-21.543500 0.000000
-21.392300 0.000000
-21.241000 0.000000
-21.089800 0.000000
-20.938500 0.000000
-20.787200 0.000000
-20.636000 0.000000
-20.484700 0.000000
-20.333500 0.000000
-20.182200 0.000000
-20.030900 0.000000
-19.879700 0.000000
-19.728400 0.000000
-19.577200 0.000000
-19.425900 0.000000
-19.274600 0.000000
-19.123400 0.000000
-18.972100 0.000000
-18.820900 0.000000
-18.669600 0.000000
-18.518300 0.000000
-18.367100 0.000000
-18.215800 0.000000
-18.064500 0.000000
-17.913300 0.000000
-17.762000 0.000000
-17.610800 0.000000
-17.459500 0.000000
-17.308200 0.000000
-17.157000 0.000000
-17.005700 0.000000
-16.854500 0.000000
-16.703200 0.000000
-16.551900 0.000000
-16.400700 0.000000
-16.249400 0.000000
-16.098200 0.000000
-15.946900 0.000000
-15.795600 0.000000
-15.644400 0.000000
-15.493100 0.000000
-15.341900 0.000000
-15.190600 0.000000
-15.039300 0.000000
-14.888100 0.000000
-14.736800 0.000000
-14.585500 0.000000
-14.434300 0.000000
-14.283000 0.000000
-14.131800 0.000000
-13.980500 0.000000
-13.829200 0.000000
-13.678000 0.000000
-13.526700 0.000000
-13.375500 0.000000
-13.224200 0.000000
-13.072900 0.000000
-12.921700 0.000000
-12.770400 0.000000
-12.619200 0.000000
-12.467900 0.000000
-12.316600 0.000000
-12.165400 0.000000
-12.014100 0.000000
-11.862900 0.000000
-11.711600 0.000000
-11.560300 0.000000
-11.409100 0.000000
-11.257800 0.000000
-11.106500 0.000000
-10.955300 0.000000
-10.804000 0.000000
-10.652800 0.000000
-10.501500 0.000000
-10.350200 0.000000
-10.199000 0.000000
-10.047700 0.000000
-9.896500 0.000000
-9.745200 0.000000
-9.593900 0.000000
-9.442700 0.000000
-9.291400 0.000000
-9.140200 0.000000
-8.988900 0.000000
-8.837600 0.000000
-8.686400 0.000000
-8.535100 0.000000
-8.383900 0.000000
-8.232600 0.000000
-8.081300 0.000000
-7.930100 0.000000
-7.778800 0.000000
-7.627500 0.000000
-7.476300 0.000000
-7.325000 0.000000
-7.173800 0.000000
-7.022500 0.000000
-6.871200 0.000000
-6.720000 0.000000
-6.568700 0.000000
-6.417500 0.000000
-6.266200 0.000000
-6.114900 0.000000
-5.963700 0.000000
-5.812400 0.000000
-5.661200 0.000000
-5.509900 0.000000
-5.358600 0.000000
-5.207400 0.000000
-5.056100 0.000000
-4.904900 0.000000
-4.753600 0.000000
-4.602300 0.000000
-4.451100 0.000000
-4.299800 0.000000
-4.148500 0.000000
-3.997300 0.000000
-3.846000 0.000000
-3.694800 0.000000
-3.543500 0.000000
-3.392200 0.000000
-3.241000 0.000000
-3.089700 0.000000
-2.938500 0.000000
-2.787200 0.000000
-2.635900 0.000000
-2.484700 0.000000
-2.333400 0.000000
-2.182200 0.000000
-2.030900 0.000000
-1.879600 0.000000
-1.728400 0.000000
-1.577100 0.000000
-1.425900 0.000000
-1.274600 0.000000
-1.123300 0.000000
-0.972100 0.012600
-0.820800 0.018300
-0.669600 0.022500
-0.518300 0.026500
-0.367000 0.030100
-0.215800 0.033300
-0.064500 0.036600
0.086800 0.039700
0.238000 0.042800
0.389300 0.046100
0.540500 0.049100
0.691800 0.052400
0.843100 0.055800
0.994300 0.059200
1.145600 0.063100
1.296800 0.067000
1.448100 0.071300
1.599400 0.076000
1.750600 0.081400
1.901900 0.087300
2.053100 0.094300
2.204400 0.102700
2.355700 0.112400
2.506900 0.125700
2.658200 0.142200
2.809400 0.167200
2.960700 0.206100
3.112000 0.317100
3.263200 0.553700
3.414500 0.538400
3.565800 0.552600
3.717000 0.578000
3.868300 0.765000
4.019500 0.894900
4.170800 1.036800
4.322100 0.955500
4.473300 0.765900
4.624600 0.866800
4.775800 0.785400
4.927100 0.953300
5.078400 1.110900
5.229600 1.242200
5.380900 1.236400
5.532100 1.584700
5.683400 1.623800
5.834700 1.550300
5.985900 1.190400
6.137200 0.967100
6.288400 0.940700
6.439700 1.346400
6.591000 1.448300
6.742200 1.326300
6.893500 1.200900
7.044800 1.232000
7.196000 1.436100
7.347300 2.571400
7.498500 1.285400
7.649800 0.192700
7.801100 0.183300
7.952300 0.174700
8.103600 0.168800
8.254800 0.163200
8.406100 0.158500
8.557400 0.155000
8.708600 0.150900
8.859900 0.148000
9.011100 0.145000
9.162400 0.142200
9.313700 0.140000
9.464900 0.137200
9.616200 0.135400
9.767400 0.133600
9.918700 0.131400
10.070000 0.129900
10.221200 0.129200
10.372500 0.128700
10.523800 0.128600
10.675000 0.125600
10.826300 0.123000
10.977500 0.119700
11.128800 0.116600
11.280100 0.113500
11.431300 0.110000
11.582600 0.107000
11.733800 0.103300
11.885100 0.099600
12.036400 0.095900
12.187600 0.092400
12.338900 0.088600
12.490100 0.084600
12.641400 0.080300
12.792700 0.076500
12.943900 0.072900
13.095200 0.068000
13.246400 0.063800
13.397700 0.059700
13.549000 0.055500
13.700200 0.050500
13.851500 0.110600
14.002800 0.133600
14.154000 0.134900
14.305300 0.137300
14.456500 0.140000
14.607800 0.148900
14.759100 0.161800
14.910300 0.154000
15.061600 0.145800
15.212800 0.141300
15.364100 0.132900
15.515400 0.130000
15.666600 0.127400
15.817900 0.123900
15.969100 0.121400
16.120400 0.117700
16.271700 0.115400
16.422900 0.113600
16.574200 0.111900
16.725400 0.110300
16.876700 0.109400
17.028000 0.109000
17.179200 0.108900
17.330500 0.156300
17.481800 0.155500
17.633000 0.143300
17.784300 0.127800
17.935500 0.114800
18.086800 0.174200
18.238100 0.175300
18.389300 0.182300
18.540600 0.175300
18.691800 0.173300
18.843100 0.172200
18.994400 0.172600
19.145600 0.172700
19.296900 0.169200
19.448100 0.174300
19.599400 0.177100
19.750700 0.177900
19.901900 0.181000
20.053200 0.180600
20.204400 0.181400
20.355700 0.182200
20.507000 0.182800
20.658200 0.184000
20.809500 0.186700
20.960800 0.186800
21.112000 0.186500
21.263300 0.187800
21.414500 0.189700
21.565800 0.191600
21.717100 0.192300
21.868300 0.194800
22.019600 0.195600
22.170800 0.196900
22.322100 0.199000
22.473400 0.202900
22.624600 0.206500
22.775900 0.211000
22.927100 0.225700
23.078400 0.220800
23.229700 0.217800
23.380900 0.215700
23.532200 0.215000
23.683400 0.212100
23.834700 0.209700
23.986000 0.209200
24.137200 0.206100
24.288500 0.203300
24.439800 0.201100
24.591000 0.199700
24.742300 0.197400
24.893500 0.195100
25.044800 0.192700
25.196100 0.190100
25.347300 0.188600
25.498600 0.186800
25.649800 0.184700
25.801100 0.181600
25.952400 0.178900
26.103600 0.176400
26.254900 0.175600
26.406100 0.173600
26.557400 0.171300
26.708700 0.168700
26.859900 0.166200
27.011200 0.163500
27.162400 0.162000
27.313700 0.160100
27.465000 0.157100
27.616200 0.154400
27.767500 0.152400
27.918700 0.158600
28.070000 0.161000
28.221300 0.165100
28.372500 0.165200
28.523800 0.166500
28.675100 0.169100
28.826300 0.176000
28.977600 0.176100
29.128800 0.180900
29.280100 0.192400
29.431400 0.202900
29.582600 0.209200
29.733900 0.219700
29.885100 0.226700
30.036400 0.232300
30.187700 0.239000
30.338900 0.233700
30.490200 0.233600
30.641400 0.237000
30.792700 0.234100
30.944000 0.235700
31.095200 0.241900
31.246500 0.238100
31.397700 0.239100
31.549000 0.255000
31.700300 0.257600
31.851500 0.256200
32.002800 0.263200
32.154100 0.270000
32.305300 0.286500
32.456600 0.286000
32.607800 0.273600
32.759100 0.261100
32.910400 0.251800
33.061600 0.247600
33.212900 0.249200
33.364100 0.240400
33.515400 0.232800
33.666700 0.231700
33.817900 0.221100
33.969200 0.218400
34.120400 0.213800
34.271700 0.207500
34.423000 0.204400
34.574200 0.192100
34.725500 0.182400
34.876700 0.172800
35.028000 0.167000
35.179300 0.162000
35.330500 0.157600
35.481800 0.155900
35.633100 0.170800
35.784300 0.173600
35.935600 0.160100
36.086800 0.154200
36.238100 0.144500
36.389400 0.141200
36.540600 0.137300
36.691900 0.141200
36.843100 0.158000
36.994400 0.196000
37.145700 0.221500
37.296900 0.254400
37.448200 0.283300
37.599400 0.297700
37.750700 0.306700
37.902000 0.295900
38.053200 0.303300
38.204500 0.322400
38.355700 0.308500
38.507000 0.305500
38.658300 0.290500
38.809500 0.266700
38.960800 0.250100
39.112100 0.247300
39.263300 0.235100
39.414600 0.224700
39.565800 0.215700
39.717100 0.206600
39.868400 0.201400
40.019600 0.197200
40.170900 0.198600
40.322100 0.198900
40.473400 0.205600
40.624700 0.204800
40.775900 0.202300
40.927200 0.202400
41.078400 0.204000
41.229700 0.208500
41.381000 0.211800
41.532200 0.230400
41.683500 0.267800
41.834700 0.301000
41.986000 0.302700
42.137300 0.295300
42.288500 0.281600
42.439800 0.280900
42.591100 0.281500
42.742300 0.283800
42.893600 0.280600
43.044800 0.280000
43.196100 0.281600
43.347400 0.284300
43.498600 0.281000
43.649900 0.282100
43.801100 0.288800
43.952400 0.307400
44.103700 0.331500
44.254900 0.375200
44.406200 0.541500
44.557400 1.276000
44.708700 1.884400
44.860000 1.976200
45.011200 0.588700
45.162500 0.406100
45.313700 0.331400
45.465000 0.292000
45.616300 0.267000
45.767500 0.253500
45.918800 0.246800
46.070100 0.243300
46.221300 0.241600
46.372600 0.235700
46.523800 0.252700
46.675100 0.262900
46.826400 0.267900
46.977600 0.271700
47.128900 0.275500
47.280100 0.273600
47.431400 0.273400
47.582700 0.273300
47.733900 0.275500
47.885200 0.260300
48.036400 0.252600
48.187700 0.250400
48.339000 0.245900
48.490200 0.257500
48.641500 0.266400
48.792700 0.278100
48.944000 0.284700
49.095300 0.290100
49.246500 0.294000
49.397800 0.297100
49.549100 0.293400
49.700300 0.290600
49.851600 0.281400
50.002800 0.273000
50.154100 0.264300
50.305400 0.258800
50.456600 0.255000
50.607900 0.252300
50.759100 0.264600
50.910400 0.271700
51.061700 0.281100
51.212900 0.288300
51.364200 0.289000
51.515400 0.293600
51.666700 0.293300
51.818000 0.293900
51.969200 0.291900
52.120500 0.290100
52.271700 0.289800
52.423000 0.287200
52.574300 0.283800
52.725500 0.280600
52.876800 0.282500
53.028000 0.286900
53.179300 0.290500
53.330600 0.290400
53.481800 0.292200
53.633100 0.293000
53.784400 0.295400
53.935600 0.300200
54.086900 0.298600
54.238100 0.298000
54.389400 0.301800
54.540700 0.305000
54.691900 0.308000
54.843200 0.312700
54.994400 0.313900
55.145700 0.316700
55.297000 0.319600
55.448200 0.319100
55.599500 0.326300
55.750700 0.328000
55.902000 0.319500
56.053300 0.322100
56.204500 0.329400
56.355800 0.333300
56.507000 0.335300
56.658300 0.338400
56.809600 0.331300
56.960800 0.327300
57.112100 0.318900
57.263400 0.313100
57.414600 0.305600
57.565900 0.301000
57.717100 0.290700
57.868400 0.283900
58.019700 0.277000
58.170900 0.267100
58.322200 0.259900
58.473400 0.258800
58.624700 0.263500
58.776000 0.266900
58.927200 0.265700
59.078500 0.276200
59.229700 0.297100
59.381000 0.263400
59.532300 0.255000
59.683500 0.256800
59.834800 0.267300
59.986000 0.281400
60.137300 0.293900
60.288600 0.311500
60.439800 0.314800
60.591100 0.320700
60.742400 0.322600
60.893600 0.328500
61.044900 0.344200
61.196100 0.364600
61.347400 0.340400
61.498700 0.306700
61.649900 0.299700
61.801200 0.285300
61.952400 0.272200
62.103700 0.262400
62.255000 0.252000
62.406200 0.248100
62.557500 0.255800
62.708700 0.270300
62.860000 0.276700
63.011300 0.284100
63.162500 0.284700
63.313800 0.279200
63.465000 0.270100
63.616300 0.276600
63.767600 0.320000
63.918800 0.318000
64.070100 0.316900
64.221400 0.319100
64.372600 0.334000
64.523900 0.374900
64.675100 0.363000
64.826400 0.341900
64.977700 0.331100
65.128900 0.321900
65.280200 0.310600
65.431400 0.301100
65.582700 0.289900
65.734000 0.294800
65.885200 0.320500
66.036500 0.328700
66.187700 0.333500
66.339000 0.330300
66.490300 0.327400
66.641500 0.322100
66.792800 0.327200
66.944000 0.347500
67.095300 0.369400
67.246600 0.398800
67.397800 0.425900
67.549100 0.394900
67.700400 0.385800
67.851600 0.369700
68.002900 0.359600
68.154100 0.368800
68.305400 0.356600
68.456700 0.344300
68.607900 0.337200
68.759200 0.340900
68.910400 0.337200
69.061700 0.323000
69.213000 0.309100
69.364200 0.294200
69.515500 0.296800
69.666700 0.287800
69.818000 0.277900
69.969300 0.265500
70.120500 0.283200
70.271800 0.270500
70.423000 0.262700
70.574300 0.261000
70.725600 0.264700
70.876800 0.264200
71.028100 0.271700
71.179400 0.287500
71.330600 0.306100
71.481900 0.312800
71.633100 0.312800
71.784400 0.306400
71.935700 0.299800
72.086900 0.301300
72.238200 0.307600
72.389400 0.311600
72.540700 0.318200
72.692000 0.319100
72.843200 0.324200
72.994500 0.318700
73.145700 0.318000
73.297000 0.323200
73.448300 0.321300
73.599500 0.318300
73.750800 0.324700
73.902000 0.327000
74.053300 0.331000
74.204600 0.348000
74.355800 0.349500
74.507100 0.351000
74.658400 0.358600
74.809600 0.371300
74.960900 0.401500
75.112100 0.425900
75.263400 0.409800
75.414700 0.404900
75.565900 0.400700
75.717200 0.409500
75.868400 0.393400
76.019700 0.366900
76.171000 0.344100
76.322200 0.334900
76.473500 0.327000
76.624700 0.332800
76.776000 0.320000
76.927300 0.307200
77.078500 0.301100
77.229800 0.291300
77.381000 0.260600
77.532300 0.239700
77.683600 0.250600
77.834800 0.278200
77.986100 0.314500
78.137300 0.338400
78.288600 0.357100
78.439900 0.376200
78.591100 0.379500
78.742400 0.363900
78.893700 0.352100
79.044900 0.334200
79.196200 0.312500
79.347400 0.309700
79.498700 0.317100
79.650000 0.335800
79.801200 0.368000
79.952500 0.367400
80.103700 0.362000
80.255000 0.352500
80.406300 0.334000
80.557500 0.322800
80.708800 0.323500
80.860000 0.326900
81.011300 0.329800
81.162600 0.336300
81.313800 0.342900
81.465100 0.344400
81.616300 0.344300
81.767600 0.335000
81.918900 0.330300
82.070100 0.330300
82.221400 0.331300
82.372700 0.334100
82.523900 0.334700
82.675200 0.337900
82.826400 0.339600
82.977700 0.332300
83.129000 0.333200
83.280200 0.329000
83.431500 0.325700
83.582700 0.343500
83.734000 0.371700
83.885300 0.384000
84.036500 0.369500
84.187800 0.374400
84.339000 0.397100
84.490300 0.395500
