set title 'mp-1062648 - Density of States'
set xlabel 'Energy (eV)'
set ylabel 'DOS (states/eV)'
set grid
set xrange [-10:10]
set yrange [0:26.010]
set xzeroaxis lt -1
set terminal png size 800,600
set output 'mp-1062648_dos_gnuplot.png'
plot '-' using 1:2 with lines title 'DOS'
-22.296200 0.000000
-22.268400 0.000000
-22.240600 0.000000
-22.212800 0.000000
-22.185000 0.000000
-22.157200 0.000000
-22.129400 0.000000
-22.101600 0.000000
-22.073800 0.000000
-22.046000 0.000000
-22.018200 0.000000
-21.990400 0.000000
-21.962600 0.000000
-21.934800 0.000000
-21.907000 0.000000
-21.879200 0.000000
-21.851500 0.000000
-21.823700 0.000000
-21.795900 0.000000
-21.768100 0.000000
-21.740300 0.000000
-21.712500 0.000000
-21.684700 0.000000
-21.656900 0.000000
-21.629100 0.000000
-21.601300 0.000000
-21.573500 0.000000
-21.545700 0.000000
-21.517900 0.000000
-21.490100 0.000000
-21.462300 0.000000
-21.434500 0.000000
-21.406700 0.000000
-21.378900 0.000000
-21.351100 0.000000
-21.323300 0.000000
-21.295500 0.000000
-21.267700 0.000000
-21.239900 0.000000
-21.212100 0.000000
-21.184300 0.000000
-21.156500 0.000000
-21.128700 0.000000
-21.100900 0.000000
-21.073100 0.000000
-21.045300 0.000000
-21.017500 0.000000
-20.989700 0.000000
-20.961900 0.000000
-20.934100 0.000000
-20.906300 0.000000
-20.878500 0.000000
-20.850700 0.000000
-20.822900 0.000000
-20.795100 0.000000
-20.767300 0.000000
-20.739500 0.000000
-20.711700 0.000000
-20.683900 0.000000
-20.656200 0.000000
-20.628400 0.000000
-20.600600 0.000000
-20.572800 0.000000
-20.545000 0.000000
-20.517200 0.000000
-20.489400 0.000000
-20.461600 0.000000
-20.433800 0.000000
-20.406000 0.000000
-20.378200 0.000000
-20.350400 0.000000
-20.322600 0.000000
-20.294800 0.000000
-20.267000 0.000000
-20.239200 0.000000
-20.211400 0.000000
-20.183600 0.000000
-20.155800 0.000000
-20.128000 0.000000
-20.100200 0.000000
-20.072400 0.000000
-20.044600 0.000000
-20.016800 0.000000
-19.989000 0.000000
-19.961200 0.000000
-19.933400 0.000000
-19.905600 0.000000
-19.877800 0.000000
-19.850000 0.000000
-19.822200 0.000000
-19.794400 0.000000
-19.766600 16.807000
-19.738800 24.609300
-19.711000 106.793500
-19.683200 38.206200
-19.655400 6.022200
-19.627600 4.853600
-19.599800 4.853600
-19.572000 5.913800
-19.544200 5.971700
-19.516400 10.664400
-19.488600 0.000000
-19.460800 0.000000
-19.433100 0.000000
-19.405300 0.000000
-19.377500 0.000000
-19.349700 0.000000
-19.321900 0.000000
-19.294100 0.000000
-19.266300 0.000000
-19.238500 0.000000
-19.210700 0.000000
-19.182900 0.000000
-19.155100 0.000000
-19.127300 0.000000
-19.099500 0.000000
-19.071700 0.000000
-19.043900 0.000000
-19.016100 0.000000
-18.988300 0.000000
-18.960500 0.000000
-18.932700 0.000000
-18.904900 0.000000
-18.877100 0.000000
-18.849300 0.000000
-18.821500 0.000000
-18.793700 0.000000
-18.765900 0.000000
-18.738100 0.000000
-18.710300 0.000000
-18.682500 0.000000
-18.654700 0.000000
-18.626900 0.000000
-18.599100 0.000000
-18.571300 0.000000
-18.543500 0.000000
-18.515700 0.000000
-18.487900 0.000000
-18.460100 0.000000
-18.432300 0.000000
-18.404500 0.000000
-18.376700 0.000000
-18.348900 0.000000
-18.321100 0.000000
-18.293300 0.000000
-18.265500 0.000000
-18.237800 0.000000
-18.210000 0.000000
-18.182200 0.000000
-18.154400 0.000000
-18.126600 0.000000
-18.098800 0.000000
-18.071000 0.000000
-18.043200 0.000000
-18.015400 0.000000
-17.987600 0.000000
-17.959800 0.000000
-17.932000 0.000000
-17.904200 0.000000
-17.876400 0.000000
-17.848600 0.000000
-17.820800 0.000000
-17.793000 0.000000
-17.765200 0.000000
-17.737400 0.000000
-17.709600 0.000000
-17.681800 0.000000
-17.654000 0.000000
-17.626200 0.000000
-17.598400 0.000000
-17.570600 0.000000
-17.542800 0.000000
-17.515000 0.000000
-17.487200 0.000000
-17.459400 0.000000
-17.431600 0.000000
-17.403800 0.000000
-17.376000 0.000000
-17.348200 0.000000
-17.320400 0.000000
-17.292600 0.000000
-17.264800 0.000000
-17.237000 0.000000
-17.209200 0.000000
-17.181400 0.000000
-17.153600 0.000000
-17.125800 0.000000
-17.098000 0.000000
-17.070200 0.000000
-17.042500 0.000000
-17.014700 0.000000
-16.986900 0.000000
-16.959100 0.000000
-16.931300 0.000000
-16.903500 0.000000
-16.875700 0.000000
-16.847900 0.000000
-16.820100 0.000000
-16.792300 0.000000
-16.764500 0.000000
-16.736700 0.000000
-16.708900 0.000000
-16.681100 0.000000
-16.653300 0.000000
-16.625500 0.000000
-16.597700 0.000000
-16.569900 0.000000
-16.542100 0.000000
-16.514300 0.000000
-16.486500 0.000000
-16.458700 0.000000
-16.430900 0.000000
-16.403100 0.000000
-16.375300 0.000000
-16.347500 0.000000
-16.319700 0.000000
-16.291900 0.000000
-16.264100 0.000000
-16.236300 0.000000
-16.208500 0.000000
-16.180700 0.000000
-16.152900 0.000000
-16.125100 0.000000
-16.097300 0.000000
-16.069500 0.000000
-16.041700 0.000000
-16.013900 0.000000
-15.986100 0.000000
-15.958300 0.000000
-15.930500 0.000000
-15.902700 0.000000
-15.874900 0.000000
-15.847100 0.000000
-15.819400 0.000000
-15.791600 0.000000
-15.763800 0.000000
-15.736000 0.000000
-15.708200 0.000000
-15.680400 0.000000
-15.652600 0.000000
-15.624800 0.000000
-15.597000 0.000000
-15.569200 0.000000
-15.541400 0.000000
-15.513600 0.000000
-15.485800 0.000000
-15.458000 0.000000
-15.430200 0.000000
-15.402400 0.000000
-15.374600 0.000000
-15.346800 0.000000
-15.319000 0.000000
-15.291200 0.000000
-15.263400 0.000000
-15.235600 0.000000
-15.207800 0.000000
-15.180000 0.000000
-15.152200 0.000000
-15.124400 0.000000
-15.096600 0.000000
-15.068800 0.000000
-15.041000 0.000000
-15.013200 0.000000
-14.985400 0.000000
-14.957600 0.000000
-14.929800 0.000000
-14.902000 0.000000
-14.874200 0.000000
-14.846400 0.000000
-14.818600 0.000000
-14.790800 0.000000
-14.763000 0.000000
-14.735200 0.000000
-14.707400 0.000000
-14.679600 0.000000
-14.651800 0.000000
-14.624100 0.000000
-14.596300 0.000000
-14.568500 0.000000
-14.540700 0.000000
-14.512900 0.000000
-14.485100 0.000000
-14.457300 0.000000
-14.429500 0.000000
-14.401700 0.000000
-14.373900 0.000000
-14.346100 0.000000
-14.318300 0.000000
-14.290500 0.000000
-14.262700 0.000000
-14.234900 0.000000
-14.207100 0.000000
-14.179300 0.000000
-14.151500 0.000000
-14.123700 0.000000
-14.095900 0.000000
-14.068100 0.000000
-14.040300 0.000000
-14.012500 0.000000
-13.984700 0.000000
-13.956900 0.000000
-13.929100 0.000000
-13.901300 0.000000
-13.873500 0.000000
-13.845700 0.000000
-13.817900 0.000000
-13.790100 0.000000
-13.762300 0.000000
-13.734500 0.000000
-13.706700 0.000000
-13.678900 0.000000
-13.651100 0.000000
-13.623300 0.000000
-13.595500 0.000000
-13.567700 0.000000
-13.539900 0.000000
-13.512100 0.000000
-13.484300 0.000000
-13.456500 0.000000
-13.428800 0.000000
-13.401000 0.000000
-13.373200 0.000000
-13.345400 0.000000
-13.317600 0.000000
-13.289800 0.000000
-13.262000 0.000000
-13.234200 0.000000
-13.206400 0.000000
-13.178600 0.000000
-13.150800 0.000000
-13.123000 0.000000
-13.095200 0.000000
-13.067400 0.000000
-13.039600 0.000000
-13.011800 0.000000
-12.984000 0.000000
-12.956200 0.000000
-12.928400 0.000000
-12.900600 0.000000
-12.872800 0.000000
-12.845000 0.000000
-12.817200 0.000000
-12.789400 0.000000
-12.761600 0.000000
-12.733800 0.000000
-12.706000 0.000000
-12.678200 0.000000
-12.650400 0.000000
-12.622600 0.000000
-12.594800 0.000000
-12.567000 0.000000
-12.539200 0.000000
-12.511400 0.000000
-12.483600 0.000000
-12.455800 0.000000
-12.428000 0.000000
-12.400200 0.000000
-12.372400 0.000000
-12.344600 0.000000
-12.316800 0.000000
-12.289000 0.000000
-12.261200 0.000000
-12.233400 0.000000
-12.205700 0.000000
-12.177900 0.000000
-12.150100 0.000000
-12.122300 0.000000
-12.094500 0.000000
-12.066700 0.000000
-12.038900 0.000000
-12.011100 0.000000
-11.983300 0.000000
-11.955500 0.000000
-11.927700 0.000000
-11.899900 0.000000
-11.872100 0.000000
-11.844300 0.000000
-11.816500 0.000000
-11.788700 0.000000
-11.760900 0.000000
-11.733100 0.000000
-11.705300 0.000000
-11.677500 0.000000
-11.649700 0.000000
-11.621900 0.000000
-11.594100 0.000000
-11.566300 0.000000
-11.538500 0.000000
-11.510700 0.000000
-11.482900 0.000000
-11.455100 0.000000
-11.427300 0.000000
-11.399500 0.000000
-11.371700 0.000000
-11.343900 0.000000
-11.316100 0.000000
-11.288300 0.000000
-11.260500 0.000000
-11.232700 0.000000
-11.204900 0.000000
-11.177100 0.000000
-11.149300 0.000000
-11.121500 0.000000
-11.093700 0.000000
-11.065900 0.000000
-11.038100 0.000000
-11.010400 0.000000
-10.982600 0.000000
-10.954800 0.000000
-10.927000 0.000000
-10.899200 0.000000
-10.871400 0.000000
-10.843600 0.000000
-10.815800 0.000000
-10.788000 0.000000
-10.760200 0.000000
-10.732400 0.000000
-10.704600 0.000000
-10.676800 0.000000
-10.649000 0.000000
-10.621200 0.000000
-10.593400 0.000000
-10.565600 0.000000
-10.537800 0.000000
-10.510000 0.000000
-10.482200 0.000000
-10.454400 0.000000
-10.426600 0.000000
-10.398800 0.000000
-10.371000 0.000000
-10.343200 0.000000
-10.315400 0.000000
-10.287600 0.000000
-10.259800 0.000000
-10.232000 0.000000
-10.204200 0.000000
-10.176400 0.000000
-10.148600 0.000000
-10.120800 0.000000
-10.093000 0.000000
-10.065200 0.000000
-10.037400 0.000000
-10.009600 0.000000
-9.981800 0.000000
-9.954000 0.000000
-9.926200 0.000000
-9.898400 0.000000
-9.870600 0.000000
-9.842800 0.000000
-9.815000 0.000000
-9.787300 0.000000
-9.759500 0.000000
-9.731700 0.000000
-9.703900 0.000000
-9.676100 0.000000
-9.648300 0.000000
-9.620500 0.000000
-9.592700 0.000000
-9.564900 0.000000
-9.537100 0.000000
-9.509300 0.000000
-9.481500 0.000000
-9.453700 0.000000
-9.425900 0.000000
-9.398100 0.000000
-9.370300 0.000000
-9.342500 0.000000
-9.314700 0.000000
-9.286900 0.000000
-9.259100 0.000000
-9.231300 0.000000
-9.203500 0.000000
-9.175700 0.000000
-9.147900 0.000000
-9.120100 0.000000
-9.092300 0.000000
-9.064500 0.000000
-9.036700 0.000000
-9.008900 0.000000
-8.981100 0.000000
-8.953300 0.000000
-8.925500 0.000000
-8.897700 0.000000
-8.869900 0.000000
-8.842100 0.000000
-8.814300 0.000000
-8.786500 0.000000
-8.758700 0.000000
-8.730900 0.000000
-8.703100 0.000000
-8.675300 0.000000
-8.647500 0.000000
-8.619700 0.000000
-8.592000 0.000000
-8.564200 0.000000
-8.536400 0.000000
-8.508600 0.000000
-8.480800 0.000000
-8.453000 0.000000
-8.425200 0.000000
-8.397400 0.000000
-8.369600 0.000000
-8.341800 0.000000
-8.314000 0.000000
-8.286200 0.000000
-8.258400 0.000000
-8.230600 0.000000
-8.202800 0.000000
-8.175000 0.000000
-8.147200 0.000000
-8.119400 0.000000
-8.091600 0.000000
-8.063800 0.000000
-8.036000 0.000000
-8.008200 0.000000
-7.980400 0.000000
-7.952600 0.000000
-7.924800 0.000000
-7.897000 0.000000
-7.869200 0.000000
-7.841400 0.000000
-7.813600 0.000000
-7.785800 0.000000
-7.758000 0.000000
-7.730200 0.000000
-7.702400 0.000000
-7.674600 0.000000
-7.646800 0.000000
-7.619000 0.000000
-7.591200 0.000000
-7.563400 0.000000
-7.535600 0.000000
-7.507800 0.000000
-7.480000 0.000000
-7.452200 0.000000
-7.424400 0.000000
-7.396700 0.000000
-7.368900 0.000000
-7.341100 0.000000
-7.313300 0.000000
-7.285500 0.000000
-7.257700 0.000000
-7.229900 0.000000
-7.202100 0.000000
-7.174300 0.000000
-7.146500 0.000000
-7.118700 0.000000
-7.090900 0.000000
-7.063100 0.000000
-7.035300 0.000000
-7.007500 0.000000
-6.979700 0.000000
-6.951900 0.000000
-6.924100 0.000000
-6.896300 0.000000
-6.868500 0.000000
-6.840700 0.000000
-6.812900 0.000000
-6.785100 0.000000
-6.757300 0.000000
-6.729500 0.000000
-6.701700 0.000000
-6.673900 0.000000
-6.646100 0.000000
-6.618300 0.000000
-6.590500 0.000000
-6.562700 0.000000
-6.534900 0.000000
-6.507100 0.000000
-6.479300 0.000000
-6.451500 0.000000
-6.423700 0.000000
-6.395900 0.000000
-6.368100 0.000000
-6.340300 0.000000
-6.312500 0.000000
-6.284700 0.000000
-6.256900 0.000000
-6.229100 0.000000
-6.201300 0.000000
-6.173600 0.000000
-6.145800 0.000000
-6.118000 0.000000
-6.090200 0.000000
-6.062400 0.000000
-6.034600 0.000000
-6.006800 0.000000
-5.979000 0.000000
-5.951200 0.000000
-5.923400 0.000000
-5.895600 0.000000
-5.867800 0.000000
-5.840000 0.000000
-5.812200 0.000000
-5.784400 0.000000
-5.756600 0.000000
-5.728800 0.000000
-5.701000 0.000000
-5.673200 0.000000
-5.645400 0.000000
-5.617600 0.000000
-5.589800 0.000000
-5.562000 0.000000
-5.534200 0.000000
-5.506400 0.000000
-5.478600 0.000000
-5.450800 0.000000
-5.423000 0.000000
-5.395200 0.000000
-5.367400 0.000000
-5.339600 0.000000
-5.311800 0.000000
-5.284000 0.000000
-5.256200 0.000000
-5.228400 0.000000
-5.200600 0.000000
-5.172800 0.000000
-5.145000 0.000000
-5.117200 0.000000
-5.089400 0.000000
-5.061600 0.000000
-5.033800 0.000000
-5.006000 0.000000
-4.978300 0.000000
-4.950500 0.000000
-4.922700 0.000000
-4.894900 0.000000
-4.867100 0.000000
-4.839300 0.047100
-4.811500 0.075100
-4.783700 0.105400
-4.755900 0.132500
-4.728100 0.157700
-4.700300 0.179200
-4.672500 0.195900
-4.644700 0.216800
-4.616900 0.240800
-4.589100 0.268100
-4.561300 0.297200
-4.533500 1.002000
-4.505700 1.731700
-4.477900 3.137600
-4.450100 6.968200
-4.422300 11.375100
-4.394500 14.889300
-4.366700 15.791700
-4.338900 16.385700
-4.311100 11.522600
-4.283300 13.604100
-4.255500 17.655300
-4.227700 21.295600
-4.199900 23.412900
-4.172100 17.710400
-4.144300 19.227600
-4.116500 23.645000
-4.088700 18.339600
-4.060900 16.503200
-4.033100 18.329300
-4.005300 16.148600
-3.977500 18.509400
-3.949700 11.012600
-3.921900 10.359600
-3.894100 10.136900
-3.866300 7.857800
-3.838500 7.122000
-3.810700 5.953700
-3.783000 4.149600
-3.755200 5.861500
-3.727400 12.626100
-3.699600 14.010800
-3.671800 10.074600
-3.644000 6.913600
-3.616200 6.846200
-3.588400 7.691400
-3.560600 10.651700
-3.532800 13.030800
-3.505000 17.575500
-3.477200 15.372300
-3.449400 13.584300
-3.421600 13.693800
-3.393800 15.130800
-3.366000 16.243400
-3.338200 17.270800
-3.310400 20.767100
-3.282600 16.878600
-3.254800 18.905100
-3.227000 18.325900
-3.199200 18.712000
-3.171400 15.677700
-3.143600 17.648100
-3.115800 16.027700
-3.088000 10.996500
-3.060200 7.564000
-3.032400 3.212300
-3.004600 2.023700
-2.976800 1.190500
-2.949000 0.874700
-2.921200 0.844100
-2.893400 0.804200
-2.865600 0.776300
-2.837800 0.750300
-2.810000 0.728100
-2.782200 0.713900
-2.754400 0.702700
-2.726600 0.695700
-2.698800 0.692800
-2.671000 0.693100
-2.643200 0.697600
-2.615400 0.705500
-2.587600 0.713700
-2.559900 0.720600
-2.532100 0.727600
-2.504300 0.734300
-2.476500 0.740500
-2.448700 0.747000
-2.420900 0.768400
-2.393100 0.801700
-2.365300 0.778500
-2.337500 0.757600
-2.309700 0.747000
-2.281900 0.746400
-2.254100 0.749400
-2.226300 0.753200
-2.198500 0.757400
-2.170700 0.760700
-2.142900 0.763100
-2.115100 0.764700
-2.087300 0.768600
-2.059500 0.777400
-2.031700 0.799500
-2.003900 0.863400
-1.976100 0.915100
-1.948300 0.930400
-1.920500 0.936400
-1.892700 0.932300
-1.864900 0.924200
-1.837100 0.913600
-1.809300 0.907500
-1.781500 0.905400
-1.753700 0.902100
-1.725900 0.899200
-1.698100 0.896800
-1.670300 0.894800
-1.642500 0.896400
-1.614700 0.901100
-1.586900 0.903200
-1.559100 0.908900
-1.531300 0.927500
-1.503500 0.991100
-1.475700 0.959800
-1.447900 0.974000
-1.420100 0.990900
-1.392300 1.008800
-1.364600 1.026000
-1.336800 1.044000
-1.309000 1.099200
-1.281200 1.185100
-1.253400 1.242900
-1.225600 1.315800
-1.197800 1.392000
-1.170000 1.412900
-1.142200 1.361400
-1.114400 1.340300
-1.086600 1.329600
-1.058800 1.326000
-1.031000 1.332900
-1.003200 1.335100
-0.975400 1.324200
-0.947600 1.314700
-0.919800 1.305800
-0.892000 1.117700
-0.864200 1.033800
-0.836400 0.946000
-0.808600 0.875800
-0.780800 0.809800
-0.753000 0.754600
-0.725200 0.710100
-0.697400 0.675400
-0.669600 0.675100
-0.641800 0.679900
-0.614000 0.676200
-0.586200 0.676200
-0.558400 0.681900
-0.530600 0.690700
-0.502800 0.705600
-0.475000 0.726700
-0.447200 0.751200
-0.419400 0.778400
-0.391600 0.834700
-0.363800 0.871700
-0.336000 0.883200
-0.308200 0.900600
-0.280400 0.922600
-0.252600 0.945600
-0.224800 1.029300
-0.197000 1.127900
-0.169200 1.035900
-0.141500 1.027100
-0.113700 1.019400
-0.085900 1.029900
-0.058100 1.006700
-0.030300 0.989000
-0.002500 0.974500
0.025300 0.967300
0.053100 0.948400
0.080900 0.936900
0.108700 0.927000
0.136500 0.911400
0.164300 0.892900
0.192100 0.872800
0.219900 0.873900
0.247700 0.840800
0.275500 0.831000
0.303300 0.819200
0.331100 0.804500
0.358900 0.788300
0.386700 0.771400
0.414500 0.756300
0.442300 0.750400
0.470100 0.763500
0.497900 0.722800
0.525700 0.712500
0.553500 0.699700
0.581300 0.685200
0.609100 0.670700
0.636900 0.656700
0.664700 0.642600
0.692500 0.628600
0.720300 0.614600
0.748100 0.607500
0.775900 0.612100
0.803700 0.625200
0.831500 0.642900
0.859300 0.652200
0.887100 0.651900
0.914900 0.634700
0.942700 0.616100
0.970500 0.603100
0.998300 0.589400
1.026100 0.576400
1.053800 0.562400
1.081600 0.558000
1.109400 0.511700
1.137200 0.496700
1.165000 0.487300
1.192800 0.479100
1.220600 0.471800
1.248400 0.465500
1.276200 0.457600
1.304000 0.446100
1.331800 0.433200
1.359600 0.424900
1.387400 0.419700
1.415200 0.425100
1.443000 0.438400
1.470800 0.447000
1.498600 0.456100
1.526400 0.465000
1.554200 0.472700
1.582000 0.479900
1.609800 0.489100
1.637600 0.501100
1.665400 0.516700
1.693200 0.537700
1.721000 0.557200
1.748800 0.578200
1.776600 0.602300
1.804400 0.629000
1.832200 0.661300
1.860000 0.739300
1.887800 0.812000
1.915600 0.914800
1.943400 1.049900
1.971200 1.224500
1.999000 1.251300
2.026800 1.351900
2.054600 1.417800
2.082400 1.457500
2.110200 1.539900
2.138000 1.526300
2.165800 1.469200
2.193600 1.460300
2.221400 1.483000
2.249100 1.516000
2.276900 1.557300
2.304700 1.595500
2.332500 1.633800
2.360300 1.681000
2.388100 1.731100
2.415900 1.750100
2.443700 1.761200
2.471500 1.794300
2.499300 1.837900
2.527100 1.865300
2.554900 1.814200
2.582700 1.744200
2.610500 1.642500
2.638300 1.595400
2.666100 1.536500
2.693900 1.477900
2.721700 1.395000
2.749500 1.311100
2.777300 1.263700
2.805100 1.229600
2.832900 1.200700
2.860700 1.162600
2.888500 1.122200
2.916300 1.090300
2.944100 1.079100
2.971900 1.132600
2.999700 1.159600
3.027500 1.218000
3.055300 1.289900
3.083100 1.356000
3.110900 1.412200
3.138700 1.458900
3.166500 1.544800
3.194300 1.554300
3.222100 1.509400
3.249900 1.560300
3.277700 1.610800
3.305500 1.677200
3.333300 1.754600
3.361100 1.808600
3.388900 1.863600
3.416700 1.912600
3.444500 1.951400
3.472200 2.019300
3.500000 2.080600
3.527800 2.166900
3.555600 2.245300
3.583400 2.263500
3.611200 2.392500
3.639000 2.404300
3.666800 2.429300
3.694600 2.334400
3.722400 2.248600
3.750200 2.222100
3.778000 2.290700
3.805800 2.312000
3.833600 2.331000
3.861400 2.328800
3.889200 2.349100
3.917000 2.379400
3.944800 2.405800
3.972600 2.452400
4.000400 2.586000
4.028200 2.625100
4.056000 2.819800
4.083800 2.856200
4.111600 2.855000
4.139400 2.808800
4.167200 2.772600
4.195000 2.746400
4.222800 2.653700
4.250600 2.550400
4.278400 2.489100
4.306200 2.502400
4.334000 2.450500
4.361800 2.453900
4.389600 2.245700
4.417400 1.897000
4.445200 1.622800
4.473000 1.557800
4.500800 1.734200
4.528600 1.635100
4.556400 1.540900
4.584200 1.535000
4.612000 1.577400
4.639800 1.808500
4.667500 2.124000
4.695300 2.228200
4.723100 2.428700
4.750900 2.623100
4.778700 2.482000
4.806500 2.372500
4.834300 2.213400
4.862100 1.895500
4.889900 1.775200
4.917700 1.772600
4.945500 1.811400
4.973300 1.954300
5.001100 2.135600
5.028900 2.343200
5.056700 2.606900
5.084500 3.222800
5.112300 2.752500
5.140100 2.584200
5.167900 2.584600
5.195700 2.679500
5.223500 2.881900
5.251300 2.996700
5.279100 2.936400
5.306900 2.787400
5.334700 2.623300
5.362500 2.582000
5.390300 2.626000
5.418100 2.239600
5.445900 2.218700
5.473700 2.199200
5.501500 2.176700
5.529300 2.213200
5.557100 2.346000
5.584900 2.581300
5.612700 3.018800
5.640500 3.561600
5.668300 4.409500
5.696100 3.676300
5.723900 3.404300
5.751700 3.275500
5.779500 3.194100
5.807300 3.271600
5.835100 3.317200
5.862800 3.285700
5.890600 3.169900
5.918400 2.957100
5.946200 2.760200
5.974000 2.662900
6.001800 2.624400
6.029600 2.573300
6.057400 2.426500
6.085200 2.363600
6.113000 2.359500
