set title 'mp-1183214 - Density of States'
set xlabel 'Energy (eV)'
set ylabel 'DOS (states/eV)'
set grid
set xrange [-10:10]
set yrange [0:23.888]
set xzeroaxis lt -1
set terminal png size 800,600
set output 'mp-1183214_dos_gnuplot.png'
plot '-' using 1:2 with lines title 'DOS'
-6.233700 0.000000
-6.213200 0.000000
-6.192700 0.000000
-6.172200 0.000000
-6.151700 0.000000
-6.131200 0.000000
-6.110600 0.000000
-6.090100 0.000000
-6.069600 0.000000
-6.049100 0.000000
-6.028600 0.000000
-6.008100 0.000000
-5.987600 0.000000
-5.967100 0.000000
-5.946600 0.000000
-5.926000 0.000000
-5.905500 0.000000
-5.885000 0.000000
-5.864500 0.000000
-5.844000 0.000000
-5.823500 0.000000
-5.803000 0.000000
-5.782500 0.000000
-5.762000 0.000000
-5.741500 0.000000
-5.720900 0.000000
-5.700400 0.000000
-5.679900 0.000000
-5.659400 0.000000
-5.638900 0.000000
-5.618400 0.000000
-5.597900 0.000000
-5.577400 0.000000
-5.556900 0.000000
-5.536300 0.000000
-5.515800 0.000000
-5.495300 0.000000
-5.474800 0.000000
-5.454300 0.000000
-5.433800 0.000000
-5.413300 0.000000
-5.392800 0.000000
-5.372300 0.000000
-5.351700 0.000000
-5.331200 0.000000
-5.310700 0.000000
-5.290200 0.000000
-5.269700 0.000000
-5.249200 0.000000
-5.228700 0.000000
-5.208200 0.000000
-5.187700 0.000000
-5.167100 0.000000
-5.146600 0.000000
-5.126100 0.000000
-5.105600 0.000000
-5.085100 0.000000
-5.064600 0.000000
-5.044100 0.000000
-5.023600 0.000000
-5.003100 0.000000
-4.982500 0.000000
-4.962000 0.000000
-4.941500 0.000000
-4.921000 0.000000
-4.900500 0.000000
-4.880000 0.000000
-4.859500 0.000000
-4.839000 0.000000
-4.818500 0.000000
-4.798000 0.000000
-4.777400 0.000000
-4.756900 0.000000
-4.736400 0.000000
-4.715900 0.000000
-4.695400 0.000000
-4.674900 0.000000
-4.654400 0.000000
-4.633900 0.000000
-4.613400 0.000000
-4.592800 0.000000
-4.572300 0.000000
-4.551800 0.000000
-4.531300 0.000000
-4.510800 0.000000
-4.490300 0.000000
-4.469800 0.000000
-4.449300 0.000000
-4.428800 0.000000
-4.408200 0.000000
-4.387700 0.000000
-4.367200 0.000000
-4.346700 0.005800
-4.326200 0.021500
-4.305700 0.046900
-4.285200 0.082200
-4.264700 0.105800
-4.244200 0.127600
-4.223600 0.132200
-4.203100 0.139600
-4.182600 0.149100
-4.162100 0.159900
-4.141600 0.171900
-4.121100 0.185100
-4.100600 0.192700
-4.080100 0.204300
-4.059600 0.216400
-4.039000 0.228900
-4.018500 0.240300
-3.998000 0.248900
-3.977500 0.254900
-3.957000 0.258200
-3.936500 0.265900
-3.916000 0.274400
-3.895500 0.283200
-3.875000 0.292100
-3.854500 0.300700
-3.833900 0.308900
-3.813400 0.316800
-3.792900 0.324300
-3.772400 0.332000
-3.751900 0.340100
-3.731400 0.348600
-3.710900 0.357500
-3.690400 0.367000
-3.669900 0.377000
-3.649300 0.387600
-3.628800 0.398400
-3.608300 0.407000
-3.587800 0.415700
-3.567300 0.424500
-3.546800 0.433300
-3.526300 0.442200
-3.505800 0.451100
-3.485300 0.461200
-3.464700 0.471300
-3.444200 0.481400
-3.423700 0.491700
-3.403200 0.502200
-3.382700 0.512800
-3.362200 0.523600
-3.341700 0.537700
-3.321200 0.550700
-3.300700 0.564000
-3.280100 0.577700
-3.259600 0.591600
-3.239100 0.605800
-3.218600 0.620300
-3.198100 0.635100
-3.177600 0.650300
-3.157100 0.666400
-3.136600 0.685500
-3.116100 0.707900
-3.095500 0.732400
-3.075000 0.757300
-3.054500 0.783700
-3.034000 0.812600
-3.013500 0.843700
-2.993000 0.877000
-2.972500 0.912500
-2.952000 0.950400
-2.931500 0.992000
-2.911000 1.043900
-2.890400 1.099100
-2.869900 1.157500
-2.849400 1.237100
-2.828900 1.338500
-2.808400 1.415800
-2.787900 1.847300
-2.767400 2.148800
-2.746900 2.542400
-2.726400 3.098700
-2.705800 4.118800
-2.685300 4.707400
-2.664800 4.869200
-2.644300 5.840800
-2.623800 4.953300
-2.603300 4.505200
-2.582800 4.375200
-2.562300 4.222400
-2.541800 4.383700
-2.521200 4.690900
-2.500700 4.737900
-2.480200 5.108500
-2.459700 5.663900
-2.439200 6.006400
-2.418700 6.984100
-2.398200 6.049500
-2.377700 5.874600
-2.357200 6.303500
-2.336600 6.950600
-2.316100 6.984200
-2.295600 7.433100
-2.275100 8.089300
-2.254600 9.529400
-2.234100 10.589100
-2.213600 11.988900
-2.193100 12.430400
-2.172600 12.101700
-2.152000 12.516200
-2.131500 14.157600
-2.111000 13.245500
-2.090500 13.938200
-2.070000 14.173700
-2.049500 14.010400
-2.029000 13.490900
-2.008500 13.096500
-1.988000 12.485500
-1.967500 11.863700
-1.946900 11.854400
-1.926400 11.483900
-1.905900 11.086500
-1.885400 11.047500
-1.864900 11.085900
-1.844400 11.080100
-1.823900 11.659900
-1.803400 11.068700
-1.782900 9.182900
-1.762300 8.131400
-1.741800 7.779700
-1.721300 7.562700
-1.700800 7.303400
-1.680300 7.237900
-1.659800 7.466200
-1.639300 7.729200
-1.618800 8.004700
-1.598300 9.334700
-1.577700 8.243700
-1.557200 8.816100
-1.536700 10.144700
-1.516200 13.427900
-1.495700 10.816000
-1.475200 10.157900
-1.454700 9.893000
-1.434200 10.140400
-1.413700 10.289800
-1.393100 10.606100
-1.372600 11.292300
-1.352100 11.145000
-1.331600 11.374400
-1.311100 11.223600
-1.290600 11.194100
-1.270100 10.854600
-1.249600 10.713000
-1.229100 10.086800
-1.208600 9.967100
-1.188000 10.450800
-1.167500 12.132000
-1.147000 9.801600
-1.126500 9.756700
-1.106000 9.870300
-1.085500 10.040800
-1.065000 11.187800
-1.044500 11.859900
-1.024000 11.983600
-1.003400 12.379200
-0.982900 13.130700
-0.962400 13.572200
-0.941900 14.346000
-0.921400 15.556900
-0.900900 17.487800
-0.880400 19.964200
-0.859900 20.967700
-0.839400 20.952800
-0.818800 21.716300
-0.798300 20.372800
-0.777800 18.312700
-0.757300 15.179900
-0.736800 14.049100
-0.716300 13.807900
-0.695800 13.119700
-0.675300 11.875100
-0.654800 10.714500
-0.634200 6.116500
-0.613700 6.665100
-0.593200 7.526400
-0.572700 8.092400
-0.552200 9.111500
-0.531700 9.749300
-0.511200 10.238200
-0.490700 11.306500
-0.470200 11.581500
-0.449600 12.021500
-0.429100 12.731700
-0.408600 12.091500
-0.388100 12.380800
-0.367600 12.845200
-0.347100 13.049100
-0.326600 12.984100
-0.306100 13.911200
-0.285600 14.567900
-0.265100 13.709300
-0.244500 12.320200
-0.224000 11.894200
-0.203500 12.709700
-0.183000 12.713800
-0.162500 13.530400
-0.142000 10.988600
-0.121500 11.105600
-0.101000 11.377800
-0.080500 11.027200
-0.059900 10.006800
-0.039400 9.478000
-0.018900 9.520800
0.001600 8.876500
0.022100 8.411100
0.042600 8.060200
0.063100 8.703900
0.083600 8.958500
0.104100 9.025700
0.124700 10.025100
0.145200 11.134500
0.165700 11.403800
0.186200 11.660100
0.206700 11.089300
0.227200 10.551600
0.247700 11.228700
0.268200 11.156500
0.288700 12.442000
0.309300 12.122300
0.329800 12.258200
0.350300 12.124000
0.370800 11.495700
0.391300 10.601500
0.411800 10.535800
0.432300 10.378300
0.452800 10.185000
0.473300 10.000600
0.493900 10.540400
0.514400 10.580500
0.534900 10.966100
0.555400 11.003300
0.575900 11.064800
0.596400 10.593000
0.616900 10.093400
0.637400 9.773800
0.657900 9.920800
0.678400 10.207300
0.699000 10.632200
0.719500 12.774100
0.740000 14.247800
0.760500 12.783000
0.781000 9.166100
0.801500 9.182300
0.822000 12.160600
0.842500 12.354200
0.863000 13.247700
0.883600 13.516600
0.904100 11.379500
0.924600 10.833500
0.945100 9.884500
0.965600 9.484600
0.986100 9.529400
1.006600 8.671100
1.027100 7.112800
1.047600 4.953000
1.068200 3.628500
1.088700 2.895800
1.109200 2.700000
1.129700 2.547400
1.150200 2.460800
1.170700 2.242800
1.191200 1.983300
1.211700 1.626600
1.232200 1.331600
1.252800 1.059300
1.273300 0.895300
1.293800 0.841200
1.314300 0.803500
1.334800 0.774400
1.355300 0.761800
1.375800 0.777100
1.396300 0.789000
1.416800 0.805300
1.437400 0.824000
1.457900 0.861800
1.478400 0.878900
1.498900 0.903900
1.519400 0.941000
1.539900 0.972300
1.560400 1.003900
1.580900 1.032800
1.601400 1.070600
1.621900 1.101900
1.642500 1.089600
1.663000 1.076400
1.683500 1.062500
1.704000 1.045200
1.724500 1.034400
1.745000 1.019700
1.765500 1.008500
1.786000 1.000900
1.806500 0.996600
1.827100 0.991900
1.847600 0.979400
1.868100 0.964100
1.888600 0.958500
1.909100 0.954600
1.929600 0.951800
1.950100 0.949800
1.970600 0.947800
1.991100 0.945700
2.011700 0.943500
2.032200 0.939000
2.052700 0.931200
2.073200 0.924200
2.093700 0.920300
2.114200 0.967200
2.134700 0.978300
2.155200 0.960300
2.175700 0.941800
2.196300 0.933000
2.216800 0.919700
2.237300 0.923000
2.257800 0.927000
2.278300 0.931900
2.298800 0.937500
2.319300 0.962200
2.339800 0.973600
2.360300 0.980700
2.380900 0.957600
2.401400 0.943400
2.421900 0.938200
2.442400 0.943700
2.462900 0.950000
2.483400 0.956000
2.503900 0.961200
2.524400 0.964700
2.544900 0.967800
2.565400 0.970600
2.586000 0.967900
2.606500 0.972600
2.627000 0.976800
2.647500 0.980400
2.668000 0.992100
2.688500 0.995900
2.709000 0.984200
2.729500 0.986100
2.750000 0.988300
2.770600 0.990300
2.791100 0.992100
2.811600 0.993600
2.832100 0.994300
2.852600 0.994100
2.873100 0.993100
2.893600 1.007900
2.914100 1.025100
2.934600 1.042400
2.955200 1.058600
2.975700 1.073600
2.996200 1.086800
3.016700 1.138400
3.037200 1.170200
3.057700 1.216000
3.078200 1.265200
3.098700 1.217800
3.119200 1.167900
3.139800 1.153600
3.160300 1.124500
3.180800 1.111700
3.201300 1.129600
3.221800 1.104600
3.242300 1.068400
3.262800 1.039100
3.283300 1.017800
3.303800 1.013000
3.324400 1.020600
3.344900 1.021900
3.365400 1.024400
3.385900 1.027200
3.406400 1.030200
3.426900 1.033300
3.447400 1.036300
3.467900 1.039200
3.488400 1.041900
3.508900 1.044400
3.529500 1.048400
3.550000 1.052300
3.570500 1.056300
3.591000 1.060900
3.611500 1.065500
3.632000 1.070100
3.652500 1.074900
3.673000 1.078900
3.693500 1.081100
3.714100 1.083300
3.734600 1.084800
3.755100 1.085900
3.775600 1.089500
3.796100 1.125700
3.816600 1.133400
3.837100 1.141000
3.857600 1.147200
3.878100 1.152200
3.898700 1.155100
3.919200 1.165300
3.939700 1.205200
3.960200 1.251900
3.980700 1.131300
4.001200 1.134000
4.021700 1.136400
4.042200 1.137600
4.062700 1.139200
4.083300 1.140300
4.103800 1.139200
4.124300 1.135900
4.144800 1.130400
4.165300 1.100300
4.185800 1.097100
4.206300 1.065800
4.226800 1.065400
4.247300 1.066000
4.267900 1.066300
4.288400 1.064300
4.308900 1.062600
4.329400 1.061000
4.349900 1.059600
4.370400 1.060000
4.390900 1.060800
4.411400 1.061700
4.431900 1.062700
4.452400 1.063600
4.473000 1.068200
4.493500 1.072900
4.514000 1.076200
4.534500 1.079200
4.555000 1.081900
4.575500 1.084400
4.596000 1.087300
4.616500 1.090200
4.637000 1.092800
4.657600 1.095600
4.678100 1.096800
4.698600 1.087800
4.719100 1.086600
4.739600 1.087000
4.760100 1.088100
4.780600 1.088500
4.801100 1.090100
4.821600 1.092900
4.842200 1.095000
4.862700 1.097900
4.883200 1.101100
4.903700 1.105200
4.924200 1.110400
4.944700 1.116300
4.965200 1.122200
4.985700 1.127900
5.006200 1.133300
5.026800 1.138600
5.047300 1.143700
5.067800 1.149100
5.088300 1.154300
5.108800 1.156900
5.129300 1.159200
5.149800 1.162500
5.170300 1.167000
5.190800 1.184700
5.211400 1.218700
5.231900 1.200300
5.252400 1.197100
5.272900 1.193300
5.293400 1.186800
5.313900 1.179300
5.334400 1.171200
5.354900 1.162400
5.375400 1.152900
5.395900 1.142700
5.416500 1.131700
5.437000 1.120000
5.457500 1.108600
5.478000 1.097100
5.498500 1.085200
5.519000 1.073000
5.539500 1.060700
5.560000 1.048400
5.580500 1.034800
5.601100 1.019700
5.621600 1.003200
5.642100 0.986000
5.662600 0.969500
5.683100 0.953800
5.703600 0.938500
5.724100 0.924100
5.744600 0.911200
5.765100 0.900800
5.785700 0.892000
5.806200 0.885300
5.826700 0.879900
5.847200 0.874700
5.867700 0.868500
5.888200 0.861500
5.908700 0.853500
5.929200 0.837600
5.949700 0.821200
5.970300 0.818400
5.990800 0.816800
6.011300 0.817000
6.031800 0.816900
6.052300 0.816400
6.072800 0.815500
6.093300 0.811300
6.113800 0.806800
6.134300 0.801800
6.154900 0.796200
6.175400 0.790100
6.195900 0.784900
6.216400 0.779900
6.236900 0.774900
6.257400 0.770000
6.277900 0.770800
6.298400 0.779200
6.318900 0.795700
6.339400 0.759600
6.360000 0.762300
6.380500 0.773000
6.401000 0.797200
6.421500 0.823600
6.442000 0.851000
6.462500 0.874400
6.483000 0.893700
6.503500 0.910300
6.524000 0.926100
6.544600 0.941400
6.565100 0.955300
6.585600 0.968000
6.606100 0.980400
6.626600 0.989300
6.647100 1.015800
6.667600 1.012900
6.688100 1.046000
6.708600 1.040500
6.729200 1.051700
6.749700 1.058700
6.770200 1.063900
6.790700 1.084100
6.811200 1.120200
6.831700 1.186600
6.852200 1.230700
6.872700 1.274800
6.893200 1.320000
6.913800 1.367000
6.934300 1.416600
6.954800 1.439500
6.975300 1.453300
6.995800 1.463800
7.016300 1.472500
7.036800 1.478900
7.057300 1.485800
7.077800 1.491900
7.098300 1.475800
7.118900 1.467300
7.139400 1.453000
7.159900 1.424900
7.180400 1.381300
7.200900 1.352300
7.221400 1.326000
7.241900 1.301400
7.262400 1.280400
7.282900 1.280900
7.303500 1.316300
7.324000 1.329800
7.344500 1.317100
7.365000 1.331300
7.385500 1.327400
7.406000 1.173700
7.426500 1.143100
7.447000 1.118600
7.467500 1.099600
7.488100 1.085100
7.508600 1.072300
7.529100 1.056200
7.549600 1.038500
7.570100 1.024500
7.590600 0.986000
7.611100 0.977300
7.631600 0.987300
7.652100 1.010000
7.672700 1.024500
7.693200 1.041700
7.713700 1.064000
7.734200 1.093400
7.754700 1.126400
7.775200 1.133900
7.795700 1.130100
7.816200 1.125000
7.836700 1.118700
7.857300 1.129100
7.877800 1.134900
7.898300 1.143600
7.918800 1.153200
7.939300 1.162900
7.959800 1.172300
7.980300 1.181300
8.000800 1.190000
8.021300 1.198400
8.041800 1.206300
8.062400 1.213300
8.082900 1.219900
8.103400 1.226300
8.123900 1.232000
8.144400 1.238400
8.164900 1.237900
8.185400 1.239400
8.205900 1.241700
8.226400 1.244800
8.247000 1.251200
8.267500 1.222700
8.288000 1.211900
8.308500 1.208400
8.329000 1.206200
8.349500 1.205000
8.370000 1.204700
8.390500 1.205700
8.411000 1.208200
8.431600 1.212200
8.452100 1.217700
8.472600 1.224600
8.493100 1.231200
8.513600 1.239700
8.534100 1.248300
8.554600 1.257200
8.575100 1.259100
8.595600 1.266800
8.616200 1.274800
8.636700 1.283100
8.657200 1.293900
8.677700 1.304000
8.698200 1.298400
8.718700 1.307000
8.739200 1.280500
8.759700 1.270300
8.780200 1.260700
8.800800 1.252400
8.821300 1.255200
8.841800 1.260500
8.862300 1.273200
8.882800 1.295100
8.903300 1.325200
8.923800 1.350000
8.944300 1.353000
8.964800 1.327600
8.985300 1.304200
9.005900 1.281800
9.026400 1.260800
9.046900 1.244900
9.067400 1.241700
9.087900 1.236900
9.108400 1.244600
9.128900 1.256300
9.149400 1.267100
9.169900 1.279000
9.190500 1.291300
9.211000 1.304100
9.231500 1.316900
9.252000 1.329800
9.272500 1.342300
9.293000 1.341700
9.313500 1.348600
9.334000 1.354500
9.354500 1.361200
9.375100 1.361900
9.395600 1.368700
9.416100 1.380000
9.436600 1.393500
9.457100 1.399100
9.477600 1.402400
9.498100 1.406200
9.518600 1.415000
9.539100 1.459600
9.559700 1.519700
9.580200 1.494800
9.600700 1.469600
9.621200 1.447100
9.641700 1.428900
9.662200 1.415300
9.682700 1.404700
9.703200 1.396600
9.723700 1.391300
9.744300 1.387200
9.764800 1.380400
9.785300 1.374200
9.805800 1.371200
9.826300 1.371300
9.846800 1.374700
9.867300 1.379100
9.887800 1.384500
9.908300 1.383700
9.928800 1.367500
9.949400 1.380200
9.969900 1.395300
9.990400 1.432400
10.010900 1.442200
10.031400 1.429500
10.051900 1.432200
10.072400 1.433100
10.092900 1.432000
10.113400 1.428300
10.134000 1.497700
10.154500 1.368100
10.175000 1.360700
10.195500 1.356700
10.216000 1.359000
10.236500 1.370000
10.257000 1.381500
10.277500 1.404200
10.298000 1.424700
10.318600 1.443600
10.339100 1.526200
10.359600 1.507200
10.380100 1.483000
10.400600 1.464400
10.421100 1.453000
10.441600 1.445300
10.462100 1.434700
10.482600 1.422100
10.503200 1.412800
10.523700 1.409100
10.544200 1.403600
10.564700 1.411100
10.585200 1.416800
10.605700 1.420300
10.626200 1.421200
10.646700 1.423400
10.667200 1.431800
10.687800 1.440500
10.708300 1.465800
10.728800 1.464100
10.749300 1.464300
10.769800 1.461000
10.790300 1.474100
10.810800 1.483400
10.831300 1.492900
10.851800 1.505600
10.872300 1.532900
10.892900 1.546200
10.913400 1.563100
10.933900 1.584200
10.954400 1.608800
10.974900 1.631300
10.995400 1.648900
11.015900 1.670000
11.036400 1.690600
11.056900 1.710400
11.077500 1.698200
11.098000 1.702700
11.118500 1.697100
11.139000 1.683700
11.159500 1.664600
11.180000 1.663200
11.200500 1.667900
11.221000 1.659500
11.241500 1.651000
11.262100 1.643700
11.282600 1.640400
11.303100 1.641000
11.323600 1.655400
11.344100 1.677700
11.364600 1.704000
11.385100 1.743200
11.405600 1.792300
11.426100 1.825400
11.446700 1.859500
11.467200 1.840700
11.487700 1.844200
11.508200 1.840100
11.528700 1.813700
11.549200 1.797900
11.569700 1.781600
11.590200 1.764100
11.610700 1.746900
11.631300 1.729700
11.651800 1.713600
11.672300 1.749800
11.692800 1.728500
11.713300 1.692100
11.733800 1.680800
11.754300 1.674400
11.774800 1.668000
11.795300 1.661500
11.815800 1.659500
11.836400 1.651400
11.856900 1.652000
11.877400 1.648200
11.897900 1.660200
11.918400 1.713900
11.938900 1.805100
11.959400 1.942900
11.979900 2.024300
12.000400 2.058200
12.021000 1.809100
12.041500 1.749500
12.062000 1.707500
12.082500 1.650600
12.103000 1.604900
12.123500 1.581700
12.144000 1.719700
12.164500 1.640400
12.185000 1.643800
12.205600 1.632000
12.226100 1.620700
12.246600 1.617200
12.267100 1.613100
12.287600 1.618100
12.308100 1.631900
12.328600 1.637200
12.349100 1.635300
12.369600 1.651600
12.390200 1.632000
12.410700 1.624800
12.431200 1.639900
12.451700 1.654100
12.472200 1.680400
12.492700 1.703200
12.513200 1.717700
12.533700 1.730600
12.554200 1.742600
12.574800 1.753600
12.595300 1.763000
12.615800 1.771500
12.636300 1.778600
12.656800 1.783800
12.677300 1.788600
12.697800 1.793700
12.718300 2.110500
12.738800 1.816900
12.759300 1.812200
12.779900 1.806900
12.800400 1.806300
12.820900 1.825000
12.841400 1.835500
12.861900 1.823600
12.882400 1.823200
12.902900 1.840700
12.923400 1.809200
12.943900 1.788300
12.964500 1.776100
12.985000 1.766100
13.005500 1.757600
13.026000 1.750400
13.046500 1.744800
13.067000 1.743300
13.087500 1.743300
13.108000 1.743400
13.128500 1.742600
13.149100 1.749800
13.169600 1.754500
13.190100 1.764300
13.210600 1.768200
13.231100 1.729400
13.251600 1.683600
13.272100 1.647300
13.292600 1.647700
13.313100 1.706500
13.333700 1.795100
13.354200 1.804500
13.374700 1.812700
13.395200 1.844100
13.415700 1.863800
13.436200 1.887200
13.456700 1.913100
13.477200 1.941800
13.497700 1.994400
13.518300 2.045400
13.538800 2.083900
13.559300 2.132000
13.579800 2.075600
13.600300 2.081900
13.620800 2.088300
13.641300 2.125600
13.661800 2.156200
13.682300 2.175600
13.702800 2.191000
13.723400 2.181700
13.743900 2.183400
13.764400 2.184200
13.784900 2.179100
13.805400 2.179900
13.825900 2.175000
13.846400 2.152600
13.866900 2.133100
13.887400 2.121100
13.908000 2.119900
13.928500 2.129000
13.949000 2.146700
13.969500 2.179800
13.990000 2.232000
14.010500 2.288400
14.031000 2.295100
14.051500 2.299700
14.072000 2.292800
14.092600 2.276000
14.113100 2.255700
14.133600 2.248100
14.154100 2.252100
14.174600 2.261200
14.195100 2.263200
14.215600 2.255400
14.236100 2.279700
14.256600 2.308000
14.277200 2.332500
14.297700 2.351300
14.318200 2.379200
14.338700 2.409400
14.359200 2.434500
14.379700 2.452900
14.400200 2.463700
14.420700 2.473500
14.441200 2.515800
14.461700 2.505600
14.482300 2.415100
14.502800 2.341200
14.523300 2.301600
14.543800 2.264800
14.564300 2.230000
14.584800 2.213100
14.605300 2.167600
14.625800 2.137700
14.646300 2.116400
14.666900 2.105600
14.687400 2.101300
14.707900 2.098700
14.728400 2.100000
14.748900 2.101600
14.769400 2.081300
14.789900 2.035000
14.810400 2.072000
14.830900 2.115900
14.851500 2.158700
14.872000 2.192900
14.892500 2.214700
14.913000 2.224800
14.933500 2.229900
14.954000 2.233700
14.974500 2.231100
14.995000 2.229500
15.015500 2.235000
15.036100 2.247300
15.056600 2.264300
15.077100 2.283200
15.097600 2.297600
15.118100 2.286800
15.138600 2.269100
15.159100 2.240700
15.179600 2.203800
15.200100 2.157300
15.220700 2.100300
15.241200 2.050100
15.261700 2.025700
15.282200 2.041600
15.302700 2.134400
15.323200 2.139900
15.343700 2.102600
15.364200 2.002500
15.384700 1.985300
15.405200 1.974900
15.425800 1.969600
