set title 'mp-1184554 - Density of States'
set xlabel 'Energy (eV)'
set ylabel 'DOS (states/eV)'
set grid
set xrange [-10:10]
set yrange [0:36.355]
set xzeroaxis lt -1
set terminal png size 800,600
set output 'mp-1184554_dos_gnuplot.png'
plot '-' using 1:2 with lines title 'DOS'
-8.503600 0.000000
-8.477600 0.000000
-8.451600 0.000000
-8.425600 0.000000
-8.399600 0.000000
-8.373500 0.000000
-8.347500 0.000000
-8.321500 0.000000
-8.295500 0.000000
-8.269500 0.000000
-8.243500 0.000000
-8.217500 0.000000
-8.191500 0.000000
-8.165500 0.000000
-8.139500 0.000000
-8.113500 0.000000
-8.087500 0.000000
-8.061500 0.000000
-8.035500 0.000000
-8.009500 0.000000
-7.983500 0.000000
-7.957400 0.000000
-7.931400 0.000000
-7.905400 0.000000
-7.879400 0.000000
-7.853400 0.000000
-7.827400 0.000000
-7.801400 0.000000
-7.775400 0.000000
-7.749400 0.000000
-7.723400 0.000000
-7.697400 0.000000
-7.671400 0.000000
-7.645400 0.000000
-7.619400 0.000000
-7.593400 0.000000
-7.567400 0.000000
-7.541300 0.000000
-7.515300 0.000000
-7.489300 0.000000
-7.463300 0.000000
-7.437300 0.000000
-7.411300 0.000000
-7.385300 0.000000
-7.359300 0.000000
-7.333300 0.000000
-7.307300 0.000000
-7.281300 0.000000
-7.255300 0.000000
-7.229300 0.000000
-7.203300 0.000000
-7.177300 0.000000
-7.151300 0.000000
-7.125200 0.000000
-7.099200 0.000000
-7.073200 0.000000
-7.047200 0.000000
-7.021200 0.000000
-6.995200 0.000000
-6.969200 0.000000
-6.943200 0.000000
-6.917200 0.000000
-6.891200 0.000000
-6.865200 0.000000
-6.839200 0.000000
-6.813200 0.000000
-6.787200 0.000000
-6.761200 0.000000
-6.735200 0.000000
-6.709100 0.000000
-6.683100 0.000000
-6.657100 0.000000
-6.631100 0.000000
-6.605100 0.000000
-6.579100 0.000000
-6.553100 0.000000
-6.527100 0.000000
-6.501100 0.000000
-6.475100 0.000000
-6.449100 0.000000
-6.423100 0.000000
-6.397100 0.000000
-6.371100 0.000000
-6.345100 0.000000
-6.319100 0.000000
-6.293000 0.000000
-6.267000 0.000000
-6.241000 0.000000
-6.215000 0.000000
-6.189000 0.000000
-6.163000 0.000000
-6.137000 0.000100
-6.111000 0.011900
-6.085000 0.043600
-6.059000 0.093600
-6.033000 0.123400
-6.007000 0.140000
-5.981000 0.159000
-5.955000 0.195700
-5.929000 3.257300
-5.903000 5.885900
-5.876900 7.662100
-5.850900 10.033700
-5.824900 14.638900
-5.798900 18.808400
-5.772900 21.231900
-5.746900 25.479100
-5.720900 19.113300
-5.694900 22.570700
-5.668900 16.705700
-5.642900 15.468200
-5.616900 23.201600
-5.590900 17.138800
-5.564900 12.260200
-5.538900 22.340800
-5.512900 27.612900
-5.486900 17.878300
-5.460800 15.640500
-5.434800 13.759200
-5.408800 27.122300
-5.382800 19.732800
-5.356800 17.371200
-5.330800 15.184600
-5.304800 16.871000
-5.278800 23.372100
-5.252800 21.562300
-5.226800 18.238300
-5.200800 22.558100
-5.174800 19.400600
-5.148800 16.179100
-5.122800 16.433200
-5.096800 15.613700
-5.070700 17.378800
-5.044700 15.814700
-5.018700 19.259400
-4.992700 19.894700
-4.966700 21.464100
-4.940700 23.743400
-4.914700 33.049600
-4.888700 30.343100
-4.862700 23.334200
-4.836700 0.617200
-4.810700 0.607700
-4.784700 0.597900
-4.758700 0.578600
-4.732700 0.571800
-4.706700 0.557800
-4.680700 0.525600
-4.654600 0.492600
-4.628600 0.475400
-4.602600 0.466000
-4.576600 0.457200
-4.550600 0.447000
-4.524600 0.437200
-4.498600 0.429300
-4.472600 0.424500
-4.446600 0.422200
-4.420600 0.420100
-4.394600 0.418800
-4.368600 0.418100
-4.342600 0.417700
-4.316600 0.417300
-4.290600 0.429700
-4.264600 0.443900
-4.238500 0.459100
-4.212500 0.471000
-4.186500 0.456200
-4.160500 0.460200
-4.134500 0.464600
-4.108500 0.468800
-4.082500 0.471700
-4.056500 0.474800
-4.030500 0.479200
-4.004500 0.483700
-3.978500 0.486300
-3.952500 0.488000
-3.926500 0.489700
-3.900500 0.491600
-3.874500 0.495400
-3.848500 0.499300
-3.822400 0.503300
-3.796400 0.507300
-3.770400 0.511200
-3.744400 0.513900
-3.718400 0.516900
-3.692400 0.520200
-3.666400 0.524700
-3.640400 0.529300
-3.614400 0.530100
-3.588400 0.533800
-3.562400 0.537500
-3.536400 0.541300
-3.510400 0.544900
-3.484400 0.548300
-3.458400 0.551700
-3.432400 0.555700
-3.406300 0.559900
-3.380300 0.564100
-3.354300 0.568000
-3.328300 0.571700
-3.302300 0.575200
-3.276300 0.578900
-3.250300 0.582800
-3.224300 0.586700
-3.198300 0.590700
-3.172300 0.593900
-3.146300 0.596600
-3.120300 0.597800
-3.094300 0.600700
-3.068300 0.604200
-3.042300 0.607800
-3.016300 0.611400
-2.990200 0.615100
-2.964200 0.619000
-2.938200 0.623100
-2.912200 0.627300
-2.886200 0.631400
-2.860200 0.635700
-2.834200 0.640000
-2.808200 0.644500
-2.782200 0.649000
-2.756200 0.653500
-2.730200 0.658100
-2.704200 0.662700
-2.678200 0.667400
-2.652200 0.672000
-2.626200 0.676500
-2.600200 0.681000
-2.574100 0.685700
-2.548100 0.689200
-2.522100 0.694100
-2.496100 0.699200
-2.470100 0.704500
-2.444100 0.709800
-2.418100 0.715200
-2.392100 0.720700
-2.366100 0.726400
-2.340100 0.732600
-2.314100 0.739500
-2.288100 0.746700
-2.262100 0.754100
-2.236100 0.761700
-2.210100 0.769600
-2.184100 0.777700
-2.158000 0.786000
-2.132000 0.794500
-2.106000 0.803200
-2.080000 0.812200
-2.054000 0.821400
-2.028000 0.861800
-2.002000 0.903200
-1.976000 0.920000
-1.950000 0.926900
-1.924000 0.931800
-1.898000 0.934700
-1.872000 0.935600
-1.846000 0.934400
-1.820000 0.929100
-1.794000 0.919200
-1.768000 0.909200
-1.741900 0.902400
-1.715900 0.898200
-1.689900 0.896700
-1.663900 0.898300
-1.637900 1.002500
-1.611900 1.026500
-1.585900 0.960100
-1.559900 0.935700
-1.533900 0.933900
-1.507900 0.931700
-1.481900 0.929800
-1.455900 0.928100
-1.429900 0.926700
-1.403900 0.910000
-1.377900 0.910100
-1.351900 0.910400
-1.325800 0.910900
-1.299800 0.911200
-1.273800 0.911500
-1.247800 0.911700
-1.221800 0.912300
-1.195800 0.913300
-1.169800 0.965600
-1.143800 0.941000
-1.117800 0.923500
-1.091800 0.904200
-1.065800 0.918400
-1.039800 0.891700
-1.013800 0.845300
-0.987800 0.838200
-0.961800 0.838000
-0.935800 0.842600
-0.909700 0.850000
-0.883700 0.860000
-0.857700 0.868500
-0.831700 0.926000
-0.805700 0.909300
-0.779700 0.955800
-0.753700 1.107400
-0.727700 1.168100
-0.701700 1.236100
-0.675700 1.239600
-0.649700 1.229300
-0.623700 1.316200
-0.597700 1.383800
-0.571700 1.440300
-0.545700 1.543400
-0.519700 1.679800
-0.493600 1.912400
-0.467600 1.941500
-0.441600 1.733700
-0.415600 1.698100
-0.389600 1.667000
-0.363600 1.665300
-0.337600 1.663500
-0.311600 1.690100
-0.285600 1.660300
-0.259600 1.467100
-0.233600 1.181300
-0.207600 1.049200
-0.181600 1.060800
-0.155600 0.890400
-0.129600 0.847500
-0.103600 0.803800
-0.077500 0.698100
-0.051500 0.572100
-0.025500 0.432700
0.000500 0.357500
0.026500 0.293200
0.052500 0.248100
0.078500 0.000000
0.104500 0.000000
0.130500 0.000000
0.156500 0.000000
0.182500 0.000000
0.208500 0.000000
0.234500 0.000000
0.260500 0.000000
0.286500 0.000000
0.312500 0.000000
0.338600 0.000000
0.364600 0.000000
0.390600 0.000000
0.416600 0.000600
0.442600 0.001800
0.468600 0.003700
0.494600 0.006400
0.520600 0.009500
0.546600 0.011500
0.572600 0.013500
0.598600 0.015600
0.624600 0.017800
0.650600 0.020100
0.676600 0.022500
0.702600 0.024900
0.728600 0.027400
0.754700 0.030000
0.780700 0.033000
0.806700 0.044400
0.832700 0.064000
0.858700 0.086900
0.884700 0.111500
0.910700 0.137600
0.936700 0.165300
0.962700 0.193700
0.988700 0.218600
1.014700 0.241000
1.040700 0.261000
1.066700 0.278700
1.092700 0.330000
1.118700 0.315600
1.144700 0.300900
1.170800 0.292600
1.196800 0.299500
1.222800 0.310700
1.248800 0.324200
1.274800 0.342400
1.300800 0.362300
1.326800 0.381900
1.352800 0.397400
1.378800 0.408900
1.404800 0.413900
1.430800 0.431800
1.456800 0.452000
1.482800 0.473500
1.508800 0.496500
1.534800 0.520800
1.560800 0.544200
1.586900 0.573300
1.612900 0.591800
1.638900 0.609000
1.664900 0.624800
1.690900 0.637200
1.716900 0.650800
1.742900 0.669000
1.768900 0.680300
1.794900 0.695100
1.820900 0.714200
1.846900 0.735500
1.872900 0.759100
1.898900 0.782900
1.924900 0.807400
1.950900 0.832400
1.976900 0.858000
2.003000 0.884400
2.029000 0.911400
2.055000 0.949300
2.081000 1.040700
2.107000 1.104400
2.133000 1.162900
2.159000 1.302100
2.185000 1.358500
2.211000 1.401900
2.237000 1.431600
2.263000 1.536700
2.289000 1.497800
2.315000 1.459700
2.341000 1.476300
2.367000 1.533100
2.393000 1.528500
2.419100 1.507000
2.445100 1.479600
2.471100 1.445800
2.497100 1.400700
2.523100 1.330500
2.549100 1.257800
2.575100 1.194300
2.601100 1.172900
2.627100 1.174200
2.653100 1.172700
2.679100 1.173300
2.705100 1.183000
2.731100 1.179800
2.757100 1.131800
2.783100 1.102400
2.809100 1.071200
2.835200 1.038300
2.861200 1.006500
2.887200 0.981000
2.913200 0.961200
2.939200 0.940500
2.965200 0.918200
2.991200 0.893400
3.017200 0.862400
3.043200 0.843800
3.069200 0.827900
3.095200 0.813000
3.121200 0.811400
3.147200 0.801700
3.173200 0.793500
3.199200 0.787100
3.225200 0.782200
3.251300 0.778600
3.277300 0.773400
3.303300 0.770000
3.329300 0.770800
3.355300 0.775600
3.381300 0.783400
3.407300 0.801600
3.433300 0.829600
3.459300 0.871400
3.485300 0.910800
3.511300 0.918000
3.537300 0.945700
3.563300 0.971800
3.589300 0.996400
3.615300 1.018800
3.641300 1.043400
3.667400 1.086400
3.693400 1.117900
3.719400 1.137100
3.745400 1.150300
3.771400 1.163100
3.797400 1.173600
3.823400 1.181900
3.849400 1.188100
3.875400 1.192700
3.901400 1.195800
3.927400 1.196500
3.953400 1.194600
3.979400 1.167400
4.005400 1.173100
4.031400 1.152900
4.057500 1.128200
4.083500 1.098600
4.109500 1.076500
4.135500 1.038900
4.161500 0.990600
4.187500 0.945600
4.213500 0.913600
4.239500 0.887500
4.265500 0.870400
4.291500 0.863100
4.317500 0.866500
4.343500 0.872500
4.369500 0.880700
4.395500 0.890800
4.421500 0.912300
4.447500 0.948500
4.473600 0.992000
4.499600 1.017000
4.525600 1.041600
4.551600 1.067700
4.577600 1.094200
4.603600 1.125500
4.629600 1.156800
4.655600 1.187200
4.681600 1.216600
4.707600 1.244800
4.733600 1.269600
4.759600 1.299100
4.785600 1.329000
4.811600 1.356300
4.837600 1.355900
4.863600 1.329300
4.889700 1.278200
4.915700 1.237200
4.941700 1.194900
4.967700 1.157800
4.993700 1.125700
5.019700 1.095100
5.045700 1.072000
5.071700 1.057900
5.097700 1.036100
5.123700 0.996700
5.149700 0.968200
5.175700 0.949900
5.201700 0.940600
5.227700 0.938400
5.253700 0.939500
5.279700 0.942500
5.305800 0.947700
5.331800 0.954500
5.357800 0.962700
5.383800 0.971500
5.409800 0.980400
5.435800 0.993200
5.461800 1.004000
5.487800 1.015500
5.513800 1.028300
5.539800 1.042200
5.565800 1.097600
5.591800 1.150600
5.617800 1.122000
5.643800 1.147700
5.669800 1.185900
5.695800 1.231800
5.721900 1.362200
5.747900 1.349900
5.773900 1.149800
5.799900 1.154300
5.825900 1.165200
5.851900 1.175400
5.877900 1.103200
5.903900 1.095800
5.929900 1.094000
5.955900 1.085700
5.981900 1.083100
6.007900 1.085500
6.033900 1.089800
6.059900 1.090500
6.085900 1.087900
6.111900 1.084000
6.138000 1.080000
6.164000 1.076700
6.190000 1.073100
6.216000 1.069300
6.242000 1.065200
6.268000 1.074700
6.294000 1.075800
6.320000 1.071700
6.346000 1.063300
6.372000 1.066800
6.398000 1.072700
6.424000 1.080800
6.450000 1.091200
6.476000 1.103700
6.502000 1.121300
6.528000 1.127900
6.554100 1.131500
6.580100 1.140900
6.606100 1.149200
6.632100 1.158100
6.658100 1.166600
6.684100 1.177400
6.710100 1.188900
6.736100 1.200400
6.762100 1.212100
6.788100 1.224000
6.814100 1.233900
6.840100 1.246900
6.866100 1.252800
6.892100 1.263200
6.918100 1.270200
6.944100 1.281700
6.970200 1.299800
6.996200 1.325300
7.022200 1.358600
7.048200 1.387800
7.074200 1.403100
7.100200 1.426700
7.126200 1.463800
7.152200 1.464300
7.178200 1.481600
7.204200 1.539500
7.230200 1.603000
7.256200 1.568100
7.282200 1.617500
7.308200 1.792300
7.334200 1.427300
7.360200 1.398600
7.386300 1.377100
7.412300 1.363400
7.438300 1.353900
7.464300 1.350200
7.490300 1.348000
7.516300 1.345700
7.542300 1.343400
7.568300 1.342200
7.594300 1.341400
7.620300 1.342700
7.646300 1.346100
7.672300 1.342700
7.698300 1.334500
7.724300 1.339500
7.750300 1.347800
7.776300 1.331300
7.802400 1.313300
7.828400 1.309900
7.854400 1.306800
7.880400 1.304500
7.906400 1.304000
7.932400 1.306200
7.958400 1.305800
7.984400 1.297700
8.010400 1.295300
8.036400 1.293000
8.062400 1.291200
8.088400 1.292600
8.114400 1.341600
8.140400 1.356700
8.166400 1.370800
8.192400 1.384400
8.218500 1.400700
8.244500 1.410800
8.270500 1.404900
8.296500 1.400100
8.322500 1.400300
8.348500 1.390200
8.374500 1.380100
8.400500 1.395000
8.426500 1.418200
8.452500 1.441900
8.478500 1.471000
8.504500 1.499400
8.530500 1.415400
8.556500 1.404900
8.582500 1.386200
8.608500 1.371100
8.634600 1.362200
8.660600 1.352300
8.686600 1.360100
8.712600 1.367300
8.738600 1.374200
8.764600 1.392500
8.790600 1.428000
8.816600 1.462100
8.842600 1.494500
8.868600 1.525300
8.894600 1.327500
8.920600 1.276100
8.946600 1.249600
8.972600 1.228100
8.998600 1.206100
9.024600 1.183700
9.050700 1.168400
9.076700 1.163000
9.102700 1.160800
9.128700 1.165200
9.154700 1.171700
9.180700 1.179800
9.206700 1.202700
9.232700 1.307900
9.258700 1.388100
9.284700 1.473600
9.310700 1.502000
9.336700 1.623300
9.362700 1.607000
9.388700 1.595600
9.414700 1.605000
9.440700 1.612800
9.466800 1.628900
9.492800 1.636600
9.518800 1.641100
9.544800 1.620600
9.570800 1.612200
9.596800 1.600400
9.622800 1.611800
9.648800 1.617300
9.674800 1.619900
9.700800 1.621700
9.726800 1.623200
9.752800 1.626600
9.778800 1.630000
9.804800 1.626200
9.830800 1.617000
9.856800 1.594000
9.882900 1.566100
9.908900 1.551100
9.934900 1.541000
9.960900 1.531100
9.986900 1.525600
10.012900 1.524200
10.038900 1.502800
10.064900 1.487800
10.090900 1.470900
10.116900 1.452000
10.142900 1.431300
10.168900 1.436200
10.194900 1.411700
10.220900 1.384900
10.246900 1.356100
10.272900 1.324900
10.299000 1.404000
10.325000 1.176900
10.351000 1.201700
10.377000 1.213900
10.403000 1.196300
10.429000 1.152300
10.455000 1.130700
10.481000 1.094000
10.507000 1.065800
10.533000 1.052200
10.559000 1.036800
10.585000 1.023200
10.611000 1.009300
10.637000 0.997300
10.663000 0.986200
10.689000 0.975700
10.715100 0.965900
10.741100 0.956800
10.767100 0.948400
10.793100 0.941700
10.819100 0.956100
10.845100 0.936500
10.871100 0.918000
10.897100 0.900500
10.923100 0.884200
10.949100 0.869200
10.975100 0.861100
11.001100 0.847200
11.027100 0.840600
11.053100 0.849300
11.079100 0.866500
11.105100 0.877900
11.131200 0.890100
11.157200 0.903700
11.183200 0.917900
11.209200 0.933500
11.235200 0.952700
11.261200 0.976800
11.287200 1.010700
11.313200 1.062500
11.339200 1.123600
11.365200 1.157000
11.391200 1.182700
11.417200 1.207300
11.443200 1.231500
11.469200 1.264400
11.495200 1.299600
11.521200 1.337700
11.547300 1.357800
11.573300 1.394700
11.599300 1.428800
11.625300 1.486900
11.651300 1.521700
11.677300 1.554400
11.703300 1.542200
11.729300 1.545400
11.755300 1.561100
11.781300 1.504700
11.807300 1.485000
11.833300 1.489600
11.859300 1.497000
11.885300 1.504400
11.911300 1.512500
11.937300 1.528800
11.963400 1.537200
11.989400 1.542100
12.015400 1.566000
12.041400 1.588200
12.067400 1.615900
12.093400 1.648600
12.119400 1.679000
12.145400 1.710300
12.171400 1.735000
12.197400 1.751100
12.223400 1.759000
12.249400 1.755600
12.275400 1.739300
12.301400 1.710500
12.327400 1.661500
12.353400 1.648100
12.379500 1.642700
12.405500 1.638900
12.431500 1.639000
12.457500 1.644100
12.483500 1.655300
12.509500 1.672500
12.535500 1.688400
12.561500 1.710700
12.587500 1.766500
12.613500 1.800200
12.639500 1.820100
12.665500 1.821200
12.691500 1.811100
12.717500 1.916400
12.743500 1.898300
12.769500 1.877900
12.795600 1.910700
12.821600 1.815700
12.847600 1.725000
12.873600 1.592200
12.899600 1.565400
12.925600 1.518500
12.951600 1.493100
12.977600 1.477000
13.003600 1.562500
13.029600 1.513400
13.055600 1.462400
13.081600 1.377100
13.107600 1.381400
13.133600 1.395600
13.159600 1.304900
13.185700 1.283100
13.211700 1.263900
13.237700 1.246500
13.263700 1.232500
13.289700 1.215000
13.315700 1.203100
13.341700 1.195400
13.367700 1.192300
13.393700 1.193800
13.419700 1.206500
13.445700 1.564100
13.471700 1.338000
13.497700 1.351400
13.523700 1.430000
13.549700 1.579300
13.575700 1.479400
13.601800 1.419800
13.627800 1.332900
13.653800 1.350500
13.679800 1.369300
13.705800 1.386800
13.731800 1.401800
13.757800 1.392800
13.783800 1.388300
13.809800 1.331300
13.835800 1.362700
13.861800 1.367400
13.887800 1.449700
13.913800 1.425000
13.939800 1.408900
13.965800 1.395800
13.991800 1.314000
14.017900 1.305500
14.043900 1.299000
14.069900 1.247600
14.095900 1.202500
14.121900 1.166000
14.147900 1.129100
14.173900 1.099700
14.199900 1.075400
14.225900 1.054100
14.251900 1.035200
14.277900 1.031000
14.303900 1.030000
14.329900 1.030900
14.355900 1.052800
14.381900 1.068700
14.407900 1.118800
14.434000 1.178500
14.460000 1.227800
14.486000 1.270300
14.512000 1.316100
14.538000 1.292700
14.564000 1.320700
14.590000 1.274200
14.616000 1.263900
14.642000 1.245800
14.668000 1.219200
14.694000 1.188500
14.720000 1.168900
14.746000 1.159400
14.772000 1.162200
14.798000 1.229800
14.824000 1.261300
14.850100 1.302400
14.876100 1.329700
14.902100 1.326900
14.928100 1.334200
14.954100 1.345400
14.980100 1.402200
15.006100 1.484400
15.032100 1.490900
15.058100 1.382900
15.084100 1.347900
15.110100 1.346500
15.136100 1.344000
15.162100 1.343500
15.188100 1.343700
15.214100 1.353800
15.240100 1.374300
15.266200 1.397100
15.292200 1.425700
15.318200 1.475500
15.344200 1.377900
15.370200 1.356600
15.396200 1.354400
15.422200 1.379400
15.448200 1.413300
15.474200 1.447500
15.500200 1.478100
15.526200 1.490800
15.552200 1.527300
15.578200 1.582200
15.604200 1.667300
15.630200 1.798000
15.656200 1.797700
15.682300 1.805900
15.708300 1.799300
15.734300 1.815400
15.760300 1.770200
15.786300 1.796200
15.812300 1.846200
15.838300 1.833000
15.864300 1.810500
15.890300 1.830000
15.916300 1.855700
15.942300 1.877300
15.968300 1.963800
15.994300 2.097100
16.020300 2.010800
16.046300 2.019000
16.072300 1.974700
16.098400 1.938200
16.124400 1.873700
16.150400 1.791200
16.176400 1.768800
16.202400 1.746900
16.228400 1.671200
16.254400 1.651500
16.280400 1.640400
16.306400 1.649100
16.332400 1.650600
16.358400 1.669300
16.384400 1.696300
16.410400 1.694400
16.436400 1.677700
16.462400 1.661600
16.488400 1.687600
16.514500 1.712100
16.540500 1.751800
16.566500 1.782300
16.592500 1.805900
16.618500 1.749100
16.644500 1.726700
16.670500 1.748400
16.696500 1.796400
16.722500 1.858700
16.748500 1.929700
16.774500 1.986500
16.800500 2.046600
16.826500 2.164300
16.852500 2.458300
16.878500 2.486100
16.904500 2.341400
16.930600 2.393900
16.956600 2.309700
16.982600 2.321500
17.008600 2.354500
17.034600 2.381800
17.060600 2.403500
17.086600 2.415200
17.112600 2.445100
17.138600 2.473100
17.164600 2.407900
17.190600 2.383000
17.216600 2.388600
17.242600 2.405200
17.268600 2.423700
17.294600 2.490900
17.320600 2.553200
17.346700 2.543500
17.372700 2.467800
17.398700 2.424600
17.424700 2.402200
17.450700 2.470600
17.476700 2.509900
17.502700 2.492800
17.528700 2.473400
17.554700 2.466100
17.580700 2.425200
17.606700 2.400400
17.632700 2.368200
17.658700 2.339000
17.684700 2.323200
17.710700 2.304800
17.736700 2.264200
17.762800 2.257200
17.788800 2.097500
17.814800 2.041200
17.840800 2.007300
17.866800 1.984800
17.892800 1.968500
17.918800 1.959400
17.944800 1.965600
17.970800 1.980100
17.996800 1.993900
18.022800 2.003400
18.048800 2.014500
18.074800 2.024900
18.100800 2.037100
18.126800 2.054400
18.152800 2.085500
18.178900 2.152900
18.204900 2.251300
18.230900 2.346000
18.256900 2.424700
18.282900 2.407300
18.308900 2.387300
18.334900 2.454200
18.360900 2.512400
18.386900 2.545100
18.412900 2.557100
18.438900 2.551600
18.464900 2.526200
18.490900 2.501500
18.516900 2.486700
18.542900 2.474900
18.568900 2.466900
18.595000 2.462400
18.621000 2.376100
18.647000 2.406500
18.673000 2.431100
18.699000 2.420600
18.725000 2.364900
18.751000 2.282100
18.777000 2.230300
18.803000 2.172100
18.829000 2.140900
18.855000 2.116100
18.881000 2.129000
18.907000 2.117800
18.933000 2.107400
