set title 'mp-569304 - Density of States'
set xlabel 'Energy (eV)'
set ylabel 'DOS (states/eV)'
set grid
set xrange [-10:10]
set yrange [0:4.875]
set xzeroaxis lt -1
set terminal png size 800,600
set output 'mp-569304_dos_gnuplot.png'
plot '-' using 1:2 with lines title 'DOS'
-22.735300 0.000000
-22.691200 0.000000
-22.647000 0.000000
-22.602900 0.000000
-22.558700 0.000000
-22.514600 0.000000
-22.470500 0.000000
-22.426300 0.000000
-22.382200 0.000000
-22.338000 0.000000
-22.293900 0.000000
-22.249800 0.000000
-22.205600 0.000000
-22.161500 0.000000
-22.117300 0.000000
-22.073200 0.000000
-22.029000 0.000000
-21.984900 0.000000
-21.940800 0.000000
-21.896600 0.000000
-21.852500 0.000000
-21.808300 0.000000
-21.764200 0.000000
-21.720100 0.000000
-21.675900 0.000000
-21.631800 0.000000
-21.587600 0.000000
-21.543500 0.000000
-21.499400 0.000000
-21.455200 0.000000
-21.411100 0.000000
-21.366900 0.000000
-21.322800 0.000000
-21.278600 0.000000
-21.234500 0.000000
-21.190400 0.000000
-21.146200 0.000000
-21.102100 0.000000
-21.057900 0.000000
-21.013800 0.000000
-20.969700 0.000000
-20.925500 0.000000
-20.881400 0.000000
-20.837200 0.000000
-20.793100 0.000000
-20.749000 0.000000
-20.704800 0.000000
-20.660700 0.000000
-20.616500 0.000000
-20.572400 0.000000
-20.528200 0.000000
-20.484100 0.000000
-20.440000 0.000000
-20.395800 0.000000
-20.351700 0.000000
-20.307500 0.000000
-20.263400 0.000000
-20.219300 0.000000
-20.175100 0.000000
-20.131000 0.000000
-20.086800 0.000000
-20.042700 0.000000
-19.998600 0.000000
-19.954400 0.000000
-19.910300 0.000000
-19.866100 0.000000
-19.822000 0.000000
-19.777800 0.000000
-19.733700 0.000000
-19.689600 0.000000
-19.645400 0.000000
-19.601300 0.000000
-19.557100 0.000000
-19.513000 0.000000
-19.468900 0.000000
-19.424700 0.000000
-19.380600 0.000000
-19.336400 0.000000
-19.292300 0.000000
-19.248200 0.000000
-19.204000 0.000000
-19.159900 0.000000
-19.115700 0.000000
-19.071600 0.000000
-19.027400 0.000000
-18.983300 0.000000
-18.939200 0.000000
-18.895000 0.000000
-18.850900 0.000000
-18.806700 0.000000
-18.762600 0.000000
-18.718500 0.004200
-18.674300 0.050800
-18.630200 0.107200
-18.586000 0.201000
-18.541900 0.294800
-18.497800 0.388600
-18.453600 0.482400
-18.409500 0.576200
-18.365300 0.670000
-18.321200 0.763800
-18.277000 0.857600
-18.232900 0.691500
-18.188800 0.742700
-18.144600 0.524800
-18.100500 0.532800
-18.056300 0.540900
-18.012200 0.548900
-17.968100 0.557000
-17.923900 0.565000
-17.879800 0.573100
-17.835600 0.581100
-17.791500 0.589100
-17.747400 0.597200
-17.703200 0.605200
-17.659100 0.613300
-17.614900 0.621300
-17.570800 0.629400
-17.526600 0.637400
-17.482500 0.645500
-17.438400 0.653500
-17.394200 0.661600
-17.350100 0.669600
-17.305900 0.677700
-17.261800 0.681000
-17.217700 0.680700
-17.173500 0.673000
-17.129400 0.664200
-17.085200 0.655300
-17.041100 0.646400
-16.997000 0.637500
-16.952800 0.628700
-16.908700 0.619800
-16.864500 0.610900
-16.820400 0.602100
-16.776200 0.598200
-16.732100 0.596500
-16.688000 0.599700
-16.643800 0.602900
-16.599700 0.606000
-16.555500 0.609200
-16.511400 0.612300
-16.467300 0.615500
-16.423100 0.618600
-16.379000 0.621800
-16.334800 0.624900
-16.290700 0.628100
-16.246600 0.631300
-16.202400 0.634400
-16.158300 0.637600
-16.114100 0.640700
-16.070000 0.643900
-16.025800 0.647000
-15.981700 0.650200
-15.937600 0.653300
-15.893400 0.656500
-15.849300 0.659700
-15.805100 0.662800
-15.761000 0.666000
-15.716900 0.669100
-15.672700 0.672300
-15.628600 0.675400
-15.584400 0.678600
-15.540300 0.681700
-15.496200 0.684900
-15.452000 0.688000
-15.407900 0.672400
-15.363700 0.676200
-15.319600 0.661700
-15.275400 0.666400
-15.231300 0.671100
-15.187200 0.675800
-15.143000 0.680500
-15.098900 0.685200
-15.054700 0.690000
-15.010600 0.694700
-14.966500 0.699400
-14.922300 0.704100
-14.878200 0.708800
-14.834000 0.713500
-14.789900 0.718200
-14.745800 0.722900
-14.701600 0.727600
-14.657500 0.732300
-14.613300 0.737000
-14.569200 0.741700
-14.525000 0.895100
-14.480900 0.918000
-14.436800 1.084700
-14.392600 1.062800
-14.348500 1.040800
-14.304300 1.018800
-14.260200 0.996900
-14.216100 0.974900
-14.171900 0.952900
-14.127800 0.931000
-14.083600 0.909000
-14.039500 0.887000
-13.995400 0.865100
-13.951200 0.843100
-13.907100 0.821100
-13.862900 0.799200
-13.818800 0.777200
-13.774600 0.755200
-13.730500 0.733300
-13.686400 0.711300
-13.642200 0.689300
-13.598100 0.667400
-13.553900 0.645400
-13.509800 0.623400
-13.465700 0.601500
-13.421500 0.579500
-13.377400 0.557500
-13.333200 0.535600
-13.289100 0.513600
-13.245000 0.491600
-13.200800 1.957900
-13.156700 2.022500
-13.112500 0.000000
-13.068400 0.000000
-13.024200 0.000000
-12.980100 0.000000
-12.936000 0.000000
-12.891800 0.000000
-12.847700 0.000000
-12.803500 0.000000
-12.759400 0.000000
-12.715300 0.000000
-12.671100 0.000000
-12.627000 0.000000
-12.582800 0.000000
-12.538700 0.000000
-12.494600 0.000000
-12.450400 0.000000
-12.406300 0.000000
-12.362100 0.000000
-12.318000 0.000000
-12.273800 0.000000
-12.229700 0.000000
-12.185600 0.000000
-12.141400 0.000000
-12.097300 0.015300
-12.053100 0.078900
-12.009000 0.142600
-11.964900 0.206300
-11.920700 0.270000
-11.876600 0.333700
-11.832400 0.397400
-11.788300 0.461100
-11.744200 0.524800
-11.700000 0.588500
-11.655900 0.652100
-11.611700 0.715800
-11.567600 0.779500
-11.523400 0.843200
-11.479300 0.906900
-11.435200 0.970600
-11.391000 1.034300
-11.346900 1.098000
-11.302700 1.161700
-11.258600 1.225400
-11.214500 1.289100
-11.170300 1.063000
-11.126200 0.821600
-11.082000 0.841500
-11.037900 0.861400
-10.993800 0.881200
-10.949600 0.901100
-10.905500 0.921000
-10.861300 0.940900
-10.817200 0.960800
-10.773000 0.980700
-10.728900 1.000500
-10.684800 0.841900
-10.640600 0.667100
-10.596500 0.665300
-10.552300 0.663600
-10.508200 0.661800
-10.464100 0.660000
-10.419900 0.658200
-10.375800 0.656500
-10.331600 0.654700
-10.287500 0.652900
-10.243400 0.651100
-10.199200 0.649400
-10.155100 0.647600
-10.110900 0.645800
-10.066800 0.644000
-10.022600 0.642300
-9.978500 0.640500
-9.934400 0.638700
-9.890200 0.636900
-9.846100 0.635200
-9.801900 0.633400
-9.757800 0.631600
-9.713700 0.629900
-9.669500 0.628100
-9.625400 0.626300
-9.581200 0.624500
-9.537100 0.622800
-9.493000 0.621000
-9.448800 0.619200
-9.404700 0.617400
-9.360500 0.615700
-9.316400 0.613900
-9.272200 0.517400
-9.228100 0.423200
-9.184000 0.422000
-9.139800 0.420900
-9.095700 0.419700
-9.051500 0.418600
-9.007400 0.661900
-8.963300 0.667100
-8.919100 0.672400
-8.875000 0.677600
-8.830800 0.682900
-8.786700 0.688200
-8.742600 0.693400
-8.698400 0.698700
-8.654300 0.703900
-8.610100 0.709200
-8.566000 0.714400
-8.521800 0.719700
-8.477700 0.724900
-8.433600 0.730200
-8.389400 0.735400
-8.345300 0.740700
-8.301100 0.745900
-8.257000 0.751200
-8.212900 0.756400
-8.168700 0.761700
-8.124600 0.766900
-8.080400 0.772200
-8.036300 0.777400
-7.992200 0.782700
-7.948000 0.787900
-7.903900 0.793200
-7.859700 0.798400
-7.815600 0.803700
-7.771400 0.808900
-7.727300 0.814200
-7.683200 0.819400
-7.639000 0.824700
-7.594900 0.830000
-7.550700 0.840100
-7.506600 0.857500
-7.462500 0.875300
-7.418300 0.893100
-7.374200 0.911000
-7.330000 0.928800
-7.285900 0.946600
-7.241800 0.964500
-7.197600 0.982300
-7.153500 1.000100
-7.109300 1.018000
-7.065200 1.067600
-7.021000 1.117800
-6.976900 1.181400
-6.932800 1.260400
-6.888600 1.339500
-6.844500 1.418500
-6.800300 1.497500
-6.756200 1.576500
-6.712100 1.655600
-6.667900 1.734600
-6.623800 1.813600
-6.579600 1.892600
-6.535500 1.971700
-6.491400 2.058300
-6.447200 2.171200
-6.403100 2.125500
-6.358900 2.080800
-6.314800 2.036200
-6.270600 1.991500
-6.226500 1.946900
-6.182400 1.902200
-6.138200 1.857600
-6.094100 1.812900
-6.049900 1.973400
-6.005800 2.242200
-5.961700 2.511000
-5.917500 2.779700
-5.873400 1.291300
-5.829200 1.302800
-5.785100 1.314200
-5.741000 1.325700
-5.696800 1.337100
-5.652700 1.348600
-5.608500 1.360000
-5.564400 1.371500
-5.520200 1.382900
-5.476100 1.226600
-5.432000 1.037300
-5.387800 1.011300
-5.343700 0.990300
-5.299500 0.969300
-5.255400 0.948300
-5.211300 0.927300
-5.167100 0.906300
-5.123000 0.885300
-5.078800 0.864300
-5.034700 0.843300
-4.990600 0.822300
-4.946400 0.801200
-4.902300 0.780200
-4.858100 0.772800
-4.814000 0.905200
-4.769800 1.050100
-4.725700 1.233100
-4.681600 1.416100
-4.637400 1.599100
-4.593300 1.782100
-4.549100 1.856100
-4.505000 1.864400
-4.460900 1.872600
-4.416700 1.880800
-4.372600 1.889000
-4.328400 1.897200
-4.284300 1.905400
-4.240200 1.898200
-4.196000 1.850000
-4.151900 1.801800
-4.107700 1.753600
-4.063600 1.705400
-4.019400 1.657300
-3.975300 1.445200
-3.931200 1.429200
-3.887000 1.413200
-3.842900 1.397100
-3.798700 1.381100
-3.754600 1.365000
-3.710500 1.349000
-3.666300 1.332900
-3.622200 1.316900
-3.578000 1.300800
-3.533900 1.284800
-3.489800 1.268800
-3.445600 1.252700
-3.401500 1.236700
-3.357300 1.220600
-3.313200 1.204600
-3.269000 1.188500
-3.224900 1.123900
-3.180800 1.109600
-3.136600 1.095300
-3.092500 1.342900
-3.048300 1.313100
-3.004200 1.283300
-2.960100 1.253500
-2.915900 1.223700
-2.871800 1.193900
-2.827600 1.164100
-2.783500 1.134300
-2.739400 1.104500
-2.695200 1.069500
-2.651100 1.045300
-2.606900 1.021000
-2.562800 0.996700
-2.518600 0.972400
-2.474500 0.948200
-2.430400 0.923900
-2.386200 1.096200
-2.342100 1.054400
-2.297900 1.012700
-2.253800 0.970900
-2.209700 0.949600
-2.165500 0.942900
-2.121400 0.936100
-2.077200 0.929400
-2.033100 0.922600
-1.989000 0.915900
-1.944800 1.132300
-1.900700 1.097600
-1.856500 1.062900
-1.812400 1.028200
-1.768200 0.993400
-1.724100 0.958700
-1.680000 0.924000
-1.635800 0.889300
-1.591700 0.854500
-1.547500 0.819800
-1.503400 0.785100
-1.459300 0.750300
-1.415100 0.715600
-1.371000 0.680900
-1.326800 0.646200
-1.282700 0.611400
-1.238600 0.576700
-1.194400 0.609200
-1.150300 0.652400
-1.106100 0.695600
-1.062000 0.738800
-1.017800 0.782000
-0.973700 0.854100
-0.929600 0.939100
-0.885400 0.301500
-0.841300 0.322800
-0.797100 0.344000
-0.753000 0.365200
-0.708900 0.386400
-0.664700 0.407700
-0.620600 0.428900
-0.576400 0.450100
-0.532300 0.471300
-0.488200 0.000000
-0.444000 0.000000
-0.399900 0.000000
-0.355700 0.000000
-0.311600 0.000000
-0.267400 0.000000
-0.223300 0.000000
-0.179200 0.000000
-0.135000 0.000000
-0.090900 0.000000
-0.046700 0.000000
-0.002600 0.000000
0.041500 0.000000
0.085700 0.000000
0.129800 0.000000
0.174000 0.000000
0.218100 0.000000
0.262200 0.000000
0.306400 0.000000
0.350500 0.000000
0.394700 0.000000
0.438800 0.000000
0.483000 0.000000
0.527100 0.000000
0.571200 0.000000
0.615400 0.000000
0.659500 0.000000
0.703700 0.000000
0.747800 0.000000
0.791900 0.000000
0.836100 0.000000
0.880200 0.000000
0.924400 0.000000
0.968500 0.000000
1.012600 0.000000
1.056800 0.000000
1.100900 0.000000
1.145100 0.000000
1.189200 0.000000
1.233400 0.000000
1.277500 0.000000
1.321600 0.000000
1.365800 0.000000
1.409900 0.000000
1.454100 0.000000
1.498200 0.000000
1.542300 0.000000
1.586500 0.000000
1.630600 0.000000
1.674800 0.000000
1.718900 0.000000
1.763000 0.000000
1.807200 0.000000
1.851300 0.000000
1.895500 0.000000
1.939600 0.000000
1.983800 0.000000
2.027900 0.000000
2.072000 0.000000
2.116200 0.000000
2.160300 0.000000
2.204500 2.803700
2.248600 0.718300
2.292700 0.217600
2.336900 0.239100
2.381000 0.260700
2.425200 0.480000
2.469300 0.517500
2.513400 0.555000
2.557600 0.592500
2.601700 0.630000
2.645900 0.667500
2.690000 0.705000
2.734200 0.742500
2.778300 0.780000
2.822400 0.817500
2.866600 0.855000
2.910700 0.892500
2.954900 0.930000
2.999000 0.967500
3.043100 1.005000
3.087300 1.042500
3.131400 1.080000
3.175600 0.835100
3.219700 0.847400
3.263800 0.859600
3.308000 0.871900
3.352100 0.884100
3.396300 0.896400
3.440400 0.908600
3.484600 0.920900
3.528700 0.685300
3.572800 0.678100
3.617000 0.670900
3.661100 0.663700
3.705300 0.656500
3.749400 0.649300
3.793500 0.642100
3.837700 0.634900
3.881800 0.627700
3.926000 0.621900
3.970100 0.622600
4.014200 0.626500
4.058400 0.633300
4.102500 0.642500
4.146700 0.653900
4.190800 0.667400
4.235000 0.685200
4.279100 0.703200
4.323200 0.721100
4.367400 0.739100
4.411500 0.757100
4.455700 0.775100
4.499800 0.793000
4.543900 0.811000
4.588100 0.778300
4.632200 0.760300
4.676400 0.836500
4.720500 0.832700
4.764600 0.828700
4.808800 0.822200
4.852900 0.809100
4.897100 0.825900
4.941200 0.837800
4.985400 0.850600
5.029500 0.864400
5.073600 0.878900
5.117800 0.894300
5.161900 0.910500
5.206100 0.927600
5.250200 0.945500
5.294300 0.947300
5.338500 0.951000
5.382600 0.957300
5.426800 0.965800
5.470900 0.976200
5.515000 0.987600
5.559200 0.998500
5.603300 1.008800
5.647500 1.018600
5.691600 1.027800
5.735800 1.036400
5.779900 1.044200
5.824000 1.051200
5.868200 1.056300
5.912300 1.050700
5.956500 1.038700
6.000600 1.021200
6.044700 0.994300
6.088900 0.947800
6.133000 0.924100
6.177200 0.893800
6.221300 0.860900
6.265400 0.828100
6.309600 0.795300
6.353700 0.762500
6.397900 0.729800
6.442000 0.697700
6.486200 0.667200
6.530300 0.644300
6.574400 0.629000
6.618600 0.612200
6.662700 0.597400
6.706900 0.586100
6.751000 0.578500
6.795100 0.567400
6.839300 0.552400
6.883400 0.491200
6.927600 0.388700
6.971700 0.327200
7.015800 0.289800
7.060000 0.255700
7.104100 0.257200
7.148300 0.336400
7.192400 0.385300
7.236600 0.435500
7.280700 0.488800
7.324800 0.544600
7.369000 0.601900
7.413100 0.659300
7.457300 0.716800
7.501400 0.774700
7.545500 0.833700
7.589700 0.895400
7.633800 0.955200
7.678000 1.013600
7.722100 1.070600
7.766200 1.126500
7.810400 1.182300
7.854500 1.238000
7.898700 1.297200
7.942800 1.368000
7.987000 1.459100
8.031100 1.559800
8.075200 1.618400
8.119400 1.629100
8.163500 1.921600
8.207700 1.651400
8.251800 1.864400
8.295900 1.895800
8.340100 1.923400
8.384200 1.964000
8.428400 2.017700
8.472500 1.860900
8.516600 1.844600
8.560800 1.892600
8.604900 1.923600
8.649100 1.975300
8.693200 2.027800
8.737400 2.077400
8.781500 2.126200
8.825600 2.188600
8.869800 2.238400
8.913900 2.280800
8.958100 2.323100
9.002200 2.359200
9.046300 2.848900
9.090500 4.431400
9.134600 3.693500
9.178800 2.747600
9.222900 1.901200
9.267000 1.673400
9.311200 1.716900
9.355300 1.761600
9.399500 1.807500
9.443600 1.854800
9.487800 1.904600
9.531900 1.957200
9.576000 2.011700
9.620200 2.069000
9.664300 2.127100
9.708500 2.179500
9.752600 2.230000
9.796700 2.292700
9.840900 2.354200
9.885000 2.418500
9.929200 2.488200
9.973300 2.553800
10.017400 2.614300
10.061600 2.663700
10.105700 2.703500
10.149900 2.737800
10.194000 2.767600
10.238200 2.965000
10.282300 3.496600
10.326400 3.908000
10.370600 3.697200
10.414700 2.961500
10.458900 3.078300
10.503000 3.180300
10.547100 3.267500
10.591300 2.305100
10.635400 2.074600
10.679600 1.983600
10.723700 2.263400
10.767800 2.193700
10.812000 2.152500
10.856100 2.116400
10.900300 2.086800
10.944400 2.068900
10.988600 2.049200
11.032700 2.960700
11.076800 2.905000
11.121000 2.846400
11.165100 2.785300
11.209300 2.723900
11.253400 2.662700
11.297500 2.600300
11.341700 2.710000
11.385800 2.898400
11.430000 2.437500
11.474100 2.241300
11.518200 3.761100
11.562400 1.953800
11.606500 1.928000
11.650700 1.925100
11.694800 1.945100
11.739000 2.078900
11.783100 2.160300
11.827200 2.183500
11.871400 2.146900
11.915500 2.076600
11.959700 2.002900
12.003800 1.926300
12.047900 1.799300
12.092100 1.663900
12.136200 1.557300
12.180400 1.489300
12.224500 1.462500
12.268600 1.471100
12.312800 1.488400
12.356900 1.611100
12.401100 1.649500
12.445200 1.482100
12.489400 1.294800
12.533500 1.181300
12.577600 1.111300
12.621800 1.094700
12.665900 1.104700
12.710100 1.114700
12.754200 1.124600
12.798300 1.145000
12.842500 1.192500
12.886600 1.270900
12.930800 1.394100
12.974900 1.562500
13.019000 1.733400
13.063200 1.924200
13.107300 2.102800
13.151500 2.225000
13.195600 2.306800
13.239800 2.370000
13.283900 2.414700
13.328000 2.433000
13.372200 2.442900
13.416300 2.492200
13.460500 2.544700
13.504600 3.630100
13.548700 2.440200
13.592900 2.213900
13.637000 2.732200
13.681200 2.084100
13.725300 1.842100
13.769400 1.892100
13.813600 1.970800
13.857700 2.052200
13.901900 2.134400
13.946000 2.215400
13.990200 2.269700
14.034300 2.365800
14.078400 2.483100
14.122600 2.520500
14.166700 3.059100
14.210900 2.625900
14.255000 2.771800
14.299100 5.361600
14.343300 3.920600
14.387400 2.886900
14.431600 2.436900
14.475700 2.439600
14.519900 2.442100
14.564000 2.477600
14.608100 2.528200
14.652300 2.578800
14.696400 2.628900
14.740600 2.676700
14.784700 2.735200
14.828800 2.691700
14.873000 2.087800
14.917100 2.085300
14.961300 2.086100
15.005400 2.084400
15.049500 2.076900
15.093700 2.059600
15.137800 2.013800
15.182000 1.901100
15.226100 1.802100
15.270300 1.711800
15.314400 1.660300
15.358500 1.665800
15.402700 1.878500
15.446800 2.232000
15.491000 2.769400
15.535100 3.171700
15.579200 3.900300
15.623400 4.129100
15.667500 3.337900
15.711700 3.316500
15.755800 2.686400
15.799900 1.978300
15.844100 1.308800
15.888200 0.916800
15.932400 0.717200
15.976500 0.579600
16.020700 0.477800
16.064800 0.409900
16.108900 0.392000
16.153100 0.540500
16.197200 0.788300
16.241400 1.037700
16.285500 1.289900
16.329600 1.467700
16.373800 1.617600
16.417900 1.772800
16.462100 1.893200
16.506200 1.938000
16.550300 1.972400
16.594500 1.997400
16.638600 2.118200
16.682800 2.143400
16.726900 2.005500
16.771100 1.986700
16.815200 2.012600
16.859300 1.987100
16.903500 1.915200
16.947600 1.815700
16.991800 1.696200
17.035900 1.824700
17.080000 1.478000
17.124200 1.496800
17.168300 1.474700
17.212500 1.429200
17.256600 1.463900
17.300700 1.507000
17.344900 1.595300
17.389000 1.746300
17.433200 1.852200
17.477300 1.905300
17.521500 1.886700
17.565600 1.786300
17.609700 1.752700
17.653900 1.755000
17.698000 1.754700
17.742200 1.752400
17.786300 1.769300
17.830400 1.754100
17.874600 1.816100
17.918700 1.868500
17.962900 1.907600
18.007000 2.039300
18.051100 2.622300
18.095300 2.003500
18.139400 1.612400
18.183600 1.519400
18.227700 1.457100
18.271900 1.426400
18.316000 1.409300
18.360100 1.370700
18.404300 1.403400
18.448400 1.521400
18.492600 1.676200
18.536700 1.838400
18.580800 2.022300
18.625000 2.375400
18.669100 2.937200
18.713300 4.475100
18.757400 3.048200
18.801500 2.637100
18.845700 2.197100
18.889800 2.030700
18.934000 1.889100
18.978100 1.764800
19.022300 1.716100
19.066400 1.698500
19.110500 1.702800
19.154700 1.725200
19.198800 1.760000
19.243000 1.817800
19.287100 1.898800
19.331200 2.001200
19.375400 2.117500
19.419500 2.241500
19.463700 2.510800
19.507800 3.053900
19.551900 3.044400
19.596100 3.148000
19.640200 3.274300
19.684400 3.368700
19.728500 3.556500
19.772700 3.177500
19.816800 2.089700
19.860900 2.031100
19.905100 2.175200
19.949200 2.083200
19.993400 1.862300
20.037500 1.848100
20.081600 1.858900
20.125800 1.868100
20.169900 1.902100
20.214100 1.839600
20.258200 1.772000
20.302300 1.710200
20.346500 1.675800
20.390600 1.693300
20.434800 1.726200
20.478900 1.768900
20.523100 1.818900
20.567200 1.863100
20.611300 1.892000
20.655500 1.931100
20.699600 1.979700
20.743800 2.043000
20.787900 2.094800
20.832000 2.108100
20.876200 2.068400
20.920300 1.985400
20.964500 1.972100
21.008600 2.223600
21.052700 2.268300
21.096900 2.164300
21.141000 1.911700
21.185200 1.759800
21.229300 2.241200
21.273500 1.816400
21.317600 1.529800
21.361700 1.458700
21.405900 1.403800
21.450000 1.368200
21.494200 1.393100
21.538300 1.477200
21.582400 1.523300
21.626600 1.579800
21.670700 1.643600
21.714900 1.732700
21.759000 1.896400
21.803100 2.493400
21.847300 3.366800
21.891400 3.599800
21.935600 2.826500
21.979700 2.521200
22.023900 2.439100
22.068000 2.490100
22.112100 2.607400
22.156300 2.725500
22.200400 2.835800
22.244600 2.899900
22.288700 2.887100
22.332800 2.781900
22.377000 2.803200
22.421100 2.872900
22.465300 2.917000
22.509400 2.509000
22.553500 2.375000
22.597700 2.355000
22.641800 2.339400
22.686000 2.355400
22.730100 2.485000
22.774300 2.729500
22.818400 3.053000
22.862500 3.595800
