set title 'mp-1057139 - Density of States'
set xlabel 'Energy (eV)'
set ylabel 'DOS (states/eV)'
set grid
set xrange [-10:10]
set yrange [0:4.021]
set xzeroaxis lt -1
set terminal png size 800,600
set output 'mp-1057139_dos_gnuplot.png'
plot '-' using 1:2 with lines title 'DOS'
-50.830200 0.000000
-50.744700 0.000000
-50.659300 0.000000
-50.573800 0.000000
-50.488400 0.000000
-50.403000 0.000000
-50.317500 0.000000
-50.232100 0.000000
-50.146600 0.000000
-50.061200 0.000000
-49.975800 0.000000
-49.890300 0.000000
-49.804900 0.000000
-49.719400 0.000000
-49.634000 0.000000
-49.548600 0.000000
-49.463100 0.000000
-49.377700 0.000000
-49.292200 0.000000
-49.206800 0.000000
-49.121400 0.000000
-49.035900 0.000000
-48.950500 0.000000
-48.865000 0.000000
-48.779600 0.000000
-48.694100 0.000000
-48.608700 0.000000
-48.523300 0.000000
-48.437800 0.000000
-48.352400 0.000000
-48.266900 0.000000
-48.181500 0.000000
-48.096100 0.000000
-48.010600 0.000000
-47.925200 0.000000
-47.839700 0.000000
-47.754300 0.000000
-47.668900 0.000000
-47.583400 0.000000
-47.498000 0.000000
-47.412500 0.000000
-47.327100 0.000000
-47.241700 0.000000
-47.156200 0.000000
-47.070800 0.000000
-46.985300 0.000000
-46.899900 0.000000
-46.814400 0.000000
-46.729000 0.000000
-46.643600 0.000000
-46.558100 0.000000
-46.472700 0.000000
-46.387200 0.000000
-46.301800 0.000000
-46.216400 0.000000
-46.130900 0.000000
-46.045500 0.000000
-45.960000 0.000000
-45.874600 0.000000
-45.789200 0.000000
-45.703700 0.000000
-45.618300 0.000000
-45.532800 0.000000
-45.447400 0.000000
-45.362000 0.000000
-45.276500 0.000000
-45.191100 0.000000
-45.105600 0.000000
-45.020200 0.000000
-44.934700 0.000000
-44.849300 0.000000
-44.763900 0.000000
-44.678400 0.000000
-44.593000 0.000000
-44.507500 0.000000
-44.422100 0.000000
-44.336700 0.000000
-44.251200 0.000000
-44.165800 0.000000
-44.080300 0.000000
-43.994900 0.000000
-43.909500 0.000000
-43.824000 0.000000
-43.738600 0.000000
-43.653100 0.000000
-43.567700 0.000000
-43.482300 0.000000
-43.396800 0.000000
-43.311400 0.000000
-43.225900 0.000000
-43.140500 0.000000
-43.055100 0.643800
-42.969600 4.029100
-42.884200 7.115400
-42.798700 5.243800
-42.713300 5.931200
-42.627800 5.360100
-42.542400 5.624300
-42.457000 4.824200
-42.371500 6.915000
-42.286100 6.146900
-42.200600 12.580000
-42.115200 0.000000
-42.029800 0.000000
-41.944300 0.000000
-41.858900 0.000000
-41.773400 0.000000
-41.688000 0.000000
-41.602600 0.000000
-41.517100 0.000000
-41.431700 0.000000
-41.346200 0.000000
-41.260800 0.000000
-41.175400 0.000000
-41.089900 0.000000
-41.004500 0.000000
-40.919000 0.000000
-40.833600 0.000000
-40.748100 0.000000
-40.662700 0.000000
-40.577300 0.000000
-40.491800 0.000000
-40.406400 0.000000
-40.320900 0.000000
-40.235500 0.000000
-40.150100 0.000000
-40.064600 0.000000
-39.979200 0.000000
-39.893700 0.000000
-39.808300 0.000000
-39.722900 0.000000
-39.637400 0.000000
-39.552000 0.000000
-39.466500 0.000000
-39.381100 0.000000
-39.295700 0.000000
-39.210200 0.000000
-39.124800 0.000000
-39.039300 0.000000
-38.953900 0.000000
-38.868400 0.000000
-38.783000 0.000000
-38.697600 0.000000
-38.612100 0.000000
-38.526700 0.000000
-38.441200 0.000000
-38.355800 0.000000
-38.270400 0.000000
-38.184900 0.000000
-38.099500 0.000000
-38.014000 0.000000
-37.928600 0.000000
-37.843200 0.000000
-37.757700 0.000000
-37.672300 0.000000
-37.586800 0.000000
-37.501400 0.000000
-37.416000 0.000000
-37.330500 0.000000
-37.245100 0.000000
-37.159600 0.000000
-37.074200 0.000000
-36.988700 0.000000
-36.903300 0.000000
-36.817900 0.000000
-36.732400 0.000000
-36.647000 0.000000
-36.561500 0.000000
-36.476100 0.000000
-36.390700 0.000000
-36.305200 0.000000
-36.219800 0.000000
-36.134300 0.000000
-36.048900 0.000000
-35.963500 0.000000
-35.878000 0.000000
-35.792600 0.000000
-35.707100 0.000000
-35.621700 0.000000
-35.536300 0.000000
-35.450800 0.000000
-35.365400 0.000000
-35.279900 0.000000
-35.194500 0.000000
-35.109000 0.000000
-35.023600 0.000000
-34.938200 0.000000
-34.852700 0.000000
-34.767300 0.000000
-34.681800 0.000000
-34.596400 0.000000
-34.511000 0.000000
-34.425500 0.000000
-34.340100 0.000000
-34.254600 0.000000
-34.169200 0.000000
-34.083800 0.000000
-33.998300 0.000000
-33.912900 0.000000
-33.827400 0.000000
-33.742000 0.000000
-33.656600 0.000000
-33.571100 0.000000
-33.485700 0.000000
-33.400200 0.000000
-33.314800 0.000000
-33.229300 0.000000
-33.143900 0.000000
-33.058500 0.000000
-32.973000 0.000000
-32.887600 0.000000
-32.802100 0.000000
-32.716700 0.000000
-32.631300 0.000000
-32.545800 0.000000
-32.460400 0.000000
-32.374900 0.000000
-32.289500 0.000000
-32.204100 0.000000
-32.118600 0.000000
-32.033200 0.000000
-31.947700 0.000000
-31.862300 0.000000
-31.776900 0.000000
-31.691400 0.000000
-31.606000 0.000000
-31.520500 0.000000
-31.435100 0.000000
-31.349600 0.000000
-31.264200 0.000000
-31.178800 0.000000
-31.093300 0.000000
-31.007900 0.000000
-30.922400 0.000000
-30.837000 0.000000
-30.751600 0.000000
-30.666100 0.000000
-30.580700 0.000000
-30.495200 0.000000
-30.409800 0.000000
-30.324400 0.000000
-30.238900 0.000000
-30.153500 0.000000
-30.068000 0.000000
-29.982600 0.000000
-29.897200 0.000000
-29.811700 0.000000
-29.726300 0.000000
-29.640800 0.000000
-29.555400 0.000000
-29.469900 0.000000
-29.384500 0.000000
-29.299100 0.000000
-29.213600 0.000000
-29.128200 0.000000
-29.042700 0.000000
-28.957300 0.000000
-28.871900 0.000000
-28.786400 0.000000
-28.701000 0.000000
-28.615500 0.000000
-28.530100 0.000000
-28.444700 0.000000
-28.359200 0.000000
-28.273800 0.000000
-28.188300 0.000000
-28.102900 0.000000
-28.017500 0.000000
-27.932000 0.000000
-27.846600 0.000000
-27.761100 0.000000
-27.675700 0.000000
-27.590200 0.000000
-27.504800 0.000000
-27.419400 0.000000
-27.333900 0.000000
-27.248500 0.000000
-27.163000 0.000000
-27.077600 0.000000
-26.992200 0.000000
-26.906700 0.000000
-26.821300 0.000000
-26.735800 0.000000
-26.650400 0.000000
-26.565000 0.000000
-26.479500 0.000000
-26.394100 0.000000
-26.308600 0.000000
-26.223200 0.000000
-26.137800 0.000000
-26.052300 0.000000
-25.966900 0.000000
-25.881400 0.000000
-25.796000 0.000000
-25.710500 0.000000
-25.625100 0.000000
-25.539700 0.000000
-25.454200 0.000000
-25.368800 0.000000
-25.283300 0.000000
-25.197900 0.000000
-25.112500 0.000000
-25.027000 0.000000
-24.941600 0.000000
-24.856100 0.000000
-24.770700 0.000000
-24.685300 0.000000
-24.599800 0.000000
-24.514400 0.000000
-24.428900 0.000000
-24.343500 0.000000
-24.258100 0.000000
-24.172600 0.000000
-24.087200 0.000000
-24.001700 0.000000
-23.916300 0.000000
-23.830800 0.000000
-23.745400 0.000000
-23.660000 0.000000
-23.574500 0.000000
-23.489100 0.000000
-23.403600 0.000000
-23.318200 0.000000
-23.232800 0.000000
-23.147300 0.000000
-23.061900 0.000000
-22.976400 0.000000
-22.891000 0.000000
-22.805600 0.000000
-22.720100 0.000000
-22.634700 0.000000
-22.549200 0.000000
-22.463800 0.000000
-22.378400 0.000000
-22.292900 0.000000
-22.207500 0.000000
-22.122000 0.000000
-22.036600 0.000000
-21.951100 0.000000
-21.865700 0.000000
-21.780300 0.000000
-21.694800 0.000000
-21.609400 0.000000
-21.523900 0.000000
-21.438500 0.000000
-21.353100 0.000000
-21.267600 0.000000
-21.182200 0.000000
-21.096700 0.000000
-21.011300 0.000000
-20.925900 0.000000
-20.840400 0.000000
-20.755000 0.000000
-20.669500 0.000000
-20.584100 0.000000
-20.498700 0.000000
-20.413200 0.000000
-20.327800 0.000000
-20.242300 0.000000
-20.156900 0.000000
-20.071500 0.000000
-19.986000 0.000000
-19.900600 0.000000
-19.815100 0.000000
-19.729700 0.000000
-19.644200 0.000000
-19.558800 0.000000
-19.473400 0.000000
-19.387900 0.000000
-19.302500 0.000000
-19.217000 0.000000
-19.131600 0.000000
-19.046200 0.000000
-18.960700 0.000000
-18.875300 0.000000
-18.789800 0.000000
-18.704400 0.000000
-18.619000 0.000000
-18.533500 0.000000
-18.448100 0.000000
-18.362600 0.000000
-18.277200 0.000000
-18.191800 0.000000
-18.106300 0.000000
-18.020900 0.000000
-17.935400 0.000000
-17.850000 0.000000
-17.764500 0.000000
-17.679100 0.000000
-17.593700 0.000000
-17.508200 0.000000
-17.422800 0.000000
-17.337300 0.000000
-17.251900 0.000000
-17.166500 0.000000
-17.081000 0.000000
-16.995600 0.000000
-16.910100 0.000000
-16.824700 0.000000
-16.739300 0.000000
-16.653800 0.000000
-16.568400 0.000000
-16.482900 0.000000
-16.397500 0.000000
-16.312100 0.000000
-16.226600 0.000000
-16.141200 0.000000
-16.055700 0.000000
-15.970300 0.000000
-15.884800 0.000000
-15.799400 0.000000
-15.714000 0.000000
-15.628500 0.000000
-15.543100 0.000000
-15.457600 0.000000
-15.372200 0.000000
-15.286800 0.000000
-15.201300 0.000000
-15.115900 0.000000
-15.030400 0.000000
-14.945000 0.000000
-14.859600 0.000000
-14.774100 0.000000
-14.688700 0.000000
-14.603200 0.000000
-14.517800 0.000000
-14.432400 0.000000
-14.346900 0.000000
-14.261500 0.000000
-14.176000 0.000000
-14.090600 0.000000
-14.005100 0.000000
-13.919700 0.000000
-13.834300 0.000000
-13.748800 0.000000
-13.663400 0.000000
-13.577900 0.000000
-13.492500 0.000000
-13.407100 0.000000
-13.321600 0.000000
-13.236200 0.000000
-13.150700 0.000000
-13.065300 0.000000
-12.979900 0.000000
-12.894400 0.000000
-12.809000 0.000000
-12.723500 0.000000
-12.638100 0.000000
-12.552700 0.000000
-12.467200 0.000000
-12.381800 0.000000
-12.296300 0.000000
-12.210900 0.000000
-12.125400 0.000000
-12.040000 0.000000
-11.954600 0.000000
-11.869100 0.000000
-11.783700 0.000000
-11.698200 0.000000
-11.612800 0.000000
-11.527400 0.000000
-11.441900 0.000000
-11.356500 0.000000
-11.271000 0.000000
-11.185600 0.000000
-11.100200 0.000000
-11.014700 0.000000
-10.929300 0.000000
-10.843800 0.000000
-10.758400 0.000000
-10.673000 0.000000
-10.587500 0.000000
-10.502100 0.000000
-10.416600 0.000000
-10.331200 0.000000
-10.245700 0.000000
-10.160300 0.000000
-10.074900 0.000000
-9.989400 0.000000
-9.904000 0.000000
-9.818500 0.000000
-9.733100 0.000000
-9.647700 0.000000
-9.562200 0.000000
-9.476800 0.000000
-9.391300 0.000000
-9.305900 0.000000
-9.220500 0.000000
-9.135000 0.000000
-9.049600 0.000000
-8.964100 0.000000
-8.878700 0.000000
-8.793300 0.000000
-8.707800 0.000000
-8.622400 0.000000
-8.536900 0.000000
-8.451500 0.000000
-8.366000 0.000000
-8.280600 0.000000
-8.195200 0.000000
-8.109700 0.000000
-8.024300 0.000000
-7.938800 0.000000
-7.853400 0.000000
-7.768000 0.000000
-7.682500 0.000000
-7.597100 0.000000
-7.511600 0.000000
-7.426200 0.000000
-7.340800 0.000000
-7.255300 0.000000
-7.169900 0.000000
-7.084400 0.000000
-6.999000 0.000000
-6.913600 0.000000
-6.828100 0.000000
-6.742700 0.000000
-6.657200 0.000000
-6.571800 0.000000
-6.486300 0.000000
-6.400900 0.000000
-6.315500 0.000000
-6.230000 0.000000
-6.144600 0.000000
-6.059100 0.000000
-5.973700 0.000000
-5.888300 0.000000
-5.802800 0.000000
-5.717400 0.000000
-5.631900 0.000000
-5.546500 0.000000
-5.461100 0.000000
-5.375600 0.000000
-5.290200 0.000000
-5.204700 0.000000
-5.119300 0.000000
-5.033900 0.000000
-4.948400 0.000000
-4.863000 0.000000
-4.777500 0.000000
-4.692100 0.000000
-4.606600 0.000000
-4.521200 0.000000
-4.435800 0.000000
-4.350300 0.000000
-4.264900 0.000000
-4.179400 0.000000
-4.094000 0.000000
-4.008600 0.000000
-3.923100 0.000000
-3.837700 0.000000
-3.752200 0.000000
-3.666800 0.000000
-3.581400 0.000000
-3.495900 0.000000
-3.410500 0.000000
-3.325000 0.000000
-3.239600 0.000000
-3.154200 0.000000
-3.068700 0.000000
-2.983300 0.000000
-2.897800 0.000000
-2.812400 0.000000
-2.726900 0.000000
-2.641500 0.000000
-2.556100 0.000000
-2.470600 0.000000
-2.385200 0.000000
-2.299700 0.000000
-2.214300 0.000000
-2.128900 0.014000
-2.043400 0.023800
-1.958000 0.031100
-1.872500 0.037700
-1.787100 0.043700
-1.701700 0.049400
-1.616200 0.052900
-1.530800 0.057300
-1.445300 0.062700
-1.359900 0.067800
-1.274500 0.071400
-1.189000 0.075200
-1.103600 0.079300
-1.018100 0.083800
-0.932700 0.088700
-0.847200 0.093000
-0.761800 0.097400
-0.676400 0.101800
-0.590900 0.106400
-0.505500 0.111200
-0.420000 0.116400
-0.334600 0.121700
-0.249200 0.127100
-0.163700 0.132900
-0.078300 0.138800
0.007200 0.145300
0.092600 0.152100
0.178000 0.159400
0.263500 0.167200
0.348900 0.176200
0.434400 0.185700
0.519800 0.195800
0.605200 0.206400
0.690700 0.219400
0.776100 0.235500
0.861600 0.255400
0.947000 0.280500
1.032500 0.345900
1.117900 0.400700
1.203300 0.458600
1.288800 0.529200
1.374200 0.658800
1.459700 0.931200
1.545100 1.361400
1.630500 2.101400
1.716000 2.895500
1.801400 2.508600
1.886900 1.648700
1.972300 1.141400
2.057700 0.882700
2.143200 0.714400
2.228600 0.635300
2.314100 0.570400
2.399500 0.570900
2.484900 0.652800
2.570400 1.195300
2.655800 1.941300
2.741300 1.736000
2.826700 2.312600
2.912100 2.016200
2.997600 2.085800
3.083000 1.821800
3.168500 2.435600
3.253900 3.267000
3.339400 2.911400
3.424800 1.787500
3.510200 1.262900
3.595700 1.210700
3.681100 1.379400
3.766600 1.413300
3.852000 1.217000
3.937400 1.139100
4.022900 1.248500
4.108300 1.287900
4.193800 1.296900
4.279200 1.423500
4.364600 1.558900
4.450100 1.431100
4.535500 1.461500
4.621000 1.473200
4.706400 1.543600
4.791800 1.257300
4.877300 1.498500
4.962700 1.693000
5.048200 1.625600
5.133600 1.973400
5.219100 1.844200
5.304500 1.437500
5.389900 2.052500
5.475400 3.033700
5.560800 2.699300
5.646300 3.655800
5.731700 2.010700
5.817100 1.649100
5.902600 1.853000
5.988000 2.208800
6.073500 1.932700
6.158900 1.705300
6.244300 1.608100
6.329800 1.433500
6.415200 1.726200
6.500700 2.127200
6.586100 1.948100
6.671500 1.784600
6.757000 1.736000
6.842400 1.502900
6.927900 1.393600
7.013300 1.369400
7.098800 1.304100
7.184200 1.232300
7.269600 1.130800
7.355100 0.761700
7.440500 0.756800
7.526000 0.811000
7.611400 0.705000
7.696800 0.662300
7.782300 0.491500
7.867700 0.426300
7.953200 0.370500
8.038600 0.364700
8.124000 0.377100
8.209500 0.395700
8.294900 0.365900
8.380400 0.338700
8.465800 0.324800
8.551200 0.313700
8.636700 0.299700
8.722100 0.280700
8.807600 0.263300
8.893000 0.246400
8.978500 0.230400
9.063900 0.221300
9.149300 0.212900
9.234800 0.205100
9.320200 0.198400
9.405700 0.191900
9.491100 0.186500
9.576500 0.181000
9.662000 0.173000
9.747400 0.170000
9.832900 0.168100
9.918300 0.166000
10.003700 0.163500
10.089200 0.161400
10.174600 0.159600
10.260100 0.158500
10.345500 0.157600
10.430900 0.160600
10.516400 0.158200
10.601800 0.155900
10.687300 0.153800
10.772700 0.153500
10.858200 0.153800
10.943600 0.155000
11.029000 0.153800
11.114500 0.154500
11.199900 0.155700
11.285400 0.157800
11.370800 0.161200
11.456200 0.166000
11.541700 0.173700
11.627100 0.185700
11.712600 0.212500
11.798000 0.254200
11.883400 0.235100
11.968900 0.201800
12.054300 0.182200
12.139800 0.168900
12.225200 0.154900
12.310600 0.146600
12.396100 0.142600
12.481500 0.146700
12.567000 0.185500
12.652400 0.267500
12.737900 0.294800
12.823300 0.329800
12.908700 0.386200
12.994200 0.429700
13.079600 0.432900
13.165100 0.435700
13.250500 0.430900
13.335900 0.439800
13.421400 0.435700
13.506800 0.437100
13.592300 0.423500
13.677700 0.418500
13.763100 0.411700
13.848600 0.407400
13.934000 0.410500
14.019500 0.415000
14.104900 0.414800
14.190300 0.418200
14.275800 0.420900
14.361200 0.423100
14.446700 0.425500
14.532100 0.429500
14.617600 0.433700
14.703000 0.450300
14.788400 0.470900
14.873900 0.497400
14.959300 0.483200
15.044800 0.468500
15.130200 0.454800
15.215600 0.446300
15.301100 0.438400
15.386500 0.414900
15.472000 0.396000
15.557400 0.380500
15.642800 0.368500
15.728300 0.355700
15.813700 0.342800
15.899200 0.334700
15.984600 0.327800
16.070000 0.320200
16.155500 0.315200
16.240900 0.310800
16.326400 0.304600
16.411800 0.297700
16.497300 0.291100
16.582700 0.284900
16.668100 0.279500
16.753600 0.275700
16.839000 0.277800
16.924500 0.270200
17.009900 0.257700
17.095300 0.242400
17.180800 0.232000
17.266200 0.227200
17.351700 0.213400
17.437100 0.209600
17.522500 0.206600
17.608000 0.203600
17.693400 0.200700
17.778900 0.197800
17.864300 0.195400
17.949700 0.192500
18.035200 0.190500
18.120600 0.188800
18.206100 0.187800
18.291500 0.187300
18.377000 0.186600
18.462400 0.186500
18.547800 0.187200
18.633300 0.185800
18.718700 0.185900
18.804200 0.186900
18.889600 0.188300
18.975000 0.189700
19.060500 0.194600
19.145900 0.199800
19.231400 0.223700
19.316800 0.262200
19.402200 0.279100
19.487700 0.280400
19.573100 0.289500
19.658600 0.292300
19.744000 0.307100
19.829400 0.351100
19.914900 0.406400
20.000300 0.435400
20.085800 0.465000
20.171200 0.465500
20.256700 0.456500
20.342100 0.459500
20.427500 0.466600
20.513000 0.454300
20.598400 0.441200
20.683900 0.451900
20.769300 0.454800
20.854700 0.449500
20.940200 0.445000
21.025600 0.437100
21.111100 0.443300
21.196500 0.448000
21.281900 0.442000
21.367400 0.427600
21.452800 0.410000
21.538300 0.407900
21.623700 0.410600
21.709100 0.422900
21.794600 0.448700
21.880000 0.455600
21.965500 0.447900
22.050900 0.440700
22.136400 0.440200
22.221800 0.454500
22.307200 0.472800
22.392700 0.484600
22.478100 0.499500
22.563600 0.518300
22.649000 0.539700
22.734400 0.554900
22.819900 0.537500
22.905300 0.519500
22.990800 0.522800
23.076200 0.505600
23.161600 0.491400
23.247100 0.476700
23.332500 0.464600
23.418000 0.459000
23.503400 0.450300
23.588800 0.446200
23.674300 0.455300
23.759700 0.469400
23.845200 0.468900
23.930600 0.464900
24.016100 0.462200
24.101500 0.463700
24.186900 0.464800
24.272400 0.465700
24.357800 0.475700
24.443300 0.471200
24.528700 0.462600
24.614100 0.459000
24.699600 0.458200
24.785000 0.465000
24.870500 0.462300
24.955900 0.462200
25.041300 0.458500
25.126800 0.461800
25.212200 0.471400
25.297700 0.470700
25.383100 0.466200
25.468500 0.465700
25.554000 0.455300
25.639400 0.452600
25.724900 0.453000
25.810300 0.448500
25.895700 0.439400
25.981200 0.427500
26.066600 0.416600
26.152100 0.407500
26.237500 0.400700
26.323000 0.396300
26.408400 0.403200
26.493800 0.439600
26.579300 0.450000
26.664700 0.465600
26.750200 0.472500
26.835600 0.474500
26.921000 0.482700
27.006500 0.497900
27.091900 0.513800
27.177400 0.522800
27.262800 0.509800
27.348200 0.513000
27.433700 0.502300
27.519100 0.498100
27.604600 0.680300
27.690000 0.491600
27.775400 0.486700
27.860900 0.476000
27.946300 0.477800
28.031800 0.475900
28.117200 0.476000
28.202700 0.470000
28.288100 0.453500
28.373500 0.441400
28.459000 0.441400
28.544400 0.440000
28.629900 0.443100
28.715300 0.447800
28.800700 0.452000
28.886200 0.460400
28.971600 0.477700
29.057100 0.493100
29.142500 0.493400
29.227900 0.488100
29.313400 0.476400
29.398800 0.463800
29.484300 0.453800
29.569700 0.444400
29.655100 0.441500
29.740600 0.451200
29.826000 0.469800
29.911500 0.467400
29.996900 0.467500
30.082400 0.472600
30.167800 0.485400
30.253200 0.487900
30.338700 0.491300
30.424100 0.505800
30.509600 0.510100
30.595000 0.510400
30.680400 0.506000
30.765900 0.500600
30.851300 0.502000
30.936800 0.505900
31.022200 0.512200
31.107600 0.526800
31.193100 0.537500
31.278500 0.550900
31.364000 0.573500
31.449400 0.599200
31.534800 0.593500
31.620300 0.582200
31.705700 0.575300
31.791200 0.553300
31.876600 0.537800
31.962100 0.526800
32.047500 0.515800
32.132900 0.508200
32.218400 0.506700
32.303800 0.503000
32.389300 0.505000
32.474700 0.510300
32.560100 0.524100
32.645600 0.527000
32.731000 0.525900
32.816500 0.528500
32.901900 0.541500
32.987300 0.548800
33.072800 0.520300
33.158200 0.490300
33.243700 0.472300
33.329100 0.465700
33.414500 0.459200
33.500000 0.450100
33.585400 0.461900
33.670900 0.470000
33.756300 0.492700
33.841800 0.520800
33.927200 0.580600
34.012600 0.589400
34.098100 0.579700
34.183500 0.581700
34.269000 0.575100
34.354400 0.575100
34.439800 0.523400
34.525300 0.482100
34.610700 0.468500
34.696200 0.453700
34.781600 0.442000
34.867000 0.438700
34.952500 0.448800
35.037900 0.461200
35.123400 0.452800
35.208800 0.476800
35.294200 0.488800
35.379700 0.463000
35.465100 0.476100
35.550600 0.498900
35.636000 0.528200
35.721500 0.546400
35.806900 0.555000
35.892300 0.569400
35.977800 0.547600
36.063200 0.513400
