set title 'mp-145 - Density of States'
set xlabel 'Energy (eV)'
set ylabel 'DOS (states/eV)'
set grid
set xrange [-10:10]
set yrange [0:4.995]
set xzeroaxis lt -1
set terminal png size 800,600
set output 'mp-145_dos_gnuplot.png'
plot '-' using 1:2 with lines title 'DOS'
-28.408300 0.000000
-28.361600 0.000000
-28.315000 0.000000
-28.268300 0.000000
-28.221700 0.000000
-28.175100 0.000000
-28.128400 0.000000
-28.081800 0.000000
-28.035100 0.000000
-27.988500 0.000000
-27.941800 0.000000
-27.895200 0.000000
-27.848500 0.000000
-27.801900 0.000000
-27.755200 0.000000
-27.708600 0.000000
-27.662000 0.000000
-27.615300 0.000000
-27.568700 0.000000
-27.522000 0.000000
-27.475400 0.000000
-27.428700 0.000000
-27.382100 0.000000
-27.335400 0.000000
-27.288800 0.000000
-27.242200 0.000000
-27.195500 0.000000
-27.148900 0.000000
-27.102200 0.000000
-27.055600 0.000000
-27.008900 0.000000
-26.962300 0.000000
-26.915600 0.000000
-26.869000 0.000000
-26.822300 0.000000
-26.775700 0.000000
-26.729100 0.000000
-26.682400 0.000000
-26.635800 0.000000
-26.589100 0.000000
-26.542500 0.000000
-26.495800 0.000000
-26.449200 0.000000
-26.402500 0.000000
-26.355900 0.000000
-26.309300 0.000000
-26.262600 0.000000
-26.216000 0.000000
-26.169300 0.000000
-26.122700 0.000000
-26.076000 0.000000
-26.029400 0.000000
-25.982700 0.000000
-25.936100 0.000000
-25.889400 0.000000
-25.842800 0.000000
-25.796200 0.000000
-25.749500 0.000000
-25.702900 0.000000
-25.656200 0.000000
-25.609600 0.000000
-25.562900 0.000000
-25.516300 0.000000
-25.469600 0.000000
-25.423000 0.000000
-25.376300 0.000000
-25.329700 0.000000
-25.283100 0.000000
-25.236400 0.000000
-25.189800 0.000000
-25.143100 0.000000
-25.096500 0.000000
-25.049800 0.000000
-25.003200 0.000000
-24.956500 0.000000
-24.909900 0.000000
-24.863300 0.000000
-24.816600 0.000000
-24.770000 0.000000
-24.723300 0.000000
-24.676700 0.000000
-24.630000 0.000000
-24.583400 0.000000
-24.536700 0.000000
-24.490100 0.000000
-24.443400 0.000000
-24.396800 0.000000
-24.350200 0.000000
-24.303500 0.000000
-24.256900 0.000000
-24.210200 0.000000
-24.163600 0.122400
-24.116900 3.715200
-24.070300 26.030700
-24.023600 20.470100
-23.977000 16.509500
-23.930400 16.452600
-23.883700 17.484800
-23.837100 32.093100
-23.790400 32.913000
-23.743800 48.913400
-23.697100 33.240600
-23.650500 4.402100
-23.603800 0.000000
-23.557200 0.000000
-23.510500 0.000000
-23.463900 0.000000
-23.417300 0.000000
-23.370600 0.000000
-23.324000 0.000000
-23.277300 0.000000
-23.230700 0.000000
-23.184000 0.000000
-23.137400 0.000000
-23.090700 0.000000
-23.044100 0.000000
-22.997400 0.000000
-22.950800 0.000000
-22.904200 0.000000
-22.857500 0.000000
-22.810900 0.000000
-22.764200 0.000000
-22.717600 0.000000
-22.670900 0.000000
-22.624300 0.000000
-22.577600 0.000000
-22.531000 0.000000
-22.484400 0.000000
-22.437700 0.000000
-22.391100 0.000000
-22.344400 0.000000
-22.297800 0.000000
-22.251100 0.000000
-22.204500 0.000000
-22.157800 0.000000
-22.111200 0.000000
-22.064500 0.000000
-22.017900 0.000000
-21.971300 0.000000
-21.924600 0.000000
-21.878000 0.000000
-21.831300 0.000000
-21.784700 0.000000
-21.738000 0.000000
-21.691400 0.000000
-21.644700 0.000000
-21.598100 0.000000
-21.551500 0.000000
-21.504800 0.000000
-21.458200 0.000000
-21.411500 0.000000
-21.364900 0.000000
-21.318200 0.000000
-21.271600 0.000000
-21.224900 0.000000
-21.178300 0.000000
-21.131600 0.000000
-21.085000 0.000000
-21.038400 0.000000
-20.991700 0.000000
-20.945100 0.000000
-20.898400 0.000000
-20.851800 0.000000
-20.805100 0.000000
-20.758500 0.000000
-20.711800 0.000000
-20.665200 0.000000
-20.618600 0.000000
-20.571900 0.000000
-20.525300 0.000000
-20.478600 0.000000
-20.432000 0.000000
-20.385300 0.000000
-20.338700 0.000000
-20.292000 0.000000
-20.245400 0.000000
-20.198700 0.000000
-20.152100 0.000000
-20.105500 0.000000
-20.058800 0.000000
-20.012200 0.000000
-19.965500 0.000000
-19.918900 0.000000
-19.872200 0.000000
-19.825600 0.000000
-19.778900 0.000000
-19.732300 0.000000
-19.685600 0.000000
-19.639000 0.000000
-19.592400 0.000000
-19.545700 0.000000
-19.499100 0.000000
-19.452400 0.000000
-19.405800 0.000000
-19.359100 0.000000
-19.312500 0.000000
-19.265800 0.000000
-19.219200 0.000000
-19.172600 0.000000
-19.125900 0.000000
-19.079300 0.000000
-19.032600 0.000000
-18.986000 0.000000
-18.939300 0.000000
-18.892700 0.000000
-18.846000 0.000000
-18.799400 0.000000
-18.752700 0.000000
-18.706100 0.000000
-18.659500 0.000000
-18.612800 0.000000
-18.566200 0.000000
-18.519500 0.000000
-18.472900 0.000000
-18.426200 0.000000
-18.379600 0.000000
-18.332900 0.000000
-18.286300 0.000000
-18.239700 0.000000
-18.193000 0.000000
-18.146400 0.000000
-18.099700 0.000000
-18.053100 0.000000
-18.006400 0.000000
-17.959800 0.000000
-17.913100 0.000000
-17.866500 0.000000
-17.819800 0.000000
-17.773200 0.000000
-17.726600 0.000000
-17.679900 0.000000
-17.633300 0.000000
-17.586600 0.000000
-17.540000 0.000000
-17.493300 0.000000
-17.446700 0.000000
-17.400000 0.000000
-17.353400 0.000000
-17.306700 0.000000
-17.260100 0.000000
-17.213500 0.000000
-17.166800 0.000000
-17.120200 0.000000
-17.073500 0.000000
-17.026900 0.000000
-16.980200 0.000000
-16.933600 0.000000
-16.886900 0.000000
-16.840300 0.000000
-16.793700 0.000000
-16.747000 0.000000
-16.700400 0.000000
-16.653700 0.000000
-16.607100 0.000000
-16.560400 0.000000
-16.513800 0.000000
-16.467100 0.000000
-16.420500 0.000000
-16.373800 0.000000
-16.327200 0.000000
-16.280600 0.000000
-16.233900 0.000000
-16.187300 0.000000
-16.140600 0.000000
-16.094000 0.000000
-16.047300 0.000000
-16.000700 0.000000
-15.954000 0.000000
-15.907400 0.000000
-15.860800 0.000000
-15.814100 0.000000
-15.767500 0.000000
-15.720800 0.000000
-15.674200 0.000000
-15.627500 0.000000
-15.580900 0.000000
-15.534200 0.000000
-15.487600 0.000000
-15.440900 0.000000
-15.394300 0.000000
-15.347700 0.000000
-15.301000 0.000000
-15.254400 0.000000
-15.207700 0.000000
-15.161100 0.000000
-15.114400 0.000000
-15.067800 0.000000
-15.021100 0.000000
-14.974500 0.000000
-14.927800 0.000000
-14.881200 0.000000
-14.834600 0.000000
-14.787900 0.000000
-14.741300 0.000000
-14.694600 0.000000
-14.648000 0.000000
-14.601300 0.000000
-14.554700 0.000000
-14.508000 0.000000
-14.461400 0.000000
-14.414800 0.000000
-14.368100 0.000000
-14.321500 0.000000
-14.274800 0.000000
-14.228200 0.000000
-14.181500 0.000000
-14.134900 0.000000
-14.088200 0.000000
-14.041600 0.000000
-13.994900 0.000000
-13.948300 0.000000
-13.901700 0.000000
-13.855000 0.000000
-13.808400 0.000000
-13.761700 0.000000
-13.715100 0.000000
-13.668400 0.000000
-13.621800 0.000000
-13.575100 0.000000
-13.528500 0.000000
-13.481900 0.000000
-13.435200 0.000000
-13.388600 0.000000
-13.341900 0.000000
-13.295300 0.000000
-13.248600 0.000000
-13.202000 0.000000
-13.155300 0.000000
-13.108700 0.000000
-13.062000 0.000000
-13.015400 0.000000
-12.968800 0.000000
-12.922100 0.000000
-12.875500 0.000000
-12.828800 0.000000
-12.782200 0.000000
-12.735500 0.000000
-12.688900 0.000000
-12.642200 0.000000
-12.595600 0.000000
-12.549000 0.000000
-12.502300 0.000000
-12.455700 0.000000
-12.409000 0.000000
-12.362400 0.000000
-12.315700 0.000000
-12.269100 0.000000
-12.222400 0.000000
-12.175800 0.000000
-12.129100 0.000000
-12.082500 0.000000
-12.035900 0.000000
-11.989200 0.000000
-11.942600 0.000000
-11.895900 0.000000
-11.849300 0.000000
-11.802600 0.000000
-11.756000 0.000000
-11.709300 0.000000
-11.662700 0.000000
-11.616000 0.000000
-11.569400 0.000000
-11.522800 0.000000
-11.476100 0.000000
-11.429500 0.000000
-11.382800 0.000000
-11.336200 0.000000
-11.289500 0.000000
-11.242900 0.000000
-11.196200 0.000000
-11.149600 0.000000
-11.103000 0.000000
-11.056300 0.000000
-11.009700 0.000000
-10.963000 0.000000
-10.916400 0.000000
-10.869700 0.000000
-10.823100 0.000000
-10.776400 0.000000
-10.729800 0.000000
-10.683100 0.000000
-10.636500 0.000000
-10.589900 0.000000
-10.543200 0.000000
-10.496600 0.000000
-10.449900 0.000000
-10.403300 0.000000
-10.356600 0.000000
-10.310000 0.000000
-10.263300 0.000000
-10.216700 0.000000
-10.170100 0.000000
-10.123400 0.000000
-10.076800 0.000000
-10.030100 0.000000
-9.983500 0.000000
-9.936800 0.000000
-9.890200 0.000000
-9.843500 0.000000
-9.796900 0.000000
-9.750200 0.000000
-9.703600 0.000000
-9.657000 0.000000
-9.610300 0.000000
-9.563700 0.000000
-9.517000 0.000000
-9.470400 0.000000
-9.423700 0.000000
-9.377100 0.000000
-9.330400 0.000000
-9.283800 0.000000
-9.237100 0.000000
-9.190500 0.000000
-9.143900 0.000000
-9.097200 0.000000
-9.050600 0.000000
-9.003900 0.000000
-8.957300 0.000000
-8.910600 0.000000
-8.864000 0.000000
-8.817300 0.000000
-8.770700 0.000000
-8.724100 0.000000
-8.677400 0.000000
-8.630800 0.000000
-8.584100 0.000000
-8.537500 0.000000
-8.490800 0.000000
-8.444200 0.000000
-8.397500 0.000000
-8.350900 0.000000
-8.304200 0.000000
-8.257600 0.000000
-8.211000 0.000000
-8.164300 0.000000
-8.117700 0.000000
-8.071000 0.000000
-8.024400 0.000000
-7.977700 0.000000
-7.931100 0.000000
-7.884400 0.000000
-7.837800 0.000000
-7.791200 0.000000
-7.744500 0.000000
-7.697900 0.000000
-7.651200 0.000000
-7.604600 0.000000
-7.557900 0.000000
-7.511300 0.000000
-7.464600 0.000000
-7.418000 0.000000
-7.371300 0.000000
-7.324700 0.000000
-7.278100 0.000000
-7.231400 0.000000
-7.184800 0.000000
-7.138100 0.000000
-7.091500 0.000000
-7.044800 0.000000
-6.998200 0.000000
-6.951500 0.000000
-6.904900 0.000000
-6.858300 0.000000
-6.811600 0.000000
-6.765000 0.000000
-6.718300 0.000000
-6.671700 0.000000
-6.625000 0.000000
-6.578400 0.000000
-6.531700 0.000000
-6.485100 0.000000
-6.438400 0.000000
-6.391800 0.000000
-6.345200 0.000000
-6.298500 0.000000
-6.251900 0.000000
-6.205200 0.000000
-6.158600 0.000000
-6.111900 0.000000
-6.065300 0.000000
-6.018600 0.000000
-5.972000 0.000000
-5.925300 0.000000
-5.878700 0.000000
-5.832100 0.000000
-5.785400 0.000000
-5.738800 0.000000
-5.692100 0.000000
-5.645500 0.000000
-5.598800 0.000000
-5.552200 0.000000
-5.505500 0.000000
-5.458900 0.000000
-5.412300 0.000000
-5.365600 0.000000
-5.319000 0.000000
-5.272300 0.000000
-5.225700 0.000000
-5.179000 0.000000
-5.132400 0.000000
-5.085700 0.000000
-5.039100 0.000000
-4.992400 0.000000
-4.945800 0.000000
-4.899200 0.000000
-4.852500 0.000000
-4.805900 0.000000
-4.759200 0.000000
-4.712600 0.000000
-4.665900 0.000000
-4.619300 0.000000
-4.572600 0.000000
-4.526000 0.000000
-4.479400 0.000000
-4.432700 0.000000
-4.386100 0.000000
-4.339400 0.000000
-4.292800 0.000000
-4.246100 0.000000
-4.199500 0.000000
-4.152800 0.000000
-4.106200 0.000000
-4.059500 0.000000
-4.012900 0.000000
-3.966300 0.000000
-3.919600 0.000000
-3.873000 0.000000
-3.826300 0.000000
-3.779700 0.000000
-3.733000 0.000000
-3.686400 0.000000
-3.639700 0.000000
-3.593100 0.000000
-3.546400 0.000000
-3.499800 0.000000
-3.453200 0.000000
-3.406500 0.000000
-3.359900 0.000000
-3.313200 0.000000
-3.266600 0.000000
-3.219900 0.000000
-3.173300 0.004000
-3.126600 0.028400
-3.080000 0.071900
-3.033400 0.085700
-2.986700 0.087600
-2.940100 0.102100
-2.893400 0.117300
-2.846800 0.133300
-2.800100 0.147100
-2.753500 0.154500
-2.706800 0.158800
-2.660200 0.166600
-2.613500 0.175900
-2.566900 0.185400
-2.520300 0.194900
-2.473600 0.204500
-2.427000 0.214800
-2.380300 0.225100
-2.333700 0.232200
-2.287000 0.238300
-2.240400 0.245900
-2.193700 0.253200
-2.147100 0.260500
-2.100500 0.268000
-2.053800 0.276100
-2.007200 0.284800
-1.960500 0.293800
-1.913900 0.303100
-1.867200 0.312500
-1.820600 0.333100
-1.773900 0.364200
-1.727300 0.357700
-1.680600 0.362800
-1.634000 0.368100
-1.587400 0.373400
-1.540700 0.378500
-1.494100 0.380700
-1.447400 0.381500
-1.400800 0.384200
-1.354100 0.388900
-1.307500 0.393500
-1.260800 0.398000
-1.214200 0.402500
-1.167500 0.427400
-1.120900 0.462800
-1.074300 0.460500
-1.027600 0.472600
-0.981000 0.485100
-0.934300 0.498400
-0.887700 0.512600
-0.841000 0.522300
-0.794400 0.531700
-0.747700 0.544300
-0.701100 0.557300
-0.654500 0.570300
-0.607800 0.584000
-0.561200 0.599500
-0.514500 0.615500
-0.467900 0.629900
-0.421200 0.646600
-0.374600 0.663700
-0.327900 0.681800
-0.281300 0.700900
-0.234600 0.720700
-0.188000 0.741300
-0.141400 0.763400
-0.094700 0.787300
-0.048100 0.813000
-0.001400 0.841800
0.045200 0.874500
0.091900 0.912700
0.138500 0.953900
0.185200 1.000800
0.231800 1.050800
0.278400 1.103800
0.325100 1.161300
0.371700 1.233400
0.418400 2.116400
0.465000 1.440000
0.511700 1.424100
0.558300 1.403200
0.605000 1.390100
0.651600 1.365700
0.698300 1.242900
0.744900 1.223500
0.791500 1.300700
0.838200 1.364200
0.884800 1.372100
0.931500 1.313100
0.978100 1.327000
1.024800 1.312500
1.071400 1.314600
1.118100 1.320300
1.164700 1.313800
1.211300 1.315500
1.258000 1.317900
1.304600 1.332300
1.351300 1.369100
1.397900 1.410600
1.444600 1.510000
1.491200 1.579200
1.537900 1.675800
1.584500 1.525400
1.631200 1.483300
1.677800 1.468600
1.724400 1.463700
1.771100 1.486700
1.817700 1.464000
1.864400 1.326400
1.911000 1.245900
1.957700 1.233400
2.004300 1.737800
2.051000 1.223200
2.097600 1.595800
2.144300 2.016700
2.190900 2.148600
2.237500 2.266900
2.284200 2.439700
2.330800 2.532900
2.377500 2.653700
2.424100 3.104300
2.470800 3.233200
2.517400 3.310100
2.564100 3.320200
2.610700 3.323600
2.657300 3.290700
2.704000 3.361000
2.750600 3.427100
2.797300 3.501000
2.843900 4.541300
2.890600 3.865800
2.937200 3.904600
2.983900 3.875100
3.030500 2.596600
3.077200 2.006700
3.123800 1.906200
3.170400 1.926300
3.217100 1.632500
3.263700 1.614400
3.310400 1.577700
3.357000 1.550800
3.403700 1.557000
3.450300 1.406300
3.497000 1.307700
3.543600 1.313200
3.590200 1.347300
3.636900 1.391400
3.683500 1.461100
3.730200 1.543100
3.776800 1.642500
3.823500 1.714900
3.870100 1.886300
3.916800 2.093500
3.963400 2.343600
4.010100 2.847500
4.056700 3.673000
4.103300 4.462300
4.150000 4.236200
4.196600 4.158800
4.243300 4.034800
4.289900 4.078200
4.336600 4.021800
4.383200 4.029900
4.429900 3.740700
4.476500 3.560100
4.523200 3.270400
4.569800 3.033600
4.616400 3.147800
4.663100 3.170100
4.709700 3.236000
4.756400 2.860600
4.803000 2.733200
4.849700 2.852000
4.896300 2.946400
4.943000 2.954200
4.989600 3.122100
5.036200 3.182100
5.082900 3.361600
5.129500 3.397100
5.176200 3.461500
5.222800 3.537500
5.269500 3.874500
5.316100 3.531700
5.362800 2.979600
5.409400 2.550000
5.456100 2.360900
5.502700 2.088000
5.549300 1.991100
5.596000 2.117900
5.642600 1.681300
5.689300 1.533500
5.735900 1.444800
5.782600 2.030400
5.829200 1.920700
5.875900 0.938900
5.922500 0.845800
5.969100 0.759600
6.015800 0.859000
6.062400 0.981500
6.109100 1.237600
6.155700 1.317800
6.202400 1.421500
6.249000 1.453900
6.295700 1.814400
6.342300 1.687600
6.389000 1.596800
6.435600 1.378600
6.482200 1.400500
6.528900 1.421400
6.575500 1.429500
6.622200 1.424100
6.668800 1.421600
6.715500 1.435500
6.762100 1.431100
6.808800 1.434900
6.855400 1.443800
6.902100 1.452900
6.948700 1.462300
6.995300 1.478900
7.042000 1.499000
7.088600 1.515200
7.135300 1.528300
7.181900 1.546700
7.228600 1.563500
7.275200 1.575800
7.321900 1.602100
7.368500 1.636400
7.415100 1.668400
7.461800 1.701400
7.508400 1.736900
7.555100 1.779100
7.601700 2.235900
7.648400 2.303000
7.695000 2.387800
7.741700 2.324100
7.788300 2.238300
7.835000 2.444000
7.881600 2.046800
7.928200 2.091500
7.974900 2.263800
8.021500 2.068200
8.068200 2.480700
8.114800 3.011600
8.161500 3.277800
8.208100 3.945600
8.254800 3.744400
8.301400 3.449500
8.348000 3.374600
8.394700 3.087900
8.441300 2.980700
8.488000 3.044800
8.534600 3.144800
8.581300 3.396500
8.627900 3.743300
8.674600 3.815500
8.721200 3.655900
8.767900 3.398500
8.814500 3.384200
8.861100 3.347000
8.907800 3.352400
8.954400 3.520100
9.001100 3.307100
9.047700 2.938700
9.094400 3.043700
9.141000 3.373300
9.187700 3.509200
9.234300 3.625600
9.280900 3.792600
9.327600 3.983500
9.374200 4.194700
9.420900 4.243600
9.467500 3.556300
9.514200 2.603400
9.560800 2.448300
9.607500 1.943900
9.654100 1.591100
9.700800 1.490200
9.747400 1.540700
9.794000 1.711100
9.840700 2.043900
9.887300 2.465500
9.934000 1.804300
9.980600 1.812300
10.027300 1.626000
10.073900 1.376200
10.120600 1.429400
10.167200 1.117700
10.213900 1.085200
10.260500 1.090400
10.307100 1.054900
10.353800 1.070700
10.400400 1.106500
10.447100 1.286300
10.493700 1.243200
10.540400 1.249500
10.587000 1.280100
10.633700 1.350300
10.680300 1.375500
10.726900 1.569400
10.773600 1.811400
10.820200 1.949000
10.866900 2.205400
10.913500 2.405900
10.960200 2.479200
11.006800 2.375500
11.053500 2.257700
11.100100 1.970200
11.146800 1.879400
11.193400 1.865100
11.240000 1.815400
11.286700 1.805900
11.333300 1.952900
11.380000 1.695500
11.426600 1.647800
11.473300 1.586200
11.519900 1.330900
11.566600 1.087600
11.613200 1.023100
11.659800 0.981400
11.706500 0.950600
11.753100 0.922600
11.799800 0.895500
11.846400 0.869700
11.893100 0.856500
11.939700 0.838500
11.986400 0.826300
12.033000 0.822300
12.079700 0.841600
12.126300 0.853800
12.172900 0.844000
12.219600 0.852100
12.266200 0.862500
12.312900 0.878300
12.359500 0.889100
12.406200 0.929700
12.452800 0.986400
12.499500 1.055700
12.546100 1.129500
12.592800 1.201900
12.639400 1.343200
12.686000 1.337500
12.732700 1.380900
12.779300 1.405600
12.826000 1.429900
12.872600 1.454800
12.919300 1.475600
12.965900 1.500500
13.012600 1.510600
13.059200 1.641600
13.105800 1.638700
13.152500 1.661800
13.199100 1.606700
13.245800 1.631800
13.292400 1.648600
13.339100 1.659700
13.385700 1.683000
13.432400 1.728700
13.479000 1.794800
13.525700 1.981300
13.572300 1.886400
13.618900 1.900000
13.665600 1.938600
13.712200 1.772600
13.758900 1.773300
13.805500 1.784400
13.852200 1.805900
13.898800 1.840500
13.945500 1.893500
13.992100 2.000200
14.038700 2.141700
14.085400 2.313800
14.132000 2.422600
14.178700 2.420000
14.225300 2.398000
14.272000 2.358200
14.318600 2.402400
14.365300 2.380500
14.411900 2.208100
14.458600 2.129900
14.505200 2.178900
14.551800 2.240700
14.598500 2.348300
14.645100 2.465000
14.691800 2.338100
14.738400 2.247000
14.785100 2.151300
14.831700 2.010800
14.878400 2.001200
14.925000 2.049200
14.971600 2.163000
15.018300 2.201300
15.064900 2.295100
15.111600 2.443600
15.158200 2.413000
15.204900 2.339100
15.251500 2.312500
15.298200 2.819900
15.344800 2.839200
15.391500 3.120600
15.438100 1.987300
15.484700 2.011600
15.531400 2.479600
15.578000 2.375800
15.624700 2.483300
15.671300 2.659600
15.718000 2.811100
15.764600 2.857000
15.811300 2.604200
15.857900 2.509700
15.904600 2.423700
15.951200 2.330000
15.997800 2.282400
16.044500 2.531200
16.091100 2.390300
16.137800 2.265200
16.184400 2.234700
16.231100 2.061000
16.277700 1.994000
16.324400 1.983400
16.371000 2.089900
16.417600 1.929400
16.464300 1.851600
16.510900 1.820100
16.557600 1.826800
16.604200 2.120600
16.650900 1.636000
16.697500 1.640300
16.744200 1.704000
16.790800 1.790400
16.837500 1.919500
16.884100 2.047700
16.930700 2.090800
16.977400 2.115400
17.024000 2.421100
17.070700 2.187400
17.117300 1.910600
17.164000 1.473900
17.210600 1.334100
17.257300 1.365500
17.303900 1.371200
17.350500 1.354800
17.397200 1.394600
17.443800 1.456500
17.490500 1.562100
17.537100 1.603100
17.583800 1.662800
17.630400 1.779300
17.677100 1.836800
17.723700 1.855900
17.770400 1.787800
17.817000 1.709700
17.863600 1.607800
17.910300 1.510800
17.956900 1.485400
18.003600 1.530700
18.050200 1.596100
18.096900 1.570700
18.143500 1.471100
18.190200 1.564300
18.236800 1.804600
18.283500 1.976100
18.330100 2.087500
18.376700 1.984800
18.423400 1.916700
18.470000 1.759500
18.516700 1.560100
18.563300 1.443700
18.610000 1.344000
18.656600 1.267400
18.703300 1.196700
18.749900 1.094500
18.796500 1.046800
18.843200 1.031600
18.889800 1.024100
18.936500 1.030800
18.983100 1.041900
19.029800 1.063000
19.076400 1.085400
19.123100 1.121500
19.169700 1.165500
19.216400 1.206300
19.263000 1.225200
19.309600 1.289000
19.356300 1.272500
19.402900 1.283000
19.449600 1.211500
19.496200 1.145600
