set title 'mp-1056308 - Density of States'
set xlabel 'Energy (eV)'
set ylabel 'DOS (states/eV)'
set grid
set xrange [-10:10]
set yrange [0:0.742]
set xzeroaxis lt -1
set terminal png size 800,600
set output 'mp-1056308_dos_gnuplot.png'
plot '-' using 1:2 with lines title 'DOS'
-19.939600 0.000000
-19.872300 0.000000
-19.805100 0.000000
-19.737900 0.000000
-19.670700 0.000000
-19.603400 0.000000
-19.536200 0.000000
-19.469000 0.000000
-19.401700 0.000000
-19.334500 0.000000
-19.267300 0.000000
-19.200100 0.000000
-19.132800 0.000000
-19.065600 0.000000
-18.998400 0.000000
-18.931200 0.000000
-18.863900 0.000000
-18.796700 0.000000
-18.729500 0.000000
-18.662300 0.000000
-18.595000 0.000000
-18.527800 0.000000
-18.460600 0.000000
-18.393400 0.000000
-18.326100 0.000000
-18.258900 0.000000
-18.191700 0.000000
-18.124400 0.000000
-18.057200 0.000000
-17.990000 0.000000
-17.922800 0.000000
-17.855500 0.000000
-17.788300 0.000000
-17.721100 0.000000
-17.653900 0.000000
-17.586600 0.000000
-17.519400 0.000000
-17.452200 0.000000
-17.385000 0.000000
-17.317700 0.000000
-17.250500 0.000000
-17.183300 0.000000
-17.116100 0.000000
-17.048800 0.000000
-16.981600 0.000000
-16.914400 0.000000
-16.847200 0.000000
-16.779900 0.000000
-16.712700 0.000000
-16.645500 0.000000
-16.578200 0.000000
-16.511000 0.000000
-16.443800 0.000000
-16.376600 0.000000
-16.309300 0.000000
-16.242100 0.000000
-16.174900 0.000000
-16.107700 0.000000
-16.040400 0.000000
-15.973200 0.000000
-15.906000 0.000000
-15.838800 0.000000
-15.771500 0.000000
-15.704300 0.000000
-15.637100 0.000000
-15.569900 0.000000
-15.502600 0.000000
-15.435400 0.000000
-15.368200 0.000000
-15.300900 0.000000
-15.233700 0.000000
-15.166500 0.000000
-15.099300 0.000000
-15.032000 0.000000
-14.964800 0.000000
-14.897600 0.000000
-14.830400 0.000000
-14.763100 0.000000
-14.695900 0.000000
-14.628700 0.000000
-14.561500 0.000000
-14.494200 0.000000
-14.427000 0.000000
-14.359800 0.000000
-14.292600 0.000000
-14.225300 0.000000
-14.158100 0.000000
-14.090900 0.000000
-14.023700 0.000000
-13.956400 0.000000
-13.889200 0.000000
-13.822000 2.987700
-13.754700 62.153600
-13.687500 40.298500
-13.620300 44.070500
-13.553100 0.000000
-13.485800 0.000000
-13.418600 0.000000
-13.351400 0.000000
-13.284200 0.000000
-13.216900 0.000000
-13.149700 0.000000
-13.082500 0.000000
-13.015300 0.000000
-12.948000 0.000000
-12.880800 0.000000
-12.813600 0.000000
-12.746400 0.000000
-12.679100 0.000000
-12.611900 0.000000
-12.544700 0.000000
-12.477400 0.000000
-12.410200 0.000000
-12.343000 0.000000
-12.275800 0.000000
-12.208500 0.000000
-12.141300 0.000000
-12.074100 0.000000
-12.006900 0.000000
-11.939600 0.000000
-11.872400 0.000000
-11.805200 0.000000
-11.738000 0.000000
-11.670700 0.000000
-11.603500 0.000000
-11.536300 0.000000
-11.469100 0.000000
-11.401800 0.000000
-11.334600 0.000000
-11.267400 0.000000
-11.200200 0.000000
-11.132900 0.000000
-11.065700 0.000000
-10.998500 0.000000
-10.931200 0.000000
-10.864000 0.000000
-10.796800 0.000000
-10.729600 0.000000
-10.662300 0.000000
-10.595100 0.000000
-10.527900 0.000000
-10.460700 0.000000
-10.393400 0.000000
-10.326200 0.000000
-10.259000 0.000000
-10.191800 0.000000
-10.124500 0.000000
-10.057300 0.000000
-9.990100 0.000000
-9.922900 0.000000
-9.855600 0.000000
-9.788400 0.000000
-9.721200 0.000000
-9.653900 0.000000
-9.586700 0.000000
-9.519500 0.000000
-9.452300 0.000000
-9.385000 0.000000
-9.317800 0.000000
-9.250600 0.000000
-9.183400 0.000000
-9.116100 0.000000
-9.048900 0.000000
-8.981700 0.000000
-8.914500 0.000000
-8.847200 0.000000
-8.780000 0.000000
-8.712800 0.000000
-8.645600 0.000000
-8.578300 0.000000
-8.511100 0.000000
-8.443900 0.000000
-8.376700 0.000000
-8.309400 0.000000
-8.242200 0.000000
-8.175000 0.000000
-8.107700 0.000000
-8.040500 0.000000
-7.973300 0.000000
-7.906100 0.000000
-7.838800 0.000000
-7.771600 0.000000
-7.704400 0.000000
-7.637200 0.000000
-7.569900 0.000000
-7.502700 0.000000
-7.435500 0.000000
-7.368300 0.000000
-7.301000 0.000000
-7.233800 0.000000
-7.166600 0.000000
-7.099400 0.000000
-7.032100 0.000000
-6.964900 0.000000
-6.897700 0.000000
-6.830400 0.000000
-6.763200 0.000000
-6.696000 0.000000
-6.628800 0.000000
-6.561500 0.000000
-6.494300 0.000000
-6.427100 0.000000
-6.359900 0.000000
-6.292600 0.000000
-6.225400 0.000000
-6.158200 0.000000
-6.091000 0.000000
-6.023700 0.000000
-5.956500 0.000000
-5.889300 0.000000
-5.822100 0.000000
-5.754800 0.000000
-5.687600 0.000000
-5.620400 0.000000
-5.553200 0.000000
-5.485900 0.000000
-5.418700 0.000000
-5.351500 0.000000
-5.284200 0.000000
-5.217000 0.000000
-5.149800 0.000000
-5.082600 0.000000
-5.015300 0.000000
-4.948100 0.000000
-4.880900 0.000000
-4.813700 0.000000
-4.746400 0.000000
-4.679200 0.000000
-4.612000 0.000000
-4.544800 0.000000
-4.477500 0.000000
-4.410300 0.000000
-4.343100 0.000000
-4.275900 0.000000
-4.208600 0.000000
-4.141400 0.000000
-4.074200 0.000000
-4.006900 0.000000
-3.939700 0.000000
-3.872500 0.000000
-3.805300 0.000000
-3.738000 0.000000
-3.670800 0.000000
-3.603600 0.000000
-3.536400 0.000000
-3.469100 0.000000
-3.401900 0.000000
-3.334700 0.000000
-3.267500 0.000000
-3.200200 0.000000
-3.133000 0.000000
-3.065800 0.000000
-2.998600 0.046300
-2.931300 0.069100
-2.864100 0.080200
-2.796900 0.093000
-2.729700 0.107900
-2.662400 0.114600
-2.595200 0.123600
-2.528000 0.131500
-2.460700 0.141000
-2.393500 0.150100
-2.326300 0.155800
-2.259100 0.161200
-2.191800 0.168500
-2.124600 0.175800
-2.057400 0.182600
-1.990200 0.189000
-1.922900 0.194000
-1.855700 0.199500
-1.788500 0.205300
-1.721300 0.211000
-1.654000 0.216200
-1.586800 0.221200
-1.519600 0.227200
-1.452400 0.233000
-1.385100 0.237700
-1.317900 0.242200
-1.250700 0.246900
-1.183400 0.252200
-1.116200 0.257300
-1.049000 0.262000
-0.981800 0.266800
-0.914500 0.271700
-0.847300 0.276800
-0.780100 0.281800
-0.712900 0.286700
-0.645600 0.291600
-0.578400 0.296700
-0.511200 0.301600
-0.444000 0.306600
-0.376700 0.311300
-0.309500 0.316300
-0.242300 0.321800
-0.175100 0.327600
-0.107800 0.333500
-0.040600 0.339400
0.026600 0.345500
0.093800 0.351900
0.161100 0.358500
0.228300 0.365900
0.295500 0.374000
0.362800 0.383300
0.430000 0.393900
0.497200 0.407200
0.564400 0.423900
0.631700 0.439900
0.698900 0.448500
0.766100 0.471900
0.833300 0.458400
0.900600 0.451400
0.967800 0.449900
1.035000 0.451500
1.102200 0.449100
1.169500 0.447200
1.236700 0.448200
1.303900 0.450500
1.371100 0.452600
1.438400 0.455300
1.505600 0.461500
1.572800 0.471400
1.640100 0.481500
1.707300 0.492800
1.774500 0.499300
1.841700 0.495300
1.909000 0.502300
1.976200 0.499200
2.043400 0.509300
2.110600 0.517400
2.177900 0.505500
2.245100 0.496500
2.312300 0.491100
2.379500 0.479200
2.446800 0.466400
2.514000 0.448600
2.581200 0.423000
2.648400 0.349200
2.715700 0.245600
2.782900 0.201200
2.850100 0.166900
2.917300 0.143600
2.984600 0.136000
3.051800 0.128100
3.119000 0.116000
3.186300 0.107000
3.253500 0.095700
3.320700 0.090900
3.387900 0.112800
3.455200 0.109800
3.522400 0.112200
3.589600 0.118800
3.656800 0.133500
3.724100 0.146000
3.791300 0.157700
3.858500 0.166600
3.925700 0.181900
3.993000 0.211700
4.060200 0.239700
4.127400 0.252600
4.194600 0.263100
4.261900 0.277700
4.329100 0.301400
4.396300 0.315400
4.463600 0.342100
4.530800 0.366200
4.598000 0.382900
4.665200 0.404500
4.732500 0.429900
4.799700 0.458300
4.866900 0.505700
4.934100 0.535900
5.001400 0.557800
5.068600 0.577200
5.135800 0.598000
5.203000 0.619700
5.270300 0.644700
5.337500 0.644000
5.404700 0.644100
5.471900 0.619900
5.539200 0.597000
5.606400 0.574600
5.673600 0.552500
5.740800 0.538500
5.808100 0.524300
5.875300 0.516000
5.942500 0.515400
6.009800 0.525300
6.077000 0.533400
6.144200 0.540700
6.211400 0.547800
6.278700 0.551500
6.345900 0.549400
6.413100 0.509400
6.480300 0.489100
6.547600 0.483400
6.614800 0.484800
6.682000 0.490000
6.749200 0.514100
6.816500 0.527100
6.883700 0.534500
6.950900 0.541300
7.018100 0.555900
7.085400 0.566300
7.152600 0.583800
7.219800 0.584900
7.287100 0.575200
7.354300 0.571200
7.421500 0.570200
7.488700 0.570100
7.556000 0.563700
7.623200 0.561000
7.690400 0.559000
7.757600 0.564000
7.824900 0.563200
7.892100 0.559200
7.959300 0.561200
8.026500 0.565700
8.093800 0.566900
8.161000 0.567700
8.228200 0.570700
8.295400 0.573400
8.362700 0.575900
8.429900 0.578500
8.497100 0.578300
8.564300 0.578200
8.631600 0.587900
8.698800 0.591400
8.766000 0.590600
8.833300 0.585800
8.900500 0.586800
8.967700 0.587900
9.034900 0.589800
9.102200 0.590700
9.169400 0.597300
9.236600 0.605100
9.303800 0.609700
9.371100 0.615100
9.438300 0.626600
9.505500 0.625100
9.572700 0.629700
9.640000 0.650900
9.707200 0.645300
9.774400 0.650300
9.841600 0.658300
9.908900 0.665300
9.976100 0.674800
10.043300 0.671100
10.110600 0.670000
10.177800 0.668900
10.245000 0.669000
10.312200 0.677000
10.379500 0.675700
10.446700 0.665600
10.513900 0.666700
10.581100 0.668100
10.648400 0.667100
10.715600 0.674600
10.782800 0.684400
10.850000 0.695400
10.917300 0.706900
10.984500 0.721800
11.051700 0.742100
11.118900 0.755600
11.186200 0.772300
11.253400 0.781100
11.320600 0.809400
11.387800 0.830700
11.455100 0.817500
11.522300 0.787100
11.589500 0.783100
11.656800 0.778600
11.724000 0.775800
11.791200 0.766700
11.858400 0.768000
11.925700 0.771100
11.992900 0.780200
12.060100 0.794100
12.127300 0.805300
12.194600 0.772500
12.261800 0.749400
12.329000 0.727900
12.396200 0.709100
12.463500 0.683300
12.530700 0.671800
12.597900 0.646000
12.665100 0.627700
12.732400 0.610600
12.799600 0.596300
12.866800 0.579500
12.934100 0.565200
13.001300 0.551900
13.068500 0.538600
13.135700 0.527800
13.203000 0.511900
13.270200 0.495000
13.337400 0.484600
13.404600 0.473900
13.471900 0.462700
13.539100 0.453000
13.606300 0.449200
13.673500 0.448000
13.740800 0.445100
13.808000 0.440100
13.875200 0.437100
13.942400 0.435700
14.009700 0.440200
14.076900 0.438200
14.144100 0.433200
14.211300 0.421400
14.278600 0.411400
14.345800 0.401100
14.413000 0.395500
14.480300 0.392900
14.547500 0.387300
14.614700 0.368900
14.681900 0.372200
14.749200 0.395900
14.816400 0.402400
14.883600 0.410100
14.950800 0.408500
15.018100 0.386900
15.085300 0.379500
15.152500 0.387000
15.219700 0.403400
15.287000 0.425900
15.354200 0.452100
15.421400 0.485900
15.488600 0.538200
15.555900 0.553900
15.623100 0.580700
15.690300 0.625200
15.757600 0.654400
15.824800 0.680700
15.892000 0.734500
15.959200 0.724600
16.026500 0.703100
16.093700 0.693100
16.160900 0.692900
16.228100 0.700600
16.295400 0.700100
16.362600 0.706700
16.429800 0.733100
16.497000 0.757000
16.564300 0.800900
16.631500 0.841800
16.698700 0.852100
16.765900 0.844000
16.833200 0.847200
16.900400 0.864200
16.967600 0.888200
17.034800 0.906600
17.102100 0.921000
17.169300 0.931900
17.236500 0.943500
17.303800 0.937300
17.371000 0.919900
17.438200 0.894300
17.505400 0.871300
17.572700 0.847700
17.639900 0.827000
17.707100 0.829500
17.774300 0.822500
17.841600 0.817100
17.908800 0.812900
17.976000 0.798600
18.043200 0.751000
18.110500 0.729100
18.177700 0.735000
18.244900 0.752400
18.312100 0.752300
18.379400 0.778500
18.446600 0.840700
18.513800 0.889500
18.581100 0.799100
18.648300 0.789600
18.715500 0.782100
18.782700 0.780500
18.850000 0.781900
18.917200 0.802700
18.984400 0.838000
19.051600 0.895800
19.118900 0.948600
19.186100 0.948300
19.253300 0.947200
19.320500 0.952100
19.387800 0.964700
19.455000 0.949300
19.522200 0.923900
19.589400 0.899200
19.656700 0.902200
19.723900 0.912700
19.791100 0.917700
19.858300 0.924700
19.925600 0.932800
19.992800 0.936400
20.060000 0.936400
20.127300 0.931800
20.194500 0.933100
20.261700 0.940300
20.328900 0.939300
20.396200 0.931500
20.463400 0.931800
20.530600 0.943500
20.597800 0.936300
20.665100 0.939700
20.732300 0.936200
20.799500 0.935200
20.866700 0.930200
20.934000 0.917400
21.001200 0.904000
21.068400 0.888200
21.135600 0.875900
21.202900 0.857400
21.270100 0.860600
21.337300 0.877000
21.404600 0.889700
21.471800 0.891900
21.539000 0.881800
21.606200 0.865900
21.673500 0.864700
21.740700 0.867400
21.807900 0.876100
21.875100 0.864400
21.942400 0.850200
22.009600 0.846600
22.076800 0.843400
22.144000 0.848400
22.211300 0.872400
22.278500 0.878200
22.345700 0.882000
22.412900 0.889100
22.480200 0.903400
22.547400 0.936300
22.614600 0.961500
22.681800 0.971900
22.749100 0.981200
22.816300 0.990600
22.883500 1.001600
22.950800 1.028000
23.018000 1.047600
23.085200 1.063300
23.152400 1.071400
23.219700 1.064000
23.286900 1.054900
23.354100 1.045300
23.421300 1.021100
23.488600 0.989800
23.555800 0.959700
23.623000 0.944000
23.690200 0.929000
23.757500 0.914200
23.824700 0.904900
23.891900 0.896600
23.959100 0.889500
24.026400 0.889500
24.093600 0.884300
24.160800 0.874800
24.228100 0.882100
24.295300 0.910200
24.362500 0.935400
24.429700 0.968200
24.497000 0.989400
24.564200 0.971200
24.631400 0.986000
24.698600 0.985000
24.765900 0.957600
24.833100 0.943500
24.900300 0.943600
24.967500 0.964300
25.034800 0.992000
25.102000 1.032000
25.169200 1.072200
25.236400 1.107000
25.303700 1.134800
25.370900 1.120000
25.438100 1.116600
25.505300 1.115700
25.572600 1.107300
25.639800 1.107700
25.707000 1.116900
25.774300 1.125400
25.841500 1.127200
25.908700 1.131400
25.975900 1.141400
26.043200 1.158300
26.110400 1.154400
26.177600 1.173200
26.244800 1.191800
26.312100 1.185900
26.379300 1.177500
26.446500 1.174400
26.513700 1.168500
26.581000 1.162600
26.648200 1.158600
26.715400 1.160900
26.782600 1.161200
26.849900 1.167500
26.917100 1.161800
26.984300 1.171100
27.051600 1.193200
27.118800 1.193600
27.186000 1.196500
27.253200 1.206300
27.320500 1.223100
27.387700 1.239600
27.454900 1.268900
27.522100 1.282200
27.589400 1.282600
27.656600 1.275600
27.723800 1.272700
27.791000 1.273200
27.858300 1.281500
27.925500 1.288500
27.992700 1.260700
28.059900 1.247800
28.127200 1.233800
28.194400 1.232200
28.261600 1.231200
28.328800 1.256400
28.396100 1.292200
28.463300 1.331000
28.530500 1.368000
28.597800 1.392200
28.665000 1.404700
28.732200 1.431800
28.799400 1.425900
28.866700 1.426400
28.933900 1.409500
29.001100 1.382300
29.068300 1.344200
29.135600 1.304400
29.202800 1.259400
29.270000 1.210200
29.337200 1.181400
29.404500 1.165600
29.471700 1.127500
29.538900 1.111100
29.606100 1.086400
29.673400 1.075100
29.740600 1.070900
29.807800 1.073300
29.875100 1.068800
29.942300 1.066900
30.009500 1.069600
30.076700 1.066400
30.144000 1.072400
30.211200 1.072700
30.278400 1.065600
30.345600 1.052300
30.412900 1.050300
30.480100 1.049400
30.547300 1.047700
30.614500 1.049100
30.681800 1.048100
30.749000 1.042500
30.816200 1.030900
30.883400 1.033400
30.950700 1.037800
31.017900 1.035600
31.085100 1.042800
31.152300 1.037600
31.219600 1.038500
31.286800 1.038100
31.354000 1.063700
31.421300 1.106900
31.488500 1.122000
31.555700 1.137100
31.622900 1.147300
31.690200 1.153100
31.757400 1.157100
31.824600 1.157700
31.891800 1.187300
31.959100 1.219600
32.026300 1.210000
32.093500 1.220700
32.160700 1.226800
32.228000 1.234500
32.295200 1.241000
32.362400 1.237900
32.429600 1.237500
32.496900 1.225800
32.564100 1.225400
32.631300 1.207500
32.698500 1.216500
32.765800 1.211900
32.833000 1.200700
32.900200 1.208600
32.967500 1.221600
33.034700 1.231000
33.101900 1.255100
33.169100 1.281100
33.236400 1.303000
33.303600 1.327600
33.370800 1.345800
33.438000 1.329400
33.505300 1.303200
33.572500 1.276200
33.639700 1.260000
33.706900 1.259100
33.774200 1.253700
33.841400 1.243200
33.908600 1.225500
33.975800 1.222200
34.043100 1.233400
34.110300 1.249700
34.177500 1.285300
34.244800 1.310000
34.312000 1.321400
34.379200 1.373500
34.446400 1.328700
34.513700 1.313000
34.580900 1.313100
34.648100 1.376400
34.715300 1.456400
34.782600 1.552700
34.849800 1.467900
34.917000 1.467700
34.984200 1.458300
35.051500 1.490600
35.118700 1.510500
35.185900 1.503900
35.253100 1.460200
35.320400 1.407000
35.387600 1.351500
35.454800 1.326300
35.522000 1.311400
35.589300 1.311900
35.656500 1.351300
35.723700 1.468200
35.791000 1.508500
35.858200 1.404800
35.925400 1.388700
35.992600 1.456400
36.059900 1.540200
36.127100 1.611700
36.194300 1.558900
36.261500 1.498300
36.328800 1.474800
36.396000 1.470800
36.463200 1.443400
36.530400 1.376100
36.597700 1.324300
36.664900 1.287900
36.732100 1.228500
36.799300 1.157600
36.866600 1.122400
36.933800 1.094600
37.001000 1.095700
37.068300 1.100300
37.135500 1.125600
37.202700 1.161900
37.269900 1.191800
37.337200 1.253900
37.404400 1.248000
37.471600 1.234800
37.538800 1.244100
37.606100 1.261600
37.673300 1.298500
37.740500 1.328800
37.807700 1.336200
37.875000 1.308200
37.942200 1.282700
38.009400 1.235000
38.076600 1.186500
38.143900 1.180600
38.211100 1.177400
38.278300 1.162400
38.345500 1.147100
38.412800 1.074100
38.480000 0.965400
38.547200 0.927300
38.614500 0.902800
38.681700 0.910400
38.748900 0.944300
38.816100 1.007400
38.883400 1.082500
38.950600 1.149300
39.017800 1.177600
39.085000 1.196800
39.152300 1.178600
39.219500 1.183800
39.286700 1.208000
39.353900 1.227200
39.421200 1.234400
39.488400 1.210000
39.555600 1.159500
39.622800 1.156500
39.690100 1.167000
39.757300 1.183700
39.824500 1.215200
39.891800 1.224000
39.959000 1.191200
40.026200 1.198100
40.093400 1.256700
40.160700 1.284900
40.227900 1.305800
40.295100 1.342100
40.362300 1.386300
40.429600 1.415900
40.496800 1.415000
40.564000 1.402600
40.631200 1.393900
40.698500 1.387200
40.765700 1.383100
40.832900 1.376200
40.900100 1.364200
40.967400 1.360000
41.034600 1.394300
41.101800 1.441400
41.169000 1.470200
41.236300 1.425900
41.303500 1.426700
41.370700 1.415800
41.438000 1.419700
41.505200 1.432900
41.572400 1.388400
41.639600 1.352300
41.706900 1.334200
41.774100 1.311300
41.841300 1.305000
41.908500 1.323500
41.975800 1.269700
42.043000 1.279300
42.110200 1.270100
42.177400 1.284300
42.244700 1.301200
42.311900 1.291500
42.379100 1.250900
42.446300 1.220100
42.513600 1.234700
42.580800 1.276900
42.648000 1.300000
42.715300 1.340100
42.782500 1.392500
42.849700 1.465100
42.916900 1.482200
42.984200 1.517700
43.051400 1.545200
43.118600 1.590300
43.185800 1.575400
43.253100 1.533000
43.320300 1.486600
43.387500 1.404300
43.454700 1.357400
43.522000 1.353500
43.589200 1.379400
43.656400 1.436900
43.723600 1.530900
43.790900 1.579500
43.858100 1.621100
43.925300 1.558300
43.992500 1.518500
44.059800 1.490700
44.127000 1.477000
44.194200 1.475400
44.261500 1.480900
44.328700 1.507000
44.395900 1.481800
44.463100 1.426100
44.530400 1.373900
44.597600 1.357200
44.664800 1.376500
44.732000 1.377100
44.799300 1.401300
44.866500 1.357400
44.933700 1.308000
45.000900 1.265100
45.068200 1.242200
45.135400 1.221900
45.202600 1.200600
45.269800 1.191700
45.337100 1.188100
45.404300 1.203000
45.471500 1.273500
45.538800 1.319600
45.606000 1.359700
45.673200 1.405000
45.740400 1.375900
45.807700 1.348400
45.874900 1.340900
45.942100 1.325900
46.009300 1.323300
46.076600 1.344200
46.143800 1.373300
46.211000 1.439000
46.278200 1.498600
46.345500 1.572500
46.412700 1.589200
46.479900 1.601200
46.547100 1.636600
46.614400 1.672000
46.681600 1.607300
46.748800 1.537100
46.816000 1.486400
46.883300 1.484300
46.950500 1.493600
47.017700 1.498200
47.085000 1.529000
47.152200 1.574000
47.219400 1.500100
47.286600 1.445500
47.353900 1.401700
47.421100 1.379200
47.488300 1.339700
47.555500 1.329100
47.622800 1.333000
47.690000 1.352500
47.757200 1.395400
47.824400 1.437500
47.891700 1.440400
47.958900 1.467500
48.026100 1.466300
48.093300 1.449400
48.160600 1.439300
48.227800 1.445200
48.295000 1.488400
48.362300 1.461400
48.429500 1.463400
48.496700 1.467800
48.563900 1.479500
48.631200 1.483500
48.698400 1.484300
48.765600 1.497300
48.832800 1.429100
48.900100 1.401100
48.967300 1.386700
49.034500 1.399900
49.101700 1.433500
49.169000 1.483500
49.236200 1.537600
49.303400 1.532300
49.370600 1.497600
49.437900 1.499000
49.505100 1.498600
49.572300 1.489300
49.639500 1.495400
49.706800 1.479600
