set title 'mp-974330 - Density of States'
set xlabel 'Energy (eV)'
set ylabel 'DOS (states/eV)'
set grid
set xrange [-10:10]
set yrange [0:10.427]
set xzeroaxis lt -1
set terminal png size 800,600
set output 'mp-974330_dos_gnuplot.png'
plot '-' using 1:2 with lines title 'DOS'
-17.741300 0.000000
-17.719400 0.000000
-17.697400 0.000000
-17.675500 0.000000
-17.653500 0.000000
-17.631500 0.000000
-17.609600 0.000000
-17.587600 0.000000
-17.565700 0.000000
-17.543700 0.000000
-17.521800 0.000000
-17.499800 0.000000
-17.477900 0.000000
-17.455900 0.000000
-17.434000 0.000000
-17.412000 0.000000
-17.390000 0.000000
-17.368100 0.000000
-17.346100 0.000000
-17.324200 0.000000
-17.302200 0.000000
-17.280300 0.000000
-17.258300 0.000000
-17.236400 0.000000
-17.214400 0.000000
-17.192400 0.000000
-17.170500 0.000000
-17.148500 0.000000
-17.126600 0.000000
-17.104600 0.000000
-17.082700 0.000000
-17.060700 0.000000
-17.038800 0.000000
-17.016800 0.000000
-16.994900 0.000000
-16.972900 0.000000
-16.950900 0.000000
-16.929000 0.000000
-16.907000 0.000000
-16.885100 0.000000
-16.863100 0.000000
-16.841200 0.000000
-16.819200 0.000000
-16.797300 0.000000
-16.775300 0.000000
-16.753300 0.000000
-16.731400 0.000000
-16.709400 0.000000
-16.687500 0.000000
-16.665500 0.000000
-16.643600 0.000000
-16.621600 0.000000
-16.599700 0.000000
-16.577700 0.000000
-16.555800 0.000000
-16.533800 0.000000
-16.511800 0.000000
-16.489900 0.000000
-16.467900 0.000000
-16.446000 0.000000
-16.424000 0.000000
-16.402100 0.000000
-16.380100 0.000000
-16.358200 0.000000
-16.336200 0.000000
-16.314200 0.000000
-16.292300 0.000000
-16.270300 0.000000
-16.248400 0.000000
-16.226400 0.000000
-16.204500 0.000000
-16.182500 0.000000
-16.160600 0.000000
-16.138600 0.000000
-16.116700 0.000000
-16.094700 0.000000
-16.072700 0.000000
-16.050800 0.000000
-16.028800 0.000000
-16.006900 0.000000
-15.984900 0.000000
-15.963000 0.000000
-15.941000 0.000000
-15.919100 0.000000
-15.897100 0.000000
-15.875100 0.000100
-15.853200 0.000900
-15.831200 0.005600
-15.809300 0.024800
-15.787300 0.076000
-15.765400 0.168600
-15.743400 0.294800
-15.721500 0.465700
-15.699500 0.710000
-15.677600 0.967900
-15.655600 1.112000
-15.633600 1.139000
-15.611700 1.114000
-15.589700 0.974600
-15.567800 0.676800
-15.545800 0.380500
-15.523900 0.295400
-15.501900 0.490300
-15.480000 0.868100
-15.458000 1.272000
-15.436100 1.647400
-15.414100 1.946200
-15.392100 1.924500
-15.370200 1.437400
-15.348200 0.766100
-15.326300 0.287400
-15.304300 0.093000
-15.282400 0.102800
-15.260400 0.278200
-15.238500 0.589400
-15.216500 0.884600
-15.194500 0.994900
-15.172600 0.992500
-15.150600 1.107600
-15.128700 1.412500
-15.106700 1.799500
-15.084800 2.068300
-15.062800 1.945700
-15.040900 1.377200
-15.018900 0.704300
-14.997000 0.295600
-14.975000 0.270800
-14.953000 0.627600
-14.931100 1.246700
-14.909100 1.729700
-14.887200 1.653400
-14.865200 1.088100
-14.843300 0.492800
-14.821300 0.153900
-14.799400 0.036000
-14.777400 0.026000
-14.755400 0.102000
-14.733500 0.352200
-14.711500 0.915000
-14.689600 1.851600
-14.667600 2.994000
-14.645700 3.871800
-14.623700 3.974300
-14.601800 3.315400
-14.579800 2.493100
-14.557900 2.063300
-14.535900 2.163400
-14.513900 2.582900
-14.492000 2.937800
-14.470000 3.008800
-14.448100 2.842300
-14.426100 2.432500
-14.404200 1.760000
-14.382200 1.155100
-14.360300 1.153700
-14.338300 1.953800
-14.316300 3.109400
-14.294400 3.860000
-14.272400 3.864200
-14.250500 3.328900
-14.228500 2.563200
-14.206600 1.970600
-14.184600 2.121500
-14.162700 3.192500
-14.140700 4.588200
-14.118800 5.569100
-14.096800 6.016500
-14.074800 6.214800
-14.052900 6.289900
-14.030900 6.236500
-14.009000 6.047800
-13.987000 5.660700
-13.965100 5.168400
-13.943100 4.849800
-13.921200 4.754800
-13.899200 4.722100
-13.877200 4.718800
-13.855300 4.698400
-13.833300 4.423100
-13.811400 3.764100
-13.789400 2.881300
-13.767500 2.002400
-13.745500 1.307900
-13.723600 0.954100
-13.701600 0.930000
-13.679700 0.987100
-13.657700 0.967600
-13.635700 1.136300
-13.613800 1.948800
-13.591800 3.469900
-13.569900 5.040300
-13.547900 5.578700
-13.526000 4.560700
-13.504000 2.687400
-13.482100 1.120700
-13.460100 0.326800
-13.438100 0.066300
-13.416200 0.011000
-13.394200 0.013300
-13.372300 0.061400
-13.350300 0.209300
-13.328400 0.490900
-13.306400 0.792500
-13.284500 0.880600
-13.262500 0.673600
-13.240600 0.354900
-13.218600 0.131000
-13.196600 0.051000
-13.174700 0.105000
-13.152700 0.358900
-13.130800 0.887700
-13.108800 1.515200
-13.086900 1.793600
-13.064900 1.532900
-13.043000 1.166000
-13.021000 1.266200
-12.999000 1.854700
-12.977100 2.371700
-12.955100 2.296200
-12.933200 1.661500
-12.911200 0.899800
-12.889300 0.361800
-12.867300 0.106500
-12.845400 0.025100
-12.823400 0.021600
-12.801500 0.083700
-12.779500 0.261400
-12.757500 0.564100
-12.735600 0.837900
-12.713600 0.856800
-12.691700 0.603100
-12.669700 0.292200
-12.647800 0.097500
-12.625800 0.024000
-12.603900 0.017100
-12.581900 0.076300
-12.559900 0.292600
-12.538000 0.776800
-12.516000 1.427300
-12.494100 1.843200
-12.472100 1.762800
-12.450200 1.433600
-12.428200 1.186600
-12.406300 0.977100
-12.384300 0.663800
-12.362400 0.329500
-12.340400 0.114400
-12.318400 0.027500
-12.296500 0.005100
-12.274500 0.005200
-12.252600 0.028000
-12.230600 0.115900
-12.208700 0.330300
-12.186700 0.647500
-12.164800 0.875300
-12.142800 0.824900
-12.120800 0.585000
-12.098900 0.449900
-12.076900 0.578300
-12.055000 0.819500
-12.033000 0.878400
-12.011100 0.658800
-11.989100 0.350800
-11.967200 0.164700
-11.945200 0.140100
-11.923300 0.193900
-11.901300 0.222500
-11.879300 0.179400
-11.857400 0.099800
-11.835400 0.038200
-11.813500 0.010100
-11.791500 0.001800
-11.769600 0.000200
-11.747600 0.000000
-11.725700 0.000000
-11.703700 0.000000
-11.681700 0.000000
-11.659800 0.000000
-11.637800 0.000000
-11.615900 0.000000
-11.593900 0.000000
-11.572000 0.000000
-11.550000 0.000000
-11.528100 0.000000
-11.506100 0.000000
-11.484200 0.000000
-11.462200 0.000000
-11.440200 0.000000
-11.418300 0.000000
-11.396300 0.000000
-11.374400 0.000000
-11.352400 0.000000
-11.330500 0.000000
-11.308500 0.000000
-11.286600 0.000000
-11.264600 0.000000
-11.242600 0.000000
-11.220700 0.000000
-11.198700 0.000000
-11.176800 0.000000
-11.154800 0.000000
-11.132900 0.000000
-11.110900 0.000000
-11.089000 0.000000
-11.067000 0.000000
-11.045100 0.000000
-11.023100 0.000500
-11.001100 0.003700
-10.979200 0.020900
-10.957200 0.083900
-10.935300 0.242100
-10.913300 0.520100
-10.891400 0.859600
-10.869400 1.114000
-10.847500 1.131700
-10.825500 0.942700
-10.803500 0.875300
-10.781600 1.332200
-10.759600 2.324300
-10.737700 3.251600
-10.715700 3.418800
-10.693800 2.886700
-10.671800 2.371400
-10.649900 2.219700
-10.627900 2.163700
-10.606000 2.099800
-10.584000 2.262300
-10.562000 2.587200
-10.540100 2.681900
-10.518100 2.513400
-10.496200 2.550600
-10.474200 3.121400
-10.452300 4.072200
-10.430300 4.980600
-10.408400 5.313800
-10.386400 4.666400
-10.364400 3.208200
-10.342500 1.661100
-10.320500 0.630200
-10.298600 0.175400
-10.276600 0.056900
-10.254700 0.106400
-10.232700 0.302000
-10.210800 0.614400
-10.188800 0.861600
-10.166900 0.831800
-10.144900 0.554500
-10.122900 0.267700
-10.101000 0.162000
-10.079000 0.329900
-10.057100 0.823400
-10.035100 1.509400
-10.013200 1.996700
-9.991200 2.012300
-9.969300 1.681300
-9.947300 1.228300
-9.925300 0.754600
-9.903400 0.357900
-9.881400 0.123000
-9.859500 0.030200
-9.837500 0.009200
-9.815600 0.026300
-9.793600 0.108800
-9.771700 0.315800
-9.749700 0.631500
-9.727800 0.872300
-9.705800 0.848700
-9.683800 0.648200
-9.661900 0.563800
-9.639900 0.714100
-9.618000 0.886800
-9.596000 0.819500
-9.574100 0.533500
-9.552100 0.262400
-9.530200 0.153300
-9.508200 0.176200
-9.486200 0.220300
-9.464300 0.203500
-9.442300 0.130400
-9.420400 0.057500
-9.398400 0.017500
-9.376500 0.003600
-9.354500 0.000500
-9.332600 0.000100
-9.310600 0.000000
-9.288700 0.000000
-9.266700 0.000000
-9.244700 0.000000
-9.222800 0.000000
-9.200800 0.000000
-9.178900 0.000000
-9.156900 0.000000
-9.135000 0.000000
-9.113000 0.000000
-9.091100 0.000000
-9.069100 0.000000
-9.047100 0.000000
-9.025200 0.000000
-9.003200 0.000000
-8.981300 0.000000
-8.959300 0.000000
-8.937400 0.000000
-8.915400 0.000000
-8.893500 0.000000
-8.871500 0.000000
-8.849600 0.000000
-8.827600 0.000000
-8.805600 0.000000
-8.783700 0.000000
-8.761700 0.000000
-8.739800 0.000000
-8.717800 0.000000
-8.695900 0.000000
-8.673900 0.000000
-8.652000 0.000000
-8.630000 0.000000
-8.608100 0.000000
-8.586100 0.000000
-8.564100 0.000000
-8.542200 0.000000
-8.520200 0.000000
-8.498300 0.000000
-8.476300 0.000000
-8.454400 0.000000
-8.432400 0.000000
-8.410500 0.000000
-8.388500 0.000000
-8.366500 0.000000
-8.344600 0.000000
-8.322600 0.000000
-8.300700 0.000000
-8.278700 0.000000
-8.256800 0.000000
-8.234800 0.000000
-8.212900 0.000000
-8.190900 0.000000
-8.169000 0.000000
-8.147000 0.000000
-8.125000 0.000000
-8.103100 0.000000
-8.081100 0.000000
-8.059200 0.000000
-8.037200 0.000000
-8.015300 0.000000
-7.993300 0.000000
-7.971400 0.000000
-7.949400 0.000000
-7.927400 0.000000
-7.905500 0.000000
-7.883500 0.000000
-7.861600 0.000000
-7.839600 0.000000
-7.817700 0.000000
-7.795700 0.000000
-7.773800 0.000000
-7.751800 0.000000
-7.729900 0.000000
-7.707900 0.000000
-7.685900 0.000000
-7.664000 0.000000
-7.642000 0.000000
-7.620100 0.000000
-7.598100 0.000000
-7.576200 0.000000
-7.554200 0.000000
-7.532300 0.000000
-7.510300 0.000000
-7.488300 0.000000
-7.466400 0.000000
-7.444400 0.000000
-7.422500 0.000000
-7.400500 0.000000
-7.378600 0.000000
-7.356600 0.000000
-7.334700 0.000000
-7.312700 0.000000
-7.290800 0.000000
-7.268800 0.000000
-7.246800 0.000000
-7.224900 0.000000
-7.202900 0.000000
-7.181000 0.000000
-7.159000 0.000000
-7.137100 0.000000
-7.115100 0.000000
-7.093200 0.000000
-7.071200 0.000000
-7.049200 0.000000
-7.027300 0.000000
-7.005300 0.000000
-6.983400 0.000000
-6.961400 0.000000
-6.939500 0.000000
-6.917500 0.000000
-6.895600 0.000000
-6.873600 0.000000
-6.851700 0.000000
-6.829700 0.000000
-6.807700 0.000000
-6.785800 0.000000
-6.763800 0.000000
-6.741900 0.000000
-6.719900 0.000000
-6.698000 0.000000
-6.676000 0.000000
-6.654100 0.000000
-6.632100 0.000000
-6.610100 0.000000
-6.588200 0.000000
-6.566200 0.000000
-6.544300 0.000000
-6.522300 0.000000
-6.500400 0.000000
-6.478400 0.000000
-6.456500 0.000000
-6.434500 0.000000
-6.412600 0.000000
-6.390600 0.000000
-6.368600 0.000000
-6.346700 0.000000
-6.324700 0.000000
-6.302800 0.000000
-6.280800 0.000000
-6.258900 0.000000
-6.236900 0.000000
-6.215000 0.000000
-6.193000 0.000000
-6.171000 0.000000
-6.149100 0.000000
-6.127100 0.000000
-6.105200 0.000000
-6.083200 0.000000
-6.061300 0.000000
-6.039300 0.000000
-6.017400 0.000000
-5.995400 0.000000
-5.973500 0.000000
-5.951500 0.000000
-5.929500 0.000000
-5.907600 0.000000
-5.885600 0.000000
-5.863700 0.000000
-5.841700 0.000000
-5.819800 0.000000
-5.797800 0.000000
-5.775900 0.000000
-5.753900 0.000000
-5.731900 0.000000
-5.710000 0.000000
-5.688000 0.000100
-5.666100 0.000900
-5.644100 0.006200
-5.622200 0.030600
-5.600200 0.104400
-5.578300 0.245000
-5.556300 0.396000
-5.534400 0.442600
-5.512400 0.353700
-5.490400 0.255800
-5.468500 0.320400
-5.446500 0.615800
-5.424600 1.059500
-5.402600 1.521800
-5.380700 1.912900
-5.358700 2.053400
-5.336800 1.729900
-5.314800 1.066400
-5.292800 0.463900
-5.270900 0.140200
-5.248900 0.029600
-5.227000 0.008300
-5.205000 0.029100
-5.183100 0.138300
-5.161100 0.461800
-5.139200 1.074700
-5.117200 1.774200
-5.095300 2.149200
-5.073300 2.018300
-5.051300 1.557300
-5.029400 1.022000
-5.007400 0.634400
-4.985500 0.557900
-4.963500 0.740600
-4.941600 0.895400
-4.919600 0.798200
-4.897700 0.568100
-4.875700 0.544000
-4.853700 0.924300
-4.831800 1.506800
-4.809800 1.777300
-4.787900 1.454200
-4.765900 0.837000
-4.744000 0.421700
-4.722000 0.469800
-4.700100 1.001800
-4.678100 1.763100
-4.656200 2.196900
-4.634200 1.946600
-4.612200 1.369200
-4.590300 1.155000
-4.568300 1.543300
-4.546400 2.170100
-4.524400 2.645100
-4.502500 3.010600
-4.480500 3.357600
-4.458600 3.340200
-4.436600 2.622900
-4.414600 1.513700
-4.392700 0.621300
-4.370700 0.180100
-4.348800 0.049100
-4.326800 0.086000
-4.304900 0.343700
-4.282900 1.030200
-4.261000 2.217800
-4.239000 3.472600
-4.217100 4.036700
-4.195100 3.638600
-4.173100 2.854100
-4.151200 2.394000
-4.129200 2.319200
-4.107300 2.301500
-4.085300 2.275100
-4.063400 2.312800
-4.041400 2.372900
-4.019500 2.601300
-3.997500 3.229600
-3.975500 3.954400
-3.953600 4.069100
-3.931600 3.369100
-3.909700 2.416800
-3.887700 1.791500
-3.865800 1.594700
-3.843800 1.742400
-3.821900 2.145900
-3.799900 2.573000
-3.778000 2.786900
-3.756000 2.758200
-3.734000 2.530700
-3.712100 2.128500
-3.690100 1.641100
-3.668200 1.249600
-3.646200 1.195100
-3.624300 1.540300
-3.602300 1.956700
-3.580400 2.122100
-3.558400 2.187600
-3.536400 2.384100
-3.514500 2.528900
-3.492500 2.381300
-3.470600 2.033900
-3.448600 1.686300
-3.426700 1.451800
-3.404700 1.513400
-3.382800 2.030500
-3.360800 2.735800
-3.338900 3.144100
-3.316900 3.289900
-3.294900 3.611800
-3.273000 4.158000
-3.251000 4.552100
-3.229100 4.479600
-3.207100 3.865200
-3.185200 2.939400
-3.163200 2.216900
-3.141300 2.106500
-3.119300 2.451200
-3.097300 2.711400
-3.075400 2.693400
-3.053400 2.678900
-3.031500 2.812800
-3.009500 2.918900
-2.987600 2.907800
-2.965600 2.972000
-2.943700 3.377300
-2.921700 4.113900
-2.899800 4.668500
-2.877800 4.395500
-2.855800 3.284700
-2.833900 1.998700
-2.811900 1.136700
-2.790000 0.852400
-2.768000 1.070900
-2.746100 1.729200
-2.724100 2.685600
-2.702200 3.531700
-2.680200 3.889600
-2.658200 3.855200
-2.636300 3.726900
-2.614300 3.550900
-2.592400 3.294200
-2.570400 3.030500
-2.548500 2.754100
-2.526500 2.399600
-2.504600 2.105300
-2.482600 2.221000
-2.460700 2.932400
-2.438700 3.918000
-2.416700 4.515500
-2.394800 4.385600
-2.372800 3.922800
-2.350900 3.753700
-2.328900 3.962600
-2.307000 4.109600
-2.285000 3.872200
-2.263100 3.353800
-2.241100 2.776800
-2.219200 2.227300
-2.197200 1.816700
-2.175200 1.750600
-2.153300 2.144700
-2.131300 2.885100
-2.109400 3.621100
-2.087400 3.972100
-2.065500 3.853900
-2.043500 3.529400
-2.021600 3.311900
-1.999600 3.335500
-1.977600 3.639400
-1.955700 4.222100
-1.933700 4.848900
-1.911800 5.082900
-1.889800 4.803300
-1.867900 4.432000
-1.845900 4.322700
-1.824000 4.286700
-1.802000 3.983800
-1.780100 3.503400
-1.758100 3.363800
-1.736100 3.845100
-1.714200 4.471000
-1.692200 4.515100
-1.670300 3.955500
-1.648300 3.481100
-1.626400 3.595200
-1.604400 4.198700
-1.582500 4.921400
-1.560500 5.433100
-1.538500 5.563800
-1.516600 5.341800
-1.494600 4.923700
-1.472700 4.520100
-1.450700 4.376200
-1.428800 4.665600
-1.406800 5.249100
-1.384900 5.658800
-1.362900 5.550100
-1.341000 5.110300
-1.319000 4.783000
-1.297000 4.666600
-1.275100 4.580700
-1.253100 4.587100
-1.231200 4.849300
-1.209200 5.192000
-1.187300 5.387800
-1.165300 5.620500
-1.143400 6.165300
-1.121400 6.824500
-1.099400 7.140900
-1.077500 6.937600
-1.055500 6.338000
-1.033600 5.550900
-1.011600 4.687700
-0.989700 3.712500
-0.967700 2.756700
-0.945800 2.319300
-0.923800 2.907700
-0.901900 4.376000
-0.879900 5.677700
-0.857900 5.745300
-0.836000 4.704300
-0.814000 3.616900
-0.792100 3.055600
-0.770100 2.645800
-0.748200 1.990200
-0.726200 1.321100
-0.704300 1.052400
-0.682300 1.185000
-0.660300 1.392000
-0.638400 1.400800
-0.616400 1.142300
-0.594500 0.726200
-0.572500 0.357300
-0.550600 0.194700
-0.528600 0.315600
-0.506700 0.753200
-0.484700 1.385400
-0.462800 1.877100
-0.440800 2.033600
-0.418800 2.092900
-0.396900 2.310900
-0.374900 2.504500
-0.353000 2.415600
-0.331000 2.257800
-0.309100 2.436000
-0.287100 2.795000
-0.265200 2.684300
-0.243200 1.909100
-0.221200 1.029300
-0.199300 0.607900
-0.177300 0.682600
-0.155400 0.946900
-0.133400 1.187100
-0.111500 1.547300
-0.089500 2.268900
-0.067600 3.266900
-0.045600 4.270600
-0.023700 5.087100
-0.001700 5.460700
0.020300 5.205200
0.042200 4.546200
0.064200 3.901500
0.086100 3.541800
0.108100 3.663900
0.130000 4.369800
0.152000 5.333500
0.173900 6.032700
0.195900 6.516300
0.217900 7.289300
0.239800 8.467700
0.261800 9.478800
0.283700 9.466000
0.305700 8.079700
0.327600 5.951400
0.349600 4.118000
0.371500 3.052800
0.393500 2.464600
0.415400 1.906600
0.437400 1.366800
0.459400 1.203400
0.481300 1.606900
0.503300 2.314800
0.525200 2.963200
0.547200 3.547600
0.569100 4.197600
0.591100 4.646800
0.613000 4.400400
0.635000 3.438100
0.657000 2.351600
0.678900 1.651800
0.700900 1.333900
0.722800 1.196000
0.744800 1.094900
0.766700 0.912000
0.788700 0.667600
0.810600 0.609600
0.832600 1.007200
0.854500 1.841500
0.876500 2.711400
0.898500 3.141200
0.920400 3.019100
0.942400 2.706200
0.964300 2.722700
0.986300 3.263700
1.008200 4.013900
1.030200 4.467600
1.052100 4.362800
1.074100 3.842200
1.096100 3.362100
1.118000 3.273900
1.140000 3.416600
1.161900 3.447200
1.183900 3.285900
1.205800 2.919600
1.227800 2.279400
1.249700 1.477600
1.271700 0.804500
1.293600 0.474700
1.315600 0.527200
1.337600 0.939100
1.359500 1.655500
1.381500 2.484100
1.403400 3.198300
1.425400 3.675000
1.447300 3.711000
1.469300 3.078200
1.491200 1.966200
1.513200 0.927900
1.535200 0.315600
1.557100 0.076100
1.579100 0.012900
1.601000 0.001500
1.623000 0.000100
1.644900 0.000200
1.666900 0.002000
1.688800 0.014300
1.710800 0.069200
1.732700 0.231600
1.754700 0.545700
1.776700 0.945200
1.798600 1.341800
1.820600 1.866800
1.842500 2.777600
1.864500 3.994400
1.886400 4.932600
1.908400 4.946200
1.930300 3.976200
1.952300 2.675300
1.974300 1.731300
1.996200 1.223100
2.018200 0.869000
2.040100 0.630300
2.062100 0.769300
2.084000 1.463700
2.106000 2.475300
2.127900 3.203900
2.149900 3.246100
2.171800 2.910300
2.193800 2.894800
2.215800 3.363900
2.237700 3.713600
2.259700 3.402900
2.281600 2.603600
2.303600 1.836100
2.325500 1.313300
2.347500 0.959200
2.369400 0.818700
2.391400 1.034100
2.413400 1.549400
2.435300 2.075300
2.457300 2.248200
2.479200 1.873500
2.501200 1.182700
2.523100 0.700900
2.545100 0.833700
2.567000 1.638400
2.589000 2.722400
2.610900 3.398000
2.632900 3.289900
2.654900 2.630900
2.676800 1.820700
2.698800 1.075400
2.720700 0.518000
2.742700 0.250600
2.764600 0.364300
2.786600 1.001300
2.808500 2.157800
2.830500 3.279200
2.852500 3.551600
2.874400 2.928800
2.896400 2.247800
2.918300 2.106000
2.940300 2.309900
2.962200 2.450300
2.984200 2.400500
3.006100 2.209900
3.028100 1.939400
3.050000 1.792800
3.072000 2.123700
3.094000 2.958000
3.115900 3.705600
3.137900 3.719900
3.159800 2.937100
3.181800 1.821500
3.203700 0.954900
3.225700 0.694400
3.247600 1.021000
3.269600 1.545900
3.291600 1.729800
3.313500 1.365000
3.335500 0.764700
3.357400 0.343900
3.379400 0.236400
3.401300 0.343900
3.423300 0.519500
3.445200 0.728500
3.467200 1.086700
3.489100 1.574800
3.511100 1.824400
3.533100 1.557700
3.555000 1.058200
3.577000 0.807000
3.598900 0.865400
3.620900 0.906300
3.642800 0.721800
3.664800 0.472600
3.686700 0.456900
3.708700 0.807400
3.730700 1.352300
3.752600 1.679700
3.774600 1.499100
3.796500 0.958400
3.818500 0.447400
3.840400 0.201900
3.862400 0.242400
3.884300 0.498100
3.906300 0.794700
3.928200 0.881700
3.950200 0.681700
3.972200 0.397900
3.994100 0.266000
4.016100 0.323800
4.038000 0.429500
4.060000 0.424400
4.081900 0.291600
4.103900 0.138000
4.125800 0.045000
4.147800 0.010100
4.169800 0.001600
4.191700 0.000200
4.213700 0.000000
4.235600 0.000000
4.257600 0.000000
4.279500 0.000000
4.301500 0.000000
4.323400 0.000000
4.345400 0.000000
4.367300 0.000000
4.389300 0.000000
4.411300 0.000000
4.433200 0.000000
4.455200 0.000000
4.477100 0.000000
4.499100 0.000000
4.521000 0.000000
4.543000 0.000000
4.564900 0.000000
4.586900 0.000000
4.608800 0.000000
4.630800 0.000000
4.652800 0.000000
4.674700 0.000000
4.696700 0.000000
4.718600 0.000000
4.740600 0.000000
4.762500 0.000000
4.784500 0.000000
4.806400 0.000000
4.828400 0.000000
4.850400 0.000000
4.872300 0.000000
