set title 'mp-109 - Density of States'
set xlabel 'Energy (eV)'
set ylabel 'DOS (states/eV)'
set grid
set xrange [-10:10]
set yrange [0:2.342]
set xzeroaxis lt -1
set terminal png size 800,600
set output 'mp-109_dos_gnuplot.png'
plot '-' using 1:2 with lines title 'DOS'
-7.990600 0.000000
-7.953500 0.000000
-7.916400 0.000000
-7.879300 0.000000
-7.842200 0.000000
-7.805100 0.000000
-7.768100 0.000000
-7.731000 0.000000
-7.693900 0.000000
-7.656800 0.000000
-7.619700 0.000000
-7.582600 0.000000
-7.545500 0.000000
-7.508400 0.000000
-7.471300 0.000000
-7.434200 0.000000
-7.397100 0.000000
-7.360000 0.000000
-7.322900 0.000000
-7.285800 0.000000
-7.248700 0.000000
-7.211600 0.000000
-7.174500 0.000000
-7.137400 0.000000
-7.100300 0.000000
-7.063200 0.000000
-7.026100 0.000000
-6.989000 0.000000
-6.951900 0.000000
-6.914800 0.000000
-6.877700 0.000000
-6.840600 0.000000
-6.803500 0.000000
-6.766400 0.000000
-6.729300 0.000000
-6.692300 0.000000
-6.655200 0.000000
-6.618100 0.000000
-6.581000 0.000000
-6.543900 0.000000
-6.506800 0.000000
-6.469700 0.000000
-6.432600 0.000000
-6.395500 0.000000
-6.358400 0.000000
-6.321300 0.000000
-6.284200 0.000000
-6.247100 0.000000
-6.210000 0.000000
-6.172900 0.000000
-6.135800 0.000000
-6.098700 0.000000
-6.061600 0.000000
-6.024500 0.000000
-5.987400 0.000000
-5.950300 0.000000
-5.913200 0.000000
-5.876100 0.000000
-5.839000 0.000000
-5.801900 0.000000
-5.764800 0.000000
-5.727700 0.000000
-5.690600 0.000000
-5.653500 0.000000
-5.616500 0.000000
-5.579400 0.000000
-5.542300 0.000000
-5.505200 0.000000
-5.468100 0.000000
-5.431000 0.000000
-5.393900 0.000000
-5.356800 0.000000
-5.319700 0.000000
-5.282600 0.000000
-5.245500 0.000000
-5.208400 0.000000
-5.171300 0.000000
-5.134200 0.000000
-5.097100 0.000000
-5.060000 0.000000
-5.022900 0.000000
-4.985800 0.000000
-4.948700 0.000000
-4.911600 0.000000
-4.874500 0.000000
-4.837400 0.000000
-4.800300 0.000000
-4.763200 0.000000
-4.726100 0.000000
-4.689000 0.000000
-4.651900 0.000000
-4.614800 0.000300
-4.577700 0.039800
-4.540700 0.100600
-4.503600 0.136100
-4.466500 0.158900
-4.429400 0.183000
-4.392300 0.196700
-4.355200 0.213700
-4.318100 0.232500
-4.281000 0.251400
-4.243900 0.270700
-4.206800 0.284200
-4.169700 0.293100
-4.132600 0.303700
-4.095500 0.314900
-4.058400 0.326300
-4.021300 0.337500
-3.984200 0.349800
-3.947100 0.362600
-3.910000 0.374600
-3.872900 0.384700
-3.835800 0.394800
-3.798700 0.405300
-3.761600 0.413700
-3.724500 0.422000
-3.687400 0.430500
-3.650300 0.439400
-3.613200 0.448600
-3.576100 0.458000
-3.539000 0.467300
-3.502000 0.475300
-3.464900 0.483200
-3.427800 0.491500
-3.390700 0.500200
-3.353600 0.509400
-3.316500 0.519200
-3.279400 0.530700
-3.242300 0.543500
-3.205200 0.555800
-3.168100 0.568600
-3.131000 0.581100
-3.093900 0.589600
-3.056800 0.585300
-3.019700 0.586200
-2.982600 0.581000
-2.945500 0.584400
-2.908400 0.586700
-2.871300 0.583000
-2.834200 0.580200
-2.797100 0.578500
-2.760000 0.577700
-2.722900 0.578500
-2.685800 0.600800
-2.648700 0.621900
-2.611600 0.623800
-2.574500 0.637000
-2.537400 0.647000
-2.500300 0.653900
-2.463200 0.663400
-2.426200 0.673100
-2.389100 0.677400
-2.352000 0.681300
-2.314900 0.686800
-2.277800 0.692600
-2.240700 0.701200
-2.203600 0.706300
-2.166500 0.712100
-2.129400 0.719600
-2.092300 0.729300
-2.055200 0.741500
-2.018100 0.764200
-1.981000 0.786900
-1.943900 0.802400
-1.906800 0.813600
-1.869700 0.831300
-1.832600 0.833800
-1.795500 0.851400
-1.758400 0.863800
-1.721300 0.871400
-1.684200 0.873700
-1.647100 0.863400
-1.610000 0.847100
-1.572900 0.832200
-1.535800 0.817600
-1.498700 0.808000
-1.461600 0.800400
-1.424500 0.791000
-1.387400 0.757100
-1.350400 0.733800
-1.313300 0.719400
-1.276200 0.711400
-1.239100 0.703800
-1.202000 0.712900
-1.164900 0.741500
-1.127800 0.776200
-1.090700 0.843800
-1.053600 0.899000
-1.016500 0.922800
-0.979400 0.942200
-0.942300 0.946000
-0.905200 0.941200
-0.868100 0.933400
-0.831000 0.923300
-0.793900 0.915900
-0.756800 0.910300
-0.719700 0.908400
-0.682600 0.891800
-0.645500 0.883200
-0.608400 0.881700
-0.571300 0.883200
-0.534200 0.888500
-0.497100 0.897300
-0.460000 0.905700
-0.422900 0.918000
-0.385800 0.940200
-0.348700 0.962600
-0.311600 0.976600
-0.274600 0.990000
-0.237500 1.010100
-0.200400 1.030100
-0.163300 1.034300
-0.126200 1.049400
-0.089100 1.056000
-0.052000 1.061900
-0.014900 1.064400
0.022200 1.071100
0.059300 1.077500
0.096400 1.084200
0.133500 1.088100
0.170600 1.089100
0.207700 1.087100
0.244800 1.084900
0.281900 1.086600
0.319000 1.084600
0.356100 1.079900
0.393200 1.083500
0.430300 1.104300
0.467400 1.123400
0.504500 1.141900
0.541600 1.154400
0.578700 1.156400
0.615800 1.169800
0.652900 1.187700
0.690000 1.191100
0.727100 1.194800
0.764200 1.182800
0.801200 1.169800
0.838300 1.162500
0.875400 1.158200
0.912500 1.159200
0.949600 1.158000
0.986700 1.157400
1.023800 1.167100
1.060900 1.188100
1.098000 1.209200
1.135100 1.225800
1.172200 1.245900
1.209300 1.265500
1.246400 1.288800
1.283500 1.307000
1.320600 1.327400
1.357700 1.339300
1.394800 1.338200
1.431900 1.351000
1.469000 1.371200
1.506100 1.384900
1.543200 1.355900
1.580300 1.336000
1.617400 1.326000
1.654500 1.284100
1.691600 1.240700
1.728700 1.206400
1.765800 1.181600
1.802900 1.142400
1.840000 1.108300
1.877000 1.070600
1.914100 1.035800
1.951200 0.992500
1.988300 0.940800
2.025400 0.894300
2.062500 0.853700
2.099600 0.823400
2.136700 0.843300
2.173800 0.797700
2.210900 0.769000
2.248000 0.773100
2.285100 0.762800
2.322200 0.768900
2.359300 0.792500
2.396400 0.858800
2.433500 0.872200
2.470600 0.914200
2.507700 0.952600
2.544800 0.997700
2.581900 1.052000
2.619000 1.118200
2.656100 1.197200
2.693200 1.293400
2.730300 1.381000
2.767400 1.433500
2.804500 1.475900
2.841600 1.494500
2.878700 1.482500
2.915800 1.456500
2.952800 1.429100
2.989900 1.370200
3.027000 1.315600
3.064100 1.275100
3.101200 1.258600
3.138300 1.255800
3.175400 1.209200
3.212500 1.181700
3.249600 1.160100
3.286700 1.145900
3.323800 1.126800
3.360900 1.115800
3.398000 1.108300
3.435100 1.092700
3.472200 1.090500
3.509300 1.107000
3.546400 1.139500
3.583500 1.193900
3.620600 1.244600
3.657700 1.211200
3.694800 1.200200
3.731900 1.192000
3.769000 1.197700
3.806100 1.216400
3.843200 1.239500
3.880300 1.277500
3.917400 1.290600
3.954500 1.315700
3.991600 1.341500
4.028600 1.364200
4.065700 1.390300
4.102800 1.409300
4.139900 1.430100
4.177000 1.430500
4.214100 1.430500
4.251200 1.432700
4.288300 1.426800
4.325400 1.420900
4.362500 1.422200
4.399600 1.423600
4.436700 1.436200
4.473800 1.439600
4.510900 1.438300
4.548000 1.428200
4.585100 1.419700
4.622200 1.416700
4.659300 1.412800
4.696400 1.413500
4.733500 1.419900
4.770600 1.428100
4.807700 1.439900
4.844800 1.456800
4.881900 1.480200
4.919000 1.511600
4.956100 1.538700
4.993200 1.548400
5.030300 1.543600
5.067400 1.538500
5.104400 1.527000
5.141500 1.524300
5.178600 1.525400
5.215700 1.529600
5.252800 1.535400
5.289900 1.535100
5.327000 1.536500
5.364100 1.545300
5.401200 1.560200
5.438300 1.577500
5.475400 1.595600
5.512500 1.614500
5.549600 1.636600
5.586700 1.668800
5.623800 1.687300
5.660900 1.686300
5.698000 1.674100
5.735100 1.670500
5.772200 1.644800
5.809300 1.620700
5.846400 1.584600
5.883500 1.545600
5.920600 1.529800
5.957700 1.533400
5.994800 1.544300
6.031900 1.568500
6.069000 1.596800
6.106100 1.625600
6.143200 1.653700
6.180200 1.642200
6.217300 1.655100
6.254400 1.676100
6.291500 1.706200
6.328600 1.740600
6.365700 1.758100
6.402800 1.784400
6.439900 1.838700
6.477000 1.921500
6.514100 1.969800
6.551200 1.974200
6.588300 1.982400
6.625400 1.990600
6.662500 1.998400
6.699600 2.026400
6.736700 2.065800
6.773800 2.038500
6.810900 2.011200
6.848000 1.987600
6.885100 1.980600
6.922200 1.996200
6.959300 2.053100
6.996400 2.114600
7.033500 2.128700
7.070600 2.094000
7.107700 2.035100
7.144800 1.997700
7.181900 1.980100
7.219000 1.971000
7.256000 1.973900
7.293100 1.973600
7.330200 1.980500
7.367300 1.999400
7.404400 2.020000
7.441500 2.018000
7.478600 2.009100
7.515700 2.005900
7.552800 2.015500
7.589900 1.989100
7.627000 1.959900
7.664100 1.911700
7.701200 1.816800
7.738300 1.737200
7.775400 1.687500
7.812500 1.664400
7.849600 1.635100
7.886700 1.593900
7.923800 1.567300
7.960900 1.533900
7.998000 1.520100
8.035100 1.534200
8.072200 1.514700
8.109300 1.463600
8.146400 1.418900
8.183500 1.401400
8.220600 1.407700
8.257700 1.426100
8.294800 1.442200
8.331800 1.420900
8.368900 1.413600
8.406000 1.397100
8.443100 1.380100
8.480200 1.368600
8.517300 1.376900
8.554400 1.385800
8.591500 1.388900
8.628600 1.414500
8.665700 1.441700
8.702800 1.476100
8.739900 1.519200
8.777000 1.550500
8.814100 1.585400
8.851200 1.580100
8.888300 1.518800
8.925400 1.477700
8.962500 1.444800
8.999600 1.422800
9.036700 1.397400
9.073800 1.342600
9.110900 1.288500
9.148000 1.263000
9.185100 1.249300
9.222200 1.240100
9.259300 1.240000
9.296400 1.250300
9.333500 1.254300
9.370600 1.268000
9.407600 1.300800
9.444700 1.343000
9.481800 1.377300
9.518900 1.425100
9.556000 1.404400
9.593100 1.373200
9.630200 1.344700
9.667300 1.313500
9.704400 1.267600
9.741500 1.219400
9.778600 1.186000
9.815700 1.169800
9.852800 1.165100
9.889900 1.222700
9.927000 1.319100
9.964100 1.448000
10.001200 1.558300
10.038300 1.635300
10.075400 1.676700
10.112500 1.723500
10.149600 1.768600
10.186700 1.815300
10.223800 1.827800
10.260900 1.818000
10.298000 1.821400
10.335100 1.815200
10.372200 1.819000
10.409300 1.789900
10.446400 1.758100
10.483400 1.681500
10.520500 1.591400
10.557600 1.533800
10.594700 1.503400
10.631800 1.498200
10.668900 1.475600
10.706000 1.461000
10.743100 1.469900
10.780200 1.501800
10.817300 1.545900
10.854400 1.563800
10.891500 1.587300
10.928600 1.605200
10.965700 1.614000
11.002800 1.624900
11.039900 1.628100
11.077000 1.611600
11.114100 1.623500
11.151200 1.670000
11.188300 1.709000
11.225400 1.722700
11.262500 1.739000
11.299600 1.754300
11.336700 1.761800
11.373800 1.765700
11.410900 1.773200
11.448000 1.772500
11.485100 1.799100
11.522200 1.823000
11.559200 1.852600
11.596300 1.890000
11.633400 1.929900
11.670500 1.954900
11.707600 1.966700
11.744700 1.984900
11.781800 2.001800
11.818900 2.008700
11.856000 2.025600
11.893100 2.042900
11.930200 2.056700
11.967300 2.082000
12.004400 2.054300
12.041500 2.032000
12.078600 1.996200
12.115700 1.956300
12.152800 1.929400
12.189900 1.927200
12.227000 1.878600
12.264100 1.885600
12.301200 1.885100
12.338300 1.920800
12.375400 1.937200
12.412500 1.966800
12.449600 2.001000
12.486700 2.029700
12.523800 2.009100
12.560900 1.978700
12.598000 1.954900
12.635000 1.931000
12.672100 1.929900
12.709200 1.927000
12.746300 1.914700
12.783400 1.884200
12.820500 1.884800
12.857600 1.904700
12.894700 1.915900
12.931800 1.948900
12.968900 2.015100
13.006000 2.014000
13.043100 2.027200
13.080200 2.050700
13.117300 2.051900
13.154400 2.059200
13.191500 2.055300
13.228600 2.051700
13.265700 2.053000
13.302800 2.051100
13.339900 2.067400
13.377000 2.073400
13.414100 2.054200
13.451200 2.031100
13.488300 2.026900
13.525400 2.033100
13.562500 2.044800
13.599600 2.088500
13.636700 2.083900
13.673800 2.095800
13.710800 2.113000
13.747900 2.152200
13.785000 2.148600
13.822100 2.169300
13.859200 2.187600
13.896300 2.228100
13.933400 2.225300
13.970500 2.198600
14.007600 2.188800
14.044700 2.182900
14.081800 2.188000
14.118900 2.194200
14.156000 2.202500
14.193100 2.211900
14.230200 2.218800
14.267300 2.213200
14.304400 2.214700
14.341500 2.206100
14.378600 2.214700
14.415700 2.200100
14.452800 2.206500
14.489900 2.210200
14.527000 2.226800
14.564100 2.235900
14.601200 2.247900
14.638300 2.253400
14.675400 2.241600
14.712500 2.222900
14.749600 2.213400
14.786600 2.155700
14.823700 2.116000
14.860800 2.080900
14.897900 2.075700
14.935000 2.083300
14.972100 2.113500
15.009200 2.160500
15.046300 2.189300
15.083400 2.221400
15.120500 2.246700
15.157600 2.264000
15.194700 2.295700
15.231800 2.300800
15.268900 2.328000
15.306000 2.289900
15.343100 2.269900
15.380200 2.268700
15.417300 2.252400
15.454400 2.215800
15.491500 2.161700
15.528600 2.152600
15.565700 2.136200
15.602800 2.162500
15.639900 2.181700
15.677000 2.207200
15.714100 2.236300
15.751200 2.271900
15.788300 2.308300
15.825400 2.329300
15.862400 2.349900
15.899500 2.387000
15.936600 2.417800
15.973700 2.403000
16.010800 2.399600
16.047900 2.372300
16.085000 2.356400
16.122100 2.363500
16.159200 2.316900
16.196300 2.267600
16.233400 2.242700
16.270500 2.227500
16.307600 2.215700
16.344700 2.200300
16.381800 2.194800
16.418900 2.210200
16.456000 2.233200
16.493100 2.237800
16.530200 2.242500
16.567300 2.267600
16.604400 2.283800
16.641500 2.286100
16.678600 2.289500
16.715700 2.267800
16.752800 2.249100
16.789900 2.227700
16.827000 2.193600
16.864100 2.183700
16.901200 2.166500
16.938200 2.140400
16.975300 2.137100
17.012400 2.151700
17.049500 2.174300
17.086600 2.196200
17.123700 2.212500
17.160800 2.221400
17.197900 2.238800
17.235000 2.259600
17.272100 2.272900
17.309200 2.268200
17.346300 2.289400
17.383400 2.326200
17.420500 2.318600
17.457600 2.332700
17.494700 2.337600
17.531800 2.328000
17.568900 2.300800
17.606000 2.221500
17.643100 2.136000
17.680200 2.085800
17.717300 2.081600
17.754400 2.121300
17.791500 2.163100
17.828600 2.156800
17.865700 2.168800
17.902800 2.159300
17.939900 2.098400
17.977000 2.053900
18.014000 1.979500
18.051100 1.953800
18.088200 1.913800
18.125300 1.815700
18.162400 1.780600
18.199500 1.760400
18.236600 1.754400
18.273700 1.754200
18.310800 1.766900
18.347900 1.775100
18.385000 1.804400
18.422100 1.854300
18.459200 1.894800
18.496300 1.954100
18.533400 2.001000
18.570500 2.041600
18.607600 2.073400
18.644700 2.092400
18.681800 2.095600
18.718900 2.164500
18.756000 2.224500
18.793100 2.277000
18.830200 2.332500
18.867300 2.395200
18.904400 2.381000
18.941500 2.374400
18.978600 2.364600
19.015700 2.324900
19.052800 2.294400
19.089800 2.273600
19.126900 2.248300
19.164000 2.223300
19.201100 2.201500
19.238200 2.177400
19.275300 2.156300
19.312400 2.143700
19.349500 2.104900
19.386600 2.085900
19.423700 2.067300
19.460800 2.053400
19.497900 2.048100
19.535000 2.050200
19.572100 2.049800
19.609200 2.042500
19.646300 2.039600
19.683400 2.050700
19.720500 2.069600
19.757600 2.096000
19.794700 2.154600
19.831800 2.242000
19.868900 2.311200
19.906000 2.353900
19.943100 2.420600
19.980200 2.443600
20.017300 2.443800
20.054400 2.432000
20.091500 2.415400
20.128600 2.372700
20.165600 2.353800
20.202700 2.364000
20.239800 2.395400
20.276900 2.434600
20.314000 2.465700
20.351100 2.487600
20.388200 2.483800
20.425300 2.494200
20.462400 2.514200
20.499500 2.520100
20.536600 2.500600
20.573700 2.495500
20.610800 2.525200
20.647900 2.518800
20.685000 2.546700
20.722100 2.549400
20.759200 2.526800
20.796300 2.585100
20.833400 2.705200
20.870500 2.657600
20.907600 2.629400
20.944700 2.589100
20.981800 2.542100
21.018900 2.519500
21.056000 2.495100
21.093100 2.453600
21.130200 2.444000
21.167300 2.448100
21.204400 2.459400
21.241400 2.472400
21.278500 2.483300
21.315600 2.513900
21.352700 2.566600
21.389800 2.690900
21.426900 2.730800
21.464000 2.733900
21.501100 2.740600
21.538200 2.711500
21.575300 2.681600
21.612400 2.658000
21.649500 2.622600
21.686600 2.655500
21.723700 2.690800
21.760800 2.619200
21.797900 2.559900
21.835000 2.509400
21.872100 2.507000
21.909200 2.535600
21.946300 2.552900
21.983400 2.524700
22.020500 2.520800
22.057600 2.541000
22.094700 2.542300
22.131800 2.524900
22.168900 2.546000
22.206000 2.554600
22.243100 2.514200
22.280200 2.493900
22.317200 2.508100
22.354300 2.554900
22.391400 2.576300
22.428500 2.582300
22.465600 2.552300
22.502700 2.532600
22.539800 2.538100
22.576900 2.523100
22.614000 2.503700
22.651100 2.501300
22.688200 2.508900
22.725300 2.494000
22.762400 2.510700
22.799500 2.547400
22.836600 2.585100
22.873700 2.585000
22.910800 2.586900
22.947900 2.609000
22.985000 2.619600
23.022100 2.620700
23.059200 2.610200
23.096300 2.603300
23.133400 2.580900
23.170500 2.581400
23.207600 2.537800
23.244700 2.475400
23.281800 2.487500
23.318900 2.493800
23.356000 2.525900
23.393000 2.599500
23.430100 2.649100
23.467200 2.661900
23.504300 2.631500
23.541400 2.627500
23.578500 2.584400
23.615600 2.552700
23.652700 2.552400
23.689800 2.592100
23.726900 2.701300
23.764000 2.752400
23.801100 2.748000
23.838200 2.745900
23.875300 2.719900
23.912400 2.701700
23.949500 2.735200
23.986600 2.792500
24.023700 2.760100
24.060800 2.736300
24.097900 2.672100
24.135000 2.584400
24.172100 2.541200
24.209200 2.509200
24.246300 2.485600
24.283400 2.412100
24.320500 2.401800
24.357600 2.432600
24.394700 2.455900
24.431800 2.478800
24.468800 2.461100
24.505900 2.411600
24.543000 2.365600
24.580100 2.358100
24.617200 2.316500
24.654300 2.277200
24.691400 2.254300
24.728500 2.222400
24.765600 2.220600
24.802700 2.203700
24.839800 2.190900
24.876900 2.188800
24.914000 2.159100
24.951100 2.191800
24.988200 2.255400
25.025300 2.374800
25.062400 2.443000
25.099500 2.542300
25.136600 2.604800
25.173700 2.700100
25.210800 2.742000
25.247900 2.707300
25.285000 2.702100
25.322100 2.701500
25.359200 2.716200
25.396300 2.675800
25.433400 2.643700
25.470500 2.598500
25.507600 2.541300
25.544600 2.438800
25.581700 2.390800
25.618800 2.419100
25.655900 2.508500
25.693000 2.564700
25.730100 2.610700
25.767200 2.634100
25.804300 2.652800
25.841400 2.645500
25.878500 2.609500
25.915600 2.593300
25.952700 2.572700
25.989800 2.554900
26.026900 2.540100
26.064000 2.530600
26.101100 2.507300
26.138200 2.487500
26.175300 2.474700
26.212400 2.490500
26.249500 2.468900
26.286600 2.446700
26.323700 2.449600
26.360800 2.469200
26.397900 2.458500
26.435000 2.477300
26.472100 2.461900
26.509200 2.468700
26.546300 2.472500
26.583400 2.494600
26.620400 2.559700
26.657500 2.557700
26.694600 2.563400
26.731700 2.587900
26.768800 2.619600
26.805900 2.658400
26.843000 2.647200
26.880100 2.670400
26.917200 2.728100
26.954300 2.761100
26.991400 2.755900
27.028500 2.707700
27.065600 2.638800
27.102700 2.581100
27.139800 2.544100
27.176900 2.489200
27.214000 2.473900
27.251100 2.457100
27.288200 2.449800
27.325300 2.444900
27.362400 2.510200
27.399500 2.598400
27.436600 2.679600
27.473700 2.717600
27.510800 2.744700
27.547900 2.714400
27.585000 2.696200
27.622100 2.691900
27.659200 2.742200
27.696200 2.674400
27.733300 2.610100
27.770400 2.579700
27.807500 2.530000
27.844600 2.541300
27.881700 2.554600
27.918800 2.523700
27.955900 2.508900
27.993000 2.506500
28.030100 2.516000
28.067200 2.533700
28.104300 2.582000
28.141400 2.626100
28.178500 2.680800
28.215600 2.723700
28.252700 2.740300
28.289800 2.791800
28.326900 2.799700
28.364000 2.818800
28.401100 2.860400
28.438200 2.898600
28.475300 2.940600
28.512400 2.971200
28.549500 2.969900
28.586600 2.994000
28.623700 3.018200
28.660800 3.072300
28.697900 3.063700
28.735000 3.075800
28.772000 3.082000
28.809100 3.077600
28.846200 3.032900
28.883300 2.988800
28.920400 2.931200
28.957500 2.875900
28.994600 2.847600
29.031700 2.825500
29.068800 2.760800
29.105900 2.719200
29.143000 2.693500
29.180100 2.696900
29.217200 2.695400
29.254300 2.737600
29.291400 2.809000
29.328500 2.964600
29.365600 2.942800
29.402700 2.905400
29.439800 2.826800
29.476900 2.768200
29.514000 2.725300
29.551100 2.724700
29.588200 2.631300
29.625300 2.596500
29.662400 2.595400
29.699500 2.620100
29.736600 2.657600
29.773700 2.655600
29.810800 2.669100
29.847800 2.707800
29.884900 2.750600
29.922000 2.800700
29.959100 2.864200
29.996200 2.912500
30.033300 2.885700
30.070400 2.863700
30.107500 2.830100
30.144600 2.782900
30.181700 2.773600
30.218800 2.805100
30.255900 2.844200
30.293000 2.886100
30.330100 2.910100
30.367200 2.914000
30.404300 2.889700
30.441400 2.881800
30.478500 2.865100
30.515600 2.872100
30.552700 2.867000
30.589800 2.835900
30.626900 2.843700
30.664000 2.817000
30.701100 2.797700
30.738200 2.749500
30.775300 2.752600
30.812400 2.718400
30.849500 2.691700
30.886600 2.656900
30.923600 2.601300
30.960700 2.558600
30.997800 2.544200
