set title 'mp-1183144 - Density of States'
set xlabel 'Energy (eV)'
set ylabel 'DOS (states/eV)'
set grid
set xrange [-10:10]
set yrange [0:2.536]
set xzeroaxis lt -1
set terminal png size 800,600
set output 'mp-1183144_dos_gnuplot.png'
plot '-' using 1:2 with lines title 'DOS'
-5.439200 0.000000
-5.413700 0.000000
-5.388200 0.000000
-5.362700 0.000000
-5.337200 0.000000
-5.311700 0.000000
-5.286200 0.000000
-5.260700 0.000000
-5.235200 0.000000
-5.209700 0.000000
-5.184200 0.000000
-5.158700 0.000000
-5.133200 0.000000
-5.107700 0.000000
-5.082200 0.000000
-5.056700 0.000000
-5.031200 0.000000
-5.005700 0.000000
-4.980200 0.000000
-4.954700 0.000000
-4.929200 0.000000
-4.903700 0.000000
-4.878200 0.000000
-4.852700 0.000000
-4.827200 0.000000
-4.801700 0.000000
-4.776200 0.000000
-4.750700 0.000000
-4.725200 0.000000
-4.699700 0.000000
-4.674200 0.000000
-4.648700 0.000000
-4.623200 0.000000
-4.597700 0.000000
-4.572200 0.000000
-4.546700 0.000000
-4.521200 0.000000
-4.495700 0.000000
-4.470200 0.000000
-4.444700 0.000000
-4.419200 0.000000
-4.393700 0.000000
-4.368200 0.000000
-4.342700 0.000000
-4.317200 0.000000
-4.291700 0.000000
-4.266200 0.000000
-4.240700 0.000000
-4.215200 0.000000
-4.189700 0.000000
-4.164200 0.000000
-4.138700 0.000000
-4.113200 0.000000
-4.087700 0.000000
-4.062200 0.000000
-4.036700 0.000000
-4.011200 0.000000
-3.985700 0.000000
-3.960200 0.000000
-3.934700 0.000000
-3.909200 0.000000
-3.883700 0.000000
-3.858200 0.000000
-3.832700 0.000000
-3.807200 0.000000
-3.781700 0.000000
-3.756200 0.000000
-3.730700 0.000000
-3.705200 0.000000
-3.679700 0.000000
-3.654200 0.000000
-3.628700 0.000000
-3.603200 0.000000
-3.577700 0.000000
-3.552200 0.000000
-3.526700 0.000000
-3.501200 0.000000
-3.475700 0.000000
-3.450200 0.000000
-3.424700 0.000000
-3.399200 0.000000
-3.373700 0.000000
-3.348200 0.000000
-3.322700 0.000000
-3.297200 0.000000
-3.271700 0.000000
-3.246200 0.000000
-3.220700 0.000000
-3.195200 0.000000
-3.169700 0.000000
-3.144200 0.000000
-3.118700 0.000100
-3.093200 0.015000
-3.067700 0.055200
-3.042200 0.112900
-3.016700 0.136100
-2.991200 0.144500
-2.965700 0.151800
-2.940200 0.170600
-2.914700 0.190000
-2.889200 0.209900
-2.863700 0.226900
-2.838200 0.251300
-2.812700 0.287900
-2.787200 0.317800
-2.761700 0.284600
-2.736200 0.290300
-2.710700 0.295700
-2.685200 0.300500
-2.659700 0.305000
-2.634200 0.308900
-2.608700 0.308900
-2.583200 0.304800
-2.557700 0.299600
-2.532200 0.297500
-2.506700 0.298600
-2.481200 0.334000
-2.455700 0.374200
-2.430200 0.366400
-2.404700 0.375500
-2.379200 0.385100
-2.353700 0.395000
-2.328200 0.405100
-2.302700 0.410600
-2.277200 0.420100
-2.251700 0.424600
-2.226200 0.429000
-2.200700 0.433800
-2.175200 0.440600
-2.149700 0.446900
-2.124200 0.453500
-2.098700 0.460800
-2.073200 0.468600
-2.047700 0.476600
-2.022200 0.484500
-1.996700 0.491900
-1.971200 0.492500
-1.945700 0.496100
-1.920200 0.499500
-1.894700 0.503300
-1.869200 0.508100
-1.843700 0.513800
-1.818200 0.520000
-1.792700 0.526400
-1.767200 0.533000
-1.741700 0.539800
-1.716200 0.546800
-1.690700 0.552700
-1.665200 0.558000
-1.639700 0.563300
-1.614200 0.568900
-1.588700 0.572700
-1.563200 0.576200
-1.537700 0.579800
-1.512100 0.584600
-1.486600 0.589700
-1.461100 0.594800
-1.435600 0.598100
-1.410100 0.602800
-1.384600 0.606800
-1.359100 0.610300
-1.333600 0.615100
-1.308100 0.619800
-1.282600 0.624700
-1.257100 0.629900
-1.231600 0.635100
-1.206100 0.640300
-1.180600 0.645700
-1.155100 0.651200
-1.129600 0.656800
-1.104100 0.662400
-1.078600 0.665000
-1.053100 0.668700
-1.027600 0.672000
-1.002100 0.675600
-0.976600 0.679400
-0.951100 0.683300
-0.925600 0.687400
-0.900100 0.691600
-0.874600 0.695700
-0.849100 0.699700
-0.823600 0.703100
-0.798100 0.706600
-0.772600 0.710500
-0.747100 0.715000
-0.721600 0.719600
-0.696100 0.724200
-0.670600 0.728800
-0.645100 0.733300
-0.619600 0.737500
-0.594100 0.741600
-0.568600 0.746000
-0.543100 0.750500
-0.517600 0.755100
-0.492100 0.759000
-0.466600 0.762700
-0.441100 0.766300
-0.415600 0.770500
-0.390100 0.774800
-0.364600 0.778400
-0.339100 0.781700
-0.313600 0.785000
-0.288100 0.788400
-0.262600 0.791700
-0.237100 0.795000
-0.211600 0.798300
-0.186100 0.801800
-0.160600 0.805300
-0.135100 0.808900
-0.109600 0.811500
-0.084100 0.815000
-0.058600 0.818600
-0.033100 0.822200
-0.007600 0.825900
0.017900 0.829700
0.043400 0.833700
0.068900 0.837700
0.094400 0.841800
0.119900 0.846000
0.145400 0.850200
0.170900 0.854400
0.196400 0.858700
0.221900 0.895200
0.247400 0.931700
0.272900 0.912400
0.298400 0.916300
0.323900 0.920000
0.349400 0.923600
0.374900 0.927000
0.400400 0.930400
0.425900 0.931000
0.451400 0.927400
0.476900 0.923600
0.502400 0.922300
0.527900 0.923300
0.553400 0.924400
0.578900 0.925400
0.604400 0.926400
0.629900 0.927400
0.655400 0.928200
0.680900 0.929000
0.706400 0.929400
0.731900 0.923800
0.757400 0.923500
0.782900 0.923600
0.808400 0.923700
0.833900 0.923900
0.859400 0.924400
0.884900 0.925400
0.910400 0.926400
0.935900 0.927400
0.961400 0.928300
0.986900 0.929300
1.012400 0.930400
1.037900 0.930900
1.063400 0.931400
1.088900 0.930300
1.114400 0.929200
1.139900 0.928200
1.165400 0.928700
1.190900 0.929200
1.216400 0.956200
1.241900 0.994900
1.267400 1.035200
1.292900 0.994000
1.318400 1.000200
1.343900 1.006500
1.369400 1.012900
1.394900 1.019200
1.420400 1.024100
1.445900 1.023700
1.471400 1.023000
1.496900 1.024100
1.522400 1.028100
1.547900 1.032100
1.573400 1.036200
1.598900 1.038200
1.624400 1.041500
1.649900 1.045300
1.675400 1.049200
1.700900 1.053300
1.726400 1.051100
1.751900 1.054200
1.777400 1.057300
1.802900 1.060400
1.828400 1.063600
1.853900 1.067100
1.879400 1.071300
1.904900 1.075400
1.930400 1.079700
1.955900 1.083400
1.981400 1.087500
2.006900 1.091500
2.032400 1.095800
2.057900 1.100100
2.083400 1.102800
2.108900 1.105200
2.134400 1.107600
2.159900 1.111000
2.185400 1.114200
2.210900 1.117500
2.236400 1.133900
2.261900 1.154900
2.287400 1.172800
2.312900 1.178800
2.338400 1.184300
2.363900 1.189400
2.389400 1.194200
2.414900 1.198500
2.440400 1.202400
2.465900 1.206000
2.491400 1.230100
2.516900 1.225300
2.542400 1.220600
2.567900 1.214300
2.593400 1.209300
2.618900 1.204500
2.644400 1.199800
2.669900 1.215600
2.695400 1.233700
2.720900 1.245700
2.746400 1.245100
2.771900 1.245100
2.797400 1.245800
2.822900 1.290700
2.848400 1.295100
2.873900 1.295500
2.899400 1.293400
2.924900 1.313300
2.950400 1.296300
2.975900 1.279900
3.001400 1.266300
3.026900 1.256900
3.052400 1.249300
3.077900 1.242400
3.103400 1.237100
3.128900 1.235800
3.154400 1.232900
3.179900 1.228300
3.205400 1.222300
3.230900 1.217600
3.256400 1.269700
3.281900 1.204400
3.307400 1.148600
3.332900 1.128800
3.358400 1.117000
3.383900 1.105300
3.409400 1.093700
3.434900 1.087100
3.460500 1.086400
3.486000 1.089000
3.511500 1.118400
3.537000 1.187200
3.562500 1.263200
3.588000 1.294800
3.613500 1.308500
3.639000 1.331300
3.664500 1.364700
3.690000 1.436500
3.715500 1.455000
3.741000 1.465700
3.766500 1.471200
3.792000 1.414800
3.817500 1.356300
3.843000 1.323100
3.868500 1.306800
3.894000 1.303200
3.919500 1.301400
3.945000 1.310300
3.970500 1.342000
3.996000 1.429000
4.021500 1.476300
4.047000 1.514400
4.072500 1.512200
4.098000 1.466100
4.123500 1.463100
4.149000 1.460900
4.174500 2.050000
4.200000 1.421400
4.225500 1.389100
4.251000 1.344900
4.276500 1.315000
4.302000 1.308900
4.327500 1.311100
4.353000 1.313200
4.378500 1.298900
4.404000 1.272600
4.429500 1.279600
4.455000 1.288100
4.480500 1.248500
4.506000 1.249000
4.531500 1.257000
4.557000 1.270000
4.582500 1.274600
4.608000 1.273700
4.633500 1.274700
4.659000 1.278600
4.684500 1.284500
4.710000 1.290500
4.735500 1.321800
4.761000 1.354600
4.786500 1.367200
4.812000 1.388200
4.837500 1.507900
4.863000 1.448000
4.888500 1.391800
4.914000 1.330500
4.939500 1.293600
4.965000 1.272700
4.990500 1.253000
5.016000 1.178900
5.041500 1.159300
5.067000 1.153900
5.092500 1.171300
5.118000 1.189100
5.143500 1.212900
5.169000 1.245100
5.194500 1.261300
5.220000 1.284800
5.245500 1.311900
5.271000 1.340500
5.296500 1.322700
5.322000 1.426500
5.347500 1.477500
5.373000 1.478300
5.398500 1.473500
5.424000 1.468300
5.449500 1.480700
5.475000 1.500400
5.500500 1.404500
5.526000 1.344000
5.551500 1.308900
5.577000 1.289800
5.602500 1.271300
5.628000 1.268200
5.653500 1.270000
5.679000 1.284700
5.704500 1.288100
5.730000 1.296700
5.755500 1.313500
5.781000 1.334400
5.806500 1.356400
5.832000 1.378300
5.857500 1.402400
5.883000 1.428800
5.908500 1.672200
5.934000 1.670200
5.959500 1.593000
5.985000 1.631000
6.010500 1.735900
6.036000 1.976500
6.061500 1.900900
6.087000 1.843500
6.112500 1.911600
6.138000 1.930500
6.163500 1.942500
6.189000 1.941400
6.214500 1.948700
6.240000 1.982500
6.265500 1.745900
6.291000 1.701100
6.316500 1.660000
6.342000 1.615500
6.367500 1.599200
6.393000 1.577800
6.418500 1.558800
6.444000 1.546600
6.469500 1.567000
6.495000 1.602000
6.520500 1.563300
6.546000 1.554600
6.571500 1.540200
6.597000 1.523200
6.622500 1.505900
6.648000 1.510100
6.673500 1.459800
6.699000 1.415000
6.724500 1.376300
6.750000 1.344200
6.775500 1.314800
6.801000 1.292100
6.826500 1.273000
6.852000 1.266700
6.877500 1.290700
6.903000 1.304300
6.928500 1.327300
6.954000 1.354600
6.979500 1.468500
7.005000 1.379800
7.030500 1.356000
7.056000 1.338500
7.081500 1.330000
7.107000 1.307200
7.132500 1.304200
7.158000 1.304100
7.183500 1.307600
7.209000 1.312600
7.234500 1.318600
7.260000 1.325400
7.285500 1.371000
7.311000 1.430800
7.336500 1.494900
7.362000 1.631800
7.387500 1.579900
7.413000 1.592900
7.438500 1.641800
7.464000 1.704200
7.489500 1.653600
7.515000 1.688800
7.540500 1.717600
7.566000 1.781600
7.591500 1.742800
7.617000 1.714400
7.642500 1.692400
7.668000 1.675700
7.693500 1.662600
7.719000 1.651300
7.744500 1.650200
7.770000 1.618200
7.795500 1.616100
7.821000 1.603300
7.846500 1.590900
7.872000 1.588100
7.897500 1.587000
7.923000 1.581000
7.948500 1.572400
7.974000 1.566800
7.999500 1.568600
8.025000 1.560700
8.050500 1.540600
8.076000 1.553700
8.101500 1.537200
8.127000 1.486900
8.152500 1.486200
8.178000 1.490300
8.203500 1.510400
8.229000 1.540200
8.254500 1.560600
8.280000 1.625200
8.305500 1.597500
8.331000 1.605500
8.356500 1.615100
8.382000 1.625000
8.407500 1.635500
8.433000 1.646700
8.458600 1.658200
8.484100 1.615000
8.509600 1.624400
8.535100 1.636600
8.560600 1.646700
8.586100 1.657400
8.611600 1.672900
8.637100 1.691700
8.662600 1.709200
8.688100 1.727000
8.713600 1.741200
8.739100 1.753700
8.764600 1.765600
8.790100 1.778200
8.815600 1.790400
8.841100 1.804200
8.866600 1.829900
8.892100 2.081200
8.917600 1.949900
8.943100 1.855600
8.968600 1.865400
8.994100 1.869000
9.019600 1.863300
9.045100 1.856400
9.070600 1.888800
9.096100 1.895300
9.121600 1.878000
9.147100 1.852600
9.172600 1.901200
9.198100 1.889500
9.223600 1.877900
9.249100 2.006300
9.274600 2.305200
9.300100 1.867800
9.325600 1.837200
9.351100 1.817700
9.376600 1.792300
9.402100 1.721500
9.427600 1.651900
9.453100 1.603900
9.478600 1.579800
9.504100 1.538500
9.529600 1.518300
9.555100 1.505400
9.580600 1.499800
9.606100 1.504100
9.631600 1.509500
9.657100 1.520500
9.682600 1.502200
9.708100 1.511800
9.733600 1.514000
9.759100 1.519400
9.784600 1.533500
9.810100 1.552000
9.835600 1.570600
9.861100 1.585700
9.886600 1.601600
9.912100 1.617500
9.937600 1.631000
9.963100 1.648300
9.988600 1.663000
10.014100 1.674200
10.039600 1.687600
10.065100 1.701800
10.090600 1.720500
10.116100 1.751900
10.141600 1.781900
10.167100 1.814900
10.192600 1.865900
10.218100 1.934200
10.243600 1.988500
10.269100 2.042700
10.294600 2.096600
10.320100 2.072800
10.345600 2.104400
10.371100 2.086800
10.396600 2.082900
10.422100 2.051300
10.447600 2.008100
10.473100 1.934300
10.498600 1.862100
10.524100 1.819700
10.549600 1.795500
10.575100 1.772100
10.600600 1.748800
10.626100 1.727900
10.651600 1.716800
10.677100 1.712600
10.702600 1.708500
10.728100 1.706500
10.753600 1.707500
10.779100 1.707900
10.804600 1.709600
10.830100 1.711700
10.855600 1.713900
10.881100 1.716500
10.906600 1.720300
10.932100 1.726700
10.957600 1.800600
10.983100 1.747600
11.008600 1.752900
11.034100 1.785400
11.059600 1.845700
11.085100 1.867800
11.110600 1.892100
11.136100 1.916400
11.161600 1.960000
11.187100 1.997100
11.212600 2.027400
11.238100 1.955600
11.263600 1.933400
11.289100 1.900400
11.314600 1.891100
11.340100 1.890600
11.365600 1.890500
11.391100 1.888900
11.416600 1.879200
11.442100 1.865100
11.467600 1.843200
11.493100 1.843600
11.518600 1.848500
11.544100 1.854300
11.569600 1.860900
11.595100 1.868000
11.620600 1.877100
11.646100 1.891900
11.671600 1.909000
11.697100 1.968000
11.722600 2.039300
11.748100 1.907700
11.773600 1.906000
11.799100 1.908300
11.824600 1.913600
11.850100 1.919300
11.875600 1.925500
11.901100 1.929600
11.926600 1.935600
11.952100 1.947300
11.977600 1.970900
12.003100 2.017600
12.028600 2.077800
12.054100 2.150600
12.079600 2.191200
12.105100 2.190500
12.130600 2.177200
12.156100 2.152100
12.181600 2.133100
12.207100 2.115700
12.232600 2.089600
12.258100 2.039200
12.283600 2.044600
12.309100 2.021100
12.334600 1.999400
12.360100 1.979600
12.385600 1.961600
12.411100 1.949900
12.436600 1.948600
12.462100 1.948600
12.487600 1.983600
12.513100 2.021400
12.538600 2.061700
12.564100 2.008100
12.589600 2.014300
12.615100 2.021200
12.640600 2.028400
12.666100 2.041400
12.691600 2.050400
12.717100 2.058900
12.742600 2.067400
12.768100 2.069600
12.793600 2.073800
12.819100 2.084500
12.844600 2.081300
12.870100 2.087700
12.895600 2.095900
12.921100 2.109500
12.946600 2.119400
12.972100 2.227000
12.997600 2.344000
13.023100 2.124800
13.048600 2.132100
13.074100 2.132300
13.099600 2.135400
13.125100 2.140300
13.150600 2.149800
13.176100 2.172300
13.201600 2.195200
13.227100 2.213500
13.252600 2.224300
13.278100 2.233900
13.303600 2.241600
13.329100 2.247800
13.354600 2.259000
13.380100 2.364100
13.405600 2.368400
13.431200 2.254500
13.456700 2.177800
13.482200 2.168300
13.507700 2.158500
13.533200 2.147600
13.558700 2.135600
13.584200 2.124900
13.609700 2.113600
13.635200 2.111000
13.660700 2.119200
13.686200 2.150700
13.711700 2.185900
13.737200 2.180300
13.762700 2.158000
13.788200 2.136200
13.813700 2.114600
13.839200 2.094100
13.864700 2.084300
13.890200 2.100200
13.915700 2.032000
13.941200 2.018500
13.966700 2.007200
13.992200 1.997800
14.017700 1.990500
14.043200 2.030400
14.068700 2.028700
14.094200 2.019400
14.119700 2.013100
14.145200 2.004200
14.170700 2.003800
14.196200 2.009300
14.221700 2.026200
14.247200 2.039500
14.272700 2.069700
14.298200 2.102400
14.323700 2.137600
14.349200 2.159300
14.374700 2.174800
14.400200 2.186300
14.425700 2.197000
14.451200 2.122300
14.476700 2.127400
14.502200 2.129400
14.527700 2.114200
14.553200 2.114200
14.578700 2.141700
14.604200 2.188500
14.629700 2.238800
14.655200 2.287500
14.680700 2.122400
14.706200 2.113600
14.731700 2.104300
14.757200 2.098800
14.782700 2.098500
14.808200 2.108000
14.833700 2.131100
14.859200 2.163800
14.884700 2.201900
14.910200 2.238800
14.935700 2.277600
14.961200 2.302300
14.986700 2.226500
15.012200 2.226900
15.037700 2.226000
15.063200 2.223100
15.088700 2.213400
15.114200 2.205200
15.139700 2.199700
15.165200 2.198400
15.190700 2.196400
15.216200 2.193200
15.241700 2.182700
15.267200 2.156400
15.292700 2.131300
15.318200 2.109400
15.343700 2.023700
15.369200 2.074200
15.394700 2.066100
15.420200 2.059100
15.445700 2.054400
15.471200 2.522300
15.496700 2.021700
15.522200 2.034200
15.547700 2.051900
15.573200 2.069400
15.598700 2.089000
15.624200 2.112300
15.649700 2.142200
15.675200 2.170200
15.700700 2.199300
15.726200 2.229100
15.751700 2.306600
15.777200 2.309500
15.802700 2.265200
15.828200 2.225000
15.853700 2.205500
15.879200 2.187200
15.904700 2.184600
15.930200 2.172300
15.955700 2.157500
15.981200 2.140500
16.006700 2.121100
16.032200 2.097000
16.057700 2.076100
16.083200 2.041200
16.108700 2.042500
16.134200 2.057100
16.159700 2.069800
16.185200 1.960000
16.210700 1.977400
16.236200 2.017700
16.261700 2.060600
16.287200 2.095800
16.312700 2.128500
16.338200 2.096200
16.363700 2.110200
16.389200 2.088000
16.414700 2.066700
16.440200 2.046400
16.465700 2.050000
16.491200 1.982000
16.516700 1.993300
16.542200 2.026000
16.567700 2.053200
16.593200 2.082000
16.618700 2.107700
16.644200 2.125000
16.669700 2.146200
16.695200 2.167000
16.720700 2.185000
16.746200 2.178600
16.771700 2.203300
16.797200 2.227400
16.822700 2.247900
16.848200 2.265100
16.873700 2.278500
16.899200 2.289100
16.924700 2.284700
16.950200 2.301100
16.975700 2.361900
17.001200 2.386000
17.026700 2.390000
17.052200 2.390700
17.077700 2.395600
17.103200 2.412600
17.128700 2.385800
17.154200 2.373600
17.179700 2.353100
17.205200 2.390400
17.230700 2.375600
17.256200 2.458800
17.281700 2.551800
17.307200 2.665100
17.332700 2.721700
17.358200 2.754300
17.383700 2.750400
17.409200 2.724000
17.434700 2.690000
17.460200 2.671700
17.485700 2.660900
17.511200 2.647100
17.536700 2.624800
17.562200 2.608100
17.587700 2.589200
17.613200 2.508200
17.638700 2.618400
17.664200 2.545800
17.689700 2.491700
17.715200 2.369400
17.740700 2.347700
17.766200 2.309800
17.791700 2.284400
17.817200 2.260400
17.842700 2.231500
17.868200 2.196200
17.893700 2.171300
17.919200 2.154100
17.944700 2.139500
17.970200 2.123900
17.995700 2.106200
18.021200 2.086600
18.046700 2.071100
18.072200 2.058900
18.097700 2.050200
18.123200 2.036000
18.148700 2.019000
18.174200 2.004500
18.199700 1.997000
18.225200 1.995100
18.250700 2.148000
18.276200 2.238500
18.301700 2.351600
18.327200 2.409000
18.352700 2.394200
18.378200 2.382600
18.403800 2.374300
18.429300 2.387000
18.454800 2.404800
18.480300 2.459900
18.505800 2.526200
18.531300 2.533600
18.556800 2.443500
18.582300 2.384900
18.607800 2.410500
18.633300 2.419800
18.658800 2.420000
18.684300 2.427100
18.709800 2.437100
18.735300 2.378200
18.760800 2.345800
18.786300 2.362600
18.811800 2.377700
18.837300 2.380200
18.862800 2.385300
18.888300 2.500600
18.913800 2.391200
18.939300 2.353700
18.964800 2.357700
18.990300 2.521900
19.015800 2.556200
19.041300 2.538200
19.066800 2.514200
19.092300 2.489600
19.117800 2.455200
19.143300 2.430800
19.168800 2.421300
19.194300 2.411100
19.219800 2.400400
19.245300 2.408000
19.270800 2.477400
19.296300 2.342900
19.321800 2.326500
19.347300 2.308500
19.372800 2.290000
19.398300 2.284500
19.423800 2.246500
19.449300 2.265900
19.474800 2.278300
19.500300 2.292600
19.525800 2.253200
19.551300 2.206100
19.576800 2.208300
19.602300 2.212000
19.627800 2.230100
19.653300 2.266800
19.678800 2.287300
19.704300 2.307100
19.729800 2.335400
19.755300 2.364500
19.780800 2.395200
19.806300 2.436700
19.831800 2.430600
19.857300 2.519300
19.882800 2.560900
19.908300 2.567700
19.933800 2.579300
19.959300 2.588800
19.984800 2.610200
20.010300 2.638700
20.035800 2.632700
20.061300 2.608900
20.086800 2.610600
20.112300 2.689100
20.137800 2.668500
20.163300 2.620900
20.188800 2.583900
20.214300 2.569100
20.239800 2.481600
20.265300 2.424700
20.290800 2.365100
20.316300 2.311400
20.341800 2.420700
20.367300 2.308100
20.392800 2.236900
20.418300 2.265900
20.443800 2.259200
20.469300 2.247500
20.494800 2.237100
20.520300 2.226700
20.545800 2.220800
20.571300 2.222700
20.596800 2.227500
20.622300 2.232100
20.647800 2.271300
20.673300 2.315700
20.698800 2.370500
20.724300 2.398000
20.749800 2.349100
20.775300 2.359300
20.800800 2.378500
20.826300 2.396000
20.851800 2.392100
20.877300 2.403800
20.902800 2.417600
20.928300 2.434700
20.953800 2.465100
20.979300 2.579100
21.004800 2.788300
21.030300 2.862100
21.055800 3.003100
21.081300 2.904500
21.106800 2.944900
21.132300 3.362100
21.157800 2.999200
21.183300 2.879300
21.208800 3.035300
21.234300 3.122700
21.259800 3.097400
21.285300 3.085900
21.310800 3.046400
21.336300 2.976500
21.361800 2.912900
21.387300 2.907200
21.412800 2.781200
21.438300 2.674200
21.463800 2.584100
21.489300 2.501800
21.514800 2.434100
