set title 'mp-579909 - Density of States'
set xlabel 'Energy (eV)'
set ylabel 'DOS (states/eV)'
set grid
set xrange [-10:10]
set yrange [0:6.496]
set xzeroaxis lt -1
set terminal png size 800,600
set output 'mp-579909_dos_gnuplot.png'
plot '-' using 1:2 with lines title 'DOS'
-18.997500 0.000000
-18.972800 0.000000
-18.948100 0.000000
-18.923400 0.000000
-18.898700 0.000000
-18.873900 0.000000
-18.849200 0.000000
-18.824500 0.000000
-18.799800 0.000000
-18.775100 0.000000
-18.750400 0.000000
-18.725600 0.000000
-18.700900 0.000000
-18.676200 0.000000
-18.651500 0.000000
-18.626800 0.000000
-18.602100 0.000000
-18.577300 0.000000
-18.552600 0.000000
-18.527900 0.000000
-18.503200 0.000000
-18.478500 0.000000
-18.453700 0.000000
-18.429000 0.000000
-18.404300 0.000000
-18.379600 0.000000
-18.354900 0.000000
-18.330200 0.000000
-18.305400 0.000000
-18.280700 0.000000
-18.256000 0.000000
-18.231300 0.000000
-18.206600 0.000000
-18.181900 0.000000
-18.157100 0.000000
-18.132400 0.000000
-18.107700 0.000000
-18.083000 0.000000
-18.058300 0.000000
-18.033600 0.000000
-18.008800 0.000000
-17.984100 0.000000
-17.959400 0.000000
-17.934700 0.000000
-17.910000 0.000000
-17.885200 0.000000
-17.860500 0.000000
-17.835800 0.000000
-17.811100 0.000000
-17.786400 0.000000
-17.761700 0.000000
-17.736900 0.000000
-17.712200 0.000000
-17.687500 0.000000
-17.662800 0.000000
-17.638100 0.000000
-17.613400 0.000000
-17.588600 0.000000
-17.563900 0.000000
-17.539200 0.000000
-17.514500 0.000000
-17.489800 0.000000
-17.465100 0.000000
-17.440300 0.000000
-17.415600 0.000000
-17.390900 0.000000
-17.366200 0.000000
-17.341500 0.000000
-17.316700 0.000000
-17.292000 0.000000
-17.267300 0.000000
-17.242600 0.000000
-17.217900 0.000000
-17.193200 0.000000
-17.168400 0.000000
-17.143700 0.000000
-17.119000 0.000000
-17.094300 0.000000
-17.069600 0.000000
-17.044900 0.000000
-17.020100 0.000000
-16.995400 0.000000
-16.970700 0.000000
-16.946000 0.000000
-16.921300 0.000000
-16.896600 0.000000
-16.871800 0.000000
-16.847100 0.000000
-16.822400 0.000000
-16.797700 0.000000
-16.773000 0.000000
-16.748200 0.013200
-16.723500 0.688500
-16.698800 1.052600
-16.674100 0.837100
-16.649400 0.857000
-16.624700 0.918400
-16.599900 0.980800
-16.575200 0.975200
-16.550500 0.913100
-16.525800 0.911600
-16.501100 0.905400
-16.476400 0.921300
-16.451600 0.943300
-16.426900 0.968100
-16.402200 0.992900
-16.377500 0.964700
-16.352800 0.958100
-16.328100 0.951800
-16.303300 0.946900
-16.278600 0.957200
-16.253900 0.970400
-16.229200 0.983700
-16.204500 0.997000
-16.179700 1.010300
-16.155000 1.023600
-16.130300 1.025500
-16.105600 1.019500
-16.080900 1.025000
-16.056200 1.030400
-16.031400 1.039500
-16.006700 1.051900
-15.982000 1.064400
-15.957300 1.076900
-15.932600 1.089300
-15.907900 1.101400
-15.883100 1.109400
-15.858400 1.119000
-15.833700 1.167700
-15.809000 1.202100
-15.784300 1.236500
-15.759600 1.269600
-15.734800 1.302400
-15.710100 1.336400
-15.685400 1.370300
-15.660700 1.404400
-15.636000 1.438600
-15.611200 2.306100
-15.586500 2.097600
-15.561800 1.547600
-15.537100 1.339500
-15.512400 1.291200
-15.487700 1.214200
-15.462900 1.124000
-15.438200 1.033800
-15.413500 0.943600
-15.388800 0.904000
-15.364100 0.889400
-15.339400 0.874800
-15.314600 0.852200
-15.289900 0.803700
-15.265200 0.764500
-15.240500 0.725200
-15.215800 0.686000
-15.191100 0.646700
-15.166300 0.619800
-15.141600 0.608700
-15.116900 0.597600
-15.092200 0.586200
-15.067500 0.572700
-15.042700 0.559200
-15.018000 0.545700
-14.993300 0.532200
-14.968600 0.503700
-14.943900 0.479800
-14.919200 0.455900
-14.894400 0.432000
-14.869700 0.412800
-14.845000 0.404300
-14.820300 0.395900
-14.795600 0.390200
-14.770900 0.384700
-14.746100 0.379300
-14.721400 0.373800
-14.696700 0.368300
-14.672000 0.362800
-14.647300 0.357400
-14.622600 0.351900
-14.597800 0.346400
-14.573100 0.412600
-14.548400 0.575000
-14.523700 0.422700
-14.499000 0.364700
-14.474200 0.306700
-14.449500 0.248700
-14.424800 0.190700
-14.400100 0.132700
-14.375400 0.074700
-14.350700 0.016700
-14.325900 0.000000
-14.301200 0.000000
-14.276500 0.000000
-14.251800 0.000000
-14.227100 0.000000
-14.202400 0.000000
-14.177600 0.000000
-14.152900 0.000000
-14.128200 0.039400
-14.103500 0.130100
-14.078800 0.220700
-14.054100 0.311400
-14.029300 0.402000
-14.004600 0.492700
-13.979900 0.583400
-13.955200 0.934800
-13.930500 0.734500
-13.905700 0.944000
-13.881000 0.975800
-13.856300 0.882800
-13.831600 1.893900
-13.806900 2.569300
-13.782200 3.141000
-13.757400 2.051400
-13.732700 1.799700
-13.708000 1.623400
-13.683300 1.540900
-13.658600 1.461300
-13.633900 1.330300
-13.609100 1.255800
-13.584400 1.202200
-13.559700 1.148700
-13.535000 1.098300
-13.510300 1.057000
-13.485600 1.018200
-13.460800 0.958000
-13.436100 0.917200
-13.411400 0.900700
-13.386700 0.886400
-13.362000 0.872100
-13.337200 0.857800
-13.312500 1.142700
-13.287800 1.792900
-13.263100 2.000200
-13.238400 1.877900
-13.213700 1.951600
-13.188900 2.019800
-13.164200 1.985000
-13.139500 1.930600
-13.114800 1.941100
-13.090100 1.979600
-13.065400 2.022500
-13.040600 2.168500
-13.015900 2.302300
-12.991200 2.423700
-12.966500 2.388500
-12.941800 2.182100
-12.917100 1.971100
-12.892300 1.763300
-12.867600 1.466000
-12.842900 1.128900
-12.818200 1.188400
-12.793500 1.762400
-12.768700 2.189900
-12.744000 2.168500
-12.719300 2.172900
-12.694600 2.134000
-12.669900 2.063100
-12.645200 2.298600
-12.620400 2.430700
-12.595700 2.476700
-12.571000 2.525500
-12.546300 2.864100
-12.521600 3.417800
-12.496900 2.928400
-12.472100 2.334600
-12.447400 2.222700
-12.422700 2.052100
-12.398000 1.854700
-12.373300 1.710200
-12.348600 1.674900
-12.323800 1.655400
-12.299100 1.629400
-12.274400 1.599100
-12.249700 1.563400
-12.225000 2.422400
-12.200200 1.571800
-12.175500 1.495200
-12.150800 1.698800
-12.126100 1.711600
-12.101400 1.720800
-12.076700 1.730700
-12.051900 1.742500
-12.027200 1.668500
-12.002500 1.492000
-11.977800 1.348400
-11.953100 1.245900
-11.928400 1.220100
-11.903600 1.184000
-11.878900 1.169300
-11.854200 1.160400
-11.829500 1.157600
-11.804800 1.185800
-11.780100 1.080300
-11.755300 1.017700
-11.730600 1.103700
-11.705900 1.502900
-11.681200 1.311100
-11.656500 1.356700
-11.631700 0.946800
-11.607000 0.738200
-11.582300 0.734600
-11.557600 0.730700
-11.532900 0.725400
-11.508200 0.720200
-11.483400 0.714900
-11.458700 0.709500
-11.434000 0.699100
-11.409300 0.690100
-11.384600 0.681800
-11.359900 0.676500
-11.335100 0.673000
-11.310400 0.669500
-11.285700 0.666000
-11.261000 0.662500
-11.236300 0.660600
-11.211600 0.660400
-11.186800 0.660700
-11.162100 0.660800
-11.137400 0.660800
-11.112700 0.660900
-11.088000 0.661000
-11.063200 0.657700
-11.038500 0.652100
-11.013800 0.646500
-10.989100 0.640900
-10.964400 0.635300
-10.939700 0.649000
-10.914900 0.658400
-10.890200 0.655100
-10.865500 0.651800
-10.840800 0.648500
-10.816100 0.645300
-10.791400 0.642000
-10.766600 0.638600
-10.741900 0.619200
-10.717200 0.589200
-10.692500 0.561800
-10.667800 0.535000
-10.643100 0.508200
-10.618300 0.489600
-10.593600 0.492300
-10.568900 0.494900
-10.544200 0.500200
-10.519500 0.506000
-10.494700 0.511800
-10.470000 0.517600
-10.445300 0.523300
-10.420600 0.529100
-10.395900 0.534900
-10.371200 0.540400
-10.346400 0.543400
-10.321700 0.546300
-10.297000 0.549300
-10.272300 0.552200
-10.247600 0.555100
-10.222900 0.558000
-10.198100 0.560900
-10.173400 0.564000
-10.148700 0.567000
-10.124000 0.577900
-10.099300 0.594300
-10.074600 0.599600
-10.049800 0.605000
-10.025100 0.616600
-10.000400 0.639300
-9.975700 0.735900
-9.951000 1.168200
-9.926200 1.215400
-9.901500 1.138600
-9.876800 1.228200
-9.852100 1.366600
-9.827400 1.413000
-9.802700 1.426800
-9.777900 1.449800
-9.753200 1.485800
-9.728500 1.527300
-9.703800 1.575900
-9.679100 1.668500
-9.654400 1.779300
-9.629600 1.889600
-9.604900 1.934800
-9.580200 1.971600
-9.555500 2.212900
-9.530800 2.471200
-9.506100 2.550800
-9.481300 3.808800
-9.456600 3.011000
-9.431900 2.550900
-9.407200 2.463200
-9.382500 2.428700
-9.357700 2.385500
-9.333000 2.368400
-9.308300 2.391500
-9.283600 2.414500
-9.258900 2.386300
-9.234200 2.362700
-9.209400 2.348900
-9.184700 2.350200
-9.160000 2.304600
-9.135300 2.270400
-9.110600 2.256200
-9.085900 2.299800
-9.061100 2.622500
-9.036400 2.879700
-9.011700 2.321200
-8.987000 1.638500
-8.962300 1.376400
-8.937600 1.290900
-8.912800 1.205500
-8.888100 1.121200
-8.863400 1.099100
-8.838700 1.088500
-8.814000 0.949000
-8.789200 0.811700
-8.764500 0.698400
-8.739800 0.665800
-8.715100 0.645400
-8.690400 0.632700
-8.665700 0.627400
-8.640900 0.631600
-8.616200 0.639700
-8.591500 0.647100
-8.566800 0.665100
-8.542100 0.689700
-8.517400 0.726100
-8.492600 0.836400
-8.467900 0.960100
-8.443200 0.962500
-8.418500 0.947500
-8.393800 0.821100
-8.369100 0.816500
-8.344300 0.811800
-8.319600 0.807200
-8.294900 0.809400
-8.270200 0.842200
-8.245500 0.884800
-8.220700 0.969500
-8.196000 1.128800
-8.171300 1.320700
-8.146600 1.517700
-8.121900 1.424700
-8.097200 1.156900
-8.072400 0.593100
-8.047700 0.540600
-8.023000 0.490000
-7.998300 0.765100
-7.973600 0.678500
-7.948900 0.386800
-7.924100 0.302900
-7.899400 0.313600
-7.874700 0.355400
-7.850000 0.397100
-7.825300 0.438800
-7.800600 0.818300
-7.775800 1.195900
-7.751100 1.163200
-7.726400 1.314800
-7.701700 1.525400
-7.677000 1.512100
-7.652200 1.420600
-7.627500 1.425000
-7.602800 1.468800
-7.578100 1.506600
-7.553400 1.525700
-7.528700 1.547700
-7.503900 1.580500
-7.479200 1.625600
-7.454500 1.989300
-7.429800 2.068500
-7.405100 1.998000
-7.380400 1.854300
-7.355600 1.714800
-7.330900 1.641000
-7.306200 1.672100
-7.281500 1.724200
-7.256800 1.800700
-7.232100 1.856600
-7.207300 1.899400
-7.182600 1.936300
-7.157900 2.111300
-7.133200 2.085000
-7.108500 2.058800
-7.083700 2.033900
-7.059000 2.015800
-7.034300 1.999200
-7.009600 1.798500
-6.984900 1.788600
-6.960200 2.124700
-6.935400 1.764300
-6.910700 1.809900
-6.886000 1.714400
-6.861300 1.668900
-6.836600 1.648900
-6.811900 1.650500
-6.787100 1.605700
-6.762400 1.571500
-6.737700 1.590600
-6.713000 1.590800
-6.688300 1.594800
-6.663600 1.604100
-6.638800 1.616000
-6.614100 1.631600
-6.589400 1.655200
-6.564700 1.688200
-6.540000 1.725100
-6.515200 1.722700
-6.490500 1.573400
-6.465800 1.561200
-6.441100 1.590500
-6.416400 2.041700
-6.391700 1.960800
-6.366900 1.495300
-6.342200 1.229000
-6.317500 1.611100
-6.292800 1.660100
-6.268100 1.656000
-6.243400 1.610900
-6.218600 1.590800
-6.193900 1.626500
-6.169200 1.683700
-6.144500 1.964100
-6.119800 2.026000
-6.095100 1.633100
-6.070300 1.608900
-6.045600 1.841200
-6.020900 1.972600
-5.996200 2.226800
-5.971500 2.027000
-5.946700 2.077100
-5.922000 2.857800
-5.897300 2.975200
-5.872600 3.610400
-5.847900 2.838700
-5.823200 2.172900
-5.798400 1.935200
-5.773700 1.756300
-5.749000 1.711900
-5.724300 1.675100
-5.699600 1.674800
-5.674900 1.507600
-5.650100 1.576100
-5.625400 1.604000
-5.600700 1.621400
-5.576000 1.635800
-5.551300 1.648700
-5.526600 1.654500
-5.501800 1.651300
-5.477100 1.693500
-5.452400 1.699600
-5.427700 1.711800
-5.403000 1.730400
-5.378200 1.755900
-5.353500 1.854200
-5.328800 1.923000
-5.304100 1.954600
-5.279400 1.988200
-5.254700 1.981900
-5.229900 1.881400
-5.205200 1.474500
-5.180500 1.684700
-5.155800 1.261100
-5.131100 0.940900
-5.106400 0.860000
-5.081600 0.849400
-5.056900 0.855300
-5.032200 0.864700
-5.007500 0.871600
-4.982800 0.876500
-4.958100 0.881300
-4.933300 1.464200
-4.908600 1.318300
-4.883900 1.437400
-4.859200 1.459600
-4.834500 1.459500
-4.809700 1.462600
-4.785000 1.469000
-4.760300 1.639600
-4.735600 1.824300
-4.710900 3.942900
-4.686200 4.169400
-4.661400 4.620400
-4.636700 3.906300
-4.612000 2.878200
-4.587300 2.816900
-4.562600 2.868800
-4.537900 2.919200
-4.513100 3.024200
-4.488400 3.187500
-4.463700 3.289900
-4.439000 3.001400
-4.414300 2.672800
-4.389500 2.490900
-4.364800 2.245000
-4.340100 2.409400
-4.315400 2.325700
-4.290700 2.305900
-4.266000 2.548000
-4.241200 3.148400
-4.216500 3.774400
-4.191800 4.613200
-4.167100 5.495400
-4.142400 5.002900
-4.117700 5.217300
-4.092900 4.288400
-4.068200 3.493700
-4.043500 3.385500
-4.018800 3.334400
-3.994100 3.313400
-3.969400 3.407900
-3.944600 3.556300
-3.919900 3.890100
-3.895200 4.540900
-3.870500 4.885400
-3.845800 4.539500
-3.821000 4.444600
-3.796300 4.453500
-3.771600 4.539900
-3.746900 4.484100
-3.722200 4.322900
-3.697500 3.975200
-3.672700 3.169900
-3.648000 2.753600
-3.623300 2.942300
-3.598600 3.525500
-3.573900 3.623600
-3.549200 3.226800
-3.524400 3.457200
-3.499700 3.482400
-3.475000 3.113000
-3.450300 2.625500
-3.425600 2.355900
-3.400900 2.293600
-3.376100 2.274600
-3.351400 2.234000
-3.326700 2.193800
-3.302000 2.176400
-3.277300 2.240700
-3.252500 2.308600
-3.227800 2.234500
-3.203100 2.170700
-3.178400 2.183100
-3.153700 2.488200
-3.129000 2.664300
-3.104200 2.474600
-3.079500 1.980500
-3.054800 1.906500
-3.030100 1.955100
-3.005400 2.114300
-2.980700 2.219000
-2.955900 1.856400
-2.931200 1.711300
-2.906500 1.759300
-2.881800 2.166500
-2.857100 1.812800
-2.832400 2.159100
-2.807600 2.062300
-2.782900 1.994100
-2.758200 1.609300
-2.733500 1.432300
-2.708800 1.365400
-2.684000 1.316000
-2.659300 1.307700
-2.634600 1.305300
-2.609900 1.314800
-2.585200 1.327200
-2.560500 1.345600
-2.535700 1.442900
-2.511000 1.918700
-2.486300 2.568300
-2.461600 2.196600
-2.436900 1.966000
-2.412200 1.895000
-2.387400 1.814700
-2.362700 1.822600
-2.338000 1.858100
-2.313300 1.710100
-2.288600 1.733100
-2.263900 1.779900
-2.239100 1.591000
-2.214400 1.229600
-2.189700 1.370600
-2.165000 2.166600
-2.140300 1.894200
-2.115500 1.696700
-2.090800 1.483400
-2.066100 1.765600
-2.041400 1.874000
-2.016700 1.783400
-1.992000 1.699200
-1.967200 1.844000
-1.942500 1.689200
-1.917800 1.189300
-1.893100 1.025400
-1.868400 1.021100
-1.843700 1.014200
-1.818900 1.024700
-1.794200 1.041200
-1.769500 1.057700
-1.744800 1.073100
-1.720100 1.085300
-1.695400 1.094900
-1.670600 1.104700
-1.645900 1.115800
-1.621200 1.138900
-1.596500 1.242400
-1.571800 1.372800
-1.547000 1.451400
-1.522300 1.520400
-1.497600 1.591700
-1.472900 1.663100
-1.448200 2.021300
-1.423500 2.128100
-1.398700 2.112200
-1.374000 1.722200
-1.349300 1.548400
-1.324600 1.452300
-1.299900 1.426400
-1.275200 1.401400
-1.250400 1.376400
-1.225700 1.351300
-1.201000 1.354200
-1.176300 1.375800
-1.151600 1.547900
-1.126900 1.602800
-1.102100 1.697800
-1.077400 1.683400
-1.052700 1.248900
-1.028000 0.791900
-1.003300 0.555100
-0.978500 0.466400
-0.953800 0.388600
-0.929100 0.317100
-0.904400 0.293000
-0.879700 0.291800
-0.855000 0.299300
-0.830200 0.325100
-0.805500 0.365800
-0.780800 0.414100
-0.756100 0.483900
-0.731400 0.717900
-0.706700 1.116600
-0.681900 1.519500
-0.657200 1.853300
-0.632500 2.072000
-0.607800 2.012600
-0.583100 1.759600
-0.558400 1.509600
-0.533600 1.286300
-0.508900 1.211100
-0.484200 1.204300
-0.459500 1.205800
-0.434800 1.207800
-0.410000 1.217000
-0.385300 1.238100
-0.360600 1.268400
-0.335900 1.303900
-0.311200 1.346700
-0.286500 1.380300
-0.261700 1.414100
-0.237000 1.451000
-0.212300 1.492400
-0.187600 1.560200
-0.162900 1.738800
-0.138200 1.986400
-0.113400 2.240400
-0.088700 2.827100
-0.064000 3.365500
-0.039300 2.696000
-0.014600 2.462600
0.010100 2.329500
0.034900 2.241700
0.059600 2.083300
0.084300 2.087100
0.109000 2.193100
0.133700 2.063600
0.158500 2.013700
0.183200 1.839400
0.207900 1.730700
0.232600 1.677900
0.257300 1.460400
0.282000 1.331700
0.306800 1.529100
0.331500 1.620000
0.356200 1.857800
0.380900 2.139200
0.405600 2.734100
0.430300 3.084900
0.455100 2.963500
0.479800 3.167700
0.504500 2.820600
0.529200 2.893500
0.553900 2.965000
0.578600 3.169700
0.603400 3.840800
0.628100 4.665500
0.652800 4.804900
0.677500 5.101300
0.702200 5.389900
0.727000 5.869500
0.751700 4.618500
0.776400 4.393900
0.801100 3.553000
0.825800 4.111000
0.850500 5.630700
0.875300 5.788300
0.900000 5.905600
0.924700 5.471200
0.949400 5.283800
0.974100 5.303600
0.998800 5.132200
1.023600 4.161000
1.048300 4.132200
1.073000 4.264700
1.097700 4.585800
1.122400 4.812800
1.147100 5.007000
1.171900 5.215000
1.196600 5.483100
1.221300 5.086400
1.246000 3.838600
1.270700 2.992900
1.295500 2.494500
1.320200 2.200600
1.344900 2.175400
1.369600 2.185200
1.394300 2.379100
1.419000 2.631200
1.443800 2.179200
1.468500 2.077000
1.493200 1.980600
1.517900 1.697400
1.542600 1.650100
1.567300 1.648400
1.592100 1.661500
1.616800 1.671600
1.641500 1.673500
1.666200 1.653000
1.690900 1.563400
1.715600 1.519400
1.740400 1.601400
1.765100 1.687900
1.789800 1.473300
1.814500 1.431600
1.839200 1.426900
1.864000 1.578700
1.888700 1.964600
1.913400 1.160400
1.938100 1.116500
1.962800 1.054600
1.987500 0.977200
2.012300 0.897200
2.037000 0.805200
2.061700 0.779200
2.086400 0.767700
2.111100 0.756300
2.135800 0.744800
2.160600 0.733300
2.185300 0.721900
2.210000 0.710200
2.234700 0.692500
2.259400 0.673200
2.284100 0.653800
2.308900 0.634500
2.333600 0.620400
2.358300 0.609700
2.383000 0.599600
2.407700 0.587000
2.432500 0.576400
2.457200 0.567000
2.481900 0.557600
2.506600 0.548200
2.531300 0.538800
2.556000 0.529400
2.580800 0.520000
2.605500 0.510600
2.630200 0.489000
2.654900 0.482300
2.679600 0.475600
2.704300 0.469400
2.729100 0.463600
2.753800 0.457900
2.778500 0.452100
2.803200 0.446400
2.827900 0.440600
2.852600 0.436200
2.877400 0.433800
2.902100 0.439700
2.926800 0.438000
2.951500 0.426500
2.976200 0.415000
3.001000 0.403900
3.025700 0.396600
3.050400 0.389300
3.075100 0.381900
3.099800 0.374600
3.124500 0.367300
3.149300 0.360000
3.174000 0.352700
3.198700 0.345400
3.223400 0.341100
3.248100 0.339900
3.272800 0.345400
3.297600 0.358000
3.322300 0.370700
3.347000 0.371400
3.371700 0.367900
3.396400 0.376800
3.421100 0.391400
3.445900 0.411300
3.470600 0.424700
3.495300 0.428300
3.520000 0.428100
3.544700 0.768600
3.569500 0.232000
3.594200 0.258700
3.618900 0.291400
3.643600 0.319700
3.668300 0.343800
3.693000 0.363600
3.717800 0.379100
3.742500 0.382700
3.767200 0.386500
3.791900 0.391600
3.816600 0.398300
3.841300 0.406500
3.866100 0.417700
3.890800 0.430000
3.915500 0.441800
3.940200 0.452800
3.964900 0.464000
3.989600 0.475300
4.014400 0.486600
4.039100 0.497700
4.063800 0.512400
4.088500 0.530100
4.113200 0.548300
4.138000 0.566500
4.162700 0.585700
4.187400 0.604900
4.212100 0.626000
4.236800 0.648200
4.261500 0.670200
4.286300 0.693000
4.311000 0.728900
4.335700 0.779600
4.360400 0.833600
4.385100 0.893400
4.409800 0.966300
4.434600 1.320100
4.459300 1.758000
4.484000 2.190300
4.508700 2.542300
4.533400 2.930200
4.558100 2.918700
4.582900 3.083200
4.607600 3.111700
4.632300 3.021000
4.657000 2.923400
4.681700 2.930000
4.706500 3.474000
4.731200 2.526900
4.755900 2.790400
4.780600 3.025200
4.805300 3.206200
4.830000 3.064100
4.854800 2.952400
4.879500 2.689500
4.904200 2.349000
4.928900 2.103200
4.953600 2.303000
4.978300 3.077900
5.003100 3.877100
5.027800 4.725400
5.052500 4.820100
5.077200 4.800800
5.101900 5.460100
5.126600 5.339200
5.151400 5.036700
5.176100 4.676400
5.200800 4.385400
5.225500 3.878300
5.250200 3.832200
5.275000 3.772000
5.299700 4.143200
5.324400 3.466700
5.349100 3.285900
5.373800 3.156500
5.398500 3.385400
5.423300 2.980400
5.448000 2.854800
5.472700 2.810200
5.497400 2.847800
5.522100 2.915900
5.546800 2.938500
5.571600 3.271400
5.596300 3.591100
5.621000 3.972600
5.645700 4.064300
5.670400 3.978900
5.695100 4.007500
5.719900 3.932700
5.744600 3.635500
5.769300 3.229600
5.794000 3.006300
5.818700 2.603600
5.843500 2.366800
5.868200 2.225900
5.892900 2.091900
5.917600 2.041800
5.942300 1.867200
5.967000 1.633800
5.991800 1.550400
6.016500 1.471000
6.041200 1.391000
6.065900 1.314600
6.090600 1.252100
6.115300 1.203400
6.140100 1.163600
6.164800 1.137100
6.189500 1.339600
6.214200 1.511900
6.238900 1.607100
6.263600 1.786600
6.288400 2.063100
6.313100 2.208900
6.337800 2.281900
6.362500 2.301700
6.387200 2.304600
6.412000 2.212200
6.436700 1.934500
6.461400 1.704100
6.486100 1.733700
