set title 'mp-1062078 - Density of States'
set xlabel 'Energy (eV)'
set ylabel 'DOS (states/eV)'
set grid
set xrange [-10:10]
set yrange [0:11.130]
set xzeroaxis lt -1
set terminal png size 800,600
set output 'mp-1062078_dos_gnuplot.png'
plot '-' using 1:2 with lines title 'DOS'
-25.065900 0.000000
-25.025500 0.000000
-24.985100 0.000000
-24.944800 0.000000
-24.904400 0.000000
-24.864000 0.000000
-24.823600 0.000000
-24.783200 0.000000
-24.742800 0.000000
-24.702400 0.000000
-24.662000 0.000000
-24.621700 0.000000
-24.581300 0.000000
-24.540900 0.000000
-24.500500 0.000000
-24.460100 0.000000
-24.419700 0.000000
-24.379300 0.000000
-24.338900 0.000000
-24.298600 0.000000
-24.258200 0.000000
-24.217800 0.000000
-24.177400 0.000000
-24.137000 0.000000
-24.096600 0.000000
-24.056200 0.000000
-24.015900 0.000000
-23.975500 0.000000
-23.935100 0.000000
-23.894700 0.000000
-23.854300 0.000000
-23.813900 0.000000
-23.773500 0.000000
-23.733100 0.000000
-23.692800 0.000000
-23.652400 0.000000
-23.612000 0.000000
-23.571600 0.000000
-23.531200 0.000000
-23.490800 0.000000
-23.450400 0.000000
-23.410000 0.000000
-23.369700 0.000000
-23.329300 0.000000
-23.288900 0.000000
-23.248500 0.000000
-23.208100 0.000000
-23.167700 0.000000
-23.127300 0.000000
-23.087000 0.000000
-23.046600 0.000000
-23.006200 0.000000
-22.965800 0.000000
-22.925400 0.000000
-22.885000 0.000000
-22.844600 0.000000
-22.804200 0.000000
-22.763900 0.000000
-22.723500 0.000000
-22.683100 0.000000
-22.642700 0.000000
-22.602300 0.000000
-22.561900 0.000000
-22.521500 0.000000
-22.481100 0.000000
-22.440800 0.000000
-22.400400 0.000000
-22.360000 0.000000
-22.319600 0.000000
-22.279200 0.000000
-22.238800 0.000000
-22.198400 0.000000
-22.158100 0.000000
-22.117700 0.000000
-22.077300 0.000000
-22.036900 0.000000
-21.996500 0.000000
-21.956100 0.000000
-21.915700 0.000000
-21.875300 0.000000
-21.835000 0.000000
-21.794600 0.000000
-21.754200 0.000000
-21.713800 0.000000
-21.673400 0.000000
-21.633000 0.000000
-21.592600 0.000000
-21.552200 0.000000
-21.511900 0.005200
-21.471500 0.217100
-21.431100 2.889400
-21.390700 13.402800
-21.350300 26.013000
-21.309900 28.798000
-21.269500 20.493300
-21.229200 10.901700
-21.188800 16.950700
-21.148400 19.977100
-21.108000 7.896100
-21.067600 0.980800
-21.027200 0.037200
-20.986800 0.000400
-20.946400 0.000000
-20.906100 0.000000
-20.865700 0.000000
-20.825300 0.000000
-20.784900 0.000000
-20.744500 0.000000
-20.704100 0.000000
-20.663700 0.000000
-20.623300 0.000000
-20.583000 0.000000
-20.542600 0.000000
-20.502200 0.000000
-20.461800 0.000000
-20.421400 0.000000
-20.381000 0.000000
-20.340600 0.000000
-20.300300 0.000000
-20.259900 0.000000
-20.219500 0.000000
-20.179100 0.000000
-20.138700 0.000000
-20.098300 0.000000
-20.057900 0.000000
-20.017500 0.000000
-19.977200 0.000000
-19.936800 0.000000
-19.896400 0.000000
-19.856000 0.000000
-19.815600 0.000000
-19.775200 0.000000
-19.734800 0.000000
-19.694400 0.000000
-19.654100 0.000000
-19.613700 0.000000
-19.573300 0.000000
-19.532900 0.000000
-19.492500 0.000000
-19.452100 0.000000
-19.411700 0.000000
-19.371400 0.000000
-19.331000 0.000000
-19.290600 0.000000
-19.250200 0.000000
-19.209800 0.000000
-19.169400 0.000000
-19.129000 0.000000
-19.088600 0.000000
-19.048300 0.000000
-19.007900 0.000000
-18.967500 0.000000
-18.927100 0.000000
-18.886700 0.000000
-18.846300 0.000000
-18.805900 0.000000
-18.765500 0.000000
-18.725200 0.000000
-18.684800 0.000000
-18.644400 0.000000
-18.604000 0.000000
-18.563600 0.000000
-18.523200 0.000000
-18.482800 0.000000
-18.442500 0.000000
-18.402100 0.000000
-18.361700 0.000000
-18.321300 0.000000
-18.280900 0.000000
-18.240500 0.000000
-18.200100 0.000000
-18.159700 0.000000
-18.119400 0.000000
-18.079000 0.000000
-18.038600 0.000000
-17.998200 0.000000
-17.957800 0.000000
-17.917400 0.000000
-17.877000 0.000000
-17.836600 0.000000
-17.796300 0.000000
-17.755900 0.000000
-17.715500 0.000000
-17.675100 0.000000
-17.634700 0.000000
-17.594300 0.000000
-17.553900 0.000000
-17.513600 0.000000
-17.473200 0.000000
-17.432800 0.000000
-17.392400 0.000000
-17.352000 0.000000
-17.311600 0.000000
-17.271200 0.000000
-17.230800 0.000000
-17.190500 0.000000
-17.150100 0.000000
-17.109700 0.000000
-17.069300 0.000000
-17.028900 0.000000
-16.988500 0.000000
-16.948100 0.000000
-16.907700 0.000000
-16.867400 0.000000
-16.827000 0.000000
-16.786600 0.000000
-16.746200 0.000000
-16.705800 0.000000
-16.665400 0.000000
-16.625000 0.000000
-16.584700 0.000000
-16.544300 0.000000
-16.503900 0.000000
-16.463500 0.000000
-16.423100 0.000000
-16.382700 0.000000
-16.342300 0.000000
-16.301900 0.000000
-16.261600 0.000000
-16.221200 0.000000
-16.180800 0.000000
-16.140400 0.000000
-16.100000 0.000000
-16.059600 0.000000
-16.019200 0.000000
-15.978800 0.000000
-15.938500 0.000000
-15.898100 0.000000
-15.857700 0.000000
-15.817300 0.000000
-15.776900 0.000000
-15.736500 0.000000
-15.696100 0.000000
-15.655800 0.000000
-15.615400 0.000000
-15.575000 0.000000
-15.534600 0.000000
-15.494200 0.000000
-15.453800 0.000000
-15.413400 0.000000
-15.373000 0.000000
-15.332700 0.000000
-15.292300 0.000000
-15.251900 0.000000
-15.211500 0.000000
-15.171100 0.000000
-15.130700 0.000000
-15.090300 0.000000
-15.049900 0.000000
-15.009600 0.000000
-14.969200 0.000000
-14.928800 0.000000
-14.888400 0.000000
-14.848000 0.000000
-14.807600 0.000000
-14.767200 0.000000
-14.726900 0.000000
-14.686500 0.000000
-14.646100 0.000000
-14.605700 0.000000
-14.565300 0.000000
-14.524900 0.000000
-14.484500 0.000000
-14.444100 0.000000
-14.403800 0.000000
-14.363400 0.000000
-14.323000 0.000000
-14.282600 0.000000
-14.242200 0.000000
-14.201800 0.000000
-14.161400 0.000000
-14.121000 0.000000
-14.080700 0.000000
-14.040300 0.000000
-13.999900 0.000000
-13.959500 0.000000
-13.919100 0.000000
-13.878700 0.000000
-13.838300 0.000000
-13.798000 0.000000
-13.757600 0.000000
-13.717200 0.000000
-13.676800 0.000000
-13.636400 0.000000
-13.596000 0.000000
-13.555600 0.000000
-13.515200 0.000000
-13.474900 0.000000
-13.434500 0.000000
-13.394100 0.000000
-13.353700 0.000000
-13.313300 0.000000
-13.272900 0.000000
-13.232500 0.000000
-13.192200 0.000000
-13.151800 0.000000
-13.111400 0.000000
-13.071000 0.000000
-13.030600 0.000000
-12.990200 0.000000
-12.949800 0.000000
-12.909400 0.000000
-12.869100 0.000000
-12.828700 0.000000
-12.788300 0.000000
-12.747900 0.000000
-12.707500 0.000000
-12.667100 0.000000
-12.626700 0.000000
-12.586300 0.000000
-12.546000 0.000000
-12.505600 0.000000
-12.465200 0.000000
-12.424800 0.000000
-12.384400 0.000000
-12.344000 0.000000
-12.303600 0.000000
-12.263300 0.000000
-12.222900 0.000000
-12.182500 0.000000
-12.142100 0.000000
-12.101700 0.000000
-12.061300 0.000000
-12.020900 0.000000
-11.980500 0.000000
-11.940200 0.000000
-11.899800 0.000000
-11.859400 0.000000
-11.819000 0.000000
-11.778600 0.000000
-11.738200 0.000000
-11.697800 0.000000
-11.657400 0.000000
-11.617100 0.000000
-11.576700 0.000000
-11.536300 0.000000
-11.495900 0.000000
-11.455500 0.000000
-11.415100 0.000000
-11.374700 0.000000
-11.334400 0.000000
-11.294000 0.000000
-11.253600 0.000000
-11.213200 0.000000
-11.172800 0.000000
-11.132400 0.000000
-11.092000 0.000000
-11.051600 0.000000
-11.011300 0.000000
-10.970900 0.000000
-10.930500 0.000000
-10.890100 0.000000
-10.849700 0.000000
-10.809300 0.000000
-10.768900 0.000000
-10.728500 0.000000
-10.688200 0.000000
-10.647800 0.000000
-10.607400 0.000000
-10.567000 0.000000
-10.526600 0.000000
-10.486200 0.000000
-10.445800 0.000000
-10.405500 0.000000
-10.365100 0.000000
-10.324700 0.000000
-10.284300 0.000000
-10.243900 0.000000
-10.203500 0.000000
-10.163100 0.000000
-10.122700 0.000000
-10.082400 0.000000
-10.042000 0.000000
-10.001600 0.000000
-9.961200 0.000000
-9.920800 0.000000
-9.880400 0.000000
-9.840000 0.000000
-9.799600 0.000000
-9.759300 0.000000
-9.718900 0.000000
-9.678500 0.000000
-9.638100 0.000000
-9.597700 0.000000
-9.557300 0.000000
-9.516900 0.000000
-9.476600 0.000000
-9.436200 0.000000
-9.395800 0.000000
-9.355400 0.000000
-9.315000 0.000000
-9.274600 0.000000
-9.234200 0.000000
-9.193800 0.000000
-9.153500 0.000000
-9.113100 0.000000
-9.072700 0.000000
-9.032300 0.000000
-8.991900 0.000000
-8.951500 0.000000
-8.911100 0.000000
-8.870700 0.000000
-8.830400 0.000000
-8.790000 0.000000
-8.749600 0.000000
-8.709200 0.000000
-8.668800 0.000000
-8.628400 0.000000
-8.588000 0.000000
-8.547700 0.000000
-8.507300 0.000000
-8.466900 0.000000
-8.426500 0.000000
-8.386100 0.000000
-8.345700 0.000000
-8.305300 0.000000
-8.264900 0.000000
-8.224600 0.000000
-8.184200 0.000000
-8.143800 0.000000
-8.103400 0.000000
-8.063000 0.000000
-8.022600 0.000000
-7.982200 0.000000
-7.941800 0.000000
-7.901500 0.000000
-7.861100 0.000000
-7.820700 0.000000
-7.780300 0.000000
-7.739900 0.000000
-7.699500 0.000000
-7.659100 0.000000
-7.618800 0.000000
-7.578400 0.000000
-7.538000 0.000000
-7.497600 0.000000
-7.457200 0.000000
-7.416800 0.000000
-7.376400 0.000000
-7.336000 0.000000
-7.295700 0.000000
-7.255300 0.000000
-7.214900 0.000000
-7.174500 0.000000
-7.134100 0.000000
-7.093700 0.000000
-7.053300 0.000000
-7.012900 0.000000
-6.972600 0.000000
-6.932200 0.000000
-6.891800 0.000000
-6.851400 0.000000
-6.811000 0.000000
-6.770600 0.000000
-6.730200 0.000000
-6.689900 0.000000
-6.649500 0.000000
-6.609100 0.000000
-6.568700 0.000000
-6.528300 0.000000
-6.487900 0.000000
-6.447500 0.000000
-6.407100 0.000000
-6.366800 0.000000
-6.326400 0.000000
-6.286000 0.000000
-6.245600 0.000000
-6.205200 0.000000
-6.164800 0.000000
-6.124400 0.000000
-6.084000 0.000000
-6.043700 0.000000
-6.003300 0.000000
-5.962900 0.000000
-5.922500 0.000000
-5.882100 0.000000
-5.841700 0.000000
-5.801300 0.000000
-5.761000 0.000000
-5.720600 0.000000
-5.680200 0.000000
-5.639800 0.000000
-5.599400 0.000000
-5.559000 0.000000
-5.518600 0.000000
-5.478200 0.000000
-5.437900 0.000000
-5.397500 0.000000
-5.357100 0.000000
-5.316700 0.000000
-5.276300 0.000000
-5.235900 0.000000
-5.195500 0.000000
-5.155100 0.000000
-5.114800 0.000000
-5.074400 0.000000
-5.034000 0.000000
-4.993600 0.000000
-4.953200 0.000000
-4.912800 0.000000
-4.872400 0.000000
-4.832100 0.000000
-4.791700 0.000000
-4.751300 0.000000
-4.710900 0.000000
-4.670500 0.000000
-4.630100 0.000000
-4.589700 0.000000
-4.549300 0.000000
-4.509000 0.000000
-4.468600 0.000000
-4.428200 0.000000
-4.387800 0.000000
-4.347400 0.000000
-4.307000 0.000000
-4.266600 0.000000
-4.226200 0.000000
-4.185900 0.000000
-4.145500 0.000000
-4.105100 0.000000
-4.064700 0.000000
-4.024300 0.000000
-3.983900 0.000000
-3.943500 0.000000
-3.903200 0.000000
-3.862800 0.000000
-3.822400 0.000000
-3.782000 0.000000
-3.741600 0.000000
-3.701200 0.000000
-3.660800 0.000000
-3.620400 0.000000
-3.580100 0.000000
-3.539700 0.000000
-3.499300 0.000000
-3.458900 0.000000
-3.418500 0.000000
-3.378100 0.000000
-3.337700 0.000000
-3.297300 0.000000
-3.257000 0.000000
-3.216600 0.000000
-3.176200 0.000000
-3.135800 0.000000
-3.095400 0.000000
-3.055000 0.000000
-3.014600 0.000000
-2.974300 0.000000
-2.933900 0.000000
-2.893500 0.000000
-2.853100 0.000000
-2.812700 0.000000
-2.772300 0.000000
-2.731900 0.000000
-2.691500 0.000000
-2.651200 0.000000
-2.610800 0.000000
-2.570400 0.000100
-2.530000 0.002500
-2.489600 0.014700
-2.449200 0.033900
-2.408800 0.053700
-2.368400 0.084900
-2.328100 0.160300
-2.287700 0.205400
-2.247300 0.110400
-2.206900 0.039400
-2.166500 0.110800
-2.126100 0.259900
-2.085700 0.282100
-2.045400 0.232500
-2.005000 0.284600
-1.964600 0.316100
-1.924200 0.174300
-1.883800 0.119700
-1.843400 0.169000
-1.803000 0.348900
-1.762600 0.422100
-1.722300 0.322200
-1.681900 0.351100
-1.641500 0.400600
-1.601100 0.272500
-1.560700 0.219300
-1.520300 0.452700
-1.479900 0.617500
-1.439500 0.576200
-1.399200 0.502100
-1.358800 0.366300
-1.318400 0.248000
-1.278000 0.307800
-1.237600 0.475000
-1.197200 0.703900
-1.156800 0.752600
-1.116500 0.667400
-1.076100 0.709300
-1.035700 0.799000
-0.995300 0.806000
-0.954900 0.803000
-0.914500 0.978500
-0.874100 0.897300
-0.833700 0.617400
-0.793400 0.728700
-0.753000 1.224600
-0.712600 1.337500
-0.672200 1.309200
-0.631800 1.929700
-0.591400 2.702400
-0.551000 3.030200
-0.510600 3.397700
-0.470300 3.932000
-0.429900 3.869200
-0.389500 3.662200
-0.349100 3.785200
-0.308700 4.024000
-0.268300 3.885700
-0.227900 4.774400
-0.187600 6.659400
-0.147200 7.917100
-0.106800 8.191000
-0.066400 8.312000
-0.026000 8.762500
0.014400 9.771700
0.054800 10.118200
0.095200 9.090700
0.135500 8.535400
0.175900 9.209400
0.216300 9.496000
0.256700 9.128200
0.297100 9.136600
0.337500 8.833500
0.377900 8.240300
0.418300 8.300700
0.458600 8.310200
0.499000 8.267900
0.539400 8.396700
0.579800 8.305600
0.620200 7.880200
0.660600 7.634300
0.701000 8.148800
0.741300 8.004000
0.781700 6.524700
0.822100 4.965200
0.862500 5.030800
0.902900 5.648400
0.943300 6.095200
0.983700 6.586500
1.024100 6.522000
1.064400 6.292800
1.104800 6.279700
1.145200 5.885500
1.185600 5.277300
1.226000 5.214100
1.266400 5.829300
1.306800 6.337200
1.347200 6.390900
1.387500 6.955000
1.427900 7.304700
1.468300 7.412200
1.508700 7.751300
1.549100 7.297800
1.589500 6.771000
1.629900 6.737100
1.670200 7.213400
1.710600 7.483800
1.751000 7.077400
1.791400 6.950000
1.831800 6.981500
1.872200 6.779000
1.912600 7.410800
1.953000 6.677600
1.993300 4.518300
2.033700 3.049800
2.074100 2.320600
2.114500 2.525400
2.154900 2.932700
2.195300 2.548900
2.235700 2.069600
2.276100 2.346100
2.316400 2.516600
2.356800 2.245500
2.397200 2.706400
2.437600 3.535100
2.478000 3.546600
2.518400 3.240000
2.558800 3.548700
2.599100 3.851500
2.639500 3.404800
2.679900 2.586300
2.720300 2.440000
2.760700 2.752600
2.801100 3.320600
2.841500 3.447600
2.881900 3.511700
2.922200 3.328800
2.962600 2.482500
3.003000 2.080900
3.043400 2.118700
3.083800 2.676800
3.124200 2.684100
3.164600 1.964700
3.205000 1.727000
3.245300 2.190400
3.285700 2.892900
3.326100 3.066700
3.366500 2.476300
3.406900 1.726100
3.447300 1.529600
3.487700 1.488400
3.528000 1.195500
3.568400 0.961900
3.608800 1.182500
3.649200 1.397100
3.689600 1.896400
3.730000 2.440900
3.770400 2.326800
3.810800 2.262500
3.851100 2.116800
3.891500 1.988300
3.931900 2.446600
3.972300 2.555500
4.012700 2.061400
4.053100 1.955500
4.093500 2.337100
4.133900 2.901600
4.174200 2.676400
4.214600 2.327500
4.255000 2.348400
4.295400 2.071800
4.335800 1.819600
4.376200 1.968000
4.416600 2.183300
4.456900 2.127100
4.497300 1.617100
4.537700 1.100500
4.578100 1.564600
4.618500 2.407500
4.658900 2.149500
4.699300 1.257200
4.739700 0.908500
4.780000 1.056500
4.820400 1.068500
4.860800 0.915900
4.901200 1.056500
4.941600 1.097400
4.982000 1.058500
5.022400 0.887500
5.062800 0.694400
5.103100 0.835500
5.143500 1.149500
5.183900 1.188100
5.224300 0.896400
5.264700 0.811900
5.305100 0.783900
5.345500 0.669900
5.385800 0.713000
5.426200 0.796600
5.466600 1.065600
5.507000 1.440400
5.547400 1.294400
5.587800 0.877400
5.628200 1.077600
5.668600 1.696200
5.708900 2.012500
5.749300 1.881100
5.789700 2.132000
5.830100 2.368000
5.870500 2.009500
5.910900 2.025700
5.951300 2.938500
5.991700 3.368900
6.032000 2.998800
6.072400 2.775400
6.112800 2.848300
6.153200 3.473700
6.193600 4.134000
6.234000 3.672900
6.274400 3.900500
6.314700 4.965400
6.355100 5.287900
6.395500 4.704900
6.435900 3.971800
6.476300 3.261200
6.516700 3.074500
6.557100 3.421000
6.597500 3.452000
6.637800 3.064100
6.678200 2.264000
6.718600 2.260700
6.759000 2.781700
6.799400 2.475800
6.839800 2.072300
6.880200 2.120900
6.920500 1.714900
6.960900 1.524800
7.001300 1.885800
7.041700 2.607900
7.082100 2.824300
7.122500 2.809600
7.162900 2.686900
7.203300 2.290100
7.243600 2.158800
7.284000 2.284600
7.324400 2.576300
7.364800 3.091000
7.405200 3.370800
7.445600 3.361300
7.486000 3.108400
7.526400 2.885700
7.566700 3.081400
7.607100 3.268600
7.647500 3.494100
7.687900 3.513400
7.728300 3.278200
7.768700 2.822800
7.809100 2.814700
7.849400 2.882700
7.889800 2.426000
7.930200 1.800600
7.970600 1.804300
8.011000 2.731000
8.051400 3.199000
8.091800 2.931200
8.132200 2.997500
8.172500 3.553800
8.212900 3.750900
8.253300 2.794500
8.293700 2.160300
8.334100 2.291600
8.374500 2.213300
8.414900 1.296400
8.455300 0.807800
8.495600 1.189100
8.536000 1.829300
8.576400 2.472200
8.616800 2.884900
8.657200 2.867400
8.697600 2.100900
8.738000 1.196300
8.778300 0.672200
8.818700 0.692800
8.859100 0.763300
8.899500 0.783200
8.939900 0.836900
8.980300 0.730100
9.020700 0.692300
9.061100 0.732400
9.101400 1.189000
9.141800 1.796200
9.182200 1.630800
9.222600 1.089500
9.263000 0.871800
9.303400 0.834900
9.343800 0.855600
9.384200 1.002600
9.424500 1.257700
9.464900 1.586700
9.505300 1.502000
9.545700 0.844600
9.586100 0.404400
9.626500 0.466200
9.666900 0.704900
9.707200 0.849200
9.747600 0.772000
9.788000 0.768400
9.828400 1.050200
9.868800 0.965900
9.909200 0.835300
9.949600 1.182800
9.990000 1.229400
10.030300 0.806100
10.070700 0.556000
10.111100 0.541000
10.151500 0.557900
10.191900 0.453900
10.232300 0.518700
10.272700 0.770200
10.313100 0.737100
10.353400 0.657800
10.393800 0.688900
10.434200 0.825300
10.474600 1.177800
10.515000 1.288400
10.555400 1.303100
10.595800 1.057600
10.636100 0.865200
10.676500 0.783200
10.716900 0.504900
10.757300 0.516300
10.797700 0.875700
10.838100 0.958100
10.878500 0.691400
10.918900 0.365700
10.959200 0.289200
10.999600 0.591300
11.040000 0.771000
11.080400 0.706800
11.120800 0.608100
11.161200 0.443700
11.201600 0.626700
11.242000 0.772100
11.282300 0.687400
11.322700 0.523200
11.363100 0.397400
11.403500 0.548700
11.443900 0.691700
11.484300 0.826400
11.524700 1.004800
11.565000 0.946700
11.605400 0.684100
11.645800 0.586200
11.686200 0.641600
11.726600 0.559600
11.767000 0.739600
11.807400 0.640700
11.847800 0.387400
11.888100 0.666500
11.928500 0.848700
11.968900 0.703300
12.009300 0.483100
12.049700 0.334400
12.090100 0.546800
12.130500 0.745300
12.170900 0.564600
12.211200 0.399700
12.251600 0.411500
12.292000 0.660500
12.332400 0.979200
12.372800 1.076100
12.413200 1.482500
12.453600 1.998800
12.493900 2.149100
12.534300 2.283100
12.574700 2.905600
12.615100 3.036900
12.655500 3.199800
12.695900 3.740500
12.736300 3.446400
12.776700 2.753900
12.817000 2.297300
12.857400 1.878100
12.897800 1.500100
12.938200 1.202600
12.978600 1.143400
13.019000 1.491000
13.059400 2.153100
13.099800 2.215300
13.140100 1.979800
13.180500 2.191700
13.220900 2.528800
13.261300 2.692500
13.301700 2.878100
13.342100 2.363500
13.382500 1.800800
13.422800 1.884400
13.463200 1.830900
13.503600 1.622000
13.544000 2.053200
13.584400 2.199900
13.624800 1.900600
13.665200 1.666400
13.705600 1.437200
13.745900 1.502300
13.786300 2.278400
13.826700 3.337300
13.867100 3.411600
13.907500 2.934800
13.947900 2.263800
13.988300 1.598900
14.028700 1.424700
14.069000 1.442900
14.109400 1.363300
14.149800 1.363700
14.190200 1.500500
14.230600 1.735500
14.271000 1.793300
14.311400 1.721600
14.351700 1.387700
14.392100 1.423300
14.432500 2.026700
14.472900 2.103500
14.513300 2.069400
14.553700 1.945900
14.594100 1.696800
14.634500 1.610800
14.674800 2.011800
14.715200 2.972900
14.755600 3.305800
14.796000 2.739900
14.836400 2.589300
14.876800 2.560800
14.917200 2.212000
14.957600 2.253600
14.997900 2.311600
15.038300 2.250200
15.078700 2.217700
15.119100 2.110600
15.159500 1.868700
15.199900 1.854600
15.240300 1.737400
15.280600 1.765200
15.321000 2.221700
15.361400 2.354400
15.401800 2.274400
15.442200 2.393000
15.482600 2.265300
15.523000 1.705200
15.563400 1.281100
15.603700 1.133700
15.644100 1.247700
15.684500 1.171800
15.724900 0.969200
15.765300 1.047900
15.805700 1.366700
15.846100 1.332000
15.886500 1.218800
15.926800 1.223900
15.967200 1.119200
16.007600 1.004900
16.048000 0.978200
16.088400 1.370500
16.128800 1.842000
16.169200 1.953200
16.209500 2.032100
16.249900 2.044800
16.290300 1.622900
16.330700 1.614000
16.371100 1.781400
16.411500 1.628300
16.451900 1.490600
16.492300 1.401100
