set title 'mp-1184015 - Density of States'
set xlabel 'Energy (eV)'
set ylabel 'DOS (states/eV)'
set grid
set xrange [-10:10]
set yrange [0:5.991]
set xzeroaxis lt -1
set terminal png size 800,600
set output 'mp-1184015_dos_gnuplot.png'
plot '-' using 1:2 with lines title 'DOS'
-13.606400 0.000000
-13.578000 0.000000
-13.549600 0.000000
-13.521200 0.000000
-13.492900 0.000000
-13.464500 0.000000
-13.436100 0.000000
-13.407800 0.000000
-13.379400 0.000000
-13.351000 0.000000
-13.322600 0.000000
-13.294300 0.000000
-13.265900 0.000000
-13.237500 0.000000
-13.209200 0.000000
-13.180800 0.000000
-13.152400 0.000000
-13.124000 0.000000
-13.095700 0.000000
-13.067300 0.000000
-13.038900 0.000000
-13.010600 0.000000
-12.982200 0.000000
-12.953800 0.000000
-12.925400 0.000000
-12.897100 0.000000
-12.868700 0.000000
-12.840300 0.000000
-12.812000 0.000000
-12.783600 0.000000
-12.755200 0.000000
-12.726800 0.000000
-12.698500 0.000000
-12.670100 0.000000
-12.641700 0.000000
-12.613300 0.000000
-12.585000 0.000000
-12.556600 0.000000
-12.528200 0.000000
-12.499900 0.000000
-12.471500 0.000000
-12.443100 0.000000
-12.414700 0.000000
-12.386400 0.000000
-12.358000 0.000000
-12.329600 0.000000
-12.301300 0.000000
-12.272900 0.000000
-12.244500 0.000000
-12.216100 0.000000
-12.187800 0.000000
-12.159400 0.000000
-12.131000 0.000000
-12.102700 0.000000
-12.074300 0.000000
-12.045900 0.000000
-12.017500 0.000000
-11.989200 0.000000
-11.960800 0.000000
-11.932400 0.000000
-11.904100 0.000000
-11.875700 0.000000
-11.847300 0.000000
-11.818900 0.000000
-11.790600 0.000000
-11.762200 0.000000
-11.733800 0.000000
-11.705500 0.000000
-11.677100 0.000000
-11.648700 0.000000
-11.620300 0.000000
-11.592000 0.000000
-11.563600 0.000000
-11.535200 0.000000
-11.506900 0.000000
-11.478500 0.000000
-11.450100 0.000000
-11.421700 0.000000
-11.393400 0.000000
-11.365000 0.000000
-11.336600 0.000000
-11.308300 0.000000
-11.279900 0.000000
-11.251500 0.000000
-11.223100 0.000000
-11.194800 0.000000
-11.166400 0.000000
-11.138000 0.000000
-11.109700 0.000000
-11.081300 0.000000
-11.052900 0.000000
-11.024500 5.705900
-10.996200 74.611600
-10.967800 28.316900
-10.939400 16.233700
-10.911100 8.929300
-10.882700 4.853100
-10.854300 3.552300
-10.825900 2.029700
-10.797600 1.131800
-10.769200 0.540400
-10.740800 0.000000
-10.712500 23.627300
-10.684100 98.388600
-10.655700 79.212100
-10.627300 52.298500
-10.599000 51.948200
-10.570600 58.001400
-10.542200 133.173800
-10.513900 79.909300
-10.485500 60.345400
-10.457100 0.000000
-10.428700 0.000000
-10.400400 0.000000
-10.372000 0.000000
-10.343600 0.000000
-10.315300 0.000000
-10.286900 0.000000
-10.258500 0.000000
-10.230100 0.000000
-10.201800 0.000000
-10.173400 0.000000
-10.145000 0.000000
-10.116700 0.000000
-10.088300 0.000000
-10.059900 0.012600
-10.031500 0.047800
-10.003200 0.092100
-9.974800 0.105100
-9.946400 0.109900
-9.918100 0.127500
-9.889700 0.146000
-9.861300 0.165400
-9.832900 0.181700
-9.804600 0.190800
-9.776200 0.197300
-9.747800 0.207000
-9.719500 0.218500
-9.691100 0.230100
-9.662700 0.241700
-9.634300 0.253300
-9.606000 0.265800
-9.577600 0.278800
-9.549200 0.287300
-9.520900 0.293900
-9.492500 0.302500
-9.464100 0.310800
-9.435700 0.318800
-9.407400 0.327000
-9.379000 0.335600
-9.350600 0.345100
-9.322300 0.354800
-9.293900 0.364800
-9.265500 0.375000
-9.237100 0.385100
-9.208800 0.414800
-9.180400 0.451300
-9.152000 0.434400
-9.123700 0.439100
-9.095300 0.443900
-9.066900 0.448100
-9.038500 0.452000
-9.010200 0.450600
-8.981800 0.448700
-8.953400 0.450000
-8.925100 0.453100
-8.896700 0.456200
-8.868300 0.459200
-8.839900 0.462000
-8.811600 0.464700
-8.783200 0.466500
-8.754800 0.500600
-8.726500 0.546400
-8.698100 0.524500
-8.669700 0.534100
-8.641300 0.544700
-8.613000 0.556100
-8.584600 0.564800
-8.556200 0.569100
-8.527900 0.574400
-8.499500 0.583300
-8.471100 0.591800
-8.442700 0.599500
-8.414400 0.607900
-8.386000 0.617700
-8.357600 0.627800
-8.329300 0.632500
-8.300900 0.640700
-8.272500 0.648400
-8.244100 0.656100
-8.215800 0.664700
-8.187400 0.673500
-8.159000 0.682400
-8.130700 0.691400
-8.102300 0.700400
-8.073900 0.709600
-8.045500 0.716800
-8.017200 0.724200
-7.988800 0.732600
-7.960400 0.741700
-7.932100 0.751300
-7.903700 0.760900
-7.875300 0.770700
-7.846900 0.780500
-7.818600 0.790600
-7.790200 0.800900
-7.761800 0.811400
-7.733400 0.822200
-7.705100 0.833600
-7.676700 0.845900
-7.648300 0.856800
-7.620000 0.868900
-7.591600 0.881100
-7.563200 0.893800
-7.534800 0.907100
-7.506500 0.920600
-7.478100 0.934300
-7.449700 0.948600
-7.421400 0.963500
-7.393000 0.978900
-7.364600 0.994600
-7.336200 1.010700
-7.307900 1.027100
-7.279500 1.043800
-7.251100 1.063900
-7.222800 1.093100
-7.194400 1.121800
-7.166000 1.154000
-7.137600 1.188500
-7.109300 1.225800
-7.080900 1.264100
-7.052500 1.300800
-7.024200 1.326700
-6.995800 1.360200
-6.967400 1.395600
-6.939000 1.561800
-6.910700 1.550800
-6.882300 1.500400
-6.853900 1.498000
-6.825600 1.484100
-6.797200 1.459300
-6.768800 1.448000
-6.740400 1.441100
-6.712100 1.458800
-6.683700 1.487900
-6.655300 1.472500
-6.627000 1.457400
-6.598600 1.455300
-6.570200 1.447400
-6.541800 1.440900
-6.513500 1.441300
-6.485100 1.439300
-6.456700 1.440900
-6.428400 1.343000
-6.400000 1.320300
-6.371600 1.309300
-6.343200 1.304200
-6.314900 1.322900
-6.286500 1.368800
-6.258100 1.441800
-6.229800 1.439900
-6.201400 1.476500
-6.173000 1.435500
-6.144600 1.398200
-6.116300 1.369700
-6.087900 1.358900
-6.059500 1.365600
-6.031200 1.383900
-6.002800 1.464200
-5.974400 1.491800
-5.946000 1.509700
-5.917700 1.465500
-5.889300 1.587700
-5.860900 1.727600
-5.832600 1.891200
-5.804200 2.158900
-5.775800 3.025900
-5.747400 2.420800
-5.719100 2.281600
-5.690700 1.812900
-5.662300 1.317200
-5.634000 0.932100
-5.605600 0.716500
-5.577200 0.506300
-5.548800 0.200400
-5.520500 0.017600
-5.492100 0.000000
-5.463700 0.000000
-5.435400 0.000000
-5.407000 0.000000
-5.378600 0.000000
-5.350200 0.000000
-5.321900 0.000000
-5.293500 0.000000
-5.265100 0.000000
-5.236800 0.000000
-5.208400 0.000000
-5.180000 0.000000
-5.151600 0.000000
-5.123300 0.000000
-5.094900 0.000000
-5.066500 0.000000
-5.038200 0.000000
-5.009800 0.000000
-4.981400 0.000000
-4.953000 0.000000
-4.924700 0.000000
-4.896300 0.000000
-4.867900 0.000000
-4.839600 0.000000
-4.811200 0.000000
-4.782800 0.000000
-4.754400 0.000000
-4.726100 0.000000
-4.697700 0.000000
-4.669300 0.000000
-4.641000 0.000000
-4.612600 0.000000
-4.584200 0.000000
-4.555800 0.000000
-4.527500 0.000000
-4.499100 0.000000
-4.470700 0.000000
-4.442400 0.000000
-4.414000 0.000000
-4.385600 0.000000
-4.357200 0.000000
-4.328900 0.000000
-4.300500 0.000000
-4.272100 0.000000
-4.243800 0.000000
-4.215400 0.000000
-4.187000 0.000000
-4.158600 0.000000
-4.130300 0.000000
-4.101900 0.000000
-4.073500 0.000000
-4.045200 0.000000
-4.016800 0.000000
-3.988400 0.000000
-3.960000 0.000000
-3.931700 0.000000
-3.903300 0.000000
-3.874900 0.000000
-3.846600 0.000000
-3.818200 0.000000
-3.789800 0.000000
-3.761400 0.000000
-3.733100 0.000000
-3.704700 0.000000
-3.676300 0.000000
-3.648000 0.000000
-3.619600 0.002800
-3.591200 0.015100
-3.562800 0.026600
-3.534500 0.037500
-3.506100 0.049200
-3.477700 0.061900
-3.449400 0.074600
-3.421000 0.086600
-3.392600 0.098500
-3.364200 0.110900
-3.335900 0.122000
-3.307500 0.127300
-3.279100 0.133700
-3.250800 0.140300
-3.222400 0.146400
-3.194000 0.152200
-3.165600 0.158200
-3.137300 0.164800
-3.108900 0.171500
-3.080500 0.178200
-3.052200 0.185000
-3.023800 0.222900
-2.995400 0.324500
-2.967000 0.504900
-2.938700 0.687700
-2.910300 0.782500
-2.881900 0.857200
-2.853500 1.028500
-2.825200 0.967900
-2.796800 1.065200
-2.768400 1.212800
-2.740100 1.382400
-2.711700 1.529800
-2.683300 1.607300
-2.654900 1.657600
-2.626600 1.774700
-2.598200 1.840800
-2.569800 1.930000
-2.541500 2.088800
-2.513100 2.239000
-2.484700 2.439600
-2.456300 2.776000
-2.428000 2.752300
-2.399600 2.608200
-2.371200 2.535400
-2.342900 2.476600
-2.314500 2.401300
-2.286100 2.068300
-2.257700 1.861100
-2.229400 1.737000
-2.201000 1.602500
-2.172600 1.514400
-2.144300 1.437400
-2.115900 1.369300
-2.087500 1.320600
-2.059100 1.279100
-2.030800 1.238600
-2.002400 1.194500
-1.974000 1.155800
-1.945700 1.134200
-1.917300 1.113800
-1.888900 1.094600
-1.860500 1.079800
-1.832200 1.060800
-1.803800 1.047700
-1.775400 1.035200
-1.747100 1.013800
-1.718700 1.013700
-1.690300 1.010400
-1.661900 1.009800
-1.633600 1.009400
-1.605200 1.009700
-1.576800 1.010700
-1.548500 1.013300
-1.520100 1.039000
-1.491700 1.067400
-1.463300 1.111500
-1.435000 1.165100
-1.406600 1.179100
-1.378200 1.220300
-1.349900 1.251100
-1.321500 1.259700
-1.293100 1.209700
-1.264700 1.177100
-1.236400 1.100200
-1.208000 0.998800
-1.179600 0.978200
-1.151300 0.962400
-1.122900 0.951100
-1.094500 1.153000
-1.066100 1.009900
-1.037800 1.019700
-1.009400 1.035800
-0.981000 1.053800
-0.952700 1.054200
-0.924300 1.044800
-0.895900 1.029600
-0.867500 1.012200
-0.839200 0.996300
-0.810800 0.981400
-0.782400 0.967200
-0.754100 0.961200
-0.725700 0.970300
-0.697300 0.965000
-0.668900 0.962000
-0.640600 0.965400
-0.612200 1.149700
-0.583800 1.148800
-0.555500 1.275400
-0.527100 1.572600
-0.498700 2.309300
-0.470300 1.344400
-0.442000 1.377000
-0.413600 1.374500
-0.385200 1.354900
-0.356900 1.329400
-0.328500 1.273100
-0.300100 1.257600
-0.271700 1.274100
-0.243400 1.340300
-0.215000 1.333000
-0.186600 1.254400
-0.158300 1.225300
-0.129900 1.210600
-0.101500 1.202600
-0.073100 1.205200
-0.044800 1.213900
-0.016400 1.229400
0.012000 1.234800
0.040300 1.256700
0.068700 1.265500
0.097100 1.278800
0.125500 1.290200
0.153800 1.310900
0.182200 1.341200
0.210600 1.337300
0.238900 1.348600
0.267300 1.370400
0.295700 1.396600
0.324100 1.413000
0.352400 1.451500
0.380800 1.472500
0.409200 1.482700
0.437500 1.525200
0.465900 1.580800
0.494300 2.163900
0.522700 1.527600
0.551000 1.538100
0.579400 1.553300
0.607800 1.569800
0.636100 1.578400
0.664500 1.590900
0.692900 1.603700
0.721300 1.621600
0.749600 1.652500
0.778000 1.684400
0.806400 1.724600
0.834700 1.777900
0.863100 1.665700
0.891500 1.657100
0.919900 1.641700
0.948200 1.627900
0.976600 1.611100
1.005000 1.593900
1.033300 1.593700
1.061700 1.592500
1.090100 1.593500
1.118500 1.618000
1.146800 1.672200
1.175200 1.812900
1.203600 2.052600
1.231900 2.471800
1.260300 1.990700
1.288700 1.965200
1.317100 1.923900
1.345400 1.930800
1.373800 2.077400
1.402200 1.969200
1.430500 2.027200
1.458900 2.088400
1.487300 2.225400
1.515700 2.235700
1.544000 2.284100
1.572400 2.348100
1.600800 2.390400
1.629100 2.399200
1.657500 2.386300
1.685900 2.452900
1.714300 2.492800
1.742600 2.532000
1.771000 2.574900
1.799400 2.633400
1.827700 2.654800
1.856100 2.771400
1.884500 3.005800
1.912900 3.340800
1.941200 3.463100
1.969600 3.385300
1.998000 3.050400
2.026400 2.808500
2.054700 2.703000
2.083100 2.656700
2.111500 2.661600
2.139800 2.762200
2.168200 2.802500
2.196600 2.770300
2.225000 2.817000
2.253300 2.921700
2.281700 3.284500
2.310100 5.446600
2.338400 3.194700
2.366800 3.072200
2.395200 2.951600
2.423600 2.854500
2.451900 2.767200
2.480300 2.748800
2.508700 2.729200
2.537000 2.663800
2.565400 2.580900
2.593800 2.557100
2.622200 2.464600
2.650500 2.399300
2.678900 2.337400
2.707300 2.294800
2.735600 2.263100
2.764000 2.234700
2.792400 2.205700
2.820800 2.172200
2.849100 2.132500
2.877500 2.092200
2.905900 2.063300
2.934200 2.044200
2.962600 2.023700
2.991000 2.002900
3.019400 1.982400
3.047700 1.962100
3.076100 1.975100
3.104500 1.968300
3.132800 1.946300
3.161200 1.927800
3.189600 1.917400
3.218000 1.900400
3.246300 1.879800
3.274700 1.854500
3.303100 1.824100
3.331400 1.819600
3.359800 1.744000
3.388200 1.629800
3.416600 1.530000
3.444900 1.526600
3.473300 1.430800
3.501700 1.323700
3.530000 1.258200
3.558400 1.215500
3.586800 1.163400
3.615200 1.113300
3.643500 1.065000
3.671900 1.019200
3.700300 0.975500
3.728600 0.934500
3.757000 0.887700
3.785400 0.856600
3.813800 0.793000
3.842100 0.731000
3.870500 0.707600
3.898900 0.689800
3.927200 0.671200
3.955600 0.647600
3.984000 0.653700
4.012400 0.608600
4.040700 0.564200
4.069100 0.538200
4.097500 0.512700
4.125800 0.494600
4.154200 0.486200
4.182600 0.468100
4.211000 0.437900
4.239300 0.415100
4.267700 0.377000
4.296100 0.340600
4.324400 0.312700
4.352800 0.308600
4.381200 0.271300
4.409600 0.217500
4.437900 0.168800
4.466300 0.158500
4.494700 0.069800
4.523000 0.000100
4.551400 0.000000
4.579800 0.000000
4.608200 0.000000
4.636500 0.000000
4.664900 0.000000
4.693300 0.000000
4.721600 0.000000
4.750000 0.000000
4.778400 0.000000
4.806800 0.000000
4.835100 0.000000
4.863500 0.000000
4.891900 0.000000
4.920200 0.000000
4.948600 0.000000
4.977000 0.000000
5.005400 0.000000
5.033700 0.000000
5.062100 0.000000
5.090500 0.000000
5.118800 0.000000
5.147200 0.000000
5.175600 0.000000
5.204000 0.000000
5.232300 0.000000
5.260700 0.000000
5.289100 0.000000
5.317400 0.000000
5.345800 0.000000
5.374200 0.000000
5.402600 0.000000
5.430900 0.000000
5.459300 0.000000
5.487700 0.000000
5.516000 0.000000
5.544400 0.000000
5.572800 0.000000
5.601200 0.000000
5.629500 0.000000
5.657900 0.000000
5.686300 0.000000
5.714600 0.000000
5.743000 0.000000
5.771400 0.000000
5.799800 0.000000
5.828100 0.000000
5.856500 0.000000
5.884900 0.000000
5.913200 0.000000
5.941600 0.000000
5.970000 0.000000
5.998400 0.000000
6.026700 0.000000
6.055100 0.000000
6.083500 0.000000
6.111800 0.000000
6.140200 0.000000
6.168600 0.000000
6.197000 0.000000
6.225300 0.000000
6.253700 0.000000
6.282100 0.000000
6.310400 0.000000
6.338800 0.000000
6.367200 0.000000
6.395600 0.000000
6.423900 0.000000
6.452300 0.000000
6.480700 0.000000
6.509000 0.000000
6.537400 0.000000
6.565800 0.000000
6.594200 0.000000
6.622500 0.000000
6.650900 0.000000
6.679300 0.000000
6.707600 0.000000
6.736000 0.000000
6.764400 0.000000
6.792800 0.000000
6.821100 0.000000
6.849500 0.000000
6.877900 0.000000
6.906200 0.000000
6.934600 0.000000
6.963000 0.000000
6.991400 0.000000
7.019700 0.000000
7.048100 0.000000
7.076500 0.000000
7.104900 0.000000
7.133200 0.000000
7.161600 0.000000
7.190000 0.000000
7.218300 0.000000
7.246700 0.000000
7.275100 0.000000
7.303500 0.009500
7.331800 0.022000
7.360200 0.059700
7.388600 0.126500
7.416900 0.205100
7.445300 0.295900
7.473700 0.380600
7.502100 0.438800
7.530400 0.473500
7.558800 0.507500
7.587200 0.527800
7.615500 0.568400
7.643900 0.609100
7.672300 0.646200
7.700700 0.677800
7.729000 0.706800
7.757400 0.727700
7.785800 0.760100
7.814100 0.801600
7.842500 0.863300
7.870900 0.933600
7.899300 1.004400
7.927600 1.071900
7.956000 1.142100
7.984400 1.237800
8.012700 1.325700
8.041100 1.388600
8.069500 1.455400
8.097900 1.521300
8.126200 1.582400
8.154600 1.623600
8.183000 1.695700
8.211300 1.798100
8.239700 1.871600
8.268100 1.888100
8.296500 1.920500
8.324800 1.936400
8.353200 1.954300
8.381600 1.976800
8.409900 1.997100
8.438300 2.023900
8.466700 2.071000
8.495100 2.116600
8.523400 2.176700
8.551800 2.214900
8.580200 2.223500
8.608500 2.208400
8.636900 2.225700
8.665300 2.304500
8.693700 2.320300
8.722000 2.288300
8.750400 2.418900
8.778800 2.202600
8.807100 1.861000
8.835500 1.724800
8.863900 1.641400
8.892300 1.623700
8.920600 1.659300
8.949000 1.703600
8.977400 1.701600
9.005700 1.648900
9.034100 1.596700
9.062500 1.605600
9.090900 1.592900
9.119200 1.485900
9.147600 1.473700
9.176000 1.465500
9.204300 1.450200
9.232700 1.465700
9.261100 1.496000
9.289500 1.529500
9.317800 1.565700
9.346200 1.607100
9.374600 1.606700
9.402900 1.592900
9.431300 1.571400
9.459700 1.569800
9.488100 1.586500
9.516400 1.622200
9.544800 1.504000
9.573200 1.544000
9.601500 1.592200
9.629900 1.638200
9.658300 1.676200
9.686700 1.705800
9.715000 1.723800
9.743400 1.681700
9.771800 1.690800
9.800100 1.741100
9.828500 1.675100
9.856900 1.635100
9.885300 1.597800
9.913600 1.566700
9.942000 1.513100
9.970400 1.438000
9.998700 1.401300
10.027100 1.414300
10.055500 1.292000
10.083900 1.268500
10.112200 1.298200
10.140600 1.348200
10.169000 1.418400
10.197300 1.556600
10.225700 1.696700
10.254100 1.771300
10.282500 1.972800
10.310800 2.206200
10.339200 2.484900
10.367600 2.805200
10.395900 3.004100
10.424300 3.013000
10.452700 2.844500
10.481100 2.547500
10.509400 2.370300
10.537800 2.199500
10.566200 2.038100
10.594500 1.998500
10.622900 2.016600
10.651300 2.033600
10.679700 2.055200
10.708000 2.158300
10.736400 2.272500
10.764800 2.440900
10.793100 2.655200
10.821500 2.755600
10.849900 3.088600
10.878300 3.038100
10.906600 3.006800
10.935000 3.008300
10.963400 2.930200
10.991700 2.834000
11.020100 2.729000
11.048500 2.725000
11.076900 2.754400
11.105200 2.829500
11.133600 2.913800
11.162000 3.106600
11.190300 3.319600
11.218700 3.242600
11.247100 3.425800
11.275500 3.985400
11.303800 4.253200
11.332200 3.919200
11.360600 2.880800
11.388900 2.157400
11.417300 1.724400
11.445700 1.458700
11.474100 1.324800
11.502400 1.257100
11.530800 1.185500
11.559200 1.102400
11.587500 1.031600
11.615900 1.019100
11.644300 0.965900
11.672700 0.907800
11.701000 0.856000
11.729400 0.819000
11.757800 0.759200
11.786100 0.700200
11.814500 0.643400
11.842900 0.590300
11.871300 0.543900
11.899600 0.507000
11.928000 0.476500
11.956400 0.437700
11.984800 0.494200
12.013100 0.902100
12.041500 1.816200
12.069900 1.907000
12.098200 1.777000
12.126600 1.816100
12.155000 1.851000
12.183400 1.940600
12.211700 2.115700
12.240100 2.368500
12.268500 2.912400
12.296800 2.998100
12.325200 2.982500
12.353600 3.271100
12.382000 3.964000
12.410300 4.168000
12.438700 4.284400
12.467100 4.235700
12.495400 3.303800
12.523800 2.657600
12.552200 2.430500
12.580600 2.527100
12.608900 2.315800
12.637300 2.241600
12.665700 2.342100
12.694000 2.335000
12.722400 2.285900
12.750800 2.255700
12.779200 2.282300
12.807500 2.345100
12.835900 2.342700
12.864300 2.408100
12.892600 2.612400
12.921000 2.710600
12.949400 2.597600
12.977800 2.483800
13.006100 2.470100
13.034500 2.641500
13.062900 2.329100
13.091200 2.211100
13.119600 2.142100
13.148000 2.070800
13.176400 1.987400
13.204700 1.942100
13.233100 1.921300
13.261500 1.909500
13.289800 1.918100
13.318200 1.951100
13.346600 2.011500
13.375000 2.075500
13.403300 2.136700
13.431700 2.218100
13.460100 2.242500
13.488400 2.321100
13.516800 2.521100
13.545200 2.895000
13.573600 3.561500
13.601900 3.419200
13.630300 3.051500
13.658700 2.650100
13.687000 2.772100
13.715400 3.236800
13.743800 2.491200
13.772200 2.149100
13.800500 1.862500
13.828900 1.776200
13.857300 1.771900
13.885600 1.826200
13.914000 2.006900
13.942400 2.309100
13.970800 2.364900
13.999100 2.580500
14.027500 2.706100
14.055900 2.860900
14.084200 2.764800
14.112600 2.470000
14.141000 2.335400
14.169400 2.344700
14.197700 2.261400
14.226100 2.086300
14.254500 2.021400
14.282800 1.975800
14.311200 1.942800
14.339600 1.868300
14.368000 1.803000
14.396300 1.754500
14.424700 1.705700
14.453100 1.657000
14.481400 1.604200
14.509800 1.547300
14.538200 1.509600
14.566600 1.493300
14.594900 1.482300
14.623300 1.464300
14.651700 1.450000
14.680000 1.430300
14.708400 1.427000
14.736800 1.424000
14.765200 1.449200
14.793500 1.418700
14.821900 1.398200
14.850300 1.375200
14.878600 1.343900
14.907000 1.335600
14.935400 1.331300
14.963800 1.328100
14.992100 1.323100
15.020500 1.330500
15.048900 1.323800
15.077200 1.315200
15.105600 1.307400
15.134000 1.300600
15.162400 1.302300
15.190700 1.302600
15.219100 1.306700
15.247500 1.307000
15.275800 1.312500
15.304200 1.318000
15.332600 1.341100
15.361000 1.406000
15.389300 1.433900
15.417700 1.434900
15.446100 1.426100
15.474400 1.439000
15.502800 1.445500
15.531200 1.453000
15.559600 1.472400
15.587900 1.499100
15.616300 1.532900
15.644700 1.579100
15.673000 1.648100
15.701400 1.693200
15.729800 1.693500
15.758200 1.621100
15.786500 1.483800
15.814900 1.431700
15.843300 1.379900
15.871600 1.369400
15.900000 1.310600
15.928400 1.159900
15.956800 1.088900
15.985100 0.955700
16.013500 0.928400
16.041900 0.905900
16.070200 0.895300
16.098600 0.873400
16.127000 0.857000
