set title 'mp-1184014 - Density of States'
set xlabel 'Energy (eV)'
set ylabel 'DOS (states/eV)'
set grid
set xrange [-10:10]
set yrange [0:115.885]
set xzeroaxis lt -1
set terminal png size 800,600
set output 'mp-1184014_dos_gnuplot.png'
plot '-' using 1:2 with lines title 'DOS'
-13.291500 0.000000
-13.269300 0.000000
-13.247200 0.000000
-13.225100 0.000000
-13.202900 0.000000
-13.180800 0.000000
-13.158600 0.000000
-13.136500 0.000000
-13.114300 0.000000
-13.092200 0.000000
-13.070100 0.000000
-13.047900 0.000000
-13.025800 0.000000
-13.003600 0.000000
-12.981500 0.000000
-12.959300 0.000000
-12.937200 0.000000
-12.915100 0.000000
-12.892900 0.000000
-12.870800 0.000000
-12.848600 0.000000
-12.826500 0.000000
-12.804300 0.000000
-12.782200 0.000000
-12.760100 0.000000
-12.737900 0.000000
-12.715800 0.000000
-12.693600 0.000000
-12.671500 0.000000
-12.649300 0.000000
-12.627200 0.000000
-12.605100 0.000000
-12.582900 0.000000
-12.560800 0.000000
-12.538600 0.000000
-12.516500 0.000000
-12.494300 0.000000
-12.472200 0.000000
-12.450100 0.000000
-12.427900 0.000000
-12.405800 0.000000
-12.383600 0.000000
-12.361500 0.000000
-12.339400 0.000000
-12.317200 0.000000
-12.295100 0.000000
-12.272900 0.000000
-12.250800 0.000000
-12.228600 0.000000
-12.206500 0.000000
-12.184400 0.000000
-12.162200 0.000000
-12.140100 0.000000
-12.117900 0.000000
-12.095800 0.000000
-12.073600 0.000000
-12.051500 0.000000
-12.029400 0.000000
-12.007200 0.000000
-11.985100 0.000000
-11.962900 0.000000
-11.940800 0.000000
-11.918600 0.000000
-11.896500 0.000000
-11.874400 0.000000
-11.852200 0.000000
-11.830100 0.000000
-11.807900 0.000000
-11.785800 0.000000
-11.763600 0.000000
-11.741500 0.000000
-11.719400 0.000000
-11.697200 0.000000
-11.675100 0.000000
-11.652900 0.000000
-11.630800 0.000000
-11.608600 0.000000
-11.586500 0.000000
-11.564400 0.000000
-11.542200 0.000000
-11.520100 0.000000
-11.497900 0.000000
-11.475800 0.000000
-11.453700 0.000000
-11.431500 0.000000
-11.409400 0.000100
-11.387200 0.001700
-11.365100 0.014000
-11.342900 0.081900
-11.320800 0.344900
-11.298700 1.067300
-11.276500 2.529400
-11.254400 4.929700
-11.232200 8.751600
-11.210100 15.317000
-11.187900 26.134000
-11.165800 40.822200
-11.143700 56.114000
-11.121500 68.051600
-11.099400 75.455500
-11.077200 80.219900
-11.055100 83.866600
-11.032900 85.983900
-11.010800 87.089400
-10.988700 89.555200
-10.966500 93.525700
-10.944400 95.338200
-10.922200 92.123200
-10.900100 85.242500
-10.877900 77.288700
-10.855800 67.442300
-10.833700 52.920400
-10.811500 34.794600
-10.789400 18.426800
-10.767200 7.806400
-10.745100 2.675500
-10.722900 0.746600
-10.700800 0.166800
-10.678700 0.028800
-10.656500 0.003700
-10.634400 0.000300
-10.612200 0.000000
-10.590100 0.000000
-10.568000 0.000000
-10.545800 0.000000
-10.523700 0.000000
-10.501500 0.000000
-10.479400 0.000000
-10.457200 0.000000
-10.435100 0.000000
-10.413000 0.000000
-10.390800 0.000000
-10.368700 0.000000
-10.346500 0.000000
-10.324400 0.000000
-10.302200 0.000000
-10.280100 0.000000
-10.258000 0.000000
-10.235800 0.000000
-10.213700 0.000000
-10.191500 0.000000
-10.169400 0.000000
-10.147200 0.000000
-10.125100 0.000000
-10.103000 0.000000
-10.080800 0.000000
-10.058700 0.000000
-10.036500 0.000000
-10.014400 0.000000
-9.992200 0.000000
-9.970100 0.000000
-9.948000 0.000000
-9.925800 0.000000
-9.903700 0.000000
-9.881500 0.000000
-9.859400 0.000000
-9.837200 0.000000
-9.815100 0.000000
-9.793000 0.000000
-9.770800 0.000000
-9.748700 0.000000
-9.726500 0.000000
-9.704400 0.000000
-9.682300 0.000000
-9.660100 0.000000
-9.638000 0.000000
-9.615800 0.000000
-9.593700 0.000000
-9.571500 0.000000
-9.549400 0.000000
-9.527300 0.000000
-9.505100 0.000000
-9.483000 0.000000
-9.460800 0.000000
-9.438700 0.000000
-9.416500 0.000000
-9.394400 0.000000
-9.372300 0.000000
-9.350100 0.000000
-9.328000 0.000000
-9.305800 0.000000
-9.283700 0.000000
-9.261500 0.000000
-9.239400 0.000000
-9.217300 0.000000
-9.195100 0.000000
-9.173000 0.000000
-9.150800 0.000000
-9.128700 0.000000
-9.106500 0.000000
-9.084400 0.000000
-9.062300 0.000000
-9.040100 0.000000
-9.018000 0.000000
-8.995800 0.000100
-8.973700 0.002900
-8.951500 0.039700
-8.929400 0.377500
-8.907300 2.464000
-8.885100 11.049700
-8.863000 34.057900
-8.840800 72.171300
-8.818700 105.158200
-8.796600 105.349800
-8.774400 72.550200
-8.752300 34.330800
-8.730100 11.156500
-8.708000 2.488100
-8.685800 0.380500
-8.663700 0.039900
-8.641600 0.002900
-8.619400 0.000100
-8.597300 0.000000
-8.575100 0.000000
-8.553000 0.000000
-8.530800 0.000000
-8.508700 0.000000
-8.486600 0.000000
-8.464400 0.000000
-8.442300 0.000000
-8.420100 0.000000
-8.398000 0.000000
-8.375800 0.000000
-8.353700 0.000000
-8.331600 0.000000
-8.309400 0.000000
-8.287300 0.000000
-8.265100 0.000000
-8.243000 0.000000
-8.220800 0.000000
-8.198700 0.000000
-8.176600 0.000000
-8.154400 0.000000
-8.132300 0.000000
-8.110100 0.000000
-8.088000 0.000000
-8.065800 0.000000
-8.043700 0.000000
-8.021600 0.000000
-7.999400 0.000000
-7.977300 0.000000
-7.955100 0.000000
-7.933000 0.000000
-7.910900 0.000000
-7.888700 0.000000
-7.866600 0.000000
-7.844400 0.000000
-7.822300 0.000000
-7.800100 0.000000
-7.778000 0.000000
-7.755900 0.000000
-7.733700 0.000000
-7.711600 0.000000
-7.689400 0.000000
-7.667300 0.000000
-7.645100 0.000000
-7.623000 0.000000
-7.600900 0.000000
-7.578700 0.000000
-7.556600 0.000000
-7.534400 0.000000
-7.512300 0.000000
-7.490100 0.000000
-7.468000 0.000000
-7.445900 0.000000
-7.423700 0.000000
-7.401600 0.000000
-7.379400 0.000000
-7.357300 0.000000
-7.335100 0.000000
-7.313000 0.000000
-7.290900 0.000000
-7.268700 0.000000
-7.246600 0.000000
-7.224400 0.000000
-7.202300 0.000000
-7.180100 0.000000
-7.158000 0.000000
-7.135900 0.000000
-7.113700 0.000000
-7.091600 0.000000
-7.069400 0.000000
-7.047300 0.000000
-7.025200 0.000000
-7.003000 0.000000
-6.980900 0.000000
-6.958700 0.000000
-6.936600 0.000000
-6.914400 0.000000
-6.892300 0.000000
-6.870200 0.000000
-6.848000 0.000000
-6.825900 0.000000
-6.803700 0.000000
-6.781600 0.000000
-6.759400 0.000000
-6.737300 0.000000
-6.715200 0.000000
-6.693000 0.000000
-6.670900 0.000000
-6.648700 0.000000
-6.626600 0.000000
-6.604400 0.000000
-6.582300 0.000000
-6.560200 0.000000
-6.538000 0.000000
-6.515900 0.000000
-6.493700 0.000000
-6.471600 0.000000
-6.449400 0.000000
-6.427300 0.000000
-6.405200 0.000000
-6.383000 0.000000
-6.360900 0.000000
-6.338700 0.000000
-6.316600 0.000000
-6.294400 0.000000
-6.272300 0.000000
-6.250200 0.000000
-6.228000 0.000000
-6.205900 0.000000
-6.183700 0.000000
-6.161600 0.000000
-6.139500 0.000000
-6.117300 0.000000
-6.095200 0.000000
-6.073000 0.000000
-6.050900 0.000000
-6.028700 0.000000
-6.006600 0.000000
-5.984500 0.000000
-5.962300 0.000000
-5.940200 0.000000
-5.918000 0.000000
-5.895900 0.000000
-5.873700 0.000000
-5.851600 0.000000
-5.829500 0.000000
-5.807300 0.000000
-5.785200 0.000000
-5.763000 0.000000
-5.740900 0.000000
-5.718700 0.000000
-5.696600 0.000000
-5.674500 0.000000
-5.652300 0.000000
-5.630200 0.000000
-5.608000 0.000000
-5.585900 0.000000
-5.563700 0.000000
-5.541600 0.000000
-5.519500 0.000000
-5.497300 0.000000
-5.475200 0.000000
-5.453000 0.000000
-5.430900 0.000000
-5.408700 0.000000
-5.386600 0.000100
-5.364500 0.000800
-5.342300 0.003800
-5.320200 0.012900
-5.298000 0.031900
-5.275900 0.060000
-5.253800 0.093100
-5.231600 0.131400
-5.209500 0.185900
-5.187300 0.270800
-5.165200 0.365900
-5.143000 0.398900
-5.120900 0.326100
-5.098800 0.207300
-5.076600 0.152200
-5.054500 0.220900
-5.032300 0.382800
-5.010200 0.537900
-4.988000 0.600600
-4.965900 0.584100
-4.943800 0.576100
-4.921600 0.619900
-4.899500 0.636800
-4.877300 0.530800
-4.855200 0.349800
-4.833000 0.234900
-4.810900 0.250300
-4.788800 0.364200
-4.766600 0.535300
-4.744500 0.716300
-4.722300 0.827800
-4.700200 0.842800
-4.678000 0.843400
-4.655900 0.888700
-4.633800 0.891100
-4.611600 0.740000
-4.589500 0.488400
-4.567300 0.313300
-4.545200 0.331900
-4.523000 0.523200
-4.500900 0.783300
-4.478800 1.002400
-4.456600 1.098800
-4.434500 1.058200
-4.412300 0.954400
-4.390200 0.859200
-4.368100 0.774600
-4.345900 0.687700
-4.323800 0.625900
-4.301600 0.627200
-4.279500 0.692700
-4.257300 0.799000
-4.235200 0.907500
-4.213100 0.958100
-4.190900 0.954200
-4.168800 1.006600
-4.146600 1.168200
-4.124500 1.305600
-4.102300 1.237800
-4.080200 0.968100
-4.058100 0.741900
-4.035900 0.831300
-4.013800 1.229200
-3.991600 1.610000
-3.969500 1.661100
-3.947300 1.391100
-3.925200 1.049500
-3.903100 0.830500
-3.880900 0.732000
-3.858800 0.652300
-3.836600 0.545300
-3.814500 0.465600
-3.792300 0.498500
-3.770200 0.675500
-3.748100 0.945600
-3.725900 1.223100
-3.703800 1.472300
-3.681600 1.705100
-3.659500 1.904600
-3.637300 1.991900
-3.615200 1.859800
-3.593100 1.486500
-3.570900 1.043800
-3.548800 0.784000
-3.526600 0.798900
-3.504500 0.967000
-3.482400 1.125000
-3.460200 1.220100
-3.438100 1.265100
-3.415900 1.240100
-3.393800 1.121600
-3.371600 0.936600
-3.349500 0.748400
-3.327400 0.629600
-3.305200 0.624400
-3.283100 0.683500
-3.260900 0.699300
-3.238800 0.671400
-3.216600 0.715700
-3.194500 0.874000
-3.172400 1.083700
-3.150200 1.303700
-3.128100 1.492400
-3.105900 1.545800
-3.083800 1.406600
-3.061600 1.168400
-3.039500 0.998100
-3.017400 0.976700
-2.995200 1.030500
-2.973100 1.019900
-2.950900 0.905600
-2.928800 0.803900
-2.906600 0.857900
-2.884500 1.125100
-2.862400 1.560100
-2.840200 1.980700
-2.818100 2.177500
-2.795900 2.138500
-2.773800 1.987600
-2.751600 1.812300
-2.729500 1.672600
-2.707400 1.593500
-2.685200 1.548400
-2.663100 1.523800
-2.640900 1.519400
-2.618800 1.493700
-2.596700 1.394900
-2.574500 1.225600
-2.552400 1.095000
-2.530200 1.189900
-2.508100 1.529300
-2.485900 1.837900
-2.463800 1.891200
-2.441700 1.776300
-2.419500 1.615700
-2.397400 1.391500
-2.375200 1.213600
-2.353100 1.328700
-2.330900 1.702900
-2.308800 1.956600
-2.286700 1.851300
-2.264500 1.537300
-2.242400 1.250300
-2.220200 1.101500
-2.198100 1.158200
-2.175900 1.420200
-2.153800 1.726500
-2.131700 1.858400
-2.109500 1.750800
-2.087400 1.531100
-2.065200 1.352000
-2.043100 1.311100
-2.020900 1.461700
-1.998800 1.732100
-1.976700 1.948900
-1.954500 2.035900
-1.932400 2.103600
-1.910200 2.289400
-1.888100 2.525100
-1.865900 2.552600
-1.843800 2.207500
-1.821700 1.642400
-1.799500 1.236700
-1.777400 1.259800
-1.755200 1.645600
-1.733100 2.088900
-1.711000 2.351500
-1.688800 2.448700
-1.666700 2.459500
-1.644500 2.381500
-1.622400 2.309800
-1.600200 2.396100
-1.578100 2.566700
-1.556000 2.600600
-1.533800 2.459100
-1.511700 2.286700
-1.489500 2.145800
-1.467400 1.989500
-1.445200 1.834400
-1.423100 1.756900
-1.401000 1.778500
-1.378800 1.873700
-1.356700 2.036800
-1.334500 2.222400
-1.312400 2.284000
-1.290200 2.167500
-1.268100 2.068900
-1.246000 2.168800
-1.223800 2.350200
-1.201700 2.408100
-1.179500 2.369000
-1.157400 2.342000
-1.135200 2.247900
-1.113100 2.010600
-1.091000 1.803600
-1.068800 1.790800
-1.046700 1.820700
-1.024500 1.651700
-1.002400 1.341400
-0.980200 1.188000
-0.958100 1.318400
-0.936000 1.491300
-0.913800 1.425200
-0.891700 1.189000
-0.869500 1.025600
-0.847400 0.972400
-0.825300 0.910100
-0.803100 0.806400
-0.781000 0.731400
-0.758800 0.709700
-0.736700 0.677500
-0.714500 0.605000
-0.692400 0.538900
-0.670300 0.495200
-0.648100 0.437500
-0.626000 0.365600
-0.603800 0.323300
-0.581700 0.340800
-0.559500 0.427400
-0.537400 0.561300
-0.515300 0.664800
-0.493100 0.662500
-0.471000 0.561600
-0.448800 0.440500
-0.426700 0.370900
-0.404500 0.360900
-0.382400 0.365900
-0.360300 0.337100
-0.338100 0.266800
-0.316000 0.194300
-0.293800 0.153700
-0.271700 0.139600
-0.249500 0.134600
-0.227400 0.129100
-0.205300 0.114800
-0.183100 0.085600
-0.161000 0.049400
-0.138800 0.021000
-0.116700 0.006400
-0.094500 0.001900
-0.072400 0.003800
-0.050300 0.016800
-0.028100 0.052900
-0.006000 0.114300
0.016200 0.170000
0.038300 0.178600
0.060400 0.149900
0.082600 0.142500
0.104700 0.188900
0.126900 0.274100
0.149000 0.396700
0.171200 0.570500
0.193300 0.738000
0.215400 0.791500
0.237600 0.724900
0.259700 0.657600
0.281900 0.678000
0.304000 0.742700
0.326200 0.776500
0.348300 0.834300
0.370400 1.052400
0.392600 1.432700
0.414700 1.779600
0.436900 1.908400
0.459000 1.872100
0.481200 1.822500
0.503300 1.722200
0.525400 1.473000
0.547600 1.165000
0.569700 0.953100
0.591900 0.916300
0.614000 1.137800
0.636200 1.649100
0.658300 2.252500
0.680400 2.684900
0.702600 2.932400
0.724700 3.083400
0.746900 3.082500
0.769000 2.917100
0.791200 2.769700
0.813300 2.756500
0.835400 2.705200
0.857600 2.431400
0.879700 2.094000
0.901900 1.974400
0.924000 2.062900
0.946100 2.106700
0.968300 1.925300
0.990400 1.542800
1.012600 1.113600
1.034700 0.832700
1.056900 0.834600
1.079000 1.095300
1.101100 1.428900
1.123300 1.590700
1.145400 1.474000
1.167600 1.209800
1.189700 0.969900
1.211900 0.779000
1.234000 0.616700
1.256100 0.533300
1.278300 0.560900
1.300400 0.633800
1.322600 0.661700
1.344700 0.627500
1.366900 0.596700
1.389000 0.625500
1.411100 0.666400
1.433300 0.621600
1.455400 0.481100
1.477600 0.349700
1.499700 0.338600
1.521900 0.453000
1.544000 0.590100
1.566100 0.635500
1.588300 0.548600
1.610400 0.377500
1.632600 0.210300
1.654700 0.106600
1.676900 0.068800
1.699000 0.071500
1.721100 0.106200
1.743300 0.184800
1.765400 0.290800
1.787600 0.357400
1.809700 0.329200
1.831800 0.226200
1.854000 0.116400
1.876100 0.048300
1.898300 0.028700
1.920400 0.045000
1.942600 0.076600
1.964700 0.099900
1.986800 0.108900
2.009000 0.121500
2.031100 0.139200
2.053300 0.133900
2.075400 0.095600
2.097600 0.056100
2.119700 0.059000
2.141800 0.132800
2.164000 0.268700
2.186100 0.404400
2.208300 0.478500
2.230400 0.490100
2.252600 0.446700
2.274700 0.336300
2.296800 0.198000
2.319000 0.107100
2.341100 0.085700
2.363300 0.092300
2.385400 0.087500
2.407600 0.083200
2.429700 0.135200
2.451800 0.288800
2.474000 0.521500
2.496100 0.745800
2.518300 0.890500
2.540400 0.968600
2.562600 1.051800
2.584700 1.175900
2.606800 1.261200
2.629000 1.174700
2.651100 0.916300
2.673300 0.673100
2.695400 0.607100
2.717500 0.652300
2.739700 0.635500
2.761800 0.534900
2.784000 0.485900
2.806100 0.590900
2.828300 0.816700
2.850400 1.012000
2.872500 1.034300
2.894700 0.921500
2.916800 0.851100
2.939000 0.890900
2.961100 0.928700
2.983300 0.869200
3.005400 0.758600
3.027500 0.717400
3.049700 0.833500
3.071800 1.077100
3.094000 1.325800
3.116100 1.505500
3.138300 1.613200
3.160400 1.642700
3.182500 1.613200
3.204700 1.590400
3.226800 1.622000
3.249000 1.679600
3.271100 1.665900
3.293300 1.573600
3.315400 1.582200
3.337500 1.787000
3.359700 1.960200
3.381800 1.836200
3.404000 1.495400
3.426100 1.267700
3.448300 1.349000
3.470400 1.620000
3.492500 1.815900
3.514700 1.801100
3.536800 1.662900
3.559000 1.569800
3.581100 1.596000
3.603200 1.708200
3.625400 1.836500
3.647500 1.927400
3.669700 1.998000
3.691800 2.110000
3.714000 2.244400
3.736100 2.277300
3.758200 2.138600
3.780400 1.963000
3.802500 1.964100
3.824700 2.142800
3.846800 2.316600
3.869000 2.476900
3.891100 2.839100
3.913200 3.457700
3.935400 4.094700
3.957500 4.564100
3.979700 4.814900
4.001800 4.640500
4.024000 3.886900
4.046100 2.943800
4.068200 2.408200
4.090400 2.358300
4.112500 2.432200
4.134700 2.415000
4.156800 2.410700
4.179000 2.561000
4.201100 2.814200
4.223200 3.042700
4.245400 3.240800
4.267500 3.435700
4.289700 3.533200
4.311800 3.379500
4.334000 2.981500
4.356100 2.647800
4.378200 2.684200
4.400400 2.931400
4.422500 2.940800
4.444700 2.587600
4.466800 2.184100
4.488900 2.037200
4.511100 2.136400
4.533200 2.260400
4.555400 2.257900
4.577500 2.162800
4.599700 2.068600
4.621800 2.001800
4.643900 1.942300
4.666100 1.908000
4.688200 1.989600
4.710400 2.246500
4.732500 2.540300
4.754700 2.598500
4.776800 2.319700
4.798900 1.907000
4.821100 1.652100
4.843200 1.701800
4.865400 2.041000
4.887500 2.523900
4.909700 2.887000
4.931800 2.939300
4.953900 2.779600
4.976100 2.659000
4.998200 2.626700
5.020400 2.450600
5.042500 1.993100
5.064700 1.501300
5.086800 1.300000
5.108900 1.374800
5.131100 1.471200
5.153200 1.480000
5.175400 1.555900
5.197500 1.838700
5.219700 2.176300
5.241800 2.283100
5.263900 2.105000
5.286100 1.811200
5.308200 1.564900
5.330400 1.483300
5.352500 1.565700
5.374600 1.589100
5.396800 1.389700
5.418900 1.182500
5.441100 1.304600
5.463200 1.745100
5.485400 2.138100
5.507500 2.181400
5.529600 1.926000
5.551800 1.622300
5.573900 1.448500
5.596100 1.426900
5.618200 1.437700
5.640400 1.332200
5.662500 1.175200
5.684600 1.291600
5.706800 1.893300
5.728900 2.681100
5.751100 3.077600
5.773200 2.968000
5.795400 2.857800
5.817500 3.118800
5.839600 3.497000
5.861800 3.561500
5.883900 3.290100
5.906100 2.959900
5.928200 2.691300
5.950400 2.403900
5.972500 2.101900
5.994600 1.918600
6.016800 1.937500
6.038900 2.089500
6.061100 2.165200
6.083200 2.010900
6.105400 1.719200
6.127500 1.442300
6.149600 1.175800
6.171800 0.931600
6.193900 0.891700
6.216100 1.224300
6.238200 1.851400
6.260300 2.460800
6.282500 2.742800
6.304600 2.598400
6.326800 2.184500
6.348900 1.840700
6.371100 1.839700
6.393200 2.119600
6.415300 2.353700
6.437500 2.318000
6.459600 2.106300
6.481800 1.917600
6.503900 1.782100
6.526100 1.625600
6.548200 1.439600
6.570300 1.264000
6.592500 1.103100
6.614600 0.963800
6.636800 0.927900
6.658900 1.099400
6.681100 1.469000
6.703200 1.861500
6.725300 2.083700
6.747500 2.134100
6.769600 2.215100
6.791800 2.525400
6.813900 3.018200
6.836100 3.400900
6.858200 3.445500
6.880300 3.218700
6.902500 2.969100
6.924600 2.908200
6.946800 3.075900
6.968900 3.303500
6.991100 3.281100
7.013200 2.788300
7.035300 1.982700
7.057500 1.289100
7.079600 0.975600
7.101800 1.040200
7.123900 1.363000
7.146000 1.740200
7.168200 1.981900
7.190300 2.152200
7.212500 2.437200
7.234600 2.756200
7.256800 2.870100
7.278900 2.818600
7.301000 2.871200
7.323200 3.052200
7.345300 3.095900
7.367500 2.938300
7.389600 2.836300
7.411800 2.971300
7.433900 3.227300
7.456000 3.245200
7.478200 2.703100
7.500300 1.754300
7.522500 0.952700
7.544600 0.661200
7.566800 0.794900
7.588900 1.074100
7.611000 1.323100
7.633200 1.531200
7.655300 1.738100
7.677500 1.973000
7.699600 2.281400
7.721800 2.648900
7.743900 2.919700
7.766000 2.920400
7.788200 2.650000
7.810300 2.344400
7.832500 2.327800
7.854600 2.701300
7.876800 3.187100
7.898900 3.410500
7.921000 3.317800
7.943200 3.123800
7.965300 2.935000
7.987500 2.674500
8.009600 2.324200
8.031700 2.074000
8.053900 2.183200
8.076000 2.660300
8.098200 3.089400
8.120300 3.017600
8.142500 2.579600
8.164600 2.371100
8.186700 2.685600
8.208900 3.219900
8.231000 3.572600
8.253200 3.780100
8.275300 4.072300
8.297500 4.325900
8.319600 4.264700
8.341700 3.961900
8.363900 3.677500
8.386000 3.473000
8.408200 3.285500
8.430300 3.080300
8.452500 2.821600
8.474600 2.552100
8.496700 2.432500
8.518900 2.534000
8.541000 2.725100
8.563200 2.859600
8.585300 2.957200
8.607500 3.051400
8.629600 2.969800
8.651700 2.542500
8.673900 1.956200
8.696000 1.614400
8.718200 1.682700
8.740300 1.982500
8.762500 2.286000
8.784600 2.519600
8.806700 2.687900
8.828900 2.760000
8.851000 2.720200
8.873200 2.666500
8.895300 2.715000
8.917400 2.826500
8.939600 2.868000
8.961700 2.788100
8.983900 2.632100
9.006000 2.474600
9.028200 2.431700
9.050300 2.663100
9.072400 3.213300
9.094600 3.845100
9.116700 4.165600
9.138900 3.994800
9.161000 3.559100
9.183200 3.236600
9.205300 3.184800
9.227400 3.321900
9.249600 3.557300
9.271700 3.829000
9.293900 3.958900
9.316000 3.774700
9.338200 3.395900
9.360300 3.122000
9.382400 3.078100
9.404600 3.159100
9.426700 3.231300
9.448900 3.252600
9.471000 3.229700
9.493200 3.160900
9.515300 3.032900
9.537400 2.834700
9.559600 2.609500
9.581700 2.462300
9.603900 2.429400
9.626000 2.449400
9.648200 2.508300
9.670300 2.602400
9.692400 2.601900
9.714600 2.441400
9.736700 2.333900
9.758900 2.476200
9.781000 2.728900
9.803100 2.875800
9.825300 2.949500
9.847400 3.041500
9.869600 3.046000
9.891700 2.838500
9.913900 2.503300
9.936000 2.203900
9.958100 2.034700
9.980300 2.070900
