set title 'mp-1652 - Density of States'
set xlabel 'Energy (eV)'
set ylabel 'DOS (states/eV)'
set grid
set xrange [-10:10]
set yrange [0:19.150]
set xzeroaxis lt -1
set terminal png size 800,600
set output 'mp-1652_dos_gnuplot.png'
plot '-' using 1:2 with lines title 'DOS'
-6.411300 0.000000
-6.394300 0.000000
-6.377300 0.000000
-6.360300 0.000000
-6.343300 0.000000
-6.326200 0.000000
-6.309200 0.000000
-6.292200 0.000000
-6.275200 0.000000
-6.258200 0.000000
-6.241100 0.000000
-6.224100 0.000000
-6.207100 0.000000
-6.190100 0.000000
-6.173100 0.000000
-6.156100 0.000000
-6.139000 0.000000
-6.122000 0.000000
-6.105000 0.000000
-6.088000 0.000000
-6.071000 0.000000
-6.053900 0.000000
-6.036900 0.000000
-6.019900 0.000000
-6.002900 0.000000
-5.985900 0.000000
-5.968800 0.000000
-5.951800 0.000000
-5.934800 0.000000
-5.917800 0.000000
-5.900800 0.000000
-5.883700 0.000000
-5.866700 0.000000
-5.849700 0.000000
-5.832700 0.000000
-5.815700 0.000000
-5.798700 0.000000
-5.781600 0.000000
-5.764600 0.000000
-5.747600 0.000000
-5.730600 0.000000
-5.713600 0.000000
-5.696500 0.000000
-5.679500 0.000000
-5.662500 0.000000
-5.645500 0.000000
-5.628500 0.000000
-5.611400 0.000000
-5.594400 0.000000
-5.577400 0.000000
-5.560400 0.000000
-5.543400 0.000000
-5.526400 0.000000
-5.509300 0.000000
-5.492300 0.000000
-5.475300 0.000000
-5.458300 0.000000
-5.441300 0.000000
-5.424200 0.000000
-5.407200 0.000000
-5.390200 0.000000
-5.373200 0.000000
-5.356200 0.000000
-5.339100 0.000000
-5.322100 0.000000
-5.305100 0.000000
-5.288100 0.000000
-5.271100 0.000000
-5.254000 0.000000
-5.237000 0.000000
-5.220000 0.000000
-5.203000 0.000000
-5.186000 0.000000
-5.169000 0.000000
-5.151900 0.000000
-5.134900 0.000000
-5.117900 0.000000
-5.100900 0.000000
-5.083900 0.000000
-5.066800 0.000000
-5.049800 0.000000
-5.032800 0.000000
-5.015800 0.000000
-4.998800 0.000000
-4.981700 0.000000
-4.964700 0.000000
-4.947700 0.000000
-4.930700 0.000000
-4.913700 0.000000
-4.896600 0.000000
-4.879600 0.000000
-4.862600 0.000000
-4.845600 0.004000
-4.828600 0.014600
-4.811600 0.030400
-4.794500 0.041500
-4.777500 0.045800
-4.760500 0.046800
-4.743500 0.050100
-4.726500 0.055600
-4.709400 0.061800
-4.692400 0.068400
-4.675400 0.074400
-4.658400 0.078100
-4.641400 0.079400
-4.624300 0.080700
-4.607300 0.083300
-4.590300 0.086600
-4.573300 0.090000
-4.556300 0.093400
-4.539200 0.096700
-4.522200 0.099900
-4.505200 0.103200
-4.488200 0.106900
-4.471200 0.111000
-4.454200 0.114600
-4.437100 0.117200
-4.420100 0.119000
-4.403100 0.120900
-4.386100 0.123300
-4.369100 0.125900
-4.352000 0.128400
-4.335000 0.130800
-4.318000 0.133200
-4.301000 0.135600
-4.284000 0.138400
-4.266900 0.141500
-4.249900 0.144600
-4.232900 0.147800
-4.215900 0.151100
-4.198900 0.154400
-4.181900 0.157700
-4.164800 0.160800
-4.147800 0.163500
-4.130800 0.165700
-4.113800 0.167900
-4.096800 0.170300
-4.079700 0.173100
-4.062700 0.176000
-4.045700 0.179000
-4.028700 0.182100
-4.011700 0.185200
-3.994600 0.188400
-3.977600 0.191700
-3.960600 0.195000
-3.943600 0.198400
-3.926600 0.201900
-3.909500 0.205300
-3.892500 0.208800
-3.875500 0.212300
-3.858500 0.215800
-3.841500 0.220200
-3.824500 0.224800
-3.807400 0.229600
-3.790400 0.234400
-3.773400 0.239300
-3.756400 0.244300
-3.739400 0.249500
-3.722300 0.254900
-3.705300 0.260400
-3.688300 0.265900
-3.671300 0.271600
-3.654300 0.277400
-3.637200 0.283500
-3.620200 0.290400
-3.603200 0.298200
-3.586200 0.306800
-3.569200 0.315700
-3.552100 0.324900
-3.535100 0.334600
-3.518100 0.345100
-3.501100 0.357200
-3.484100 0.370100
-3.467100 0.383100
-3.450000 0.396600
-3.433000 0.412600
-3.416000 0.436700
-3.399000 0.463800
-3.382000 0.491000
-3.364900 0.520500
-3.347900 0.723300
-3.330900 0.862900
-3.313900 0.983700
-3.296900 1.139600
-3.279800 1.340800
-3.262800 1.968600
-3.245800 3.210500
-3.228800 4.600700
-3.211800 5.270100
-3.194700 5.743900
-3.177700 6.383200
-3.160700 6.948800
-3.143700 7.549800
-3.126700 8.042700
-3.109700 8.654700
-3.092600 9.912700
-3.075600 11.635100
-3.058600 12.844000
-3.041600 13.601700
-3.024600 14.027000
-3.007500 14.358200
-2.990500 13.697300
-2.973500 13.713600
-2.956500 14.200200
-2.939500 17.409000
-2.922400 15.900700
-2.905400 14.642500
-2.888400 14.584000
-2.871400 13.483800
-2.854400 12.335800
-2.837400 12.855300
-2.820300 12.292900
-2.803300 12.704600
-2.786300 15.099200
-2.769300 15.971000
-2.752300 16.197200
-2.735200 14.494900
-2.718200 13.505200
-2.701200 14.157300
-2.684200 13.465100
-2.667200 16.224000
-2.650100 16.561000
-2.633100 15.013400
-2.616100 13.600400
-2.599100 15.781200
-2.582100 12.585200
-2.565000 9.317400
-2.548000 7.765200
-2.531000 8.559100
-2.514000 9.252200
-2.497000 9.263100
-2.480000 8.093300
-2.462900 6.558800
-2.445900 5.539500
-2.428900 4.803500
-2.411900 4.706600
-2.394900 3.455200
-2.377800 2.619600
-2.360800 1.908900
-2.343800 1.701100
-2.326800 1.596600
-2.309800 1.572500
-2.292700 1.464100
-2.275700 1.414600
-2.258700 1.470000
-2.241700 1.330400
-2.224700 0.503500
-2.207600 0.497800
-2.190600 0.493900
-2.173600 0.490900
-2.156600 0.488600
-2.139600 0.487000
-2.122600 0.485800
-2.105500 0.485000
-2.088500 0.484500
-2.071500 0.484300
-2.054500 0.484600
-2.037500 0.485100
-2.020400 0.486200
-2.003400 0.487800
-1.986400 0.489300
-1.969400 0.491500
-1.952400 0.494100
-1.935300 0.496900
-1.918300 0.500000
-1.901300 0.503100
-1.884300 0.506600
-1.867300 0.510200
-1.850200 0.514000
-1.833200 0.518000
-1.816200 0.522200
-1.799200 0.526500
-1.782200 0.530900
-1.765200 0.535500
-1.748100 0.541800
-1.731100 0.549100
-1.714100 0.557000
-1.697100 0.564900
-1.680100 0.572900
-1.663000 0.581200
-1.646000 0.590000
-1.629000 0.599400
-1.612000 0.609300
-1.595000 0.619800
-1.577900 0.630900
-1.560900 0.642500
-1.543900 0.654600
-1.526900 0.667700
-1.509900 0.684400
-1.492900 0.706600
-1.475800 0.731700
-1.458800 0.757800
-1.441800 0.783900
-1.424800 0.811900
-1.407800 0.842200
-1.390700 0.873700
-1.373700 0.906200
-1.356700 0.939800
-1.339700 0.974000
-1.322700 1.032000
-1.305600 0.934300
-1.288600 0.899200
-1.271600 0.869700
-1.254600 0.862700
-1.237600 0.873400
-1.220500 0.883600
-1.203500 0.888600
-1.186500 0.890000
-1.169500 0.895900
-1.152500 0.905100
-1.135500 0.916000
-1.118400 0.928800
-1.101400 0.952100
-1.084400 0.980000
-1.067400 1.003700
-1.050400 1.019500
-1.033300 1.027800
-1.016300 1.036500
-0.999300 1.047300
-0.982300 1.113900
-0.965300 1.187800
-0.948200 1.260700
-0.931200 1.420200
-0.914200 1.363600
-0.897200 1.319700
-0.880200 1.275100
-0.863100 1.237500
-0.846100 1.206000
-0.829100 1.180800
-0.812100 1.150800
-0.795100 1.129400
-0.778100 1.117400
-0.761000 1.107300
-0.744000 1.104200
-0.727000 1.096700
-0.710000 1.090000
-0.693000 1.087100
-0.675900 1.100900
-0.658900 1.132100
-0.641900 1.163600
-0.624900 1.123600
-0.607900 1.155800
-0.590800 1.346500
-0.573800 1.396100
-0.556800 1.698400
-0.539800 2.477300
-0.522800 2.656300
-0.505700 3.082900
-0.488700 1.990800
-0.471700 1.029100
-0.454700 0.660000
-0.437700 0.506600
-0.420700 0.424500
-0.403600 0.366700
-0.386600 0.423800
-0.369600 0.204100
-0.352600 0.260400
-0.335600 0.305400
-0.318500 0.323100
-0.301500 0.320800
-0.284500 0.314200
-0.267500 0.334600
-0.250500 0.360100
-0.233400 0.407000
-0.216400 0.460900
-0.199400 0.494200
-0.182400 0.523100
-0.165400 0.547700
-0.148400 0.579300
-0.131300 0.613500
-0.114300 0.650600
-0.097300 0.682200
-0.080300 0.707000
-0.063300 0.740500
-0.046200 0.788500
-0.029200 0.838700
-0.012200 0.868600
0.004800 0.907600
0.021800 0.946400
0.038900 1.057300
0.055900 1.106100
0.072900 1.090700
0.089900 1.125800
0.106900 1.168100
0.124000 1.237300
0.141000 1.323500
0.158000 1.452500
0.175000 1.569300
0.192000 1.664300
0.209000 1.756700
0.226100 1.837900
0.243100 1.963500
0.260100 2.114700
0.277100 2.278900
0.294100 2.483800
0.311200 2.752900
0.328200 2.984900
0.345200 3.222100
0.362200 3.289900
0.379200 3.385700
0.396300 3.520100
0.413300 3.671400
0.430300 3.831700
0.447300 4.034800
0.464300 4.145500
0.481400 4.523700
0.498400 4.378000
0.515400 3.891900
0.532400 3.943900
0.549400 3.956400
0.566400 3.757700
0.583500 3.654700
0.600500 3.516000
0.617500 3.422400
0.634500 3.441300
0.651500 3.483700
0.668600 3.571800
0.685600 3.817500
0.702600 3.818800
0.719600 3.791100
0.736600 3.801300
0.753700 3.789400
0.770700 3.695000
0.787700 3.703000
0.804700 3.782100
0.821700 3.875100
0.838800 4.062300
0.855800 3.970000
0.872800 3.874300
0.889800 3.829700
0.906800 3.836200
0.923800 3.604200
0.940900 3.375700
0.957900 3.288800
0.974900 3.493900
0.991900 3.773500
1.008900 4.177600
1.026000 4.223300
1.043000 3.512200
1.060000 3.196900
1.077000 3.011500
1.094000 2.849300
1.111100 2.717800
1.128100 2.550700
1.145100 2.467700
1.162100 2.443900
1.179100 2.443100
1.196100 2.529400
1.213200 2.547900
1.230200 2.825200
1.247200 3.016400
1.264200 3.144900
1.281200 3.160900
1.298300 3.191200
1.315300 3.284900
1.332300 3.442500
1.349300 3.409000
1.366300 3.396300
1.383400 3.385400
1.400400 3.298800
1.417400 3.193800
1.434400 3.040000
1.451400 2.917200
1.468500 2.852800
1.485500 2.787200
1.502500 2.706800
1.519500 2.658500
1.536500 2.605200
1.553500 2.538900
1.570600 2.491700
1.587600 2.460400
1.604600 2.420700
1.621600 2.302700
1.638600 2.288800
1.655700 2.314000
1.672700 2.362100
1.689700 2.416100
1.706700 2.570500
1.723700 2.712200
1.740800 2.906300
1.757800 2.642800
1.774800 2.506600
1.791800 2.422100
1.808800 2.466700
1.825900 2.480300
1.842900 2.561800
1.859900 2.725300
1.876900 2.953900
1.893900 3.165900
1.910900 3.361200
1.928000 3.523700
1.945000 3.681300
1.962000 3.909800
1.979000 4.300100
1.996000 4.475500
2.013100 4.698400
2.030100 4.939800
2.047100 5.214800
2.064100 5.398400
2.081100 5.035200
2.098200 4.925700
2.115200 4.861100
2.132200 4.781300
2.149200 4.593500
2.166200 4.437900
2.183300 4.382200
2.200300 4.367900
2.217300 4.509800
2.234300 4.821800
2.251300 4.853800
2.268300 4.769600
2.285400 5.063200
2.302400 5.488400
2.319400 5.764000
2.336400 7.241100
2.353400 6.734100
2.370500 4.668100
2.387500 3.947700
2.404500 3.511100
2.421500 3.207600
2.438500 2.859300
2.455600 2.767000
2.472600 2.635200
2.489600 2.529100
2.506600 2.439800
2.523600 2.353200
2.540600 2.270500
2.557700 2.223800
2.574700 2.181700
2.591700 2.133700
2.608700 2.083000
2.625700 2.047900
2.642800 2.046000
2.659800 2.012500
2.676800 1.936900
2.693800 1.935700
2.710800 1.719300
2.727900 1.521200
2.744900 1.291100
2.761900 1.101200
2.778900 1.058600
2.795900 1.042000
2.813000 1.023900
2.830000 0.993000
2.847000 0.969400
2.864000 0.943800
2.881000 0.921500
2.898000 0.906600
2.915100 0.890800
2.932100 0.870700
2.949100 0.854200
2.966100 0.843000
2.983100 0.832200
3.000200 0.820000
3.017200 0.806600
3.034200 0.799400
3.051200 0.794200
3.068200 0.789100
3.085300 0.783300
3.102300 0.777100
3.119300 0.771300
3.136300 0.765700
3.153300 0.759900
3.170400 0.753400
3.187400 0.745600
3.204400 0.738700
3.221400 0.730300
3.238400 0.722000
3.255400 0.714400
3.272500 0.708100
3.289500 0.702400
3.306500 0.696300
3.323500 0.690400
3.340500 0.684800
3.357600 0.679900
3.374600 0.676700
3.391600 0.697400
3.408600 0.680600
3.425600 0.658600
3.442700 0.643600
3.459700 0.637600
3.476700 0.621500
3.493700 0.634800
3.510700 0.501100
3.527700 0.501600
3.544800 0.501900
3.561800 0.501800
3.578800 0.501300
3.595800 0.500600
3.612800 0.499800
3.629900 0.498800
3.646900 0.497500
3.663900 0.496000
3.680900 0.492800
3.697900 0.488800
3.715000 0.484500
3.732000 0.480900
3.749000 0.477900
3.766000 0.474700
3.783000 0.471700
3.800100 0.469300
3.817100 0.467300
3.834100 0.465300
3.851100 0.463400
3.868100 0.461500
3.885100 0.459700
3.902200 0.458200
3.919200 0.456600
3.936200 0.455200
3.953200 0.453600
3.970200 0.451900
3.987300 0.450200
4.004300 0.450900
4.021300 0.448500
4.038300 0.446400
4.055300 0.444500
4.072400 0.442600
4.089400 0.440800
4.106400 0.439100
4.123400 0.437500
4.140400 0.436000
4.157500 0.434500
4.174500 0.430700
4.191500 0.429400
4.208500 0.428200
4.225500 0.427000
4.242500 0.425800
4.259600 0.428900
4.276600 0.429400
4.293600 0.430200
4.310600 0.431100
4.327600 0.433800
4.344700 0.434900
4.361700 0.436300
4.378700 0.437800
4.395700 0.439500
4.412700 0.438900
4.429800 0.440400
4.446800 0.442000
4.463800 0.443700
4.480800 0.447000
4.497800 0.451200
4.514900 0.458500
4.531900 0.462600
4.548900 0.466800
4.565900 0.471200
4.582900 0.475700
4.599900 0.480100
4.617000 0.487300
4.634000 0.499700
4.651000 0.516000
4.668000 0.528200
4.685000 0.542000
4.702100 0.561800
4.719100 0.606100
4.736100 0.637300
4.753100 0.704900
4.770100 0.834300
4.787200 1.099500
4.804200 1.208800
4.821200 0.988400
4.838200 0.878500
4.855200 0.854700
4.872200 0.850600
4.889300 0.845100
4.906300 0.830400
4.923300 0.827100
4.940300 0.823700
4.957300 0.818100
4.974400 0.808300
4.991400 0.770300
5.008400 0.751900
5.025400 0.741300
5.042400 0.732700
5.059500 0.724900
5.076500 0.717600
5.093500 0.711300
5.110500 0.705500
5.127500 0.699900
5.144600 0.693800
5.161600 0.688200
5.178600 0.684300
5.195600 0.680300
5.212600 0.676400
5.229600 0.672500
5.246700 0.668800
5.263700 0.665000
5.280700 0.660900
5.297700 0.657000
5.314700 0.653200
5.331800 0.649600
5.348800 0.646300
5.365800 0.641800
5.382800 0.638600
5.399800 0.634600
5.416900 0.629200
5.433900 0.624400
5.450900 0.620200
5.467900 0.616000
5.484900 0.611900
5.502000 0.608000
5.519000 0.604300
5.536000 0.600400
5.553000 0.596600
5.570000 0.593000
5.587000 0.589600
5.604100 0.586300
5.621100 0.582900
5.638100 0.579600
5.655100 0.576300
5.672100 0.572900
5.689200 0.570300
5.706200 0.567700
5.723200 0.565200
5.740200 0.562800
5.757200 0.560500
5.774300 0.558200
5.791300 0.555900
5.808300 0.553600
5.825300 0.551300
5.842300 0.549000
5.859400 0.546800
5.876400 0.544600
5.893400 0.542400
5.910400 0.540300
5.927400 0.538300
5.944400 0.536500
5.961500 0.534500
5.978500 0.532500
5.995500 0.530500
6.012500 0.528500
6.029500 0.525600
6.046600 0.523200
6.063600 0.520700
6.080600 0.518000
6.097600 0.515400
6.114600 0.512900
6.131700 0.510400
6.148700 0.507800
6.165700 0.505200
6.182700 0.502700
6.199700 0.500100
6.216700 0.497700
6.233800 0.495200
6.250800 0.492600
6.267800 0.490200
6.284800 0.487900
6.301800 0.485700
6.318900 0.483500
6.335900 0.481300
6.352900 0.479000
6.369900 0.476600
6.386900 0.474300
6.404000 0.471900
6.421000 0.469500
6.438000 0.467100
6.455000 0.464800
6.472000 0.462400
6.489100 0.460200
6.506100 0.458000
6.523100 0.455900
6.540100 0.453800
6.557100 0.451800
6.574100 0.449800
6.591200 0.448000
6.608200 0.446200
6.625200 0.444500
6.642200 0.442800
6.659200 0.441700
6.676300 0.440100
6.693300 0.438700
6.710300 0.437300
6.727300 0.435900
6.744300 0.434600
6.761400 0.433300
6.778400 0.431900
6.795400 0.430100
6.812400 0.428400
6.829400 0.426500
6.846500 0.424600
6.863500 0.422800
6.880500 0.421000
6.897500 0.419100
6.914500 0.417200
6.931500 0.414900
6.948600 0.412900
6.965600 0.410800
6.982600 0.408800
6.999600 0.407100
7.016600 0.405400
7.033700 0.403900
7.050700 0.402500
7.067700 0.403600
7.084700 0.404700
7.101700 0.404800
7.118800 0.405100
7.135800 0.405200
7.152800 0.406500
7.169800 0.405300
7.186800 0.403800
7.203900 0.402100
7.220900 0.400000
7.237900 0.530700
7.254900 0.418400
7.271900 0.377700
7.288900 0.355800
7.306000 0.350000
7.323000 0.344300
7.340000 0.339100
7.357000 0.334100
7.374000 0.323900
7.391100 0.322600
7.408100 0.321300
7.425100 0.320000
7.442100 0.318700
7.459100 0.317500
7.476200 0.316300
7.493200 0.323200
7.510200 0.332000
7.527200 0.341600
7.544200 0.353100
7.561200 0.368800
7.578300 0.391700
7.595300 0.421600
7.612300 0.431300
7.629300 0.441100
7.646300 0.450900
7.663400 0.460200
7.680400 0.469600
7.697400 0.456000
7.714400 0.443300
7.731400 0.455000
7.748500 0.466900
7.765500 0.479700
7.782500 0.493000
7.799500 0.506400
7.816500 0.519900
7.833600 0.533300
7.850600 0.545600
7.867600 0.556100
7.884600 0.563000
7.901600 0.580700
7.918600 0.595100
7.935700 0.609000
7.952700 0.622700
7.969700 0.637400
7.986700 0.652200
8.003700 0.667200
8.020800 0.680100
8.037800 0.687200
8.054800 0.689900
8.071800 0.688100
8.088800 0.687000
8.105900 0.685300
8.122900 0.685300
8.139900 0.685300
8.156900 0.685500
8.173900 0.686100
8.191000 0.686600
8.208000 0.681000
8.225000 0.672300
8.242000 0.663500
8.259000 0.658400
8.276000 0.655500
8.293100 0.655500
8.310100 0.657500
8.327100 0.660500
8.344100 0.662200
8.361100 0.664800
8.378200 0.667600
8.395200 0.668100
8.412200 0.668200
8.429200 0.668300
8.446200 0.666900
8.463300 0.670700
8.480300 0.693900
8.497300 0.711400
8.514300 0.729800
8.531300 0.746300
8.548400 0.755100
8.565400 0.758300
8.582400 0.760900
8.599400 0.763500
8.616400 0.767200
8.633400 0.762500
8.650500 0.758500
8.667500 0.753100
8.684500 0.751000
8.701500 0.748500
8.718500 0.746200
8.735600 0.743800
8.752600 0.741100
8.769600 0.738800
8.786600 0.746600
8.803600 0.749200
8.820700 0.743600
8.837700 0.737000
8.854700 0.724700
8.871700 0.721800
8.888700 0.720300
8.905700 0.718900
8.922800 0.717700
8.939800 0.716500
8.956800 0.715300
8.973800 0.714200
8.990800 0.713800
9.007900 0.711800
9.024900 0.712900
9.041900 0.703000
9.058900 0.694200
9.075900 0.690700
9.093000 0.692700
9.110000 0.682600
9.127000 0.675900
9.144000 0.674800
9.161000 0.673800
9.178100 0.673500
9.195100 0.673800
9.212100 0.674500
9.229100 0.674600
9.246100 0.675800
9.263100 0.677500
9.280200 0.680400
9.297200 0.685300
9.314200 0.690000
9.331200 0.692300
9.348200 0.694700
9.365300 0.698100
9.382300 0.692400
9.399300 0.691100
9.416300 0.692400
9.433300 0.692300
9.450400 0.696500
9.467400 0.705300
9.484400 0.711100
9.501400 0.711000
9.518400 0.692000
9.535500 0.680200
9.552500 0.674800
9.569500 0.660000
9.586500 0.662000
9.603500 0.664000
9.620500 0.667900
9.637600 0.671800
9.654600 0.676900
9.671600 0.686400
9.688600 0.699300
9.705600 0.713700
9.722700 0.716900
9.739700 0.724000
9.756700 0.729900
9.773700 0.735900
9.790700 0.729900
9.807800 0.725500
9.824800 0.716800
9.841800 0.723100
9.858800 0.727800
9.875800 0.729900
9.892900 0.726600
9.909900 0.722900
9.926900 0.724800
9.943900 0.722700
9.960900 0.721300
9.977900 0.720900
9.995000 0.721800
10.012000 0.723600
10.029000 0.788900
10.046000 0.775400
10.063000 0.772400
10.080100 0.774700
10.097100 0.779300
10.114100 0.772600
10.131100 0.766100
10.148100 0.745900
10.165200 0.740800
10.182200 0.737900
10.199200 0.735200
10.216200 0.732800
10.233200 0.730600
10.250200 0.728600
10.267300 0.726600
10.284300 0.725300
10.301300 0.725100
10.318300 0.726100
10.335300 0.724900
10.352400 0.723000
10.369400 0.721300
10.386400 0.715900
10.403400 0.711200
10.420400 0.709300
10.437500 0.710200
10.454500 0.709300
10.471500 0.708100
10.488500 0.705300
10.505500 0.702100
10.522600 0.700100
10.539600 0.698200
10.556600 0.696900
10.573600 0.695800
10.590600 0.697600
10.607600 0.699300
10.624700 0.700300
10.641700 0.701000
10.658700 0.701500
10.675700 0.701900
10.692700 0.702200
10.709800 0.702700
10.726800 0.703400
10.743800 0.700900
10.760800 0.699100
10.777800 0.698200
10.794900 0.697000
10.811900 0.695400
10.828900 0.693600
10.845900 0.692200
10.862900 0.691800
10.880000 0.692700
10.897000 0.691800
10.914000 0.690700
10.931000 0.689800
10.948000 0.691200
10.965000 0.690200
10.982100 0.688900
10.999100 0.687000
11.016100 0.685300
11.033100 0.685100
11.050100 0.688300
11.067200 0.686700
11.084200 0.685400
11.101200 0.684400
11.118200 0.684000
11.135200 0.683700
11.152300 0.683600
11.169300 0.682200
11.186300 0.683400
11.203300 0.683500
11.220300 0.683400
11.237400 0.687000
11.254400 0.692000
11.271400 0.688600
11.288400 0.686000
11.305400 0.684400
11.322400 0.683500
11.339500 0.682800
11.356500 0.682100
11.373500 0.681200
11.390500 0.682200
11.407500 0.682600
11.424600 0.682800
11.441600 0.683200
11.458600 0.681800
11.475600 0.680000
11.492600 0.679100
11.509700 0.679300
11.526700 0.679800
11.543700 0.681500
11.560700 0.684000
11.577700 0.686300
11.594700 0.688200
11.611800 0.690100
11.628800 0.692600
11.645800 0.692800
11.662800 0.692600
11.679800 0.692100
11.696900 0.688300
11.713900 0.688500
11.730900 0.689600
