set title 'mp-1072089 - Density of States'
set xlabel 'Energy (eV)'
set ylabel 'DOS (states/eV)'
set grid
set xrange [-10:10]
set yrange [0:19.694]
set xzeroaxis lt -1
set terminal png size 800,600
set output 'mp-1072089_dos_gnuplot.png'
plot '-' using 1:2 with lines title 'DOS'
-6.179700 0.000000
-6.152400 0.000000
-6.125100 0.000000
-6.097800 0.000000
-6.070600 0.000000
-6.043300 0.000000
-6.016000 0.000000
-5.988700 0.000000
-5.961500 0.000000
-5.934200 0.000000
-5.906900 0.000000
-5.879700 0.000000
-5.852400 0.000000
-5.825100 0.000000
-5.797800 0.000000
-5.770600 0.000000
-5.743300 0.000000
-5.716000 0.000000
-5.688700 0.000000
-5.661500 0.000000
-5.634200 0.000000
-5.606900 0.000000
-5.579600 0.000000
-5.552400 0.000000
-5.525100 0.000000
-5.497800 0.000000
-5.470600 0.000000
-5.443300 0.000000
-5.416000 0.000000
-5.388700 0.000000
-5.361500 0.000000
-5.334200 0.000000
-5.306900 0.000000
-5.279600 0.000000
-5.252400 0.000000
-5.225100 0.000000
-5.197800 0.000000
-5.170600 0.000000
-5.143300 0.000000
-5.116000 0.000000
-5.088700 0.000000
-5.061500 0.000000
-5.034200 0.000000
-5.006900 0.000000
-4.979600 0.000000
-4.952400 0.000000
-4.925100 0.000000
-4.897800 0.000000
-4.870600 0.000000
-4.843300 0.000000
-4.816000 0.000000
-4.788700 0.000000
-4.761500 0.000000
-4.734200 0.000000
-4.706900 0.000000
-4.679600 0.000000
-4.652400 0.000000
-4.625100 0.000000
-4.597800 0.000000
-4.570500 0.000000
-4.543300 0.000000
-4.516000 0.000000
-4.488700 0.000000
-4.461500 0.000000
-4.434200 0.000000
-4.406900 0.000000
-4.379600 0.000000
-4.352400 0.000000
-4.325100 0.000000
-4.297800 0.000000
-4.270500 0.000000
-4.243300 0.000000
-4.216000 0.000000
-4.188700 0.000000
-4.161500 0.000000
-4.134200 0.000000
-4.106900 0.000000
-4.079600 0.000000
-4.052400 0.000000
-4.025100 0.000000
-3.997800 0.000000
-3.970500 0.000000
-3.943300 0.000000
-3.916000 0.000000
-3.888700 0.000000
-3.861500 0.000000
-3.834200 0.000000
-3.806900 0.000000
-3.779600 0.000000
-3.752400 0.000000
-3.725100 0.000000
-3.697800 0.000000
-3.670500 0.025100
-3.643300 0.047600
-3.616000 0.057600
-3.588700 0.066000
-3.561400 0.074800
-3.534200 0.086500
-3.506900 0.092400
-3.479600 0.097100
-3.452400 0.102700
-3.425100 0.109500
-3.397800 0.116900
-3.370500 0.124200
-3.343300 0.127900
-3.316000 0.131700
-3.288700 0.136500
-3.261400 0.141500
-3.234200 0.146500
-3.206900 0.151600
-3.179600 0.157400
-3.152400 0.162100
-3.125100 0.166000
-3.097800 0.169400
-3.070500 0.173300
-3.043300 0.177400
-3.016000 0.181600
-2.988700 0.186000
-2.961400 0.190600
-2.934200 0.195400
-2.906900 0.200300
-2.879600 0.203400
-2.852300 0.206500
-2.825100 0.210100
-2.797800 0.213900
-2.770500 0.217600
-2.743300 0.221400
-2.716000 0.225400
-2.688700 0.229500
-2.661400 0.233500
-2.634200 0.237800
-2.606900 0.242200
-2.579600 0.245500
-2.552300 0.248800
-2.525100 0.252300
-2.497800 0.255900
-2.470500 0.259400
-2.443300 0.262900
-2.416000 0.266600
-2.388700 0.270600
-2.361400 0.274600
-2.334200 0.278700
-2.306900 0.282800
-2.279600 0.287100
-2.252300 0.290900
-2.225100 0.294400
-2.197800 0.297900
-2.170500 0.301500
-2.143300 0.305300
-2.116000 0.309200
-2.088700 0.313200
-2.061400 0.317400
-2.034200 0.321600
-2.006900 0.325800
-1.979600 0.330100
-1.952300 0.334500
-1.925100 0.339000
-1.897800 0.343500
-1.870500 0.348200
-1.843200 0.352700
-1.816000 0.357300
-1.788700 0.362200
-1.761400 0.367200
-1.734200 0.372300
-1.706900 0.377800
-1.679600 0.383500
-1.652300 0.389700
-1.625100 0.396300
-1.597800 0.403800
-1.570500 0.412200
-1.543200 0.422000
-1.516000 0.434600
-1.488700 0.451100
-1.461400 0.466100
-1.434200 0.480300
-1.406900 0.489200
-1.379600 0.501400
-1.352300 0.503200
-1.325100 0.485900
-1.297800 0.469400
-1.270500 0.465900
-1.243200 0.473700
-1.216000 0.475600
-1.188700 0.455600
-1.161400 0.452200
-1.134200 0.440800
-1.106900 0.431300
-1.079600 0.424900
-1.052300 0.419400
-1.025100 0.427200
-0.997800 0.421900
-0.970500 0.413100
-0.943200 0.403000
-0.916000 0.396200
-0.888700 0.388000
-0.861400 0.383400
-0.834100 0.370900
-0.806900 0.364400
-0.779600 0.362300
-0.752300 0.405700
-0.725100 0.420700
-0.697800 0.443600
-0.670500 0.473000
-0.643200 0.476600
-0.616000 0.483300
-0.588700 0.558100
-0.561400 0.568800
-0.534100 0.566100
-0.506900 0.580300
-0.479600 0.568000
-0.452300 0.592300
-0.425100 0.610400
-0.397800 0.552100
-0.370500 0.511800
-0.343200 0.489800
-0.316000 0.479800
-0.288700 0.458100
-0.261400 0.460400
-0.234100 0.470500
-0.206900 0.486800
-0.179600 0.563200
-0.152300 0.610800
-0.125000 0.616500
-0.097800 0.674100
-0.070500 0.717200
-0.043200 0.796500
-0.016000 1.034000
0.011300 1.092600
0.038600 1.014700
0.065900 1.003300
0.093100 1.067100
0.120400 1.009900
0.147700 0.913600
0.175000 0.943500
0.202200 1.020900
0.229500 1.087600
0.256800 1.176500
0.284000 1.298600
0.311300 1.630600
0.338600 1.946300
0.365900 1.937400
0.393100 1.916000
0.420400 1.964000
0.447700 1.689000
0.475000 1.422500
0.502200 1.262700
0.529500 1.197000
0.556800 1.152900
0.584000 1.148400
0.611300 1.044200
0.638600 1.034200
0.665900 1.016300
0.693100 1.012200
0.720400 1.016400
0.747700 1.036700
0.775000 1.083300
0.802200 1.087600
0.829500 1.222600
0.856800 1.525200
0.884100 1.569800
0.911300 1.614400
0.938600 1.728900
0.965900 1.961200
0.993100 2.820600
1.020400 3.835000
1.047700 2.960200
1.075000 2.594100
1.102200 2.612500
1.129500 2.503900
1.156800 2.734100
1.184100 3.168700
1.211300 2.884400
1.238600 2.547800
1.265900 2.397600
1.293100 2.354500
1.320400 2.250800
1.347700 2.448800
1.375000 2.066900
1.402200 2.416400
1.429500 2.677600
1.456800 3.167700
1.484100 3.660300
1.511300 2.380200
1.538600 2.341300
1.565900 2.706500
1.593200 3.308200
1.620400 3.969600
1.647700 3.710700
1.675000 3.645300
1.702200 3.402800
1.729500 3.392000
1.756800 3.346600
1.784100 3.312000
1.811300 3.316000
1.838600 3.476100
1.865900 3.609900
1.893200 3.348700
1.920400 3.211000
1.947700 2.952100
1.975000 2.734300
2.002200 2.526000
2.029500 2.485500
2.056800 2.457500
2.084100 2.384100
2.111300 2.381400
2.138600 2.158500
2.165900 2.087800
2.193200 1.914500
2.220400 1.680700
2.247700 1.268300
2.275000 1.403700
2.302200 1.829800
2.329500 3.118100
2.356800 2.964200
2.384100 3.882600
2.411300 4.000900
2.438600 4.402600
2.465900 5.180500
2.493200 5.836700
2.520400 7.336100
2.547700 8.590700
2.575000 7.694300
2.602300 7.244700
2.629500 8.378200
2.656800 8.801600
2.684100 8.365400
2.711300 8.190800
2.738600 8.120300
2.765900 6.765500
2.793200 6.430200
2.820400 5.918900
2.847700 5.661000
2.875000 5.921300
2.902300 6.257000
2.929500 7.122000
2.956800 6.369000
2.984100 5.900300
3.011300 6.426600
3.038600 7.497700
3.065900 11.646100
3.093200 10.646400
3.120400 10.408800
3.147700 11.630300
3.175000 9.337300
3.202300 9.741100
3.229500 11.735800
3.256800 12.742600
3.284100 11.214400
3.311300 8.960000
3.338600 9.354200
3.365900 10.033000
3.393200 8.794000
3.420400 8.118900
3.447700 6.793500
3.475000 6.628200
3.502300 4.983300
3.529500 2.975000
3.556800 2.437500
3.584100 1.977700
3.611400 1.594900
3.638600 1.283000
3.665900 1.030800
3.693200 0.770400
3.720400 0.472500
3.747700 0.539400
3.775000 0.626600
3.802300 0.806900
3.829500 2.839300
3.856800 1.683000
3.884100 1.843100
3.911400 2.076800
3.938600 1.930300
3.965900 2.002500
3.993200 2.079600
4.020400 2.167700
4.047700 2.222400
4.075000 2.295200
4.102300 2.398100
4.129500 2.584900
4.156800 2.730700
4.184100 2.918400
4.211400 3.336500
4.238600 3.810200
4.265900 5.255400
4.293200 6.349600
4.320500 6.237100
4.347700 8.655500
4.375000 5.780700
4.402300 5.459800
4.429500 4.964600
4.456800 6.135400
4.484100 6.748600
4.511400 8.471200
4.538600 7.754400
4.565900 6.971900
4.593200 8.752800
4.620500 12.963300
4.647700 11.417100
4.675000 4.982100
4.702300 3.755500
4.729500 3.346900
4.756800 3.822100
4.784100 2.788800
4.811400 2.364000
4.838600 2.285000
4.865900 2.886900
4.893200 3.506400
4.920500 3.555300
4.947700 2.275000
4.975000 1.240000
5.002300 1.905800
5.029500 3.187700
5.056800 5.275700
5.084100 7.310700
5.111400 6.846000
5.138600 6.695600
5.165900 6.257900
5.193200 7.117600
5.220500 8.926800
5.247700 11.012900
5.275000 11.020100
5.302300 8.100100
5.329600 10.999800
5.356800 10.666200
5.384100 11.636000
5.411400 10.922500
5.438600 11.495200
5.465900 12.158900
5.493200 10.761700
5.520500 10.027300
5.547700 9.286100
5.575000 9.777400
5.602300 6.940800
5.629600 11.356400
5.656800 12.025800
5.684100 10.946800
5.711400 13.437600
5.738600 15.441200
5.765900 17.903900
5.793200 10.007800
5.820500 11.074600
5.847700 9.334700
5.875000 8.923200
5.902300 8.007500
5.929600 7.727300
5.956800 7.421500
5.984100 4.791200
6.011400 4.172900
6.038600 3.520500
6.065900 3.239200
6.093200 2.928300
6.120500 2.726100
6.147700 2.444500
6.175000 2.436000
6.202300 2.522700
6.229600 2.504400
6.256800 2.623700
6.284100 2.660000
6.311400 2.617300
6.338700 2.658200
6.365900 2.559400
6.393200 2.544000
6.420500 2.523400
6.447700 2.635700
6.475000 2.416300
6.502300 2.415800
6.529600 2.531000
6.556800 2.802700
6.584100 2.497300
6.611400 2.146700
6.638700 1.679100
6.665900 1.733300
6.693200 1.630600
6.720500 1.600800
6.747700 1.595000
6.775000 1.444300
6.802300 1.361600
6.829600 1.273400
6.856800 1.238000
6.884100 1.277700
6.911400 1.130200
6.938700 1.029400
6.965900 1.040100
6.993200 1.053900
7.020500 1.074200
7.047800 1.089300
7.075000 1.100300
7.102300 1.111500
7.129600 1.131700
7.156800 1.161400
7.184100 1.186200
7.211400 1.208300
7.238700 1.247100
7.265900 1.283200
7.293200 1.310000
7.320500 1.359400
7.347800 1.443300
7.375000 1.548900
7.402300 1.602500
7.429600 1.501500
7.456800 1.490800
7.484100 1.454700
7.511400 1.484200
7.538700 1.478100
7.565900 1.423200
7.593200 1.323400
7.620500 1.253700
7.647800 1.183900
7.675000 1.064600
7.702300 1.019300
7.729600 0.939300
7.756800 0.950600
7.784100 0.935100
7.811400 0.943000
7.838700 1.011600
7.865900 1.061300
7.893200 1.269700
7.920500 1.238600
7.947800 1.007600
7.975000 0.763800
8.002300 0.626100
8.029600 0.560900
8.056900 0.542800
8.084100 0.711400
8.111400 0.754300
8.138700 0.892700
8.165900 0.989900
8.193200 1.054400
8.220500 1.122100
8.247800 1.177100
8.275000 1.208100
8.302300 1.257600
8.329600 1.230100
8.356900 1.163000
8.384100 1.080400
8.411400 0.951200
8.438700 0.942700
8.465900 0.912900
8.493200 0.899900
8.520500 0.919200
8.547800 0.924100
8.575000 0.923400
8.602300 0.957100
8.629600 1.004400
8.656900 0.976400
8.684100 0.976800
8.711400 0.974600
8.738700 0.973400
8.766000 0.974400
8.793200 0.992900
8.820500 0.996600
8.847800 0.965800
8.875000 0.954400
8.902300 0.944300
8.929600 0.977300
8.956900 0.919500
8.984100 0.834300
9.011400 0.755500
9.038700 0.678400
9.066000 0.636300
9.093200 0.601000
9.120500 0.569100
9.147800 0.542300
9.175000 0.515500
9.202300 0.490100
9.229600 0.468000
9.256900 0.448700
9.284100 0.431700
9.311400 0.420700
9.338700 0.403300
9.366000 0.386300
9.393200 0.370500
9.420500 0.355700
9.447800 0.345000
9.475000 0.328400
9.502300 0.314100
9.529600 0.303600
9.556900 0.294500
9.584100 0.291000
9.611400 0.289000
9.638700 0.288100
9.666000 0.286600
9.693200 0.285200
9.720500 0.285100
9.747800 0.285600
9.775100 0.283100
9.802300 0.281900
9.829600 0.282800
9.856900 0.284400
9.884100 0.286600
9.911400 0.289500
9.938700 0.293100
9.966000 0.297100
9.993200 0.318000
10.020500 0.321700
10.047800 0.325300
10.075100 0.328500
10.102300 0.318300
10.129600 0.323300
10.156900 0.327600
10.184100 0.326400
10.211400 0.329900
10.238700 0.333200
10.266000 0.336300
10.293200 0.339400
10.320500 0.346200
10.347800 0.354700
10.375100 0.361800
10.402300 0.368700
10.429600 0.374300
10.456900 0.379000
10.484100 0.383800
10.511400 0.388500
10.538700 0.393200
10.566000 0.396300
10.593200 0.400500
10.620500 0.404700
10.647800 0.410800
10.675100 0.424700
10.702300 0.430600
10.729600 0.436200
10.756900 0.448100
10.784200 0.441000
10.811400 0.445100
10.838700 0.442500
10.866000 0.448500
10.893200 0.468600
10.920500 0.486600
10.947800 0.469000
10.975100 0.470000
11.002300 0.474800
11.029600 0.479000
11.056900 0.486400
11.084200 0.497500
11.111400 0.516100
11.138700 0.509600
11.166000 0.523400
11.193200 0.554000
11.220500 0.593100
11.247800 0.630200
11.275100 0.654000
11.302300 0.664400
11.329600 0.669700
11.356900 0.706500
11.384200 0.721500
11.411400 0.723300
11.438700 0.687100
11.466000 0.647900
11.493300 0.599400
11.520500 0.579500
11.547800 0.570700
11.575100 0.592200
11.602300 0.625300
11.629600 0.651200
11.656900 0.678400
11.684200 0.664200
11.711400 0.640000
11.738700 0.653300
11.766000 0.670700
11.793300 0.662300
11.820500 0.650100
11.847800 0.651600
11.875100 0.659600
11.902300 0.664000
11.929600 0.666900
11.956900 0.663200
11.984200 0.659800
12.011400 0.662600
12.038700 0.658100
12.066000 0.662200
12.093300 0.662800
12.120500 0.664000
12.147800 0.668100
12.175100 0.681800
12.202300 0.677300
12.229600 0.706400
12.256900 0.731800
12.284200 0.752300
12.311400 0.784400
12.338700 0.769100
12.366000 0.776700
12.393300 0.784100
12.420500 0.790300
12.447800 0.801800
12.475100 0.820300
12.502400 0.859700
12.529600 0.846700
12.556900 0.875100
12.584200 0.904700
12.611400 0.934300
12.638700 0.953300
12.666000 0.967500
12.693300 0.896100
12.720500 0.869800
12.747800 0.854100
12.775100 0.854800
12.802400 0.849900
12.829600 0.835900
12.856900 0.714000
12.884200 0.714700
12.911400 0.684700
12.938700 0.704200
12.966000 0.696800
12.993300 0.693900
13.020500 0.699700
13.047800 0.704500
13.075100 0.714700
13.102400 0.745700
13.129600 0.795600
13.156900 0.853700
13.184200 0.902200
13.211500 0.931100
13.238700 0.979100
13.266000 1.038400
13.293300 1.083500
13.320500 1.215500
13.347800 1.179900
13.375100 1.174300
13.402400 1.190300
13.429600 1.228500
13.456900 1.175200
13.484200 1.166400
13.511500 1.156400
13.538700 1.139700
13.566000 1.145200
13.593300 1.151900
13.620500 1.128000
13.647800 1.105700
13.675100 1.081100
13.702400 1.062600
13.729600 1.072200
13.756900 1.088100
13.784200 1.093900
13.811500 1.157700
13.838700 1.123600
13.866000 1.141600
13.893300 1.168600
13.920500 1.188300
13.947800 1.226200
13.975100 1.228700
14.002400 1.240900
14.029600 1.256300
14.056900 1.259700
14.084200 1.283300
14.111500 1.252400
14.138700 1.215900
14.166000 1.173100
14.193300 1.134900
14.220600 1.070300
14.247800 1.051600
14.275100 1.036200
14.302400 1.022000
14.329600 1.007700
14.356900 0.996700
14.384200 0.991900
14.411500 0.994300
14.438700 0.983000
14.466000 0.975000
14.493300 0.973800
14.520600 0.975800
14.547800 0.983500
14.575100 0.980000
14.602400 0.978500
14.629600 0.972700
14.656900 0.970900
14.684200 0.967500
14.711500 0.962300
14.738700 0.958700
14.766000 0.956900
14.793300 0.959100
14.820600 0.965000
14.847800 0.912000
14.875100 0.908900
14.902400 0.914300
14.929600 1.001100
14.956900 0.976600
14.984200 0.997000
15.011500 1.016400
15.038700 1.018900
15.066000 1.016300
15.093300 1.001400
15.120600 0.985800
15.147800 0.969900
15.175100 0.960300
15.202400 0.958700
15.229700 0.925800
15.256900 0.916200
15.284200 0.910300
15.311500 0.904500
15.338700 0.924900
15.366000 0.965000
15.393300 0.996900
15.420600 1.031900
15.447800 1.010200
15.475100 1.012100
15.502400 1.072000
15.529700 1.032200
15.556900 1.035700
15.584200 1.040700
15.611500 1.040000
15.638700 1.042700
15.666000 1.197400
15.693300 1.191700
15.720600 1.217500
15.747800 1.203300
15.775100 1.209500
15.802400 1.236800
15.829700 1.232700
15.856900 1.252600
15.884200 1.240700
15.911500 1.245000
15.938800 1.262200
15.966000 1.260000
15.993300 1.212500
16.020600 1.222400
16.047800 1.249300
16.075100 1.261700
16.102400 1.239800
16.129700 1.236100
16.156900 1.240800
16.184200 1.257000
16.211500 1.260400
16.238800 1.282000
16.266000 1.305100
16.293300 1.308700
16.320600 1.302500
16.347800 1.314700
16.375100 1.304500
16.402400 1.269400
16.429700 1.228800
16.456900 1.245000
16.484200 1.171000
16.511500 1.099900
16.538800 1.072800
16.566000 1.050500
16.593300 1.022100
16.620600 1.002300
16.647800 0.975300
16.675100 0.951400
16.702400 0.935800
16.729700 0.928100
16.756900 1.015500
16.784200 1.016200
16.811500 1.012700
16.838800 1.010700
16.866000 1.004300
16.893300 0.992600
16.920600 0.974100
16.947900 1.002800
16.975100 1.000100
17.002400 1.001200
17.029700 1.017500
17.056900 1.046700
17.084200 1.096000
17.111500 1.105400
17.138800 1.119800
17.166000 1.125600
17.193300 1.123100
17.220600 1.108800
17.247900 1.109100
17.275100 1.129100
17.302400 1.118600
17.329700 1.075300
17.356900 1.082100
17.384200 1.100500
17.411500 1.113600
17.438800 1.129900
17.466000 1.155300
17.493300 1.229000
17.520600 1.178000
17.547900 1.217700
17.575100 1.216600
17.602400 1.269100
17.629700 1.254000
17.656900 1.215600
17.684200 1.208900
17.711500 1.221300
17.738800 1.239400
17.766000 1.232800
17.793300 1.231200
17.820600 1.221900
17.847900 1.221400
17.875100 1.183900
17.902400 1.155800
17.929700 1.157700
17.957000 1.189500
17.984200 1.207800
18.011500 1.231700
18.038800 1.226100
18.066000 1.199300
18.093300 1.194600
18.120600 1.186900
18.147900 1.187600
18.175100 1.190000
18.202400 1.264600
18.229700 1.232200
18.257000 1.299400
18.284200 1.296200
18.311500 1.314000
18.338800 1.330200
18.366000 1.316700
18.393300 1.295100
18.420600 1.296800
18.447900 1.288300
18.475100 1.297900
18.502400 1.285000
18.529700 1.281800
18.557000 1.287600
18.584200 1.286900
18.611500 1.234100
18.638800 1.192800
18.666100 1.176000
18.693300 1.155300
18.720600 1.157000
18.747900 1.168900
18.775100 1.230600
18.802400 1.256400
18.829700 1.262400
18.857000 1.235400
18.884200 1.250200
18.911500 1.288400
18.938800 1.295900
18.966100 1.354600
18.993300 1.323600
19.020600 1.348500
19.047900 1.391800
19.075100 1.431700
19.102400 1.423700
19.129700 1.374300
19.157000 1.379000
19.184200 1.382000
19.211500 1.392400
19.238800 1.414400
19.266100 1.427000
19.293300 1.418700
19.320600 1.335900
19.347900 1.317500
19.375100 1.312300
19.402400 1.319400
19.429700 1.375100
19.457000 1.435000
19.484200 1.459000
19.511500 1.491800
19.538800 1.540800
19.566100 1.600800
19.593300 1.642600
19.620600 1.662900
19.647900 1.596900
19.675200 1.584100
19.702400 1.680200
19.729700 1.599100
19.757000 1.539300
19.784200 1.505100
19.811500 1.498200
19.838800 1.488600
19.866100 1.487400
19.893300 1.484000
19.920600 1.479300
19.947900 1.467600
19.975200 1.451900
20.002400 1.449500
20.029700 1.442900
20.057000 1.437700
20.084200 1.448400
20.111500 1.445300
20.138800 1.404600
20.166100 1.383100
20.193300 1.362400
20.220600 1.332200
20.247900 1.321700
20.275200 1.336600
20.302400 1.334300
20.329700 1.302700
20.357000 1.254400
20.384300 1.209500
20.411500 1.193000
20.438800 1.197700
20.466100 1.196500
20.493300 1.188800
20.520600 1.195700
20.547900 1.202200
20.575200 1.210100
20.602400 1.187300
20.629700 1.167700
20.657000 1.159000
20.684300 1.103100
20.711500 1.084200
20.738800 1.075900
20.766100 1.072600
20.793300 1.070400
20.820600 1.066100
20.847900 1.056500
20.875200 1.007000
20.902400 0.985100
20.929700 0.981300
20.957000 0.969400
20.984300 1.049300
21.011500 1.066700
21.038800 1.042900
21.066100 1.009100
21.093300 0.992100
21.120600 0.999100
21.147900 1.011700
21.175200 1.034100
21.202400 1.059100
21.229700 1.088700
21.257000 1.131700
21.284300 1.126900
21.311500 1.119400
21.338800 1.106400
21.366100 1.104000
21.393400 1.103000
21.420600 1.019900
21.447900 0.973000
21.475200 0.936500
21.502400 0.901400
21.529700 0.868900
21.557000 0.839600
21.584300 0.844500
21.611500 0.835700
21.638800 0.826600
21.666100 0.813200
21.693400 0.809900
21.720600 0.812100
21.747900 0.861600
21.775200 0.917000
21.802400 0.980300
21.829700 1.034700
21.857000 1.119900
21.884300 1.200700
21.911500 1.247800
21.938800 1.320200
21.966100 1.424400
21.993400 1.490500
22.020600 1.606400
22.047900 1.631000
22.075200 1.680500
22.102400 1.733600
22.129700 1.885100
22.157000 2.036700
22.184300 2.194100
22.211500 1.967500
22.238800 1.544200
22.266100 1.471300
22.293400 1.527300
22.320600 1.342300
22.347900 1.186000
22.375200 1.135600
22.402500 1.194100
22.429700 1.210200
22.457000 1.234200
22.484300 1.256300
22.511500 1.229600
22.538800 1.183600
22.566100 1.140200
