set title 'mp-989737 - Density of States'
set xlabel 'Energy (eV)'
set ylabel 'DOS (states/eV)'
set grid
set xrange [-10:10]
set yrange [0:17.919]
set xzeroaxis lt -1
set terminal png size 800,600
set output 'mp-989737_dos_gnuplot.png'
plot '-' using 1:2 with lines title 'DOS'
-6.600200 0.000000
-6.575200 0.000000
-6.550300 0.000000
-6.525300 0.000000
-6.500400 0.000000
-6.475400 0.000000
-6.450500 0.000000
-6.425500 0.000000
-6.400600 0.000000
-6.375600 0.000000
-6.350700 0.000000
-6.325700 0.000000
-6.300800 0.000000
-6.275800 0.000000
-6.250900 0.000000
-6.225900 0.000000
-6.201000 0.000000
-6.176000 0.000000
-6.151100 0.000000
-6.126100 0.000000
-6.101200 0.000000
-6.076300 0.000000
-6.051300 0.000000
-6.026400 0.000000
-6.001400 0.000000
-5.976500 0.000000
-5.951500 0.000000
-5.926600 0.000000
-5.901600 0.000000
-5.876700 0.000000
-5.851700 0.000000
-5.826800 0.000000
-5.801800 0.000000
-5.776900 0.000000
-5.751900 0.000000
-5.727000 0.000000
-5.702000 0.000000
-5.677100 0.000000
-5.652100 0.000000
-5.627200 0.000000
-5.602200 0.000000
-5.577300 0.000000
-5.552300 0.000000
-5.527400 0.000000
-5.502400 0.000000
-5.477500 0.000000
-5.452500 0.000000
-5.427600 0.000000
-5.402600 0.000000
-5.377700 0.000000
-5.352700 0.000000
-5.327800 0.000000
-5.302800 0.000000
-5.277900 0.000000
-5.252900 0.000000
-5.228000 0.000000
-5.203000 0.000000
-5.178100 0.000000
-5.153200 0.000000
-5.128200 0.000000
-5.103300 0.000000
-5.078300 0.000000
-5.053400 0.000000
-5.028400 0.000000
-5.003500 0.000000
-4.978500 0.000000
-4.953600 0.000000
-4.928600 0.000000
-4.903700 0.000000
-4.878700 0.000000
-4.853800 0.000000
-4.828800 0.000000
-4.803900 0.000000
-4.778900 0.000000
-4.754000 0.000000
-4.729000 0.000000
-4.704100 0.000000
-4.679100 0.000000
-4.654200 0.000000
-4.629200 0.000000
-4.604300 0.000000
-4.579300 0.000000
-4.554400 0.000000
-4.529400 0.000000
-4.504500 0.000000
-4.479500 0.000000
-4.454600 0.000000
-4.429600 0.000000
-4.404700 0.000000
-4.379700 0.000000
-4.354800 0.000000
-4.329800 0.000100
-4.304900 0.008300
-4.279900 0.023700
-4.255000 0.043800
-4.230100 0.067600
-4.205100 0.093900
-4.180200 0.122700
-4.155200 0.119500
-4.130300 0.123700
-4.105300 0.131800
-4.080400 0.140000
-4.055400 0.148100
-4.030500 0.157600
-4.005500 0.167400
-3.980600 0.176800
-3.955600 0.185900
-3.930700 0.195300
-3.905700 0.205200
-3.880800 0.215400
-3.855800 0.225100
-3.830900 0.233300
-3.805900 0.240400
-3.781000 0.247300
-3.756000 0.254100
-3.731100 0.260700
-3.706100 0.268200
-3.681200 0.276400
-3.656200 0.286400
-3.631300 0.297300
-3.606300 0.307700
-3.581400 0.317500
-3.556400 0.325800
-3.531500 0.332400
-3.506500 0.337200
-3.481600 0.340200
-3.456600 0.352700
-3.431700 0.375600
-3.406700 0.390600
-3.381800 0.400500
-3.356800 0.412200
-3.331900 0.424200
-3.306900 0.437600
-3.282000 0.452500
-3.257100 0.469000
-3.232100 0.486900
-3.207200 0.505800
-3.182200 0.525700
-3.157300 0.547400
-3.132300 0.571400
-3.107400 0.598700
-3.082400 0.630300
-3.057500 0.669500
-3.032500 1.340700
-3.007600 2.022200
-2.982600 2.746200
-2.957700 3.841800
-2.932700 4.390400
-2.907800 5.008900
-2.882800 5.602600
-2.857900 6.390800
-2.832900 7.360300
-2.808000 7.720600
-2.783000 8.360300
-2.758100 8.758600
-2.733100 8.622000
-2.708200 8.764800
-2.683200 9.089000
-2.658300 9.507800
-2.633300 10.042900
-2.608400 11.756800
-2.583400 12.527300
-2.558500 12.180200
-2.533500 12.846900
-2.508600 12.388200
-2.483600 11.074600
-2.458700 11.343800
-2.433700 9.883600
-2.408800 9.723300
-2.383800 9.124300
-2.358900 9.223500
-2.334000 8.539200
-2.309000 7.830900
-2.284100 7.455100
-2.259100 7.393600
-2.234200 7.667500
-2.209200 6.768400
-2.184300 6.866600
-2.159300 6.642800
-2.134400 6.829100
-2.109400 7.587200
-2.084500 6.628500
-2.059500 6.149900
-2.034600 6.976900
-2.009600 11.406300
-1.984700 9.347000
-1.959700 7.657500
-1.934800 6.823400
-1.909800 7.010600
-1.884900 10.360400
-1.859900 10.553100
-1.835000 11.209800
-1.810000 13.113700
-1.785100 10.554900
-1.760100 10.194000
-1.735200 9.194900
-1.710200 6.797700
-1.685300 6.621600
-1.660300 8.535900
-1.635400 10.074400
-1.610400 10.499500
-1.585500 12.554300
-1.560500 11.802900
-1.535600 11.100400
-1.510600 10.516600
-1.485700 12.178200
-1.460700 12.801300
-1.435800 10.153500
-1.410800 9.884800
-1.385900 9.650300
-1.361000 11.556400
-1.336000 9.753400
-1.311100 13.661700
-1.286100 13.147000
-1.261200 11.400300
-1.236200 11.324200
-1.211300 9.946300
-1.186300 9.635400
-1.161400 9.729300
-1.136400 11.542600
-1.111500 10.770400
-1.086500 9.603600
-1.061600 8.705100
-1.036600 8.889600
-1.011700 9.036200
-0.986700 10.098100
-0.961800 10.452700
-0.936800 13.524900
-0.911900 10.824700
-0.886900 9.581400
-0.862000 9.458400
-0.837000 10.535900
-0.812100 10.664900
-0.787100 9.414500
-0.762200 9.218100
-0.737200 8.918700
-0.712300 9.338300
-0.687300 7.847400
-0.662400 7.225700
-0.637400 6.893700
-0.612500 7.042700
-0.587500 7.181600
-0.562600 7.825500
-0.537600 8.130800
-0.512700 8.297800
-0.487700 8.521100
-0.462800 9.250500
-0.437900 9.557900
-0.412900 9.977400
-0.388000 9.818000
-0.363000 8.897400
-0.338100 8.554100
-0.313100 8.460900
-0.288200 9.021400
-0.263200 9.578000
-0.238300 9.452200
-0.213300 9.516900
-0.188400 11.106800
-0.163400 13.709000
-0.138500 11.899300
-0.113500 11.287000
-0.088600 13.663300
-0.063600 13.577000
-0.038700 12.694000
-0.013700 13.242500
0.011200 13.629100
0.036200 13.487300
0.061100 12.653800
0.086100 13.037400
0.111000 16.290100
0.136000 16.106500
0.160900 3.064200
0.185900 0.875300
0.210800 0.874900
0.235800 0.871000
0.260700 0.853100
0.285700 0.827100
0.310600 0.806000
0.335600 0.797700
0.360500 0.788200
0.385500 0.781000
0.410400 0.775600
0.435400 0.770500
0.460300 0.765900
0.485200 0.763700
0.510200 0.763500
0.535100 0.764800
0.560100 0.766200
0.585000 0.767600
0.610000 0.769100
0.634900 0.744300
0.659900 0.723900
0.684800 0.713500
0.709800 0.706000
0.734700 0.699700
0.759700 0.693900
0.784600 0.689300
0.809600 0.685700
0.834500 0.682800
0.859500 0.680500
0.884400 0.678600
0.909400 0.676500
0.934300 0.673900
0.959300 0.670400
0.984200 0.670600
1.009200 0.671700
1.034100 0.672900
1.059100 0.674000
1.084000 0.674400
1.109000 0.674600
1.133900 0.674500
1.158900 0.674900
1.183800 0.675800
1.208800 0.676900
1.233700 0.678300
1.258700 0.679800
1.283600 0.681400
1.308600 0.683000
1.333500 0.684700
1.358500 0.686300
1.383400 0.688000
1.408400 0.689700
1.433300 0.691400
1.458200 0.693100
1.483200 0.694300
1.508100 0.694900
1.533100 0.694800
1.558000 0.696000
1.583000 0.698100
1.607900 0.700200
1.632900 0.702300
1.657800 0.704400
1.682800 0.706500
1.707700 0.708600
1.732700 0.710800
1.757600 0.711800
1.782600 0.709700
1.807500 0.708800
1.832500 0.708600
1.857400 0.708800
1.882400 0.709100
1.907300 0.709600
1.932300 0.711200
1.957200 0.713000
1.982200 0.714700
2.007100 0.716800
2.032100 0.718900
2.057000 0.721200
2.082000 0.723500
2.106900 0.726100
2.131900 0.728700
2.156800 0.731400
2.181800 0.734200
2.206700 0.736800
2.231700 0.739600
2.256600 0.742600
2.281600 0.746000
2.306500 0.749500
2.331500 0.753100
2.356400 0.756400
2.381300 0.759800
2.406300 0.763300
2.431200 0.766900
2.456200 0.770500
2.481100 0.774300
2.506100 0.778200
2.531000 0.792900
2.556000 0.807800
2.580900 0.818200
2.605900 0.825800
2.630800 0.832900
2.655800 0.837900
2.680700 0.843000
2.705700 0.847700
2.730600 0.852000
2.755600 0.856300
2.780500 0.861100
2.805500 0.868300
2.830400 0.873900
2.855400 0.877200
2.880300 0.877900
2.905300 0.875800
2.930200 0.873700
2.955200 0.871600
2.980100 0.869600
3.005100 0.867600
3.030000 0.865400
3.055000 0.863000
3.079900 0.860600
3.104900 0.857900
3.129800 0.855000
3.154800 0.851800
3.179700 0.847900
3.204700 0.842100
3.229600 0.837800
3.254600 0.835100
3.279500 0.837600
3.304500 0.952400
3.329400 1.011200
3.354300 0.934200
3.379300 0.903600
3.404200 0.888200
3.429200 0.873600
3.454100 0.865800
3.479100 0.860100
3.504000 0.855700
3.529000 0.854700
3.553900 0.857400
3.578900 0.875200
3.603800 0.889400
3.628800 0.882200
3.653700 0.852400
3.678700 0.808000
3.703600 0.800700
3.728600 0.794900
3.753500 0.790000
3.778500 0.786400
3.803400 0.784400
3.828400 0.783700
3.853300 0.783600
3.878300 0.785200
3.903200 0.787200
3.928200 0.789900
3.953100 0.800500
3.978100 0.814500
4.003000 0.810700
4.028000 0.807000
4.052900 0.803700
4.077900 0.800700
4.102800 0.798000
4.127800 0.796400
4.152700 0.796300
4.177700 0.797800
4.202600 0.800700
4.227600 0.799600
4.252500 0.798500
4.277400 0.796900
4.302400 0.794600
4.327300 0.790800
4.352300 0.781600
4.377200 0.766400
4.402200 0.734600
4.427100 0.697900
4.452100 0.689400
4.477000 0.689100
4.502000 0.690000
4.526900 0.699500
4.551900 0.725500
4.576800 0.760900
4.601800 0.788800
4.626700 0.822400
4.651700 0.850800
4.676600 0.869100
4.701600 0.880100
4.726500 0.885800
4.751500 0.889900
4.776400 0.899700
4.801400 0.927200
4.826300 0.965400
4.851300 0.981700
4.876200 0.982100
4.901200 0.969600
4.926100 0.953700
4.951100 0.942600
4.976000 0.935600
5.001000 0.930800
5.025900 0.923400
5.050900 0.913800
5.075800 0.896900
5.100800 0.912300
5.125700 0.875100
5.150700 0.841700
5.175600 0.812600
5.200500 0.788900
5.225500 0.770000
5.250400 0.757000
5.275400 0.744300
5.300300 0.731400
5.325300 0.720400
5.350200 0.711100
5.375200 0.702200
5.400100 0.692100
5.425100 0.684000
5.450000 0.679900
5.475000 0.679100
5.499900 0.677000
5.524900 0.680300
5.549800 0.693500
5.574800 0.730900
5.599700 0.879700
5.624700 0.939400
5.649600 0.748400
5.674600 0.697200
5.699500 0.679000
5.724500 0.663400
5.749400 0.650900
5.774400 0.641800
5.799300 0.634800
5.824300 0.629300
5.849200 0.624500
5.874200 0.619600
5.899100 0.614700
5.924100 0.609900
5.949000 0.608100
5.974000 0.606700
5.998900 0.605600
6.023900 0.604800
6.048800 0.604400
6.073800 0.604200
6.098700 0.598100
6.123700 0.584000
6.148600 0.573700
6.173500 0.569300
6.198500 0.568400
6.223400 0.568300
6.248400 0.568300
6.273300 0.568300
6.298300 0.568200
6.323200 0.567700
6.348200 0.567000
6.373100 0.566000
6.398100 0.607900
6.423000 0.621100
6.448000 0.635600
6.472900 0.651400
6.497900 0.668400
6.522800 0.686800
6.547800 0.665000
6.572700 0.664700
6.597700 0.664000
6.622600 0.662900
6.647600 0.661700
6.672500 0.686900
6.697500 0.733100
6.722400 0.784200
6.747400 0.667600
6.772300 0.617600
6.797300 0.580800
6.822200 0.552200
6.847200 0.532700
6.872100 0.520500
6.897100 0.511900
6.922000 0.508200
6.947000 0.516900
6.971900 0.536900
6.996900 0.567000
7.021800 0.597300
7.046800 0.620200
7.071700 0.637600
7.096600 0.648100
7.121600 0.663000
7.146500 0.683900
7.171500 0.695500
7.196400 0.715900
7.221400 0.750700
7.246300 0.777500
7.271300 0.812100
7.296200 0.835100
7.321200 0.843800
7.346100 0.854100
7.371100 0.872400
7.396000 0.856700
7.421000 0.844800
7.445900 0.837100
7.470900 0.835200
7.495800 0.833100
7.520800 0.833000
7.545700 0.837800
7.570700 0.852500
7.595600 0.875900
7.620600 0.909100
7.645500 0.945400
7.670500 0.983500
7.695400 1.012900
7.720400 1.011900
7.745300 0.987000
7.770300 0.974400
7.795200 0.983200
7.820200 0.983400
7.845100 0.990900
7.870100 0.995400
7.895000 1.003200
7.920000 1.014500
7.944900 1.026600
7.969900 1.040500
7.994800 1.156900
8.019700 1.120500
8.044700 1.157000
8.069600 1.203400
8.094600 1.225600
8.119500 1.239800
8.144500 1.246200
8.169400 1.245000
8.194400 1.249500
8.219300 1.260900
8.244300 1.272800
8.269200 1.284700
8.294200 1.287800
8.319100 1.280600
8.344100 1.277800
8.369000 1.237600
8.394000 1.230800
8.418900 1.227300
8.443900 1.221700
8.468800 1.214700
8.493800 1.214200
8.518700 1.218300
8.543700 1.227500
8.568600 1.240200
8.593600 1.246400
8.618500 1.248200
8.643500 1.246300
8.668400 1.243400
8.693400 1.243700
8.718300 1.246900
8.743300 1.248900
8.768200 1.261200
8.793200 1.262300
8.818100 1.249000
8.843100 1.239500
8.868000 1.239200
8.893000 1.228700
8.917900 1.196900
8.942900 1.170300
8.967800 1.134600
8.992700 1.119000
9.017700 1.133900
9.042600 1.166700
9.067600 1.176300
9.092500 1.133900
9.117500 1.126700
9.142400 1.124600
9.167400 1.128900
9.192300 1.140500
9.217300 1.158200
9.242200 1.179900
9.267200 1.203600
9.292100 1.210800
9.317100 1.217800
9.342000 1.231700
9.367000 1.221100
9.391900 1.214700
9.416900 1.237200
9.441800 1.210100
9.466800 1.100200
9.491700 1.094900
9.516700 1.108700
9.541600 1.130100
9.566600 1.154100
9.591500 1.174900
9.616500 1.192800
9.641400 1.208200
9.666400 1.221700
9.691300 1.234200
9.716300 1.243500
9.741200 1.246600
9.766200 1.243800
9.791100 1.235700
9.816100 1.227500
9.841000 1.230200
9.866000 1.233300
9.890900 1.231700
9.915800 1.225000
9.940800 1.191300
9.965700 1.153700
9.990700 1.123300
10.015600 1.105300
10.040600 1.094500
10.065500 1.087700
10.090500 1.085100
10.115400 1.086400
10.140400 1.090900
10.165300 1.094900
10.190300 1.107000
10.215200 1.116900
10.240200 1.120100
10.265100 1.116300
10.290100 1.027300
10.315000 1.023300
10.340000 1.021800
10.364900 1.021500
10.389900 1.021700
10.414800 1.026300
10.439800 1.084700
10.464700 1.080200
10.489700 1.084700
10.514600 1.102800
10.539600 1.118500
10.564500 1.122800
10.589500 1.128000
10.614400 1.134600
10.639400 1.142000
10.664300 1.148100
10.689300 1.166800
10.714200 1.177300
10.739200 1.184500
10.764100 1.187900
10.789100 1.186400
10.814000 1.177900
10.839000 1.173500
10.863900 1.178800
10.888800 1.189700
10.913800 1.198000
10.938700 1.202500
10.963700 1.205200
10.988600 1.208100
11.013600 1.212000
11.038500 1.218400
11.063500 1.234000
11.088400 1.258200
11.113400 1.282400
11.138300 1.293200
11.163300 1.311700
11.188200 1.331400
11.213200 1.343300
11.238100 1.346800
11.263100 1.342900
11.288000 1.333600
11.313000 1.334000
11.337900 1.340500
11.362900 1.361400
11.387800 1.378900
11.412800 1.390500
11.437700 1.388300
11.462700 1.387600
11.487600 1.388600
11.512600 1.365700
11.537500 1.353900
11.562500 1.353900
11.587400 1.352700
11.612400 1.343600
11.637300 1.329500
11.662300 1.311500
11.687200 1.299300
11.712200 1.291000
11.737100 1.298000
11.762100 1.290500
11.787000 1.276400
11.811900 1.268000
11.836900 1.264200
11.861800 1.264500
11.886800 1.267000
11.911700 1.264300
11.936700 1.272700
11.961600 1.277200
11.986600 1.275700
12.011500 1.268200
12.036500 1.259400
12.061400 1.251900
12.086400 1.246200
12.111300 1.243800
12.136300 1.242900
12.161200 1.242700
12.186200 1.244800
12.211100 1.250200
12.236100 1.258800
12.261000 1.270500
12.286000 1.282800
12.310900 1.290900
12.335900 1.291700
12.360800 1.287300
12.385800 1.286800
12.410700 1.291000
12.435700 1.295800
12.460600 1.301700
12.485600 1.309000
12.510500 1.317700
12.535500 1.327300
12.560400 1.336000
12.585400 1.334800
12.610300 1.325600
12.635300 1.312900
12.660200 1.300000
12.685200 1.300400
12.710100 1.314200
12.735000 1.328600
12.760000 1.328200
12.784900 1.328600
12.809900 1.339000
12.834800 1.350100
12.859800 1.366600
12.884700 1.399800
12.909700 1.431000
12.934600 1.454900
12.959600 1.475700
12.984500 1.493100
13.009500 1.507000
13.034400 1.516500
13.059400 1.524800
13.084300 1.532700
13.109300 1.538100
13.134200 1.544600
13.159200 1.546800
13.184100 1.545800
13.209100 1.540900
13.234000 1.534400
13.259000 1.526200
13.283900 1.518400
13.308900 1.513700
13.333800 1.509600
13.358800 1.505400
13.383700 1.500900
13.408700 1.496000
13.433600 1.490800
13.458600 1.484500
13.483500 1.477400
13.508500 1.470500
13.533400 1.443500
13.558400 1.432600
13.583300 1.423200
13.608300 1.416000
13.633200 1.404900
13.658200 1.398800
13.683100 1.399700
13.708000 1.411800
13.733000 1.427500
13.757900 1.441700
13.782900 1.454700
13.807800 1.467300
13.832800 1.479800
13.857700 1.491400
13.882700 1.497500
13.907600 1.502100
13.932600 1.506800
13.957500 1.510700
13.982500 1.529500
14.007400 1.654700
14.032400 1.600000
14.057300 1.590100
14.082300 1.608000
14.107200 1.629100
14.132200 1.637100
14.157100 1.637000
14.182100 1.630000
14.207000 1.615900
14.232000 1.598400
14.256900 1.580300
14.281900 1.559500
14.306800 1.532200
14.331800 1.496200
14.356700 1.457200
14.381700 1.430800
14.406600 1.415700
14.431600 1.403600
14.456500 1.394300
14.481500 1.387600
14.506400 1.383800
14.531400 1.383000
14.556300 1.380500
14.581300 1.375400
14.606200 1.368700
14.631100 1.375600
14.656100 1.381700
14.681000 1.381100
14.706000 1.382400
14.730900 1.385100
14.755900 1.388600
14.780800 1.389500
14.805800 1.387400
14.830700 1.387200
14.855700 1.389000
14.880600 1.394400
14.905600 1.408200
14.930500 1.425000
14.955500 1.433900
14.980400 1.437100
15.005400 1.451800
15.030300 1.465900
15.055300 1.476700
15.080200 1.487400
15.105200 1.497000
15.130100 1.504300
15.155100 1.509800
15.180000 1.513800
15.205000 1.518100
15.229900 1.523000
15.254900 1.508600
15.279800 1.484700
15.304800 1.481800
15.329700 1.485000
15.354700 1.490900
15.379600 1.498200
15.404600 1.509300
15.429500 1.522900
15.454500 1.542400
15.479400 1.568100
15.504400 1.602500
15.529300 1.633500
15.554300 1.660200
15.579200 1.678500
15.604100 1.686200
15.629100 1.687200
15.654000 1.691800
15.679000 1.693600
15.703900 1.690900
15.728900 1.695600
15.753800 1.706700
15.778800 1.715400
15.803700 1.725900
15.828700 1.732700
15.853600 1.732500
15.878600 1.730400
15.903500 1.727400
15.928500 1.724300
15.953400 1.719900
15.978400 1.712900
16.003300 1.705100
16.028300 1.697100
16.053200 1.690100
16.078200 1.684300
16.103100 1.683400
16.128100 1.684000
16.153000 1.682600
16.178000 1.675500
16.202900 1.664200
16.227900 1.652700
16.252800 1.641500
16.277800 1.630100
16.302700 1.623900
16.327700 1.619800
16.352600 1.619500
16.377600 1.624700
16.402500 1.631700
16.427500 1.637700
16.452400 1.642900
16.477400 1.647800
16.502300 1.654400
16.527200 1.663400
16.552200 1.681400
16.577100 1.694700
16.602100 1.706800
16.627000 1.719000
16.652000 1.731600
16.676900 1.729000
16.701900 1.713800
16.726800 1.696800
16.751800 1.681800
16.776700 1.668600
16.801700 1.657400
16.826600 1.648300
16.851600 1.638500
16.876500 1.624200
16.901500 1.606400
16.926400 1.590900
16.951400 1.578100
16.976300 1.562700
17.001300 1.545400
17.026200 1.538100
17.051200 1.536900
17.076100 1.536900
17.101100 1.537200
17.126000 1.537700
17.151000 1.541200
17.175900 1.553000
17.200900 1.566600
17.225800 1.574500
17.250800 1.582700
17.275700 1.587100
17.300700 1.590000
17.325600 1.597100
17.350600 1.605700
17.375500 1.613900
17.400500 1.621400
17.425400 1.626600
17.450300 1.618200
17.475300 1.620400
17.500200 1.627000
17.525200 1.639900
17.550100 1.657000
17.575100 1.663900
17.600000 1.664100
17.625000 1.664200
17.649900 1.665400
17.674900 1.661400
17.699800 1.658300
17.724800 1.656400
17.749700 1.653700
17.774700 1.650200
17.799600 1.646700
17.824600 1.643400
17.849500 1.638700
17.874500 1.630700
17.899400 1.621400
17.924400 1.618700
17.949300 1.614000
17.974300 1.611100
17.999200 1.610900
18.024200 1.613400
18.049100 1.616500
18.074100 1.619900
18.099000 1.623000
18.124000 1.623500
18.148900 1.629800
18.173900 1.640000
18.198800 1.654400
18.223800 1.671200
18.248700 1.680400
18.273700 1.684700
18.298600 1.699100
18.323600 1.705100
18.348500 1.682000
18.373500 1.656400
18.398400 1.652700
18.423300 1.588000
18.448300 1.578100
18.473200 1.576300
18.498200 1.578700
18.523100 1.586700
18.548100 1.589600
18.573000 1.585100
18.598000 1.582500
18.622900 1.583700
18.647900 1.584100
18.672800 1.589200
18.697800 1.599500
18.722700 1.608900
18.747700 1.617200
18.772600 1.625900
18.797600 1.635500
18.822500 1.642500
18.847500 1.644500
18.872400 1.631100
18.897400 1.614600
18.922300 1.599000
18.947300 1.584800
18.972200 1.571500
18.997200 1.557600
19.022100 1.544200
19.047100 1.526600
19.072000 1.511800
19.097000 1.498300
19.121900 1.483400
19.146900 1.473000
19.171800 1.468400
19.196800 1.465000
19.221700 1.457500
19.246700 1.454900
19.271600 1.448500
19.296600 1.431400
19.321500 1.433600
19.346400 1.443100
19.371400 1.468500
19.396300 1.523800
19.421300 1.655500
19.446200 1.998400
19.471200 1.778600
19.496100 1.704900
19.521100 1.684200
19.546000 1.734900
19.571000 1.771700
19.595900 1.794200
19.620900 1.807900
19.645800 1.814200
19.670800 1.814800
19.695700 1.811700
19.720700 1.814900
