set title 'mp-982008 - Density of States'
set xlabel 'Energy (eV)'
set ylabel 'DOS (states/eV)'
set grid
set xrange [-10:10]
set yrange [0:28.776]
set xzeroaxis lt -1
set terminal png size 800,600
set output 'mp-982008_dos_gnuplot.png'
plot '-' using 1:2 with lines title 'DOS'
-21.633300 0.000000
-21.606900 0.000000
-21.580500 0.000000
-21.554100 0.000000
-21.527700 0.000000
-21.501300 0.000000
-21.474900 0.000000
-21.448600 0.000000
-21.422200 0.000000
-21.395800 0.000000
-21.369400 0.000000
-21.343000 0.000000
-21.316600 0.000000
-21.290200 0.000000
-21.263900 0.000000
-21.237500 0.000000
-21.211100 0.000000
-21.184700 0.000000
-21.158300 0.000000
-21.131900 0.000000
-21.105500 0.000000
-21.079100 0.000000
-21.052800 0.000000
-21.026400 0.000000
-21.000000 0.000000
-20.973600 0.000000
-20.947200 0.000000
-20.920800 0.000000
-20.894400 0.000000
-20.868100 0.000000
-20.841700 0.000000
-20.815300 0.000000
-20.788900 0.000000
-20.762500 0.000000
-20.736100 0.000000
-20.709700 0.000000
-20.683300 0.000000
-20.657000 0.000000
-20.630600 0.000000
-20.604200 0.000000
-20.577800 0.000000
-20.551400 0.000000
-20.525000 0.000000
-20.498600 0.000000
-20.472300 0.000000
-20.445900 0.000000
-20.419500 0.000000
-20.393100 0.000000
-20.366700 0.000000
-20.340300 0.000000
-20.313900 0.000000
-20.287600 0.000000
-20.261200 0.000000
-20.234800 0.000000
-20.208400 0.000000
-20.182000 0.000000
-20.155600 0.000000
-20.129200 0.000000
-20.102800 0.000000
-20.076500 0.000000
-20.050100 0.000000
-20.023700 0.000000
-19.997300 0.000000
-19.970900 0.000000
-19.944500 0.000000
-19.918100 0.000000
-19.891800 0.000000
-19.865400 0.000000
-19.839000 0.000000
-19.812600 0.000000
-19.786200 0.000000
-19.759800 0.000000
-19.733400 0.000000
-19.707000 0.000000
-19.680700 0.000000
-19.654300 0.000000
-19.627900 0.000000
-19.601500 0.000000
-19.575100 0.000000
-19.548700 0.000000
-19.522300 0.000000
-19.496000 0.000000
-19.469600 0.000000
-19.443200 0.000000
-19.416800 0.000000
-19.390400 0.000000
-19.364000 0.000000
-19.337600 0.000000
-19.311200 0.000000
-19.284900 0.000000
-19.258500 0.000000
-19.232100 26.251900
-19.205700 0.000000
-19.179300 0.000000
-19.152900 0.000000
-19.126500 0.000000
-19.100200 0.000000
-19.073800 0.000000
-19.047400 0.000000
-19.021000 0.000000
-18.994600 0.000000
-18.968200 0.000000
-18.941800 0.000000
-18.915400 0.000000
-18.889100 0.000000
-18.862700 0.000000
-18.836300 0.000000
-18.809900 0.000000
-18.783500 0.000000
-18.757100 0.000000
-18.730700 0.000000
-18.704400 0.000000
-18.678000 0.000000
-18.651600 0.000000
-18.625200 0.000000
-18.598800 0.000000
-18.572400 0.000000
-18.546000 0.000000
-18.519600 0.000000
-18.493300 0.000000
-18.466900 0.000000
-18.440500 0.000000
-18.414100 0.000000
-18.387700 0.000000
-18.361300 0.000000
-18.334900 0.000000
-18.308600 0.000000
-18.282200 0.000000
-18.255800 0.000000
-18.229400 0.000000
-18.203000 0.000000
-18.176600 0.000000
-18.150200 0.000000
-18.123800 0.000000
-18.097500 0.000000
-18.071100 0.000000
-18.044700 0.000000
-18.018300 0.000000
-17.991900 0.000000
-17.965500 0.000000
-17.939100 0.000000
-17.912800 0.000000
-17.886400 0.000000
-17.860000 0.000000
-17.833600 0.000000
-17.807200 0.000000
-17.780800 0.000000
-17.754400 0.000000
-17.728100 0.000000
-17.701700 0.000000
-17.675300 0.000000
-17.648900 0.000000
-17.622500 0.000000
-17.596100 0.000000
-17.569700 0.000000
-17.543300 0.000000
-17.517000 0.000000
-17.490600 0.000000
-17.464200 0.000000
-17.437800 0.000000
-17.411400 0.000000
-17.385000 0.000000
-17.358600 0.000000
-17.332300 0.000000
-17.305900 0.000000
-17.279500 0.000000
-17.253100 0.000000
-17.226700 0.000000
-17.200300 0.000000
-17.173900 0.000000
-17.147500 0.000000
-17.121200 0.000000
-17.094800 0.000000
-17.068400 0.000000
-17.042000 0.000000
-17.015600 0.000000
-16.989200 0.000000
-16.962800 0.000000
-16.936500 0.000000
-16.910100 0.000000
-16.883700 0.000000
-16.857300 0.000000
-16.830900 0.000000
-16.804500 0.000000
-16.778100 0.000000
-16.751700 0.000000
-16.725400 0.000000
-16.699000 0.000000
-16.672600 0.000000
-16.646200 0.000000
-16.619800 0.000000
-16.593400 0.000000
-16.567000 0.000000
-16.540700 0.000000
-16.514300 0.000000
-16.487900 0.000000
-16.461500 0.000000
-16.435100 0.000000
-16.408700 0.000000
-16.382300 0.000000
-16.355900 0.000000
-16.329600 0.000000
-16.303200 0.000000
-16.276800 0.000000
-16.250400 0.000000
-16.224000 0.000000
-16.197600 0.000000
-16.171200 0.000000
-16.144900 0.000000
-16.118500 0.000000
-16.092100 0.000000
-16.065700 0.000000
-16.039300 0.000000
-16.012900 0.000000
-15.986500 0.000000
-15.960100 0.000000
-15.933800 0.000000
-15.907400 0.000000
-15.881000 0.000000
-15.854600 0.000000
-15.828200 0.000000
-15.801800 0.000000
-15.775400 0.000000
-15.749100 0.000000
-15.722700 0.000000
-15.696300 0.000000
-15.669900 0.000000
-15.643500 0.000000
-15.617100 0.000000
-15.590700 0.000000
-15.564400 0.000000
-15.538000 0.000000
-15.511600 0.000000
-15.485200 0.000000
-15.458800 0.000000
-15.432400 0.000000
-15.406000 0.000000
-15.379600 0.000000
-15.353300 0.000000
-15.326900 0.000000
-15.300500 0.000000
-15.274100 0.000000
-15.247700 0.000000
-15.221300 0.000000
-15.194900 0.000000
-15.168600 0.000000
-15.142200 0.000000
-15.115800 0.000000
-15.089400 0.000000
-15.063000 0.000000
-15.036600 0.000000
-15.010200 0.000000
-14.983800 0.000000
-14.957500 0.000000
-14.931100 0.000000
-14.904700 0.000000
-14.878300 0.000000
-14.851900 0.000000
-14.825500 0.000000
-14.799100 0.000000
-14.772800 0.000000
-14.746400 0.000000
-14.720000 0.000000
-14.693600 0.000000
-14.667200 0.000000
-14.640800 0.000000
-14.614400 0.000000
-14.588000 0.000000
-14.561700 0.000000
-14.535300 0.000000
-14.508900 0.000000
-14.482500 0.000000
-14.456100 0.000000
-14.429700 0.000000
-14.403300 0.000000
-14.377000 0.000000
-14.350600 0.000000
-14.324200 0.000000
-14.297800 0.000000
-14.271400 0.000000
-14.245000 0.000000
-14.218600 0.000000
-14.192200 0.000000
-14.165900 0.000000
-14.139500 0.000000
-14.113100 0.000000
-14.086700 0.000000
-14.060300 0.000000
-14.033900 0.000000
-14.007500 0.000000
-13.981200 0.000000
-13.954800 0.000000
-13.928400 0.000000
-13.902000 0.000000
-13.875600 0.000000
-13.849200 0.000000
-13.822800 0.000000
-13.796400 0.000000
-13.770100 0.000000
-13.743700 0.000000
-13.717300 0.000000
-13.690900 0.000000
-13.664500 0.000000
-13.638100 0.000000
-13.611700 0.000000
-13.585400 0.000000
-13.559000 0.000000
-13.532600 0.000000
-13.506200 0.000000
-13.479800 0.000000
-13.453400 0.000000
-13.427000 0.000000
-13.400600 0.000000
-13.374300 0.000000
-13.347900 0.000000
-13.321500 0.000000
-13.295100 0.000000
-13.268700 0.000000
-13.242300 0.000000
-13.215900 0.000000
-13.189600 0.000000
-13.163200 0.000000
-13.136800 0.000000
-13.110400 0.000000
-13.084000 0.000000
-13.057600 0.000000
-13.031200 0.000000
-13.004900 0.000000
-12.978500 0.000000
-12.952100 0.000000
-12.925700 0.000000
-12.899300 0.000000
-12.872900 0.000000
-12.846500 0.000000
-12.820100 0.000000
-12.793800 0.000000
-12.767400 0.000000
-12.741000 0.000000
-12.714600 0.000000
-12.688200 0.000000
-12.661800 0.000000
-12.635400 0.000000
-12.609100 0.000000
-12.582700 0.000000
-12.556300 0.000000
-12.529900 0.000000
-12.503500 0.000000
-12.477100 0.000000
-12.450700 0.000000
-12.424300 0.000000
-12.398000 0.000000
-12.371600 0.000000
-12.345200 0.000000
-12.318800 0.000000
-12.292400 0.000000
-12.266000 0.000000
-12.239600 0.000000
-12.213300 0.000000
-12.186900 0.000000
-12.160500 0.000000
-12.134100 0.000000
-12.107700 0.000000
-12.081300 0.000000
-12.054900 0.000000
-12.028500 0.000000
-12.002200 0.000000
-11.975800 0.000000
-11.949400 0.000000
-11.923000 0.000000
-11.896600 0.000000
-11.870200 0.000000
-11.843800 0.000000
-11.817500 0.000000
-11.791100 0.000000
-11.764700 0.000000
-11.738300 0.000000
-11.711900 0.000000
-11.685500 0.000000
-11.659100 0.000000
-11.632700 0.000000
-11.606400 0.000000
-11.580000 0.000000
-11.553600 0.000000
-11.527200 0.000000
-11.500800 0.000000
-11.474400 0.000000
-11.448000 0.000000
-11.421700 0.000000
-11.395300 0.000000
-11.368900 0.000000
-11.342500 0.000000
-11.316100 0.000000
-11.289700 0.000000
-11.263300 0.000000
-11.236900 0.000000
-11.210600 0.000000
-11.184200 0.000000
-11.157800 0.000000
-11.131400 0.000000
-11.105000 0.000000
-11.078600 0.000000
-11.052200 0.000000
-11.025900 0.000000
-10.999500 0.000000
-10.973100 0.000000
-10.946700 0.000000
-10.920300 0.000000
-10.893900 0.000000
-10.867500 0.000000
-10.841200 0.000000
-10.814800 0.000000
-10.788400 0.000000
-10.762000 0.000000
-10.735600 0.000000
-10.709200 0.000000
-10.682800 0.000000
-10.656400 0.000000
-10.630100 0.000000
-10.603700 0.000000
-10.577300 0.000000
-10.550900 0.000000
-10.524500 0.000000
-10.498100 0.000000
-10.471700 0.000000
-10.445400 0.000000
-10.419000 0.000000
-10.392600 0.000000
-10.366200 0.000000
-10.339800 0.000000
-10.313400 0.000000
-10.287000 0.000000
-10.260600 0.000000
-10.234300 0.000000
-10.207900 0.000000
-10.181500 0.000000
-10.155100 0.000000
-10.128700 0.000000
-10.102300 0.000000
-10.075900 0.000000
-10.049600 0.000000
-10.023200 0.000000
-9.996800 0.000000
-9.970400 0.000000
-9.944000 0.000000
-9.917600 0.000000
-9.891200 0.000000
-9.864800 0.000000
-9.838500 0.000000
-9.812100 0.000000
-9.785700 0.000000
-9.759300 0.000000
-9.732900 0.000000
-9.706500 0.000000
-9.680100 0.000000
-9.653800 0.000000
-9.627400 0.000000
-9.601000 0.000000
-9.574600 0.000000
-9.548200 0.000000
-9.521800 0.000000
-9.495400 0.000000
-9.469000 0.000000
-9.442700 0.000000
-9.416300 0.000000
-9.389900 0.000000
-9.363500 0.000000
-9.337100 0.000000
-9.310700 0.000000
-9.284300 0.000000
-9.258000 0.000000
-9.231600 0.000000
-9.205200 0.000000
-9.178800 0.000000
-9.152400 0.000000
-9.126000 0.000000
-9.099600 0.000000
-9.073200 0.000000
-9.046900 0.000000
-9.020500 0.000000
-8.994100 0.000000
-8.967700 0.000000
-8.941300 0.000000
-8.914900 0.000000
-8.888500 0.000000
-8.862200 0.000000
-8.835800 0.000000
-8.809400 0.000000
-8.783000 0.000000
-8.756600 0.000000
-8.730200 0.000000
-8.703800 0.000000
-8.677500 0.000000
-8.651100 0.000000
-8.624700 0.000000
-8.598300 0.000000
-8.571900 0.000000
-8.545500 0.000000
-8.519100 0.000000
-8.492700 0.000000
-8.466400 0.000000
-8.440000 0.000000
-8.413600 0.000000
-8.387200 0.000000
-8.360800 0.000000
-8.334400 0.000000
-8.308000 0.000000
-8.281700 0.000000
-8.255300 0.000000
-8.228900 0.000000
-8.202500 0.000000
-8.176100 0.000000
-8.149700 0.000000
-8.123300 0.000000
-8.096900 0.000000
-8.070600 0.000000
-8.044200 0.000000
-8.017800 0.000000
-7.991400 0.000000
-7.965000 0.000000
-7.938600 0.000000
-7.912200 0.000000
-7.885900 0.000000
-7.859500 0.000000
-7.833100 0.000000
-7.806700 0.000000
-7.780300 0.000000
-7.753900 0.000000
-7.727500 0.000000
-7.701100 0.000000
-7.674800 0.000000
-7.648400 0.000000
-7.622000 0.000000
-7.595600 0.000000
-7.569200 0.000000
-7.542800 0.000000
-7.516400 0.000000
-7.490100 0.000000
-7.463700 0.000000
-7.437300 0.000000
-7.410900 0.000000
-7.384500 0.000000
-7.358100 0.000000
-7.331700 0.000000
-7.305300 0.000000
-7.279000 0.000000
-7.252600 0.000000
-7.226200 0.000000
-7.199800 0.000000
-7.173400 0.000000
-7.147000 0.000000
-7.120600 0.000000
-7.094300 0.000000
-7.067900 0.000000
-7.041500 0.000000
-7.015100 0.000000
-6.988700 0.000000
-6.962300 0.000000
-6.935900 0.000000
-6.909500 0.000000
-6.883200 0.000000
-6.856800 0.000000
-6.830400 0.000000
-6.804000 0.000000
-6.777600 0.000000
-6.751200 0.000000
-6.724800 0.000000
-6.698500 0.000000
-6.672100 0.000000
-6.645700 0.000000
-6.619300 0.000000
-6.592900 0.000000
-6.566500 0.000000
-6.540100 0.000000
-6.513700 0.000000
-6.487400 0.000000
-6.461000 0.000000
-6.434600 0.000000
-6.408200 0.000000
-6.381800 0.000000
-6.355400 0.000000
-6.329000 0.218500
-6.302700 0.611600
-6.276300 0.684000
-6.249900 0.771800
-6.223500 0.934100
-6.197100 1.108500
-6.170700 1.243800
-6.144300 1.395400
-6.118000 1.545300
-6.091600 1.870800
-6.065200 2.181400
-6.038800 2.421500
-6.012400 5.330800
-5.986000 6.267200
-5.959600 6.863900
-5.933200 8.412100
-5.906900 10.058800
-5.880500 11.056600
-5.854100 11.554300
-5.827700 12.134700
-5.801300 15.178800
-5.774900 19.433900
-5.748500 23.185400
-5.722200 16.071000
-5.695800 20.194700
-5.669400 17.483600
-5.643000 14.725100
-5.616600 13.437400
-5.590200 19.876200
-5.563800 11.299800
-5.537400 7.952100
-5.511100 8.046200
-5.484700 8.710300
-5.458300 12.129400
-5.431900 15.761900
-5.405500 19.500900
-5.379100 23.609200
-5.352700 17.536200
-5.326400 15.928900
-5.300000 15.960500
-5.273600 12.877300
-5.247200 13.174500
-5.220800 13.166300
-5.194400 14.377200
-5.168000 9.758900
-5.141600 8.601000
-5.115300 8.194200
-5.088900 7.408700
-5.062500 10.805700
-5.036100 13.761400
-5.009700 12.054100
-4.983300 12.936000
-4.956900 10.198000
-4.930600 10.608500
-4.904200 11.671900
-4.877800 12.179100
-4.851400 10.879500
-4.825000 9.141600
-4.798600 14.578100
-4.772200 19.350900
-4.745800 19.018500
-4.719500 16.357800
-4.693100 18.597700
-4.666700 20.837600
-4.640300 25.382400
-4.613900 24.260500
-4.587500 26.159800
-4.561100 21.389100
-4.534800 14.219300
-4.508400 15.996800
-4.482000 23.189600
-4.455600 21.411600
-4.429200 18.743300
-4.402800 15.641800
-4.376400 18.651600
-4.350000 14.017000
-4.323700 12.785100
-4.297300 11.887000
-4.270900 10.704500
-4.244500 10.725800
-4.218100 10.828100
-4.191700 9.142500
-4.165300 9.548900
-4.139000 10.671000
-4.112600 13.453300
-4.086200 12.897100
-4.059800 8.965900
-4.033400 10.820000
-4.007000 17.113500
-3.980600 18.991600
-3.954300 18.776400
-3.927900 11.032700
-3.901500 7.668000
-3.875100 4.270300
-3.848700 3.469700
-3.822300 2.658500
-3.795900 1.474000
-3.769500 1.428300
-3.743200 1.350900
-3.716800 1.295100
-3.690400 1.255500
-3.664000 1.241500
-3.637600 1.225500
-3.611200 1.224700
-3.584800 1.225000
-3.558500 1.225500
-3.532100 1.228800
-3.505700 1.236900
-3.479300 1.252700
-3.452900 1.283000
-3.426500 1.320300
-3.400100 1.364900
-3.373700 1.420600
-3.347400 1.478000
-3.321000 1.535400
-3.294600 1.628400
-3.268200 1.724300
-3.241800 1.693400
-3.215400 1.499400
-3.189000 1.400200
-3.162700 1.315800
-3.136300 1.243500
-3.109900 1.114100
-3.083500 1.057400
-3.057100 0.989800
-3.030700 0.909900
-3.004300 0.843100
-2.977900 0.784800
-2.951600 0.735000
-2.925200 0.686600
-2.898800 0.627700
-2.872400 0.593900
-2.846000 0.553400
-2.819600 0.521800
-2.793200 0.502500
-2.766900 0.556500
-2.740500 0.560500
-2.714100 0.572200
-2.687700 0.590900
-2.661300 0.613400
-2.634900 0.637800
-2.608500 0.665200
-2.582100 0.699400
-2.555800 0.784100
-2.529400 0.936600
-2.503000 1.018500
-2.476600 1.142700
-2.450200 1.268400
-2.423800 1.389200
-2.397400 1.479800
-2.371100 1.491800
-2.344700 1.452900
-2.318300 1.414600
-2.291900 1.375300
-2.265500 1.339500
-2.239100 1.300000
-2.212700 1.256500
-2.186300 1.213500
-2.160000 1.203300
-2.133600 1.172300
-2.107200 1.163600
-2.080800 1.157600
-2.054400 1.211300
-2.028000 1.291100
-2.001600 1.421500
-1.975300 1.617700
-1.948900 1.854100
-1.922500 1.841100
-1.896100 1.795500
-1.869700 1.803300
-1.843300 1.710700
-1.816900 1.618700
-1.790500 1.569100
-1.764200 1.528000
-1.737800 1.527300
-1.711400 1.486500
-1.685000 1.490500
-1.658600 1.506000
-1.632200 1.565800
-1.605800 1.653800
-1.579500 1.644100
-1.553100 1.682200
-1.526700 1.746600
-1.500300 1.843700
-1.473900 1.876200
-1.447500 1.924000
-1.421100 1.999000
-1.394800 2.086600
-1.368400 2.212000
-1.342000 2.266000
-1.315600 2.314000
-1.289200 2.391900
-1.262800 2.526500
-1.236400 2.777000
-1.210000 3.005500
-1.183700 3.241700
-1.157300 3.517700
-1.130900 3.778500
-1.104500 3.957400
-1.078100 4.146800
-1.051700 4.411500
-1.025300 4.994400
-0.999000 6.424300
-0.972600 7.552700
-0.946200 12.562600
-0.919800 5.429500
-0.893400 3.881100
-0.867000 3.286800
-0.840600 3.043400
-0.814200 3.041700
-0.787900 3.261500
-0.761500 3.586300
-0.735100 3.573600
-0.708700 5.434700
-0.682300 5.915300
-0.655900 5.126700
-0.629500 4.553400
-0.603200 4.324500
-0.576800 4.343700
-0.550400 4.543800
-0.524000 5.827600
-0.497600 4.469300
-0.471200 3.035000
-0.444800 2.391700
-0.418400 1.868100
-0.392100 1.600700
-0.365700 1.419500
-0.339300 1.258400
-0.312900 1.113600
-0.286500 0.981000
-0.260100 0.860200
-0.233700 0.587900
-0.207400 0.541400
-0.181000 0.491500
-0.154600 0.438200
-0.128200 0.407800
-0.101800 0.392300
-0.075400 1.505300
-0.049000 2.561900
-0.022600 4.572000
0.003700 6.926400
0.030100 8.214500
0.056500 6.277800
0.082900 4.257300
0.109300 3.115400
0.135700 2.679400
0.162100 2.394900
0.188400 2.206600
0.214800 1.999300
0.241200 1.763000
0.267600 1.639000
0.294000 1.549000
0.320400 1.508600
0.346800 1.442000
0.373200 1.387100
0.399500 1.340100
0.425900 1.298900
0.452300 1.278200
0.478700 1.250400
0.505100 1.185400
0.531500 1.124800
0.557900 1.127800
0.584200 1.875400
0.610600 2.056200
0.637000 2.512400
0.663400 2.488300
0.689800 2.467800
0.716200 2.375000
0.742600 2.220500
0.768900 1.999300
0.795300 1.871600
0.821700 1.777800
0.848100 1.735400
0.874500 1.694700
0.900900 1.647200
0.927300 1.583500
0.953700 1.550900
0.980000 1.464100
1.006400 1.417400
1.032800 1.394700
1.059200 1.372300
1.085600 1.349600
1.112000 1.324200
1.138400 1.306100
1.164700 1.297800
1.191100 1.292600
1.217500 1.269100
1.243900 1.233600
1.270300 1.223100
1.296700 1.199500
1.323100 1.159200
1.349500 1.128300
1.375800 1.099800
1.402200 1.066900
1.428600 1.050600
1.455000 1.034400
1.481400 1.020400
1.507800 1.009500
1.534200 1.002000
1.560500 0.999000
1.586900 0.954900
1.613300 0.943800
1.639700 0.931800
1.666100 0.919700
1.692500 1.072500
1.718900 0.934400
1.745300 0.926400
1.771600 0.921300
1.798000 0.919100
1.824400 0.918300
1.850800 0.918000
1.877200 0.919500
1.903600 0.922100
1.930000 0.926700
1.956300 0.934500
1.982700 0.944900
2.009100 0.927900
2.035500 0.911600
2.061900 0.892200
2.088300 0.870300
2.114700 0.858300
2.141100 0.849000
2.167400 0.837200
2.193800 0.819700
2.220200 0.791500
2.246600 0.766700
2.273000 0.740900
2.299400 0.716000
2.325800 0.692100
2.352100 0.675800
2.378500 0.695400
2.404900 0.687600
2.431300 0.676000
2.457700 0.655400
2.484100 0.591200
2.510500 0.585600
2.536900 0.584000
2.563200 0.584300
2.589600 0.583100
2.616000 0.578300
2.642400 0.574600
2.668800 0.575900
2.695200 0.612900
2.721600 0.598800
2.747900 0.605600
2.774300 0.614300
2.800700 0.604000
2.827100 0.610500
2.853500 0.655500
2.879900 0.622700
2.906300 0.635900
2.932700 0.648400
2.959000 0.667900
2.985400 0.686900
3.011800 0.695700
3.038200 0.698800
3.064600 0.700900
3.091000 0.702100
3.117400 0.702300
3.143700 0.699200
3.170100 0.700000
3.196500 0.720100
3.222900 0.724500
3.249300 0.731100
3.275700 0.737600
3.302100 0.741800
3.328400 0.752100
3.354800 0.758400
3.381200 0.793700
3.407600 0.820700
3.434000 0.841100
3.460400 0.856300
3.486800 0.882700
3.513200 0.908100
3.539500 0.931300
3.565900 0.953000
3.592300 0.981400
3.618700 1.019600
3.645100 1.074300
3.671500 1.129000
3.697900 1.186700
3.724200 1.269100
3.750600 1.369500
3.777000 1.467200
3.803400 1.609600
3.829800 1.640000
3.856200 1.635600
3.882600 1.524500
3.909000 1.508300
3.935300 1.514800
3.961700 1.518500
3.988100 1.517500
4.014500 1.518500
4.040900 1.521900
4.067300 1.509100
4.093700 1.510500
4.120000 1.505300
4.146400 1.492300
4.172800 1.479700
4.199200 1.476900
4.225600 1.477500
4.252000 1.477800
4.278400 1.463100
4.304800 1.454600
4.331100 1.452300
4.357500 1.445300
4.383900 1.434800
4.410300 1.429800
4.436700 1.427100
4.463100 1.424200
4.489500 1.417000
4.515800 1.404200
4.542200 1.384000
4.568600 1.363200
4.595000 1.334000
4.621400 1.362500
4.647800 1.394900
4.674200 1.421100
4.700600 1.438300
4.726900 1.451500
4.753300 1.476400
4.779700 1.475200
4.806100 1.426400
4.832500 1.358700
4.858900 1.276200
4.885300 1.159800
4.911600 1.092500
4.938000 1.063200
4.964400 1.067800
4.990800 1.089000
5.017200 1.111300
5.043600 1.106200
5.070000 1.090600
5.096400 1.071100
5.122700 1.070400
5.149100 1.077000
5.175500 1.105700
5.201900 1.151100
5.228300 1.210100
5.254700 1.273900
5.281100 1.325600
