set title 'mp-567409 - Density of States'
set xlabel 'Energy (eV)'
set ylabel 'DOS (states/eV)'
set grid
set xrange [-10:10]
set yrange [0:4.433]
set xzeroaxis lt -1
set terminal png size 800,600
set output 'mp-567409_dos_gnuplot.png'
plot '-' using 1:2 with lines title 'DOS'
-7.363400 0.000000
-7.345600 0.000000
-7.327800 0.000000
-7.310100 0.000000
-7.292300 0.000000
-7.274500 0.000000
-7.256700 0.000000
-7.239000 0.000000
-7.221200 0.000000
-7.203400 0.000000
-7.185600 0.000000
-7.167900 0.000000
-7.150100 0.000000
-7.132300 0.000000
-7.114500 0.000000
-7.096800 0.000000
-7.079000 0.000000
-7.061200 0.000000
-7.043400 0.000000
-7.025700 0.000000
-7.007900 0.000000
-6.990100 0.000000
-6.972300 0.000000
-6.954600 0.000000
-6.936800 0.000000
-6.919000 0.000000
-6.901200 0.000000
-6.883500 0.000000
-6.865700 0.000000
-6.847900 0.000000
-6.830100 0.000000
-6.812400 0.000000
-6.794600 0.000000
-6.776800 0.000000
-6.759000 0.000000
-6.741300 0.000000
-6.723500 0.000000
-6.705700 0.000000
-6.687900 0.000000
-6.670200 0.000000
-6.652400 0.000000
-6.634600 0.000000
-6.616800 0.000000
-6.599100 0.000000
-6.581300 0.000000
-6.563500 0.000000
-6.545700 0.000000
-6.528000 0.000000
-6.510200 0.000000
-6.492400 0.000000
-6.474600 0.000000
-6.456900 0.000000
-6.439100 0.000000
-6.421300 0.000000
-6.403500 0.000000
-6.385800 0.000000
-6.368000 0.000000
-6.350200 0.000000
-6.332400 0.000000
-6.314700 0.000000
-6.296900 0.000000
-6.279100 0.000000
-6.261300 0.000000
-6.243600 0.000000
-6.225800 0.000000
-6.208000 0.000000
-6.190200 0.000000
-6.172500 0.000000
-6.154700 0.000000
-6.136900 0.000000
-6.119100 0.000000
-6.101400 0.000000
-6.083600 0.000000
-6.065800 0.000000
-6.048000 0.000000
-6.030300 0.000000
-6.012500 0.000000
-5.994700 0.000000
-5.976900 0.000000
-5.959200 0.000000
-5.941400 0.000000
-5.923600 0.000000
-5.905800 0.000000
-5.888100 0.000000
-5.870300 0.000000
-5.852500 0.000000
-5.834700 0.000000
-5.817000 0.000000
-5.799200 0.000000
-5.781400 0.000000
-5.763600 0.000000
-5.745900 0.000200
-5.728100 0.025600
-5.710300 0.093900
-5.692500 0.200000
-5.674800 0.292600
-5.657000 0.345300
-5.639200 0.367400
-5.621400 0.386200
-5.603700 0.418200
-5.585900 0.458500
-5.568100 0.501900
-5.550400 0.546500
-5.532600 0.591400
-5.514800 0.632400
-5.497000 0.670500
-5.479300 0.703300
-5.461500 0.733400
-5.443700 0.765900
-5.425900 0.826400
-5.408200 0.902700
-5.390400 0.966400
-5.372600 0.986600
-5.354800 0.966700
-5.337100 0.949100
-5.319300 0.949500
-5.301500 0.965200
-5.283700 0.980100
-5.266000 0.991000
-5.248200 0.997900
-5.230400 1.000900
-5.212600 1.001500
-5.194900 0.997700
-5.177100 0.991200
-5.159300 0.986900
-5.141500 0.989300
-5.123800 0.994600
-5.106000 0.999800
-5.088200 1.004800
-5.070400 1.009600
-5.052700 1.014500
-5.034900 1.019500
-5.017100 1.024000
-4.999300 1.028400
-4.981600 1.032700
-4.963800 1.037200
-4.946000 1.042900
-4.928200 1.049700
-4.910500 1.056400
-4.892700 1.061400
-4.874900 1.067000
-4.857100 1.074800
-4.839400 1.084200
-4.821600 1.094000
-4.803800 1.104300
-4.786000 1.114000
-4.768300 1.123600
-4.750500 1.133300
-4.732700 1.144200
-4.714900 1.156300
-4.697200 1.169500
-4.679400 1.209300
-4.661600 1.291500
-4.643800 1.348300
-4.626100 1.358100
-4.608300 1.324100
-4.590500 1.303000
-4.572700 1.295400
-4.555000 1.294700
-4.537200 1.292600
-4.519400 1.289000
-4.501600 1.282300
-4.483900 1.273500
-4.466100 1.289000
-4.448300 1.295400
-4.430500 1.259300
-4.412800 1.177500
-4.395000 1.116200
-4.377200 1.088200
-4.359400 1.070800
-4.341700 1.054000
-4.323900 1.037800
-4.306100 1.022100
-4.288300 1.053800
-4.270600 1.130300
-4.252800 1.167400
-4.235000 1.113200
-4.217200 1.078300
-4.199500 1.062600
-4.181700 1.051700
-4.163900 1.042000
-4.146100 1.031800
-4.128400 1.016200
-4.110600 1.023700
-4.092800 1.086400
-4.075000 1.121000
-4.057300 1.157100
-4.039500 1.136200
-4.021700 1.230000
-4.003900 1.219500
-3.986200 1.140200
-3.968400 1.082600
-3.950600 1.083600
-3.932800 1.078200
-3.915100 1.073700
-3.897300 1.065900
-3.879500 1.058400
-3.861700 1.042800
-3.844000 1.042000
-3.826200 1.041900
-3.808400 1.040600
-3.790600 1.039400
-3.772900 1.038200
-3.755100 1.037300
-3.737300 1.039100
-3.719500 1.041800
-3.701800 1.044200
-3.684000 1.104400
-3.666200 1.256800
-3.648400 1.322900
-3.630700 1.300200
-3.612900 1.326400
-3.595100 1.356100
-3.577300 1.389800
-3.559600 1.549700
-3.541800 1.476700
-3.524000 1.445000
-3.506200 1.457300
-3.488500 1.481000
-3.470700 1.512100
-3.452900 1.543200
-3.435100 1.787700
-3.417400 1.521500
-3.399600 1.594100
-3.381800 1.666600
-3.364000 1.733800
-3.346300 1.801000
-3.328500 1.884900
-3.310700 2.032600
-3.292900 2.316400
-3.275200 2.608400
-3.257400 3.056500
-3.239600 2.946400
-3.221800 3.092600
-3.204100 3.374000
-3.186300 3.468300
-3.168500 3.106100
-3.150700 3.102700
-3.133000 3.067600
-3.115200 3.110800
-3.097400 3.241200
-3.079600 3.540000
-3.061900 3.572700
-3.044100 4.030200
-3.026300 3.505600
-3.008500 3.064100
-2.990800 3.116300
-2.973000 3.135800
-2.955200 2.826500
-2.937400 2.577900
-2.919700 2.339400
-2.901900 2.065400
-2.884100 1.816100
-2.866300 1.653100
-2.848600 1.510200
-2.830800 1.386600
-2.813000 1.303700
-2.795300 1.240200
-2.777500 1.136600
-2.759700 1.051100
-2.741900 1.065700
-2.724200 1.243100
-2.706400 1.394400
-2.688600 1.465100
-2.670800 1.500300
-2.653100 1.537800
-2.635300 1.563500
-2.617500 1.594500
-2.599700 1.777100
-2.582000 1.717400
-2.564200 1.753200
-2.546400 1.798200
-2.528600 1.878500
-2.510900 2.016400
-2.493100 2.268300
-2.475300 2.308600
-2.457500 2.361000
-2.439800 2.319200
-2.422000 2.279900
-2.404200 2.277700
-2.386400 2.294500
-2.368700 2.293600
-2.350900 2.324500
-2.333100 2.340700
-2.315300 2.233800
-2.297600 2.094200
-2.279800 1.935700
-2.262000 1.776100
-2.244200 1.668000
-2.226500 1.607500
-2.208700 1.560000
-2.190900 1.522000
-2.173100 1.492900
-2.155400 1.470000
-2.137600 1.446700
-2.119800 1.422900
-2.102000 1.398800
-2.084300 1.378000
-2.066500 1.367100
-2.048700 1.348800
-2.030900 1.326200
-2.013200 1.303800
-1.995400 1.506700
-1.977600 1.396600
-1.959800 1.400100
-1.942100 1.401800
-1.924300 1.367900
-1.906500 1.337100
-1.888700 1.371300
-1.871000 1.247800
-1.853200 1.206900
-1.835400 1.186300
-1.817600 1.175500
-1.799900 1.159200
-1.782100 1.137600
-1.764300 1.126000
-1.746500 1.119300
-1.728800 1.111300
-1.711000 1.103200
-1.693200 1.339200
-1.675400 0.809100
-1.657700 0.824100
-1.639900 0.836900
-1.622100 0.852000
-1.604300 0.874600
-1.586600 0.897600
-1.568800 0.926900
-1.551000 0.959400
-1.533200 1.007700
-1.515500 1.090800
-1.497700 1.198100
-1.479900 1.331500
-1.462100 1.268200
-1.444400 1.325000
-1.426600 1.392800
-1.408800 1.480100
-1.391000 1.589900
-1.373300 1.716300
-1.355500 1.561600
-1.337700 1.554500
-1.319900 1.375300
-1.302200 1.168100
-1.284400 1.160600
-1.266600 1.153100
-1.248800 1.145600
-1.231100 1.138200
-1.213300 1.135300
-1.195500 1.136800
-1.177700 1.144100
-1.160000 1.160400
-1.142200 1.228800
-1.124400 1.350000
-1.106600 1.413200
-1.088900 1.452200
-1.071100 1.481900
-1.053300 1.654900
-1.035500 1.777700
-1.017800 2.051800
-1.000000 2.290600
-0.982200 2.686200
-0.964400 2.736400
-0.946700 2.397900
-0.928900 2.101800
-0.911100 1.890700
-0.893300 1.741200
-0.875600 1.601300
-0.857800 1.473300
-0.840000 1.381600
-0.822200 1.307000
-0.804500 1.243900
-0.786700 1.197900
-0.768900 1.169100
-0.751100 1.142500
-0.733400 1.115900
-0.715600 1.089500
-0.697800 1.065600
-0.680000 1.040600
-0.662300 1.016000
-0.644500 0.989100
-0.626700 0.965800
-0.608900 0.948000
-0.591200 0.933300
-0.573400 0.920400
-0.555600 0.908400
-0.537800 0.895600
-0.520100 0.879400
-0.502300 0.865600
-0.484500 0.853000
-0.466700 0.840200
-0.449000 0.826400
-0.431200 0.818300
-0.413400 0.812100
-0.395600 0.805000
-0.377900 0.797100
-0.360100 0.790900
-0.342300 0.784600
-0.324500 0.771200
-0.306800 0.757700
-0.289000 0.744700
-0.271200 0.732400
-0.253400 0.721600
-0.235700 0.712000
-0.217900 0.703400
-0.200100 0.695900
-0.182300 0.688700
-0.164600 0.681600
-0.146800 0.674500
-0.129000 0.667600
-0.111300 0.660800
-0.093500 0.657800
-0.075700 0.661800
-0.057900 0.670900
-0.040200 0.674200
-0.022400 0.672300
-0.004600 0.677000
0.013200 0.678300
0.030900 0.674100
0.048700 0.664100
0.066500 0.658500
0.084300 0.675300
0.102000 0.712400
0.119800 0.694400
0.137600 0.654600
0.155400 0.611000
0.173100 0.568400
0.190900 0.529900
0.208700 0.498700
0.226500 0.471200
0.244200 0.445700
0.262000 0.423000
0.279800 0.402300
0.297600 0.383400
0.315300 0.366500
0.333100 0.352000
0.350900 0.339400
0.368700 0.327600
0.386400 0.316300
0.404200 0.304900
0.422000 0.293500
0.439800 0.282100
0.457500 0.271100
0.475300 0.260200
0.493100 0.249600
0.510900 0.239900
0.528600 0.231700
0.546400 0.223900
0.564200 0.216000
0.582000 0.207700
0.599700 0.200500
0.617500 0.195700
0.635300 0.189400
0.653100 0.181500
0.670800 0.166800
0.688600 0.151300
0.706400 0.136000
0.724200 0.120900
0.741900 0.106300
0.759700 0.091900
0.777500 0.077700
0.795300 0.063200
0.813000 0.048600
0.830800 0.034500
0.848600 0.021100
0.866400 0.008500
0.884100 0.000000
0.901900 0.000000
0.919700 0.000000
0.937500 0.000000
0.955200 0.000000
0.973000 0.000000
0.990800 0.000000
1.008600 0.000000
1.026300 0.000000
1.044100 0.000000
1.061900 0.000000
1.079700 0.000000
1.097400 0.000000
1.115200 0.000000
1.133000 0.000000
1.150800 0.000000
1.168500 0.000000
1.186300 0.000000
1.204100 0.000000
1.221900 0.000000
1.239600 0.000000
1.257400 0.000000
1.275200 0.000000
1.293000 0.000000
1.310700 0.379000
1.328500 0.392700
1.346300 0.296500
1.364100 0.352100
1.381800 0.414200
1.399600 0.482700
1.417400 0.548800
1.435200 0.575900
1.452900 0.620800
1.470700 0.690900
1.488500 0.765300
1.506300 0.835800
1.524000 0.879700
1.541800 1.001700
1.559600 0.817800
1.577400 0.794300
1.595100 0.774900
1.612900 0.788600
1.630700 0.803600
1.648500 0.818600
1.666200 0.826900
1.684000 0.843100
1.701800 0.865700
1.719600 0.890800
1.737300 0.913800
1.755100 0.943100
1.772900 0.973200
1.790700 1.003200
1.808400 0.992000
1.826200 1.044600
1.844000 1.080100
1.861800 1.072700
1.879500 1.050100
1.897300 1.020900
1.915100 0.988300
1.932900 0.978600
1.950600 1.033500
1.968400 1.130400
1.986200 1.228300
2.004000 1.312800
2.021700 1.440500
2.039500 1.614600
2.057300 1.807700
2.075100 1.851300
2.092800 1.830600
2.110600 1.862200
2.128400 1.894600
2.146200 1.927900
2.163900 1.943600
2.181700 1.934300
2.199500 1.920200
2.217300 1.903300
2.235000 1.897500
2.252800 1.892800
2.270600 1.887600
2.288400 1.883800
2.306100 1.888500
2.323900 1.905000
2.341700 1.912000
2.359500 1.885900
2.377200 1.915600
2.395000 1.911600
2.412800 1.963700
2.430600 2.056300
2.448300 2.188800
2.466100 2.244100
2.483900 2.326100
2.501700 2.438100
2.519400 2.581200
2.537200 2.643500
2.555000 2.676500
2.572800 2.677100
2.590500 2.645800
2.608300 2.579700
2.626100 2.555100
2.643800 2.625800
2.661600 2.586000
2.679400 2.574000
2.697200 2.565000
2.714900 2.561400
2.732700 2.536300
2.750500 2.512200
2.768300 2.491600
2.786000 2.478300
2.803800 2.471100
2.821600 2.395400
2.839400 2.371300
2.857100 2.363800
2.874900 2.370300
2.892700 2.406600
2.910500 2.509300
2.928200 2.683100
2.946000 2.741900
2.963800 2.797100
2.981600 2.848600
2.999300 2.865100
3.017100 2.998700
3.034900 2.981800
3.052700 2.955600
3.070400 3.003500
3.088200 3.056700
3.106000 3.082200
3.123800 3.106900
3.141500 3.063300
3.159300 3.024500
3.177100 2.976600
3.194900 2.904400
3.212600 2.842600
3.230400 2.797700
3.248200 2.760200
3.266000 2.705500
3.283700 2.647000
3.301500 2.587400
3.319300 2.540600
3.337100 2.502200
3.354800 2.470200
3.372600 2.448100
3.390400 2.475600
3.408200 2.536900
3.425900 2.508500
3.443700 2.489800
3.461500 2.491200
3.479300 2.504400
3.497000 2.532200
3.514800 2.579400
3.532600 2.595600
3.550400 2.603600
3.568100 2.617700
3.585900 2.638900
3.603700 2.672500
3.621500 2.738900
3.639200 2.768100
3.657000 2.771800
3.674800 2.753700
3.692600 2.699900
3.710300 2.645500
3.728100 2.606600
3.745900 2.619600
3.763700 2.665700
3.781400 2.708600
3.799200 2.747600
3.817000 2.775500
3.834800 2.812800
3.852500 2.853800
3.870300 2.881200
3.888100 2.928800
3.905900 2.928400
3.923600 2.933300
3.941400 2.945500
3.959200 3.007000
3.977000 3.006300
3.994700 3.013700
4.012500 3.013400
4.030300 3.012000
4.048100 2.987500
4.065800 2.954800
4.083600 2.931300
4.101400 2.907100
4.119200 2.890200
4.136900 2.868100
4.154700 2.842700
4.172500 2.821900
4.190300 2.800200
4.208000 2.781600
4.225800 2.768900
4.243600 2.720300
4.261400 2.732300
4.279100 2.755700
4.296900 2.762200
4.314700 2.754000
4.332500 2.843800
4.350200 2.805100
4.368000 2.890100
4.385800 2.933300
4.403600 2.959100
4.421300 2.993200
4.439100 3.013600
4.456900 3.093300
4.474700 3.208700
4.492400 3.280400
4.510200 3.366800
4.528000 3.470400
4.545800 3.658800
4.563500 3.555200
4.581300 3.480800
4.599100 3.419400
4.616900 3.387900
4.634600 3.379000
4.652400 3.359000
4.670200 3.355600
4.688000 3.362900
4.705700 3.384100
4.723500 3.369800
4.741300 3.546300
4.759100 3.561700
4.776800 3.698200
4.794600 3.801200
4.812400 3.662300
4.830200 3.610800
4.847900 3.619500
4.865700 3.633200
4.883500 3.584000
4.901300 3.539400
4.919000 3.425100
4.936800 3.281300
4.954600 3.151200
4.972400 3.004200
4.990100 2.897900
5.007900 2.833300
5.025700 2.768500
5.043500 2.735000
5.061200 2.745700
5.079000 2.759800
5.096800 2.780300
5.114600 2.799800
5.132300 2.831900
5.150100 2.899700
5.167900 3.121100
5.185700 3.338200
5.203400 3.482500
5.221200 3.474900
5.239000 3.535800
5.256800 3.570700
5.274500 3.556700
5.292300 3.562200
5.310100 3.567900
5.327900 3.523500
5.345600 3.415200
5.363400 3.343600
5.381200 3.190400
5.398900 3.042200
5.416700 2.938500
5.434500 2.858700
5.452300 2.761800
5.470000 2.715800
5.487800 2.699300
5.505600 2.694500
5.523400 2.744800
5.541100 2.823000
5.558900 2.866200
5.576700 2.827500
5.594500 2.907300
5.612200 2.717600
5.630000 2.489800
5.647800 2.159300
5.665600 2.066800
5.683300 2.011000
5.701100 2.205600
5.718900 2.153700
5.736700 2.151500
5.754400 2.144400
5.772200 2.167200
5.790000 2.170100
5.807800 2.142100
5.825500 2.147500
5.843300 2.184200
5.861100 2.186900
5.878900 2.147800
5.896600 2.135300
5.914400 2.155000
5.932200 2.219500
5.950000 2.327400
5.967700 2.426000
5.985500 2.554600
6.003300 2.561400
6.021100 2.537900
6.038800 2.358000
6.056600 2.234800
6.074400 2.097200
6.092200 1.916400
6.109900 1.813900
6.127700 1.696700
6.145500 1.591100
6.163300 1.441300
6.181000 1.309800
6.198800 1.186700
6.216600 1.047700
6.234400 0.924800
6.252100 0.829700
6.269900 0.742500
6.287700 0.668600
6.305500 0.601600
6.323200 0.527800
6.341000 0.468900
6.358800 0.427800
6.376600 0.406600
6.394300 0.387200
6.412100 0.368100
6.429900 0.372300
6.447700 0.401900
6.465400 0.440400
6.483200 0.488300
6.501000 0.547700
6.518800 0.540100
6.536500 0.592800
6.554300 0.659200
6.572100 0.740900
6.589900 0.858700
6.607600 1.028600
6.625400 1.376800
6.643200 1.797100
6.661000 1.906900
6.678700 1.926000
6.696500 1.911600
6.714300 2.003800
6.732100 2.069000
6.749800 2.032300
6.767600 2.019300
6.785400 2.022700
6.803200 2.044800
6.820900 2.078200
6.838700 2.196200
6.856500 2.290200
6.874300 2.287600
6.892000 2.311000
6.909800 2.348800
6.927600 2.408300
6.945400 2.421800
6.963100 2.380700
6.980900 2.355100
6.998700 2.261800
7.016500 2.253500
7.034200 2.249000
7.052000 2.245700
7.069800 2.240400
7.087600 2.238300
7.105300 2.231300
7.123100 2.217100
7.140900 2.226900
7.158700 2.229000
7.176400 2.216200
7.194200 2.242200
7.212000 2.297100
7.229800 2.305300
7.247500 2.323100
7.265300 2.355200
7.283100 2.392000
7.300900 2.442900
7.318600 2.456700
7.336400 2.460200
7.354200 2.453700
7.372000 2.409500
7.389700 2.380600
7.407500 2.310300
7.425300 2.256700
7.443100 2.218600
7.460800 2.180000
7.478600 2.149400
7.496400 2.121100
7.514200 2.104600
7.531900 2.069700
7.549700 2.042300
7.567500 2.056900
7.585300 2.049500
7.603000 2.041600
7.620800 2.052000
7.638600 2.071200
7.656400 2.099800
7.674100 2.131200
7.691900 2.159600
7.709700 2.194100
7.727500 2.205400
7.745200 2.235300
7.763000 2.238700
7.780800 2.199900
7.798600 2.211700
7.816300 2.229000
7.834100 2.248800
7.851900 2.268700
7.869700 2.283200
7.887400 2.298600
7.905200 2.336000
7.923000 2.321500
7.940800 2.335600
7.958500 2.362700
7.976300 2.401400
7.994100 2.459500
8.011900 2.519100
8.029600 2.587400
8.047400 2.666500
8.065200 2.725600
8.082900 2.799000
8.100700 2.885000
8.118500 2.970100
8.136300 3.038200
8.154000 3.053700
8.171800 3.071800
8.189600 3.096000
8.207400 3.130800
8.225100 3.180700
8.242900 3.243000
8.260700 3.316600
8.278500 3.367900
8.296200 3.405600
8.314000 3.432100
8.331800 3.469900
8.349600 3.507900
8.367300 3.545600
8.385100 3.571300
8.402900 3.574100
8.420700 3.512400
8.438400 3.494600
8.456200 3.446100
8.474000 3.434600
8.491800 3.413500
8.509500 3.391000
8.527300 3.366800
8.545100 3.377500
8.562900 3.433400
8.580600 3.518000
8.598400 3.578300
8.616200 3.584500
8.634000 3.614500
8.651700 3.660700
8.669500 3.627200
8.687300 3.581200
8.705100 3.532100
8.722800 3.456300
8.740600 3.398000
8.758400 3.350300
8.776200 3.340100
8.793900 3.337500
8.811700 3.337900
8.829500 3.224600
8.847300 3.141500
8.865000 3.087800
8.882800 3.001700
8.900600 2.981900
8.918400 2.991600
8.936100 2.998700
8.953900 2.999500
8.971700 2.937200
8.989500 2.811300
9.007200 2.792700
9.025000 2.799100
9.042800 2.870200
9.060600 2.928100
9.078300 2.972900
9.096100 2.981000
9.113900 2.970400
9.131700 2.960200
9.149400 2.899500
9.167200 2.847600
9.185000 2.794400
9.202800 2.699400
9.220500 2.631100
9.238300 2.582300
9.256100 2.551900
9.273900 2.535900
9.291600 2.529300
9.309400 2.528200
9.327200 2.528900
9.345000 2.530500
9.362700 2.538400
9.380500 2.548200
9.398300 2.565600
9.416100 2.587600
9.433800 2.608200
9.451600 2.628300
9.469400 2.647900
9.487200 2.664700
9.504900 2.674500
9.522700 2.560700
9.540500 2.511300
9.558300 2.583300
9.576000 2.679500
9.593800 2.794200
9.611600 2.899100
9.629400 2.968900
9.647100 3.016500
9.664900 3.042400
9.682700 3.076400
9.700500 3.129600
9.718200 3.238500
9.736000 3.251700
9.753800 3.248300
9.771600 3.260700
9.789300 3.325800
9.807100 3.399300
9.824900 3.498400
9.842700 3.568900
9.860400 3.574700
9.878200 3.643500
9.896000 3.600300
9.913800 3.510300
9.931500 3.476900
9.949300 3.442000
9.967100 3.461700
9.984900 3.521400
10.002600 3.589900
10.020400 3.570400
10.038200 3.579400
10.056000 3.596800
10.073700 3.573200
10.091500 3.512900
10.109300 3.423700
10.127100 3.342200
10.144800 3.216600
10.162600 3.085000
10.180400 2.944700
10.198200 2.850900
10.215900 2.818300
10.233700 2.839900
10.251500 2.894000
10.269300 2.882100
10.287000 2.874500
10.304800 2.876900
10.322600 2.912800
10.340400 2.944600
10.358100 2.971000
10.375900 2.993000
10.393700 3.029700
10.411500 3.061500
10.429200 2.952600
10.447000 2.794400
10.464800 2.639300
10.482600 2.577500
10.500300 2.520900
10.518100 2.435100
10.535900 2.343500
10.553700 2.286000
10.571400 2.221400
10.589200 2.186400
10.607000 2.161600
10.624800 2.135600
10.642500 2.114700
10.660300 2.100600
10.678100 2.101800
10.695900 2.094800
10.713600 2.094200
10.731400 2.076800
10.749200 2.066200
10.767000 2.061000
10.784700 2.075200
10.802500 2.101600
10.820300 2.097300
10.838000 2.095300
10.855800 2.110400
10.873600 2.125800
10.891400 2.132400
10.909100 2.133300
10.926900 2.102800
10.944700 2.091100
10.962500 1.981400
10.980200 1.877000
10.998000 1.772700
11.015800 1.614300
11.033600 1.514500
11.051300 1.470900
11.069100 1.433500
11.086900 1.401200
11.104700 1.371900
11.122400 1.343500
11.140200 1.314500
11.158000 1.369700
11.175800 1.302900
11.193500 1.249900
11.211300 1.222400
11.229100 1.197100
11.246900 1.171700
11.264600 1.144700
11.282400 1.103400
11.300200 1.084400
11.318000 1.073600
11.335700 1.066800
11.353500 1.064200
11.371300 1.074500
11.389100 1.085100
11.406800 1.074700
11.424600 1.064400
11.442400 1.038900
11.460200 1.039700
11.477900 1.064600
11.495700 1.077300
11.513500 1.096400
11.531300 1.120200
11.549000 1.145700
11.566800 1.168800
11.584600 1.195400
