set title 'mp-634965 - Density of States'
set xlabel 'Energy (eV)'
set ylabel 'DOS (states/eV)'
set grid
set xrange [-10:10]
set yrange [0:2.617]
set xzeroaxis lt -1
set terminal png size 800,600
set output 'mp-634965_dos_gnuplot.png'
plot '-' using 1:2 with lines title 'DOS'
-35.281300 0.000000
-35.213200 0.000000
-35.145200 0.000000
-35.077200 0.000000
-35.009200 0.000000
-34.941200 0.000000
-34.873200 0.000000
-34.805100 0.000000
-34.737100 0.000000
-34.669100 0.000000
-34.601100 0.000000
-34.533100 0.000000
-34.465100 0.000000
-34.397000 0.000000
-34.329000 0.000000
-34.261000 0.000000
-34.193000 0.000000
-34.125000 0.000000
-34.056900 0.000000
-33.988900 0.000000
-33.920900 0.000000
-33.852900 0.000000
-33.784900 0.000000
-33.716900 0.000000
-33.648800 0.000000
-33.580800 0.000000
-33.512800 0.000000
-33.444800 0.000000
-33.376800 0.000000
-33.308700 0.000000
-33.240700 0.000000
-33.172700 0.000000
-33.104700 0.000000
-33.036700 0.000000
-32.968700 0.000000
-32.900600 0.000000
-32.832600 0.000000
-32.764600 0.000000
-32.696600 0.000000
-32.628600 0.000000
-32.560500 0.000000
-32.492500 0.000000
-32.424500 0.000000
-32.356500 0.000000
-32.288500 0.000000
-32.220500 0.000000
-32.152400 0.000000
-32.084400 0.000000
-32.016400 0.000000
-31.948400 0.000000
-31.880400 0.000000
-31.812400 0.000000
-31.744300 0.000000
-31.676300 0.000000
-31.608300 0.000000
-31.540300 0.000000
-31.472300 0.000000
-31.404200 0.000000
-31.336200 0.000000
-31.268200 0.000000
-31.200200 0.000000
-31.132200 0.000000
-31.064200 0.000000
-30.996100 0.000000
-30.928100 0.000000
-30.860100 0.000000
-30.792100 0.000000
-30.724100 0.000000
-30.656000 0.000000
-30.588000 0.000000
-30.520000 0.000000
-30.452000 0.000000
-30.384000 0.000000
-30.316000 0.000000
-30.247900 0.000000
-30.179900 0.000000
-30.111900 0.000000
-30.043900 0.000000
-29.975900 0.000000
-29.907800 0.000000
-29.839800 0.000000
-29.771800 0.000000
-29.703800 0.000000
-29.635800 0.000000
-29.567800 0.000000
-29.499700 0.000000
-29.431700 0.000000
-29.363700 0.000000
-29.295700 0.000000
-29.227700 0.000000
-29.159700 0.000000
-29.091600 0.424400
-29.023600 4.055700
-28.955600 7.292000
-28.887600 12.014900
-28.819600 17.637800
-28.751500 7.159400
-28.683500 3.960000
-28.615500 3.735900
-28.547500 3.498300
-28.479500 4.251200
-28.411500 3.563400
-28.343400 3.986500
-28.275400 4.855900
-28.207400 8.935200
-28.139400 6.169700
-28.071400 0.000000
-28.003300 0.000000
-27.935300 0.000000
-27.867300 0.000000
-27.799300 0.000000
-27.731300 0.000000
-27.663300 0.000000
-27.595200 0.000000
-27.527200 0.000000
-27.459200 0.000000
-27.391200 0.000000
-27.323200 0.000000
-27.255100 0.000000
-27.187100 0.000000
-27.119100 0.000000
-27.051100 0.000000
-26.983100 0.000000
-26.915100 0.000000
-26.847000 0.000000
-26.779000 0.000000
-26.711000 0.000000
-26.643000 0.000000
-26.575000 0.000000
-26.507000 0.000000
-26.438900 0.000000
-26.370900 0.000000
-26.302900 0.000000
-26.234900 0.000000
-26.166900 0.000000
-26.098800 0.000000
-26.030800 0.000000
-25.962800 0.000000
-25.894800 0.000000
-25.826800 0.000000
-25.758800 0.000000
-25.690700 0.000000
-25.622700 0.000000
-25.554700 0.000000
-25.486700 0.000000
-25.418700 0.000000
-25.350600 0.000000
-25.282600 0.000000
-25.214600 0.000000
-25.146600 0.000000
-25.078600 0.000000
-25.010600 0.000000
-24.942500 0.000000
-24.874500 0.000000
-24.806500 0.000000
-24.738500 0.000000
-24.670500 0.000000
-24.602400 0.000000
-24.534400 0.000000
-24.466400 0.000000
-24.398400 0.000000
-24.330400 0.000000
-24.262400 0.000000
-24.194300 0.000000
-24.126300 0.000000
-24.058300 0.000000
-23.990300 0.000000
-23.922300 0.000000
-23.854300 0.000000
-23.786200 0.000000
-23.718200 0.000000
-23.650200 0.000000
-23.582200 0.000000
-23.514200 0.000000
-23.446100 0.000000
-23.378100 0.000000
-23.310100 0.000000
-23.242100 0.000000
-23.174100 0.000000
-23.106100 0.000000
-23.038000 0.000000
-22.970000 0.000000
-22.902000 0.000000
-22.834000 0.000000
-22.766000 0.000000
-22.697900 0.000000
-22.629900 0.000000
-22.561900 0.000000
-22.493900 0.000000
-22.425900 0.000000
-22.357900 0.000000
-22.289800 0.000000
-22.221800 0.000000
-22.153800 0.000000
-22.085800 0.000000
-22.017800 0.000000
-21.949700 0.000000
-21.881700 0.000000
-21.813700 0.000000
-21.745700 0.000000
-21.677700 0.000000
-21.609700 0.000000
-21.541600 0.000000
-21.473600 0.000000
-21.405600 0.000000
-21.337600 0.000000
-21.269600 0.000000
-21.201600 0.000000
-21.133500 0.000000
-21.065500 0.000000
-20.997500 0.000000
-20.929500 0.000000
-20.861500 0.000000
-20.793400 0.000000
-20.725400 0.000000
-20.657400 0.000000
-20.589400 0.000000
-20.521400 0.000000
-20.453400 0.000000
-20.385300 0.000000
-20.317300 0.000000
-20.249300 0.000000
-20.181300 0.000000
-20.113300 0.000000
-20.045200 0.000000
-19.977200 0.000000
-19.909200 0.000000
-19.841200 0.000000
-19.773200 0.000000
-19.705200 0.000000
-19.637100 0.000000
-19.569100 0.000000
-19.501100 0.000000
-19.433100 0.000000
-19.365100 0.000000
-19.297100 0.000000
-19.229000 0.000000
-19.161000 0.000000
-19.093000 0.000000
-19.025000 0.000000
-18.957000 0.000000
-18.888900 0.000000
-18.820900 0.000000
-18.752900 0.000000
-18.684900 0.000000
-18.616900 0.000000
-18.548900 0.000000
-18.480800 0.000000
-18.412800 0.000000
-18.344800 0.000000
-18.276800 0.000000
-18.208800 0.000000
-18.140700 0.000000
-18.072700 0.000000
-18.004700 0.000000
-17.936700 0.000000
-17.868700 0.000000
-17.800700 0.000000
-17.732600 0.000000
-17.664600 0.000000
-17.596600 0.000000
-17.528600 0.000000
-17.460600 0.000000
-17.392500 0.000000
-17.324500 0.000000
-17.256500 0.000000
-17.188500 0.000000
-17.120500 0.000000
-17.052500 0.000000
-16.984400 0.000000
-16.916400 0.000000
-16.848400 0.000000
-16.780400 0.000000
-16.712400 0.000000
-16.644400 0.000000
-16.576300 0.000000
-16.508300 0.000000
-16.440300 0.000000
-16.372300 0.000000
-16.304300 0.000000
-16.236200 0.000000
-16.168200 0.000000
-16.100200 0.180700
-16.032200 0.412700
-15.964200 0.568800
-15.896200 0.773500
-15.828100 1.099700
-15.760100 1.499900
-15.692100 1.422200
-15.624100 1.429800
-15.556100 1.445200
-15.488000 1.280500
-15.420000 1.072400
-15.352000 1.016700
-15.284000 0.969600
-15.216000 0.926700
-15.148000 0.910300
-15.079900 0.895400
-15.011900 0.897600
-14.943900 0.909500
-14.875900 0.925900
-14.807900 0.952200
-14.739800 1.009400
-14.671800 1.188700
-14.603800 1.305100
-14.535800 1.280600
-14.467800 1.279000
-14.399800 1.317900
-14.331700 1.050100
-14.263700 0.665700
-14.195700 0.468500
-14.127700 0.214900
-14.059700 0.000000
-13.991700 0.000000
-13.923600 0.000000
-13.855600 0.000000
-13.787600 0.000000
-13.719600 0.000000
-13.651600 0.000000
-13.583500 0.000000
-13.515500 0.000000
-13.447500 0.000000
-13.379500 0.000000
-13.311500 0.000000
-13.243500 0.000000
-13.175400 0.000000
-13.107400 0.000000
-13.039400 0.000000
-12.971400 0.000000
-12.903400 0.000000
-12.835300 0.000000
-12.767300 0.000000
-12.699300 0.000000
-12.631300 0.000000
-12.563300 0.000000
-12.495300 0.000000
-12.427200 0.000000
-12.359200 0.000000
-12.291200 0.000000
-12.223200 0.000000
-12.155200 0.000000
-12.087100 0.000000
-12.019100 0.000000
-11.951100 0.000000
-11.883100 0.000000
-11.815100 0.000000
-11.747100 0.000000
-11.679000 0.000000
-11.611000 0.000000
-11.543000 0.000000
-11.475000 0.000000
-11.407000 0.000000
-11.339000 0.000000
-11.270900 0.000000
-11.202900 0.000000
-11.134900 0.000000
-11.066900 0.000000
-10.998900 0.000000
-10.930800 0.000000
-10.862800 0.000000
-10.794800 0.000000
-10.726800 0.000000
-10.658800 0.000000
-10.590800 0.000000
-10.522700 0.000000
-10.454700 0.000000
-10.386700 0.000000
-10.318700 0.000000
-10.250700 0.000000
-10.182600 0.000000
-10.114600 0.000000
-10.046600 0.000000
-9.978600 0.000000
-9.910600 0.000000
-9.842600 0.000000
-9.774500 0.000000
-9.706500 0.000000
-9.638500 0.000000
-9.570500 0.000000
-9.502500 0.000000
-9.434400 0.000000
-9.366400 0.000000
-9.298400 0.000000
-9.230400 0.000000
-9.162400 0.000000
-9.094400 0.000000
-9.026300 0.000000
-8.958300 0.000000
-8.890300 0.000000
-8.822300 0.000000
-8.754300 0.000000
-8.686300 0.000000
-8.618200 0.000000
-8.550200 0.000000
-8.482200 0.000000
-8.414200 0.000000
-8.346200 0.000000
-8.278100 0.000000
-8.210100 0.000000
-8.142100 0.000000
-8.074100 0.000000
-8.006100 0.000000
-7.938100 0.000000
-7.870000 0.000000
-7.802000 0.000000
-7.734000 0.000000
-7.666000 0.000000
-7.598000 0.000000
-7.529900 0.000000
-7.461900 0.000000
-7.393900 0.000000
-7.325900 0.000000
-7.257900 0.000000
-7.189900 0.000000
-7.121800 0.000000
-7.053800 0.000000
-6.985800 0.000000
-6.917800 0.000000
-6.849800 0.000000
-6.781700 0.000000
-6.713700 0.000000
-6.645700 0.000000
-6.577700 0.000000
-6.509700 0.000000
-6.441700 0.000000
-6.373600 0.000000
-6.305600 0.000000
-6.237600 0.000000
-6.169600 0.000000
-6.101600 0.000000
-6.033600 0.000000
-5.965500 0.000000
-5.897500 0.000000
-5.829500 0.000000
-5.761500 0.000000
-5.693500 0.000000
-5.625400 0.000000
-5.557400 0.000000
-5.489400 0.000000
-5.421400 0.000000
-5.353400 0.000000
-5.285400 0.000000
-5.217300 0.000000
-5.149300 0.000000
-5.081300 0.000000
-5.013300 0.000000
-4.945300 0.000000
-4.877200 0.000000
-4.809200 0.000000
-4.741200 0.000000
-4.673200 0.000000
-4.605200 0.000000
-4.537200 0.000000
-4.469100 0.000000
-4.401100 0.000000
-4.333100 0.000000
-4.265100 0.000000
-4.197100 0.000000
-4.129000 0.087600
-4.061000 0.241000
-3.993000 0.436200
-3.925000 0.745600
-3.857000 0.950400
-3.789000 1.034500
-3.720900 1.038800
-3.652900 0.812000
-3.584900 0.668400
-3.516900 0.559900
-3.448900 0.511800
-3.380900 0.511800
-3.312800 0.511800
-3.244800 0.504000
-3.176800 0.487400
-3.108800 0.467100
-3.040800 0.606400
-2.972700 0.689800
-2.904700 0.762500
-2.836700 0.815200
-2.768700 0.849800
-2.700700 0.893200
-2.632700 0.942000
-2.564600 0.994000
-2.496600 1.082000
-2.428600 1.256600
-2.360600 1.335500
-2.292600 1.372100
-2.224500 1.423900
-2.156500 1.461100
-2.088500 1.515200
-2.020500 1.557700
-1.952500 1.547300
-1.884500 1.560300
-1.816400 1.599700
-1.748400 1.710000
-1.680400 1.734600
-1.612400 1.711100
-1.544400 1.718500
-1.476300 1.734600
-1.408300 1.763300
-1.340300 1.837900
-1.272300 1.881100
-1.204300 1.911100
-1.136300 1.873300
-1.068200 1.752300
-1.000200 1.876900
-0.932200 1.914900
-0.864200 1.910600
-0.796200 1.849300
-0.728200 1.608800
-0.660100 1.502800
-0.592100 1.471300
-0.524100 1.505900
-0.456100 1.784500
-0.388100 2.023200
-0.320000 2.243200
-0.252000 2.351500
-0.184000 2.379400
-0.116000 2.122000
-0.048000 2.047500
0.020000 1.941300
0.088100 1.907000
0.156100 1.777700
0.224100 1.707500
0.292100 1.608200
0.360100 1.350600
0.428200 1.264500
0.496200 1.179400
0.564200 1.134700
0.632200 1.283800
0.700200 1.481200
0.768200 1.402800
0.836300 1.373500
0.904300 1.470000
0.972300 1.538600
1.040300 1.586800
1.108300 1.532800
1.176400 1.346300
1.244400 1.269100
1.312400 1.270900
1.380400 1.297200
1.448400 1.297400
1.516400 1.307600
1.584500 1.359700
1.652500 1.574700
1.720500 1.794100
1.788500 1.286300
1.856500 1.122900
1.924500 0.985200
1.992600 0.823100
2.060600 0.683200
2.128600 0.531400
2.196600 0.470700
2.264600 0.510700
2.332700 0.625000
2.400700 0.741800
2.468700 0.861000
2.536700 0.964500
2.604700 1.078300
2.672700 1.273700
2.740800 1.497200
2.808800 1.885000
2.876800 1.523200
2.944800 1.327400
3.012800 1.242000
3.080900 1.200100
3.148900 1.122400
3.216900 1.169500
3.284900 1.152600
3.352900 1.223400
3.420900 1.252400
3.489000 1.181300
3.557000 1.061500
3.625000 0.995900
3.693000 0.973400
3.761000 0.965400
3.829100 0.967400
3.897100 1.029000
3.965100 1.098600
4.033100 1.180500
4.101100 1.230900
4.169100 1.209200
4.237200 1.174400
4.305200 1.211300
4.373200 1.273500
4.441200 1.391500
4.509200 1.581000
4.577200 1.776300
4.645300 1.869500
4.713300 2.051700
4.781300 2.150300
4.849300 1.994700
4.917300 1.940200
4.985400 1.948600
5.053400 2.010000
5.121400 2.044700
5.189400 1.975500
5.257400 1.963700
5.325400 1.984400
5.393500 1.963000
5.461500 1.959300
5.529500 2.014400
5.597500 2.049600
5.665500 2.209100
5.733600 2.172900
5.801600 2.108800
5.869600 1.999500
5.937600 1.917600
6.005600 1.934700
6.073600 1.834300
6.141700 1.800300
6.209700 1.719300
6.277700 1.479600
6.345700 1.322700
6.413700 1.318300
6.481800 1.176300
6.549800 1.129800
6.617800 1.116000
6.685800 1.072700
6.753800 1.029000
6.821800 0.996100
6.889900 0.983900
6.957900 0.939100
7.025900 0.939000
7.093900 0.980200
7.161900 0.899200
7.229900 0.717000
7.298000 0.519000
7.366000 0.327000
7.434000 0.296300
7.502000 0.291200
7.570000 0.397300
7.638100 0.267100
7.706100 0.275000
7.774100 0.283500
7.842100 0.294600
7.910100 0.305800
7.978100 0.328400
8.046200 0.340500
8.114200 0.343300
8.182200 0.344700
8.250200 0.343500
8.318200 0.342500
8.386300 0.349700
8.454300 0.360700
8.522300 0.374900
8.590300 0.391700
8.658300 0.471100
8.726300 0.607700
8.794400 0.685400
8.862400 0.751400
8.930400 0.776400
8.998400 0.791300
9.066400 0.761300
9.134500 0.740300
9.202500 0.733900
9.270500 0.731700
9.338500 0.730200
9.406500 0.733100
9.474500 0.736400
9.542600 0.741800
9.610600 0.761700
9.678600 0.783600
9.746600 0.865400
9.814600 0.867400
9.882600 0.824500
9.950700 0.791000
10.018700 0.761400
10.086700 0.742500
10.154700 0.735200
10.222700 0.728300
10.290800 0.716400
10.358800 0.706300
10.426800 0.704700
10.494800 0.735000
10.562800 0.739300
10.630800 0.754900
10.698900 0.729800
10.766900 0.696900
10.834900 0.637500
10.902900 0.585400
10.970900 0.586500
11.039000 0.478600
11.107000 0.425200
11.175000 0.407800
11.243000 0.407600
11.311000 0.423200
11.379000 0.449100
11.447100 0.495600
11.515100 0.509100
11.583100 0.503700
11.651100 0.515200
11.719100 0.539900
11.787200 0.603500
11.855200 0.625800
11.923200 0.795100
11.991200 0.570800
12.059200 0.612000
12.127200 0.698200
12.195300 0.812000
12.263300 0.861600
12.331300 0.891300
12.399300 0.945400
12.467300 1.070600
12.535300 1.148300
12.603400 1.237100
12.671400 1.352700
12.739400 1.413600
12.807400 1.465300
12.875400 1.461900
12.943500 1.432500
13.011500 1.376300
13.079500 1.301600
13.147500 1.140700
13.215500 1.086900
13.283500 1.004000
13.351600 0.929400
13.419600 0.887000
13.487600 0.824100
13.555600 0.621900
13.623600 0.596200
13.691700 0.569600
13.759700 0.540100
13.827700 0.510500
13.895700 0.481700
13.963700 0.456600
14.031700 0.447600
14.099800 0.468900
14.167800 0.504200
14.235800 0.594300
14.303800 0.586200
14.371800 0.626100
14.439900 0.713400
14.507900 0.804600
14.575900 0.875500
14.643900 0.915700
14.711900 0.946300
14.779900 0.986000
14.848000 0.915400
14.916000 0.881700
14.984000 0.862900
15.052000 0.842700
15.120000 0.795700
15.188000 0.759500
15.256100 0.724300
15.324100 0.705400
15.392100 0.707600
15.460100 0.676100
15.528100 0.645100
15.596200 0.619700
15.664200 0.594400
15.732200 0.577300
15.800200 0.814400
15.868200 0.812800
15.936200 0.865900
16.004300 0.900900
16.072300 0.925200
16.140300 1.023300
16.208300 1.017000
16.276300 1.011300
16.344400 0.988400
16.412400 0.970500
16.480400 0.986300
16.548400 1.045800
16.616400 1.119000
16.684400 1.220700
16.752500 1.296100
16.820500 1.267100
16.888500 1.246100
16.956500 1.269900
17.024500 1.329400
17.092600 1.390600
17.160600 1.481100
17.228600 1.361400
17.296600 1.241900
17.364600 1.176300
17.432600 1.208800
17.500700 1.260100
17.568700 1.250000
17.636700 1.229000
17.704700 1.177400
17.772700 1.110500
17.840700 1.031300
17.908800 0.862100
17.976800 0.798000
18.044800 0.522900
18.112800 0.304800
18.180800 0.269400
18.248900 0.280300
18.316900 0.357400
18.384900 0.562100
18.452900 0.998100
18.520900 1.151600
18.588900 1.329400
18.657000 1.422300
18.725000 1.419700
18.793000 1.476200
18.861000 1.517100
18.929000 1.487000
18.997100 1.517000
19.065100 1.602400
19.133100 1.743800
19.201100 1.759200
19.269100 1.763300
19.337100 1.616500
19.405200 1.405600
19.473200 1.322000
19.541200 1.214000
19.609200 1.115700
19.677200 1.058500
19.745300 1.051300
19.813300 1.113600
19.881300 1.164300
19.949300 1.195900
20.017300 1.239200
20.085300 1.285200
20.153400 1.340000
20.221400 1.450200
20.289400 1.471400
20.357400 1.420600
20.425400 1.366100
20.493400 1.305300
20.561500 1.270100
20.629500 1.215700
20.697500 1.173400
20.765500 1.154900
20.833500 1.172600
20.901600 1.241800
20.969600 1.290000
21.037600 1.279200
21.105600 1.039800
21.173600 0.940900
21.241600 0.861400
21.309700 0.840600
21.377700 0.831800
21.445700 0.896600
21.513700 0.936100
21.581700 0.968800
21.649800 1.035400
21.717800 1.100700
21.785800 1.142200
21.853800 1.212800
21.921800 1.325100
21.989800 1.522900
22.057900 1.600700
22.125900 1.626200
22.193900 1.595400
22.261900 1.586600
22.329900 1.645900
22.398000 1.986300
22.466000 2.141200
22.534000 1.629800
22.602000 1.380100
22.670000 1.163400
22.738000 0.996700
22.806100 0.888400
22.874100 0.868700
22.942100 0.836900
23.010100 0.773700
23.078100 0.734000
23.146100 0.720900
23.214200 0.734300
23.282200 0.769300
23.350200 0.813900
23.418200 0.820500
23.486200 0.854300
23.554300 0.887800
23.622300 0.925600
23.690300 0.968200
23.758300 0.986800
23.826300 0.992000
23.894300 1.032200
23.962400 1.056700
24.030400 1.054400
24.098400 1.075500
24.166400 1.096900
24.234400 1.110600
24.302500 1.105100
24.370500 1.154600
24.438500 1.100500
24.506500 1.143600
24.574500 1.164900
24.642500 1.218100
24.710600 1.184600
24.778600 1.201700
24.846600 1.124500
24.914600 1.043800
24.982600 1.018700
25.050700 1.022000
25.118700 1.030600
25.186700 1.068800
25.254700 1.112800
25.322700 1.186300
25.390700 1.247200
25.458800 1.285200
25.526800 1.283100
25.594800 1.277600
25.662800 1.239000
25.730800 1.172100
25.798800 1.119000
25.866900 1.101300
25.934900 1.099300
26.002900 1.117100
26.070900 1.126700
26.138900 1.156800
26.207000 1.215300
26.275000 1.257000
26.343000 1.290100
26.411000 1.366700
26.479000 1.410600
26.547000 1.412600
26.615100 1.392300
26.683100 1.333900
26.751100 1.334600
26.819100 1.332100
26.887100 1.290500
26.955200 1.187800
27.023200 1.123600
27.091200 1.095800
27.159200 1.053700
27.227200 0.999700
27.295200 0.969900
27.363300 1.007000
27.431300 1.049300
27.499300 1.099000
27.567300 1.102900
27.635300 1.133500
27.703400 1.148000
27.771400 1.159400
27.839400 1.144100
27.907400 1.098400
27.975400 1.062000
28.043400 1.011400
28.111500 0.983400
28.179500 0.981500
28.247500 0.979000
28.315500 0.970900
28.383500 0.956500
28.451500 0.984600
28.519600 0.935400
28.587600 0.907700
28.655600 0.942800
28.723600 1.029200
28.791600 1.178700
28.859700 1.402600
28.927700 1.405100
28.995700 1.386700
29.063700 1.380300
29.131700 1.369000
29.199700 1.295100
29.267800 1.295300
29.335800 1.296600
29.403800 1.274900
29.471800 1.240000
29.539800 1.181800
29.607900 1.092000
29.675900 1.026800
29.743900 0.968000
29.811900 0.926700
29.879900 0.908700
29.947900 0.898100
30.016000 0.928500
30.084000 1.163900
30.152000 1.162000
30.220000 1.257500
30.288000 1.332300
30.356100 1.461000
30.424100 1.606800
30.492100 1.755000
30.560100 1.782000
30.628100 1.686800
30.696100 1.569200
30.764200 1.414900
30.832200 1.359600
30.900200 1.376200
30.968200 1.379600
31.036200 1.243400
31.104200 1.065300
31.172300 0.996200
31.240300 1.015500
31.308300 1.035500
31.376300 1.075600
31.444300 1.113100
31.512400 1.113800
31.580400 1.119300
31.648400 1.369900
31.716400 1.398300
31.784400 1.228900
31.852400 1.253400
31.920500 1.349000
31.988500 1.428200
32.056500 1.455000
32.124500 1.516100
32.192500 1.429300
32.260600 1.347500
32.328600 1.292600
32.396600 1.219500
32.464600 1.231700
32.532600 1.279500
32.600600 1.395600
32.668700 1.399900
32.736700 1.413900
32.804700 1.400200
32.872700 1.413600
32.940700 1.418400
33.008700 1.342100
33.076800 1.314400
33.144800 1.292200
33.212800 1.292500
33.280800 1.327100
33.348800 1.330200
33.416900 1.360100
33.484900 1.352700
33.552900 1.325600
33.620900 1.345600
33.688900 1.383100
33.756900 1.482000
33.825000 1.638000
33.893000 1.759600
33.961000 1.924500
34.029000 1.997700
34.097000 1.916600
34.165100 1.787200
34.233100 1.811800
34.301100 1.822500
34.369100 1.887500
34.437100 1.926400
