set title 'mp-20725 - Density of States'
set xlabel 'Energy (eV)'
set ylabel 'DOS (states/eV)'
set grid
set xrange [-10:10]
set yrange [0:28.182]
set xzeroaxis lt -1
set terminal png size 800,600
set output 'mp-20725_dos_gnuplot.png'
plot '-' using 1:2 with lines title 'DOS'
-16.009500 0.000000
-15.989800 0.000000
-15.970200 0.000000
-15.950500 0.000000
-15.930800 0.000000
-15.911100 0.000000
-15.891500 0.000000
-15.871800 0.000000
-15.852100 0.000000
-15.832500 0.000000
-15.812800 0.000000
-15.793100 0.000000
-15.773400 0.000000
-15.753800 0.000000
-15.734100 0.000000
-15.714400 0.000000
-15.694700 0.000000
-15.675100 0.000000
-15.655400 0.000000
-15.635700 0.000000
-15.616000 0.000000
-15.596400 0.000000
-15.576700 0.000000
-15.557000 0.000000
-15.537400 0.000000
-15.517700 0.000000
-15.498000 0.000000
-15.478300 0.000000
-15.458700 0.000000
-15.439000 0.000000
-15.419300 0.000000
-15.399600 0.000000
-15.380000 0.000000
-15.360300 0.000000
-15.340600 0.000000
-15.321000 0.000000
-15.301300 0.000000
-15.281600 0.000000
-15.261900 0.000000
-15.242300 0.000000
-15.222600 0.000000
-15.202900 0.000000
-15.183200 0.000000
-15.163600 0.000000
-15.143900 0.000000
-15.124200 0.000000
-15.104600 0.000000
-15.084900 0.000000
-15.065200 0.000000
-15.045500 0.000000
-15.025900 0.000000
-15.006200 0.000000
-14.986500 0.000000
-14.966800 0.000000
-14.947200 0.000000
-14.927500 0.000000
-14.907800 0.000000
-14.888200 0.000000
-14.868500 0.000000
-14.848800 0.000000
-14.829100 0.000000
-14.809500 0.000000
-14.789800 0.000000
-14.770100 0.000000
-14.750400 0.000000
-14.730800 0.000000
-14.711100 0.000000
-14.691400 0.000000
-14.671700 0.000000
-14.652100 0.000000
-14.632400 0.000000
-14.612700 0.000000
-14.593100 0.000000
-14.573400 0.000000
-14.553700 0.000000
-14.534000 0.000000
-14.514400 0.000000
-14.494700 0.000000
-14.475000 0.000000
-14.455300 0.000000
-14.435700 0.000000
-14.416000 0.000000
-14.396300 0.000000
-14.376700 0.000000
-14.357000 0.000000
-14.337300 0.000000
-14.317600 0.000000
-14.298000 0.000000
-14.278300 0.000000
-14.258600 0.000000
-14.238900 0.000000
-14.219300 0.385900
-14.199600 2.026900
-14.179900 3.562800
-14.160300 4.028900
-14.140600 3.884500
-14.120900 4.069100
-14.101200 7.672600
-14.081600 8.997800
-14.061900 8.564600
-14.042200 8.865500
-14.022500 9.358100
-14.002900 9.612400
-13.983200 9.913000
-13.963500 10.461600
-13.943900 11.852900
-13.924200 11.466700
-13.904500 13.528900
-13.884800 13.670800
-13.865200 11.829900
-13.845500 9.643600
-13.825800 8.754800
-13.806100 8.716900
-13.786500 8.166100
-13.766800 6.008400
-13.747100 3.336500
-13.727400 1.483500
-13.707800 0.672300
-13.688100 0.256600
-13.668400 0.012800
-13.648800 0.093900
-13.629100 0.440500
-13.609400 1.856200
-13.589700 3.171400
-13.570100 3.922400
-13.550400 4.774400
-13.530700 5.868800
-13.511000 7.908700
-13.491400 9.418100
-13.471700 9.342800
-13.452000 9.062900
-13.432400 8.909900
-13.412700 8.092300
-13.393000 7.593900
-13.373300 7.296600
-13.353700 7.069400
-13.334000 6.745100
-13.314300 6.969900
-13.294600 6.513700
-13.275000 5.701600
-13.255300 5.436800
-13.235600 5.179200
-13.216000 4.966500
-13.196300 4.769300
-13.176600 4.585300
-13.156900 4.399900
-13.137300 4.201500
-13.117600 4.033200
-13.097900 3.882400
-13.078200 3.797800
-13.058600 3.633300
-13.038900 3.577800
-13.019200 3.463500
-12.999600 3.176300
-12.979900 3.427800
-12.960200 2.633100
-12.940500 1.479400
-12.920900 1.431700
-12.901200 1.386100
-12.881500 1.350400
-12.861800 1.340100
-12.842200 1.301400
-12.822500 1.234200
-12.802800 1.158200
-12.783100 1.068600
-12.763500 0.938800
-12.743800 1.031800
-12.724100 0.894000
-12.704500 0.593900
-12.684800 0.298000
-12.665100 0.095800
-12.645400 0.000000
-12.625800 0.000000
-12.606100 0.000000
-12.586400 0.000000
-12.566700 0.000000
-12.547100 0.000000
-12.527400 0.000000
-12.507700 0.000000
-12.488100 0.000000
-12.468400 0.000000
-12.448700 0.000000
-12.429000 0.000000
-12.409400 0.000000
-12.389700 0.000000
-12.370000 0.000000
-12.350300 0.000000
-12.330700 0.000000
-12.311000 0.000000
-12.291300 0.000000
-12.271700 0.000000
-12.252000 0.000000
-12.232300 0.000000
-12.212600 0.000000
-12.193000 0.000000
-12.173300 0.000000
-12.153600 0.000000
-12.133900 0.000000
-12.114300 0.000000
-12.094600 0.000000
-12.074900 0.000000
-12.055300 0.000000
-12.035600 0.000000
-12.015900 0.000000
-11.996200 0.000000
-11.976600 0.000000
-11.956900 0.000000
-11.937200 0.000000
-11.917500 0.000000
-11.897900 0.000000
-11.878200 0.000000
-11.858500 0.000000
-11.838800 0.000000
-11.819200 0.000000
-11.799500 0.478300
-11.779800 0.637700
-11.760200 1.153700
-11.740500 1.696200
-11.720800 2.601900
-11.701100 4.104800
-11.681500 8.513500
-11.661800 24.837500
-11.642100 25.147000
-11.622400 21.366600
-11.602800 18.672000
-11.583100 17.096900
-11.563400 15.759000
-11.543800 17.501200
-11.524100 21.723200
-11.504400 37.440600
-11.484700 47.018600
-11.465100 76.041400
-11.445400 67.192700
-11.425700 77.945400
-11.406000 90.814000
-11.386400 43.452700
-11.366700 49.144900
-11.347000 27.919800
-11.327400 11.846500
-11.307700 7.505800
-11.288000 6.258600
-11.268300 5.459500
-11.248700 4.854600
-11.229000 4.492000
-11.209300 4.229900
-11.189600 4.005800
-11.170000 3.731100
-11.150300 3.552200
-11.130600 3.503000
-11.111000 3.480300
-11.091300 3.493100
-11.071600 3.521700
-11.051900 3.562700
-11.032300 3.818500
-11.012600 4.198600
-10.992900 4.339600
-10.973200 3.931300
-10.953600 3.673700
-10.933900 3.458700
-10.914200 3.314500
-10.894500 3.162700
-10.874900 3.122400
-10.855200 2.863700
-10.835500 2.669000
-10.815900 2.437700
-10.796200 2.217600
-10.776500 2.124100
-10.756800 2.170200
-10.737200 2.367600
-10.717500 2.416700
-10.697800 2.738800
-10.678100 2.503600
-10.658500 2.168300
-10.638800 2.276900
-10.619100 2.156200
-10.599500 2.118800
-10.579800 2.094700
-10.560100 2.064300
-10.540400 1.972500
-10.520800 1.955100
-10.501100 1.944100
-10.481400 1.967100
-10.461700 1.978700
-10.442100 1.945200
-10.422400 1.885600
-10.402700 1.848800
-10.383100 1.790900
-10.363400 1.749200
-10.343700 1.762000
-10.324000 1.790100
-10.304400 1.834200
-10.284700 1.877100
-10.265000 1.932200
-10.245300 1.979000
-10.225700 2.067400
-10.206000 2.168200
-10.186300 2.256800
-10.166600 2.366700
-10.147000 2.334300
-10.127300 2.374500
-10.107600 2.412400
-10.088000 2.455300
-10.068300 2.555800
-10.048600 2.658400
-10.028900 2.860900
-10.009300 2.896300
-9.989600 3.003500
-9.969900 3.125900
-9.950200 3.253500
-9.930600 3.473400
-9.910900 3.843300
-9.891200 4.196200
-9.871600 4.559500
-9.851900 5.293900
-9.832200 5.746400
-9.812500 5.292800
-9.792900 6.062000
-9.773200 6.610000
-9.753500 5.709800
-9.733800 4.930700
-9.714200 4.621400
-9.694500 4.382900
-9.674800 4.155700
-9.655200 4.050300
-9.635500 3.919600
-9.615800 3.717700
-9.596100 3.549200
-9.576500 3.664700
-9.556800 3.505300
-9.537100 2.826200
-9.517400 0.404400
-9.497800 0.358400
-9.478100 0.300400
-9.458400 0.181600
-9.438800 0.000000
-9.419100 0.000000
-9.399400 0.000000
-9.379700 0.000000
-9.360100 0.000000
-9.340400 0.000000
-9.320700 0.000000
-9.301000 0.000000
-9.281400 0.000000
-9.261700 0.000000
-9.242000 0.000000
-9.222300 0.000000
-9.202700 0.000000
-9.183000 0.000000
-9.163300 0.000000
-9.143700 0.000000
-9.124000 0.000000
-9.104300 0.000000
-9.084600 0.000000
-9.065000 0.000000
-9.045300 0.000000
-9.025600 0.000000
-9.005900 0.000000
-8.986300 0.000000
-8.966600 0.000000
-8.946900 0.000000
-8.927300 0.000000
-8.907600 0.000000
-8.887900 0.000000
-8.868200 0.000000
-8.848600 0.000000
-8.828900 0.000000
-8.809200 0.000000
-8.789500 0.000000
-8.769900 0.000000
-8.750200 0.000000
-8.730500 0.000000
-8.710900 0.000000
-8.691200 0.000000
-8.671500 0.000000
-8.651800 0.000000
-8.632200 0.000000
-8.612500 0.000000
-8.592800 0.000000
-8.573100 0.000000
-8.553500 0.000000
-8.533800 0.000000
-8.514100 0.000000
-8.494500 0.000000
-8.474800 0.000000
-8.455100 0.000000
-8.435400 0.000000
-8.415800 0.000000
-8.396100 0.000000
-8.376400 0.000000
-8.356700 0.000000
-8.337100 0.000000
-8.317400 0.000000
-8.297700 0.000000
-8.278000 0.000000
-8.258400 0.000000
-8.238700 0.000000
-8.219000 0.000000
-8.199400 0.000000
-8.179700 0.000000
-8.160000 0.000000
-8.140300 0.000000
-8.120700 0.000000
-8.101000 0.000000
-8.081300 0.000000
-8.061600 0.000000
-8.042000 0.000000
-8.022300 0.000000
-8.002600 0.000000
-7.983000 0.000000
-7.963300 0.000000
-7.943600 0.000000
-7.923900 0.000000
-7.904300 0.000000
-7.884600 0.000000
-7.864900 0.000000
-7.845200 0.000000
-7.825600 0.000000
-7.805900 0.000000
-7.786200 0.000000
-7.766600 0.000000
-7.746900 0.000000
-7.727200 0.000000
-7.707500 0.000000
-7.687900 0.000000
-7.668200 0.000000
-7.648500 0.000000
-7.628800 0.000000
-7.609200 0.000000
-7.589500 0.000000
-7.569800 0.000000
-7.550200 0.000000
-7.530500 0.000000
-7.510800 0.000000
-7.491100 0.000000
-7.471500 0.000000
-7.451800 0.000000
-7.432100 0.000000
-7.412400 0.000000
-7.392800 0.000000
-7.373100 0.000000
-7.353400 0.000000
-7.333700 0.000000
-7.314100 0.000000
-7.294400 0.000000
-7.274700 0.000000
-7.255100 0.000000
-7.235400 0.000000
-7.215700 0.000000
-7.196000 0.000000
-7.176400 0.000000
-7.156700 0.000000
-7.137000 0.000000
-7.117300 0.000000
-7.097700 0.000000
-7.078000 0.000000
-7.058300 0.000000
-7.038700 0.000000
-7.019000 0.000000
-6.999300 0.000000
-6.979600 0.000000
-6.960000 0.000000
-6.940300 0.000000
-6.920600 0.000000
-6.900900 0.000000
-6.881300 0.000000
-6.861600 0.000000
-6.841900 0.000000
-6.822300 0.000000
-6.802600 0.000000
-6.782900 0.000000
-6.763200 0.000000
-6.743600 0.000000
-6.723900 0.000000
-6.704200 0.000000
-6.684500 0.000000
-6.664900 0.000000
-6.645200 0.000000
-6.625500 0.000000
-6.605900 0.000000
-6.586200 0.000000
-6.566500 0.000000
-6.546800 0.000000
-6.527200 0.000000
-6.507500 0.000000
-6.487800 0.000000
-6.468100 0.000000
-6.448500 0.000000
-6.428800 0.000000
-6.409100 0.000000
-6.389400 0.000000
-6.369800 0.000000
-6.350100 0.000000
-6.330400 0.000000
-6.310800 0.000000
-6.291100 0.000000
-6.271400 0.000000
-6.251700 0.000000
-6.232100 0.000000
-6.212400 0.000000
-6.192700 0.000000
-6.173000 0.000000
-6.153400 0.000000
-6.133700 0.000000
-6.114000 0.000000
-6.094400 0.000000
-6.074700 0.000000
-6.055000 0.000000
-6.035300 0.000000
-6.015700 0.000000
-5.996000 0.000000
-5.976300 0.000000
-5.956600 0.000000
-5.937000 0.000000
-5.917300 0.000000
-5.897600 0.000000
-5.878000 0.000000
-5.858300 0.000000
-5.838600 0.000000
-5.818900 0.000000
-5.799300 0.000000
-5.779600 0.000000
-5.759900 0.000000
-5.740200 0.000000
-5.720600 0.000000
-5.700900 0.000000
-5.681200 0.000000
-5.661600 0.000000
-5.641900 0.000000
-5.622200 0.000000
-5.602500 0.000000
-5.582900 0.000000
-5.563200 0.000000
-5.543500 0.000000
-5.523800 0.000000
-5.504200 0.000000
-5.484500 0.000000
-5.464800 0.000000
-5.445100 0.000000
-5.425500 0.000000
-5.405800 0.000000
-5.386100 0.000000
-5.366500 0.000000
-5.346800 0.000000
-5.327100 0.000000
-5.307400 0.000000
-5.287800 0.000000
-5.268100 0.000000
-5.248400 0.000000
-5.228700 0.000000
-5.209100 0.000000
-5.189400 0.000000
-5.169700 0.000000
-5.150100 0.000000
-5.130400 0.000000
-5.110700 0.000000
-5.091000 0.000000
-5.071400 0.000000
-5.051700 0.000000
-5.032000 0.000000
-5.012300 0.000000
-4.992700 0.000000
-4.973000 0.000000
-4.953300 0.000000
-4.933700 0.000000
-4.914000 0.000000
-4.894300 0.000000
-4.874600 0.000000
-4.855000 0.000000
-4.835300 0.000000
-4.815600 0.000000
-4.795900 0.000000
-4.776300 0.000000
-4.756600 0.000000
-4.736900 0.000000
-4.717300 0.000000
-4.697600 0.000000
-4.677900 0.000000
-4.658200 0.000000
-4.638600 0.000000
-4.618900 0.000000
-4.599200 0.000000
-4.579500 0.000000
-4.559900 0.000000
-4.540200 0.000000
-4.520500 0.000000
-4.500800 0.000000
-4.481200 0.000000
-4.461500 0.000000
-4.441800 0.000000
-4.422200 0.000000
-4.402500 0.000000
-4.382800 0.000000
-4.363100 0.000000
-4.343500 0.000000
-4.323800 0.000000
-4.304100 0.000000
-4.284400 0.000000
-4.264800 0.000000
-4.245100 0.000000
-4.225400 0.000000
-4.205800 0.213800
-4.186100 0.336000
-4.166400 0.420400
-4.146700 0.545700
-4.127100 0.684300
-4.107400 0.715900
-4.087700 0.771600
-4.068000 0.802200
-4.048400 0.823500
-4.028700 0.817300
-4.009000 0.849500
-3.989400 0.890500
-3.969700 0.930600
-3.950000 0.952000
-3.930300 0.980100
-3.910700 1.003200
-3.891000 1.023000
-3.871300 1.193700
-3.851600 1.378100
-3.832000 1.479300
-3.812300 1.620700
-3.792600 1.780000
-3.772900 1.917900
-3.753300 2.111200
-3.733600 2.349400
-3.713900 2.619900
-3.694300 2.857300
-3.674600 2.868900
-3.654900 2.752300
-3.635200 2.894200
-3.615600 2.977200
-3.595900 2.637700
-3.576200 2.519600
-3.556500 2.386900
-3.536900 2.342700
-3.517200 2.297500
-3.497500 2.265800
-3.477900 2.226000
-3.458200 2.207200
-3.438500 2.175300
-3.418800 2.146100
-3.399200 2.141700
-3.379500 2.135800
-3.359800 2.129400
-3.340100 2.124000
-3.320500 2.126600
-3.300800 2.395800
-3.281100 2.312400
-3.261500 2.376400
-3.241800 2.600000
-3.222100 3.327600
-3.202400 2.166000
-3.182800 2.092100
-3.163100 2.025200
-3.143400 1.964200
-3.123700 1.924800
-3.104100 1.886400
-3.084400 1.846000
-3.064700 1.807000
-3.045100 1.767100
-3.025400 1.724600
-3.005700 1.680400
-2.986000 1.658800
-2.966400 1.635900
-2.946700 1.606600
-2.927000 1.574000
-2.907300 1.566500
-2.887700 1.544600
-2.868000 1.525900
-2.848300 1.569400
-2.828600 1.459200
-2.809000 1.410200
-2.789300 1.366500
-2.769600 1.314500
-2.750000 1.253300
-2.730300 1.231900
-2.710600 1.211200
-2.690900 1.192200
-2.671300 1.170700
-2.651600 1.149600
-2.631900 1.124800
-2.612200 1.102900
-2.592600 1.082200
-2.572900 1.071300
-2.553200 1.085000
-2.533600 1.074200
-2.513900 1.064300
-2.494200 1.055000
-2.474500 1.042600
-2.454900 1.034900
-2.435200 1.064300
-2.415500 1.075900
-2.395800 1.077400
-2.376200 1.147300
-2.356500 1.188700
-2.336800 1.130900
-2.317200 1.103200
-2.297500 1.085200
-2.277800 1.042700
-2.258100 1.029800
-2.238500 1.015700
-2.218800 1.004800
-2.199100 0.995000
-2.179400 0.984500
-2.159800 0.972100
-2.140100 0.953000
-2.120400 0.941300
-2.100800 0.929200
-2.081100 0.917500
-2.061400 0.906400
-2.041700 0.918600
-2.022100 0.907700
-2.002400 0.892800
-1.982700 0.853900
-1.963000 0.842900
-1.943400 0.829900
-1.923700 1.063000
-1.904000 0.727800
-1.884300 0.706600
-1.864700 0.686600
-1.845000 0.667400
-1.825300 0.649200
-1.805700 0.630200
-1.786000 0.612700
-1.766300 0.596200
-1.746600 0.583100
-1.727000 0.572700
-1.707300 0.561700
-1.687600 0.531400
-1.667900 0.518700
-1.648300 0.506400
-1.628600 0.494100
-1.608900 0.480600
-1.589300 0.470000
-1.569600 0.459700
-1.549900 0.449700
-1.530200 0.440000
-1.510600 0.430600
-1.490900 0.421600
-1.471200 0.412900
-1.451500 0.404400
-1.431900 0.396300
-1.412200 0.389300
-1.392500 0.381700
-1.372900 0.373500
-1.353200 0.365300
-1.333500 0.356900
-1.313800 0.348600
-1.294200 0.340300
-1.274500 0.327400
-1.254800 0.320900
-1.235100 0.314200
-1.215500 0.306500
-1.195800 0.299400
-1.176100 0.292800
-1.156500 0.286400
-1.136800 0.280200
-1.117100 0.274000
-1.097400 0.268000
-1.077800 0.262000
-1.058100 0.256200
-1.038400 0.250600
-1.018700 0.244900
-0.999100 0.239400
-0.979400 0.234100
-0.959700 0.229000
-0.940000 0.224000
-0.920400 0.219600
-0.900700 0.215300
-0.881000 0.211000
-0.861400 0.205500
-0.841700 0.200600
-0.822000 0.197000
-0.802300 0.192900
-0.782700 0.188800
-0.763000 0.184500
-0.743300 0.180200
-0.723600 0.175800
-0.704000 0.168900
-0.684300 0.165700
-0.664600 0.162400
-0.645000 0.352400
-0.625300 0.455100
-0.605600 0.539200
-0.585900 0.751400
-0.566300 0.925100
-0.546600 1.048200
-0.526900 1.132600
-0.507200 1.234800
-0.487600 1.416100
-0.467900 1.599400
-0.448200 1.681500
-0.428600 1.720300
-0.408900 1.771900
-0.389200 1.797900
-0.369500 1.792100
-0.349900 1.807100
-0.330200 1.822100
-0.310500 1.815200
-0.290800 1.816800
-0.271200 1.835400
-0.251500 1.862500
-0.231800 1.885500
-0.212200 1.913400
-0.192500 1.945100
-0.172800 1.962300
-0.153100 1.993900
-0.133500 2.028700
-0.113800 2.073700
-0.094100 2.116800
-0.074400 2.163700
-0.054800 2.221800
-0.035100 2.299600
-0.015400 2.381900
0.004300 2.665400
0.023900 3.628600
0.043600 3.201600
0.063300 3.184500
0.082900 2.997000
0.102600 2.973200
0.122300 2.937300
0.142000 2.801600
0.161600 2.734500
0.181300 2.766300
0.201000 2.804800
0.220700 2.856900
0.240300 2.922700
0.260000 3.001400
0.279700 3.064000
0.299300 3.125700
0.319000 3.201500
0.338700 3.285700
0.358400 3.379600
0.378000 3.593300
0.397700 3.729600
0.417400 3.915300
0.437100 3.940600
0.456700 4.058400
0.476400 4.206100
0.496100 4.056500
0.515700 4.378100
0.535400 4.474800
0.555100 4.443500
0.574800 4.444600
0.594400 5.511500
0.614100 4.572700
0.633800 4.695000
0.653500 4.888400
0.673100 4.828100
0.692800 5.118700
0.712500 5.240000
0.732100 5.622000
0.751800 5.804600
0.771500 6.124900
0.791200 6.250500
0.810800 5.884200
0.830500 5.266000
0.850200 4.876100
0.869900 4.538500
0.889500 4.318500
0.909200 4.193700
0.928900 4.088200
0.948600 3.975300
0.968200 3.886600
0.987900 3.566700
1.007600 3.487000
1.027200 3.439700
1.046900 3.516100
1.066600 3.234100
1.086300 3.181400
1.105900 3.158200
1.125600 3.309700
1.145300 3.328000
1.165000 3.469200
1.184600 3.627800
1.204300 3.879800
1.224000 3.735600
1.243600 3.863200
1.263300 4.081600
1.283000 3.862900
1.302700 3.845700
1.322300 3.879900
1.342000 3.803700
1.361700 3.723200
1.381400 3.770500
1.401000 3.707600
1.420700 3.686500
1.440400 3.242700
1.460000 3.021800
1.479700 2.867500
1.499400 2.781200
1.519100 2.715100
1.538700 2.630500
1.558400 2.596400
1.578100 2.634200
1.597800 2.769500
1.617400 2.873700
1.637100 2.952200
1.656800 3.472700
1.676500 3.120200
1.696100 3.027900
1.715800 3.114000
1.735500 3.300300
1.755100 3.350700
1.774800 3.425300
1.794500 3.487600
1.814200 3.463600
1.833800 3.488100
1.853500 3.878900
1.873200 4.306100
1.892900 4.963000
1.912500 4.782100
1.932200 4.480100
1.951900 4.267200
1.971500 4.386300
1.991200 4.041600
2.010900 3.678800
2.030600 3.122000
2.050200 2.964500
2.069900 3.230700
2.089600 3.466100
2.109300 3.598400
2.128900 4.061300
2.148600 5.072800
2.168300 4.005800
2.187900 3.907100
2.207600 3.894300
2.227300 3.970400
2.247000 3.968000
2.266600 5.262500
2.286300 3.784300
2.306000 3.624300
2.325700 3.454200
2.345300 3.282600
2.365000 3.156400
2.384700 2.710200
2.404300 2.789700
2.424000 2.904100
2.443700 3.111400
2.463400 3.316800
2.483000 3.524200
2.502700 3.697700
2.522400 3.938400
2.542100 4.117800
2.561700 4.215900
2.581400 4.482800
2.601100 4.857800
2.620800 5.380100
2.640400 5.974500
2.660100 6.550800
2.679800 7.127700
2.699400 7.833800
2.719100 8.604500
2.738800 7.576700
2.758500 7.565800
2.778100 7.015800
2.797800 7.213200
2.817500 6.927600
2.837200 6.587300
2.856800 6.179500
2.876500 6.754300
2.896200 6.626300
2.915800 6.497800
2.935500 5.978700
2.955200 5.907000
2.974900 7.331300
2.994500 8.665200
3.014200 12.562600
3.033900 16.548600
3.053600 25.619600
3.073200 15.972500
3.092900 17.585700
3.112600 13.860500
3.132200 11.252100
3.151900 10.169400
3.171600 9.528900
3.191300 9.920600
3.210900 11.700400
3.230600 18.667100
3.250300 17.300500
3.270000 18.623300
3.289600 15.474600
3.309300 12.676900
3.329000 10.922700
3.348600 7.665700
3.368300 8.043200
3.388000 10.306100
3.407700 7.854800
3.427300 5.574500
3.447000 4.700500
3.466700 3.696900
3.486400 3.312300
3.506000 2.948000
3.525700 2.630600
3.545400 2.385100
3.565100 2.132600
3.584700 1.918100
3.604400 1.771000
3.624100 1.640000
3.643700 1.536400
3.663400 1.345100
3.683100 0.993000
3.702800 0.682900
3.722400 0.032400
3.742100 0.000000
3.761800 0.000000
3.781500 0.732900
3.801100 0.448500
3.820800 0.162800
3.840500 0.162200
3.860100 0.161700
3.879800 0.161400
3.899500 0.161300
3.919200 0.161300
3.938800 0.161500
3.958500 0.150900
3.978200 0.152500
3.997900 0.154200
4.017500 0.155900
4.037200 0.157600
4.056900 0.155000
4.076500 0.155700
4.096200 0.156200
4.115900 0.156600
4.135600 0.156900
4.155200 0.158700
4.174900 0.160900
4.194600 0.163200
4.214300 0.166000
4.233900 0.168900
4.253600 0.172000
