set title 'mp-1186925 - Density of States'
set xlabel 'Energy (eV)'
set ylabel 'DOS (states/eV)'
set grid
set xrange [-10:10]
set yrange [0:17.419]
set xzeroaxis lt -1
set terminal png size 800,600
set output 'mp-1186925_dos_gnuplot.png'
plot '-' using 1:2 with lines title 'DOS'
-6.941800 0.000000
-6.921600 0.000000
-6.901400 0.000000
-6.881300 0.000000
-6.861100 0.000000
-6.840900 0.000000
-6.820800 0.000000
-6.800600 0.000000
-6.780400 0.000000
-6.760200 0.000000
-6.740100 0.000000
-6.719900 0.000000
-6.699700 0.000000
-6.679600 0.000000
-6.659400 0.000000
-6.639200 0.000000
-6.619000 0.000000
-6.598900 0.000000
-6.578700 0.000000
-6.558500 0.000000
-6.538400 0.000000
-6.518200 0.000000
-6.498000 0.000000
-6.477800 0.000000
-6.457700 0.000000
-6.437500 0.000000
-6.417300 0.000000
-6.397200 0.000000
-6.377000 0.000000
-6.356800 0.000000
-6.336700 0.000000
-6.316500 0.000000
-6.296300 0.000000
-6.276100 0.000000
-6.256000 0.000000
-6.235800 0.000000
-6.215600 0.000000
-6.195500 0.000000
-6.175300 0.000000
-6.155100 0.000000
-6.134900 0.000000
-6.114800 0.000000
-6.094600 0.000000
-6.074400 0.000000
-6.054300 0.000000
-6.034100 0.000000
-6.013900 0.000000
-5.993700 0.000000
-5.973600 0.000000
-5.953400 0.000000
-5.933200 0.000000
-5.913100 0.000000
-5.892900 0.000000
-5.872700 0.000000
-5.852600 0.000000
-5.832400 0.000000
-5.812200 0.000000
-5.792000 0.000000
-5.771900 0.000000
-5.751700 0.000000
-5.731500 0.000000
-5.711400 0.000000
-5.691200 0.000000
-5.671000 0.000000
-5.650800 0.000000
-5.630700 0.000000
-5.610500 0.000000
-5.590300 0.000000
-5.570200 0.000000
-5.550000 0.000000
-5.529800 0.000000
-5.509700 0.000000
-5.489500 0.000000
-5.469300 0.000000
-5.449100 0.000000
-5.429000 0.000000
-5.408800 0.000000
-5.388600 0.000000
-5.368500 0.000000
-5.348300 0.000000
-5.328100 0.000000
-5.307900 0.000000
-5.287800 0.000000
-5.267600 0.000000
-5.247400 0.000000
-5.227300 0.000000
-5.207100 0.000000
-5.186900 0.000000
-5.166700 0.000000
-5.146600 0.000000
-5.126400 0.000000
-5.106200 0.000100
-5.086100 0.014300
-5.065900 0.052400
-5.045700 0.111600
-5.025600 0.170100
-5.005400 0.181400
-4.985200 0.195700
-4.965000 0.213200
-4.944900 0.233700
-4.924700 0.256600
-4.904500 0.270100
-4.884400 0.292500
-4.864200 0.315900
-4.844000 0.339100
-4.823800 0.356600
-4.803700 0.367600
-4.783500 0.376700
-4.763300 0.396900
-4.743200 0.413200
-4.723000 0.428600
-4.702800 0.444700
-4.682600 0.461000
-4.662500 0.477200
-4.642300 0.494300
-4.622100 0.512000
-4.602000 0.530700
-4.581800 0.551000
-4.561600 0.572700
-4.541500 0.593900
-4.521300 0.613100
-4.501100 0.633100
-4.480900 0.653200
-4.460800 0.674000
-4.440600 0.696400
-4.420400 0.718900
-4.400300 0.741600
-4.380100 0.764600
-4.359900 0.788300
-4.339700 0.817100
-4.319600 0.845300
-4.299400 0.874900
-4.279200 0.909100
-4.259100 0.951600
-4.238900 0.995600
-4.218700 1.057400
-4.198600 1.128600
-4.178400 1.195400
-4.158200 1.237600
-4.138000 1.253800
-4.117900 1.272600
-4.097700 1.310800
-4.077500 1.355100
-4.057400 1.403800
-4.037200 1.440900
-4.017000 1.470800
-3.996800 1.507800
-3.976700 1.553000
-3.956500 1.604800
-3.936300 1.660200
-3.916200 1.719300
-3.896000 1.782600
-3.875800 1.862400
-3.855600 1.949300
-3.835500 2.089900
-3.815300 2.260800
-3.795100 2.484900
-3.775000 2.756400
-3.754800 3.276100
-3.734600 3.644100
-3.714500 3.710400
-3.694300 4.133100
-3.674100 4.124500
-3.653900 3.472700
-3.633800 3.292400
-3.613600 3.056300
-3.593400 3.018600
-3.573300 3.208600
-3.553100 3.109300
-3.532900 2.400300
-3.512700 0.000000
-3.492600 0.000000
-3.472400 0.000000
-3.452200 0.000000
-3.432100 0.000000
-3.411900 0.000000
-3.391700 0.000000
-3.371500 0.000000
-3.351400 0.000000
-3.331200 0.000000
-3.311000 0.000000
-3.290900 0.000000
-3.270700 0.000000
-3.250500 0.000000
-3.230400 0.000000
-3.210200 0.000000
-3.190000 0.000000
-3.169800 0.000000
-3.149700 0.000000
-3.129500 0.000000
-3.109300 0.000000
-3.089200 0.000000
-3.069000 0.000000
-3.048800 0.000000
-3.028600 0.000000
-3.008500 0.000000
-2.988300 0.000000
-2.968100 0.000000
-2.948000 0.000000
-2.927800 0.000000
-2.907600 0.000000
-2.887500 0.000000
-2.867300 0.000000
-2.847100 0.000000
-2.826900 0.000000
-2.806800 0.000000
-2.786600 0.000000
-2.766400 0.000000
-2.746300 0.000000
-2.726100 0.000000
-2.705900 0.000000
-2.685700 0.000000
-2.665600 0.000000
-2.645400 0.000000
-2.625200 0.000000
-2.605100 0.000000
-2.584900 0.000000
-2.564700 0.000000
-2.544500 0.000000
-2.524400 0.000000
-2.504200 0.000000
-2.484000 0.000000
-2.463900 0.000000
-2.443700 0.000000
-2.423500 0.000000
-2.403400 0.000000
-2.383200 0.000000
-2.363000 0.000000
-2.342800 0.000000
-2.322700 0.000000
-2.302500 0.000000
-2.282300 0.000000
-2.262200 0.000000
-2.242000 0.000000
-2.221800 0.000000
-2.201600 0.000000
-2.181500 0.000000
-2.161300 0.000000
-2.141100 0.000000
-2.121000 0.000000
-2.100800 0.000000
-2.080600 0.000000
-2.060400 0.000000
-2.040300 0.000000
-2.020100 0.000000
-1.999900 0.000000
-1.979800 0.000000
-1.959600 0.000000
-1.939400 0.000000
-1.919300 0.000000
-1.899100 0.000000
-1.878900 0.000000
-1.858700 0.000000
-1.838600 0.000000
-1.818400 0.000000
-1.798200 0.000000
-1.778100 0.000000
-1.757900 0.000000
-1.737700 0.000000
-1.717500 0.000000
-1.697400 0.000000
-1.677200 0.000000
-1.657000 0.000000
-1.636900 0.000000
-1.616700 0.000000
-1.596500 0.000000
-1.576400 0.000000
-1.556200 0.000000
-1.536000 0.000000
-1.515800 0.000000
-1.495700 0.000000
-1.475500 0.000000
-1.455300 0.000000
-1.435200 0.000000
-1.415000 0.000000
-1.394800 0.000000
-1.374600 0.000000
-1.354500 0.000000
-1.334300 0.000000
-1.314100 0.000000
-1.294000 0.000000
-1.273800 0.000000
-1.253600 0.000000
-1.233400 0.000000
-1.213300 0.000000
-1.193100 0.000000
-1.172900 0.000000
-1.152800 0.000000
-1.132600 0.000000
-1.112400 0.000000
-1.092300 0.024400
-1.072100 0.063000
-1.051900 0.087600
-1.031700 0.118400
-1.011600 0.143200
-0.991400 0.162000
-0.971200 0.176300
-0.951100 0.183400
-0.930900 0.202000
-0.910700 0.221400
-0.890500 0.241600
-0.870400 0.262700
-0.850200 0.281500
-0.830000 0.555600
-0.809900 0.700400
-0.789700 0.864700
-0.769500 0.912800
-0.749300 1.018600
-0.729200 1.137700
-0.709000 1.269200
-0.688800 1.429900
-0.668700 1.643800
-0.648500 2.166900
-0.628300 2.114800
-0.608200 2.247000
-0.588000 2.670600
-0.567800 2.975900
-0.547600 3.400000
-0.527500 3.509000
-0.507300 3.443800
-0.487100 3.411500
-0.467000 3.381000
-0.446800 3.270700
-0.426600 3.143500
-0.406400 3.095800
-0.386300 3.033000
-0.366100 2.961700
-0.345900 2.886100
-0.325800 2.805200
-0.305600 2.715600
-0.285400 2.791300
-0.265300 2.695100
-0.245100 2.427300
-0.224900 2.196300
-0.204700 2.031600
-0.184600 1.871700
-0.164400 1.770300
-0.144200 1.715200
-0.124100 1.687100
-0.103900 1.703100
-0.083700 1.684400
-0.063500 1.732600
-0.043400 1.717300
-0.023200 1.676600
-0.003000 1.539300
0.017100 1.335000
0.037300 1.167100
0.057500 1.113300
0.077700 1.114200
0.097800 1.124500
0.118000 1.181800
0.138200 1.359200
0.158300 1.507000
0.178500 1.756500
0.198700 2.012500
0.218800 2.232000
0.239000 2.627800
0.259200 2.896800
0.279400 2.586100
0.299500 2.613600
0.319700 2.737300
0.339900 2.810500
0.360000 2.852000
0.380200 2.921800
0.400400 3.037000
0.420600 3.189500
0.440700 3.346100
0.460900 3.680200
0.481100 3.976300
0.501200 4.256900
0.521400 4.716600
0.541600 5.606400
0.561800 5.851200
0.581900 5.114100
0.602100 4.766700
0.622300 4.660400
0.642400 4.702100
0.662600 5.096100
0.682800 4.445600
0.702900 4.616700
0.723100 5.385300
0.743300 6.941800
0.763500 9.461200
0.783600 9.008300
0.803800 8.790500
0.824000 8.219200
0.844100 7.663600
0.864300 8.463300
0.884500 7.775300
0.904700 6.975500
0.924800 7.221000
0.945000 7.289700
0.965200 7.734300
0.985300 8.008900
1.005500 9.283300
1.025700 9.523300
1.045800 10.308200
1.066000 10.101100
1.086200 12.268300
1.106400 8.421700
1.126500 7.660600
1.146700 8.248700
1.166900 7.910200
1.187000 7.957900
1.207200 8.944900
1.227400 7.857200
1.247600 8.393400
1.267700 8.978200
1.287900 9.210600
1.308100 8.221500
1.328200 7.782500
1.348400 7.435600
1.368600 7.460500
1.388800 8.260300
1.408900 8.596600
1.429100 8.460200
1.449300 8.296000
1.469400 8.175400
1.489600 7.325600
1.509800 6.410800
1.529900 6.175000
1.550100 5.621200
1.570300 5.500700
1.590500 5.212900
1.610600 5.299700
1.630800 5.842100
1.651000 5.849900
1.671100 5.641800
1.691300 6.692400
1.711500 6.032200
1.731700 5.989400
1.751800 6.124900
1.772000 6.221300
1.792200 7.178400
1.812300 8.844000
1.832500 10.304200
1.852700 10.719300
1.872900 11.752200
1.893000 13.917200
1.913200 14.264900
1.933400 12.944100
1.953500 10.301800
1.973700 8.754200
1.993900 9.209000
2.014000 10.566200
2.034200 11.422500
2.054400 11.814900
2.074600 12.601300
2.094700 11.102600
2.114900 10.786600
2.135100 9.514900
2.155200 9.985700
2.175400 9.275600
2.195600 9.201000
2.215800 9.446500
2.235900 9.073900
2.256100 7.502100
2.276300 8.090900
2.296400 10.468700
2.316600 9.296500
2.336800 7.838600
2.356900 7.150800
2.377100 6.356100
2.397300 6.000800
2.417500 5.783400
2.437600 5.725900
2.457800 5.597700
2.478000 5.930200
2.498100 6.190500
2.518300 6.150600
2.538500 6.595900
2.558700 6.898500
2.578800 8.167500
2.599000 10.724000
2.619200 12.622400
2.639300 10.259400
2.659500 9.182100
2.679700 10.069900
2.699900 10.402300
2.720000 8.529200
2.740200 6.301300
2.760400 7.219100
2.780500 8.754000
2.800700 8.402400
2.820900 12.112800
2.841000 13.951000
2.861200 14.561700
2.881400 14.298300
2.901600 15.835100
2.921700 14.628200
2.941900 12.632500
2.962100 11.643300
2.982200 9.844700
3.002400 8.975900
3.022600 12.596600
3.042800 11.343300
3.062900 11.411800
3.083100 11.300800
3.103300 12.151900
3.123400 9.322500
3.143600 8.645500
3.163800 8.723500
3.184000 8.787900
3.204100 7.727700
3.224300 6.931600
3.244500 6.654000
3.264600 5.992400
3.284800 5.457200
3.305000 5.079800
3.325100 4.914100
3.345300 4.703500
3.365500 4.504100
3.385700 4.258000
3.405800 3.983800
3.426000 3.813200
3.446200 4.093400
3.466300 4.578400
3.486500 4.402000
3.506700 4.142300
3.526900 4.999300
3.547000 3.071900
3.567200 3.232100
3.587400 4.305100
3.607500 4.755800
3.627700 7.136700
3.647900 9.517500
3.668000 14.081600
3.688200 11.233000
3.708400 9.019700
3.728600 8.206900
3.748700 8.400800
3.768900 8.131700
3.789100 8.362000
3.809200 8.724500
3.829400 8.811200
3.849600 8.497100
3.869800 8.139400
3.889900 7.436100
3.910100 6.049100
3.930300 5.469300
3.950400 5.129600
3.970600 4.866200
3.990800 4.685800
4.011000 4.485800
4.031100 4.249700
4.051300 4.059700
4.071500 4.019700
4.091600 3.997000
4.111800 3.954900
4.132000 3.892300
4.152100 3.947700
4.172300 3.953500
4.192500 3.851700
4.212700 3.713200
4.232800 4.056200
4.253000 3.725300
4.273200 3.409600
4.293300 3.024000
4.313500 3.016100
4.333700 1.978200
4.353900 1.643800
4.374000 1.526900
4.394200 1.482700
4.414400 1.454200
4.434500 1.415400
4.454700 1.414900
4.474900 1.420400
4.495100 1.524100
4.515200 1.427200
4.535400 1.407400
4.555600 1.395800
4.575700 1.379500
4.595900 1.368400
4.616100 1.362300
4.636200 1.359500
4.656400 1.354700
4.676600 1.352300
4.696800 1.358400
4.716900 1.378700
4.737100 1.374900
4.757300 1.445100
4.777400 1.488400
4.797600 1.532400
4.817800 1.543600
4.838000 1.548100
4.858100 1.676900
4.878300 1.750800
4.898500 1.934800
4.918600 2.143600
4.938800 2.380600
4.959000 2.554200
4.979100 2.734100
4.999300 2.267100
5.019500 2.348600
5.039700 2.400300
5.059800 2.491600
5.080000 2.618400
5.100200 2.476700
5.120300 2.307500
5.140500 2.123700
5.160700 1.910700
5.180900 1.757400
5.201000 1.682400
5.221200 1.595900
5.241400 1.534700
5.261500 1.488900
5.281700 1.453200
5.301900 1.421200
5.322100 1.386000
5.342200 1.350800
5.362400 1.320700
5.382600 1.300600
5.402700 1.283700
5.422900 1.269900
5.443100 1.256300
5.463200 1.243200
5.483400 1.230400
5.503600 1.218400
5.523800 1.205100
5.543900 1.205500
5.564100 1.208000
5.584300 1.211300
5.604400 1.214900
5.624600 1.218500
5.644800 1.186800
5.665000 1.182100
5.685100 1.183600
5.705300 1.192300
5.725500 1.216400
5.745600 1.200900
5.765800 1.179400
5.786000 1.165500
5.806200 1.161000
5.826300 1.163000
5.846500 1.164700
5.866700 1.165000
5.886800 1.162600
5.907000 1.168100
5.927200 1.169400
5.947300 1.172300
5.967500 1.178000
5.987700 1.187100
6.007900 1.204100
6.028000 1.233500
6.048200 1.284500
6.068400 1.372900
6.088500 1.546700
6.108700 1.582700
6.128900 1.711300
6.149100 1.970100
6.169200 2.279300
6.189400 2.774500
6.209600 2.738300
6.229700 2.768400
6.249900 2.262900
6.270100 2.179200
6.290200 2.107200
6.310400 2.050500
6.330600 2.000000
6.350800 1.936200
6.370900 1.870800
6.391100 1.811700
6.411300 1.760500
6.431400 1.683300
6.451600 1.655400
6.471800 1.615800
6.492000 1.564400
6.512100 1.505400
6.532300 1.455700
6.552500 1.407900
6.572600 1.361900
6.592800 1.320600
6.613000 1.297700
6.633200 1.274200
6.653300 1.250100
6.673500 1.225800
6.693700 1.201100
6.713800 1.176400
6.734000 1.161400
6.754200 1.145300
6.774300 1.130700
6.794500 1.118000
6.814700 1.109200
6.834900 1.129400
6.855000 1.208500
6.875200 1.097600
6.895400 1.126400
6.915500 1.141100
6.935700 1.150600
6.955900 1.162900
6.976100 1.176700
6.996200 1.190200
7.016400 1.203800
7.036600 1.218300
7.056700 1.258700
7.076900 1.298100
7.097100 1.333700
7.117300 1.363400
7.137400 1.387500
7.157600 1.416900
7.177800 1.432200
7.197900 1.438600
7.218100 1.443000
7.238300 1.448600
7.258400 1.472700
7.278600 1.544700
7.298800 1.481800
7.319000 1.550600
7.339100 1.647200
7.359300 1.766500
7.379500 1.882700
7.399600 1.998700
7.419800 2.003700
7.440000 1.988600
7.460200 1.992700
7.480300 1.996500
7.500500 1.936400
7.520700 1.867600
7.540800 1.814300
7.561000 1.757700
7.581200 1.702200
7.601300 1.656300
7.621500 1.615200
7.641700 1.581900
7.661900 1.552500
7.682000 1.524700
7.702200 1.498500
7.722400 1.475400
7.742500 1.454900
7.762700 1.439500
7.782900 1.429300
7.803100 1.421400
7.823200 1.414700
7.843400 1.409800
7.863600 1.405700
7.883700 1.408500
7.903900 1.423900
7.924100 1.449600
7.944300 1.466000
7.964400 1.457900
7.984600 1.456500
8.004800 1.457700
8.024900 1.429600
8.045100 1.384900
8.065300 1.394000
8.085400 1.385700
8.105600 1.385700
8.125800 1.383700
8.146000 1.387300
8.166100 1.395200
8.186300 1.353000
8.206500 1.350900
8.226600 1.351300
8.246800 1.341000
8.267000 1.335200
8.287200 1.318800
8.307300 1.301900
8.327500 1.293400
8.347700 1.298100
8.367800 1.314700
8.388000 1.314000
8.408200 1.315900
8.428400 1.317300
8.448500 1.323900
8.468700 1.312600
8.488900 1.312800
8.509000 1.312700
8.529200 1.312500
8.549400 1.312200
8.569500 1.311700
8.589700 1.312000
8.609900 1.315200
8.630100 1.328100
8.650200 1.310300
8.670400 1.310800
8.690600 1.323500
8.710700 1.338600
8.730900 1.356100
8.751100 1.362800
8.771300 1.363200
8.791400 1.350600
8.811600 1.351800
8.831800 1.354300
8.851900 1.357900
8.872100 1.362500
8.892300 1.367400
8.912400 1.374400
8.932600 1.385400
8.952800 1.409300
8.973000 1.452700
8.993100 1.512700
9.013300 1.543700
9.033500 1.581000
9.053600 1.627200
9.073800 1.680200
9.094000 1.730400
9.114200 1.757300
9.134300 1.787000
9.154500 1.810600
9.174700 1.841600
9.194800 1.782900
9.215000 1.807800
9.235200 1.836900
9.255400 1.868500
9.275500 1.947000
9.295700 1.994400
9.315900 2.046500
9.336000 1.993300
9.356200 2.053200
9.376400 2.088400
9.396500 2.070600
9.416700 2.033400
9.436900 2.047500
9.457100 2.051000
9.477200 2.074600
9.497400 2.100100
9.517600 2.118100
9.537700 2.093900
9.557900 2.118300
9.578100 2.354200
9.598300 2.419700
9.618400 2.337000
9.638600 2.293200
9.658800 2.140800
9.678900 2.111800
9.699100 2.105400
9.719300 2.085100
9.739500 2.032000
9.759600 2.001900
9.779800 1.978300
9.800000 1.962600
9.820100 1.961400
9.840300 1.970100
9.860500 2.048400
9.880600 2.266500
9.900800 1.941500
9.921000 1.805000
9.941200 1.716000
9.961300 1.643900
9.981500 1.563200
10.001700 1.516300
10.021800 1.545700
10.042000 1.580300
10.062200 1.610900
10.082400 1.646300
10.102500 1.692600
10.122700 1.753000
10.142900 1.848700
10.163000 2.155500
10.183200 2.210600
10.203400 2.144300
10.223500 2.068000
10.243700 1.992200
10.263900 1.906400
10.284100 1.764600
10.304200 1.666800
10.324400 1.558100
10.344600 1.291100
10.364700 1.128700
10.384900 1.066100
10.405100 1.029300
10.425300 1.014700
10.445400 1.012600
10.465600 0.987500
10.485800 0.983200
10.505900 0.978300
10.526100 0.968800
10.546300 0.953600
10.566500 0.916700
10.586600 0.858000
10.606800 0.826300
10.627000 0.819800
10.647100 0.815100
10.667300 0.901100
10.687500 0.981700
10.707600 0.998400
10.727800 1.006900
10.748000 1.007100
10.768200 1.002400
10.788300 1.056200
10.808500 1.118800
10.828700 1.161100
10.848800 1.214100
10.869000 1.268000
10.889200 1.319600
10.909400 1.371700
10.929500 1.421300
10.949700 1.479800
10.969900 1.546900
10.990000 1.575600
11.010200 1.552300
11.030400 1.544400
11.050600 1.541300
11.070700 1.562900
11.090900 1.599800
11.111100 1.637300
11.131200 1.674600
11.151400 1.694100
11.171600 1.690800
11.191700 1.705000
11.211900 1.737400
11.232100 1.786600
11.252300 1.844800
11.272400 1.897400
11.292600 1.947100
11.312800 2.025900
11.332900 2.181000
11.353100 2.312900
11.373300 2.341500
11.393500 2.302300
11.413600 2.238600
11.433800 2.177900
11.454000 2.110900
11.474100 2.037000
11.494300 1.970600
11.514500 1.902100
11.534600 1.816200
11.554800 1.729000
11.575000 1.612900
11.595200 1.533600
11.615300 1.501400
11.635500 1.476900
11.655700 1.467800
11.675800 1.464300
11.696000 1.463600
11.716200 1.442700
11.736400 1.398700
11.756500 1.358600
11.776700 1.326900
11.796900 1.301900
11.817000 1.282200
11.837200 1.255500
11.857400 1.186100
11.877600 1.154500
11.897700 1.125400
11.917900 1.098900
11.938100 1.076200
11.958200 1.066800
11.978400 1.082600
11.998600 1.101200
12.018700 1.115400
12.038900 1.126400
12.059100 1.140100
12.079300 1.145500
12.099400 1.156700
12.119600 1.169500
12.139800 1.198600
12.159900 1.237200
12.180100 1.293000
12.200300 1.369300
12.220500 1.465800
12.240600 1.567300
12.260800 1.636600
12.281000 1.700200
12.301100 1.752400
12.321300 1.787900
12.341500 1.831600
12.361700 1.892100
12.381800 1.961100
12.402000 2.075300
12.422200 2.198100
12.442300 2.285500
12.462500 2.445400
12.482700 2.332700
12.502800 2.315700
12.523000 2.419900
12.543200 2.475000
12.563400 2.472900
12.583500 2.419700
12.603700 2.276900
12.623900 2.207400
12.644000 2.174300
12.664200 2.137600
12.684400 2.096300
12.704600 2.056400
12.724700 2.017600
12.744900 1.976400
12.765100 1.898000
12.785200 1.870900
12.805400 1.876700
12.825600 1.888000
12.845700 1.903900
12.865900 1.921800
12.886100 1.942400
12.906300 1.969800
12.926400 2.009800
12.946600 2.036600
12.966800 2.083400
12.986900 1.961000
13.007100 1.902100
13.027300 1.842800
13.047500 1.791100
13.067600 1.779500
13.087800 1.750000
13.108000 1.729600
13.128100 1.722000
13.148300 1.720700
13.168500 1.723800
13.188700 1.732200
13.208800 1.748500
13.229000 1.749100
13.249200 1.766900
13.269300 1.764000
13.289500 1.755300
13.309700 1.740400
13.329800 1.728500
13.350000 1.752700
13.370200 1.817500
13.390400 1.985200
13.410500 2.290800
13.430700 2.359800
13.450900 2.404400
13.471000 2.425500
13.491200 2.476000
13.511400 2.511600
13.531600 2.482400
13.551700 2.407800
13.571900 2.292600
13.592100 2.194800
13.612200 2.097700
13.632400 2.039900
13.652600 2.027800
13.672800 2.026700
13.692900 2.014100
13.713100 1.988500
13.733300 1.919400
13.753400 1.856900
13.773600 1.814800
13.793800 1.780400
13.813900 1.754400
13.834100 1.739000
13.854300 1.725500
13.874500 1.721200
13.894600 1.726800
13.914800 1.741000
13.935000 1.765100
13.955100 1.807900
13.975300 1.857500
13.995500 1.925200
14.015700 2.007600
14.035800 2.096500
14.056000 2.195700
14.076200 2.267400
14.096300 2.306400
14.116500 2.361000
14.136700 2.455100
14.156800 2.456000
14.177000 2.484700
14.197200 2.520700
14.217400 2.564500
14.237500 2.619100
14.257700 2.679000
14.277900 2.710100
14.298000 2.699000
14.318200 2.618100
14.338400 2.507800
14.358600 2.403500
14.378700 2.311400
14.398900 2.231900
14.419100 2.167300
14.439200 2.106200
14.459400 2.046400
