set title 'mp-556716 - Density of States'
set xlabel 'Energy (eV)'
set ylabel 'DOS (states/eV)'
set grid
set xrange [-10:10]
set yrange [0:198.714]
set xzeroaxis lt -1
set terminal png size 800,600
set output 'mp-556716_dos_gnuplot.png'
plot '-' using 1:2 with lines title 'DOS'
-12.957500 0.000000
-12.943500 0.000000
-12.929500 0.000000
-12.915500 0.000000
-12.901500 0.000000
-12.887500 0.000000
-12.873500 0.000000
-12.859500 0.000000
-12.845500 0.000000
-12.831500 0.000000
-12.817500 0.000000
-12.803600 0.000000
-12.789600 0.000000
-12.775600 0.000000
-12.761600 0.000000
-12.747600 0.000000
-12.733600 0.000000
-12.719600 0.000000
-12.705600 0.000000
-12.691600 0.000000
-12.677600 0.000000
-12.663600 0.000000
-12.649600 0.000000
-12.635600 0.000000
-12.621600 0.000000
-12.607600 0.000000
-12.593600 0.000000
-12.579600 0.000000
-12.565600 0.000000
-12.551600 0.000000
-12.537600 0.000000
-12.523700 0.000000
-12.509700 0.000000
-12.495700 0.000000
-12.481700 0.000000
-12.467700 0.000000
-12.453700 0.000000
-12.439700 0.000000
-12.425700 0.000000
-12.411700 0.000000
-12.397700 0.000000
-12.383700 0.000000
-12.369700 0.000000
-12.355700 0.000000
-12.341700 0.000000
-12.327700 0.000000
-12.313700 0.000000
-12.299700 0.000000
-12.285700 0.000000
-12.271700 0.000000
-12.257800 0.000000
-12.243800 0.000000
-12.229800 0.000000
-12.215800 0.000000
-12.201800 0.000000
-12.187800 0.000000
-12.173800 0.000000
-12.159800 0.000000
-12.145800 0.000000
-12.131800 0.000000
-12.117800 0.000000
-12.103800 0.000000
-12.089800 0.000000
-12.075800 0.000000
-12.061800 0.000000
-12.047800 0.000000
-12.033800 0.000000
-12.019800 0.000000
-12.005800 0.000000
-11.991900 0.000000
-11.977900 0.000000
-11.963900 0.000000
-11.949900 0.000000
-11.935900 0.000000
-11.921900 0.000000
-11.907900 0.000000
-11.893900 0.000000
-11.879900 0.000000
-11.865900 0.000000
-11.851900 0.000000
-11.837900 0.000000
-11.823900 0.000000
-11.809900 0.000000
-11.795900 0.000000
-11.781900 0.000000
-11.767900 0.000000
-11.753900 0.000000
-11.739900 0.000000
-11.726000 0.000000
-11.712000 0.000000
-11.698000 0.000000
-11.684000 0.019700
-11.670000 0.236900
-11.656000 0.454100
-11.642000 0.671300
-11.628000 0.888400
-11.614000 1.105600
-11.600000 1.322800
-11.586000 1.540000
-11.572000 1.757100
-11.558000 1.097700
-11.544000 1.125200
-11.530000 1.152600
-11.516000 1.180100
-11.502000 1.207600
-11.488000 1.235100
-11.474000 1.262500
-11.460100 1.356400
-11.446100 1.623800
-11.432100 1.891100
-11.418100 2.158500
-11.404100 2.425900
-11.390100 2.693200
-11.376100 2.960600
-11.362100 3.227900
-11.348100 3.495300
-11.334100 2.727200
-11.320100 2.780700
-11.306100 2.834200
-11.292100 2.887700
-11.278100 2.941200
-11.264100 3.148800
-11.250100 3.471400
-11.236100 3.797400
-11.222100 4.131800
-11.208100 4.466300
-11.194100 4.800700
-11.180200 5.135100
-11.166200 5.469500
-11.152200 4.780300
-11.138200 4.884300
-11.124200 4.992700
-11.110200 5.102600
-11.096200 5.327700
-11.082200 5.734100
-11.068200 6.140500
-11.054200 6.546900
-11.040200 6.956800
-11.026200 7.370500
-11.012200 7.784200
-10.998200 8.549700
-10.984200 8.067600
-10.970200 8.722900
-10.956200 9.507300
-10.942200 10.306000
-10.928200 11.104700
-10.914300 14.048300
-10.900300 14.050000
-10.886300 14.051500
-10.872300 12.770400
-10.858300 12.455500
-10.844300 12.140500
-10.830300 12.487700
-10.816300 12.575500
-10.802300 13.760500
-10.788300 15.611000
-10.774300 17.461500
-10.760300 16.666200
-10.746300 16.602300
-10.732300 16.587300
-10.718300 15.577700
-10.704300 17.696800
-10.690300 18.793000
-10.676300 21.371700
-10.662300 29.582900
-10.648400 19.801300
-10.634400 16.713500
-10.620400 20.983300
-10.606400 9.923200
-10.592400 10.215000
-10.578400 10.506700
-10.564400 12.298200
-10.550400 13.499000
-10.536400 14.905400
-10.522400 21.579600
-10.508400 21.519500
-10.494400 21.459500
-10.480400 24.414600
-10.466400 22.176700
-10.452400 24.324800
-10.438400 13.446300
-10.424400 15.697700
-10.410400 8.089000
-10.396400 8.332400
-10.382500 8.577600
-10.368500 8.822900
-10.354500 9.092300
-10.340500 9.619300
-10.326500 11.311700
-10.312500 12.716300
-10.298500 14.120900
-10.284500 15.525500
-10.270500 18.471600
-10.256500 16.973000
-10.242500 14.481400
-10.228500 13.865600
-10.214500 18.565100
-10.200500 12.102100
-10.186500 13.358900
-10.172500 17.882400
-10.158500 16.910900
-10.144500 15.942700
-10.130500 13.667000
-10.116600 12.399800
-10.102600 13.856100
-10.088600 16.831100
-10.074600 9.135600
-10.060600 9.762200
-10.046600 10.393700
-10.032600 11.037100
-10.018600 12.795600
-10.004600 14.192400
-9.990600 14.460800
-9.976600 15.512000
-9.962600 19.429700
-9.948600 18.518200
-9.934600 17.606600
-9.920600 16.695100
-9.906600 21.508500
-9.892600 23.644800
-9.878600 14.507100
-9.864600 13.894700
-9.850600 13.282300
-9.836700 12.933900
-9.822700 16.312800
-9.808700 9.560000
-9.794700 9.842100
-9.780700 10.124100
-9.766700 11.854000
-9.752700 12.823100
-9.738700 13.792200
-9.724700 14.761300
-9.710700 18.316900
-9.696700 17.428800
-9.682700 16.540700
-9.668700 15.713200
-9.654700 20.252800
-9.640700 23.193900
-9.626700 14.897100
-9.612700 15.463200
-9.598700 15.829400
-9.584700 14.626400
-9.570800 17.134400
-9.556800 22.123100
-9.542800 14.044600
-9.528800 13.000700
-9.514800 11.956700
-9.500800 10.912800
-9.486800 14.291200
-9.472800 18.064700
-9.458800 13.288900
-9.444800 16.169600
-9.430800 13.401700
-9.416800 10.565500
-9.402800 12.612100
-9.388800 5.329300
-9.374800 5.677800
-9.360800 6.026200
-9.346800 6.374700
-9.332800 20.374600
-9.318800 32.802300
-9.304900 0.000000
-9.290900 0.000000
-9.276900 0.000000
-9.262900 0.000000
-9.248900 0.000000
-9.234900 0.000000
-9.220900 0.000000
-9.206900 0.000000
-9.192900 0.000000
-9.178900 0.000000
-9.164900 0.000000
-9.150900 0.000000
-9.136900 0.000000
-9.122900 0.000000
-9.108900 0.000000
-9.094900 0.000000
-9.080900 0.000000
-9.066900 0.000000
-9.052900 0.000000
-9.039000 0.000000
-9.025000 0.000000
-9.011000 0.000000
-8.997000 0.000000
-8.983000 0.000000
-8.969000 0.000000
-8.955000 0.000000
-8.941000 0.000000
-8.927000 0.000000
-8.913000 0.000000
-8.899000 0.000000
-8.885000 0.000000
-8.871000 0.000000
-8.857000 0.000000
-8.843000 0.000000
-8.829000 0.000000
-8.815000 0.000000
-8.801000 0.000000
-8.787000 0.000000
-8.773000 0.000000
-8.759100 0.000000
-8.745100 0.000000
-8.731100 0.000000
-8.717100 0.000000
-8.703100 0.000000
-8.689100 0.000000
-8.675100 0.000000
-8.661100 0.000000
-8.647100 0.000000
-8.633100 0.000000
-8.619100 0.000000
-8.605100 0.000000
-8.591100 0.000000
-8.577100 0.000000
-8.563100 0.000000
-8.549100 0.000000
-8.535100 0.000000
-8.521100 0.000000
-8.507100 0.000000
-8.493200 0.000000
-8.479200 0.000000
-8.465200 0.000000
-8.451200 0.000000
-8.437200 0.000000
-8.423200 0.000000
-8.409200 0.000000
-8.395200 0.000000
-8.381200 0.000000
-8.367200 0.000000
-8.353200 0.000000
-8.339200 0.000000
-8.325200 0.000000
-8.311200 0.000000
-8.297200 0.000000
-8.283200 0.000000
-8.269200 0.000000
-8.255200 0.000000
-8.241200 0.000000
-8.227300 0.000000
-8.213300 0.000000
-8.199300 0.000000
-8.185300 0.000000
-8.171300 0.000000
-8.157300 0.000000
-8.143300 0.000000
-8.129300 0.000000
-8.115300 0.000000
-8.101300 0.000000
-8.087300 0.000000
-8.073300 0.000000
-8.059300 0.000000
-8.045300 0.000000
-8.031300 0.000000
-8.017300 0.000000
-8.003300 0.000000
-7.989300 0.000000
-7.975300 0.000000
-7.961400 0.000000
-7.947400 0.000000
-7.933400 0.000000
-7.919400 0.000000
-7.905400 0.000000
-7.891400 0.000000
-7.877400 0.000000
-7.863400 0.000000
-7.849400 0.000000
-7.835400 0.000000
-7.821400 0.000000
-7.807400 0.000000
-7.793400 0.000000
-7.779400 0.000000
-7.765400 0.000000
-7.751400 0.000000
-7.737400 0.000000
-7.723400 0.000000
-7.709400 0.000000
-7.695500 0.000000
-7.681500 0.000000
-7.667500 0.000000
-7.653500 0.000000
-7.639500 0.000000
-7.625500 0.000000
-7.611500 0.000000
-7.597500 0.000000
-7.583500 0.000000
-7.569500 0.000000
-7.555500 0.000000
-7.541500 0.000000
-7.527500 0.000000
-7.513500 0.000000
-7.499500 0.000000
-7.485500 0.000000
-7.471500 0.000000
-7.457500 0.000000
-7.443500 0.000000
-7.429500 0.000000
-7.415600 0.000000
-7.401600 0.000000
-7.387600 0.000000
-7.373600 0.000000
-7.359600 0.000000
-7.345600 0.000000
-7.331600 0.000000
-7.317600 0.000000
-7.303600 0.000000
-7.289600 0.000000
-7.275600 0.000000
-7.261600 0.000000
-7.247600 0.000000
-7.233600 0.000000
-7.219600 0.000000
-7.205600 0.000000
-7.191600 0.000000
-7.177600 0.000000
-7.163600 0.000000
-7.149700 0.000000
-7.135700 0.000000
-7.121700 0.000000
-7.107700 0.000000
-7.093700 0.000000
-7.079700 0.000000
-7.065700 0.000000
-7.051700 0.000000
-7.037700 0.000000
-7.023700 0.000000
-7.009700 0.000000
-6.995700 0.000000
-6.981700 0.000000
-6.967700 0.000000
-6.953700 0.000000
-6.939700 0.000000
-6.925700 0.000000
-6.911700 0.000000
-6.897700 0.000000
-6.883800 0.000000
-6.869800 0.000000
-6.855800 0.000000
-6.841800 0.000000
-6.827800 0.000000
-6.813800 0.000000
-6.799800 0.000000
-6.785800 0.000000
-6.771800 0.000000
-6.757800 0.000000
-6.743800 0.000000
-6.729800 0.000000
-6.715800 0.000000
-6.701800 0.000000
-6.687800 0.000000
-6.673800 0.000000
-6.659800 0.000000
-6.645800 0.000000
-6.631800 0.000000
-6.617900 0.000000
-6.603900 0.000000
-6.589900 0.000000
-6.575900 0.000000
-6.561900 0.000000
-6.547900 0.000000
-6.533900 0.000000
-6.519900 0.000000
-6.505900 0.000000
-6.491900 0.000000
-6.477900 0.000000
-6.463900 0.000000
-6.449900 0.000000
-6.435900 0.000000
-6.421900 0.000000
-6.407900 0.000000
-6.393900 0.000000
-6.379900 0.000000
-6.365900 0.000000
-6.352000 0.000000
-6.338000 0.000000
-6.324000 0.000000
-6.310000 0.000000
-6.296000 0.000000
-6.282000 0.000000
-6.268000 0.000000
-6.254000 0.000000
-6.240000 0.000000
-6.226000 0.000000
-6.212000 0.000000
-6.198000 0.000000
-6.184000 0.000000
-6.170000 0.000000
-6.156000 0.000000
-6.142000 0.000000
-6.128000 0.000000
-6.114000 0.000000
-6.100000 0.000000
-6.086000 0.000000
-6.072100 0.000000
-6.058100 0.000000
-6.044100 0.000000
-6.030100 0.000000
-6.016100 0.000000
-6.002100 0.000000
-5.988100 0.000000
-5.974100 0.000000
-5.960100 0.000000
-5.946100 0.000000
-5.932100 0.000000
-5.918100 0.000000
-5.904100 0.000000
-5.890100 0.000000
-5.876100 0.000000
-5.862100 0.000000
-5.848100 0.000000
-5.834100 0.000000
-5.820100 0.000000
-5.806200 0.000000
-5.792200 0.000000
-5.778200 0.000000
-5.764200 0.000000
-5.750200 0.000000
-5.736200 0.000000
-5.722200 0.000000
-5.708200 0.000000
-5.694200 0.000000
-5.680200 0.000000
-5.666200 0.000000
-5.652200 0.000000
-5.638200 0.000000
-5.624200 0.000000
-5.610200 0.000000
-5.596200 0.000000
-5.582200 0.000000
-5.568200 0.000000
-5.554200 0.000000
-5.540300 0.000000
-5.526300 0.000000
-5.512300 0.000000
-5.498300 0.000000
-5.484300 0.000000
-5.470300 0.000000
-5.456300 0.000000
-5.442300 0.000000
-5.428300 0.000000
-5.414300 0.000000
-5.400300 0.000000
-5.386300 0.000000
-5.372300 0.000000
-5.358300 0.000000
-5.344300 0.000000
-5.330300 0.000000
-5.316300 0.000000
-5.302300 0.000000
-5.288300 0.000000
-5.274400 0.000000
-5.260400 0.000000
-5.246400 0.000000
-5.232400 0.000000
-5.218400 0.000000
-5.204400 0.000000
-5.190400 0.000000
-5.176400 0.000000
-5.162400 0.000000
-5.148400 0.000000
-5.134400 0.000000
-5.120400 0.000000
-5.106400 0.000000
-5.092400 0.000000
-5.078400 0.000000
-5.064400 0.000000
-5.050400 0.000000
-5.036400 34.793800
-5.022400 51.698800
-5.008400 48.916000
-4.994500 47.835900
-4.980500 29.910700
-4.966500 45.186500
-4.952500 59.349900
-4.938500 64.611700
-4.924500 88.657500
-4.910500 57.338400
-4.896500 48.914300
-4.882500 45.991000
-4.868500 45.696500
-4.854500 45.870000
-4.840500 46.896200
-4.826500 36.506200
-4.812500 52.092500
-4.798500 64.476900
-4.784500 78.880400
-4.770500 78.153400
-4.756500 64.501700
-4.742500 63.169000
-4.728600 66.993400
-4.714600 75.596100
-4.700600 28.622700
-4.686600 60.512900
-4.672600 42.481700
-4.658600 107.983300
-4.644600 85.651500
-4.630600 32.001200
-4.616600 82.461500
-4.602600 77.010500
-4.588600 89.905300
-4.574600 155.472900
-4.560600 94.377100
-4.546600 92.267200
-4.532600 64.927300
-4.518600 65.583500
-4.504600 62.893900
-4.490600 73.704400
-4.476600 82.431500
-4.462700 111.817100
-4.448700 105.247700
-4.434700 110.731300
-4.420700 84.948700
-4.406700 63.195000
-4.392700 114.602800
-4.378700 68.752100
-4.364700 152.491300
-4.350700 48.840500
-4.336700 48.183700
-4.322700 56.363500
-4.308700 69.045200
-4.294700 36.107400
-4.280700 38.194000
-4.266700 44.343200
-4.252700 56.931600
-4.238700 58.486700
-4.224700 42.889100
-4.210700 49.460100
-4.196800 102.311900
-4.182800 180.648700
-4.168800 150.201900
-4.154800 108.680200
-4.140800 81.604900
-4.126800 80.862700
-4.112800 60.000900
-4.098800 54.719900
-4.084800 53.631700
-4.070800 42.923600
-4.056800 36.937100
-4.042800 75.054500
-4.028800 44.882200
-4.014800 28.140800
-4.000800 43.901500
-3.986800 55.435300
-3.972800 44.792000
-3.958800 40.326800
-3.944800 51.665200
-3.930900 44.876300
-3.916900 115.140200
-3.902900 89.006900
-3.888900 139.917100
-3.874900 126.584900
-3.860900 111.181300
-3.846900 113.063300
-3.832900 87.291000
-3.818900 61.625300
-3.804900 76.731400
-3.790900 63.950100
-3.776900 92.406500
-3.762900 83.220500
-3.748900 69.036900
-3.734900 64.296900
-3.720900 66.777600
-3.706900 87.195200
-3.692900 90.136300
-3.678900 92.197400
-3.664900 98.432100
-3.651000 126.543300
-3.637000 138.672500
-3.623000 105.855500
-3.609000 83.882200
-3.595000 84.529200
-3.581000 69.062300
-3.567000 81.596000
-3.553000 59.000100
-3.539000 64.806600
-3.525000 82.494800
-3.511000 89.448200
-3.497000 71.416100
-3.483000 90.422700
-3.469000 75.221800
-3.455000 99.671800
-3.441000 49.872100
-3.427000 42.649600
-3.413000 33.975000
-3.399000 38.896300
-3.385100 28.663400
-3.371100 88.658300
-3.357100 66.973200
-3.343100 23.909200
-3.329100 42.916300
-3.315100 105.470100
-3.301100 125.625300
-3.287100 121.146600
-3.273100 63.194400
-3.259100 47.546700
-3.245100 82.722300
-3.231100 44.479100
-3.217100 58.176800
-3.203100 22.107600
-3.189100 32.848100
-3.175100 38.879600
-3.161100 28.117000
-3.147100 20.555100
-3.133100 15.756900
-3.119200 17.483700
-3.105200 16.986900
-3.091200 17.771400
-3.077200 19.235500
-3.063200 23.847400
-3.049200 24.552300
-3.035200 12.707500
-3.021200 17.196300
-3.007200 10.491200
-2.993200 12.034000
-2.979200 10.428800
-2.965200 8.523600
-2.951200 8.788700
-2.937200 9.331600
-2.923200 7.744800
-2.909200 7.944400
-2.895200 8.144000
-2.881200 9.943400
-2.867200 10.586700
-2.853300 11.229900
-2.839300 11.497700
-2.825300 12.219200
-2.811300 12.940800
-2.797300 12.945800
-2.783300 11.218800
-2.769300 11.530300
-2.755300 10.667200
-2.741300 8.301600
-2.727300 6.004700
-2.713300 6.545300
-2.699300 14.165700
-2.685300 9.976800
-2.671300 11.460000
-2.657300 8.398500
-2.643300 8.437800
-2.629300 12.515600
-2.615300 16.594100
-2.601300 12.965400
-2.587400 14.078500
-2.573400 10.868600
-2.559400 11.046500
-2.545400 12.106400
-2.531400 13.473400
-2.517400 15.050700
-2.503400 16.628000
-2.489400 17.606200
-2.475400 17.623000
-2.461400 14.552900
-2.447400 11.554000
-2.433400 10.635800
-2.419400 10.843400
-2.405400 11.051000
-2.391400 9.546400
-2.377400 9.487900
-2.363400 9.429400
-2.349400 9.635000
-2.335400 9.757500
-2.321400 10.259900
-2.307500 10.762300
-2.293500 11.264700
-2.279500 11.767000
-2.265500 12.290500
-2.251500 12.976400
-2.237500 12.511600
-2.223500 11.055900
-2.209500 11.358200
-2.195500 11.660500
-2.181500 11.962800
-2.167500 37.441000
-2.153500 14.418000
-2.139500 15.988400
-2.125500 18.566800
-2.111500 31.929200
-2.097500 16.863900
-2.083500 15.042400
-2.069500 16.240700
-2.055500 18.505500
-2.041600 13.471600
-2.027600 11.066900
-2.013600 11.925500
-1.999600 12.069600
-1.985600 14.956500
-1.971600 11.345300
-1.957600 13.288600
-1.943600 12.889200
-1.929600 12.489700
-1.915600 12.097200
-1.901600 11.706300
-1.887600 11.315400
-1.873600 10.628700
-1.859600 11.212200
-1.845600 12.059700
-1.831600 12.915300
-1.817600 13.770800
-1.803600 14.626400
-1.789600 11.832800
-1.775700 13.351300
-1.761700 13.182800
-1.747700 13.014300
-1.733700 12.845800
-1.719700 12.675600
-1.705700 12.505500
-1.691700 12.335400
-1.677700 12.753900
-1.663700 12.601800
-1.649700 12.475200
-1.635700 11.151200
-1.621700 11.235100
-1.607700 11.311000
-1.593700 11.125800
-1.579700 11.310700
-1.565700 11.492800
-1.551700 11.671700
-1.537700 11.850600
-1.523700 12.029500
-1.509800 12.208400
-1.495800 10.621500
-1.481800 10.537200
-1.467800 10.452800
-1.453800 10.368400
-1.439800 10.284100
-1.425800 10.199700
-1.411800 10.099200
-1.397800 9.997900
-1.383800 9.786800
-1.369800 19.391800
-1.355800 19.966500
-1.341800 8.639500
-1.327800 8.671600
-1.313800 8.703700
-1.299800 8.735800
-1.285800 8.767900
-1.271800 9.540500
-1.257800 9.692800
-1.243800 10.038900
-1.229900 10.385900
-1.215900 10.740000
-1.201900 11.094000
-1.187900 11.461600
-1.173900 11.833200
-1.159900 12.206400
-1.145900 12.586500
-1.131900 12.966600
-1.117900 13.345200
-1.103900 13.723500
-1.089900 12.482200
-1.075900 10.726900
-1.061900 11.399500
-1.047900 11.464500
-1.033900 11.529400
-1.019900 11.594400
-1.005900 11.659400
-0.991900 11.724300
-0.977900 11.789300
-0.964000 11.854300
-0.950000 11.918900
-0.936000 12.130400
-0.922000 13.260700
-0.908000 13.704900
-0.894000 14.149200
-0.880000 14.593500
-0.866000 15.049300
-0.852000 15.230200
-0.838000 15.186700
-0.824000 15.143300
-0.810000 15.089700
-0.796000 15.029000
-0.782000 14.736200
-0.768000 14.812600
-0.754000 13.416100
-0.740000 13.431400
-0.726000 13.446600
-0.712000 13.461900
-0.698100 13.477200
-0.684100 14.498700
-0.670100 14.684800
-0.656100 15.236400
-0.642100 15.788100
-0.628100 17.101900
-0.614100 19.442000
-0.600100 19.494800
-0.586100 19.415200
-0.572100 19.509900
-0.558100 19.661100
-0.544100 20.769000
-0.530100 20.968900
-0.516100 21.168700
-0.502100 20.513300
-0.488100 18.971800
-0.474100 19.704400
-0.460100 19.566100
-0.446100 19.376000
-0.432200 19.339700
-0.418200 19.563500
-0.404200 20.845500
-0.390200 20.911800
-0.376200 21.047500
-0.362200 21.211600
-0.348200 19.986900
-0.334200 19.922500
-0.320200 20.995700
-0.306200 21.031400
-0.292200 21.082600
-0.278200 21.236500
-0.264200 22.504900
-0.250200 21.636700
-0.236200 22.754400
-0.222200 21.712100
-0.208200 21.835300
-0.194200 22.125800
-0.180200 22.388600
-0.166300 22.696600
-0.152300 23.147900
-0.138300 23.493400
-0.124300 23.842300
-0.110300 25.348800
-0.096300 25.600000
-0.082300 25.915100
-0.068300 26.235600
-0.054300 25.529500
-0.040300 24.421800
-0.026300 25.902100
-0.012300 25.904000
0.001700 26.095800
0.015700 25.985100
0.029700 26.282900
0.043700 26.242100
0.057700 26.429600
0.071700 26.303700
0.085700 26.138800
0.099700 26.928700
0.113600 25.957300
0.127600 25.765200
0.141600 24.644300
0.155600 25.593300
0.169600 25.697600
0.183600 25.586500
0.197600 25.553100
0.211600 25.587000
0.225600 25.620800
0.239600 25.654700
0.253600 25.688600
0.267600 25.492600
0.281600 24.649700
0.295600 24.199000
0.309600 23.887800
0.323600 23.863200
0.337600 23.779000
0.351600 22.923800
0.365600 22.936600
0.379500 24.457200
0.393500 24.394100
0.407500 24.548400
0.421500 26.059200
0.435500 25.958100
0.449500 25.867400
0.463500 25.652600
0.477500 25.580700
0.491500 25.605200
0.505500 24.736600
0.519500 24.395800
0.533500 23.360400
0.547500 23.096300
0.561500 22.733300
0.575500 22.854600
0.589500 22.710500
0.603500 22.672600
0.617500 22.515700
0.631500 22.422800
0.645400 22.285300
0.659400 22.166000
0.673400 22.062800
0.687400 21.649600
0.701400 21.482600
0.715400 21.315600
0.729400 20.449200
0.743400 24.470800
0.757400 23.469700
0.771400 22.734000
0.785400 21.304700
0.799400 20.876800
0.813400 20.757300
0.827400 20.637800
0.841400 20.518200
0.855400 20.532100
0.869400 20.450100
0.883400 25.022500
0.897400 23.432700
0.911300 23.184800
0.925300 22.359100
0.939300 21.638600
0.953300 21.381900
0.967300 21.125200
0.981300 19.871900
0.995300 19.693700
1.009300 19.536600
1.023300 18.936300
1.037300 18.692700
1.051300 18.449100
