set title 'mp-1080448 - Density of States'
set xlabel 'Energy (eV)'
set ylabel 'DOS (states/eV)'
set grid
set xrange [-10:10]
set yrange [0:18.433]
set xzeroaxis lt -1
set terminal png size 800,600
set output 'mp-1080448_dos_gnuplot.png'
plot '-' using 1:2 with lines title 'DOS'
-3.539000 0.000000
-3.527500 0.000000
-3.515900 0.000000
-3.504300 0.000000
-3.492700 0.000000
-3.481100 0.000000
-3.469600 0.000000
-3.458000 0.000000
-3.446400 0.000000
-3.434800 0.000000
-3.423200 0.000000
-3.411700 0.000000
-3.400100 0.000000
-3.388500 0.000000
-3.376900 0.000000
-3.365300 0.000000
-3.353800 0.000000
-3.342200 0.000000
-3.330600 0.000000
-3.319000 0.000000
-3.307400 0.000000
-3.295900 0.000000
-3.284300 0.000000
-3.272700 0.000000
-3.261100 0.000000
-3.249600 0.000000
-3.238000 0.000000
-3.226400 0.000000
-3.214800 0.000000
-3.203200 0.000000
-3.191700 0.000000
-3.180100 0.000000
-3.168500 0.000000
-3.156900 0.000000
-3.145300 0.000000
-3.133800 0.000000
-3.122200 0.000000
-3.110600 0.000000
-3.099000 0.000000
-3.087400 0.000000
-3.075900 0.000000
-3.064300 0.000000
-3.052700 0.000000
-3.041100 0.000000
-3.029500 0.000000
-3.018000 0.000000
-3.006400 0.000000
-2.994800 0.000000
-2.983200 0.000000
-2.971600 0.000000
-2.960100 0.000000
-2.948500 0.000000
-2.936900 0.000000
-2.925300 0.000000
-2.913700 0.000000
-2.902200 0.000000
-2.890600 0.000000
-2.879000 0.000000
-2.867400 0.000000
-2.855800 0.000000
-2.844300 0.000000
-2.832700 0.000000
-2.821100 0.000000
-2.809500 0.000000
-2.797900 0.000000
-2.786400 0.000000
-2.774800 0.000000
-2.763200 0.000000
-2.751600 0.000000
-2.740000 0.000000
-2.728500 0.000000
-2.716900 0.000000
-2.705300 0.000000
-2.693700 0.000000
-2.682100 0.000000
-2.670600 0.000000
-2.659000 0.000000
-2.647400 0.000000
-2.635800 0.000000
-2.624200 0.000000
-2.612700 0.000000
-2.601100 0.000000
-2.589500 0.000000
-2.577900 0.000000
-2.566300 0.000000
-2.554800 0.000000
-2.543200 0.000000
-2.531600 0.000000
-2.520000 0.000000
-2.508400 0.000000
-2.496900 0.000000
-2.485300 0.000000
-2.473700 0.005200
-2.462100 0.019100
-2.450500 0.041800
-2.439000 0.073200
-2.427400 0.113300
-2.415800 0.165600
-2.404200 0.139400
-2.392600 0.146600
-2.381100 0.156600
-2.369500 0.167800
-2.357900 0.180200
-2.346300 0.193900
-2.334700 0.208700
-2.323200 0.224700
-2.311600 0.241400
-2.300000 0.254700
-2.288400 0.264000
-2.276800 0.269100
-2.265300 0.270100
-2.253700 0.267400
-2.242100 0.276500
-2.230500 0.282900
-2.218900 0.290300
-2.207400 0.297800
-2.195800 0.305500
-2.184200 0.313300
-2.172600 0.321200
-2.161000 0.329300
-2.149500 0.337400
-2.137900 0.345900
-2.126300 0.354800
-2.114700 0.364100
-2.103100 0.373900
-2.091600 0.384100
-2.080000 0.386100
-2.068400 0.389000
-2.056800 0.394600
-2.045200 0.400100
-2.033700 0.405300
-2.022100 0.410300
-2.010500 0.415000
-1.998900 0.419500
-1.987300 0.423800
-1.975800 0.428000
-1.964200 0.432500
-1.952600 0.437200
-1.941000 0.442200
-1.929400 0.447400
-1.917900 0.455600
-1.906300 0.462200
-1.894700 0.468900
-1.883100 0.475700
-1.871500 0.482500
-1.860000 0.489500
-1.848400 0.496500
-1.836800 0.503700
-1.825200 0.510900
-1.813600 0.517700
-1.802100 0.523500
-1.790500 0.528200
-1.778900 0.531700
-1.767300 0.534300
-1.755700 0.536900
-1.744200 0.540600
-1.732600 0.544900
-1.721000 0.549200
-1.709400 0.553700
-1.697800 0.558400
-1.686300 0.563200
-1.674700 0.568100
-1.663100 0.573200
-1.651500 0.578400
-1.639900 0.583600
-1.628400 0.588700
-1.616800 0.593800
-1.605200 0.598800
-1.593600 0.604000
-1.582000 0.609300
-1.570500 0.614700
-1.558900 0.620200
-1.547300 0.625700
-1.535700 0.631300
-1.524100 0.636900
-1.512600 0.642500
-1.501000 0.648300
-1.489400 0.654000
-1.477800 0.659800
-1.466200 0.665600
-1.454700 0.671500
-1.443100 0.675300
-1.431500 0.680300
-1.419900 0.684700
-1.408300 0.689200
-1.396800 0.693600
-1.385200 0.697900
-1.373600 0.702200
-1.362000 0.706400
-1.350400 0.710600
-1.338900 0.714900
-1.327300 0.719400
-1.315700 0.724000
-1.304100 0.728800
-1.292500 0.733700
-1.281000 0.738600
-1.269400 0.743500
-1.257800 0.748400
-1.246200 0.753300
-1.234600 0.758200
-1.223100 0.763100
-1.211500 0.768000
-1.199900 0.772900
-1.188300 0.777900
-1.176700 0.782800
-1.165200 0.787900
-1.153600 0.793100
-1.142000 0.798400
-1.130400 0.804100
-1.118800 0.809800
-1.107300 0.815800
-1.095700 0.821700
-1.084100 0.827700
-1.072500 0.833700
-1.060900 0.839600
-1.049400 0.845500
-1.037800 0.851200
-1.026200 0.856300
-1.014600 0.861100
-1.003000 0.865400
-0.991500 0.870000
-0.979900 0.874700
-0.968300 0.879700
-0.956700 0.884700
-0.945100 0.889700
-0.933600 0.894800
-0.922000 0.899800
-0.910400 0.904900
-0.898800 0.910100
-0.887200 0.915200
-0.875700 0.920400
-0.864100 0.925600
-0.852500 0.931000
-0.840900 0.937000
-0.829300 0.944500
-0.817800 0.951800
-0.806200 0.959500
-0.794600 0.967600
-0.783000 0.978300
-0.771400 0.990200
-0.759900 1.002100
-0.748300 1.014000
-0.736700 1.026100
-0.725100 1.038100
-0.713500 1.050200
-0.702000 1.062400
-0.690400 1.074600
-0.678800 1.086700
-0.667200 1.098800
-0.655600 1.110900
-0.644100 1.123100
-0.632500 1.135700
-0.620900 1.148500
-0.609300 1.163400
-0.597700 1.157200
-0.586200 1.151900
-0.574600 1.147100
-0.563000 1.143400
-0.551400 1.140300
-0.539800 1.138100
-0.528300 1.136700
-0.516700 1.136300
-0.505100 1.136800
-0.493500 1.140000
-0.481900 1.146600
-0.470400 1.153000
-0.458800 1.158400
-0.447200 1.162200
-0.435600 1.165100
-0.424000 1.166900
-0.412500 1.167000
-0.400900 1.164900
-0.389300 1.160400
-0.377700 1.153700
-0.366100 1.144800
-0.354600 1.133600
-0.343000 1.120100
-0.331400 1.100100
-0.319800 1.036000
-0.308200 1.032800
-0.296700 1.054800
-0.285100 1.081900
-0.273500 1.114200
-0.261900 1.151700
-0.250300 1.194200
-0.238800 1.214300
-0.227200 1.228800
-0.215600 1.242000
-0.204000 1.254100
-0.192400 1.265900
-0.180900 1.277500
-0.169300 1.303600
-0.157700 1.316200
-0.146100 1.328700
-0.134500 1.358700
-0.123000 1.372900
-0.111400 1.386700
-0.099800 1.401200
-0.088200 1.419800
-0.076600 1.443400
-0.065100 1.476400
-0.053500 1.522800
-0.041900 1.555900
-0.030300 1.568400
-0.018700 1.575400
-0.007200 1.597900
0.004400 1.602100
0.016000 1.604500
0.027600 1.605100
0.039200 1.624200
0.050700 1.658100
0.062300 1.685900
0.073900 1.697800
0.085500 1.699200
0.097100 1.696100
0.108600 1.690000
0.120200 1.682300
0.131800 1.673000
0.143400 1.662100
0.155000 1.649700
0.166500 1.635300
0.178100 1.618200
0.189700 1.599300
0.201300 1.595500
0.212900 1.554300
0.224400 1.562000
0.236000 1.551100
0.247600 1.544100
0.259200 1.550200
0.270800 1.613700
0.282300 1.740400
0.293900 1.847600
0.305500 1.905300
0.317100 1.993100
0.328700 2.093000
0.340200 2.204800
0.351800 2.317600
0.363400 2.415900
0.375000 2.529000
0.386600 2.685100
0.398100 2.872200
0.409700 3.059200
0.421300 3.191700
0.432900 3.282400
0.444500 3.376600
0.456000 3.508700
0.467600 3.660900
0.479200 3.889400
0.490800 4.131100
0.502400 4.268100
0.513900 4.405400
0.525500 4.659900
0.537100 4.727900
0.548700 4.618900
0.560300 4.479400
0.571800 4.243100
0.583400 3.983500
0.595000 3.886000
0.606600 3.690300
0.618200 3.511900
0.629700 3.376000
0.641300 3.085800
0.652900 2.771100
0.664500 2.531000
0.676100 2.365400
0.687600 2.233600
0.699200 2.117100
0.710800 2.049000
0.722400 1.981900
0.734000 1.917500
0.745500 1.866500
0.757100 1.832300
0.768700 1.808800
0.780300 1.794700
0.791900 1.797200
0.803400 1.817900
0.815000 1.860500
0.826600 1.889400
0.838200 1.980900
0.849800 2.102900
0.861300 2.195200
0.872900 2.387600
0.884500 2.381100
0.896100 2.137800
0.907700 1.871100
0.919200 1.817000
0.930800 1.701900
0.942400 1.668400
0.954000 1.639900
0.965600 1.613200
0.977100 1.588700
0.988700 1.571300
1.000300 1.569100
1.011900 1.573000
1.023500 1.578900
1.035000 1.591700
1.046600 1.662800
1.058200 1.804800
1.069800 1.868100
1.081400 1.953200
1.092900 2.058000
1.104500 2.189000
1.116100 2.335200
1.127700 2.457200
1.139300 2.599200
1.150800 2.717900
1.162400 2.892900
1.174000 2.997600
1.185600 3.119300
1.197200 3.215700
1.208700 3.422200
1.220300 3.619100
1.231900 3.759900
1.243500 4.088800
1.255100 4.612300
1.266600 5.417200
1.278200 6.549300
1.289800 8.072700
1.301400 9.454100
1.313000 8.449300
1.324500 8.232500
1.336100 7.199200
1.347700 5.977900
1.359300 5.351800
1.370900 4.781000
1.382400 4.602500
1.394000 4.497800
1.405600 4.444500
1.417200 4.432300
1.428800 4.636300
1.440300 4.352500
1.451900 5.011100
1.463500 5.563700
1.475100 5.804300
1.486700 6.010600
1.498200 6.251200
1.509800 6.544700
1.521400 6.918600
1.533000 7.661400
1.544600 7.326500
1.556100 7.264300
1.567700 7.436500
1.579300 7.649100
1.590900 7.549200
1.602500 8.010000
1.614000 8.210800
1.625600 8.376500
1.637200 8.417600
1.648800 7.705000
1.660400 6.620100
1.671900 5.547400
1.683500 5.327200
1.695100 4.880800
1.706700 4.770400
1.718300 4.578600
1.729800 4.609000
1.741400 4.768100
1.753000 4.899100
1.764600 5.311200
1.776200 5.720600
1.787700 5.497100
1.799300 5.312100
1.810900 5.025000
1.822500 4.928100
1.834100 4.677400
1.845600 4.555100
1.857200 4.416400
1.868800 4.330300
1.880400 4.196600
1.892000 4.177500
1.903500 4.173600
1.915100 4.181400
1.926700 4.217100
1.938300 4.280700
1.949900 4.381500
1.961400 4.526400
1.973000 4.690900
1.984600 4.866800
1.996200 5.050500
2.007800 5.256300
2.019300 5.675300
2.030900 6.026000
2.042500 6.050000
2.054100 6.327700
2.065700 6.389800
2.077200 6.472600
2.088800 6.136100
2.100400 5.807200
2.112000 5.674100
2.123600 5.569800
2.135100 5.489300
2.146700 5.478900
2.158300 5.506900
2.169900 5.641200
2.181500 5.787900
2.193000 5.733200
2.204600 5.714600
2.216200 5.808600
2.227800 6.249600
2.239400 6.993600
2.250900 7.462200
2.262500 7.914000
2.274100 8.349600
2.285700 8.387400
2.297300 8.650100
2.308800 9.154300
2.320400 8.785200
2.332000 8.965000
2.343600 8.984700
2.355200 9.629800
2.366700 10.319500
2.378300 10.586000
2.389900 10.831700
2.401500 11.159000
2.413100 10.395000
2.424600 9.594500
2.436200 8.966400
2.447800 8.348900
2.459400 7.506800
2.471000 7.049500
2.482500 6.969100
2.494100 6.976100
2.505700 7.097500
2.517300 7.233900
2.528900 7.489300
2.540400 8.025800
2.552000 8.883600
2.563600 10.619300
2.575200 12.126600
2.586800 12.727600
2.598300 13.155000
2.609900 13.884900
2.621500 13.344400
2.633100 13.129500
2.644700 12.669000
2.656200 11.948100
2.667800 11.876700
2.679400 12.230900
2.691000 13.023900
2.702600 13.177000
2.714100 13.356100
2.725700 13.908400
2.737300 15.049100
2.748900 15.810000
2.760500 16.734100
2.772000 16.536600
2.783600 15.889500
2.795200 16.547100
2.806800 14.995500
2.818400 14.363500
2.829900 14.589700
2.841500 14.158700
2.853100 12.861600
2.864700 11.502900
2.876300 11.185600
2.887800 11.608800
2.899400 12.334100
2.911000 12.626000
2.922600 13.163100
2.934200 14.232700
2.945700 13.836700
2.957300 12.781500
2.968900 11.426100
2.980500 10.658200
2.992100 9.827100
3.003600 10.748400
3.015200 9.823000
3.026800 8.910000
3.038400 8.864900
3.050000 9.142000
3.061500 9.949400
3.073100 10.703500
3.084700 10.037300
3.096300 9.444600
3.107900 9.087900
3.119400 8.637200
3.131000 8.002900
3.142600 7.364300
3.154200 6.912900
3.165800 6.857300
3.177300 7.082700
3.188900 6.916800
3.200500 7.017500
3.212100 8.590100
3.223700 9.800600
3.235200 9.766300
3.246800 9.606400
3.258400 9.327700
3.270000 8.891900
3.281600 8.141200
3.293100 6.322400
3.304700 6.280600
3.316300 8.135400
3.327900 10.689300
3.339500 12.651200
3.351000 13.536000
3.362600 15.259900
3.374200 14.726500
3.385800 13.476300
3.397400 10.011800
3.408900 7.358400
3.420500 5.999200
3.432100 5.127300
3.443700 4.751500
3.455300 5.300300
3.466800 5.925500
3.478400 7.086100
3.490000 8.318600
3.501600 9.230400
3.513200 9.761100
3.524700 9.595800
3.536300 9.601900
3.547900 9.623500
3.559500 9.621200
3.571100 9.214300
3.582600 9.750800
3.594200 8.488600
3.605800 7.864100
3.617400 8.021600
3.629000 8.277900
3.640500 8.823400
3.652100 9.123800
3.663700 9.011200
3.675300 9.095000
3.686900 9.590800
3.698400 9.986300
3.710000 10.797800
3.721600 11.548700
3.733200 12.547200
3.744800 10.265200
3.756300 9.764500
3.767900 9.769800
3.779500 10.102300
3.791100 10.458200
3.802700 9.764600
3.814200 9.354200
3.825800 9.234700
3.837400 9.073100
3.849000 9.676800
3.860600 10.557500
3.872100 11.833900
3.883700 12.485800
3.895300 12.886600
3.906900 12.127500
3.918500 11.844300
3.930000 11.754500
3.941600 11.511000
3.953200 10.743100
3.964800 9.917600
3.976400 9.226900
3.987900 9.481600
3.999500 10.197700
4.011100 10.825600
4.022700 11.673400
4.034300 12.361800
4.045800 13.624500
4.057400 11.641400
4.069000 11.117700
4.080600 11.051400
4.092200 10.881400
4.103700 10.664600
4.115300 10.807000
4.126900 10.915300
4.138500 10.929800
4.150100 11.212900
4.161600 11.558600
4.173200 11.662700
4.184800 12.247300
4.196400 13.143900
4.208000 13.309000
4.219500 13.351400
4.231100 13.330000
4.242700 13.168100
4.254300 11.745600
4.265900 11.108300
4.277400 11.133200
4.289000 12.146500
4.300600 13.169900
4.312200 13.349700
4.323800 12.986000
4.335300 13.326100
4.346900 13.106000
4.358500 13.300500
4.370100 13.476800
4.381700 13.256000
4.393200 13.218400
4.404800 12.899200
4.416400 12.634800
4.428000 12.284500
4.439600 11.963500
4.451100 11.733500
4.462700 11.449700
4.474300 11.249900
4.485900 11.120600
4.497500 11.112900
4.509000 11.112900
4.520600 11.031400
4.532200 10.813300
4.543800 10.763400
4.555400 10.780100
4.566900 10.340500
4.578500 9.715600
4.590100 9.789300
4.601700 9.887300
4.613300 10.169200
4.624800 11.600500
4.636400 10.850700
4.648000 10.999700
4.659600 8.967300
4.671200 7.995100
4.682700 7.075500
4.694300 6.457100
4.705900 5.955500
4.717500 5.620200
4.729100 5.175500
4.740600 5.117800
4.752200 5.311400
4.763800 5.556200
4.775400 5.970500
4.787000 6.379700
4.798500 6.644000
4.810100 6.785000
4.821700 7.055400
4.833300 7.153300
4.844900 7.450200
4.856400 7.912800
4.868000 8.284300
4.879600 8.607400
4.891200 8.567000
4.902800 8.953600
4.914300 8.701600
4.925900 8.370100
4.937500 7.876600
4.949100 7.216000
4.960600 6.814500
4.972200 6.677900
4.983800 6.530600
4.995400 6.422800
5.007000 6.438800
5.018500 6.501800
5.030100 6.910900
5.041700 6.809100
5.053300 6.702400
5.064900 6.663400
5.076400 6.371300
5.088000 6.235700
5.099600 6.369600
5.111200 6.203700
5.122800 6.332300
5.134300 6.429400
5.145900 6.854500
5.157500 6.461200
5.169100 6.584500
5.180700 6.758700
5.192200 6.935800
5.203800 7.127300
5.215400 7.455900
5.227000 7.939200
5.238600 8.482500
5.250100 9.088300
5.261700 9.253400
5.273300 9.722100
5.284900 9.657100
5.296500 10.120200
5.308000 10.829700
5.319600 10.963100
5.331200 11.082900
5.342800 11.367700
5.354400 11.516400
5.365900 11.483700
5.377500 11.603800
5.389100 11.249400
5.400700 11.042500
5.412300 10.851700
5.423800 10.766700
5.435400 10.945700
5.447000 11.247700
5.458600 11.684300
5.470200 12.248600
5.481700 12.747600
5.493300 13.000100
5.504900 13.161300
5.516500 12.693100
5.528100 12.671500
5.539600 12.371600
5.551200 12.648300
5.562800 12.418800
5.574400 12.575200
5.586000 13.221000
5.597500 14.181600
5.609100 14.142800
5.620700 13.418700
5.632300 11.985900
5.643900 12.382100
5.655400 12.923800
5.667000 14.923200
5.678600 16.164000
5.690200 16.757100
5.701800 15.380500
5.713300 14.177300
5.724900 14.040300
5.736500 14.319900
5.748100 14.343600
5.759700 13.574900
5.771200 13.112000
5.782800 12.512800
5.794400 12.191300
5.806000 11.793900
5.817600 10.962000
5.829100 11.313800
5.840700 11.347700
5.852300 11.315000
5.863900 11.244700
5.875500 10.657600
5.887000 10.663900
5.898600 11.123600
5.910200 13.582300
5.921800 15.437000
5.933400 14.324600
5.944900 12.363900
5.956500 11.553200
5.968100 11.136700
5.979700 11.789400
5.991300 10.808000
6.002800 11.943200
6.014400 13.462500
6.026000 15.357300
6.037600 15.487600
6.049200 15.656500
6.060700 14.265200
6.072300 12.895500
6.083900 11.779900
6.095500 10.733300
6.107100 10.734300
6.118600 11.843100
6.130200 13.563300
6.141800 15.529300
6.153400 15.276100
6.165000 14.075300
6.176500 13.023400
6.188100 12.440100
6.199700 12.580400
6.211300 13.621300
6.222900 13.907000
6.234400 13.478600
6.246000 12.562900
6.257600 11.186500
6.269200 10.465600
6.280800 10.143200
6.292300 9.653400
6.303900 9.214700
6.315500 8.989600
6.327100 8.913200
6.338700 8.962800
6.350200 9.109800
6.361800 9.509100
6.373400 9.620900
6.385000 9.480400
6.396600 9.487200
6.408100 9.651100
6.419700 10.104800
6.431300 10.472500
6.442900 10.817800
6.454500 11.463900
6.466000 12.645200
6.477600 13.446800
6.489200 13.230400
6.500800 12.669200
6.512400 11.947700
6.523900 11.197600
6.535500 10.643400
6.547100 10.599700
6.558700 10.478800
6.570300 10.186600
6.581800 11.528100
6.593400 12.284700
6.605000 11.237500
6.616600 10.792400
6.628200 10.747900
6.639700 10.803200
6.651300 11.037800
6.662900 10.898200
6.674500 10.432500
6.686100 10.231000
6.697600 10.195500
6.709200 10.380200
6.720800 9.372100
6.732400 9.064200
6.744000 8.850700
6.755500 8.450400
6.767100 8.518200
6.778700 8.552200
6.790300 8.663400
6.801900 9.161500
6.813400 9.630400
6.825000 9.259800
6.836600 8.811200
6.848200 8.426100
6.859800 8.180500
6.871300 8.023600
6.882900 8.155900
6.894500 8.845900
6.906100 8.422600
6.917700 8.113900
6.929200 7.968800
6.940800 7.841900
6.952400 7.518800
6.964000 7.741000
6.975600 9.312300
6.987100 9.329700
6.998700 9.009700
7.010300 7.851100
7.021900 8.246600
7.033500 8.834100
7.045000 8.873000
7.056600 7.784900
7.068200 8.888400
7.079800 7.766000
7.091400 6.768300
7.102900 6.515600
7.114500 6.354600
7.126100 6.262700
7.137700 6.217100
7.149300 6.200100
7.160800 6.224100
7.172400 6.229700
7.184000 6.309100
7.195600 6.369600
7.207200 6.499000
7.218700 6.607500
7.230300 6.618700
7.241900 6.636200
7.253500 6.629500
7.265100 6.583400
7.276600 6.568300
7.288200 6.601100
7.299800 6.673000
7.311400 6.727900
7.323000 6.714200
7.334500 6.687500
7.346100 6.647200
7.357700 6.614000
7.369300 6.569300
7.380900 6.523100
7.392400 6.487500
7.404000 6.449700
7.415600 6.444300
7.427200 6.487900
7.438800 6.536500
7.450300 6.605700
7.461900 6.737100
7.473500 6.865900
7.485100 7.050700
7.496700 7.125600
7.508200 6.603900
7.519800 6.436900
7.531400 6.280200
7.543000 6.196000
7.554600 6.000700
7.566100 5.922000
7.577700 5.972400
7.589300 5.995000
7.600900 5.898000
7.612500 5.896200
7.624000 5.792000
7.635600 5.836600
7.647200 5.870800
7.658800 5.983400
7.670400 6.106700
7.681900 6.035200
7.693500 5.842700
7.705100 5.449400
7.716700 4.825300
7.728300 4.272800
7.739800 4.062600
7.751400 4.062000
7.763000 4.077600
7.774600 4.127400
7.786200 4.233000
7.797700 4.427800
7.809300 4.539200
7.820900 4.543800
7.832500 4.490400
7.844100 4.271600
7.855600 4.148800
7.867200 3.994900
7.878800 3.999700
7.890400 4.058600
7.902000 4.087600
7.913500 4.094800
7.925100 4.086200
7.936700 4.102600
7.948300 4.151100
7.959900 4.232200
7.971400 4.277700
7.983000 4.244700
7.994600 4.234800
8.006200 4.244400
8.017800 4.269900
8.029300 4.266400
8.040900 4.261400
8.052500 4.368300
8.064100 4.095800
8.075700 4.099400
8.087200 4.070200
8.098800 4.016000
8.110400 4.014600
8.122000 4.025800
8.133600 4.019600
8.145100 3.992300
8.156700 3.973800
8.168300 3.959500
8.179900 3.962600
8.191500 4.021200
8.203000 4.111100
8.214600 4.508700
8.226200 4.481900
8.237800 4.426000
8.249400 4.419700
8.260900 4.354000
8.272500 4.298200
8.284100 4.207600
8.295700 4.062200
8.307300 3.709300
8.318800 3.371300
8.330400 3.048500
8.342000 2.887600
8.353600 2.667300
8.365200 2.442800
8.376700 2.230400
8.388300 1.885200
8.399900 1.581100
8.411500 1.327200
8.423100 1.128900
8.434600 0.968400
8.446200 0.845500
8.457800 0.764800
8.469400 0.704800
8.481000 0.656100
8.492500 0.617300
8.504100 0.584200
8.515700 0.556000
8.527300 0.535600
8.538900 0.522300
8.550400 0.562100
8.562000 0.562000
8.573600 0.565300
8.585200 0.566000
8.596800 0.565100
8.608300 0.567100
8.619900 0.570700
8.631500 0.573600
8.643100 0.568300
8.654700 0.561000
8.666200 0.554000
8.677800 0.547600
8.689400 0.541700
8.701000 0.521800
8.712600 0.703700
8.724100 0.852800
8.735700 0.969600
8.747300 1.091100
8.758900 1.213300
8.770500 1.294500
8.782000 1.326100
