set title 'mp-984614 - Density of States'
set xlabel 'Energy (eV)'
set ylabel 'DOS (states/eV)'
set grid
set xrange [-10:10]
set yrange [0:23.405]
set xzeroaxis lt -1
set terminal png size 800,600
set output 'mp-984614_dos_gnuplot.png'
plot '-' using 1:2 with lines title 'DOS'
-13.809100 0.000000
-13.785500 0.000000
-13.761900 0.000000
-13.738300 0.000000
-13.714700 0.000000
-13.691100 0.000000
-13.667600 0.000000
-13.644000 0.000000
-13.620400 0.000000
-13.596800 0.000000
-13.573200 0.000000
-13.549600 0.000000
-13.526000 0.000000
-13.502500 0.000000
-13.478900 0.000000
-13.455300 0.000000
-13.431700 0.000000
-13.408100 0.000000
-13.384500 0.000000
-13.360900 0.000000
-13.337400 0.000000
-13.313800 0.000000
-13.290200 0.000000
-13.266600 0.000000
-13.243000 0.000000
-13.219400 0.000000
-13.195800 0.000000
-13.172300 0.000000
-13.148700 0.000000
-13.125100 0.000000
-13.101500 0.000000
-13.077900 0.000000
-13.054300 0.000000
-13.030700 0.000000
-13.007200 0.000000
-12.983600 0.000000
-12.960000 0.000000
-12.936400 0.000000
-12.912800 0.000000
-12.889200 0.000000
-12.865600 0.000000
-12.842100 0.000000
-12.818500 0.000000
-12.794900 0.000000
-12.771300 0.000000
-12.747700 0.000000
-12.724100 0.000000
-12.700500 0.000000
-12.677000 0.000000
-12.653400 0.000000
-12.629800 0.000000
-12.606200 0.000000
-12.582600 0.000000
-12.559000 0.000000
-12.535400 0.000000
-12.511900 0.000000
-12.488300 0.000000
-12.464700 0.000000
-12.441100 0.000000
-12.417500 0.000000
-12.393900 0.000000
-12.370300 0.000000
-12.346800 0.000000
-12.323200 0.000000
-12.299600 0.000000
-12.276000 0.000000
-12.252400 0.000000
-12.228800 0.000000
-12.205200 0.000000
-12.181700 0.000000
-12.158100 0.000000
-12.134500 0.000000
-12.110900 0.000000
-12.087300 0.000000
-12.063700 0.000000
-12.040100 0.000000
-12.016600 0.000000
-11.993000 0.000000
-11.969400 0.000000
-11.945800 0.000000
-11.922200 0.000000
-11.898600 0.000000
-11.875000 0.000000
-11.851500 0.000000
-11.827900 0.000000
-11.804300 0.000000
-11.780700 0.000000
-11.757100 0.000000
-11.733500 0.000000
-11.709900 0.000000
-11.686400 0.000000
-11.662800 0.012800
-11.639200 0.964000
-11.615600 1.496100
-11.592000 2.204700
-11.568400 3.019000
-11.544800 4.620500
-11.521300 5.273000
-11.497700 6.067700
-11.474100 7.290600
-11.450500 9.751500
-11.426900 17.055900
-11.403300 13.637200
-11.379700 11.210000
-11.356200 0.000000
-11.332600 0.000000
-11.309000 0.000000
-11.285400 0.000000
-11.261800 0.000000
-11.238200 0.000000
-11.214600 0.000000
-11.191100 0.000000
-11.167500 0.000000
-11.143900 0.000000
-11.120300 0.000000
-11.096700 0.000000
-11.073100 0.000000
-11.049500 0.000000
-11.026000 0.000000
-11.002400 0.000000
-10.978800 0.000000
-10.955200 0.000000
-10.931600 0.000000
-10.908000 0.000000
-10.884400 0.000000
-10.860900 0.000000
-10.837300 0.000000
-10.813700 0.000000
-10.790100 0.000000
-10.766500 0.000000
-10.742900 0.000000
-10.719300 0.000000
-10.695700 0.000000
-10.672200 0.000000
-10.648600 0.000000
-10.625000 0.000000
-10.601400 0.000000
-10.577800 0.000000
-10.554200 0.000000
-10.530600 0.000000
-10.507100 0.000000
-10.483500 0.000000
-10.459900 0.000000
-10.436300 0.000000
-10.412700 0.000000
-10.389100 0.000000
-10.365500 0.000000
-10.342000 0.000000
-10.318400 0.000000
-10.294800 0.000000
-10.271200 0.000000
-10.247600 0.000000
-10.224000 0.000000
-10.200400 0.000000
-10.176900 0.000000
-10.153300 0.000000
-10.129700 0.000000
-10.106100 0.000000
-10.082500 0.000000
-10.058900 0.000000
-10.035300 0.000000
-10.011800 0.000000
-9.988200 0.000000
-9.964600 0.000000
-9.941000 0.000000
-9.917400 0.000000
-9.893800 0.000000
-9.870200 0.000000
-9.846700 0.000000
-9.823100 0.000000
-9.799500 0.000000
-9.775900 0.000000
-9.752300 0.000000
-9.728700 0.000000
-9.705100 0.000000
-9.681600 0.000000
-9.658000 0.000000
-9.634400 0.000000
-9.610800 0.000000
-9.587200 0.000000
-9.563600 0.000000
-9.540000 0.000000
-9.516500 0.000000
-9.492900 0.000000
-9.469300 0.000000
-9.445700 0.000000
-9.422100 0.000000
-9.398500 0.000000
-9.374900 0.000000
-9.351400 0.000000
-9.327800 0.000000
-9.304200 0.000000
-9.280600 0.000000
-9.257000 0.000000
-9.233400 0.000000
-9.209800 0.000000
-9.186300 0.000000
-9.162700 0.000000
-9.139100 0.000000
-9.115500 0.000000
-9.091900 0.000000
-9.068300 0.000000
-9.044700 0.000000
-9.021200 0.000000
-8.997600 0.000000
-8.974000 0.000000
-8.950400 0.000000
-8.926800 0.000000
-8.903200 0.000000
-8.879600 0.000000
-8.856100 0.000000
-8.832500 0.000000
-8.808900 0.000000
-8.785300 0.000000
-8.761700 0.000000
-8.738100 0.000000
-8.714500 0.000000
-8.691000 0.000000
-8.667400 0.000000
-8.643800 0.000000
-8.620200 0.000000
-8.596600 0.000000
-8.573000 0.000000
-8.549400 0.000000
-8.525900 0.000000
-8.502300 0.000000
-8.478700 0.000000
-8.455100 0.000000
-8.431500 0.000000
-8.407900 0.000000
-8.384300 0.000000
-8.360800 0.000000
-8.337200 0.000000
-8.313600 0.000000
-8.290000 0.000000
-8.266400 0.000000
-8.242800 0.000000
-8.219200 0.000000
-8.195700 0.000000
-8.172100 0.000000
-8.148500 0.000000
-8.124900 0.000000
-8.101300 0.000000
-8.077700 0.000000
-8.054100 0.000000
-8.030600 0.000000
-8.007000 0.000000
-7.983400 0.000000
-7.959800 0.000000
-7.936200 0.000000
-7.912600 0.000000
-7.889000 0.000000
-7.865500 0.000000
-7.841900 0.000000
-7.818300 0.000000
-7.794700 0.000000
-7.771100 0.000000
-7.747500 0.000000
-7.723900 0.000000
-7.700400 0.000000
-7.676800 0.000000
-7.653200 0.000000
-7.629600 0.000000
-7.606000 0.000000
-7.582400 0.000000
-7.558800 0.000000
-7.535300 0.000000
-7.511700 0.000000
-7.488100 0.000000
-7.464500 0.000000
-7.440900 0.000000
-7.417300 0.000000
-7.393700 0.000000
-7.370200 0.000000
-7.346600 0.000000
-7.323000 0.000000
-7.299400 0.000000
-7.275800 0.000000
-7.252200 0.000000
-7.228600 0.000000
-7.205100 0.000000
-7.181500 0.000000
-7.157900 0.000000
-7.134300 0.000000
-7.110700 0.000000
-7.087100 0.000000
-7.063500 0.000000
-7.040000 0.000000
-7.016400 0.000000
-6.992800 0.000000
-6.969200 0.000000
-6.945600 0.000000
-6.922000 0.000000
-6.898400 0.000000
-6.874900 0.000000
-6.851300 0.000000
-6.827700 0.000000
-6.804100 0.000000
-6.780500 0.000000
-6.756900 0.000000
-6.733300 0.000000
-6.709800 0.000000
-6.686200 0.000000
-6.662600 0.000000
-6.639000 0.000000
-6.615400 0.000000
-6.591800 0.000000
-6.568200 0.000000
-6.544700 0.000000
-6.521100 0.000000
-6.497500 0.000000
-6.473900 0.000000
-6.450300 0.000000
-6.426700 0.000000
-6.403100 0.000000
-6.379600 0.000000
-6.356000 0.000000
-6.332400 0.000000
-6.308800 0.000000
-6.285200 0.000000
-6.261600 0.000000
-6.238000 0.000000
-6.214500 0.000000
-6.190900 0.000000
-6.167300 0.000000
-6.143700 0.000000
-6.120100 0.000000
-6.096500 0.000000
-6.072900 0.000000
-6.049400 0.000000
-6.025800 0.000000
-6.002200 0.000000
-5.978600 0.000000
-5.955000 0.000000
-5.931400 0.000000
-5.907800 0.000000
-5.884200 0.000000
-5.860700 0.000000
-5.837100 0.000000
-5.813500 0.000000
-5.789900 0.000000
-5.766300 0.000000
-5.742700 0.000000
-5.719100 0.000000
-5.695600 0.000000
-5.672000 0.000000
-5.648400 0.000000
-5.624800 0.000000
-5.601200 0.000000
-5.577600 0.000000
-5.554000 0.000000
-5.530500 0.000000
-5.506900 0.000000
-5.483300 0.000000
-5.459700 0.000000
-5.436100 0.000000
-5.412500 0.000000
-5.388900 0.000000
-5.365400 0.000000
-5.341800 0.000000
-5.318200 0.000000
-5.294600 0.000000
-5.271000 0.000000
-5.247400 0.000000
-5.223800 0.000000
-5.200300 0.000000
-5.176700 0.000000
-5.153100 0.000000
-5.129500 0.000000
-5.105900 0.000000
-5.082300 0.000000
-5.058700 0.000000
-5.035200 0.000000
-5.011600 0.000000
-4.988000 0.000000
-4.964400 0.000000
-4.940800 0.000000
-4.917200 0.000000
-4.893600 0.000000
-4.870100 0.000000
-4.846500 0.000000
-4.822900 0.000000
-4.799300 0.000000
-4.775700 0.000000
-4.752100 0.000000
-4.728500 0.000000
-4.705000 0.000000
-4.681400 0.000000
-4.657800 0.000000
-4.634200 0.000000
-4.610600 0.000000
-4.587000 0.000000
-4.563400 0.000000
-4.539900 0.000000
-4.516300 0.000000
-4.492700 0.000000
-4.469100 0.000000
-4.445500 0.000000
-4.421900 0.000000
-4.398300 0.000000
-4.374800 0.000000
-4.351200 0.000000
-4.327600 0.000000
-4.304000 0.000000
-4.280400 0.000000
-4.256800 0.000000
-4.233200 0.000000
-4.209700 0.000000
-4.186100 0.000000
-4.162500 0.000000
-4.138900 0.000000
-4.115300 0.000000
-4.091700 0.000000
-4.068100 0.000000
-4.044600 0.000000
-4.021000 0.000000
-3.997400 0.000000
-3.973800 0.000000
-3.950200 0.000000
-3.926600 0.000000
-3.903000 0.000000
-3.879500 0.000000
-3.855900 0.000000
-3.832300 0.000000
-3.808700 0.000000
-3.785100 0.000000
-3.761500 0.000000
-3.737900 0.000000
-3.714400 0.000000
-3.690800 0.000000
-3.667200 0.000000
-3.643600 0.000000
-3.620000 0.000000
-3.596400 0.000000
-3.572800 0.000000
-3.549300 0.000000
-3.525700 0.000000
-3.502100 0.000000
-3.478500 0.000000
-3.454900 0.000000
-3.431300 0.000000
-3.407700 0.000000
-3.384200 0.000000
-3.360600 0.000000
-3.337000 0.000000
-3.313400 0.000000
-3.289800 0.000000
-3.266200 0.000000
-3.242600 0.000000
-3.219100 0.000000
-3.195500 0.000000
-3.171900 0.000000
-3.148300 0.000000
-3.124700 0.000000
-3.101100 0.000000
-3.077500 0.000000
-3.054000 0.000000
-3.030400 0.000000
-3.006800 0.000000
-2.983200 0.000000
-2.959600 0.000000
-2.936000 0.000000
-2.912400 0.020300
-2.888900 0.089300
-2.865300 0.183200
-2.841700 0.263100
-2.818100 0.271100
-2.794500 0.296400
-2.770900 0.335400
-2.747300 0.378600
-2.723800 0.416400
-2.700200 0.462400
-2.676600 0.872300
-2.653000 1.452500
-2.629400 2.151600
-2.605800 2.492200
-2.582200 2.867900
-2.558700 2.910500
-2.535100 3.456300
-2.511500 3.955500
-2.487900 4.137700
-2.464300 4.285200
-2.440700 4.674700
-2.417100 4.656400
-2.393600 4.584200
-2.370000 4.121300
-2.346400 3.333800
-2.322800 2.919300
-2.299200 2.584100
-2.275600 2.304700
-2.252000 2.116700
-2.228500 1.958200
-2.204900 1.811400
-2.181300 1.682800
-2.157700 1.559800
-2.134100 1.451400
-2.110500 1.366400
-2.086900 1.312100
-2.063400 1.291700
-2.039800 1.269500
-2.016200 1.279500
-1.992600 1.293000
-1.969000 1.305200
-1.945400 1.347600
-1.921800 1.242200
-1.898300 1.253400
-1.874700 1.259100
-1.851100 1.186600
-1.827500 1.132400
-1.803900 1.125100
-1.780300 1.177100
-1.756700 1.261000
-1.733200 1.397100
-1.709600 1.582200
-1.686000 1.775500
-1.662400 1.955100
-1.638800 2.227100
-1.615200 2.476000
-1.591600 2.954700
-1.568100 3.464800
-1.544500 3.966600
-1.520900 4.286900
-1.497300 4.271400
-1.473700 4.067800
-1.450100 4.017200
-1.426500 3.792100
-1.403000 3.473900
-1.379400 3.766100
-1.355800 4.308200
-1.332200 4.777600
-1.308600 5.900300
-1.285000 5.517100
-1.261400 6.130300
-1.237900 6.012300
-1.214300 8.782700
-1.190700 8.174800
-1.167100 6.923700
-1.143500 6.196000
-1.119900 4.873000
-1.096300 4.395600
-1.072800 4.000500
-1.049200 3.746100
-1.025600 3.617200
-1.002000 3.752500
-0.978400 3.808700
-0.954800 3.518600
-0.931200 3.532800
-0.907600 3.537100
-0.884100 3.417000
-0.860500 2.872700
-0.836900 2.288500
-0.813300 1.930700
-0.789700 1.772200
-0.766100 1.703300
-0.742500 1.416100
-0.719000 1.297600
-0.695400 1.281700
-0.671800 1.599100
-0.648200 2.711900
-0.624600 3.356400
-0.601000 3.720300
-0.577400 3.736500
-0.553900 3.955600
-0.530300 4.588500
-0.506700 4.817300
-0.483100 6.008800
-0.459500 7.215600
-0.435900 8.666600
-0.412300 9.719000
-0.388800 10.780600
-0.365200 10.663200
-0.341600 17.012600
-0.318000 8.547800
-0.294400 7.470900
-0.270800 6.954400
-0.247200 6.581500
-0.223700 6.927500
-0.200100 8.434300
-0.176500 10.244100
-0.152900 8.905800
-0.129300 8.108400
-0.105700 7.585000
-0.082100 7.067600
-0.058600 6.986500
-0.035000 7.089500
-0.011400 7.640400
0.012200 7.317100
0.035800 6.620000
0.059400 6.569400
0.083000 6.355800
0.106500 5.612400
0.130100 5.336200
0.153700 5.277400
0.177300 4.687600
0.200900 4.125700
0.224500 3.843400
0.248100 4.004700
0.271600 4.671400
0.295200 5.422200
0.318800 5.639600
0.342400 6.861800
0.366000 8.333800
0.389600 9.402400
0.413200 10.087600
0.436700 9.175200
0.460300 8.901300
0.483900 9.669400
0.507500 10.852100
0.531100 14.957700
0.554700 15.650200
0.578300 14.217900
0.601800 9.240100
0.625400 7.147800
0.649000 9.280300
0.672600 12.664400
0.696200 13.821500
0.719800 11.227100
0.743400 11.578700
0.766900 12.357200
0.790500 9.896900
0.814100 5.131800
0.837700 5.064300
0.861300 4.635100
0.884900 4.650100
0.908500 4.294200
0.932000 4.808400
0.955600 6.546600
0.979200 12.330700
1.002800 8.062600
1.026400 6.752200
1.050000 6.771900
1.073600 6.276600
1.097100 5.783700
1.120700 6.253300
1.144300 7.162500
1.167900 7.717600
1.191500 9.204400
1.215100 12.823100
1.238700 12.172400
1.262200 8.663000
1.285800 8.088800
1.309400 10.696600
1.333000 9.037900
1.356600 10.207500
1.380200 13.032400
1.403800 15.842100
1.427300 13.712000
1.450900 12.344500
1.474500 12.809800
1.498100 11.906200
1.521700 12.798000
1.545300 12.584500
1.568900 13.065000
1.592400 11.858600
1.616000 10.511100
1.639600 7.843900
1.663200 7.229100
1.686800 8.791600
1.710400 9.727900
1.734000 8.941900
1.757500 8.274100
1.781100 8.010600
1.804700 7.742000
1.828300 6.855000
1.851900 7.331400
1.875500 7.113500
1.899100 6.875200
1.922600 8.071500
1.946200 8.575200
1.969800 9.222200
1.993400 10.407300
2.017000 8.131100
2.040600 7.194600
2.064200 7.495800
2.087700 8.043400
2.111300 7.869900
2.134900 6.884000
2.158500 5.861200
2.182100 6.141300
2.205700 6.059600
2.229300 6.675000
2.252800 9.212800
2.276400 10.990800
2.300000 10.492500
2.323600 21.277300
2.347200 10.626800
2.370800 9.097700
2.394400 8.571900
2.417900 7.749600
2.441500 6.925200
2.465100 6.431800
2.488700 6.151500
2.512300 5.935200
2.535900 6.253400
2.559500 6.155400
2.583000 6.075200
2.606600 7.109100
2.630200 5.882000
2.653800 5.096100
2.677400 5.328900
2.701000 5.869900
2.724600 4.922300
2.748100 4.918400
2.771700 6.547400
2.795300 9.633000
2.818900 10.036300
2.842500 8.005300
2.866100 6.394900
2.889700 4.596200
2.913200 3.882700
2.936800 3.617900
2.960400 3.506000
2.984000 4.394400
3.007600 4.280800
3.031200 3.861800
3.054800 3.517200
3.078300 3.020200
3.101900 2.787700
3.125500 2.351200
3.149100 1.853500
3.172700 1.682200
3.196300 1.532100
3.219900 1.396000
3.243400 1.206700
3.267000 1.173600
3.290600 1.158600
3.314200 1.134000
3.337800 1.148100
3.361400 1.210300
3.385000 1.352000
3.408500 1.786600
3.432100 2.000300
3.455700 2.102900
3.479300 2.186900
3.502900 2.217500
3.526500 2.253700
3.550100 2.200600
3.573600 2.245300
3.597200 2.284600
3.620800 2.287200
3.644400 2.285200
3.668000 2.277400
3.691600 2.039200
3.715200 1.892200
3.738700 1.872000
3.762300 1.835600
3.785900 1.805300
3.809500 1.798400
3.833100 1.838700
3.856700 1.884800
3.880300 1.917300
3.903800 1.925000
3.927400 1.928100
3.951000 1.916300
3.974600 1.955100
3.998200 1.710600
4.021800 1.695600
4.045400 1.525600
4.069000 1.440800
4.092500 1.371000
4.116100 1.321000
4.139700 1.299600
4.163300 1.118800
4.186900 1.001100
4.210500 0.880500
4.234100 0.746300
4.257600 0.644800
4.281200 0.593200
4.304800 0.599500
4.328400 0.579700
4.352000 0.571000
4.375600 0.587200
4.399200 0.582700
4.422700 0.572000
4.446300 0.557600
4.469900 0.539900
4.493500 0.537100
4.517100 0.553300
4.540700 0.522000
4.564300 0.515900
4.587800 0.508000
4.611400 0.542100
4.635000 0.570700
4.658600 0.585300
4.682200 0.585600
4.705800 0.643700
4.729400 0.621200
4.752900 0.629900
4.776500 0.608200
4.800100 0.605200
4.823700 0.610400
4.847300 0.615200
4.870900 0.674500
4.894500 0.768800
4.918000 0.868600
4.941600 0.970700
4.965200 1.075900
4.988800 1.175700
5.012400 1.247400
5.036000 1.359700
5.059600 1.516400
5.083100 1.778600
5.106700 2.086200
5.130300 2.223700
5.153900 2.197500
5.177500 2.196600
5.201100 2.191000
5.224700 2.160500
5.248200 2.087500
5.271800 2.021700
5.295400 1.964500
5.319000 1.937000
5.342600 1.935400
5.366200 1.958000
5.389800 1.990900
5.413300 2.118700
5.436900 2.117600
5.460500 2.137100
5.484100 2.158600
5.507700 2.209100
5.531300 2.254600
5.554900 2.294900
5.578400 2.316600
5.602000 2.276100
5.625600 2.274100
5.649200 1.925700
5.672800 1.426000
5.696400 1.179000
5.720000 1.021600
5.743500 0.825500
5.767100 0.719300
5.790700 0.643900
5.814300 0.554700
5.837900 0.452500
5.861500 0.421100
5.885100 0.397700
5.908600 0.374700
5.932200 0.351800
5.955800 0.329000
5.979400 0.419200
6.003000 0.842600
6.026600 0.761000
6.050200 0.599600
6.073700 0.542100
6.097300 0.540100
6.120900 0.553700
6.144500 0.567900
6.168100 0.620900
6.191700 0.762400
6.215300 1.010500
6.238800 1.253100
6.262400 1.538800
6.286000 1.885300
6.309600 2.721400
6.333200 3.483300
6.356800 3.138900
6.380400 3.196100
6.403900 2.947300
6.427500 2.900700
6.451100 2.828200
6.474700 2.722500
6.498300 2.660800
6.521900 2.600800
6.545500 2.386600
6.569000 2.184900
6.592600 1.991300
6.616200 1.802200
6.639800 1.452000
6.663400 1.352300
6.687000 1.361200
6.710600 1.366500
6.734100 1.282700
6.757700 1.265200
6.781300 1.240600
6.804900 1.223500
6.828500 1.210800
6.852100 1.202500
6.875700 1.194200
6.899200 1.186000
6.922800 1.268300
6.946400 1.220500
6.970000 1.159300
6.993600 1.111300
7.017200 1.100800
7.040800 1.098500
7.064300 1.096900
7.087900 1.097500
7.111500 1.144700
7.135100 1.148800
7.158700 1.129600
7.182300 1.094500
7.205900 1.064100
7.229400 1.040200
7.253000 1.018300
7.276600 1.031200
7.300200 1.056300
7.323800 1.356300
7.347400 1.265700
7.371000 1.210700
7.394500 1.150300
7.418100 1.049700
7.441700 0.901100
7.465300 0.752200
7.488900 0.652500
7.512500 0.613300
7.536100 0.595000
7.559600 0.593800
7.583200 0.593200
7.606800 0.590400
7.630400 0.549700
7.654000 0.550200
7.677600 0.551600
7.701200 0.554900
7.724700 0.580700
7.748300 0.636300
7.771900 0.707500
7.795500 0.706200
7.819100 0.706500
7.842700 0.720000
7.866300 0.734800
7.889800 0.702700
7.913400 0.694200
7.937000 0.709900
7.960600 0.729700
7.984200 0.752900
8.007800 0.777600
8.031400 0.803900
8.054900 0.832200
8.078500 0.862800
8.102100 0.895700
8.125700 0.930900
8.149300 0.955800
8.172900 0.993000
8.196500 1.037500
8.220000 1.104300
8.243600 1.171300
8.267200 1.232900
8.290800 1.287000
8.314400 1.334500
8.338000 1.375600
8.361600 1.404500
8.385100 1.419400
8.408700 1.400200
8.432300 1.399200
8.455900 1.433500
8.479500 1.465100
8.503100 1.497600
8.526700 1.482300
8.550200 1.457600
8.573800 1.435000
8.597400 1.402500
8.621000 1.362800
8.644600 1.335700
8.668200 1.311800
8.691800 1.287700
8.715300 1.262600
8.738900 1.236800
8.762500 1.210000
8.786100 1.181700
8.809700 1.156300
8.833300 1.163800
8.856900 1.156700
8.880400 1.123800
8.904000 1.094900
8.927600 1.084300
8.951200 1.074000
8.974800 1.074500
8.998400 1.100100
9.022000 1.125000
9.045600 1.159100
9.069100 1.178300
9.092700 1.179700
9.116300 1.151000
9.139900 1.123800
9.163500 1.035400
9.187100 1.094200
9.210700 1.015400
9.234200 1.019700
9.257800 0.892200
9.281400 0.850300
9.305000 0.826000
9.328600 0.820400
9.352200 0.835400
9.375800 0.856200
9.399300 0.872800
9.422900 0.887900
9.446500 0.909500
9.470100 0.935200
9.493700 0.952300
9.517300 0.982100
9.540900 1.017000
9.564400 1.067700
9.588000 1.149900
9.611600 1.279600
9.635200 1.503600
9.658800 1.710800
9.682400 1.892000
9.706000 2.004300
9.729500 2.108700
9.753100 2.195700
9.776700 2.292200
9.800300 2.382800
9.823900 2.452400
9.847500 2.503800
9.871100 2.563000
9.894600 2.551000
9.918200 2.466100
9.941800 2.439300
9.965400 2.430100
9.989000 2.416000
10.012600 2.445100
10.036200 2.353400
10.059700 2.287300
10.083300 2.235800
10.106900 2.229200
10.130500 2.115300
10.154100 2.077100
10.177700 1.936200
10.201300 1.698100
10.224800 1.479300
10.248400 1.262500
10.272000 1.162200
10.295600 1.149700
10.319200 1.179200
10.342800 1.270100
10.366400 1.320400
10.389900 1.325000
10.413500 1.372200
10.437100 1.543600
10.460700 1.862600
10.484300 2.200100
10.507900 2.465700
10.531500 2.644400
10.555000 2.811800
10.578600 2.541000
10.602200 2.502800
10.625800 2.479300
10.649400 2.475600
10.673000 2.716100
10.696600 2.928500
10.720100 3.046800
10.743700 2.772000
10.767300 2.512600
10.790900 2.435800
10.814500 2.560200
10.838100 2.519800
10.861700 2.602500
10.885200 2.608900
10.908800 2.513500
