set title 'mp-1186366 - Density of States'
set xlabel 'Energy (eV)'
set ylabel 'DOS (states/eV)'
set grid
set xrange [-10:10]
set yrange [0:13.945]
set xzeroaxis lt -1
set terminal png size 800,600
set output 'mp-1186366_dos_gnuplot.png'
plot '-' using 1:2 with lines title 'DOS'
-8.212600 0.000000
-8.190400 0.000000
-8.168200 0.000000
-8.145900 0.000000
-8.123700 0.000000
-8.101500 0.000000
-8.079200 0.000000
-8.057000 0.000000
-8.034800 0.000000
-8.012500 0.000000
-7.990300 0.000000
-7.968100 0.000000
-7.945800 0.000000
-7.923600 0.000000
-7.901400 0.000000
-7.879100 0.000000
-7.856900 0.000000
-7.834700 0.000000
-7.812400 0.000000
-7.790200 0.000000
-7.768000 0.000000
-7.745700 0.000000
-7.723500 0.000000
-7.701300 0.000000
-7.679000 0.000000
-7.656800 0.000000
-7.634600 0.000000
-7.612300 0.000000
-7.590100 0.000000
-7.567900 0.000000
-7.545600 0.000000
-7.523400 0.000000
-7.501200 0.000000
-7.478900 0.000000
-7.456700 0.000000
-7.434500 0.000000
-7.412200 0.000000
-7.390000 0.000000
-7.367800 0.000000
-7.345500 0.000000
-7.323300 0.000000
-7.301100 0.000000
-7.278800 0.000000
-7.256600 0.000000
-7.234400 0.000000
-7.212100 0.000000
-7.189900 0.000000
-7.167700 0.000000
-7.145400 0.000000
-7.123200 0.000000
-7.101000 0.000000
-7.078700 0.000000
-7.056500 0.000000
-7.034300 0.000000
-7.012000 0.000000
-6.989800 0.000000
-6.967600 0.000000
-6.945300 0.000000
-6.923100 0.000000
-6.900900 0.000000
-6.878600 0.000000
-6.856400 0.000000
-6.834200 0.000000
-6.811900 0.000000
-6.789700 0.000000
-6.767500 0.000000
-6.745200 0.000000
-6.723000 0.000000
-6.700800 0.000000
-6.678500 0.000000
-6.656300 0.000000
-6.634100 0.000000
-6.611800 0.000000
-6.589600 0.000000
-6.567400 0.000000
-6.545100 0.000000
-6.522900 0.000000
-6.500700 0.000000
-6.478400 0.000000
-6.456200 0.000000
-6.434000 0.000000
-6.411700 0.000000
-6.389500 0.000000
-6.367300 0.000000
-6.345000 0.000000
-6.322800 0.000000
-6.300600 0.000100
-6.278300 0.000600
-6.256100 0.003000
-6.233900 0.010000
-6.211600 0.024600
-6.189400 0.048000
-6.167200 0.081600
-6.144900 0.129900
-6.122700 0.191500
-6.100500 0.240200
-6.078200 0.239900
-6.056000 0.199800
-6.033800 0.185700
-6.011500 0.243900
-5.989300 0.340300
-5.967100 0.408300
-5.944800 0.435200
-5.922600 0.449300
-5.900400 0.443800
-5.878100 0.394300
-5.855900 0.335600
-5.833700 0.342400
-5.811400 0.435300
-5.789200 0.547200
-5.767000 0.601500
-5.744700 0.603300
-5.722500 0.595700
-5.700300 0.578900
-5.678000 0.561900
-5.655800 0.610900
-5.633600 0.747500
-5.611300 0.881500
-5.589100 0.915900
-5.566900 0.839300
-5.544600 0.707200
-5.522400 0.607800
-5.500200 0.623200
-5.478000 0.773400
-5.455700 0.995100
-5.433500 1.183100
-5.411300 1.270800
-5.389000 1.280300
-5.366800 1.301400
-5.344600 1.392000
-5.322300 1.492000
-5.300100 1.502500
-5.277900 1.403500
-5.255600 1.272000
-5.233400 1.258600
-5.211200 1.446300
-5.188900 1.701100
-5.166700 1.840700
-5.144500 1.892000
-5.122200 2.000600
-5.100000 2.190700
-5.077800 2.354700
-5.055500 2.434400
-5.033300 2.513200
-5.011100 2.741200
-4.988800 3.212200
-4.966600 3.899000
-4.944400 4.658000
-4.922100 5.258700
-4.899900 5.502700
-4.877700 5.305200
-4.855400 4.601100
-4.833200 3.398100
-4.811000 2.004400
-4.788700 0.896600
-4.766500 0.293500
-4.744300 0.068700
-4.722000 0.011300
-4.699800 0.001300
-4.677600 0.000100
-4.655300 0.000000
-4.633100 0.000000
-4.610900 0.000000
-4.588600 0.000000
-4.566400 0.000000
-4.544200 0.000000
-4.521900 0.000000
-4.499700 0.000000
-4.477500 0.000000
-4.455200 0.000000
-4.433000 0.000000
-4.410800 0.000000
-4.388500 0.000000
-4.366300 0.000000
-4.344100 0.000000
-4.321800 0.000000
-4.299600 0.000000
-4.277400 0.000000
-4.255100 0.000000
-4.232900 0.000000
-4.210700 0.000000
-4.188400 0.000000
-4.166200 0.000000
-4.144000 0.000000
-4.121700 0.000000
-4.099500 0.000000
-4.077300 0.000000
-4.055000 0.000000
-4.032800 0.000000
-4.010600 0.000000
-3.988300 0.000000
-3.966100 0.000000
-3.943900 0.000000
-3.921600 0.000000
-3.899400 0.000000
-3.877200 0.000000
-3.854900 0.000000
-3.832700 0.000000
-3.810500 0.000000
-3.788200 0.000000
-3.766000 0.000000
-3.743800 0.000000
-3.721500 0.000000
-3.699300 0.000000
-3.677100 0.000000
-3.654800 0.000000
-3.632600 0.000000
-3.610400 0.000000
-3.588100 0.000000
-3.565900 0.000000
-3.543700 0.000000
-3.521400 0.000000
-3.499200 0.000000
-3.477000 0.000000
-3.454700 0.000000
-3.432500 0.000000
-3.410300 0.000000
-3.388000 0.000000
-3.365800 0.000000
-3.343600 0.000000
-3.321300 0.000000
-3.299100 0.000000
-3.276900 0.000000
-3.254600 0.000000
-3.232400 0.000000
-3.210200 0.000000
-3.187900 0.000000
-3.165700 0.000000
-3.143500 0.000000
-3.121200 0.000000
-3.099000 0.000000
-3.076800 0.000000
-3.054500 0.000000
-3.032300 0.000000
-3.010100 0.000000
-2.987800 0.000000
-2.965600 0.000000
-2.943400 0.000000
-2.921100 0.000000
-2.898900 0.000000
-2.876700 0.000000
-2.854400 0.000000
-2.832200 0.000000
-2.810000 0.000000
-2.787700 0.000000
-2.765500 0.000000
-2.743300 0.000000
-2.721000 0.000000
-2.698800 0.000000
-2.676600 0.000000
-2.654300 0.000000
-2.632100 0.000000
-2.609900 0.000000
-2.587600 0.000000
-2.565400 0.000000
-2.543200 0.000000
-2.520900 0.000000
-2.498700 0.000000
-2.476500 0.000000
-2.454200 0.000000
-2.432000 0.000000
-2.409800 0.000000
-2.387500 0.000000
-2.365300 0.000000
-2.343100 0.000000
-2.320800 0.000000
-2.298600 0.000000
-2.276400 0.000000
-2.254100 0.000000
-2.231900 0.000000
-2.209700 0.000000
-2.187400 0.000000
-2.165200 0.000000
-2.143000 0.000000
-2.120700 0.000300
-2.098500 0.001500
-2.076300 0.005600
-2.054000 0.015300
-2.031800 0.031600
-2.009600 0.052900
-1.987300 0.080300
-1.965100 0.120400
-1.942900 0.177300
-1.920600 0.229600
-1.898400 0.233900
-1.876200 0.182700
-1.853900 0.133900
-1.831700 0.152600
-1.809500 0.244500
-1.787200 0.351400
-1.765000 0.412900
-1.742800 0.428800
-1.720500 0.431700
-1.698300 0.416300
-1.676100 0.368800
-1.653800 0.341600
-1.631600 0.402500
-1.609400 0.544900
-1.587100 0.724500
-1.564900 0.920600
-1.542700 1.118400
-1.520500 1.313800
-1.498200 1.556200
-1.476000 1.913300
-1.453800 2.394100
-1.431500 2.938800
-1.409300 3.410600
-1.387100 3.621500
-1.364800 3.516300
-1.342600 3.287500
-1.320400 3.181200
-1.298100 3.227900
-1.275900 3.263100
-1.253700 3.218600
-1.231400 3.263300
-1.209200 3.545000
-1.187000 3.876600
-1.164700 3.839100
-1.142500 3.260500
-1.120300 2.464300
-1.098000 1.891700
-1.075800 1.660000
-1.053600 1.632400
-1.031300 1.661000
-1.009100 1.659900
-0.986900 1.615200
-0.964600 1.563300
-0.942400 1.518300
-0.920200 1.447700
-0.897900 1.355900
-0.875700 1.328500
-0.853500 1.424400
-0.831200 1.592400
-0.809000 1.701000
-0.786800 1.645100
-0.764500 1.479100
-0.742300 1.361500
-0.720100 1.339200
-0.697800 1.321600
-0.675600 1.258700
-0.653400 1.222400
-0.631100 1.318100
-0.608900 1.601900
-0.586700 2.040200
-0.564400 2.481700
-0.542200 2.759500
-0.520000 2.827600
-0.497700 2.737600
-0.475500 2.594800
-0.453300 2.575000
-0.431000 2.824500
-0.408800 3.268900
-0.386600 3.647200
-0.364300 3.803500
-0.342100 3.888000
-0.319900 4.180500
-0.297600 4.686500
-0.275400 5.113200
-0.253200 5.257100
-0.230900 5.127200
-0.208700 4.799400
-0.186500 4.401600
-0.164200 4.137200
-0.142000 4.200500
-0.119800 4.617900
-0.097500 5.137000
-0.075300 5.477100
-0.053100 5.741600
-0.030800 6.279900
-0.008600 7.243900
0.013600 8.473300
0.035900 9.538700
0.058100 9.974500
0.080300 9.785800
0.102600 9.484000
0.124800 9.496000
0.147000 9.766900
0.169300 9.970700
0.191500 9.950800
0.213700 9.793100
0.236000 9.528100
0.258200 8.972800
0.280400 8.023700
0.302700 6.971400
0.324900 6.299200
0.347100 6.272200
0.369400 6.718500
0.391600 7.107100
0.413800 7.048500
0.436100 6.760400
0.458300 6.765100
0.480500 7.142900
0.502800 7.419900
0.525000 7.214800
0.547200 6.729700
0.569500 6.520200
0.591700 6.794200
0.613900 7.118900
0.636200 7.034600
0.658400 6.662200
0.680600 6.441800
0.702900 6.540700
0.725100 6.703100
0.747300 6.561100
0.769600 6.042400
0.791800 5.422800
0.814000 4.963600
0.836300 4.694700
0.858500 4.595200
0.880700 4.701800
0.903000 4.928400
0.925200 5.057500
0.947400 5.022900
0.969700 5.005200
0.991900 5.170200
1.014100 5.414500
1.036400 5.507800
1.058600 5.515300
1.080800 5.814700
1.103100 6.537900
1.125300 7.305300
1.147500 7.745800
1.169800 7.959200
1.192000 8.241700
1.214200 8.657400
1.236500 9.026800
1.258700 9.199400
1.280900 9.280200
1.303200 9.499800
1.325400 9.856100
1.347600 10.033800
1.369900 9.755100
1.392100 9.098600
1.414300 8.382000
1.436600 7.853600
1.458800 7.568100
1.481000 7.441600
1.503300 7.371200
1.525500 7.409700
1.547700 7.723500
1.570000 8.215700
1.592200 8.530600
1.614400 8.577000
1.636700 8.600700
1.658900 8.687400
1.681100 8.633600
1.703400 8.314700
1.725600 7.768000
1.747800 7.019000
1.770100 6.188400
1.792300 5.530800
1.814500 5.140200
1.836800 4.874900
1.859000 4.638600
1.881200 4.510500
1.903500 4.603600
1.925700 4.906000
1.947900 5.262300
1.970200 5.538900
1.992400 5.754600
2.014600 5.962600
2.036900 6.117600
2.059100 6.200000
2.081300 6.428900
2.103600 7.106600
2.125800 8.134600
2.148000 8.895000
2.170300 8.845200
2.192500 8.137000
2.214700 7.422200
2.237000 7.154200
2.259200 7.293200
2.281400 7.522300
2.303700 7.597100
2.325900 7.649400
2.348100 8.129200
2.370400 9.324100
2.392600 10.978300
2.414800 12.346500
2.437000 12.677000
2.459300 11.893400
2.481500 10.726000
2.503700 9.914400
2.526000 9.476300
2.548200 9.010900
2.570400 8.395800
2.592700 7.837500
2.614900 7.462500
2.637100 7.273700
2.659400 7.393300
2.681600 7.919400
2.703800 8.629700
2.726100 9.113700
2.748300 9.096600
2.770500 8.607200
2.792800 7.897100
2.815000 7.206300
2.837200 6.639600
2.859500 6.171500
2.881700 5.710700
2.903900 5.199500
2.926200 4.661800
2.948400 4.194700
2.970600 3.925600
2.992900 3.904800
3.015100 4.034300
3.037300 4.169000
3.059600 4.218900
3.081800 4.133000
3.104000 3.948800
3.126300 3.839700
3.148500 3.927500
3.170700 4.110600
3.193000 4.247400
3.215200 4.387800
3.237400 4.644500
3.259700 5.015400
3.281900 5.562700
3.304100 6.507500
3.326400 7.869300
3.348600 9.287000
3.370800 10.311300
3.393100 10.709400
3.415300 10.598800
3.437500 10.331400
3.459800 10.192700
3.482000 10.223800
3.504200 10.332700
3.526500 10.480700
3.548700 10.585500
3.570900 10.387100
3.593200 9.645200
3.615400 8.431100
3.637600 7.124600
3.659900 6.058500
3.682100 5.266800
3.704300 4.608900
3.726600 3.962600
3.748800 3.308000
3.771000 2.720200
3.793300 2.292400
3.815500 2.096000
3.837700 2.161000
3.860000 2.399700
3.882200 2.614800
3.904400 2.640300
3.926700 2.432600
3.948900 2.097300
3.971100 1.857500
3.993400 1.862000
4.015600 2.022000
4.037800 2.147800
4.060100 2.149500
4.082300 2.015200
4.104500 1.760500
4.126800 1.476600
4.149000 1.319400
4.171200 1.388200
4.193500 1.632900
4.215700 1.884200
4.237900 1.991200
4.260200 1.930100
4.282400 1.776300
4.304600 1.609400
4.326900 1.453100
4.349100 1.299300
4.371300 1.166500
4.393600 1.118700
4.415800 1.222200
4.438000 1.459700
4.460300 1.736100
4.482500 2.010900
4.504700 2.297700
4.527000 2.507000
4.549200 2.459000
4.571400 2.110400
4.593700 1.702400
4.615900 1.566000
4.638100 1.740300
4.660400 1.952900
4.682600 2.016800
4.704800 2.014200
4.727100 2.050900
4.749300 2.102100
4.771500 2.162500
4.793800 2.272600
4.816000 2.338800
4.838200 2.205600
4.860500 1.949100
4.882700 1.825800
4.904900 1.907400
4.927200 1.984900
4.949400 1.851700
4.971600 1.554300
4.993900 1.314500
5.016100 1.262800
5.038300 1.348500
5.060600 1.453300
5.082800 1.461400
5.105000 1.298300
5.127300 1.000100
5.149500 0.712200
5.171700 0.595600
5.194000 0.715200
5.216200 1.005400
5.238400 1.332900
5.260700 1.580400
5.282900 1.701400
5.305100 1.698700
5.327400 1.598100
5.349600 1.537200
5.371800 1.712100
5.394100 2.058500
5.416300 2.207900
5.438500 1.949500
5.460800 1.519400
5.483000 1.311400
5.505200 1.525900
5.527500 2.115400
5.549700 2.796000
5.571900 3.131200
5.594200 2.896800
5.616400 2.353100
5.638600 1.952500
5.660900 1.870300
5.683100 1.969300
5.705300 2.074700
5.727600 2.128100
5.749800 2.151500
5.772000 2.164800
5.794300 2.170400
5.816500 2.231300
5.838700 2.450000
5.861000 2.757500
5.883200 2.875900
5.905400 2.644300
5.927700 2.203500
5.949900 1.775900
5.972100 1.479500
5.994400 1.348000
6.016600 1.317000
6.038800 1.238000
6.061100 1.061800
6.083300 0.905800
6.105500 0.880100
6.127800 0.981500
6.150000 1.157100
6.172200 1.327700
6.194500 1.390200
6.216700 1.335700
6.238900 1.292100
6.261200 1.383500
6.283400 1.609500
6.305600 1.854500
6.327900 2.006600
6.350100 2.028700
6.372300 1.896200
6.394500 1.645500
6.416800 1.488500
6.439000 1.615400
6.461200 1.891200
6.483500 1.987600
6.505700 1.801000
6.527900 1.523800
6.550200 1.358200
6.572400 1.339800
6.594600 1.347600
6.616900 1.263500
6.639100 1.165900
6.661300 1.219300
6.683600 1.390100
6.705800 1.456000
6.728000 1.275400
6.750300 0.949100
6.772500 0.725900
6.794700 0.790800
6.817000 1.114600
6.839200 1.488400
6.861400 1.704700
6.883700 1.665300
6.905900 1.383300
6.928100 0.992400
6.950400 0.678200
6.972600 0.540900
6.994800 0.562300
7.017100 0.650600
7.039300 0.706600
7.061500 0.716800
7.083800 0.729100
7.106000 0.728100
7.128200 0.672200
7.150500 0.616400
7.172700 0.656000
7.194900 0.808100
7.217200 1.013900
7.239400 1.198700
7.261600 1.305400
7.283900 1.288900
7.306100 1.124900
7.328300 0.865600
7.350600 0.639200
7.372800 0.563800
7.395000 0.682800
7.417300 0.928800
7.439500 1.122300
7.461700 1.114400
7.484000 0.949400
7.506200 0.783100
7.528400 0.701300
7.550700 0.706400
7.572900 0.794600
7.595100 0.985700
7.617400 1.261900
7.639600 1.495200
7.661800 1.543000
7.684100 1.439000
7.706300 1.372800
7.728500 1.469800
7.750800 1.698100
7.773000 1.935300
7.795200 2.009500
7.817500 1.809900
7.839700 1.457700
7.861900 1.210200
7.884200 1.167200
7.906400 1.229800
7.928600 1.307700
7.950900 1.380100
7.973100 1.398100
7.995300 1.316200
8.017600 1.200800
8.039800 1.208100
8.062000 1.449800
8.084300 1.842000
8.106500 2.111300
8.128700 2.050500
8.151000 1.753000
8.173200 1.512200
8.195400 1.495800
8.217700 1.618300
8.239900 1.716200
8.262100 1.704400
8.284400 1.580700
8.306600 1.407700
8.328800 1.271700
8.351100 1.197700
8.373300 1.140500
8.395500 1.101900
8.417800 1.180300
8.440000 1.444500
8.462200 1.832400
8.484500 2.197600
8.506700 2.421400
8.528900 2.511100
8.551200 2.559600
8.573400 2.599900
8.595600 2.570500
8.617900 2.398500
8.640100 2.129200
8.662300 1.992200
8.684600 2.138200
8.706800 2.340000
8.729000 2.301500
8.751300 2.139900
8.773500 2.137600
8.795700 2.241000
8.818000 2.210500
8.840200 2.025000
8.862400 1.857600
8.884700 1.789900
8.906900 1.717100
8.929100 1.547900
8.951400 1.365400
8.973600 1.331500
8.995800 1.515800
9.018100 1.813400
9.040300 2.020100
9.062500 2.010100
9.084800 1.827400
9.107000 1.641800
9.129200 1.623800
9.151500 1.816500
9.173700 2.102900
9.195900 2.333600
9.218200 2.511700
9.240400 2.690000
9.262600 2.745000
9.284900 2.601800
9.307100 2.477900
9.329300 2.554600
9.351600 2.724400
9.373800 2.837900
9.396000 2.881900
9.418300 2.871100
9.440500 2.762100
9.462700 2.504800
9.485000 2.122400
9.507200 1.727200
9.529400 1.437800
9.551700 1.280100
9.573900 1.214000
9.596100 1.210300
9.618400 1.214800
9.640600 1.126300
9.662800 0.921200
9.685100 0.711700
9.707300 0.595700
9.729500 0.557100
9.751800 0.556000
9.774000 0.591200
9.796200 0.656500
9.818500 0.729800
9.840700 0.799800
9.862900 0.864800
9.885200 0.940500
9.907400 1.053000
9.929600 1.176600
9.951900 1.249800
9.974100 1.261700
9.996300 1.216700
10.018600 1.078500
10.040800 0.864400
10.063000 0.702300
10.085300 0.706500
10.107500 0.855000
10.129700 1.028100
10.152000 1.111600
10.174200 1.059200
10.196400 0.910000
10.218700 0.749800
10.240900 0.652500
10.263100 0.649800
10.285400 0.759900
10.307600 1.006100
10.329800 1.337900
10.352000 1.599500
10.374300 1.679300
10.396500 1.643400
10.418700 1.611600
10.441000 1.558200
10.463200 1.406600
10.485400 1.217100
10.507700 1.082000
10.529900 0.990400
10.552100 0.947400
10.574400 1.047300
10.596600 1.294500
10.618800 1.504500
10.641100 1.497400
10.663300 1.293600
10.685500 1.074900
10.707800 0.983800
10.730000 0.994900
10.752200 1.026900
10.774500 1.074600
10.796700 1.115500
10.818900 1.055100
10.841200 0.899600
10.863400 0.829200
10.885600 0.992300
10.907900 1.304900
10.930100 1.535600
10.952300 1.543400
10.974600 1.368200
10.996800 1.163200
11.019000 1.057100
11.041300 1.040500
11.063500 1.051500
11.085700 1.142300
11.108000 1.396300
11.130200 1.711500
11.152400 1.863300
11.174700 1.772900
11.196900 1.586400
11.219100 1.526500
11.241400 1.710600
11.263600 2.037000
11.285800 2.250200
11.308100 2.206000
11.330300 2.027600
11.352500 1.935100
11.374800 1.995500
11.397000 2.078500
11.419200 1.998000
11.441500 1.689700
11.463700 1.286500
11.485900 0.981600
11.508200 0.849800
11.530400 0.873300
11.552600 1.032800
11.574900 1.259300
11.597100 1.414100
11.619300 1.445000
11.641600 1.441400
11.663800 1.438100
11.686000 1.351100
11.708300 1.168000
11.730500 0.998600
11.752700 0.942700
11.775000 1.031400
11.797200 1.215300
11.819400 1.397000
11.841700 1.538800
11.863900 1.667300
11.886100 1.753800
11.908400 1.709400
11.930600 1.539700
11.952800 1.404300
11.975100 1.471500
11.997300 1.754100
12.019500 2.090600
12.041800 2.275700
12.064000 2.228000
12.086200 2.022500
12.108500 1.761300
12.130700 1.511200
12.152900 1.368300
12.175200 1.391400
12.197400 1.495300
12.219600 1.566800
12.241900 1.576700
12.264100 1.550600
12.286300 1.570100
12.308600 1.730500
12.330800 1.980900
12.353000 2.119700
12.375300 2.051600
12.397500 1.931000
12.419700 1.960400
12.442000 2.181000
12.464200 2.493400
12.486400 2.726600
12.508700 2.721000
12.530900 2.486700
12.553100 2.210300
12.575400 2.030500
12.597600 1.912400
12.619800 1.797200
12.642100 1.766000
12.664300 1.920800
12.686500 2.157700
12.708800 2.227700
12.731000 2.026100
12.753200 1.725000
12.775500 1.579100
12.797700 1.663900
12.819900 1.865600
12.842200 2.062400
12.864400 2.241700
12.886600 2.413400
12.908900 2.451000
12.931100 2.237500
12.953300 1.946600
12.975600 1.854800
12.997800 1.968600
13.020000 2.095800
13.042300 2.120400
13.064500 2.048100
13.086700 1.928700
13.109000 1.848300
13.131200 1.904100
13.153400 2.089400
13.175700 2.259200
13.197900 2.289700
13.220100 2.229800
13.242400 2.210300
13.264600 2.257800
13.286800 2.291600
13.309100 2.242100
13.331300 2.108500
13.353500 1.940700
13.375800 1.802100
13.398000 1.728000
13.420200 1.674200
13.442500 1.541900
13.464700 1.319000
13.486900 1.157500
13.509200 1.215800
13.531400 1.453900
13.553600 1.684100
13.575900 1.798500
13.598100 1.859100
13.620300 1.973500
13.642600 2.166800
13.664800 2.411100
13.687000 2.692400
13.709300 2.951800
13.731500 3.027600
13.753700 2.792800
13.776000 2.339400
13.798200 1.933500
13.820400 1.804800
13.842700 2.016700
13.864900 2.452300
13.887100 2.837200
13.909400 2.892800
13.931600 2.629400
13.953800 2.370200
13.976100 2.365600
13.998300 2.503700
14.020500 2.486500
14.042800 2.259400
14.065000 2.095800
14.087200 2.159600
14.109500 2.211700
14.131700 1.961600
14.153900 1.505500
14.176200 1.159500
14.198400 1.048400
14.220600 1.086500
14.242900 1.181000
14.265100 1.291900
14.287300 1.397000
14.309500 1.475400
14.331800 1.532000
14.354000 1.585900
14.376200 1.608600
14.398500 1.561800
14.420700 1.488100
14.442900 1.453600
14.465200 1.433200
14.487400 1.358600
14.509600 1.250200
14.531900 1.179300
14.554100 1.138200
14.576300 1.079400
14.598600 1.006900
14.620800 0.941600
14.643000 0.876800
14.665300 0.800200
14.687500 0.719500
14.709700 0.665900
14.732000 0.671700
14.754200 0.737700
14.776400 0.831800
14.798700 0.916400
14.820900 0.964000
14.843100 0.979800
14.865400 1.027500
14.887600 1.153800
14.909800 1.280100
14.932100 1.282000
14.954300 1.181300
14.976500 1.124600
14.998800 1.168300
15.021000 1.224500
15.043200 1.218800
15.065500 1.180500
15.087700 1.193100
15.109900 1.305500
15.132200 1.452400
15.154400 1.508100
15.176600 1.470200
15.198900 1.488100
15.221100 1.657500
15.243300 1.873500
15.265600 1.945200
15.287800 1.851200
15.310000 1.797600
15.332300 1.929600
