set title 'mp-10901 - Density of States'
set xlabel 'Energy (eV)'
set ylabel 'DOS (states/eV)'
set grid
set xrange [-10:10]
set yrange [0:17.599]
set xzeroaxis lt -1
set terminal png size 800,600
set output 'mp-10901_dos_gnuplot.png'
plot '-' using 1:2 with lines title 'DOS'
-4.108400 0.000000
-4.097500 0.000000
-4.086600 0.000000
-4.075700 0.000000
-4.064800 0.000000
-4.053900 0.000000
-4.043000 0.000000
-4.032100 0.000000
-4.021200 0.000000
-4.010300 0.000000
-3.999400 0.000000
-3.988500 0.000000
-3.977600 0.000000
-3.966700 0.000000
-3.955800 0.000000
-3.944900 0.000000
-3.934000 0.000000
-3.923100 0.000000
-3.912200 0.000000
-3.901300 0.000000
-3.890400 0.000000
-3.879500 0.000000
-3.868600 0.000000
-3.857700 0.000000
-3.846800 0.000000
-3.835900 0.000000
-3.825000 0.000000
-3.814100 0.000000
-3.803200 0.000000
-3.792300 0.000000
-3.781400 0.000000
-3.770500 0.000000
-3.759600 0.000000
-3.748700 0.000000
-3.737800 0.000000
-3.726900 0.000000
-3.716000 0.000000
-3.705100 0.000000
-3.694200 0.000000
-3.683300 0.000000
-3.672400 0.000000
-3.661500 0.000000
-3.650600 0.000000
-3.639700 0.000000
-3.628800 0.000000
-3.617900 0.000000
-3.607000 0.000000
-3.596100 0.000000
-3.585200 0.000000
-3.574300 0.000000
-3.563400 0.000000
-3.552500 0.000000
-3.541600 0.000000
-3.530700 0.000000
-3.519800 0.000000
-3.508900 0.000000
-3.498000 0.000000
-3.487100 0.000000
-3.476200 0.000000
-3.465300 0.000000
-3.454400 0.000000
-3.443500 0.000000
-3.432600 0.000000
-3.421700 0.000000
-3.410800 0.000000
-3.399900 0.000000
-3.389000 0.000000
-3.378100 0.000000
-3.367200 0.000000
-3.356300 0.000000
-3.345400 0.000000
-3.334500 0.000000
-3.323600 0.000000
-3.312700 0.000000
-3.301800 0.000000
-3.290900 0.000000
-3.279900 0.000000
-3.269000 0.000000
-3.258100 0.000000
-3.247200 0.000000
-3.236300 0.000000
-3.225400 0.000000
-3.214500 0.000000
-3.203600 0.000000
-3.192700 0.000000
-3.181800 0.000000
-3.170900 0.000000
-3.160000 0.000000
-3.149100 0.000000
-3.138200 0.000000
-3.127300 0.000000
-3.116400 0.000000
-3.105500 0.006000
-3.094600 0.022100
-3.083700 0.048300
-3.072800 0.083700
-3.061900 0.114900
-3.051000 0.126200
-3.040100 0.131500
-3.029200 0.131000
-3.018300 0.139000
-3.007400 0.150600
-2.996500 0.162500
-2.985600 0.174600
-2.974700 0.187100
-2.963800 0.199900
-2.952900 0.211600
-2.942000 0.220400
-2.931100 0.226300
-2.920200 0.229400
-2.909300 0.231400
-2.898400 0.235700
-2.887500 0.240900
-2.876600 0.247000
-2.865700 0.253800
-2.854800 0.260600
-2.843900 0.267500
-2.833000 0.274300
-2.822100 0.281200
-2.811200 0.288000
-2.800300 0.294900
-2.789400 0.302000
-2.778500 0.309400
-2.767600 0.316900
-2.756700 0.323900
-2.745800 0.328200
-2.734900 0.331600
-2.724000 0.334500
-2.713100 0.338700
-2.702200 0.343500
-2.691300 0.348200
-2.680400 0.352800
-2.669500 0.357300
-2.658600 0.361700
-2.647700 0.366100
-2.636800 0.370600
-2.625900 0.375100
-2.615000 0.379900
-2.604100 0.384800
-2.593200 0.390000
-2.582300 0.395400
-2.571400 0.400900
-2.560500 0.406400
-2.549600 0.412000
-2.538700 0.417600
-2.527800 0.423300
-2.516900 0.429000
-2.506000 0.434500
-2.495100 0.439600
-2.484200 0.444100
-2.473300 0.448100
-2.462400 0.451800
-2.451500 0.455400
-2.440600 0.459000
-2.429700 0.463000
-2.418800 0.467100
-2.407900 0.471500
-2.397000 0.476000
-2.386100 0.480300
-2.375200 0.484700
-2.364300 0.489100
-2.353400 0.493500
-2.342500 0.498000
-2.331600 0.502500
-2.320700 0.507100
-2.309800 0.511800
-2.298900 0.516500
-2.288000 0.521300
-2.277100 0.526200
-2.266200 0.531100
-2.255300 0.536000
-2.244400 0.541200
-2.233500 0.547400
-2.222600 0.554600
-2.211700 0.562900
-2.200800 0.572000
-2.189900 0.579400
-2.179000 0.586900
-2.168100 0.594600
-2.157200 0.602100
-2.146300 0.609300
-2.135400 0.616400
-2.124500 0.623500
-2.113600 0.631000
-2.102700 0.638600
-2.091800 0.646200
-2.080900 0.653100
-2.070000 0.657500
-2.059100 0.659400
-2.048200 0.659000
-2.037300 0.656100
-2.026400 0.657500
-2.015500 0.658900
-2.004600 0.660200
-1.993700 0.661400
-1.982800 0.662400
-1.971900 0.663300
-1.961000 0.664100
-1.950100 0.664700
-1.939200 0.665100
-1.928300 0.665400
-1.917400 0.666000
-1.906400 0.666800
-1.895500 0.667900
-1.884600 0.669100
-1.873700 0.670400
-1.862800 0.671800
-1.851900 0.673000
-1.841000 0.674300
-1.830100 0.675400
-1.819200 0.676600
-1.808300 0.677700
-1.797400 0.678700
-1.786500 0.679700
-1.775600 0.680700
-1.764700 0.681400
-1.753800 0.682000
-1.742900 0.682400
-1.732000 0.682600
-1.721100 0.683300
-1.710200 0.684200
-1.699300 0.685200
-1.688400 0.686300
-1.677500 0.687400
-1.666600 0.688600
-1.655700 0.689700
-1.644800 0.690900
-1.633900 0.692100
-1.623000 0.693200
-1.612100 0.694300
-1.601200 0.695400
-1.590300 0.696500
-1.579400 0.697600
-1.568500 0.698700
-1.557600 0.699900
-1.546700 0.701000
-1.535800 0.702100
-1.524900 0.703200
-1.514000 0.704300
-1.503100 0.705400
-1.492200 0.706400
-1.481300 0.707500
-1.470400 0.708600
-1.459500 0.709800
-1.448600 0.711100
-1.437700 0.712500
-1.426800 0.714000
-1.415900 0.715500
-1.405000 0.717100
-1.394100 0.718700
-1.383200 0.720300
-1.372300 0.721900
-1.361400 0.723600
-1.350500 0.725300
-1.339600 0.727100
-1.328700 0.728900
-1.317800 0.730600
-1.306900 0.732400
-1.296000 0.736200
-1.285100 0.743000
-1.274200 0.752800
-1.263300 0.762900
-1.252400 0.770600
-1.241500 0.778500
-1.230600 0.786700
-1.219700 0.795200
-1.208800 0.804100
-1.197900 0.813200
-1.187000 0.822600
-1.176100 0.832000
-1.165200 0.841200
-1.154300 0.850200
-1.143400 0.858900
-1.132500 0.867700
-1.121600 0.876700
-1.110700 0.885900
-1.099800 0.895200
-1.088900 0.904100
-1.078000 0.912200
-1.067100 0.919200
-1.056200 0.925700
-1.045300 0.934000
-1.034400 0.942500
-1.023500 0.951100
-1.012600 0.959200
-1.001700 0.967300
-0.990800 0.975400
-0.979900 0.983600
-0.969000 0.991800
-0.958100 1.000300
-0.947200 1.009000
-0.936300 1.018000
-0.925400 1.027300
-0.914500 1.036600
-0.903600 1.046400
-0.892700 1.072700
-0.881800 1.095800
-0.870900 1.114500
-0.860000 1.127300
-0.849100 1.134900
-0.838200 1.141300
-0.827300 1.147500
-0.816400 1.153200
-0.805500 1.158600
-0.794600 1.163500
-0.783700 1.168000
-0.772800 1.192700
-0.761900 1.283100
-0.751000 1.297500
-0.740100 1.276700
-0.729200 1.236300
-0.718300 1.197400
-0.707400 1.194800
-0.696500 1.193600
-0.685600 1.192300
-0.674700 1.190900
-0.663800 1.189400
-0.652900 1.187400
-0.642000 1.184600
-0.631100 1.180600
-0.620200 1.175400
-0.609300 1.169300
-0.598400 1.167600
-0.587500 1.166800
-0.576600 1.165800
-0.565700 1.164700
-0.554800 1.163300
-0.543900 1.161800
-0.532900 1.160200
-0.522000 1.158700
-0.511100 1.157200
-0.500200 1.155800
-0.489300 1.155400
-0.478400 1.158600
-0.467500 1.165800
-0.456600 1.176800
-0.445700 1.189700
-0.434800 1.203800
-0.423900 1.219300
-0.413000 1.214800
-0.402100 1.201600
-0.391200 1.185500
-0.380300 1.177800
-0.369400 1.178300
-0.358500 1.179200
-0.347600 1.180200
-0.336700 1.180900
-0.325800 1.181300
-0.314900 1.181300
-0.304000 1.181000
-0.293100 1.180500
-0.282200 1.182000
-0.271300 1.186200
-0.260400 1.191900
-0.249500 1.199500
-0.238600 1.210500
-0.227700 1.222000
-0.216800 1.243600
-0.205900 1.278900
-0.195000 1.322400
-0.184100 1.373000
-0.173200 1.430500
-0.162300 1.498100
-0.151400 1.572200
-0.140500 1.585100
-0.129600 1.587400
-0.118700 1.590000
-0.107800 1.594200
-0.096900 1.627500
-0.086000 1.780400
-0.075100 2.048400
-0.064200 1.976700
-0.053300 2.012000
-0.042400 2.059400
-0.031500 2.110900
-0.020600 2.166900
-0.009700 2.224900
0.001200 2.314900
0.012100 2.413000
0.023000 2.415800
0.033900 2.395000
0.044800 2.394400
0.055700 2.397500
0.066600 2.412900
0.077500 2.441500
0.088400 2.476500
0.099300 2.441300
0.110200 2.448700
0.121100 2.456300
0.132000 2.462900
0.142900 2.474600
0.153800 2.479100
0.164700 2.495800
0.175600 2.519300
0.186500 2.554000
0.197400 2.603300
0.208300 2.660700
0.219200 2.688400
0.230100 2.683500
0.241000 2.675800
0.251900 2.664800
0.262800 2.661100
0.273700 2.660400
0.284600 2.663200
0.295500 2.671400
0.306400 2.707800
0.317300 2.770400
0.328200 2.834600
0.339100 2.895400
0.350000 2.970300
0.360900 3.070300
0.371800 3.137200
0.382700 3.213600
0.393600 3.278100
0.404500 3.297000
0.415400 3.328500
0.426300 3.360200
0.437200 3.429900
0.448100 3.555600
0.459000 3.726400
0.469900 3.875700
0.480800 4.180600
0.491700 4.764500
0.502600 4.776300
0.513500 4.499800
0.524400 4.247900
0.535300 4.062000
0.546200 3.903200
0.557100 3.699300
0.568000 3.562100
0.578900 3.463600
0.589800 3.438100
0.600700 3.383800
0.611600 3.318700
0.622500 3.251700
0.633400 2.710900
0.644300 2.459800
0.655200 2.481000
0.666100 2.625100
0.677000 2.964900
0.687900 3.491700
0.698800 3.953100
0.709700 4.431000
0.720600 4.429400
0.731500 4.567600
0.742400 4.789800
0.753300 4.988900
0.764200 5.105000
0.775100 5.126900
0.786000 4.964200
0.796900 4.875600
0.807800 5.009400
0.818700 4.955700
0.829600 4.970900
0.840500 4.703400
0.851500 3.980600
0.862400 3.593100
0.873300 3.288600
0.884200 2.621900
0.895100 2.342600
0.906000 2.206800
0.916900 2.141200
0.927800 2.070900
0.938700 1.999000
0.949600 1.926000
0.960500 1.849000
0.971400 1.772200
0.982300 1.696600
0.993200 1.636900
1.004100 1.612600
1.015000 1.606300
1.025900 1.622800
1.036800 1.645400
1.047700 1.671100
1.058600 1.703200
1.069500 1.739800
1.080400 1.736400
1.091300 1.663200
1.102200 1.642700
1.113100 1.626700
1.124000 1.614700
1.134900 1.615400
1.145800 1.617800
1.156700 1.610500
1.167600 1.601400
1.178500 1.612700
1.189400 1.620900
1.200300 1.595800
1.211200 1.582800
1.222100 1.574100
1.233000 1.567400
1.243900 1.565800
1.254800 1.580400
1.265700 1.590700
1.276600 1.562500
1.287500 1.549400
1.298400 1.528500
1.309300 1.500300
1.320200 1.469500
1.331100 1.437000
1.342000 1.404500
1.352900 1.396300
1.363800 1.352100
1.374700 1.275400
1.385600 1.206400
1.396500 1.262400
1.407400 1.469300
1.418300 1.648300
1.429200 1.766300
1.440100 1.923500
1.451000 2.185800
1.461900 2.553700
1.472800 2.765300
1.483700 3.040400
1.494600 3.341800
1.505500 3.592400
1.516400 3.767900
1.527300 4.104900
1.538200 4.469500
1.549100 4.658100
1.560000 5.020400
1.570900 5.763000
1.581800 7.486300
1.592700 7.444000
1.603600 6.382200
1.614500 5.436100
1.625400 5.013300
1.636300 4.738500
1.647200 4.626700
1.658100 4.531300
1.669000 4.457500
1.679900 4.401900
1.690800 4.361700
1.701700 4.367800
1.712600 4.384700
1.723500 4.388600
1.734400 4.418800
1.745300 4.525600
1.756200 4.620400
1.767100 4.796200
1.778000 5.022600
1.788900 5.182900
1.799800 5.282000
1.810700 5.307600
1.821600 5.372400
1.832500 5.469500
1.843400 5.568200
1.854300 5.800000
1.865200 6.039800
1.876100 6.362700
1.887000 6.569500
1.897900 7.169700
1.908800 7.564100
1.919700 8.163900
1.930600 7.912500
1.941500 6.914400
1.952400 6.038900
1.963300 4.852900
1.974200 4.538000
1.985100 4.924000
1.996000 5.304800
2.006900 5.581200
2.017800 8.030500
2.028700 11.231100
2.039600 10.960200
2.050500 11.024400
2.061400 11.529100
2.072300 13.094800
2.083200 14.419000
2.094100 14.829400
2.105000 14.736700
2.115900 14.174300
2.126800 14.327900
2.137700 14.655000
2.148600 15.243100
2.159500 15.088700
2.170400 14.581900
2.181300 14.000700
2.192200 13.050900
2.203100 12.370100
2.214000 11.593600
2.225000 10.647400
2.235900 9.594100
2.246800 8.924900
2.257700 8.614100
2.268600 8.414400
2.279500 8.334100
2.290400 6.909600
2.301300 5.838800
2.312200 5.014500
2.323100 4.324300
2.334000 3.964000
2.344900 3.910400
2.355800 3.983400
2.366700 4.029100
2.377600 4.017000
2.388500 4.010100
2.399400 3.984600
2.410300 3.864300
2.421200 3.782300
2.432100 3.714500
2.443000 3.472300
2.453900 3.210900
2.464800 2.994200
2.475700 2.895500
2.486600 3.159500
2.497500 3.695500
2.508400 3.989300
2.519300 4.284300
2.530200 4.374900
2.541100 4.301100
2.552000 4.729200
2.562900 4.831600
2.573800 4.737300
2.584700 4.711500
2.595600 4.720500
2.606500 4.731100
2.617400 4.633700
2.628300 4.553500
2.639200 4.504900
2.650100 4.474500
2.661000 4.464100
2.671900 4.445600
2.682800 4.441500
2.693700 4.454400
2.704600 4.535200
2.715500 4.534400
2.726400 4.354700
2.737300 4.302300
2.748200 4.279900
2.759100 4.258600
2.770000 4.350400
2.780900 4.395800
2.791800 4.333500
2.802700 4.529500
2.813600 4.941000
2.824500 5.272400
2.835400 5.353000
2.846300 5.476800
2.857200 5.704100
2.868100 5.725500
2.879000 5.937900
2.889900 6.174600
2.900800 6.380700
2.911700 6.698800
2.922600 6.859900
2.933500 7.041400
2.944400 7.299900
2.955300 7.802200
2.966200 8.358300
2.977100 8.544000
2.988000 8.766700
2.998900 9.242100
3.009800 9.731200
3.020700 9.779100
3.031600 11.167900
3.042500 12.296800
3.053400 11.349600
3.064300 10.852400
3.075200 10.306100
3.086100 9.104300
3.097000 8.248100
3.107900 8.226100
3.118800 7.764400
3.129700 7.304400
3.140600 6.847200
3.151500 6.475500
3.162400 6.213400
3.173300 5.977700
3.184200 5.803100
3.195100 5.548000
3.206000 5.160600
3.216900 4.807400
3.227800 4.542600
3.238700 4.344000
3.249600 4.174400
3.260500 4.089400
3.271400 4.868000
3.282300 5.809900
3.293200 6.121800
3.304100 6.022600
3.315000 5.683000
3.325900 5.999100
3.336800 6.514300
3.347700 7.376600
3.358600 6.815200
3.369500 6.591300
3.380400 6.893500
3.391300 7.155700
3.402200 7.562300
3.413100 8.389800
3.424000 9.685800
3.434900 11.429000
3.445800 11.954800
3.456700 12.151000
3.467600 9.624300
3.478500 10.146300
3.489400 13.332800
3.500300 15.451500
3.511200 15.998700
3.522100 13.108700
3.533000 11.571700
3.543900 9.030000
3.554800 8.385300
3.565700 7.836100
3.576600 7.628900
3.587500 8.219800
3.598500 8.273200
3.609400 7.861900
3.620300 7.725800
3.631200 7.600800
3.642100 7.430100
3.653000 7.252600
3.663900 7.199700
3.674800 7.211700
3.685700 7.333100
3.696600 7.530600
3.707500 7.703200
3.718400 7.781600
3.729300 7.889800
3.740200 8.201300
3.751100 8.442400
3.762000 8.609000
3.772900 8.884100
3.783800 9.123000
3.794700 8.858900
3.805600 8.538900
3.816500 8.142300
3.827400 7.654400
3.838300 7.424500
3.849200 7.321000
3.860100 7.180600
3.871000 6.855400
3.881900 6.679500
3.892800 6.590900
3.903700 6.761400
3.914600 6.133700
3.925500 5.162400
3.936400 4.309700
3.947300 3.434200
3.958200 2.656600
3.969100 2.259900
3.980000 1.988700
3.990900 1.764700
4.001800 1.693300
4.012700 1.647600
4.023600 1.610400
4.034500 1.603700
4.045400 1.609800
4.056300 1.642800
4.067200 1.717400
4.078100 1.812400
4.089000 1.867800
4.099900 1.889400
4.110800 1.893800
4.121700 1.912000
4.132600 1.922100
4.143500 1.924000
4.154400 1.917500
4.165300 1.907300
4.176200 1.913400
4.187100 1.896100
4.198000 1.877600
4.208900 1.867400
4.219800 1.866600
4.230700 1.879200
4.241600 1.885300
4.252500 1.870700
4.263400 1.868700
4.274300 1.866000
4.285200 1.860000
4.296100 1.853000
4.307000 1.851400
4.317900 1.851500
4.328800 1.853100
4.339700 1.852800
4.350600 1.852700
4.361500 1.853800
4.372400 1.866400
4.383300 1.874500
4.394200 1.869200
4.405100 1.846300
4.416000 1.818000
4.426900 1.807100
4.437800 1.797300
4.448700 1.807000
4.459600 1.831200
4.470500 1.799700
4.481400 1.796100
4.492300 1.794200
4.503200 1.793500
4.514100 1.811400
4.525000 1.835000
4.535900 1.834800
4.546800 1.667700
4.557700 1.620100
4.568600 1.578400
4.579500 1.547100
4.590400 1.527600
4.601300 1.521000
4.612200 1.524200
4.623100 1.535000
4.634000 1.550500
4.644900 1.555200
4.655800 1.562000
4.666700 1.591200
4.677600 1.632100
4.688500 1.657500
4.699400 1.666800
4.710300 1.663500
4.721200 1.652200
4.732100 1.634800
4.743000 1.635000
4.753900 1.642700
4.764800 1.640200
4.775700 1.640100
4.786600 1.641800
4.797500 1.638100
4.808400 1.636400
4.819300 1.640900
4.830200 1.683200
4.841100 1.722100
4.852000 1.739100
4.862900 1.772000
4.873800 1.849700
4.884700 1.879300
4.895600 1.896400
4.906500 1.903900
4.917400 1.931800
4.928300 1.967200
4.939200 2.006700
4.950100 2.059500
4.961000 2.159500
4.972000 2.174400
4.982900 2.200100
4.993800 2.227500
5.004700 2.267800
5.015600 2.392600
5.026500 2.452600
5.037400 2.477900
5.048300 2.523000
5.059200 2.632700
5.070100 2.655700
5.081000 2.636300
5.091900 2.615700
5.102800 2.594300
5.113700 2.572900
5.124600 2.535800
5.135500 2.514900
5.146400 2.488000
5.157300 2.504400
5.168200 2.519300
5.179100 2.520300
5.190000 2.517700
5.200900 2.517000
5.211800 2.512000
5.222700 2.502500
5.233600 2.515700
5.244500 2.538100
5.255400 2.551900
5.266300 2.528400
5.277200 2.491800
5.288100 2.444700
5.299000 2.391300
5.309900 2.339900
5.320800 2.288000
5.331700 2.236200
5.342600 2.187000
5.353500 2.144500
5.364400 2.109400
5.375300 2.083900
5.386200 2.067600
5.397100 2.087900
5.408000 2.095000
5.418900 2.098700
5.429800 2.104300
5.440700 2.112000
5.451600 2.120800
5.462500 2.131300
5.473400 2.149900
5.484300 2.180400
5.495200 2.219600
5.506100 2.264800
5.517000 2.308500
5.527900 2.350100
5.538800 2.389400
5.549700 2.423900
5.560600 2.447100
5.571500 2.463200
5.582400 2.462600
5.593300 2.459800
5.604200 2.455900
5.615100 2.451600
5.626000 2.461700
5.636900 2.486100
5.647800 2.501100
5.658700 2.499700
5.669600 2.495600
5.680500 2.498400
5.691400 2.507900
5.702300 2.515900
5.713200 2.519300
5.724100 2.517800
5.735000 2.511400
5.745900 2.501100
5.756800 2.486700
5.767700 2.474100
5.778600 2.463700
5.789500 2.457900
5.800400 2.452800
5.811300 2.456200
5.822200 2.448600
5.833100 2.437400
5.844000 2.422800
5.854900 2.405800
5.865800 2.387900
5.876700 2.379000
5.887600 2.377700
5.898500 2.370300
5.909400 2.350800
5.920300 2.319700
5.931200 2.265700
5.942100 2.186000
5.953000 2.091600
5.963900 2.009900
5.974800 1.969100
5.985700 1.952300
5.996600 1.935800
6.007500 1.898800
6.018400 1.867800
6.029300 1.840100
6.040200 1.814500
6.051100 1.791000
6.062000 1.768400
6.072900 1.745100
6.083800 1.724500
6.094700 1.702500
6.105600 1.679300
6.116500 1.654700
6.127400 1.632300
6.138300 1.612100
6.149200 1.593300
6.160100 1.576000
6.171000 1.559600
6.181900 1.543600
6.192800 1.528300
6.203700 1.514000
6.214600 1.500800
6.225500 1.488900
6.236400 1.478500
6.247300 1.469400
6.258200 1.461200
6.269100 1.451400
6.280000 1.440800
6.290900 1.430700
6.301800 1.421100
6.312700 1.412200
6.323600 1.403400
6.334500 1.395200
6.345500 1.385500
6.356400 1.376200
6.367300 1.367200
6.378200 1.358500
6.389100 1.350000
6.400000 1.341500
6.410900 1.333100
6.421800 1.324500
6.432700 1.314900
6.443600 1.304600
6.454500 1.294100
6.465400 1.283400
6.476300 1.272300
6.487200 1.263000
6.498100 1.258200
6.509000 1.257800
6.519900 1.262000
6.530800 1.270800
6.541700 1.284300
6.552600 1.297500
6.563500 1.299500
6.574400 1.296100
6.585300 1.289400
6.596200 1.281900
6.607100 1.272700
6.618000 1.261100
6.628900 1.247900
6.639800 1.237800
6.650700 1.230900
6.661600 1.225100
6.672500 1.220200
6.683400 1.216000
6.694300 1.212000
6.705200 1.208000
6.716100 1.204000
6.727000 1.200400
6.737900 1.197400
6.748800 1.194900
6.759700 1.192800
6.770600 1.191200
6.781500 1.190100
6.792400 1.189100
6.803300 1.187100
6.814200 1.184100
6.825100 1.180200
6.836000 1.175700
6.846900 1.170600
6.857800 1.165300
6.868700 1.159800
6.879600 1.154200
6.890500 1.148500
6.901400 1.143400
6.912300 1.138700
6.923200 1.135000
6.934100 1.131600
6.945000 1.127500
6.955900 1.123300
6.966800 1.119300
6.977700 1.115500
6.988600 1.112100
6.999500 1.108800
7.010400 1.105700
7.021300 1.102800
7.032200 1.100000
7.043100 1.097500
7.054000 1.095300
7.064900 1.093200
7.075800 1.091300
7.086700 1.089800
7.097600 1.088700
7.108500 1.087800
7.119400 1.086900
7.130300 1.086100
7.141200 1.085200
7.152100 1.083800
7.163000 1.083000
7.173900 1.082500
7.184800 1.082200
7.195700 1.082000
7.206600 1.081900
7.217500 1.081800
7.228400 1.081200
7.239300 1.080800
7.250200 1.080200
7.261100 1.079300
7.272000 1.078300
7.282900 1.077400
7.293800 1.076400
7.304700 1.075000
7.315600 1.072900
7.326500 1.070900
7.337400 1.068800
7.348300 1.066500
7.359200 1.063900
7.370100 1.061300
7.381000 1.059200
7.391900 1.057000
7.402800 1.054200
7.413700 1.051100
7.424600 1.048000
7.435500 1.045100
7.446400 1.042200
7.457300 1.039700
7.468200 1.037600
7.479100 1.035800
7.490000 1.034000
7.500900 1.032100
7.511800 1.030100
7.522700 1.028300
7.533600 1.026700
7.544500 1.025500
7.555400 1.024600
7.566300 1.023800
7.577200 1.023500
