set title 'mp-1103475 - Density of States'
set xlabel 'Energy (eV)'
set ylabel 'DOS (states/eV)'
set grid
set xrange [-10:10]
set yrange [0:38.214]
set xzeroaxis lt -1
set terminal png size 800,600
set output 'mp-1103475_dos_gnuplot.png'
plot '-' using 1:2 with lines title 'DOS'
-17.091400 0.000000
-17.071600 0.000000
-17.051700 0.000000
-17.031800 0.000000
-17.011900 0.000000
-16.992000 0.000000
-16.972100 0.000000
-16.952200 0.000000
-16.932400 0.000000
-16.912500 0.000000
-16.892600 0.000000
-16.872700 0.000000
-16.852800 0.000000
-16.832900 0.000000
-16.813100 0.000000
-16.793200 0.000000
-16.773300 0.000000
-16.753400 0.000000
-16.733500 0.000000
-16.713600 0.000000
-16.693700 0.000000
-16.673900 0.000000
-16.654000 0.000000
-16.634100 0.000000
-16.614200 0.000000
-16.594300 0.000000
-16.574400 0.000000
-16.554500 0.000000
-16.534700 0.000000
-16.514800 0.000000
-16.494900 0.000000
-16.475000 0.000000
-16.455100 0.000000
-16.435200 0.000000
-16.415300 0.000000
-16.395500 0.000000
-16.375600 0.000000
-16.355700 0.000000
-16.335800 0.000000
-16.315900 0.000000
-16.296000 0.000000
-16.276200 0.000000
-16.256300 0.000000
-16.236400 0.000000
-16.216500 0.000000
-16.196600 0.000000
-16.176700 0.000000
-16.156800 0.000000
-16.137000 0.000000
-16.117100 0.000000
-16.097200 0.000000
-16.077300 0.000000
-16.057400 0.000000
-16.037500 0.000000
-16.017600 0.000000
-15.997800 0.000000
-15.977900 0.000000
-15.958000 0.000000
-15.938100 0.000000
-15.918200 0.000000
-15.898300 0.000000
-15.878500 0.000000
-15.858600 0.000000
-15.838700 0.000000
-15.818800 0.000000
-15.798900 0.000000
-15.779000 0.000000
-15.759100 0.000000
-15.739300 0.000000
-15.719400 0.000000
-15.699500 0.000000
-15.679600 0.000000
-15.659700 0.000000
-15.639800 0.000000
-15.619900 0.000000
-15.600100 0.000000
-15.580200 0.000000
-15.560300 0.000000
-15.540400 0.000000
-15.520500 0.000000
-15.500600 0.000000
-15.480700 0.000000
-15.460900 0.000000
-15.441000 0.000000
-15.421100 0.000000
-15.401200 0.000000
-15.381300 0.000000
-15.361400 0.000000
-15.341600 0.000000
-15.321700 0.000000
-15.301800 0.000000
-15.281900 0.007700
-15.262000 0.923300
-15.242100 1.949700
-15.222200 2.601200
-15.202400 3.253700
-15.182500 4.514700
-15.162600 4.515100
-15.142700 4.184800
-15.122800 3.442400
-15.102900 2.964900
-15.083000 2.535500
-15.063200 1.553900
-15.043300 1.553900
-15.023400 1.553900
-15.003500 1.553900
-14.983600 1.553900
-14.963700 1.553900
-14.943800 1.553900
-14.924000 1.553900
-14.904100 1.553900
-14.884200 1.554000
-14.864300 1.554000
-14.844400 1.554000
-14.824500 1.554000
-14.804700 1.554000
-14.784800 1.549500
-14.764900 1.425400
-14.745000 1.307500
-14.725100 1.227800
-14.705200 1.148000
-14.685300 1.008200
-14.665500 1.008200
-14.645600 1.008200
-14.625700 1.008200
-14.605800 1.008200
-14.585900 1.008200
-14.566000 1.008200
-14.546100 1.008200
-14.526300 1.008200
-14.506400 1.008200
-14.486500 1.008200
-14.466600 1.008200
-14.446700 1.008200
-14.426800 1.008200
-14.407000 1.008200
-14.387100 1.008200
-14.367200 1.008200
-14.347300 1.008200
-14.327400 1.008200
-14.307500 1.008200
-14.287600 1.008200
-14.267800 1.008200
-14.247900 1.008200
-14.228000 1.008200
-14.208100 4.579700
-14.188200 4.226000
-14.168300 2.573600
-14.148400 2.429100
-14.128600 0.000000
-14.108700 0.000000
-14.088800 0.000000
-14.068900 0.000000
-14.049000 0.000000
-14.029100 0.000000
-14.009200 0.000000
-13.989400 0.000000
-13.969500 0.000000
-13.949600 0.000000
-13.929700 0.000000
-13.909800 0.000000
-13.889900 0.000000
-13.870100 0.000000
-13.850200 0.000000
-13.830300 0.000000
-13.810400 0.000000
-13.790500 0.000000
-13.770600 0.000000
-13.750700 0.000000
-13.730900 0.000000
-13.711000 0.000000
-13.691100 0.000000
-13.671200 0.000000
-13.651300 0.000000
-13.631400 0.000000
-13.611500 0.000000
-13.591700 0.000000
-13.571800 0.000000
-13.551900 3.507700
-13.532000 3.823600
-13.512100 2.500800
-13.492200 2.683800
-13.472400 2.866700
-13.452500 1.366600
-13.432600 1.365200
-13.412700 1.364000
-13.392800 1.363000
-13.372900 1.362100
-13.353000 1.361400
-13.333200 1.360900
-13.313300 1.459300
-13.293400 2.173500
-13.273500 3.492000
-13.253600 4.897300
-13.233700 5.411700
-13.213800 5.627100
-13.194000 6.074300
-13.174100 6.625500
-13.154200 7.524900
-13.134300 7.793400
-13.114400 6.735400
-13.094500 5.362200
-13.074600 4.525000
-13.054800 3.447500
-13.034900 1.890800
-13.015000 0.679500
-12.995100 0.082400
-12.975200 0.000000
-12.955300 0.043600
-12.935500 0.748800
-12.915600 1.922300
-12.895700 3.631000
-12.875800 5.370700
-12.855900 9.595700
-12.836000 11.889600
-12.816100 12.609700
-12.796300 11.022400
-12.776400 10.869500
-12.756500 11.280000
-12.736600 15.620400
-12.716700 13.734600
-12.696800 6.917800
-12.676900 6.967900
-12.657100 7.148000
-12.637200 9.675600
-12.617300 6.621400
-12.597400 5.660800
-12.577500 4.408900
-12.557600 4.013600
-12.537700 7.519700
-12.517900 8.859900
-12.498000 5.019500
-12.478100 4.610700
-12.458200 4.730400
-12.438300 7.051400
-12.418400 4.428500
-12.398600 0.346200
-12.378700 0.000000
-12.358800 0.000000
-12.338900 0.000000
-12.319000 0.000000
-12.299100 0.000000
-12.279200 0.000000
-12.259400 0.000000
-12.239500 0.000000
-12.219600 0.000000
-12.199700 0.000000
-12.179800 0.000000
-12.159900 0.000000
-12.140000 0.000000
-12.120200 0.000000
-12.100300 0.000000
-12.080400 0.000000
-12.060500 0.000000
-12.040600 0.000000
-12.020700 0.000000
-12.000900 0.000000
-11.981000 1.311000
-11.961100 6.338800
-11.941200 11.258700
-11.921300 13.837800
-11.901400 13.953500
-11.881500 25.389500
-11.861700 7.197200
-11.841800 7.848100
-11.821900 7.170000
-11.802000 4.968600
-11.782100 16.223400
-11.762200 11.947300
-11.742300 12.569500
-11.722500 13.419800
-11.702600 14.641600
-11.682700 13.533100
-11.662800 11.309000
-11.642900 5.249200
-11.623000 3.339200
-11.603100 6.197700
-11.583300 7.302700
-11.563400 9.842900
-11.543500 11.412600
-11.523600 13.302800
-11.503700 11.956100
-11.483800 10.233800
-11.464000 11.299000
-11.444100 14.698200
-11.424200 0.000000
-11.404300 0.000000
-11.384400 0.000000
-11.364500 0.000000
-11.344600 7.484200
-11.324800 10.840100
-11.304900 6.334000
-11.285000 4.622100
-11.265100 4.603600
-11.245200 4.590600
-11.225300 4.872000
-11.205400 5.270200
-11.185600 5.649600
-11.165700 5.890400
-11.145800 6.092900
-11.125900 8.961700
-11.106000 11.861700
-11.086100 8.620900
-11.066300 4.033000
-11.046400 1.935800
-11.026500 0.399100
-11.006600 0.000000
-10.986700 0.000000
-10.966800 0.000000
-10.946900 0.000000
-10.927100 0.000000
-10.907200 0.000000
-10.887300 0.000000
-10.867400 0.000000
-10.847500 0.000000
-10.827600 0.000000
-10.807700 0.000000
-10.787900 0.000000
-10.768000 0.000000
-10.748100 0.000000
-10.728200 0.000000
-10.708300 0.000000
-10.688400 0.000000
-10.668500 0.000000
-10.648700 0.000000
-10.628800 0.000000
-10.608900 0.000000
-10.589000 0.000000
-10.569100 0.000000
-10.549200 0.000000
-10.529400 0.000000
-10.509500 0.000000
-10.489600 0.000000
-10.469700 0.000000
-10.449800 0.000000
-10.429900 0.000000
-10.410000 0.000000
-10.390200 0.000000
-10.370300 0.000000
-10.350400 0.000000
-10.330500 0.000000
-10.310600 0.000000
-10.290700 0.000000
-10.270800 0.000000
-10.251000 0.000000
-10.231100 0.000000
-10.211200 0.000000
-10.191300 0.000000
-10.171400 0.000000
-10.151500 0.000000
-10.131700 0.000000
-10.111800 0.000000
-10.091900 0.000000
-10.072000 0.000000
-10.052100 0.000000
-10.032200 0.000000
-10.012300 0.000000
-9.992500 0.000000
-9.972600 0.000000
-9.952700 0.000000
-9.932800 0.000000
-9.912900 0.000000
-9.893000 0.000000
-9.873100 0.000000
-9.853300 0.000000
-9.833400 0.000000
-9.813500 0.000000
-9.793600 0.000000
-9.773700 0.000000
-9.753800 0.000000
-9.733900 0.000000
-9.714100 0.000000
-9.694200 0.000000
-9.674300 0.000000
-9.654400 0.000000
-9.634500 0.000000
-9.614600 0.000000
-9.594800 0.000000
-9.574900 0.000000
-9.555000 0.000000
-9.535100 0.000000
-9.515200 0.000000
-9.495300 0.000000
-9.475400 0.000000
-9.455600 0.000000
-9.435700 0.000000
-9.415800 0.000000
-9.395900 0.000000
-9.376000 0.000000
-9.356100 0.000000
-9.336200 0.000000
-9.316400 0.000000
-9.296500 0.000000
-9.276600 0.000000
-9.256700 0.000000
-9.236800 0.000000
-9.216900 0.000000
-9.197000 0.000000
-9.177200 0.000000
-9.157300 0.000000
-9.137400 0.000000
-9.117500 0.000000
-9.097600 0.000000
-9.077700 0.000000
-9.057900 0.000000
-9.038000 0.000000
-9.018100 0.000000
-8.998200 0.000000
-8.978300 0.000000
-8.958400 0.000000
-8.938500 0.000000
-8.918700 0.000000
-8.898800 0.000000
-8.878900 0.000000
-8.859000 0.000000
-8.839100 0.000000
-8.819200 0.000000
-8.799300 0.000000
-8.779500 0.000000
-8.759600 0.000000
-8.739700 0.000000
-8.719800 0.000000
-8.699900 0.000000
-8.680000 0.000000
-8.660200 0.000000
-8.640300 0.000000
-8.620400 0.000000
-8.600500 0.000000
-8.580600 0.000000
-8.560700 0.000000
-8.540800 0.000000
-8.521000 0.000000
-8.501100 0.000000
-8.481200 0.000000
-8.461300 0.000000
-8.441400 0.000000
-8.421500 0.000000
-8.401600 0.000000
-8.381800 0.000000
-8.361900 0.000000
-8.342000 0.000000
-8.322100 0.000000
-8.302200 0.000000
-8.282300 0.000000
-8.262400 0.000000
-8.242600 0.000000
-8.222700 0.000000
-8.202800 0.000000
-8.182900 0.000000
-8.163000 0.000000
-8.143100 0.000000
-8.123300 0.000000
-8.103400 0.000000
-8.083500 0.000000
-8.063600 0.000000
-8.043700 0.000000
-8.023800 0.000000
-8.003900 0.000000
-7.984100 0.000000
-7.964200 0.000000
-7.944300 0.000000
-7.924400 0.000000
-7.904500 0.000000
-7.884600 0.000000
-7.864700 0.000000
-7.844900 0.000000
-7.825000 0.000000
-7.805100 0.000000
-7.785200 0.000000
-7.765300 0.000000
-7.745400 0.000000
-7.725600 0.000000
-7.705700 0.000000
-7.685800 0.000000
-7.665900 0.000000
-7.646000 0.000000
-7.626100 0.000000
-7.606200 0.000000
-7.586400 0.000000
-7.566500 0.000000
-7.546600 0.000000
-7.526700 0.000000
-7.506800 0.000000
-7.486900 0.000000
-7.467000 0.000000
-7.447200 0.000000
-7.427300 0.000000
-7.407400 0.000000
-7.387500 0.000000
-7.367600 0.000000
-7.347700 0.000000
-7.327800 0.000000
-7.308000 0.000000
-7.288100 0.000000
-7.268200 0.000000
-7.248300 0.000000
-7.228400 0.000000
-7.208500 0.000000
-7.188700 0.000000
-7.168800 0.000000
-7.148900 0.000000
-7.129000 0.000000
-7.109100 0.000000
-7.089200 0.000000
-7.069300 0.000000
-7.049500 0.000000
-7.029600 0.000000
-7.009700 0.000000
-6.989800 0.000000
-6.969900 0.000000
-6.950000 0.000000
-6.930100 0.000000
-6.910300 0.000000
-6.890400 0.000000
-6.870500 0.000000
-6.850600 0.000000
-6.830700 0.000000
-6.810800 0.000000
-6.791000 0.000000
-6.771100 0.000000
-6.751200 0.000000
-6.731300 0.000000
-6.711400 0.000000
-6.691500 0.000000
-6.671600 0.000000
-6.651800 0.000000
-6.631900 0.000000
-6.612000 0.000000
-6.592100 0.000000
-6.572200 0.000000
-6.552300 0.000000
-6.532400 0.000000
-6.512600 0.000000
-6.492700 0.000000
-6.472800 0.000000
-6.452900 0.000000
-6.433000 0.000000
-6.413100 0.000000
-6.393200 0.000000
-6.373400 0.000000
-6.353500 0.000000
-6.333600 0.000000
-6.313700 0.000000
-6.293800 10.516200
-6.273900 12.073300
-6.254100 12.345100
-6.234200 5.404600
-6.214300 3.729900
-6.194400 3.043000
-6.174500 2.021900
-6.154600 1.438400
-6.134700 1.436600
-6.114900 1.434800
-6.095000 1.433000
-6.075100 1.431200
-6.055200 1.429400
-6.035300 3.201000
-6.015400 3.099000
-5.995500 3.918800
-5.975700 4.790900
-5.955800 4.204400
-5.935900 4.092500
-5.916000 3.481200
-5.896100 3.119400
-5.876200 2.725800
-5.856300 2.602900
-5.836500 2.621800
-5.816600 2.639500
-5.796700 2.657200
-5.776800 2.675000
-5.756900 2.692900
-5.737000 2.710800
-5.717200 2.765900
-5.697300 2.783200
-5.677400 2.779900
-5.657500 2.776600
-5.637600 2.760300
-5.617700 2.671700
-5.597800 2.540400
-5.578000 2.403500
-5.558100 2.266600
-5.538200 2.141200
-5.518300 2.042200
-5.498400 1.983300
-5.478500 1.918900
-5.458600 1.853700
-5.438800 1.787800
-5.418900 1.721100
-5.399000 1.653700
-5.379100 1.587100
-5.359200 1.399600
-5.339300 1.198500
-5.319500 1.200700
-5.299600 1.201400
-5.279700 1.200700
-5.259800 1.198600
-5.239900 1.196400
-5.220000 1.194400
-5.200100 1.192400
-5.180300 1.190600
-5.160400 1.188900
-5.140500 1.211200
-5.120600 1.334700
-5.100700 1.484400
-5.080800 1.594200
-5.060900 1.757500
-5.041100 1.943000
-5.021200 2.068500
-5.001300 2.165600
-4.981400 2.209300
-4.961500 2.008400
-4.941600 1.974500
-4.921700 1.921600
-4.901900 1.872500
-4.882000 1.841000
-4.862100 1.613500
-4.842200 1.535300
-4.822300 1.486600
-4.802400 1.431000
-4.782600 1.368400
-4.762700 1.291300
-4.742800 1.182600
-4.722900 1.041800
-4.703000 0.873200
-4.683100 0.709700
-4.663200 0.685200
-4.643400 0.737100
-4.623500 0.865500
-4.603600 1.070400
-4.583700 1.824500
-4.563800 2.528800
-4.543900 3.581300
-4.524000 5.839300
-4.504200 4.250000
-4.484300 3.769000
-4.464400 3.902200
-4.444500 4.214500
-4.424600 3.840400
-4.404700 3.743200
-4.384900 3.623800
-4.365000 4.677300
-4.345100 2.966800
-4.325200 2.849900
-4.305300 2.734100
-4.285400 2.614100
-4.265500 2.507200
-4.245700 3.264300
-4.225800 3.644500
-4.205900 4.044700
-4.186000 6.528300
-4.166100 7.225000
-4.146200 3.853500
-4.126300 2.530600
-4.106500 2.425900
-4.086600 2.354200
-4.066700 2.306800
-4.046800 2.266000
-4.026900 2.228500
-4.007000 2.194400
-3.987100 2.163600
-3.967300 2.136100
-3.947400 2.112100
-3.927500 2.089000
-3.907600 2.057300
-3.887700 2.018800
-3.867800 1.973600
-3.848000 1.942500
-3.828100 1.909300
-3.808200 1.846300
-3.788300 1.753600
-3.768400 1.631100
-3.748500 1.505100
-3.728600 1.410900
-3.708800 1.304000
-3.688900 1.160800
-3.669000 1.041300
-3.649100 0.945700
-3.629200 0.873700
-3.609300 0.825600
-3.589400 0.801200
-3.569600 0.791500
-3.549700 0.781700
-3.529800 0.771100
-3.509900 0.758200
-3.490000 0.743000
-3.470100 0.725500
-3.450300 0.707700
-3.430400 0.692200
-3.410500 0.678700
-3.390600 0.666800
-3.370700 0.656400
-3.350800 0.651100
-3.330900 0.650600
-3.311100 0.650200
-3.291200 0.649800
-3.271300 0.649400
-3.251400 0.649100
-3.231500 0.648700
-3.211600 0.648300
-3.191700 0.647900
-3.171900 0.647600
-3.152000 0.647200
-3.132100 0.646900
-3.112200 0.646500
-3.092300 0.646200
-3.072400 0.645900
-3.052500 0.645600
-3.032700 0.645300
-3.012800 0.645000
-2.992900 0.644700
-2.973000 0.644400
-2.953100 0.654300
-2.933200 0.671000
-2.913400 0.690200
-2.893500 0.711800
-2.873600 0.735900
-2.853700 0.762500
-2.833800 0.791600
-2.813900 0.823100
-2.794000 0.857100
-2.774200 0.895500
-2.754300 0.951200
-2.734400 1.026700
-2.714500 1.121900
-2.694600 1.238900
-2.674700 1.422500
-2.654800 1.690700
-2.635000 2.043600
-2.615100 2.472700
-2.595200 3.537700
-2.575300 3.753300
-2.555400 3.240900
-2.535500 2.289100
-2.515600 1.850900
-2.495800 1.516300
-2.475900 1.212200
-2.456000 0.925000
-2.436100 0.703300
-2.416200 0.564600
-2.396300 0.475000
-2.376500 0.411800
-2.356600 0.365100
-2.336700 0.334800
-2.316800 0.320900
-2.296900 0.323600
-2.277000 0.342700
-2.257100 0.377800
-2.237300 0.420800
-2.217400 0.455800
-2.197500 0.490400
-2.177600 0.528700
-2.157700 0.570700
-2.137800 0.616300
-2.117900 0.665600
-2.098100 0.718700
-2.078200 0.775300
-2.058300 0.835700
-2.038400 0.899700
-2.018500 0.967500
-1.998600 1.038900
-1.978800 1.114900
-1.958900 1.242700
-1.939000 1.448900
-1.919100 1.733500
-1.899200 3.350900
-1.879300 2.884700
-1.859400 2.023700
-1.839600 1.606000
-1.819700 1.327900
-1.799800 1.014800
-1.779900 0.873800
-1.760000 0.801900
-1.740100 0.746100
-1.720200 0.700300
-1.700400 0.664700
-1.680500 0.639000
-1.660600 0.623500
-1.640700 0.617900
-1.620800 0.617900
-1.600900 0.617800
-1.581000 0.617800
-1.561200 0.617800
-1.541300 0.617700
-1.521400 0.617700
-1.501500 0.617600
-1.481600 0.617600
-1.461700 0.617500
-1.441900 0.617500
-1.422000 0.617500
-1.402100 0.617400
-1.382200 0.617400
-1.362300 0.617300
-1.342400 0.617300
-1.322500 0.617300
-1.302700 0.617200
-1.282800 0.617200
-1.262900 0.617200
-1.243000 0.617100
-1.223100 0.617100
-1.203200 0.617100
-1.183300 0.617000
-1.163500 0.617000
-1.143600 0.617000
-1.123700 0.617000
-1.103800 0.616900
-1.083900 0.616900
-1.064000 0.616900
-1.044200 0.616900
-1.024300 0.616800
-1.004400 0.616800
-0.984500 1.454800
-0.964600 1.879500
-0.944700 2.169800
-0.924800 2.481900
-0.905000 2.831400
-0.885100 3.169600
-0.865200 3.472900
-0.845300 3.692100
-0.825400 4.264300
-0.805500 4.302100
-0.785600 4.292500
-0.765800 4.283300
-0.745900 4.274400
-0.726000 4.265800
-0.706100 4.257600
-0.686200 5.340800
-0.666300 5.097300
-0.646400 4.875500
-0.626600 4.710000
-0.606700 4.842200
-0.586800 4.755700
-0.566900 4.692500
-0.547000 4.958500
-0.527100 5.201500
-0.507300 5.645500
-0.487400 5.774900
-0.467500 6.258900
-0.447600 6.481400
-0.427700 5.989000
-0.407800 6.043100
-0.387900 6.058800
-0.368100 6.345300
-0.348200 7.150700
-0.328300 7.963200
-0.308400 10.242200
-0.288500 12.851600
-0.268600 9.405200
-0.248700 8.751900
-0.228900 8.396500
-0.209000 8.540500
-0.189100 9.234500
-0.169200 7.418900
-0.149300 7.695400
-0.129400 8.305900
-0.109600 8.220300
-0.089700 8.078200
-0.069800 7.832500
-0.049900 7.594700
-0.030000 7.185000
-0.010100 6.825700
0.009800 6.487700
0.029600 5.982600
0.049500 5.917900
0.069400 5.591900
0.089300 5.318300
0.109200 5.217500
0.129100 6.374100
0.149000 5.195300
0.168800 3.611300
0.188700 2.790100
0.208600 2.436500
0.228500 2.117000
0.248400 1.831400
0.268300 1.334800
0.288200 1.323100
0.308000 1.315100
0.327900 1.310700
0.347800 3.427600
0.367700 2.853900
0.387600 3.107900
0.407500 3.361800
0.427300 4.645800
0.447200 3.709400
0.467100 3.948700
0.487000 4.696700
0.506900 4.482600
0.526800 4.207600
0.546700 4.048200
0.566500 3.876200
0.586400 3.722800
0.606300 3.606100
0.626200 3.755600
0.646100 4.874700
0.666000 7.362200
0.685900 6.761300
0.705700 6.668700
0.725600 6.480700
0.745500 6.510000
0.765400 6.928700
0.785300 7.087900
0.805200 6.811700
0.825100 8.636600
0.844900 10.841200
0.864800 11.181400
0.884700 10.753900
0.904600 9.138200
0.924500 10.754900
0.944400 8.825900
0.964200 7.423800
0.984100 4.079200
1.004000 3.046800
1.023900 3.435200
1.043800 5.665000
1.063700 9.124400
1.083600 6.750900
1.103400 5.316400
1.123300 5.197700
1.143200 5.149400
1.163100 5.433700
1.183000 5.855000
1.202900 6.029200
1.222800 6.125200
1.242600 6.174700
1.262500 6.221100
1.282400 6.304400
1.302300 6.304200
1.322200 6.309900
1.342100 6.720400
1.361900 8.417500
1.381800 6.702100
1.401700 6.080000
1.421600 6.175700
1.441500 6.307400
1.461400 6.908100
1.481300 7.621600
1.501100 7.359800
1.521000 6.273900
1.540900 5.218800
1.560800 4.791200
1.580700 4.112200
1.600600 3.585200
1.620500 4.570800
1.640300 4.296500
1.660200 4.050000
1.680100 3.719600
1.700000 3.830100
1.719900 4.673800
1.739800 6.530400
1.759700 6.639800
1.779500 6.657300
1.799400 6.604800
1.819300 7.616500
1.839200 7.800400
1.859100 7.913800
1.879000 7.896900
1.898800 7.989000
1.918700 8.262400
1.938600 7.655200
1.958500 7.112100
1.978400 7.010300
1.998300 7.055000
2.018200 7.302800
2.038000 7.651900
2.057900 9.607700
2.077800 10.959400
2.097700 9.955500
2.117600 8.706300
2.137500 8.120300
2.157400 7.420800
2.177200 6.828800
2.197100 6.365100
2.217000 5.935400
2.236900 5.737200
2.256800 5.643900
2.276700 5.065900
2.296500 4.726500
2.316400 4.389200
2.336300 4.090100
2.356200 3.792700
2.376100 3.327500
2.396000 3.036200
2.415900 3.098500
2.435700 3.201400
2.455600 3.343400
2.475500 3.787300
2.495400 4.406000
2.515300 4.008200
2.535200 4.113900
2.555100 4.184500
2.574900 3.839100
2.594800 3.367900
2.614700 3.051600
2.634600 2.415600
2.654500 2.098000
2.674400 2.559500
2.694300 3.081000
2.714100 3.640400
2.734000 4.375900
2.753900 5.103800
2.773800 6.006200
2.793700 7.619600
2.813600 8.114800
2.833400 9.913400
2.853300 10.370700
2.873200 9.405400
2.893100 8.371800
2.913000 7.500800
2.932900 7.753900
2.952800 6.559000
2.972600 5.002500
2.992500 4.235700
3.012400 3.360900
3.032300 3.347900
3.052200 4.917300
3.072100 6.169300
3.092000 7.484300
3.111800 8.558700
3.131700 9.130800
3.151600 9.387800
3.171500 10.399400
3.191400 12.700600
3.211300 13.456300
3.231200 8.892900
3.251000 7.579600
3.270900 7.303300
