set title 'mp-19 - Density of States'
set xlabel 'Energy (eV)'
set ylabel 'DOS (states/eV)'
set grid
set xrange [-10:10]
set yrange [0:5.178]
set xzeroaxis lt -1
set terminal png size 800,600
set output 'mp-19_dos_gnuplot.png'
plot '-' using 1:2 with lines title 'DOS'
-9.060100 0.000000
-9.046600 0.000000
-9.033100 0.000000
-9.019600 0.000000
-9.006000 0.000000
-8.992500 0.000000
-8.979000 0.000000
-8.965500 0.000000
-8.951900 0.000000
-8.938400 0.000000
-8.924900 0.000000
-8.911400 0.000000
-8.897900 0.000000
-8.884300 0.000000
-8.870800 0.000000
-8.857300 0.000000
-8.843800 0.000000
-8.830200 0.000000
-8.816700 0.000000
-8.803200 0.000000
-8.789700 0.000000
-8.776100 0.000000
-8.762600 0.000000
-8.749100 0.000000
-8.735600 0.000000
-8.722100 0.000000
-8.708500 0.000000
-8.695000 0.000000
-8.681500 0.000000
-8.668000 0.000000
-8.654400 0.000000
-8.640900 0.000000
-8.627400 0.000000
-8.613900 0.000000
-8.600400 0.000000
-8.586800 0.000000
-8.573300 0.000000
-8.559800 0.000000
-8.546300 0.000000
-8.532700 0.000000
-8.519200 0.000000
-8.505700 0.000000
-8.492200 0.000000
-8.478700 0.000000
-8.465100 0.000000
-8.451600 0.000000
-8.438100 0.000000
-8.424600 0.000000
-8.411000 0.000000
-8.397500 0.000000
-8.384000 0.000000
-8.370500 0.000000
-8.357000 0.000000
-8.343400 0.000000
-8.329900 0.000000
-8.316400 0.000000
-8.302900 0.000000
-8.289300 0.000000
-8.275800 0.000000
-8.262300 0.000000
-8.248800 0.000000
-8.235200 0.000000
-8.221700 0.000000
-8.208200 0.000000
-8.194700 0.000000
-8.181200 0.000000
-8.167600 0.000000
-8.154100 0.000000
-8.140600 0.000000
-8.127100 0.000000
-8.113500 0.000000
-8.100000 0.000000
-8.086500 0.000000
-8.073000 0.000000
-8.059500 0.000000
-8.045900 0.000000
-8.032400 0.000000
-8.018900 0.000000
-8.005400 0.000000
-7.991800 0.000000
-7.978300 0.000000
-7.964800 0.000000
-7.951300 0.000000
-7.937800 0.000000
-7.924200 0.000000
-7.910700 0.000000
-7.897200 0.000000
-7.883700 0.000000
-7.870100 0.000000
-7.856600 0.000000
-7.843100 0.000000
-7.829600 0.000300
-7.816100 0.038500
-7.802500 0.141600
-7.789000 0.227000
-7.775500 0.250800
-7.762000 0.269500
-7.748400 0.310700
-7.734900 0.353900
-7.721400 0.394800
-7.707900 0.424500
-7.694300 0.439300
-7.680800 0.452400
-7.667300 0.476400
-7.653800 0.501500
-7.640300 0.526600
-7.626700 0.551600
-7.613200 0.576900
-7.599700 0.600000
-7.586200 0.619800
-7.572600 0.640600
-7.559100 0.661600
-7.545600 0.678400
-7.532100 0.694700
-7.518600 0.713300
-7.505000 0.732200
-7.491500 0.751500
-7.478000 0.772000
-7.464500 0.793100
-7.450900 0.814800
-7.437400 0.835100
-7.423900 0.853200
-7.410400 0.871700
-7.396900 0.891600
-7.383300 0.911900
-7.369800 0.932100
-7.356300 0.951100
-7.342800 0.969300
-7.329200 0.988800
-7.315700 1.009100
-7.302200 1.029700
-7.288700 1.050300
-7.275200 1.071100
-7.261600 1.092300
-7.248100 1.113700
-7.234600 1.135500
-7.221100 1.157600
-7.207500 1.180100
-7.194000 1.204100
-7.180500 1.229300
-7.167000 1.255200
-7.153400 1.281400
-7.139900 1.308000
-7.126400 1.335100
-7.112900 1.394500
-7.099400 1.505800
-7.085800 1.497100
-7.072300 1.523300
-7.058800 1.550000
-7.045300 1.581200
-7.031700 1.613800
-7.018200 1.635100
-7.004700 1.659200
-6.991200 1.694300
-6.977700 1.733100
-6.964100 1.774500
-6.950600 1.817100
-6.937100 1.861100
-6.923600 1.902300
-6.910000 1.954300
-6.896500 2.015700
-6.883000 2.082600
-6.869500 2.171400
-6.856000 2.320400
-6.842400 2.791300
-6.828900 2.801000
-6.815400 2.629400
-6.801900 2.693600
-6.788300 2.775000
-6.774800 2.678200
-6.761300 2.686600
-6.747800 2.700600
-6.734300 2.723500
-6.720700 2.727300
-6.707200 2.681200
-6.693700 2.633600
-6.680200 2.615700
-6.666600 2.441600
-6.653100 2.298400
-6.639600 2.236200
-6.626100 2.163600
-6.612600 2.107100
-6.599000 2.052800
-6.585500 2.023800
-6.572000 1.995000
-6.558500 1.967700
-6.544900 1.940900
-6.531400 1.919200
-6.517900 1.897200
-6.504400 1.870300
-6.490800 1.866000
-6.477300 1.853600
-6.463800 1.841100
-6.450300 1.829300
-6.436800 1.811800
-6.423200 1.854600
-6.409700 1.690000
-6.396200 1.496100
-6.382700 1.421800
-6.369100 1.344200
-6.355600 1.261900
-6.342100 1.202100
-6.328600 1.161000
-6.315100 1.122800
-6.301500 1.087500
-6.288000 1.052100
-6.274500 1.038100
-6.261000 1.031400
-6.247400 0.999500
-6.233900 0.972700
-6.220400 0.959100
-6.206900 0.840500
-6.193400 0.874300
-6.179800 0.909000
-6.166300 0.945100
-6.152800 0.983000
-6.139300 1.022700
-6.125700 1.064300
-6.112200 1.112100
-6.098700 1.192000
-6.085200 1.284500
-6.071700 1.379600
-6.058100 1.488400
-6.044600 1.611900
-6.031100 2.034000
-6.017600 2.825300
-6.004000 1.507800
-5.990500 1.501600
-5.977000 1.494700
-5.963500 1.487400
-5.949900 1.479700
-5.936400 1.471800
-5.922900 1.463600
-5.909400 1.454800
-5.895900 1.445200
-5.882300 1.435000
-5.868800 1.424000
-5.855300 1.411300
-5.841800 1.392400
-5.828200 1.376700
-5.814700 1.371600
-5.801200 1.370500
-5.787700 1.369500
-5.774200 1.368600
-5.760600 1.367900
-5.747100 1.367400
-5.733600 1.367100
-5.720100 1.367000
-5.706500 1.367800
-5.693000 1.369500
-5.679500 1.372000
-5.666000 1.374900
-5.652500 1.378700
-5.638900 1.385600
-5.625400 1.397100
-5.611900 1.401700
-5.598400 1.400200
-5.584800 1.398800
-5.571300 1.397600
-5.557800 1.400800
-5.544300 1.411900
-5.530800 1.422600
-5.517200 1.433700
-5.503700 1.445500
-5.490200 1.457800
-5.476700 1.471600
-5.463100 1.488600
-5.449600 1.507700
-5.436100 1.528400
-5.422600 1.551700
-5.409000 1.656700
-5.395500 1.724000
-5.382000 1.793600
-5.368500 1.856600
-5.355000 1.931200
-5.341400 1.856700
-5.327900 1.781100
-5.314400 1.728600
-5.300900 1.694200
-5.287300 1.668800
-5.273800 1.648200
-5.260300 1.632900
-5.246800 1.622000
-5.233300 1.616800
-5.219700 1.590100
-5.206200 1.511300
-5.192700 1.451600
-5.179200 1.389400
-5.165600 1.323900
-5.152100 1.248100
-5.138600 1.155100
-5.125100 1.054800
-5.111600 0.904800
-5.098000 0.877500
-5.084500 0.830000
-5.071000 0.805800
-5.057500 0.744500
-5.043900 0.682800
-5.030400 0.630000
-5.016900 0.586200
-5.003400 0.548700
-4.989900 0.512800
-4.976300 0.478500
-4.962800 0.445700
-4.949300 0.414400
-4.935800 0.409000
-4.922200 0.404700
-4.908700 0.404600
-4.895200 0.405400
-4.881700 0.407200
-4.868100 0.410000
-4.854600 0.417600
-4.841100 0.432000
-4.827600 0.437200
-4.814100 0.453300
-4.800500 0.475100
-4.787000 0.502500
-4.773500 0.535900
-4.760000 0.571000
-4.746400 0.604800
-4.732900 0.645000
-4.719400 0.693600
-4.705900 0.750100
-4.692400 0.806400
-4.678800 0.868100
-4.665300 0.940800
-4.651800 1.060900
-4.638300 1.200300
-4.624700 1.417700
-4.611200 1.720800
-4.597700 1.940300
-4.584200 2.133200
-4.570700 2.338500
-4.557100 2.846400
-4.543600 3.128900
-4.530100 3.125500
-4.516600 3.146800
-4.503000 3.142800
-4.489500 3.133400
-4.476000 3.079700
-4.462500 3.116100
-4.449000 3.166400
-4.435400 3.215900
-4.421900 3.192500
-4.408400 3.185900
-4.394900 2.925900
-4.381300 2.998100
-4.367800 3.012000
-4.354300 3.037100
-4.340800 2.668500
-4.327200 2.376800
-4.313700 2.212600
-4.300200 2.066200
-4.286700 1.936800
-4.273200 1.833600
-4.259600 1.741900
-4.246100 1.682900
-4.232600 1.628800
-4.219100 1.578700
-4.205500 1.530800
-4.192000 1.484500
-4.178500 1.439400
-4.165000 1.394300
-4.151500 1.347900
-4.137900 1.305400
-4.124400 1.268600
-4.110900 1.235600
-4.097400 1.203500
-4.083800 1.172000
-4.070300 1.139800
-4.056800 1.108200
-4.043300 1.078100
-4.029800 1.049300
-4.016200 1.026400
-4.002700 1.003600
-3.989200 0.981000
-3.975700 0.958500
-3.962100 0.936700
-3.948600 0.916000
-3.935100 0.899000
-3.921600 0.882200
-3.908100 0.865600
-3.894500 0.849100
-3.881000 0.832600
-3.867500 0.816200
-3.854000 0.799600
-3.840400 0.783000
-3.826900 0.766100
-3.813400 0.748900
-3.799900 0.732100
-3.786300 0.715700
-3.772800 0.700000
-3.759300 0.684200
-3.745800 0.670000
-3.732300 0.658000
-3.718700 0.647000
-3.705200 0.635800
-3.691700 0.624000
-3.678200 0.612200
-3.664600 0.600400
-3.651100 0.588800
-3.637600 0.577200
-3.624100 0.565700
-3.610600 0.554300
-3.597000 0.542900
-3.583500 0.531600
-3.570000 0.519900
-3.556500 0.507000
-3.542900 0.495000
-3.529400 0.486400
-3.515900 0.477800
-3.502400 0.469200
-3.488900 0.460600
-3.475300 0.451900
-3.461800 0.443200
-3.448300 0.434200
-3.434800 0.425100
-3.421200 0.416100
-3.407700 0.407200
-3.394200 0.398100
-3.380700 0.389100
-3.367200 0.380300
-3.353600 0.371600
-3.340100 0.363300
-3.326600 0.355300
-3.313100 0.348200
-3.299500 0.342400
-3.286000 0.335900
-3.272500 0.328600
-3.259000 0.320800
-3.245400 0.313000
-3.231900 0.305200
-3.218400 0.297400
-3.204900 0.289600
-3.191400 0.283000
-3.177800 0.274500
-3.164300 0.265200
-3.150800 0.256200
-3.137300 0.247900
-3.123700 0.240400
-3.110200 0.233800
-3.096700 0.227700
-3.083200 0.221400
-3.069700 0.215200
-3.056100 0.208900
-3.042600 0.202500
-3.029100 0.196100
-3.015600 0.189900
-3.002000 0.184600
-2.988500 0.179900
-2.975000 0.175100
-2.961500 0.169500
-2.948000 0.161900
-2.934400 0.151400
-2.920900 0.141000
-2.907400 0.130800
-2.893900 0.120900
-2.880300 0.111300
-2.866800 0.102000
-2.853300 0.092900
-2.839800 0.084200
-2.826300 0.075700
-2.812700 0.093600
-2.799200 0.068200
-2.785700 0.045200
-2.772200 0.024700
-2.758600 0.006700
-2.745100 0.000000
-2.731600 0.000000
-2.718100 0.000000
-2.704500 0.000000
-2.691000 0.000000
-2.677500 0.000000
-2.664000 0.000000
-2.650500 0.000000
-2.636900 0.000000
-2.623400 0.000000
-2.609900 0.000000
-2.596400 0.000000
-2.582800 0.000000
-2.569300 0.000000
-2.555800 0.000000
-2.542300 0.000000
-2.528800 0.000000
-2.515200 0.000000
-2.501700 0.000000
-2.488200 0.000000
-2.474700 0.000000
-2.461100 0.000000
-2.447600 0.000000
-2.434100 0.000000
-2.420600 0.000000
-2.407100 0.000000
-2.393500 0.000000
-2.380000 0.000000
-2.366500 0.000000
-2.353000 0.000000
-2.339400 0.000000
-2.325900 0.000000
-2.312400 0.000000
-2.298900 0.000000
-2.285400 0.000000
-2.271800 0.000000
-2.258300 0.000000
-2.244800 0.000000
-2.231300 0.000000
-2.217700 0.000000
-2.204200 0.000000
-2.190700 0.000000
-2.177200 0.000000
-2.163600 0.000000
-2.150100 0.000000
-2.136600 0.000000
-2.123100 0.000000
-2.109600 0.000000
-2.096000 0.000000
-2.082500 0.000000
-2.069000 0.000000
-2.055500 0.000000
-2.041900 0.000000
-2.028400 0.000000
-2.014900 0.000000
-2.001400 0.000000
-1.987900 0.000000
-1.974300 0.000000
-1.960800 0.000000
-1.947300 0.000000
-1.933800 0.000000
-1.920200 0.000000
-1.906700 0.000000
-1.893200 0.000000
-1.879700 0.000000
-1.866200 0.000000
-1.852600 0.000000
-1.839100 0.000000
-1.825600 0.000000
-1.812100 0.000000
-1.798500 0.000000
-1.785000 0.000000
-1.771500 0.000000
-1.758000 0.000000
-1.744500 0.000000
-1.730900 0.000000
-1.717400 0.000000
-1.703900 0.000000
-1.690400 0.000000
-1.676800 0.000000
-1.663300 0.000000
-1.649800 0.000000
-1.636300 0.000000
-1.622700 0.000000
-1.609200 0.000000
-1.595700 0.000000
-1.582200 0.000000
-1.568700 0.000000
-1.555100 0.000000
-1.541600 0.000000
-1.528100 0.000000
-1.514600 0.000000
-1.501000 0.000000
-1.487500 0.000000
-1.474000 0.000000
-1.460500 0.000000
-1.447000 0.000000
-1.433400 0.000000
-1.419900 0.000000
-1.406400 0.000000
-1.392900 0.000000
-1.379300 0.000000
-1.365800 0.000000
-1.352300 0.000000
-1.338800 0.000000
-1.325300 0.000000
-1.311700 0.000000
-1.298200 0.000000
-1.284700 0.000000
-1.271200 0.000000
-1.257600 0.000000
-1.244100 0.000000
-1.230600 0.000000
-1.217100 0.000000
-1.203600 0.000000
-1.190000 0.000000
-1.176500 0.000000
-1.163000 0.000000
-1.149500 0.000000
-1.135900 0.000000
-1.122400 0.000000
-1.108900 0.000000
-1.095400 0.000000
-1.081800 0.000000
-1.068300 0.000000
-1.054800 0.000000
-1.041300 0.000000
-1.027800 0.000000
-1.014200 0.000000
-1.000700 0.000000
-0.987200 0.000000
-0.973700 0.000000
-0.960100 0.000000
-0.946600 0.000000
-0.933100 0.000000
-0.919600 0.000000
-0.906100 0.000000
-0.892500 0.000000
-0.879000 0.000000
-0.865500 0.000000
-0.852000 0.000000
-0.838400 0.000000
-0.824900 0.000000
-0.811400 0.000000
-0.797900 0.000000
-0.784400 0.000000
-0.770800 0.000000
-0.757300 0.000000
-0.743800 0.000000
-0.730300 0.000000
-0.716700 0.000000
-0.703200 0.000000
-0.689700 0.000000
-0.676200 0.000000
-0.662700 0.000000
-0.649100 0.000000
-0.635600 0.000000
-0.622100 0.000000
-0.608600 0.000000
-0.595000 0.000000
-0.581500 0.000000
-0.568000 0.000000
-0.554500 0.000000
-0.541000 0.000000
-0.527400 0.000000
-0.513900 0.000000
-0.500400 0.000000
-0.486900 0.000000
-0.473300 0.000000
-0.459800 0.000000
-0.446300 0.000000
-0.432800 0.000000
-0.419200 0.000000
-0.405700 0.000000
-0.392200 0.000000
-0.378700 0.000000
-0.365200 0.000000
-0.351600 0.000000
-0.338100 0.000000
-0.324600 0.000000
-0.311100 0.000000
-0.297500 0.000000
-0.284000 0.000000
-0.270500 0.000000
-0.257000 0.000000
-0.243500 0.000000
-0.229900 0.000000
-0.216400 0.000000
-0.202900 0.000000
-0.189400 0.000000
-0.175800 0.000000
-0.162300 0.000000
-0.148800 0.000000
-0.135300 0.000000
-0.121800 0.000000
-0.108200 0.000000
-0.094700 0.000000
-0.081200 0.000000
-0.067700 0.000000
-0.054100 0.000000
-0.040600 0.000000
-0.027100 0.000000
-0.013600 0.000000
-0.000100 0.000000
0.013500 0.000000
0.027000 0.000000
0.040500 0.000000
0.054000 0.000000
0.067600 0.000000
0.081100 0.000000
0.094600 0.000000
0.108100 0.000000
0.121700 0.017600
0.135200 0.092800
0.148700 0.188700
0.162200 0.268800
0.175700 0.330200
0.189300 0.382200
0.202800 0.444900
0.216300 0.497200
0.229800 0.489300
0.243400 0.523600
0.256900 0.566900
0.270400 0.612300
0.283900 0.659500
0.297400 0.706600
0.311000 0.742500
0.324500 0.763400
0.338000 0.803200
0.351500 0.846100
0.365100 0.886900
0.378600 0.925200
0.392100 0.962800
0.405600 0.999300
0.419100 1.034700
0.432700 1.079900
0.446200 1.137300
0.459700 1.200900
0.473200 1.270000
0.486800 1.344200
0.500300 1.424200
0.513800 1.545800
0.527300 1.866200
0.540800 1.772000
0.554400 1.716500
0.567900 1.616300
0.581400 1.604000
0.594900 1.605800
0.608500 1.603800
0.622000 1.568800
0.635500 1.545600
0.649000 1.554200
0.662600 1.569800
0.676100 1.584400
0.689600 1.599700
0.703100 1.616000
0.716600 1.632700
0.730200 1.645600
0.743700 1.649900
0.757200 2.006300
0.770700 1.936000
0.784300 1.890600
0.797800 1.924400
0.811300 1.978200
0.824800 2.042000
0.838300 2.112000
0.851900 2.187000
0.865400 2.266300
0.878900 2.353900
0.892400 2.475200
0.906000 2.676500
0.919500 2.894500
0.933000 3.097400
0.946500 3.260200
0.960000 3.334600
0.973600 3.319200
0.987100 3.174000
1.000600 2.869100
1.014100 2.689700
1.027700 2.605600
1.041200 2.517100
1.054700 2.429300
1.068200 2.314700
1.081700 2.297600
1.095300 2.304500
1.108800 2.334800
1.122300 2.416400
1.135800 2.849800
1.149400 3.125900
1.162900 3.119800
1.176400 3.285400
1.189900 3.417600
1.203500 3.560100
1.217000 3.737000
1.230500 4.089100
1.244000 4.443100
1.257500 4.707200
1.271100 4.646900
1.284600 4.475400
1.298100 4.327600
1.311600 4.297400
1.325200 4.065900
1.338700 3.842200
1.352200 3.427200
1.365700 3.106800
1.379200 3.014100
1.392800 2.931100
1.406300 2.857800
1.419800 2.795200
1.433300 2.740100
1.446900 2.698000
1.460400 2.668400
1.473900 2.642900
1.487400 2.617800
1.500900 2.587600
1.514500 2.554400
1.528000 2.520900
1.541500 2.485400
1.555000 2.449100
1.568600 2.416000
1.582100 2.385000
1.595600 2.356900
1.609100 2.339000
1.622600 2.328000
1.636200 2.319300
1.649700 2.312100
1.663200 2.301900
1.676700 2.291900
1.690300 2.294200
1.703800 2.302200
1.717300 2.320600
1.730800 2.319000
1.744400 2.311200
1.757900 2.298100
1.771400 2.395300
1.784900 2.186900
1.798400 2.112600
1.812000 2.073300
1.825500 2.033500
1.839000 1.992800
1.852500 1.952000
1.866100 1.910300
1.879600 1.858300
1.893100 1.824000
1.906600 1.794900
1.920100 1.776100
1.933700 1.762200
1.947200 1.762400
1.960700 1.774500
1.974200 1.784100
1.987800 1.963500
2.001300 2.270900
2.014800 2.551200
2.028300 2.855300
2.041800 3.067500
2.055400 3.230900
2.068900 3.481100
2.082400 3.615000
2.095900 3.933600
2.109500 4.226600
2.123000 4.363000
2.136500 4.403500
2.150000 4.323800
2.163500 4.017000
2.177100 3.654700
2.190600 3.385300
2.204100 3.180000
2.217600 3.065800
2.231200 2.991900
2.244700 2.929300
2.258200 2.874400
2.271700 2.823800
2.285300 2.773800
2.298800 2.703400
2.312300 2.659700
2.325800 2.615200
2.339300 2.585200
2.352900 2.507800
2.366400 2.378700
2.379900 2.266900
2.393400 2.199400
2.407000 2.156800
2.420500 2.122700
2.434000 2.080900
2.447500 2.053800
2.461000 2.028200
2.474600 2.006400
2.488100 1.984200
2.501600 1.962500
2.515100 1.940700
2.528700 2.185100
2.542200 2.139200
2.555700 2.127300
2.569200 2.125200
2.582700 2.144800
2.596300 2.190000
2.609800 2.232300
2.623300 2.280600
2.636800 2.519900
2.650400 2.367000
2.663900 2.434600
2.677400 2.420100
2.690900 2.293300
2.704400 2.220500
2.718000 2.162900
2.731500 2.106200
2.745000 2.037500
2.758500 1.981000
2.772100 1.940500
2.785600 1.917200
2.799100 1.964700
2.812600 1.901900
2.826200 1.873000
2.839700 1.840200
2.853200 1.805400
2.866700 1.743000
2.880200 1.712800
2.893800 1.668900
2.907300 1.655700
2.920800 1.629100
2.934300 1.610900
2.947900 1.603200
2.961400 1.597900
2.974900 1.684500
2.988400 1.616700
3.001900 1.534600
3.015500 1.514500
3.029000 1.513900
3.042500 1.494400
3.056000 1.437300
3.069600 1.343200
3.083100 1.269900
3.096600 1.236500
3.110100 1.246700
3.123600 1.266900
3.137200 1.294400
3.150700 1.326100
3.164200 1.354500
3.177700 1.378600
3.191300 1.408700
3.204800 1.433800
3.218300 1.453500
3.231800 1.485000
3.245300 1.584700
3.258900 1.727200
3.272400 1.809600
3.285900 1.893200
3.299400 2.002500
3.313000 2.071900
3.326500 2.118100
3.340000 2.146400
3.353500 2.167100
3.367100 2.181200
3.380600 2.165400
3.394100 2.145200
3.407600 2.137800
3.421100 2.120300
3.434700 2.096500
3.448200 2.073900
3.461700 2.058100
3.475200 2.109100
3.488800 2.205300
3.502300 2.214800
3.515800 2.240700
3.529300 2.245000
3.542800 2.220100
3.556400 2.184000
3.569900 2.167300
3.583400 2.186800
3.596900 2.204900
3.610500 2.228700
3.624000 2.281800
3.637500 2.342200
3.651000 2.410100
3.664500 2.484000
3.678100 2.559800
3.691600 2.632900
3.705100 2.677800
3.718600 2.703300
3.732200 2.697900
3.745700 2.651800
3.759200 2.630600
3.772700 2.621100
3.786200 2.614100
3.799800 2.615000
3.813300 2.621400
3.826800 2.629800
3.840300 2.637800
3.853900 2.645000
3.867400 2.666300
3.880900 2.692100
3.894400 2.719700
3.908000 2.751200
3.921500 2.799400
3.935000 2.840500
3.948500 2.877000
3.962000 2.934200
3.975600 2.994500
3.989100 3.045400
4.002600 3.085300
4.016100 3.110300
4.029700 3.123600
4.043200 3.121600
4.056700 3.125500
4.070200 3.142000
4.083700 3.125500
4.097300 3.049000
4.110800 2.913100
4.124300 2.879500
4.137800 2.861300
4.151400 2.867100
4.164900 2.873100
4.178400 2.884800
4.191900 2.897900
4.205400 2.913100
4.219000 2.929100
4.232500 2.945100
4.246000 2.961700
4.259500 2.983300
4.273100 3.029200
4.286600 3.115300
4.300100 3.165400
4.313600 3.188500
4.327100 3.197700
4.340700 3.195300
4.354200 3.183200
4.367700 3.161000
4.381200 3.134600
4.394800 3.124400
4.408300 3.130900
4.421800 3.143700
4.435300 3.158700
4.448900 3.182700
4.462400 3.229000
4.475900 3.329400
4.489400 3.443500
4.502900 3.584900
4.516500 3.643000
4.530000 3.607800
4.543500 3.569200
4.557000 3.517200
4.570600 3.477700
4.584100 3.476000
4.597600 3.459500
4.611100 3.473300
4.624600 3.470600
4.638200 3.455500
4.651700 3.404500
4.665200 3.366700
4.678700 3.328100
4.692300 3.271300
4.705800 3.200800
4.719300 3.172000
4.732800 3.097400
4.746300 3.022900
4.759900 2.996200
4.773400 2.882400
4.786900 2.686100
4.800400 2.607000
4.814000 2.610700
4.827500 2.541600
4.841000 2.399900
4.854500 2.359000
4.868000 2.241100
4.881600 2.134900
4.895100 2.045000
4.908600 1.962800
4.922100 1.894700
4.935700 1.854100
4.949200 1.825400
4.962700 1.790500
4.976200 1.790100
4.989800 1.720500
5.003300 1.612700
5.016800 1.527100
5.030300 1.483700
5.043800 1.464600
5.057400 1.444500
5.070900 1.417600
5.084400 1.384500
5.097900 1.358900
5.111500 1.330900
5.125000 1.296900
5.138500 1.258500
5.152000 1.222400
5.165500 1.177500
5.179100 1.144900
5.192600 1.124700
5.206100 1.102400
5.219600 1.087200
5.233200 1.083400
