set title 'mp-995193 - Density of States'
set xlabel 'Energy (eV)'
set ylabel 'DOS (states/eV)'
set grid
set xrange [-10:10]
set yrange [0:33.836]
set xzeroaxis lt -1
set terminal png size 800,600
set output 'mp-995193_dos_gnuplot.png'
plot '-' using 1:2 with lines title 'DOS'
-8.859900 0.000000
-8.844000 0.000000
-8.828000 0.000000
-8.812100 0.000000
-8.796200 0.000000
-8.780200 0.000000
-8.764300 0.000000
-8.748300 0.000000
-8.732400 0.000000
-8.716500 0.000000
-8.700500 0.000000
-8.684600 0.000000
-8.668600 0.000000
-8.652700 0.000000
-8.636800 0.000000
-8.620800 0.000000
-8.604900 0.000000
-8.588900 0.000000
-8.573000 0.000000
-8.557100 0.000000
-8.541100 0.000000
-8.525200 0.000000
-8.509200 0.000000
-8.493300 0.000000
-8.477400 0.000000
-8.461400 0.000000
-8.445500 0.000000
-8.429600 0.000000
-8.413600 0.000000
-8.397700 0.000000
-8.381700 0.000000
-8.365800 0.000000
-8.349900 0.000000
-8.333900 0.000000
-8.318000 0.000000
-8.302000 0.000000
-8.286100 0.000000
-8.270200 0.000000
-8.254200 0.000000
-8.238300 0.000000
-8.222300 0.000000
-8.206400 0.000000
-8.190500 0.000000
-8.174500 0.000000
-8.158600 0.000000
-8.142600 0.000000
-8.126700 0.000000
-8.110800 0.000000
-8.094800 0.000000
-8.078900 0.000000
-8.062900 0.000000
-8.047000 0.000000
-8.031100 0.000000
-8.015100 0.000000
-7.999200 0.000000
-7.983200 0.000000
-7.967300 0.000000
-7.951400 0.000000
-7.935400 0.000000
-7.919500 0.000000
-7.903500 0.000000
-7.887600 0.000000
-7.871700 0.000000
-7.855700 0.000000
-7.839800 0.000000
-7.823800 0.000000
-7.807900 0.000000
-7.792000 0.000000
-7.776000 0.000000
-7.760100 0.000000
-7.744100 0.000000
-7.728200 0.000000
-7.712300 0.000000
-7.696300 0.000000
-7.680400 0.000000
-7.664400 0.000000
-7.648500 0.000000
-7.632600 0.000000
-7.616600 0.000000
-7.600700 0.000000
-7.584700 0.000000
-7.568800 0.000000
-7.552900 0.000000
-7.536900 0.000000
-7.521000 0.000000
-7.505000 0.000000
-7.489100 0.000000
-7.473200 0.000000
-7.457200 0.000000
-7.441300 0.000000
-7.425300 0.000000
-7.409400 0.000100
-7.393500 0.017300
-7.377500 0.063700
-7.361600 0.134200
-7.345600 0.207300
-7.329700 0.280400
-7.313800 0.353500
-7.297800 0.426600
-7.281900 0.499700
-7.265900 0.572800
-7.250000 0.645900
-7.234100 0.718900
-7.218100 0.792000
-7.202200 0.865100
-7.186200 0.938200
-7.170300 0.883900
-7.154400 0.721900
-7.138400 0.550100
-7.122500 0.556800
-7.106500 0.563500
-7.090600 0.570200
-7.074700 0.576800
-7.058700 0.583500
-7.042800 0.590200
-7.026800 0.596800
-7.010900 0.603500
-6.995000 0.610200
-6.979000 0.616900
-6.963100 0.623500
-6.947100 0.630200
-6.931200 0.636900
-6.915300 0.643500
-6.899300 0.650200
-6.883400 0.656900
-6.867400 0.663600
-6.851500 0.670200
-6.835600 0.677500
-6.819600 0.691900
-6.803700 0.715400
-6.787700 0.747900
-6.771800 0.789400
-6.755900 0.839900
-6.739900 0.899500
-6.724000 0.967900
-6.708000 1.042100
-6.692100 1.115400
-6.676200 1.184900
-6.660200 1.254100
-6.644300 1.323400
-6.628300 1.392600
-6.612400 1.458300
-6.596500 1.460200
-6.580500 1.453900
-6.564600 1.439500
-6.548600 1.416900
-6.532700 1.386100
-6.516800 1.347200
-6.500800 1.300700
-6.484900 1.249400
-6.468900 1.241300
-6.453000 1.252000
-6.437100 1.262800
-6.421100 1.273500
-6.405200 1.284300
-6.389200 1.295100
-6.373300 1.305800
-6.357400 1.316600
-6.341400 1.327300
-6.325500 1.338100
-6.309500 1.348900
-6.293600 1.359600
-6.277700 1.370400
-6.261700 1.381100
-6.245800 1.391900
-6.229800 1.402600
-6.213900 1.413400
-6.198000 1.424200
-6.182000 1.434900
-6.166100 1.445700
-6.150100 1.455500
-6.134200 1.463900
-6.118300 1.470800
-6.102300 1.476200
-6.086400 1.480100
-6.070400 1.482600
-6.054500 1.483600
-6.038600 1.483100
-6.022600 1.481500
-6.006700 1.480000
-5.990700 1.478400
-5.974800 1.481600
-5.958900 1.492800
-5.942900 1.512200
-5.927000 1.540600
-5.911000 1.578100
-5.895100 1.624700
-5.879200 1.679700
-5.863200 1.736800
-5.847300 1.806700
-5.831300 1.892500
-5.815400 1.984200
-5.799500 2.075900
-5.783500 2.167500
-5.767600 2.258800
-5.751600 2.303800
-5.735700 2.331600
-5.719800 2.352400
-5.703800 2.366100
-5.687900 2.372700
-5.671900 2.372300
-5.656000 2.364800
-5.640100 2.350300
-5.624100 2.328700
-5.608200 2.314800
-5.592200 2.338900
-5.576300 2.363000
-5.560400 2.387100
-5.544400 2.597500
-5.528500 2.819800
-5.512500 2.937500
-5.496600 2.911300
-5.480700 2.885200
-5.464700 2.859100
-5.448800 2.833000
-5.432800 2.806800
-5.416900 2.780700
-5.401000 2.754600
-5.385000 2.728400
-5.369100 2.702300
-5.353100 2.676200
-5.337200 2.649700
-5.321300 2.623600
-5.305300 2.598300
-5.289400 2.573400
-5.273400 2.548700
-5.257500 2.524400
-5.241600 2.500400
-5.225600 2.476600
-5.209700 2.453300
-5.193700 2.430100
-5.177800 2.405800
-5.161900 2.380300
-5.145900 2.354600
-5.130000 2.328800
-5.114000 2.306200
-5.098100 2.325200
-5.082200 2.397800
-5.066200 2.499200
-5.050300 2.601800
-5.034300 2.713400
-5.018400 2.890200
-5.002500 3.060600
-4.986500 3.224500
-4.970600 3.381900
-4.954600 3.532900
-4.938700 4.168000
-4.922800 3.587700
-4.906800 2.283400
-4.890900 2.243600
-4.874900 2.203800
-4.859000 2.163900
-4.843100 2.124000
-4.827100 2.084000
-4.811200 2.043900
-4.795200 2.003800
-4.779300 1.963600
-4.763400 1.923400
-4.747400 1.883100
-4.731500 1.842700
-4.715500 1.802300
-4.699600 1.761800
-4.683700 1.721300
-4.667700 1.680700
-4.651800 1.640000
-4.635800 1.599300
-4.619900 1.564800
-4.604000 1.551200
-4.588000 1.559100
-4.572100 1.588600
-4.556100 1.639600
-4.540200 1.712200
-4.524300 1.806300
-4.508300 1.920600
-4.492400 2.051100
-4.476400 2.524100
-4.460500 2.387500
-4.444600 2.234100
-4.428600 2.063800
-4.412700 1.876600
-4.396700 1.672600
-4.380800 1.451800
-4.364900 1.020000
-4.348900 1.051100
-4.333000 1.077900
-4.317000 1.104800
-4.301100 1.131800
-4.285200 1.159000
-4.269200 1.186300
-4.253300 1.213700
-4.237300 1.241300
-4.221400 1.312000
-4.205500 1.408300
-4.189500 1.494900
-4.173600 1.571700
-4.157600 1.638800
-4.141700 1.696200
-4.125800 1.743900
-4.109800 1.781900
-4.093900 1.810100
-4.077900 1.828600
-4.062000 1.783600
-4.046100 1.713200
-4.030100 1.641900
-4.014200 1.569900
-3.998200 1.497000
-3.982300 1.423500
-3.966400 1.349100
-3.950400 1.274000
-3.934500 1.198100
-3.918500 1.121500
-3.902600 1.046300
-3.886700 1.002300
-3.870700 0.998300
-3.854800 1.034300
-3.838800 1.110400
-3.822900 1.226500
-3.807000 1.382700
-3.791000 1.939900
-3.775100 1.833100
-3.759100 1.651900
-3.743200 1.410500
-3.727300 1.109000
-3.711300 0.747400
-3.695400 13.199600
-3.679400 0.694700
-3.663500 0.752100
-3.647600 0.809600
-3.631600 0.867100
-3.615700 0.924500
-3.599700 0.981900
-3.583800 1.039300
-3.567900 1.096600
-3.551900 1.154000
-3.536000 1.211300
-3.520000 1.268700
-3.504100 1.325900
-3.488200 1.383200
-3.472200 1.440500
-3.456300 1.497700
-3.440300 1.555000
-3.424400 1.612200
-3.408500 1.669400
-3.392500 1.726500
-3.376600 1.619900
-3.360600 1.163400
-3.344700 1.064900
-3.328800 1.056800
-3.312800 1.048800
-3.296900 1.040800
-3.280900 1.032700
-3.265000 1.024600
-3.249100 1.016500
-3.233100 1.008400
-3.217200 1.000300
-3.201200 0.992200
-3.185300 0.984000
-3.169400 0.975900
-3.153400 0.967700
-3.137500 0.959500
-3.121500 0.951300
-3.105600 0.943100
-3.089700 0.934900
-3.073700 0.926700
-3.057800 0.918400
-3.041800 0.910100
-3.025900 0.901900
-3.010000 0.893600
-2.994000 0.885300
-2.978100 0.876900
-2.962100 0.868600
-2.946200 0.860300
-2.930300 0.851900
-2.914300 0.883100
-2.898400 0.916100
-2.882400 0.947600
-2.866500 0.977400
-2.850600 1.005700
-2.834600 1.023800
-2.818700 1.019300
-2.802700 1.014700
-2.786800 1.010000
-2.770900 1.009500
-2.754900 1.036700
-2.739000 1.212500
-2.723000 1.556600
-2.707100 2.068900
-2.691200 2.749500
-2.675200 3.605200
-2.659300 4.478900
-2.643300 4.499200
-2.627400 4.369500
-2.611500 4.089600
-2.595500 3.476500
-2.579600 3.745900
-2.563600 3.939900
-2.547700 3.913500
-2.531800 3.748900
-2.515800 3.557500
-2.499900 3.339200
-2.484000 3.094200
-2.468000 2.891300
-2.452100 2.833900
-2.436100 2.777300
-2.420200 2.721400
-2.404300 2.666300
-2.388300 2.612000
-2.372400 2.558400
-2.356400 2.505500
-2.340500 2.453400
-2.324600 2.402100
-2.308600 2.351500
-2.292700 2.301700
-2.276700 2.252600
-2.260800 2.204200
-2.244900 2.152900
-2.228900 2.097400
-2.213000 2.037800
-2.197000 1.974000
-2.181100 1.906000
-2.165200 1.833800
-2.149200 1.757400
-2.133300 1.676800
-2.117300 1.592100
-2.101400 1.500800
-2.085500 1.378000
-2.069500 1.267800
-2.053600 1.446000
-2.037600 2.103300
-2.021700 2.835500
-2.005800 2.946900
-1.989800 3.071400
-1.973900 3.131900
-1.957900 2.946200
-1.942000 2.506700
-1.926100 1.777300
-1.910100 1.824100
-1.894200 1.871200
-1.878200 1.918600
-1.862300 1.966900
-1.846400 2.019500
-1.830400 2.076900
-1.814500 2.139000
-1.798500 2.205900
-1.782600 2.277500
-1.766700 2.353800
-1.750700 2.438600
-1.734800 2.540200
-1.718800 2.624800
-1.702900 2.564300
-1.687000 2.502100
-1.671000 2.436500
-1.655100 2.365500
-1.639100 2.365500
-1.623200 2.319700
-1.607300 2.272500
-1.591300 2.226200
-1.575400 2.180700
-1.559400 2.136200
-1.543500 2.092600
-1.527600 2.049900
-1.511600 2.008200
-1.495700 1.967300
-1.479700 1.927300
-1.463800 1.888300
-1.447900 1.850100
-1.431900 1.812900
-1.416000 1.776600
-1.400000 1.741200
-1.384100 1.706700
-1.368200 1.673100
-1.352200 1.640400
-1.336300 1.608600
-1.320300 1.577700
-1.304400 1.547300
-1.288500 1.517000
-1.272500 1.486900
-1.256600 1.457000
-1.240600 1.427200
-1.224700 1.397600
-1.208800 1.368300
-1.192800 1.339000
-1.176900 1.310000
-1.160900 1.281200
-1.145000 1.252500
-1.129100 1.218900
-1.113100 1.162100
-1.097200 1.106800
-1.081200 1.082500
-1.065300 1.061000
-1.049400 1.039700
-1.033400 1.018500
-1.017500 0.997600
-1.001500 0.976900
-0.985600 0.956400
-0.969700 0.936100
-0.953700 0.916100
-0.937800 0.896300
-0.921800 0.876800
-0.905900 0.857400
-0.890000 0.838300
-0.874000 0.819500
-0.858100 0.800800
-0.842100 0.782400
-0.826200 0.764200
-0.810300 0.746300
-0.794300 0.728600
-0.778400 0.711100
-0.762400 0.693800
-0.746500 0.676800
-0.730600 0.660000
-0.714600 0.619000
-0.698700 0.561400
-0.682700 0.533700
-0.666800 0.529600
-0.650900 0.527400
-0.634900 0.525100
-0.619000 0.522900
-0.603000 0.520700
-0.587100 0.518500
-0.571200 0.516300
-0.555200 0.514100
-0.539300 0.512000
-0.523300 0.510000
-0.507400 0.508100
-0.491500 0.506300
-0.475500 0.504600
-0.459600 0.503000
-0.443600 0.525300
-0.427700 0.603500
-0.411800 0.685900
-0.395800 0.772600
-0.379900 0.863600
-0.363900 0.958800
-0.348000 1.058300
-0.332100 1.162100
-0.316100 1.272200
-0.300200 1.489400
-0.284200 1.869500
-0.268300 2.412600
-0.252400 3.118500
-0.236400 3.987200
-0.220500 6.902900
-0.204500 4.562300
-0.188600 4.259500
-0.172700 4.219600
-0.156700 4.171200
-0.140800 4.114500
-0.124800 4.049500
-0.108900 3.976200
-0.093000 3.894800
-0.077000 3.805300
-0.061100 3.707500
-0.045100 3.523700
-0.029200 3.261200
-0.013300 2.929300
0.002700 2.528000
0.018600 2.334400
0.034600 2.161400
0.050500 2.058500
0.066400 2.025700
0.082400 2.062900
0.098300 2.160600
0.114300 2.629500
0.130200 2.892100
0.146100 3.129700
0.162100 3.342200
0.178000 3.529600
0.194000 3.691900
0.209900 3.829100
0.225800 3.938600
0.241800 4.022900
0.257700 4.086800
0.273700 4.130200
0.289600 4.143000
0.305500 4.265900
0.321500 4.238700
0.337400 4.191200
0.353400 3.967600
0.369300 3.860300
0.385200 4.451300
0.401200 4.378100
0.417100 4.313900
0.433100 4.258900
0.449000 4.213000
0.464900 4.169200
0.480900 4.110200
0.496800 4.035300
0.512800 3.944500
0.528700 3.837900
0.544600 3.715300
0.560600 3.576700
0.576500 30.760400
0.592500 3.684000
0.608400 3.604700
0.624300 3.533400
0.640300 3.470200
0.656200 3.415100
0.672200 3.367900
0.688100 3.328900
0.704000 3.298600
0.720000 3.267700
0.735900 3.236500
0.751900 3.205100
0.767800 3.173400
0.783700 3.141400
0.799700 3.109100
0.815600 3.076800
0.831600 3.045500
0.847500 3.015400
0.863400 2.986400
0.879400 2.958500
0.895300 2.931900
0.911300 2.906300
0.927200 2.881900
0.943100 2.837900
0.959100 2.771500
0.975000 2.746500
0.991000 2.748300
1.006900 2.750800
1.022800 2.754000
1.038800 2.757900
1.054700 2.762300
1.070700 3.523900
1.086600 3.665200
1.102500 3.810900
1.118500 3.960900
1.134400 3.250600
1.150400 3.270900
1.166300 3.293800
1.182200 3.319200
1.198200 3.347200
1.214100 3.380600
1.230100 3.432000
1.246000 3.503200
1.261900 3.593800
1.277900 3.693900
1.293800 3.795200
1.309800 3.897800
1.325700 4.001700
1.341600 4.106500
1.357600 4.211800
1.373500 4.317500
1.389500 4.423700
1.405400 4.653200
1.421300 4.790200
1.437300 4.813400
1.453200 4.827600
1.469200 4.832700
1.485100 4.828800
1.501000 4.815900
1.517000 4.793900
1.532900 4.762900
1.548900 4.680400
1.564800 4.552700
1.580700 4.437800
1.596700 4.368600
1.612600 4.365000
1.628600 4.364700
1.644500 4.362300
1.660400 4.540400
1.676400 4.234300
1.692300 4.070400
1.708300 4.143800
1.724200 4.248000
1.740100 4.361000
1.756100 4.448000
1.772000 4.507800
1.788000 4.544500
1.803900 4.582200
1.819800 4.624100
1.835800 4.670000
1.851700 4.720100
1.867700 4.774300
1.883600 4.832700
1.899500 4.895200
1.915500 4.966300
1.931400 5.192000
1.947400 5.106800
1.963300 5.068400
1.979200 5.076800
1.995200 5.131900
2.011100 5.226800
2.027100 5.272600
2.043000 6.948000
2.058900 7.938600
2.074900 8.381300
2.090800 8.923700
2.106800 8.895200
2.122700 7.775100
2.138600 7.363400
2.154600 7.318600
2.170500 6.857400
2.186500 6.613500
2.202400 6.206700
2.218300 5.629700
2.234300 5.193800
2.250200 5.134900
2.266200 5.079700
2.282100 5.027700
2.298000 4.959400
2.314000 4.871700
2.329900 4.788500
2.345900 4.710000
2.361800 4.636300
2.377700 4.567200
2.393700 4.502900
2.409600 4.442900
2.425600 4.385700
2.441500 4.331000
2.457400 4.278800
2.473400 4.229100
2.489300 4.185100
2.505300 4.157300
2.521200 4.127800
2.537100 4.095700
2.553100 4.061100
2.569000 4.024000
2.585000 3.984900
2.600900 3.945200
2.616800 3.905200
2.632800 3.867300
2.648700 3.831600
2.664700 3.798100
2.680600 3.766800
2.696500 3.829800
2.712500 3.990300
2.728400 3.949500
2.744400 3.909800
2.760300 3.869400
2.776200 3.828200
2.792200 3.767900
2.808100 3.549900
2.824100 3.339700
2.840000 3.265500
2.855900 3.191100
2.871900 3.116600
2.887800 3.042100
2.903800 2.967500
2.919700 2.892900
2.935600 2.814300
2.951600 2.734800
2.967500 2.653400
2.983500 2.571100
2.999400 2.494000
3.015300 2.426400
3.031300 2.358600
3.047200 2.284400
3.063200 2.210500
3.079100 2.136700
3.095000 2.063100
3.111000 1.990200
3.126900 1.923300
3.142900 1.859200
3.158800 1.797800
3.174700 1.742000
3.190700 1.696900
3.206600 1.619000
3.222600 1.430900
3.238500 1.280000
3.254400 1.249100
3.270400 1.218200
3.286300 1.187300
3.302300 1.156400
3.318200 1.125500
3.334100 1.094500
3.350100 1.063600
3.366000 1.032700
3.382000 1.001700
3.397900 0.970800
3.413800 0.939900
3.429800 0.908900
3.445700 0.877900
3.461600 0.847000
3.477600 0.816000
3.493500 0.785000
3.509500 0.754000
3.525400 0.723000
3.541300 0.692000
3.557300 0.661000
3.573200 0.630000
3.589200 0.599000
3.605100 0.568200
3.621000 0.544000
3.637000 0.528500
3.652900 0.514600
3.668900 0.500800
3.684800 0.486900
3.700700 0.473000
3.716700 0.459200
3.732600 0.445300
3.748600 0.431400
3.764500 0.417600
3.780400 0.447300
3.796400 0.629700
3.812300 0.697900
3.828300 0.667200
3.844200 0.636600
3.860100 0.605900
3.876100 0.575300
3.892000 0.544600
3.908000 0.513900
3.923900 0.483300
3.939800 0.452600
3.955800 0.421900
3.971700 0.391200
3.987700 0.360600
4.003600 0.329900
4.019500 0.299200
4.035500 0.268500
4.051400 0.237800
4.067400 0.207200
4.083300 0.176500
4.099200 0.145800
4.115200 0.115100
4.131100 0.084400
4.147100 0.053700
4.163000 0.023000
4.178900 0.002600
4.194900 0.000000
4.210800 0.000000
4.226800 0.000000
4.242700 0.000000
4.258600 0.000000
4.274600 0.000000
4.290500 0.000000
4.306500 0.000000
4.322400 0.000000
4.338300 0.000000
4.354300 0.000000
4.370200 0.000000
4.386200 0.000000
4.402100 0.000000
4.418000 0.000000
4.434000 0.000000
4.449900 0.000000
4.465900 0.000000
4.481800 0.000000
4.497700 0.000000
4.513700 0.000000
4.529600 0.000000
4.545600 0.000000
4.561500 0.000000
4.577400 0.000000
4.593400 0.000000
4.609300 0.000000
4.625300 0.000000
4.641200 0.000000
4.657100 0.000000
4.673100 0.000000
4.689000 0.000000
4.705000 0.000000
4.720900 0.000000
4.736800 0.000000
4.752800 0.000000
4.768700 0.000000
4.784700 0.000000
4.800600 0.000000
4.816500 0.000000
4.832500 0.000000
4.848400 0.000000
4.864400 0.000000
4.880300 0.000000
4.896200 0.000000
4.912200 0.000000
4.928100 0.000000
4.944100 0.000000
4.960000 0.000000
4.975900 0.000000
4.991900 0.000000
5.007800 0.000000
5.023800 0.000000
5.039700 0.000000
5.055600 0.000000
5.071600 0.000000
5.087500 0.000000
5.103500 0.000000
5.119400 0.008800
5.135300 0.229300
5.151300 0.254900
5.167200 0.280500
5.183200 0.306000
5.199100 0.331500
5.215000 0.356900
5.231000 0.382300
5.246900 0.407700
5.262900 0.433000
5.278800 0.458300
5.294700 0.483600
5.310700 0.508800
5.326600 0.534000
5.342600 0.559100
5.358500 0.584200
5.374400 0.609100
5.390400 0.631800
5.406300 0.651600
5.422300 0.668500
5.438200 0.682500
5.454100 0.694700
5.470100 0.707000
5.486000 0.719200
5.502000 0.731400
5.517900 0.743600
5.533800 0.758100
5.549800 0.777800
5.565700 0.802800
5.581700 0.833000
5.597600 0.865900
5.613500 0.898800
5.629500 0.931700
5.645400 1.320700
5.661400 1.382600
5.677300 1.444400
5.693200 1.506200
5.709200 1.568000
5.725100 1.629700
5.741100 1.691300
5.757000 1.752900
5.772900 1.814500
5.788900 1.876000
5.804800 1.937500
5.820800 1.998900
5.836700 2.060300
5.852600 2.121600
5.868600 2.182900
5.884500 2.244100
5.900500 2.305300
5.916400 2.365100
5.932300 2.422600
5.948300 2.473600
5.964200 2.474700
5.980200 2.464200
5.996100 2.443900
6.012000 2.414000
6.028000 2.382400
6.043900 2.387200
6.059900 2.392100
6.075800 2.403200
6.091700 2.456500
6.107700 2.694000
6.123600 2.902300
6.139600 3.131600
6.155500 3.382100
6.171400 3.653800
6.187400 3.946600
6.203300 4.260500
6.219300 4.595600
6.235200 4.932100
6.251100 5.227300
6.267100 5.467200
6.283000 5.684100
6.299000 5.883500
6.314900 6.066300
6.330800 6.232500
6.346800 8.566200
6.362700 7.401200
6.378700 5.606200
6.394600 4.039400
6.410500 3.938200
6.426500 3.999200
6.442400 4.068100
6.458400 4.144800
6.474300 4.229500
6.490200 4.319200
6.506200 4.389800
6.522100 4.435800
6.538100 4.556100
6.554000 4.693200
6.569900 4.913900
6.585900 5.168100
6.601800 5.392700
6.617800 6.668600
6.633700 6.190800
6.649600 6.268800
6.665600 6.298000
6.681500 5.972300
6.697500 5.663100
6.713400 5.374600
6.729300 5.107600
6.745300 4.862300
6.761200 4.651300
6.777200 4.490700
6.793100 4.374700
6.809000 4.365500
6.825000 4.472500
6.840900 4.676400
6.856900 4.900400
6.872800 5.134100
6.888700 5.377500
6.904700 5.630800
6.920600 5.893100
6.936600 6.148700
6.952500 6.391300
6.968400 6.767800
6.984400 7.447300
7.000300 7.946900
7.016300 8.190700
7.032200 7.763900
7.048100 6.800900
7.064100 5.925900
7.080000 5.157000
7.096000 4.654100
7.111900 4.328600
7.127800 4.173500
7.143800 4.079400
7.159700 4.009300
7.175700 3.964100
7.191600 3.944000
7.207500 3.948600
7.223500 4.109000
7.239400 4.265500
7.255400 4.418000
7.271300 4.562400
7.287200 4.696900
7.303200 4.886100
7.319100 5.114600
7.335100 5.334700
7.351000 5.546400
7.366900 5.749600
7.382900 5.874500
7.398800 5.797200
7.414800 7.743400
7.430700 8.374800
7.446600 7.298700
7.462600 5.710800
7.478500 4.605700
7.494500 3.887600
7.510400 3.378200
7.526300 3.164800
7.542300 3.203900
7.558200 3.674100
7.574200 4.263500
7.590100 4.236400
7.606000 4.138100
7.622000 4.042000
7.637900 3.956900
7.653900 3.917500
7.669800 3.829800
7.685700 3.742200
7.701700 3.654700
7.717600 3.567300
7.733600 3.480000
7.749500 3.392900
7.765400 3.305800
7.781400 2.737400
7.797300 2.598500
7.813300 2.459700
7.829200 2.323300
7.845100 2.202900
7.861100 2.222400
7.877000 2.412900
7.893000 2.745500
7.908900 3.105700
7.924800 3.476600
7.940800 3.848000
7.956700 4.197300
7.972700 4.516100
7.988600 4.795200
8.004500 5.034400
8.020500 5.233900
8.036400 5.393700
8.052400 5.513700
8.068300 5.593900
8.084200 5.682000
