set title 'mp-1187555 - Density of States'
set xlabel 'Energy (eV)'
set ylabel 'DOS (states/eV)'
set grid
set xrange [-10:10]
set yrange [0:81.712]
set xzeroaxis lt -1
set terminal png size 800,600
set output 'mp-1187555_dos_gnuplot.png'
plot '-' using 1:2 with lines title 'DOS'
-8.341000 0.000000
-8.323800 0.000000
-8.306600 0.000000
-8.289500 0.000000
-8.272300 0.000000
-8.255100 0.000000
-8.237900 0.000000
-8.220700 0.000000
-8.203600 0.000000
-8.186400 0.000000
-8.169200 0.000000
-8.152000 0.000000
-8.134800 0.000000
-8.117700 0.000000
-8.100500 0.000000
-8.083300 0.000000
-8.066100 0.000000
-8.048900 0.000000
-8.031800 0.000000
-8.014600 0.000000
-7.997400 0.000000
-7.980200 0.000000
-7.963000 0.000000
-7.945900 0.000000
-7.928700 0.000000
-7.911500 0.000000
-7.894300 0.000000
-7.877100 0.000000
-7.859900 0.000000
-7.842800 0.000000
-7.825600 0.000000
-7.808400 0.000000
-7.791200 0.000000
-7.774000 0.000000
-7.756900 0.000000
-7.739700 0.000000
-7.722500 0.000000
-7.705300 0.000000
-7.688100 0.000000
-7.671000 0.000000
-7.653800 0.000000
-7.636600 0.000000
-7.619400 0.000000
-7.602200 0.000000
-7.585100 0.000000
-7.567900 0.000000
-7.550700 0.000000
-7.533500 0.000000
-7.516300 0.000000
-7.499200 0.000000
-7.482000 0.000000
-7.464800 0.000000
-7.447600 0.000000
-7.430400 0.000000
-7.413300 0.000000
-7.396100 0.000000
-7.378900 0.000000
-7.361700 0.000000
-7.344500 0.000000
-7.327300 0.000000
-7.310200 0.000000
-7.293000 0.000000
-7.275800 0.000000
-7.258600 0.000000
-7.241400 0.000000
-7.224300 0.000000
-7.207100 0.000000
-7.189900 0.000000
-7.172700 0.000000
-7.155500 0.000000
-7.138400 0.000000
-7.121200 0.000000
-7.104000 0.000000
-7.086800 0.000000
-7.069600 0.000000
-7.052500 0.000000
-7.035300 0.000000
-7.018100 0.000000
-7.000900 0.000000
-6.983700 0.000000
-6.966600 0.000000
-6.949400 0.000000
-6.932200 0.000000
-6.915000 0.000000
-6.897800 0.000300
-6.880600 0.001500
-6.863500 0.007600
-6.846300 0.030600
-6.829100 0.102800
-6.811900 0.289100
-6.794700 0.691000
-6.777600 1.433100
-6.760400 2.640900
-6.743200 4.427300
-6.726000 6.887800
-6.708800 10.103600
-6.691700 14.165900
-6.674500 19.169200
-6.657300 25.075000
-6.640100 31.488000
-6.622900 37.579400
-6.605800 42.335300
-6.588600 45.073100
-6.571400 45.913800
-6.554200 45.792500
-6.537000 45.858500
-6.519900 46.700200
-6.502700 48.089300
-6.485500 49.428200
-6.468300 50.300400
-6.451100 50.523800
-6.434000 49.926500
-6.416800 48.432000
-6.399600 46.412100
-6.382400 44.773400
-6.365200 44.570000
-6.348000 46.376100
-6.330900 49.790300
-6.313700 53.528600
-6.296500 56.245800
-6.279300 57.406600
-6.262100 57.274800
-6.245000 56.113700
-6.227800 53.764000
-6.210600 50.230000
-6.193400 46.327300
-6.176200 43.270700
-6.159100 41.666800
-6.141900 41.163300
-6.124700 40.932500
-6.107500 40.150500
-6.090300 38.045100
-6.073200 33.964300
-6.056000 27.850900
-6.038800 20.629200
-6.021600 13.804800
-6.004400 8.523100
-5.987300 5.024900
-5.970100 2.890800
-5.952900 1.595800
-5.935700 0.807200
-5.918500 0.357200
-5.901300 0.133900
-5.884200 0.041800
-5.867000 0.010700
-5.849800 0.002300
-5.832600 0.000400
-5.815400 0.000100
-5.798300 0.000000
-5.781100 0.000000
-5.763900 0.000000
-5.746700 0.000000
-5.729500 0.000000
-5.712400 0.000000
-5.695200 0.000000
-5.678000 0.000000
-5.660800 0.000000
-5.643600 0.000000
-5.626500 0.000000
-5.609300 0.000000
-5.592100 0.000000
-5.574900 0.000000
-5.557700 0.000000
-5.540600 0.000000
-5.523400 0.000000
-5.506200 0.000000
-5.489000 0.000000
-5.471800 0.000000
-5.454700 0.000000
-5.437500 0.000000
-5.420300 0.000000
-5.403100 0.000000
-5.385900 0.000000
-5.368700 0.000000
-5.351600 0.000000
-5.334400 0.000000
-5.317200 0.000000
-5.300000 0.000000
-5.282800 0.000000
-5.265700 0.000000
-5.248500 0.000000
-5.231300 0.000000
-5.214100 0.000000
-5.196900 0.000000
-5.179800 0.000000
-5.162600 0.000000
-5.145400 0.000000
-5.128200 0.000000
-5.111000 0.000000
-5.093900 0.000000
-5.076700 0.000000
-5.059500 0.000000
-5.042300 0.000000
-5.025100 0.000000
-5.008000 0.000000
-4.990800 0.000000
-4.973600 0.000000
-4.956400 0.000000
-4.939200 0.000000
-4.922000 0.000000
-4.904900 0.000000
-4.887700 0.000000
-4.870500 0.000000
-4.853300 0.000000
-4.836100 0.000000
-4.819000 0.000000
-4.801800 0.000000
-4.784600 0.000000
-4.767400 0.000000
-4.750200 0.000000
-4.733100 0.000000
-4.715900 0.000000
-4.698700 0.000000
-4.681500 0.000000
-4.664300 0.000000
-4.647200 0.000000
-4.630000 0.000000
-4.612800 0.000000
-4.595600 0.000000
-4.578400 0.000000
-4.561300 0.000000
-4.544100 0.000000
-4.526900 0.000000
-4.509700 0.000000
-4.492500 0.000000
-4.475400 0.000000
-4.458200 0.000000
-4.441000 0.000000
-4.423800 0.000000
-4.406600 0.000000
-4.389400 0.000000
-4.372300 0.000100
-4.355100 0.000600
-4.337900 0.002100
-4.320700 0.006200
-4.303500 0.015000
-4.286400 0.029800
-4.269200 0.049700
-4.252000 0.072400
-4.234800 0.095600
-4.217600 0.119600
-4.200500 0.148200
-4.183300 0.191300
-4.166100 0.257800
-4.148900 0.337400
-4.131700 0.393400
-4.114600 0.386700
-4.097400 0.313300
-4.080200 0.211700
-4.063000 0.134900
-4.045800 0.119900
-4.028700 0.177500
-4.011500 0.292400
-3.994300 0.426700
-3.977100 0.534800
-3.959900 0.588500
-3.942700 0.590900
-3.925600 0.573600
-3.908400 0.576400
-3.891200 0.611900
-3.874000 0.641700
-3.856800 0.605200
-3.839700 0.485900
-3.822500 0.336200
-3.805300 0.235900
-3.788100 0.234600
-3.770900 0.330400
-3.753800 0.483300
-3.736600 0.644200
-3.719400 0.791200
-3.702200 0.957200
-3.685000 1.246700
-3.667900 1.864000
-3.650700 3.169800
-3.633500 5.676100
-3.616300 9.805300
-3.599100 15.470500
-3.582000 21.972200
-3.564800 28.655200
-3.547600 35.865900
-3.530400 44.902800
-3.513200 56.288200
-3.496100 67.724200
-3.478900 74.283800
-3.461700 71.609400
-3.444500 59.481100
-3.427300 42.223500
-3.410100 25.605600
-3.393000 13.361000
-3.375800 6.129600
-3.358600 2.636700
-3.341400 1.258000
-3.324200 0.825400
-3.307100 0.729600
-3.289900 0.743500
-3.272700 0.816000
-3.255500 0.924200
-3.238300 1.020600
-3.221200 1.050300
-3.204000 0.989200
-3.186800 0.866100
-3.169600 0.751600
-3.152400 0.710100
-3.135300 0.749000
-3.118100 0.816300
-3.100900 0.850300
-3.083700 0.836100
-3.066500 0.816400
-3.049400 0.846800
-3.032200 0.939700
-3.015000 1.046500
-2.997800 1.089400
-2.980600 1.014700
-2.963400 0.835200
-2.946300 0.626200
-2.929100 0.471900
-2.911900 0.419800
-2.894700 0.481200
-2.877500 0.646500
-2.860400 0.879900
-2.843200 1.116500
-2.826000 1.287000
-2.808800 1.346700
-2.791600 1.291000
-2.774500 1.171100
-2.757300 1.086200
-2.740100 1.112300
-2.722900 1.221500
-2.705700 1.293700
-2.688600 1.220800
-2.671400 0.992900
-2.654200 0.691800
-2.637000 0.423200
-2.619800 0.258700
-2.602700 0.217900
-2.585500 0.282500
-2.568300 0.419500
-2.551100 0.597800
-2.533900 0.792700
-2.516800 0.980000
-2.499600 1.136600
-2.482400 1.252800
-2.465200 1.343200
-2.448000 1.433500
-2.430800 1.532300
-2.413700 1.607600
-2.396500 1.594700
-2.379300 1.442500
-2.362100 1.172200
-2.344900 0.888300
-2.327800 0.718600
-2.310600 0.725500
-2.293400 0.861900
-2.276200 1.013500
-2.259000 1.094900
-2.241900 1.107000
-2.224700 1.099200
-2.207500 1.091000
-2.190300 1.055800
-2.173100 0.976400
-2.156000 0.888000
-2.138800 0.852900
-2.121600 0.900800
-2.104400 0.995500
-2.087200 1.056600
-2.070100 1.019300
-2.052900 0.884500
-2.035700 0.711600
-2.018500 0.563900
-2.001300 0.471200
-1.984100 0.435700
-1.967000 0.452200
-1.949800 0.515600
-1.932600 0.617700
-1.915400 0.744000
-1.898200 0.876100
-1.881100 0.996100
-1.863900 1.080800
-1.846700 1.099600
-1.829500 1.039200
-1.812300 0.929700
-1.795200 0.830300
-1.778000 0.787500
-1.760800 0.816800
-1.743600 0.910400
-1.726400 1.038900
-1.709300 1.148800
-1.692100 1.188100
-1.674900 1.146200
-1.657700 1.061800
-1.640500 0.984800
-1.623400 0.931300
-1.606200 0.878800
-1.589000 0.809400
-1.571800 0.754600
-1.554600 0.779100
-1.537500 0.913500
-1.520300 1.113200
-1.503100 1.292900
-1.485900 1.391200
-1.468700 1.407800
-1.451500 1.393500
-1.434400 1.414000
-1.417200 1.506900
-1.400000 1.650600
-1.382800 1.760500
-1.365600 1.736200
-1.348500 1.554000
-1.331300 1.312800
-1.314100 1.157600
-1.296900 1.150700
-1.279700 1.235100
-1.262600 1.314000
-1.245400 1.329500
-1.228200 1.265900
-1.211000 1.133500
-1.193800 0.982700
-1.176700 0.896900
-1.159500 0.927800
-1.142300 1.041300
-1.125100 1.146500
-1.107900 1.173000
-1.090800 1.119300
-1.073600 1.046400
-1.056400 1.040200
-1.039200 1.157600
-1.022000 1.381600
-1.004800 1.628000
-0.987700 1.800300
-0.970500 1.839900
-0.953300 1.739800
-0.936100 1.544300
-0.918900 1.334500
-0.901800 1.184400
-0.884600 1.117200
-0.867400 1.106700
-0.850200 1.112300
-0.833000 1.105700
-0.815900 1.079200
-0.798700 1.042700
-0.781500 1.003500
-0.764300 0.940400
-0.747100 0.819100
-0.730000 0.647400
-0.712800 0.502600
-0.695600 0.491800
-0.678400 0.680400
-0.661200 1.037600
-0.644100 1.428900
-0.626900 1.682800
-0.609700 1.713100
-0.592500 1.596200
-0.575300 1.507000
-0.558200 1.564200
-0.541000 1.742100
-0.523800 1.919300
-0.506600 1.985400
-0.489400 1.902800
-0.472200 1.704300
-0.455100 1.463900
-0.437900 1.266900
-0.420700 1.176600
-0.403500 1.204500
-0.386300 1.313100
-0.369200 1.460400
-0.352000 1.641800
-0.334800 1.876900
-0.317600 2.152600
-0.300400 2.396500
-0.283300 2.519100
-0.266100 2.470800
-0.248900 2.248400
-0.231700 1.886000
-0.214500 1.472800
-0.197400 1.144500
-0.180200 1.013900
-0.163000 1.104100
-0.145800 1.354200
-0.128600 1.678300
-0.111500 2.004300
-0.094300 2.261800
-0.077100 2.365300
-0.059900 2.247300
-0.042700 1.929100
-0.025600 1.551900
-0.008400 1.309700
0.008800 1.321600
0.026000 1.556600
0.043200 1.868800
0.060400 2.089300
0.077500 2.101600
0.094700 1.885900
0.111900 1.536300
0.129100 1.221800
0.146300 1.087900
0.163400 1.165500
0.180600 1.367000
0.197800 1.574300
0.215000 1.728100
0.232200 1.827000
0.249300 1.854400
0.266500 1.765900
0.283700 1.577300
0.300900 1.415400
0.318100 1.417000
0.335200 1.581500
0.352400 1.765900
0.369600 1.840500
0.386800 1.822000
0.404000 1.831900
0.421100 1.952900
0.438300 2.160600
0.455500 2.378600
0.472700 2.546200
0.489900 2.615300
0.507100 2.532600
0.524200 2.292700
0.541400 1.996900
0.558600 1.796300
0.575800 1.756300
0.593000 1.811000
0.610100 1.843700
0.627300 1.773900
0.644500 1.581800
0.661700 1.302500
0.678900 1.014600
0.696000 0.807000
0.713200 0.735300
0.730400 0.805700
0.747600 0.987400
0.764800 1.219600
0.781900 1.408100
0.799100 1.451500
0.816300 1.304800
0.833500 1.025800
0.850700 0.751500
0.867800 0.619500
0.885000 0.690600
0.902200 0.915000
0.919400 1.159800
0.936600 1.287500
0.953700 1.233800
0.970900 1.035000
0.988100 0.796200
1.005300 0.627700
1.022500 0.582000
1.039700 0.627100
1.056800 0.681800
1.074000 0.682500
1.091200 0.618000
1.108400 0.511600
1.125600 0.392600
1.142700 0.290400
1.159900 0.239200
1.177100 0.270900
1.194300 0.392700
1.211500 0.575800
1.228600 0.767000
1.245800 0.912600
1.263000 0.977200
1.280200 0.952700
1.297400 0.860900
1.314500 0.746900
1.331700 0.657400
1.348900 0.615700
1.366100 0.610700
1.383300 0.613200
1.400400 0.604100
1.417600 0.587600
1.434800 0.580900
1.452000 0.600500
1.469200 0.656200
1.486400 0.744000
1.503500 0.834100
1.520700 0.874600
1.537900 0.822900
1.555100 0.685200
1.572300 0.521200
1.589400 0.401400
1.606600 0.355700
1.623800 0.367800
1.641000 0.417200
1.658200 0.508000
1.675300 0.643200
1.692500 0.784200
1.709700 0.863800
1.726900 0.845900
1.744100 0.758100
1.761200 0.657200
1.778400 0.572700
1.795600 0.496800
1.812800 0.426200
1.830000 0.399400
1.847100 0.484500
1.864300 0.732500
1.881500 1.127900
1.898700 1.562000
1.915900 1.863800
1.933000 1.905900
1.950200 1.701400
1.967400 1.383200
1.984600 1.088600
2.001800 0.880400
2.019000 0.756800
2.036100 0.688100
2.053300 0.632900
2.070500 0.555000
2.087700 0.452600
2.104900 0.365800
2.122000 0.337200
2.139200 0.363800
2.156400 0.397600
2.173600 0.395000
2.190800 0.356700
2.207900 0.314500
2.225100 0.298100
2.242300 0.332600
2.259500 0.457300
2.276700 0.718400
2.293800 1.126000
2.311000 1.612700
2.328200 2.036300
2.345400 2.255700
2.362600 2.247500
2.379700 2.142800
2.396900 2.106000
2.414100 2.171700
2.431300 2.232800
2.448500 2.180500
2.465700 2.014500
2.482800 1.827500
2.500000 1.737300
2.517200 1.820100
2.534400 2.039900
2.551600 2.229300
2.568700 2.199000
2.585900 1.904100
2.603100 1.485000
2.620300 1.141500
2.637500 1.000700
2.654600 1.096000
2.671800 1.397800
2.689000 1.811600
2.706200 2.177800
2.723400 2.344900
2.740500 2.271000
2.757700 2.036100
2.774900 1.751500
2.792100 1.479100
2.809300 1.234500
2.826400 1.033200
2.843600 0.912500
2.860800 0.906800
2.878000 1.002400
2.895200 1.130700
2.912300 1.225100
2.929500 1.278900
2.946700 1.327200
2.963900 1.380100
2.981100 1.398500
2.998300 1.336300
3.015400 1.192300
3.032600 1.022600
3.049800 0.917000
3.067000 0.943200
3.084200 1.079000
3.101300 1.204700
3.118500 1.202500
3.135700 1.076000
3.152900 0.949900
3.170100 0.949500
3.187200 1.093900
3.204400 1.296400
3.221600 1.450200
3.238800 1.501700
3.256000 1.451800
3.273100 1.313500
3.290300 1.101200
3.307500 0.852800
3.324700 0.631600
3.341900 0.495500
3.359000 0.474600
3.376200 0.575600
3.393400 0.780300
3.410600 1.028800
3.427800 1.224600
3.445000 1.285500
3.462100 1.197000
3.479300 1.018100
3.496500 0.844600
3.513700 0.764400
3.530900 0.825200
3.548000 1.014500
3.565200 1.255300
3.582400 1.436000
3.599600 1.473500
3.616800 1.364400
3.633900 1.175300
3.651100 0.987000
3.668300 0.858200
3.685500 0.827500
3.702700 0.912200
3.719800 1.079500
3.737000 1.239400
3.754200 1.301200
3.771400 1.238800
3.788600 1.094600
3.805700 0.935400
3.822900 0.824400
3.840100 0.811300
3.857300 0.912900
3.874500 1.098800
3.891600 1.312300
3.908800 1.508000
3.926000 1.655200
3.943200 1.706400
3.960400 1.603600
3.977600 1.350800
3.994700 1.051600
4.011900 0.838200
4.029100 0.774700
4.046300 0.850600
4.063500 1.031800
4.080600 1.267000
4.097800 1.461400
4.115000 1.509600
4.132200 1.391400
4.149400 1.214100
4.166500 1.133900
4.183700 1.224100
4.200900 1.413000
4.218100 1.546300
4.235300 1.520900
4.252400 1.371500
4.269600 1.231400
4.286800 1.204000
4.304000 1.270800
4.321200 1.320700
4.338300 1.271700
4.355500 1.167300
4.372700 1.153900
4.389900 1.348800
4.407100 1.720200
4.424300 2.108200
4.441400 2.381000
4.458600 2.550200
4.475800 2.684300
4.493000 2.739900
4.510200 2.570600
4.527300 2.132200
4.544500 1.607600
4.561700 1.277400
4.578900 1.281500
4.596100 1.516400
4.613200 1.748300
4.630400 1.827200
4.647600 1.800100
4.664800 1.820100
4.682000 1.970600
4.699100 2.205500
4.716300 2.440900
4.733500 2.645400
4.750700 2.820500
4.767900 2.932000
4.785000 2.920000
4.802200 2.785000
4.819400 2.626200
4.836600 2.565000
4.853800 2.645200
4.870900 2.815600
4.888100 2.982200
4.905300 3.055500
4.922500 2.981600
4.939700 2.774900
4.956900 2.521200
4.974000 2.322400
4.991200 2.237400
5.008400 2.275500
5.025600 2.410900
5.042800 2.579200
5.059900 2.684500
5.077100 2.651100
5.094300 2.486500
5.111500 2.295300
5.128700 2.211400
5.145800 2.280900
5.163000 2.409600
5.180200 2.452900
5.197400 2.353300
5.214600 2.166200
5.231700 1.970700
5.248900 1.798000
5.266100 1.637300
5.283300 1.475400
5.300500 1.325700
5.317600 1.232200
5.334800 1.250900
5.352000 1.415700
5.369200 1.692700
5.386400 1.961000
5.403600 2.090900
5.420700 2.077800
5.437900 2.052300
5.455100 2.120600
5.472300 2.239700
5.489500 2.288300
5.506600 2.223500
5.523800 2.131700
5.541000 2.139400
5.558200 2.292100
5.575400 2.517700
5.592500 2.697700
5.609700 2.753600
5.626900 2.663500
5.644100 2.441500
5.661300 2.139100
5.678400 1.842400
5.695600 1.627600
5.712800 1.519600
5.730000 1.494400
5.747200 1.511600
5.764300 1.550700
5.781500 1.629700
5.798700 1.775100
5.815900 1.957900
5.833100 2.082300
5.850200 2.063200
5.867400 1.903000
5.884600 1.678700
5.901800 1.474600
5.919000 1.335600
5.936200 1.257100
5.953300 1.208000
5.970500 1.173200
5.987700 1.170300
6.004900 1.214600
6.022100 1.283500
6.039200 1.342900
6.056400 1.401000
6.073600 1.516900
6.090800 1.747300
6.108000 2.080800
6.125100 2.429400
6.142300 2.705000
6.159500 2.895400
6.176700 3.027400
6.193900 3.064500
6.211000 2.911700
6.228200 2.548600
6.245400 2.113400
6.262600 1.811500
6.279800 1.746400
6.296900 1.850700
6.314100 1.969900
6.331300 1.997700
6.348500 1.929100
6.365700 1.802100
6.382900 1.623400
6.400000 1.369100
6.417200 1.046100
6.434400 0.720400
6.451600 0.478300
6.468800 0.372900
6.485900 0.402500
6.503100 0.524700
6.520300 0.692200
6.537500 0.888400
6.554700 1.133200
6.571800 1.447400
6.589000 1.807600
6.606200 2.149800
6.623400 2.428600
6.640600 2.647900
6.657700 2.802300
6.674900 2.830600
6.692100 2.686800
6.709300 2.440700
6.726500 2.245600
6.743600 2.207100
6.760800 2.329100
6.778000 2.571500
6.795200 2.892600
6.812400 3.211200
6.829500 3.388200
6.846700 3.312500
6.863900 3.023600
6.881100 2.713800
6.898300 2.567500
6.915500 2.587800
6.932600 2.603200
6.949800 2.454200
6.967000 2.152500
6.984200 1.850600
7.001400 1.674700
7.018500 1.609500
7.035700 1.547900
7.052900 1.437800
7.070100 1.345200
7.087300 1.363700
7.104400 1.489700
7.121600 1.614500
7.138800 1.634600
7.156000 1.554200
7.173200 1.475100
7.190300 1.487200
7.207500 1.580600
7.224700 1.672700
7.241900 1.714800
7.259100 1.748500
7.276200 1.846900
7.293400 2.015900
7.310600 2.173800
7.327800 2.230800
7.345000 2.175400
7.362200 2.068000
7.379300 1.957800
7.396500 1.837200
7.413700 1.695100
7.430900 1.587400
7.448100 1.613900
7.465200 1.812400
7.482400 2.089300
7.499600 2.271200
7.516800 2.238300
7.534000 2.026600
7.551100 1.799800
7.568300 1.713300
7.585500 1.799200
7.602700 1.977700
7.619900 2.141300
7.637000 2.207800
7.654200 2.131900
7.671400 1.922200
7.688600 1.650800
7.705800 1.424300
7.722900 1.332200
7.740100 1.398500
7.757300 1.564900
7.774500 1.741300
7.791700 1.895300
7.808800 2.073600
7.826000 2.310400
7.843200 2.533900
7.860400 2.607600
7.877600 2.473900
7.894800 2.233600
7.911900 2.075100
7.929100 2.127000
7.946300 2.355600
7.963500 2.577000
7.980700 2.585200
7.997800 2.314900
8.015000 1.904900
8.032200 1.599200
8.049400 1.565800
8.066600 1.791500
8.083700 2.126800
8.100900 2.411800
8.118100 2.560900
8.135300 2.564800
8.152500 2.464300
8.169600 2.343700
8.186800 2.312200
8.204000 2.447800
8.221200 2.744600
8.238400 3.113300
8.255500 3.422900
8.272700 3.559300
8.289900 3.480000
8.307100 3.226500
8.324300 2.880700
8.341500 2.514400
8.358600 2.174500
8.375800 1.890600
8.393000 1.691700
8.410200 1.611300
8.427400 1.659700
8.444500 1.801300
8.461700 1.981200
8.478900 2.165900
8.496100 2.330500
8.513300 2.425700
8.530400 2.396700
8.547600 2.232300
8.564800 1.976800
8.582000 1.717000
8.599200 1.565800
8.616300 1.620000
8.633500 1.893900
8.650700 2.300600
8.667900 2.717800
8.685100 3.064400
8.702200 3.293100
8.719400 3.342100
8.736600 3.168300
8.753800 2.830900
8.771000 2.470800
8.788100 2.190800
8.805300 2.001200
8.822500 1.872300
8.839700 1.783200
8.856900 1.714300
8.874100 1.638500
8.891200 1.537800
8.908400 1.416900
8.925600 1.303200
8.942800 1.239300
8.960000 1.270700
8.977100 1.425900
8.994300 1.706900
9.011500 2.097300
9.028700 2.555900
9.045900 2.977900
9.063000 3.204000
9.080200 3.143700
9.097400 2.903500
9.114600 2.743300
9.131800 2.861200
9.148900 3.214400
9.166100 3.551600
9.183300 3.616500
9.200500 3.338500
9.217700 2.859500
9.234800 2.405700
9.252000 2.131300
9.269200 2.051300
9.286400 2.089600
9.303600 2.176700
9.320700 2.304300
9.337900 2.500900
9.355100 2.772800
9.372300 3.075000
9.389500 3.333500
9.406700 3.500900
9.423800 3.599700
9.441000 3.697200
9.458200 3.826600
9.475400 3.954400
9.492600 4.029500
9.509700 4.036800
9.526900 3.994300
9.544100 3.912100
9.561300 3.766500
9.578500 3.523500
9.595600 3.203400
9.612800 2.899800
9.630000 2.703600
9.647200 2.621900
9.664400 2.609500
9.681500 2.662400
9.698700 2.829200
9.715900 3.115500
9.733100 3.411400
9.750300 3.555000
9.767400 3.482400
9.784600 3.281900
9.801800 3.078300
9.819000 2.896600
9.836200 2.680700
9.853400 2.420700
9.870500 2.201800
9.887700 2.113300
9.904900 2.149000
9.922100 2.223800
9.939300 2.274900
