set title 'mp-639751 - Density of States'
set xlabel 'Energy (eV)'
set ylabel 'DOS (states/eV)'
set grid
set xrange [-10:10]
set yrange [0:2.424]
set xzeroaxis lt -1
set terminal png size 800,600
set output 'mp-639751_dos_gnuplot.png'
plot '-' using 1:2 with lines title 'DOS'
-13.116600 0.000000
-13.098400 0.000000
-13.080200 0.000000
-13.062000 0.000000
-13.043800 0.000000
-13.025600 0.000000
-13.007400 0.000000
-12.989200 0.000000
-12.971000 0.000000
-12.952800 0.000000
-12.934600 0.000000
-12.916400 0.000000
-12.898200 0.000000
-12.880000 0.000000
-12.861800 0.000000
-12.843600 0.000000
-12.825400 0.000000
-12.807200 0.000000
-12.789000 0.000000
-12.770700 0.000000
-12.752500 0.000000
-12.734300 0.000000
-12.716100 0.000000
-12.697900 0.000000
-12.679700 0.000000
-12.661500 0.000000
-12.643300 0.000000
-12.625100 0.000000
-12.606900 0.000000
-12.588700 0.000000
-12.570500 0.000000
-12.552300 0.000000
-12.534100 0.000000
-12.515900 0.000000
-12.497700 0.000000
-12.479500 0.000000
-12.461300 0.000000
-12.443100 0.000000
-12.424900 0.000000
-12.406700 0.000000
-12.388500 0.000000
-12.370300 0.000000
-12.352100 0.000000
-12.333800 0.000000
-12.315600 0.000000
-12.297400 0.000000
-12.279200 0.000000
-12.261000 0.000000
-12.242800 0.000000
-12.224600 0.000000
-12.206400 0.000000
-12.188200 0.000000
-12.170000 0.000000
-12.151800 0.000000
-12.133600 0.000000
-12.115400 0.000000
-12.097200 0.000000
-12.079000 0.000000
-12.060800 0.000000
-12.042600 0.000000
-12.024400 0.000000
-12.006200 0.000000
-11.988000 0.000000
-11.969800 0.000000
-11.951600 0.000000
-11.933400 0.000000
-11.915100 0.000000
-11.896900 0.000000
-11.878700 0.000000
-11.860500 0.000000
-11.842300 0.000000
-11.824100 0.000000
-11.805900 0.000000
-11.787700 0.000000
-11.769500 0.000000
-11.751300 0.000000
-11.733100 0.000000
-11.714900 0.000000
-11.696700 0.000000
-11.678500 0.000000
-11.660300 0.000000
-11.642100 0.000000
-11.623900 0.000000
-11.605700 0.000000
-11.587500 0.000000
-11.569300 0.000000
-11.551100 0.000000
-11.532900 0.000000
-11.514700 0.000000
-11.496500 0.000000
-11.478200 0.000000
-11.460000 0.001700
-11.441800 0.150100
-11.423600 0.287100
-11.405400 0.359600
-11.387200 0.434700
-11.369000 0.514900
-11.350800 0.617400
-11.332600 0.744100
-11.314400 0.900800
-11.296200 0.919000
-11.278000 0.915100
-11.259800 0.931300
-11.241600 0.956800
-11.223400 0.975300
-11.205200 0.982100
-11.187000 0.999200
-11.168800 1.016800
-11.150600 1.038900
-11.132400 1.062700
-11.114200 1.089000
-11.096000 1.120300
-11.077800 1.162000
-11.059500 1.200700
-11.041300 1.248200
-11.023100 1.333700
-11.004900 1.462500
-10.986700 1.752800
-10.968500 1.843000
-10.950300 1.326000
-10.932100 1.268100
-10.913900 1.221500
-10.895700 1.166900
-10.877500 1.101800
-10.859300 0.992700
-10.841100 0.974800
-10.822900 0.957300
-10.804700 0.940000
-10.786500 0.922400
-10.768300 0.903700
-10.750100 0.882400
-10.731900 0.855700
-10.713700 0.810600
-10.695500 0.802500
-10.677300 0.794000
-10.659100 0.785300
-10.640800 0.776000
-10.622600 0.765500
-10.604400 0.753800
-10.586200 0.743300
-10.568000 0.732600
-10.549800 0.720700
-10.531600 0.706600
-10.513400 0.684300
-10.495200 0.681300
-10.477000 0.678400
-10.458800 0.675400
-10.440600 0.671900
-10.422400 0.667400
-10.404200 0.662700
-10.386000 0.657900
-10.367800 0.652800
-10.349600 0.647100
-10.331400 0.640600
-10.313200 0.633600
-10.295000 0.626300
-10.276800 0.616900
-10.258600 0.607500
-10.240400 0.605800
-10.222200 0.604200
-10.203900 0.602700
-10.185700 0.601200
-10.167500 0.599700
-10.149300 0.598100
-10.131100 0.596600
-10.112900 0.594800
-10.094700 0.593000
-10.076500 0.591000
-10.058300 0.588900
-10.040100 0.586700
-10.021900 0.584100
-10.003700 0.581000
-9.985500 0.576400
-9.967300 0.573000
-9.949100 0.572700
-9.930900 0.572500
-9.912700 0.572300
-9.894500 0.572100
-9.876300 0.571900
-9.858100 0.571700
-9.839900 0.571500
-9.821700 0.571300
-9.803500 0.571100
-9.785200 0.572500
-9.767000 0.574200
-9.748800 0.576100
-9.730600 0.578400
-9.712400 0.581300
-9.694200 0.584900
-9.676000 0.587200
-9.657800 0.588900
-9.639600 0.591000
-9.621400 0.593100
-9.603200 0.595000
-9.585000 0.596900
-9.566800 0.598700
-9.548600 0.600500
-9.530400 0.602300
-9.512200 0.604100
-9.494000 0.609400
-9.475800 0.619700
-9.457600 0.631400
-9.439400 0.646100
-9.421200 0.665900
-9.403000 0.679900
-9.384800 0.692800
-9.366600 0.704800
-9.348300 0.718800
-9.330100 0.729500
-9.311900 0.736900
-9.293700 0.744200
-9.275500 0.761000
-9.257300 0.833800
-9.239100 0.955700
-9.220900 1.077000
-9.202700 1.163000
-9.184500 1.226100
-9.166300 0.965900
-9.148100 0.886900
-9.129900 0.816800
-9.111700 0.782000
-9.093500 0.747800
-9.075300 0.719800
-9.057100 0.718300
-9.038900 0.690700
-9.020700 0.661200
-9.002500 0.634300
-8.984300 0.611700
-8.966100 0.590300
-8.947900 0.568900
-8.929600 0.552000
-8.911400 0.537500
-8.893200 0.524400
-8.875000 0.526200
-8.856800 0.556700
-8.838600 0.589800
-8.820400 0.498500
-8.802200 0.399900
-8.784000 0.234200
-8.765800 0.000000
-8.747600 0.000000
-8.729400 0.000000
-8.711200 0.000000
-8.693000 0.000000
-8.674800 0.000000
-8.656600 0.000000
-8.638400 0.000000
-8.620200 0.000000
-8.602000 0.000000
-8.583800 0.000000
-8.565600 0.000000
-8.547400 0.000000
-8.529200 0.000000
-8.511000 0.000000
-8.492700 0.000000
-8.474500 0.000000
-8.456300 0.000000
-8.438100 0.000000
-8.419900 0.000000
-8.401700 0.000000
-8.383500 0.000000
-8.365300 0.000000
-8.347100 0.000000
-8.328900 0.000000
-8.310700 0.000000
-8.292500 0.000000
-8.274300 0.000000
-8.256100 0.000000
-8.237900 0.000000
-8.219700 0.000000
-8.201500 0.000000
-8.183300 0.000000
-8.165100 0.000000
-8.146900 0.000000
-8.128700 0.000000
-8.110500 0.000000
-8.092300 0.000000
-8.074000 0.000000
-8.055800 0.000000
-8.037600 0.000000
-8.019400 0.000000
-8.001200 0.000000
-7.983000 0.000000
-7.964800 0.000000
-7.946600 0.000000
-7.928400 0.000000
-7.910200 0.000000
-7.892000 0.000000
-7.873800 0.000000
-7.855600 0.000000
-7.837400 0.000000
-7.819200 0.000000
-7.801000 0.000000
-7.782800 0.000000
-7.764600 0.000000
-7.746400 0.000000
-7.728200 0.000000
-7.710000 0.000000
-7.691800 0.000000
-7.673600 0.000000
-7.655400 0.000000
-7.637100 0.000000
-7.618900 0.000000
-7.600700 0.000000
-7.582500 0.000000
-7.564300 0.000000
-7.546100 0.000000
-7.527900 0.000000
-7.509700 0.000000
-7.491500 0.000000
-7.473300 0.000000
-7.455100 0.000000
-7.436900 0.000000
-7.418700 0.000000
-7.400500 0.000000
-7.382300 0.000000
-7.364100 0.000000
-7.345900 0.000000
-7.327700 0.000000
-7.309500 0.000000
-7.291300 0.000000
-7.273100 0.000000
-7.254900 0.000000
-7.236700 0.000000
-7.218400 0.000000
-7.200200 0.000000
-7.182000 0.000000
-7.163800 0.000000
-7.145600 0.000000
-7.127400 0.000000
-7.109200 0.000000
-7.091000 0.000000
-7.072800 0.000000
-7.054600 0.000000
-7.036400 0.000000
-7.018200 0.000000
-7.000000 0.000000
-6.981800 0.000000
-6.963600 0.000000
-6.945400 0.000000
-6.927200 0.000000
-6.909000 0.000000
-6.890800 0.000000
-6.872600 0.000000
-6.854400 0.000000
-6.836200 0.000000
-6.818000 0.000000
-6.799800 0.000000
-6.781500 0.000000
-6.763300 0.000000
-6.745100 0.000000
-6.726900 0.000000
-6.708700 0.000000
-6.690500 0.000000
-6.672300 0.000000
-6.654100 0.000000
-6.635900 0.000000
-6.617700 0.000000
-6.599500 0.000000
-6.581300 0.000000
-6.563100 0.000000
-6.544900 0.000000
-6.526700 0.000000
-6.508500 0.000000
-6.490300 0.000000
-6.472100 0.000000
-6.453900 0.000000
-6.435700 0.000000
-6.417500 0.000000
-6.399300 0.000000
-6.381100 0.000000
-6.362800 0.000000
-6.344600 0.000000
-6.326400 0.000000
-6.308200 0.000000
-6.290000 0.000000
-6.271800 0.000000
-6.253600 0.000000
-6.235400 0.000000
-6.217200 0.000000
-6.199000 0.000000
-6.180800 0.000000
-6.162600 0.000000
-6.144400 0.000000
-6.126200 0.000000
-6.108000 0.000000
-6.089800 0.000000
-6.071600 0.000000
-6.053400 0.000000
-6.035200 0.000000
-6.017000 0.000000
-5.998800 0.000000
-5.980600 0.000000
-5.962400 0.000000
-5.944200 0.000000
-5.925900 0.000000
-5.907700 0.000000
-5.889500 0.000000
-5.871300 0.000000
-5.853100 0.000000
-5.834900 0.000000
-5.816700 0.000000
-5.798500 0.000000
-5.780300 0.000000
-5.762100 0.000000
-5.743900 0.000000
-5.725700 0.000000
-5.707500 0.000000
-5.689300 0.000000
-5.671100 0.000000
-5.652900 0.000000
-5.634700 0.000000
-5.616500 0.000000
-5.598300 0.000000
-5.580100 0.000000
-5.561900 0.000000
-5.543700 0.000000
-5.525500 0.000000
-5.507200 0.000000
-5.489000 0.000000
-5.470800 0.000000
-5.452600 0.000000
-5.434400 0.000000
-5.416200 0.000000
-5.398000 0.000000
-5.379800 0.000000
-5.361600 0.000000
-5.343400 0.000000
-5.325200 0.000000
-5.307000 0.000000
-5.288800 0.000000
-5.270600 0.000000
-5.252400 0.000000
-5.234200 0.000000
-5.216000 0.000000
-5.197800 0.000000
-5.179600 0.000000
-5.161400 0.000000
-5.143200 0.000000
-5.125000 0.000000
-5.106800 0.000000
-5.088500 0.000000
-5.070300 0.000000
-5.052100 0.000000
-5.033900 0.000000
-5.015700 0.000000
-4.997500 0.000000
-4.979300 0.000000
-4.961100 0.000000
-4.942900 0.000000
-4.924700 0.000000
-4.906500 0.000000
-4.888300 0.000000
-4.870100 0.000000
-4.851900 0.000000
-4.833700 0.000000
-4.815500 0.000000
-4.797300 0.000000
-4.779100 0.000000
-4.760900 0.000000
-4.742700 0.000000
-4.724500 0.000000
-4.706300 0.000000
-4.688100 0.000000
-4.669900 0.000000
-4.651600 0.000000
-4.633400 0.000000
-4.615200 0.000000
-4.597000 0.000000
-4.578800 0.000000
-4.560600 0.000000
-4.542400 0.000000
-4.524200 0.000000
-4.506000 0.000000
-4.487800 0.000000
-4.469600 0.000000
-4.451400 0.000000
-4.433200 0.000000
-4.415000 0.000000
-4.396800 0.000000
-4.378600 0.000000
-4.360400 0.000000
-4.342200 0.000000
-4.324000 0.000000
-4.305800 0.000000
-4.287600 0.000000
-4.269400 0.000000
-4.251200 0.000000
-4.232900 0.000000
-4.214700 0.000000
-4.196500 0.000000
-4.178300 0.000000
-4.160100 0.000000
-4.141900 0.000000
-4.123700 0.000000
-4.105500 0.000000
-4.087300 0.000000
-4.069100 0.000000
-4.050900 0.000000
-4.032700 0.000000
-4.014500 0.000000
-3.996300 0.000000
-3.978100 0.000000
-3.959900 0.000000
-3.941700 0.000000
-3.923500 0.000000
-3.905300 0.000000
-3.887100 0.000000
-3.868900 0.000000
-3.850700 0.000000
-3.832500 0.000000
-3.814300 0.000000
-3.796000 0.000000
-3.777800 0.000000
-3.759600 0.000000
-3.741400 0.000000
-3.723200 0.000000
-3.705000 0.000000
-3.686800 0.000000
-3.668600 0.000000
-3.650400 0.000000
-3.632200 0.000000
-3.614000 0.000000
-3.595800 0.000000
-3.577600 0.000000
-3.559400 0.000000
-3.541200 0.000000
-3.523000 0.000000
-3.504800 0.000000
-3.486600 0.000000
-3.468400 0.000000
-3.450200 0.000000
-3.432000 0.000000
-3.413800 0.000000
-3.395600 0.000000
-3.377300 0.000000
-3.359100 0.000000
-3.340900 0.143400
-3.322700 0.221300
-3.304500 0.292400
-3.286300 0.340200
-3.268100 0.387300
-3.249900 0.434200
-3.231700 0.472600
-3.213500 0.486600
-3.195300 0.470200
-3.177100 0.449100
-3.158900 0.438500
-3.140700 0.438100
-3.122500 0.442300
-3.104300 0.448800
-3.086100 0.460200
-3.067900 0.473300
-3.049700 0.486700
-3.031500 0.503100
-3.013300 0.528700
-2.995100 0.554600
-2.976900 0.591400
-2.958700 0.657400
-2.940400 0.736500
-2.922200 0.711900
-2.904000 0.687400
-2.885800 0.661600
-2.867600 0.631200
-2.849400 0.599600
-2.831200 0.564300
-2.813000 0.507300
-2.794800 0.423700
-2.776600 0.417100
-2.758400 0.409800
-2.740200 0.400900
-2.722000 0.393100
-2.703800 0.386800
-2.685600 0.381500
-2.667400 0.376400
-2.649200 0.371600
-2.631000 0.367100
-2.612800 0.362700
-2.594600 0.358300
-2.576400 0.354100
-2.558200 0.349800
-2.540000 0.345600
-2.521700 0.341200
-2.503500 0.336700
-2.485300 0.332100
-2.467100 0.327300
-2.448900 0.322000
-2.430700 0.316100
-2.412500 0.309600
-2.394300 0.300200
-2.376100 0.283600
-2.357900 0.283600
-2.339700 0.283600
-2.321500 0.283600
-2.303300 0.283600
-2.285100 0.283600
-2.266900 0.283600
-2.248700 0.283600
-2.230500 0.283600
-2.212300 0.283600
-2.194100 0.283600
-2.175900 0.282400
-2.157700 0.280200
-2.139500 0.277900
-2.121300 0.275600
-2.103100 0.273000
-2.084800 0.269500
-2.066600 0.266800
-2.048400 0.264500
-2.030200 0.262500
-2.012000 0.260600
-1.993800 0.258700
-1.975600 0.257000
-1.957400 0.255300
-1.939200 0.253600
-1.921000 0.251900
-1.902800 0.250200
-1.884600 0.248500
-1.866400 0.422500
-1.848200 0.511500
-1.830000 0.615300
-1.811800 0.589000
-1.793600 0.580500
-1.775400 0.609800
-1.757200 0.621500
-1.739000 0.626600
-1.720800 0.612500
-1.702600 0.603000
-1.684400 0.601000
-1.666100 0.601300
-1.647900 0.600900
-1.629700 0.604400
-1.611500 0.601800
-1.593300 0.601100
-1.575100 0.598800
-1.556900 0.603000
-1.538700 0.608000
-1.520500 0.613000
-1.502300 0.617900
-1.484100 0.623000
-1.465900 0.626500
-1.447700 0.627500
-1.429500 0.626100
-1.411300 0.624300
-1.393100 0.621200
-1.374900 0.619000
-1.356700 0.617000
-1.338500 0.617600
-1.320300 0.668300
-1.302100 0.691600
-1.283900 0.709700
-1.265700 0.727400
-1.247500 0.743300
-1.229200 0.755300
-1.211000 0.768900
-1.192800 0.782100
-1.174600 0.794700
-1.156400 0.803600
-1.138200 0.814300
-1.120000 0.826900
-1.101800 0.846100
-1.083600 0.868000
-1.065400 0.897400
-1.047200 0.931200
-1.029000 0.957700
-1.010800 0.987400
-0.992600 1.004000
-0.974400 1.014200
-0.956200 1.077200
-0.938000 1.338000
-0.919800 1.380600
-0.901600 1.141100
-0.883400 1.023600
-0.865200 0.991200
-0.847000 0.958100
-0.828800 0.923900
-0.810500 0.890900
-0.792300 0.862800
-0.774100 0.842400
-0.755900 0.834000
-0.737700 0.830400
-0.719500 0.832200
-0.701300 0.835400
-0.683100 0.839500
-0.664900 0.843900
-0.646700 0.844700
-0.628500 0.863700
-0.610300 0.893400
-0.592100 0.936000
-0.573900 0.960700
-0.555700 0.984900
-0.537500 1.011700
-0.519300 1.041000
-0.501100 1.073900
-0.482900 1.109600
-0.464700 1.156300
-0.446500 1.170200
-0.428300 1.175500
-0.410100 1.177600
-0.391900 1.197700
-0.373600 1.212900
-0.355400 1.224700
-0.337200 1.247600
-0.319000 1.275900
-0.300800 1.306000
-0.282600 1.319800
-0.264400 1.327900
-0.246200 1.328000
-0.228000 1.337400
-0.209800 1.357300
-0.191600 1.392500
-0.173400 1.425900
-0.155200 1.464600
-0.137000 1.516500
-0.118800 1.622400
-0.100600 1.714100
-0.082400 1.804700
-0.064200 1.912600
-0.046000 1.899400
-0.027800 1.891100
-0.009600 1.908000
0.008600 1.933600
0.026800 1.943400
0.045100 1.965500
0.063300 1.997600
0.081500 2.031800
0.099700 2.122900
0.117900 2.117100
0.136100 2.203300
0.154300 1.928300
0.172500 1.819800
0.190700 1.767600
0.208900 1.725800
0.227100 1.675300
0.245300 1.622100
0.263500 1.580700
0.281700 1.539900
0.299900 1.509600
0.318100 1.488700
0.336300 1.469300
0.354500 1.446500
0.372700 1.428900
0.390900 1.417300
0.409100 1.406400
0.427300 1.396100
0.445500 1.386800
0.463800 1.375900
0.482000 1.364200
0.500200 1.350900
0.518400 1.334800
0.536600 1.315800
0.554800 1.292000
0.573000 1.278700
0.591200 1.274600
0.609400 1.274300
0.627600 1.273500
0.645800 1.268500
0.664000 1.268400
0.682200 1.273800
0.700400 1.303500
0.718600 1.374300
0.736800 1.373600
0.755000 1.410300
0.773200 1.415700
0.791400 1.445000
0.809600 1.514200
0.827800 1.581200
0.846000 1.643000
0.864200 1.703600
0.882400 1.749800
0.900700 1.793500
0.918900 1.877700
0.937100 1.890700
0.955300 1.831200
0.973500 1.722500
0.991700 1.667700
1.009900 1.606800
1.028100 1.542500
1.046300 1.538100
1.064500 1.532400
1.082700 1.524600
1.100900 1.511600
1.119100 1.497000
1.137300 1.496700
1.155500 1.501200
1.173700 1.510400
1.191900 1.524500
1.210100 1.545200
1.228300 1.580700
1.246500 1.652900
1.264700 1.791600
1.282900 1.786600
1.301100 1.770500
1.319400 1.740000
1.337600 1.772700
1.355800 1.846300
1.374000 1.476500
1.392200 1.307200
1.410400 1.220700
1.428600 1.176100
1.446800 1.156300
1.465000 1.233900
1.483200 1.284400
1.501400 1.356400
1.519600 1.387800
1.537800 1.388400
1.556000 1.391300
1.574200 1.360800
1.592400 1.356400
1.610600 1.355600
1.628800 1.342100
1.647000 1.411400
1.665200 1.284300
1.683400 1.002200
1.701600 0.651600
1.719800 0.635300
1.738000 0.615600
1.756300 0.585600
1.774500 0.536300
1.792700 0.521800
1.810900 0.511200
1.829100 0.503000
1.847300 0.498100
1.865500 0.494300
1.883700 0.490800
1.901900 0.487300
1.920100 0.484100
1.938300 0.481000
1.956500 0.477900
1.974700 0.474800
1.992900 0.471700
2.011100 0.468600
2.029300 0.465600
2.047500 0.462600
2.065700 0.459700
2.083900 0.456900
2.102100 0.454300
2.120300 0.452000
2.138500 0.449600
2.156700 0.447200
2.175000 0.444900
2.193200 0.442700
2.211400 0.441200
2.229600 0.441500
2.247800 0.444300
2.266000 0.447600
2.284200 0.444200
2.302400 0.440200
2.320600 0.435900
2.338800 0.431400
2.357000 0.426600
2.375200 0.421700
2.393400 0.417200
2.411600 0.413300
2.429800 0.410300
2.448000 0.408700
2.466200 0.407300
2.484400 0.406000
2.502600 0.403900
2.520800 0.401000
2.539000 0.404000
2.557200 0.418000
2.575400 0.440200
2.593600 0.435100
2.611900 0.410200
2.630100 0.385300
2.648300 0.355200
2.666500 0.310500
2.684700 0.239300
2.702900 0.169000
2.721100 0.169000
2.739300 0.169300
2.757500 0.169600
2.775700 0.170000
2.793900 0.170400
2.812100 0.170800
2.830300 0.171300
2.848500 0.172000
2.866700 0.172600
2.884900 0.173100
2.903100 0.173500
2.921300 0.173900
2.939500 0.174300
2.957700 0.174700
2.975900 0.175100
2.994100 0.175500
3.012300 0.175900
3.030600 0.176300
3.048800 0.176700
3.067000 0.177200
3.085200 0.177700
3.103400 0.178200
3.121600 0.178900
3.139800 0.179700
3.158000 0.181300
3.176200 0.181300
3.194400 0.181300
3.212600 0.181300
3.230800 0.181300
3.249000 0.181300
3.267200 0.181300
3.285400 0.181300
3.303600 0.181300
3.321800 0.181300
3.340000 0.181300
3.358200 0.181300
3.376400 0.181300
3.394600 0.181300
3.412800 0.181300
3.431000 0.181300
3.449200 0.181300
3.467500 0.181300
3.485700 0.181300
3.503900 0.181300
3.522100 0.181300
3.540300 0.181300
3.558500 0.181300
3.576700 0.181300
3.594900 0.181300
3.613100 0.181300
3.631300 0.181300
3.649500 0.181300
3.667700 0.181300
3.685900 0.181300
3.704100 0.181300
3.722300 0.181300
3.740500 0.181700
3.758700 0.183200
3.776900 0.184700
3.795100 0.186400
3.813300 0.188300
3.831500 0.190400
3.849700 0.193000
3.867900 0.196200
3.886200 0.198600
3.904400 0.200700
3.922600 0.202600
3.940800 0.204500
3.959000 0.206300
3.977200 0.208100
3.995400 0.209900
4.013600 0.211700
4.031800 0.213600
4.050000 0.215500
4.068200 0.217600
4.086400 0.219900
4.104600 0.222400
4.122800 0.225700
4.141000 0.231200
4.159200 0.234100
4.177400 0.234100
4.195600 0.234100
4.213800 0.234100
4.232000 0.234100
4.250200 0.234100
4.268400 0.234100
4.286600 0.234100
4.304800 0.234100
4.323100 0.234100
4.341300 0.234100
4.359500 0.234100
4.377700 0.234100
4.395900 0.234100
4.414100 0.234100
4.432300 0.234100
4.450500 0.234100
4.468700 0.234100
4.486900 0.234100
4.505100 0.234100
4.523300 0.234100
4.541500 0.239100
4.559700 0.250400
4.577900 0.262800
4.596100 0.276000
4.614300 0.291000
4.632500 0.309000
4.650700 0.332800
4.668900 0.350500
4.687100 0.365700
4.705300 0.380100
4.723500 0.393700
4.741800 0.406800
4.760000 0.420000
4.778200 0.433300
4.796400 0.446800
4.814600 0.460600
4.832800 0.475800
4.851000 0.492100
4.869200 0.493900
4.887400 0.497400
4.905600 0.523200
4.923800 0.503100
4.942000 0.473100
4.960200 0.431700
4.978400 0.399800
4.996600 0.372500
5.014800 0.347200
5.033000 0.323400
5.051200 0.300300
5.069400 0.277200
5.087600 0.253900
5.105800 0.230200
5.124000 0.205700
5.142200 0.178600
5.160400 0.149400
5.178700 0.113800
5.196900 0.065700
5.215100 0.000000
5.233300 0.000000
5.251500 0.000000
5.269700 0.000000
5.287900 0.000000
5.306100 0.000000
5.324300 0.000000
5.342500 0.000000
5.360700 0.000000
5.378900 0.000000
5.397100 0.000000
5.415300 0.000000
5.433500 0.000000
5.451700 0.000000
5.469900 0.000000
5.488100 0.000000
5.506300 0.000000
5.524500 0.000000
5.542700 0.000000
5.560900 0.000000
5.579100 0.000000
5.597400 0.000000
5.615600 0.000000
5.633800 0.000000
5.652000 0.000000
5.670200 0.000000
5.688400 0.000000
5.706600 0.000000
5.724800 0.000000
5.743000 0.000000
5.761200 0.000000
5.779400 0.000000
5.797600 0.000000
5.815800 0.000000
5.834000 0.000000
5.852200 0.000000
5.870400 0.000000
5.888600 0.000000
5.906800 0.000000
