set title 'mp-610917 - Density of States'
set xlabel 'Energy (eV)'
set ylabel 'DOS (states/eV)'
set grid
set xrange [-10:10]
set yrange [0:7.385]
set xzeroaxis lt -1
set terminal png size 800,600
set output 'mp-610917_dos_gnuplot.png'
plot '-' using 1:2 with lines title 'DOS'
-34.627800 0.000000
-34.561600 0.000000
-34.495400 0.000000
-34.429300 0.000000
-34.363100 0.000000
-34.296900 0.000000
-34.230700 0.000000
-34.164500 0.000000
-34.098400 0.000000
-34.032200 0.000000
-33.966000 0.000000
-33.899800 0.000000
-33.833600 0.000000
-33.767400 0.000000
-33.701300 0.000000
-33.635100 0.000000
-33.568900 0.000000
-33.502700 0.000000
-33.436500 0.000000
-33.370400 0.000000
-33.304200 0.000000
-33.238000 0.000000
-33.171800 0.000000
-33.105600 0.000000
-33.039400 0.000000
-32.973300 0.000000
-32.907100 0.000000
-32.840900 0.000000
-32.774700 0.000000
-32.708500 0.000000
-32.642400 0.000000
-32.576200 0.000000
-32.510000 0.000000
-32.443800 0.000000
-32.377600 0.000000
-32.311400 0.000000
-32.245300 0.000000
-32.179100 0.000000
-32.112900 0.000000
-32.046700 0.000000
-31.980500 0.000000
-31.914400 0.000000
-31.848200 0.000000
-31.782000 0.000000
-31.715800 0.000000
-31.649600 0.000000
-31.583400 0.000000
-31.517300 0.000000
-31.451100 0.000000
-31.384900 0.000000
-31.318700 0.000000
-31.252500 0.000000
-31.186400 0.000000
-31.120200 0.000000
-31.054000 0.000000
-30.987800 0.000000
-30.921600 0.000000
-30.855400 0.000000
-30.789300 0.000000
-30.723100 0.000000
-30.656900 0.000000
-30.590700 0.000000
-30.524500 0.000000
-30.458400 0.000000
-30.392200 0.000000
-30.326000 0.000000
-30.259800 0.000000
-30.193600 0.000000
-30.127400 0.000000
-30.061300 0.000000
-29.995100 0.000000
-29.928900 0.000000
-29.862700 0.000000
-29.796500 0.000000
-29.730400 0.000000
-29.664200 0.000000
-29.598000 0.000000
-29.531800 0.000000
-29.465600 0.000000
-29.399400 0.000000
-29.333300 0.000000
-29.267100 0.000000
-29.200900 0.000000
-29.134700 0.000000
-29.068500 0.000000
-29.002400 0.000000
-28.936200 0.000000
-28.870000 0.000000
-28.803800 0.000000
-28.737600 0.000000
-28.671400 0.000000
-28.605300 0.786700
-28.539100 10.229900
-28.472900 0.000000
-28.406700 0.000000
-28.340500 0.000000
-28.274400 0.000000
-28.208200 0.000000
-28.142000 0.000000
-28.075800 0.000000
-28.009600 0.000000
-27.943400 0.000000
-27.877300 0.000000
-27.811100 0.000000
-27.744900 0.000000
-27.678700 0.000000
-27.612500 0.000000
-27.546400 0.000000
-27.480200 0.000000
-27.414000 0.000000
-27.347800 0.000000
-27.281600 0.000000
-27.215400 0.000000
-27.149300 0.000000
-27.083100 0.000000
-27.016900 0.000000
-26.950700 0.000000
-26.884500 0.000000
-26.818400 0.000000
-26.752200 0.000000
-26.686000 0.000000
-26.619800 0.000000
-26.553600 0.000000
-26.487400 0.000000
-26.421300 0.000000
-26.355100 0.000000
-26.288900 0.000000
-26.222700 0.000000
-26.156500 0.000000
-26.090400 0.000000
-26.024200 0.000000
-25.958000 0.000000
-25.891800 0.000000
-25.825600 0.000000
-25.759400 0.000000
-25.693300 0.000000
-25.627100 0.000000
-25.560900 0.000000
-25.494700 0.000000
-25.428500 0.000000
-25.362400 0.000000
-25.296200 0.000000
-25.230000 0.000000
-25.163800 0.000000
-25.097600 0.000000
-25.031400 0.000000
-24.965300 0.000000
-24.899100 0.000000
-24.832900 0.000000
-24.766700 0.000000
-24.700500 0.000000
-24.634400 0.000000
-24.568200 0.000000
-24.502000 0.000000
-24.435800 0.000000
-24.369600 0.000000
-24.303500 0.000000
-24.237300 0.000000
-24.171100 0.000000
-24.104900 0.000000
-24.038700 0.000000
-23.972500 0.000000
-23.906400 0.000000
-23.840200 0.000000
-23.774000 0.000000
-23.707800 0.000000
-23.641600 0.000000
-23.575500 0.000000
-23.509300 0.000000
-23.443100 0.000000
-23.376900 0.000000
-23.310700 0.000000
-23.244500 0.000000
-23.178400 0.000000
-23.112200 0.000000
-23.046000 0.000000
-22.979800 0.000000
-22.913600 0.000000
-22.847500 0.000000
-22.781300 0.000000
-22.715100 0.000000
-22.648900 0.000000
-22.582700 0.000000
-22.516500 0.000000
-22.450400 0.000000
-22.384200 0.000000
-22.318000 0.000000
-22.251800 0.000000
-22.185600 0.000000
-22.119500 0.000000
-22.053300 0.000000
-21.987100 0.000000
-21.920900 0.000000
-21.854700 0.000000
-21.788500 0.000000
-21.722400 0.000000
-21.656200 0.000000
-21.590000 0.000000
-21.523800 0.000000
-21.457600 0.000000
-21.391500 0.000000
-21.325300 0.000000
-21.259100 0.000000
-21.192900 0.000000
-21.126700 0.000000
-21.060500 0.000000
-20.994400 0.000000
-20.928200 0.000000
-20.862000 0.000000
-20.795800 0.000000
-20.729600 0.000000
-20.663500 0.000000
-20.597300 0.000000
-20.531100 0.000000
-20.464900 0.000000
-20.398700 0.000000
-20.332500 0.000000
-20.266400 0.000000
-20.200200 0.000000
-20.134000 0.000000
-20.067800 0.000000
-20.001600 0.000000
-19.935500 0.000000
-19.869300 0.000000
-19.803100 0.000000
-19.736900 0.000000
-19.670700 0.000000
-19.604500 0.000000
-19.538400 0.000000
-19.472200 0.000000
-19.406000 0.000000
-19.339800 0.000000
-19.273600 0.000000
-19.207500 0.000000
-19.141300 0.000000
-19.075100 0.000000
-19.008900 0.000000
-18.942700 0.000000
-18.876500 0.000000
-18.810400 0.000000
-18.744200 0.000000
-18.678000 0.000000
-18.611800 0.000000
-18.545600 0.000000
-18.479500 0.000000
-18.413300 0.000000
-18.347100 0.000000
-18.280900 0.000000
-18.214700 0.000000
-18.148500 0.000000
-18.082400 0.000000
-18.016200 0.000000
-17.950000 0.000000
-17.883800 0.000000
-17.817600 0.000000
-17.751500 0.000000
-17.685300 0.000000
-17.619100 0.000000
-17.552900 0.000000
-17.486700 0.000000
-17.420500 0.000000
-17.354400 0.000000
-17.288200 0.000000
-17.222000 0.000000
-17.155800 0.000000
-17.089600 0.000000
-17.023500 0.000000
-16.957300 0.302000
-16.891100 0.684200
-16.824900 1.114600
-16.758700 1.923700
-16.692500 3.952100
-16.626400 4.940400
-16.560200 0.000000
-16.494000 0.000000
-16.427800 0.000000
-16.361600 0.000000
-16.295500 0.000000
-16.229300 0.000000
-16.163100 0.000000
-16.096900 0.000000
-16.030700 0.000000
-15.964500 0.000000
-15.898400 0.000000
-15.832200 0.000000
-15.766000 0.000000
-15.699800 0.000000
-15.633600 0.000000
-15.567500 0.000000
-15.501300 0.000000
-15.435100 0.000000
-15.368900 0.000000
-15.302700 0.000000
-15.236500 0.000000
-15.170400 0.000000
-15.104200 0.000000
-15.038000 0.000000
-14.971800 0.000000
-14.905600 0.000000
-14.839500 0.000000
-14.773300 0.000000
-14.707100 0.000000
-14.640900 0.000000
-14.574700 0.000000
-14.508500 0.000000
-14.442400 0.000000
-14.376200 0.000000
-14.310000 0.000000
-14.243800 0.000000
-14.177600 0.000000
-14.111500 0.000000
-14.045300 0.000000
-13.979100 0.000000
-13.912900 0.000000
-13.846700 0.000000
-13.780500 0.000000
-13.714400 0.000000
-13.648200 0.000000
-13.582000 0.000000
-13.515800 0.000000
-13.449600 0.000000
-13.383500 0.000000
-13.317300 0.000000
-13.251100 0.000000
-13.184900 0.000000
-13.118700 0.000000
-13.052500 0.000000
-12.986400 0.000000
-12.920200 0.000000
-12.854000 0.000000
-12.787800 0.000000
-12.721600 0.000000
-12.655500 0.000000
-12.589300 0.000000
-12.523100 0.000000
-12.456900 0.000000
-12.390700 0.000000
-12.324500 0.000000
-12.258400 0.000000
-12.192200 0.000000
-12.126000 0.000000
-12.059800 0.000000
-11.993600 0.000000
-11.927500 0.000000
-11.861300 0.000000
-11.795100 0.000000
-11.728900 0.000000
-11.662700 0.000000
-11.596500 0.000000
-11.530400 0.000000
-11.464200 0.000000
-11.398000 0.000000
-11.331800 0.000000
-11.265600 0.000000
-11.199500 0.000000
-11.133300 0.000000
-11.067100 0.000000
-11.000900 0.000000
-10.934700 0.000000
-10.868600 0.000000
-10.802400 0.000000
-10.736200 0.000000
-10.670000 0.000000
-10.603800 0.000000
-10.537600 0.000000
-10.471500 0.000000
-10.405300 0.000000
-10.339100 0.000000
-10.272900 0.000000
-10.206700 0.000000
-10.140600 0.000000
-10.074400 0.000000
-10.008200 0.000000
-9.942000 0.636300
-9.875800 1.514200
-9.809600 2.135100
-9.743500 2.393200
-9.677300 2.998900
-9.611100 2.356400
-9.544900 1.073400
-9.478700 2.028800
-9.412600 2.739700
-9.346400 3.134100
-9.280200 3.426300
-9.214000 6.713800
-9.147800 5.686800
-9.081600 4.798900
-9.015500 3.185400
-8.949300 0.681300
-8.883100 0.000000
-8.816900 0.000000
-8.750700 0.000000
-8.684600 0.000000
-8.618400 0.000000
-8.552200 0.000000
-8.486000 0.000000
-8.419800 0.000000
-8.353600 0.000000
-8.287500 0.000000
-8.221300 0.000000
-8.155100 0.000000
-8.088900 0.000000
-8.022700 0.000000
-7.956600 0.000000
-7.890400 0.000000
-7.824200 0.000000
-7.758000 0.000000
-7.691800 0.000000
-7.625600 0.000000
-7.559500 0.000000
-7.493300 0.000000
-7.427100 0.000000
-7.360900 0.000000
-7.294700 0.000000
-7.228600 0.000000
-7.162400 0.000000
-7.096200 0.000000
-7.030000 0.000000
-6.963800 0.000000
-6.897600 0.000000
-6.831500 0.000000
-6.765300 0.000000
-6.699100 0.000000
-6.632900 0.000000
-6.566700 0.000000
-6.500600 0.000000
-6.434400 0.000000
-6.368200 0.000000
-6.302000 0.000000
-6.235800 0.000000
-6.169600 0.000000
-6.103500 0.000000
-6.037300 0.000000
-5.971100 0.000000
-5.904900 0.000000
-5.838700 0.000000
-5.772600 0.000000
-5.706400 0.000000
-5.640200 0.000000
-5.574000 0.000000
-5.507800 0.000000
-5.441600 0.000000
-5.375500 0.000000
-5.309300 0.000000
-5.243100 0.000000
-5.176900 0.000000
-5.110700 0.000000
-5.044600 0.000000
-4.978400 0.000000
-4.912200 0.000000
-4.846000 0.000000
-4.779800 0.000000
-4.713600 0.000000
-4.647500 0.000000
-4.581300 0.000000
-4.515100 0.000000
-4.448900 0.000000
-4.382700 0.000000
-4.316600 0.000000
-4.250400 0.000000
-4.184200 0.000000
-4.118000 0.000000
-4.051800 0.000000
-3.985600 0.000000
-3.919500 0.000000
-3.853300 0.000000
-3.787100 0.000000
-3.720900 0.000000
-3.654700 0.000000
-3.588600 0.000000
-3.522400 0.000000
-3.456200 0.343300
-3.390000 1.271500
-3.323800 2.587700
-3.257600 2.539900
-3.191500 3.264600
-3.125300 1.381600
-3.059100 1.868400
-2.992900 2.948800
-2.926700 3.372600
-2.860600 3.582200
-2.794400 3.861300
-2.728200 3.140400
-2.662000 0.937600
-2.595800 0.000000
-2.529600 0.000000
-2.463500 0.000000
-2.397300 0.000000
-2.331100 0.000000
-2.264900 0.000000
-2.198700 0.000000
-2.132600 0.000000
-2.066400 0.000000
-2.000200 0.000000
-1.934000 0.000000
-1.867800 0.000000
-1.801600 0.000000
-1.735500 0.000000
-1.669300 0.000000
-1.603100 0.000000
-1.536900 0.000000
-1.470700 0.000000
-1.404600 0.000000
-1.338400 0.000000
-1.272200 0.000000
-1.206000 0.000000
-1.139800 0.000000
-1.073600 0.000000
-1.007500 0.000000
-0.941300 0.000000
-0.875100 0.000000
-0.808900 0.000000
-0.742700 0.000000
-0.676600 0.000000
-0.610400 0.000000
-0.544200 0.000000
-0.478000 0.000000
-0.411800 0.000000
-0.345600 0.000000
-0.279500 0.000000
-0.213300 0.000000
-0.147100 0.000000
-0.080900 0.000000
-0.014700 0.000000
0.051400 0.000000
0.117600 0.000000
0.183800 0.000000
0.250000 0.000000
0.316200 0.000000
0.382400 0.000000
0.448500 0.000000
0.514700 0.000000
0.580900 0.000000
0.647100 0.000000
0.713300 0.000000
0.779400 0.000000
0.845600 0.000000
0.911800 0.000000
0.978000 0.000000
1.044200 0.000000
1.110400 0.000000
1.176500 0.000000
1.242700 0.000000
1.308900 0.000000
1.375100 0.000000
1.441300 0.000000
1.507400 0.000000
1.573600 0.000000
1.639800 0.000000
1.706000 0.000000
1.772200 0.000000
1.838400 0.000000
1.904500 0.000000
1.970700 0.000000
2.036900 0.000000
2.103100 0.000000
2.169300 0.000000
2.235400 0.000000
2.301600 0.000000
2.367800 0.000000
2.434000 0.000000
2.500200 0.000000
2.566300 0.000000
2.632500 0.000000
2.698700 0.000000
2.764900 0.000000
2.831100 0.000000
2.897300 0.000000
2.963400 0.000000
3.029600 0.000000
3.095800 0.000000
3.162000 0.000000
3.228200 0.000000
3.294300 0.000000
3.360500 0.000000
3.426700 0.000000
3.492900 0.000000
3.559100 0.000000
3.625300 0.000000
3.691400 0.000000
3.757600 0.000000
3.823800 0.000000
3.890000 0.000000
3.956200 0.000000
4.022300 0.000000
4.088500 0.000000
4.154700 0.000600
4.220900 0.033700
4.287100 0.100300
4.353300 0.180100
4.419400 0.259700
4.485600 0.245500
4.551800 0.214900
4.618000 0.213100
4.684200 0.223300
4.750300 0.233600
4.816500 0.243900
4.882700 0.254200
4.948900 0.262500
5.015100 0.269100
5.081300 0.275100
5.147400 0.281400
5.213600 0.287600
5.279800 0.293900
5.346000 0.300600
5.412200 0.308300
5.478300 0.316500
5.544500 0.332200
5.610700 0.360500
5.676900 0.389000
5.743100 0.415600
5.809300 0.442800
5.875400 0.474100
5.941600 0.507600
6.007800 0.542700
6.074000 0.580700
6.140200 0.756100
6.206300 0.764200
6.272500 0.748400
6.338700 0.751000
6.404900 0.758500
6.471100 0.817100
6.537300 0.934800
6.603400 0.740900
6.669600 0.533400
6.735800 0.386900
6.802000 0.224100
6.868200 0.104600
6.934300 0.106400
7.000500 0.112400
7.066700 0.124400
7.132900 0.143300
7.199100 0.160600
7.265300 0.182300
7.331400 0.409800
7.397600 0.723400
7.463800 0.760100
7.530000 0.924200
7.596200 1.299700
7.662300 0.565700
7.728500 0.550800
7.794700 0.545800
7.860900 0.544600
7.927100 0.551000
7.993300 0.563300
8.059400 0.605900
8.125600 0.713100
8.191800 0.822100
8.258000 0.841300
8.324200 0.814900
8.390300 0.736600
8.456500 0.526400
8.522700 0.258000
8.588900 0.125900
8.655100 0.000000
8.721300 0.000000
8.787400 0.000000
8.853600 0.000000
8.919800 0.000000
8.986000 0.001100
9.052200 0.061500
9.118300 0.193100
9.184500 0.356200
9.250700 0.486400
9.316900 0.660600
9.383100 0.978300
9.449300 1.160300
9.515400 1.112500
9.581600 0.823400
9.647800 0.735600
9.714000 0.724600
9.780200 0.869200
9.846300 0.693000
9.912500 0.563400
9.978700 0.482000
10.044900 0.440100
10.111100 0.405800
10.177300 0.363700
10.243400 0.325100
10.309600 0.292400
10.375800 0.266000
10.442000 0.245500
10.508200 0.233300
10.574300 0.317300
10.640500 0.540000
10.706700 0.733200
10.772900 0.852500
10.839100 0.874500
10.905300 0.860000
10.971400 0.667600
11.037600 0.643600
11.103800 0.616700
11.170000 0.602400
11.236200 0.579800
11.302300 0.547700
11.368500 0.528000
11.434700 0.504900
11.500900 0.477900
11.567100 0.457000
11.633300 0.423200
11.699400 0.398100
11.765600 0.382600
11.831800 0.367400
11.898000 0.353200
11.964200 0.340100
12.030300 0.331200
12.096500 0.333800
12.162700 0.341600
12.228900 0.348600
12.295100 0.342800
12.361300 0.326700
12.427400 0.317900
12.493600 0.317600
12.559800 0.295200
12.626000 0.261700
12.692200 0.222500
12.758300 0.185000
12.824500 0.133700
12.890700 0.094200
12.956900 0.087100
13.023100 0.085300
13.089300 0.083600
13.155400 0.081800
13.221600 0.080200
13.287800 0.122400
13.354000 0.297000
13.420200 0.527800
13.486300 0.795600
13.552500 0.980400
13.618700 0.901100
13.684900 0.705100
13.751100 0.651500
13.817300 0.623400
13.883400 0.586200
13.949600 0.539300
14.015800 0.488100
14.082000 0.432100
14.148200 0.384400
14.214300 0.366700
14.280500 0.350600
14.346700 0.334300
14.412900 0.317700
14.479100 0.390900
14.545300 0.378700
14.611400 0.322800
14.677600 0.291000
14.743800 0.276800
14.810000 0.275500
14.876200 0.337100
14.942300 0.416800
15.008500 0.517200
15.074700 0.652200
15.140900 0.808400
15.207100 0.929200
15.273300 1.176600
15.339400 1.097400
15.405600 1.031900
15.471800 0.966400
15.538000 0.896500
15.604200 0.847700
15.670300 0.994800
15.736500 0.984600
15.802700 0.873100
15.868900 0.733800
15.935100 0.627900
16.001200 0.558500
16.067400 0.471400
16.133600 0.403200
16.199800 0.381800
16.266000 0.332500
16.332200 0.309400
16.398300 0.297900
16.464500 0.286000
16.530700 0.294400
16.596900 0.341900
16.663100 0.364000
16.729200 0.383000
16.795400 0.420200
16.861600 0.494400
16.927800 0.528000
16.994000 0.556100
17.060200 0.613300
17.126300 0.614500
17.192500 0.610800
17.258700 0.600900
17.324900 0.582200
17.391100 0.566900
17.457200 0.545700
17.523400 0.523900
17.589600 0.508500
17.655800 0.502700
17.722000 0.494000
17.788200 0.480500
17.854300 0.462100
17.920500 0.444200
17.986700 0.396400
18.052900 0.368700
18.119100 0.362800
18.185200 0.371400
18.251400 0.376200
18.317600 0.376700
18.383800 0.405800
18.450000 0.501700
18.516200 0.465200
18.582300 0.449400
18.648500 0.447100
18.714700 0.469100
18.780900 0.487300
18.847100 0.499100
18.913200 0.515900
18.979400 0.545600
19.045600 0.568100
19.111800 0.583700
19.178000 0.522900
19.244200 0.490000
19.310300 0.474300
19.376500 0.467000
19.442700 0.462000
19.508900 0.457500
19.575100 0.463100
19.641200 0.470000
19.707400 0.464900
19.773600 0.447800
19.839800 0.443500
19.906000 0.456900
19.972200 0.461800
20.038300 0.475100
20.104500 0.482700
20.170700 0.469400
20.236900 0.455500
20.303100 0.421100
20.369200 0.423100
20.435400 0.447300
20.501600 0.489500
20.567800 0.506800
20.634000 0.634100
20.700200 0.534500
20.766300 0.550600
20.832500 0.587000
20.898700 0.625000
20.964900 0.576800
21.031100 0.558500
21.097200 0.565700
21.163400 0.556800
21.229600 0.544200
21.295800 0.525000
21.362000 0.509300
21.428200 0.522900
21.494300 0.551500
21.560500 0.590500
21.626700 0.660900
21.692900 0.708600
21.759100 0.737300
21.825200 0.743800
21.891400 0.729200
21.957600 0.707700
22.023800 0.712500
22.090000 0.717300
22.156200 0.715200
22.222300 0.678500
22.288500 0.646000
22.354700 0.620900
22.420900 0.605400
22.487100 0.604700
22.553200 0.633900
22.619400 0.655500
22.685600 0.513400
22.751800 0.475000
22.818000 0.462300
22.884200 0.463200
22.950300 0.505500
23.016500 0.559400
23.082700 0.630100
23.148900 0.713500
23.215100 0.790900
23.281200 0.904000
23.347400 0.726400
23.413600 0.715500
23.479800 0.781600
23.546000 0.856500
23.612200 0.890100
23.678300 0.859400
23.744500 0.844200
23.810700 0.821900
23.876900 0.817800
23.943100 0.789000
24.009200 0.648600
24.075400 0.527100
24.141600 0.453700
24.207800 0.390400
24.274000 0.342000
24.340200 0.304700
24.406300 0.291300
24.472500 0.335500
24.538700 0.410300
24.604900 0.803700
24.671100 1.123600
24.737200 1.527500
24.803400 1.979600
24.869600 2.098100
24.935800 1.491100
25.002000 1.183900
25.068200 0.933500
25.134300 0.808500
25.200500 0.702700
25.266700 0.607200
25.332900 0.537500
25.399100 0.545200
25.465200 0.414000
25.531400 0.440200
25.597600 0.474900
25.663800 0.530200
25.730000 0.601400
25.796200 0.659300
25.862300 0.702000
25.928500 0.677900
25.994700 0.665100
26.060900 0.714200
26.127100 0.784600
26.193200 0.844900
26.259400 0.881200
26.325600 0.906500
26.391800 0.902000
26.458000 0.904500
26.524200 0.900100
26.590300 0.885100
26.656500 0.832000
26.722700 0.764300
26.788900 0.658600
26.855100 0.664500
26.921200 0.822200
26.987400 0.902500
27.053600 0.825400
27.119800 0.726600
27.186000 0.634200
27.252200 0.656200
27.318300 0.606900
27.384500 0.634600
27.450700 0.668100
27.516900 0.771600
27.583100 0.881300
27.649200 0.971200
27.715400 1.238700
27.781600 1.474800
27.847800 1.349100
27.914000 1.084800
27.980200 0.923500
28.046300 0.959200
28.112500 1.053800
28.178700 1.067500
28.244900 1.059900
28.311100 1.115400
28.377200 1.072500
28.443400 1.090500
28.509600 1.093800
28.575800 1.100600
28.642000 1.127500
28.708200 1.193600
28.774300 1.235800
28.840500 1.184800
28.906700 1.085900
28.972900 1.010500
29.039100 0.897600
29.105200 0.817800
29.171400 0.846600
29.237600 0.723100
29.303800 0.748300
29.370000 0.751900
29.436100 0.730400
29.502300 0.702300
29.568500 0.682600
29.634700 0.669900
29.700900 0.705100
29.767100 0.755700
29.833200 0.743500
29.899400 0.695700
29.965600 0.655600
30.031800 0.661500
30.098000 0.666700
30.164100 0.659600
30.230300 0.648700
30.296500 0.639400
30.362700 0.632400
30.428900 0.630000
30.495100 0.629300
30.561200 0.628800
30.627400 0.628400
30.693600 0.634800
30.759800 0.691100
30.826000 0.762400
30.892100 0.871300
30.958300 0.729000
31.024500 0.728800
31.090700 0.722300
31.156900 0.728500
31.223100 0.759400
31.289200 0.616400
31.355400 0.594200
31.421600 0.578300
31.487800 0.564300
31.554000 0.554200
31.620100 0.546500
31.686300 0.540100
31.752500 0.535100
31.818700 0.532600
31.884900 0.535700
31.951100 0.538300
32.017200 0.540200
32.083400 0.541300
32.149600 0.543500
32.215800 0.552200
32.282000 0.560900
32.348100 0.560500
32.414300 0.568800
32.480500 0.579300
32.546700 0.587200
32.612900 0.594100
32.679100 0.601600
32.745200 0.610400
32.811400 0.626500
32.877600 0.700000
32.943800 0.967500
33.010000 0.801700
33.076100 0.652600
33.142300 0.568400
33.208500 0.517200
