set title 'mp-985296 - Density of States'
set xlabel 'Energy (eV)'
set ylabel 'DOS (states/eV)'
set grid
set xrange [-10:10]
set yrange [0:17.935]
set xzeroaxis lt -1
set terminal png size 800,600
set output 'mp-985296_dos_gnuplot.png'
plot '-' using 1:2 with lines title 'DOS'
-5.529800 0.000000
-5.510500 0.000000
-5.491200 0.000000
-5.471900 0.000000
-5.452600 0.000000
-5.433200 0.000000
-5.413900 0.000000
-5.394600 0.000000
-5.375300 0.000000
-5.356000 0.000000
-5.336600 0.000000
-5.317300 0.000000
-5.298000 0.000000
-5.278700 0.000000
-5.259400 0.000000
-5.240100 0.000000
-5.220700 0.000000
-5.201400 0.000000
-5.182100 0.000000
-5.162800 0.000000
-5.143500 0.000000
-5.124200 0.000000
-5.104800 0.000000
-5.085500 0.000000
-5.066200 0.000000
-5.046900 0.000000
-5.027600 0.000000
-5.008300 0.000000
-4.988900 0.000000
-4.969600 0.000000
-4.950300 0.000000
-4.931000 0.000000
-4.911700 0.000000
-4.892400 0.000000
-4.873000 0.000000
-4.853700 0.000000
-4.834400 0.000000
-4.815100 0.000000
-4.795800 0.000000
-4.776500 0.000000
-4.757100 0.000000
-4.737800 0.000000
-4.718500 0.000000
-4.699200 0.000000
-4.679900 0.000000
-4.660600 0.000000
-4.641200 0.000000
-4.621900 0.000000
-4.602600 0.000000
-4.583300 0.000000
-4.564000 0.000000
-4.544700 0.000000
-4.525300 0.000000
-4.506000 0.000000
-4.486700 0.000000
-4.467400 0.000000
-4.448100 0.000000
-4.428800 0.000000
-4.409400 0.000000
-4.390100 0.000000
-4.370800 0.000000
-4.351500 0.000000
-4.332200 0.000000
-4.312900 0.000000
-4.293500 0.000000
-4.274200 0.000000
-4.254900 0.000000
-4.235600 0.000000
-4.216300 0.000000
-4.197000 0.000000
-4.177600 0.000000
-4.158300 0.000000
-4.139000 0.000000
-4.119700 0.000000
-4.100400 0.000000
-4.081100 0.000000
-4.061700 0.000000
-4.042400 0.000000
-4.023100 0.000000
-4.003800 0.000000
-3.984500 0.000000
-3.965200 0.000000
-3.945800 0.000000
-3.926500 0.000000
-3.907200 0.000000
-3.887900 0.000100
-3.868600 0.000400
-3.849300 0.001500
-3.829900 0.004900
-3.810600 0.012100
-3.791300 0.023400
-3.772000 0.037100
-3.752700 0.051100
-3.733400 0.064300
-3.714000 0.077900
-3.694700 0.099400
-3.675400 0.139200
-3.656100 0.192500
-3.636800 0.228100
-3.617500 0.214600
-3.598100 0.156600
-3.578800 0.092000
-3.559500 0.058700
-3.540200 0.074000
-3.520900 0.134300
-3.501600 0.216400
-3.482200 0.287200
-3.462900 0.325400
-3.443600 0.332100
-3.424300 0.325100
-3.405000 0.328500
-3.385600 0.350100
-3.366300 0.359300
-3.347000 0.316100
-3.327700 0.223900
-3.308400 0.131600
-3.289100 0.087600
-3.269700 0.109600
-3.250400 0.185200
-3.231100 0.281100
-3.211800 0.359700
-3.192500 0.401000
-3.173200 0.416700
-3.153800 0.448200
-3.134500 0.527100
-3.115200 0.616500
-3.095900 0.624000
-3.076600 0.507000
-3.057300 0.331400
-3.037900 0.204700
-3.018600 0.180800
-2.999300 0.238400
-2.980000 0.325300
-2.960700 0.413900
-2.941400 0.515600
-2.922000 0.635900
-2.902700 0.726200
-2.883400 0.709900
-2.864100 0.568900
-2.844800 0.386000
-2.825500 0.284700
-2.806100 0.335300
-2.786800 0.507300
-2.767500 0.690700
-2.748200 0.782500
-2.728900 0.778800
-2.709600 0.770600
-2.690200 0.839700
-2.670900 0.976500
-2.651600 1.109700
-2.632300 1.206600
-2.613000 1.327600
-2.593700 1.569000
-2.574300 1.952600
-2.555000 2.388500
-2.535700 2.777300
-2.516400 3.157100
-2.497100 3.702200
-2.477800 4.531200
-2.458400 5.548700
-2.439100 6.524500
-2.419800 7.300900
-2.400500 7.882400
-2.381200 8.360500
-2.361900 8.790000
-2.342500 9.149300
-2.323200 9.413300
-2.303900 9.607100
-2.284600 9.799800
-2.265300 10.117800
-2.246000 10.670600
-2.226600 11.382800
-2.207300 12.027600
-2.188000 12.466000
-2.168700 12.752100
-2.149400 13.050800
-2.130100 13.513500
-2.110700 14.115400
-2.091400 14.611200
-2.072100 14.804300
-2.052800 14.783000
-2.033500 14.724500
-2.014200 14.630300
-1.994800 14.437500
-1.975500 14.216500
-1.956200 14.075800
-1.936900 13.958600
-1.917600 13.696800
-1.898300 13.266600
-1.878900 12.791900
-1.859600 12.253800
-1.840300 11.486700
-1.821000 10.562600
-1.801700 9.875600
-1.782400 9.696100
-1.763000 9.838500
-1.743700 9.900700
-1.724400 9.728000
-1.705100 9.525200
-1.685800 9.561000
-1.666500 9.902000
-1.647100 10.402000
-1.627800 10.782100
-1.608500 10.741200
-1.589200 10.152300
-1.569900 9.192100
-1.550600 8.247200
-1.531200 7.672000
-1.511900 7.565800
-1.492600 7.717200
-1.473300 7.817100
-1.454000 7.776000
-1.434600 7.794100
-1.415300 8.114500
-1.396000 8.796900
-1.376700 9.738900
-1.357400 10.761800
-1.338100 11.627600
-1.318700 12.128700
-1.299400 12.214400
-1.280100 11.954700
-1.260800 11.455200
-1.241500 10.898600
-1.222200 10.532400
-1.202800 10.507600
-1.183500 10.791000
-1.164200 11.202600
-1.144900 11.442400
-1.125600 11.217800
-1.106300 10.534200
-1.086900 9.742200
-1.067600 9.170900
-1.048300 8.870800
-1.029000 8.786900
-1.009700 8.966900
-0.990400 9.489000
-0.971000 10.315900
-0.951700 11.307300
-0.932400 12.341400
-0.913100 13.370900
-0.893800 14.348000
-0.874500 15.167900
-0.855100 15.748600
-0.835800 16.088600
-0.816500 16.188300
-0.797200 16.046300
-0.777900 15.790000
-0.758600 15.607300
-0.739200 15.457300
-0.719900 15.094200
-0.700600 14.475000
-0.681300 13.869500
-0.662000 13.468000
-0.642700 13.115100
-0.623300 12.533300
-0.604000 11.670700
-0.584700 10.738600
-0.565400 9.961900
-0.546100 9.386900
-0.526800 8.929900
-0.507400 8.496800
-0.488100 8.033000
-0.468800 7.597300
-0.449500 7.436400
-0.430200 7.831600
-0.410900 8.792600
-0.391500 10.012500
-0.372200 11.193700
-0.352900 12.302300
-0.333600 13.452300
-0.314300 14.670000
-0.295000 15.763900
-0.275600 16.304800
-0.256300 15.866000
-0.237000 14.460500
-0.217700 12.627300
-0.198400 10.986800
-0.179100 9.842700
-0.159700 9.231200
-0.140400 9.110500
-0.121100 9.337800
-0.101800 9.582200
-0.082500 9.456700
-0.063200 8.815800
-0.043800 7.872900
-0.024500 6.985900
-0.005200 6.370500
0.014100 6.044000
0.033400 5.960300
0.052700 6.109800
0.072100 6.478900
0.091400 6.942700
0.110700 7.280800
0.130000 7.386000
0.149300 7.390000
0.168600 7.495500
0.188000 7.802100
0.207300 8.350700
0.226600 9.133100
0.245900 9.935700
0.265200 10.358100
0.284500 10.177300
0.303900 9.624700
0.323200 9.149600
0.342500 8.947800
0.361800 8.852700
0.381100 8.604500
0.400500 8.055100
0.419800 7.200700
0.439100 6.216300
0.458400 5.403800
0.477700 4.979400
0.497000 4.938800
0.516400 5.123300
0.535700 5.338000
0.555000 5.449200
0.574300 5.434800
0.593600 5.326400
0.612900 5.139500
0.632300 4.896300
0.651600 4.640100
0.670900 4.393100
0.690200 4.166500
0.709500 4.005200
0.728800 3.946100
0.748200 3.976900
0.767500 4.126200
0.786800 4.512700
0.806100 5.203100
0.825400 6.082900
0.844700 6.903000
0.864100 7.395200
0.883400 7.407200
0.902700 7.051500
0.922000 6.673900
0.941300 6.547500
0.960600 6.634600
0.980000 6.745100
0.999300 6.837100
1.018600 7.006900
1.037900 7.267000
1.057200 7.549000
1.076500 7.890600
1.095900 8.365200
1.115200 8.821200
1.134500 8.976600
1.153800 8.815300
1.173100 8.645100
1.192400 8.743100
1.211800 9.112100
1.231100 9.571600
1.250400 9.978200
1.269700 10.328700
1.289000 10.695400
1.308300 11.134800
1.327700 11.683000
1.347000 12.356100
1.366300 13.055900
1.385600 13.509600
1.404900 13.432800
1.424200 12.805600
1.443600 11.945300
1.462900 11.258900
1.482200 10.896300
1.501500 10.658500
1.520800 10.257300
1.540100 9.591800
1.559500 8.727500
1.578800 7.744900
1.598100 6.732000
1.617400 5.834200
1.636700 5.178000
1.656000 4.750200
1.675400 4.405300
1.694700 3.998200
1.714000 3.481600
1.733300 2.893900
1.752600 2.313700
1.771900 1.841800
1.791300 1.569800
1.810600 1.518000
1.829900 1.599600
1.849200 1.652600
1.868500 1.542300
1.887800 1.265400
1.907200 0.936000
1.926500 0.672000
1.945800 0.528200
1.965100 0.503700
1.984400 0.552200
2.003700 0.608500
2.023100 0.645700
2.042400 0.697100
2.061700 0.814500
2.081000 1.017500
2.100300 1.267300
2.119600 1.472800
2.139000 1.561100
2.158300 1.550000
2.177600 1.506200
2.196900 1.447800
2.216200 1.353500
2.235500 1.239700
2.254900 1.160300
2.274200 1.152800
2.293500 1.215200
2.312800 1.307000
2.332100 1.360100
2.351500 1.315700
2.370800 1.163300
2.390100 0.955200
2.409400 0.783000
2.428700 0.705100
2.448000 0.691100
2.467400 0.665600
2.486700 0.606300
2.506000 0.578600
2.525300 0.663300
2.544600 0.853000
2.563900 1.040000
2.583300 1.120700
2.602600 1.089500
2.621900 1.013700
2.641200 0.951900
2.660500 0.928100
2.679800 0.958200
2.699200 1.052200
2.718500 1.177700
2.737800 1.258900
2.757100 1.241000
2.776400 1.147500
2.795700 1.076800
2.815100 1.139800
2.834400 1.350000
2.853700 1.566600
2.873000 1.603000
2.892300 1.406200
2.911600 1.102300
2.931000 0.873800
2.950300 0.815800
2.969600 0.887600
2.988900 0.957500
3.008200 0.908000
3.027500 0.738500
3.046900 0.560100
3.066200 0.473700
3.085500 0.487900
3.104800 0.566900
3.124100 0.713200
3.143400 0.960900
3.162800 1.289400
3.182100 1.581200
3.201400 1.714900
3.220700 1.685100
3.240000 1.577200
3.259300 1.452500
3.278700 1.318700
3.298000 1.168400
3.317300 0.990500
3.336600 0.785000
3.355900 0.593600
3.375200 0.473600
3.394600 0.442500
3.413900 0.493700
3.433200 0.638100
3.452500 0.868700
3.471800 1.110100
3.491100 1.268200
3.510500 1.309800
3.529800 1.255400
3.549100 1.142100
3.568400 1.027500
3.587700 0.975800
3.607000 1.002200
3.626400 1.055000
3.645700 1.069900
3.665000 1.027300
3.684300 0.948800
3.703600 0.862700
3.722900 0.792800
3.742300 0.757700
3.761600 0.771800
3.780900 0.856800
3.800200 1.029900
3.819500 1.250100
3.838800 1.413600
3.858200 1.453000
3.877500 1.416400
3.896800 1.398900
3.916100 1.418000
3.935400 1.409500
3.954700 1.332600
3.974100 1.217300
3.993400 1.108800
4.012700 1.027700
4.032000 0.989100
4.051300 1.006900
4.070600 1.060100
4.090000 1.080600
4.109300 0.999100
4.128600 0.816600
4.147900 0.611600
4.167200 0.465900
4.186500 0.412300
4.205900 0.451700
4.225200 0.580500
4.244500 0.796400
4.263800 1.077700
4.283100 1.345200
4.302500 1.482200
4.321800 1.454000
4.341100 1.384700
4.360400 1.450800
4.379700 1.681800
4.399000 1.900600
4.418400 1.890700
4.437700 1.604400
4.457000 1.178800
4.476300 0.782700
4.495600 0.503600
4.514900 0.357900
4.534300 0.344300
4.553600 0.460900
4.572900 0.679200
4.592200 0.927000
4.611500 1.136500
4.630800 1.307100
4.650200 1.473100
4.669500 1.603200
4.688800 1.600600
4.708100 1.420000
4.727400 1.137600
4.746700 0.902700
4.766100 0.839200
4.785400 0.964600
4.804700 1.177000
4.824000 1.341100
4.843300 1.396200
4.862600 1.365600
4.882000 1.297600
4.901300 1.237900
4.920600 1.217200
4.939900 1.216500
4.959200 1.175800
4.978500 1.074700
4.997900 0.971000
5.017200 0.923200
5.036500 0.901400
5.055800 0.823500
5.075100 0.667300
5.094400 0.496200
5.113800 0.386900
5.133100 0.387600
5.152400 0.530600
5.171700 0.823800
5.191000 1.205900
5.210300 1.535100
5.229700 1.666200
5.249000 1.560400
5.268300 1.312500
5.287600 1.074700
5.306900 0.963300
5.326200 1.013300
5.345600 1.174600
5.364900 1.334900
5.384200 1.376500
5.403500 1.265300
5.422800 1.091400
5.442100 1.000000
5.461500 1.066900
5.480800 1.220800
5.500100 1.301100
5.519400 1.215700
5.538700 1.012700
5.558000 0.789500
5.577400 0.602000
5.596700 0.479300
5.616000 0.452600
5.635300 0.530100
5.654600 0.670400
5.673900 0.809400
5.693300 0.919100
5.712600 1.030900
5.731900 1.193600
5.751200 1.400100
5.770500 1.558800
5.789800 1.571400
5.809200 1.453100
5.828500 1.339500
5.847800 1.354200
5.867100 1.484900
5.886400 1.599500
5.905700 1.570400
5.925100 1.374700
5.944400 1.095800
5.963700 0.847300
5.983000 0.684000
6.002300 0.578700
6.021600 0.491500
6.041000 0.436100
6.060300 0.456100
6.079600 0.565300
6.098900 0.737400
6.118200 0.935300
6.137500 1.130300
6.156900 1.296100
6.176200 1.412900
6.195500 1.481900
6.214800 1.512000
6.234100 1.499900
6.253500 1.442300
6.272800 1.349900
6.292100 1.234300
6.311400 1.098300
6.330700 0.950500
6.350000 0.812500
6.369400 0.707000
6.388700 0.646500
6.408000 0.630800
6.427300 0.655500
6.446600 0.717100
6.465900 0.796000
6.485300 0.850000
6.504600 0.847600
6.523900 0.805300
6.543200 0.780600
6.562500 0.817100
6.581800 0.884800
6.601200 0.889900
6.620500 0.768400
6.639800 0.561000
6.659100 0.377500
6.678400 0.295300
6.697700 0.307200
6.717100 0.359900
6.736400 0.420500
6.755700 0.497700
6.775000 0.614000
6.794300 0.764100
6.813600 0.901400
6.833000 0.968800
6.852300 0.948000
6.871600 0.883300
6.890900 0.853600
6.910200 0.902600
6.929500 1.001100
6.948900 1.081200
6.968200 1.092700
6.987500 1.037400
7.006800 0.979800
7.026100 0.998000
7.045400 1.091000
7.064800 1.167400
7.084100 1.157700
7.103400 1.097200
7.122700 1.069600
7.142000 1.107800
7.161300 1.180800
7.180700 1.249200
7.200000 1.297800
7.219300 1.307700
7.238600 1.229600
7.257900 1.029400
7.277200 0.758000
7.296600 0.535000
7.315900 0.445600
7.335200 0.467700
7.354500 0.500500
7.373800 0.461300
7.393100 0.360100
7.412500 0.274600
7.431800 0.257000
7.451100 0.285300
7.470400 0.308900
7.489700 0.316500
7.509000 0.334700
7.528400 0.373000
7.547700 0.405200
7.567000 0.409700
7.586300 0.415300
7.605600 0.498100
7.624900 0.714200
7.644300 1.018200
7.663600 1.278900
7.682900 1.405100
7.702200 1.419800
7.721500 1.401200
7.740800 1.405200
7.760200 1.450100
7.779500 1.511900
7.798800 1.526400
7.818100 1.456400
7.837400 1.365000
7.856700 1.345500
7.876100 1.376300
7.895400 1.343300
7.914700 1.211700
7.934000 1.076700
7.953300 1.053200
7.972600 1.182000
7.992000 1.406200
8.011300 1.589200
8.030600 1.607600
8.049900 1.475300
8.069200 1.329200
8.088500 1.269500
8.107900 1.278700
8.127200 1.317400
8.146500 1.403400
8.165800 1.531100
8.185100 1.594400
8.204500 1.499800
8.223800 1.308500
8.243100 1.169100
8.262400 1.145600
8.281700 1.181100
8.301000 1.194200
8.320400 1.176300
8.339700 1.205900
8.359000 1.352100
8.378300 1.548800
8.397600 1.624400
8.416900 1.479700
8.436300 1.191100
8.455600 0.932100
8.474900 0.833000
8.494200 0.897400
8.513500 1.021500
8.532800 1.094900
8.552200 1.091600
8.571500 1.072200
8.590800 1.119500
8.610100 1.261800
8.629400 1.435400
8.648700 1.541800
8.668100 1.553100
8.687400 1.524900
8.706700 1.512000
8.726000 1.521300
8.745300 1.534500
8.764600 1.522200
8.784000 1.449500
8.803300 1.312200
8.822600 1.171500
8.841900 1.125100
8.861200 1.220400
8.880500 1.407500
8.899900 1.596000
8.919200 1.738800
8.938500 1.835700
8.957800 1.873900
8.977100 1.804700
8.996400 1.595700
9.015800 1.301000
9.035100 1.036000
9.054400 0.863300
9.073700 0.751600
9.093000 0.668600
9.112300 0.649800
9.131700 0.730000
9.151000 0.853500
9.170300 0.917500
9.189600 0.900800
9.208900 0.890200
9.228200 0.963500
9.247600 1.096800
9.266900 1.218400
9.286200 1.315200
9.305500 1.426400
9.324800 1.537400
9.344100 1.549700
9.363500 1.383800
9.382800 1.078700
9.402100 0.780700
9.421400 0.646400
9.440700 0.729800
9.460000 0.938300
9.479400 1.111300
9.498700 1.163000
9.518000 1.145300
9.537300 1.166700
9.556600 1.262400
9.575900 1.370500
9.595300 1.430300
9.614600 1.438400
9.633900 1.388800
9.653200 1.248500
9.672500 1.039200
9.691800 0.863500
9.711200 0.800700
9.730500 0.835100
9.749800 0.912400
9.769100 1.010900
9.788400 1.121300
9.807700 1.208600
9.827100 1.261300
9.846400 1.342300
9.865700 1.501600
9.885000 1.662800
9.904300 1.694800
9.923600 1.575900
9.943000 1.398900
9.962300 1.231900
9.981600 1.058800
10.000900 0.858900
10.020200 0.681700
10.039500 0.612500
10.058900 0.684600
10.078200 0.847200
10.097500 1.026200
10.116800 1.202600
10.136100 1.399700
10.155500 1.588600
10.174800 1.668900
10.194100 1.573600
10.213400 1.349700
10.232700 1.112400
10.252000 0.948000
10.271400 0.866900
10.290700 0.823100
10.310000 0.777200
10.329300 0.745200
10.348600 0.773900
10.367900 0.885800
10.387300 1.061700
10.406600 1.246100
10.425900 1.362000
10.445200 1.361200
10.464500 1.271000
10.483800 1.171800
10.503200 1.113500
10.522500 1.068000
10.541800 0.979900
10.561100 0.853800
10.580400 0.773100
10.599700 0.838500
10.619100 1.088700
10.638400 1.456500
10.657700 1.780000
10.677000 1.878900
10.696300 1.687800
10.715600 1.336900
10.735000 1.048000
10.754300 0.935900
10.773600 0.943600
10.792900 0.945200
10.812200 0.876800
10.831500 0.787500
10.850900 0.779200
10.870200 0.892300
10.889500 1.063500
10.908800 1.204100
10.928100 1.305100
10.947400 1.454700
10.966800 1.749800
10.986100 2.171600
11.005400 2.544900
11.024700 2.660600
11.044000 2.455500
11.063300 2.056000
11.082700 1.673900
11.102000 1.473900
11.121300 1.493900
11.140600 1.659700
11.159900 1.865000
11.179200 2.012200
11.198600 2.003800
11.217900 1.782200
11.237200 1.417200
11.256500 1.092400
11.275800 0.960800
11.295100 1.028600
11.314500 1.189500
11.333800 1.346300
11.353100 1.484700
11.372400 1.637500
11.391700 1.806200
11.411000 1.947800
11.430400 2.016900
11.449700 1.998900
11.469000 1.928200
11.488300 1.892900
11.507600 1.974500
11.526900 2.151800
11.546300 2.298100
11.565600 2.297800
11.584900 2.149200
11.604200 1.945600
11.623500 1.765200
11.642800 1.597600
11.662200 1.392500
11.681500 1.160400
11.700800 0.994400
11.720100 0.994900
11.739400 1.185500
11.758700 1.504300
11.778100 1.859600
11.797400 2.174000
11.816700 2.384200
11.836000 2.450000
11.855300 2.381200
11.874600 2.229100
11.894000 2.043500
11.913300 1.841800
11.932600 1.616700
11.951900 1.391900
11.971200 1.255100
11.990500 1.279000
12.009900 1.424000
12.029200 1.570200
12.048500 1.636900
12.067800 1.638200
12.087100 1.635100
12.106500 1.673500
12.125800 1.762000
12.145100 1.866800
12.164400 1.924400
12.183700 1.891000
12.203000 1.777000
12.222400 1.620200
12.241700 1.448900
12.261000 1.298800
12.280300 1.238600
12.299600 1.308000
12.318900 1.432700
12.338300 1.471100
12.357600 1.355400
12.376900 1.146700
12.396200 0.975500
12.415500 0.967800
12.434800 1.168100
12.454200 1.472400
12.473500 1.685400
12.492800 1.707800
12.512100 1.623300
12.531400 1.571500
12.550700 1.606700
12.570100 1.715000
12.589400 1.888400
12.608700 2.125100
12.628000 2.384900
12.647300 2.573000
12.666600 2.575600
12.686000 2.340200
12.705300 1.946200
12.724600 1.597200
12.743900 1.511000
12.763200 1.763900
12.782500 2.209300
12.801900 2.575000
12.821200 2.668400
12.840500 2.486800
12.859800 2.153000
12.879100 1.797900
12.898400 1.507400
12.917800 1.315400
12.937100 1.194800
12.956400 1.086600
12.975700 0.979300
12.995000 0.943000
13.014300 1.053100
13.033700 1.299500
13.053000 1.594100
13.072300 1.839500
13.091600 1.968700
13.110900 1.970300
13.130200 1.930000
13.149600 2.013000
13.168900 2.315300
13.188200 2.710700
13.207500 2.925200
13.226800 2.811100
13.246100 2.493800
13.265500 2.209300
13.284800 2.074800
13.304100 2.074300
13.323400 2.159400
13.342700 2.258300
13.362000 2.264800
13.381400 2.135400
13.400700 1.952600
13.420000 1.811400
13.439300 1.710000
13.458600 1.612100
13.477900 1.531200
13.497300 1.501800
13.516600 1.539100
13.535900 1.653300
13.555200 1.838300
13.574500 2.026100
13.593800 2.101700
13.613200 2.001700
13.632500 1.789500
13.651800 1.613900
13.671100 1.570000
13.690400 1.600700
13.709700 1.570200
13.729100 1.432100
13.748400 1.273200
13.767700 1.207400
13.787000 1.278900
13.806300 1.450600
13.825600 1.640900
13.845000 1.785800
13.864300 1.888900
13.883600 1.991500
13.902900 2.094200
13.922200 2.153900
13.941500 2.150700
13.960900 2.096300
13.980200 1.981900
13.999500 1.804700
14.018800 1.657500
14.038100 1.687300
14.057500 1.902100
14.076800 2.098200
14.096100 2.061100
14.115400 1.790000
14.134700 1.471800
14.154000 1.305600
14.173400 1.393300
14.192700 1.700800
14.212000 2.046000
14.231300 2.191700
14.250600 2.046200
14.269900 1.760200
14.289300 1.581200
14.308600 1.632100
14.327900 1.857000
14.347200 2.135900
14.366500 2.391900
14.385800 2.572800
14.405200 2.599600
14.424500 2.439000
14.443800 2.209500
14.463100 2.106400
14.482400 2.225800
14.501700 2.503600
14.521100 2.787500
14.540400 2.950100
14.559700 2.959000
14.579000 2.845000
14.598300 2.642600
14.617600 2.402000
14.637000 2.210200
14.656300 2.144900
14.675600 2.215400
14.694900 2.339200
14.714200 2.368000
14.733500 2.189700
14.752900 1.836500
14.772200 1.467500
14.791500 1.249700
14.810800 1.265800
14.830100 1.482300
14.849400 1.766000
14.868800 1.989700
14.888100 2.155700
14.907400 2.359500
14.926700 2.629600
