set title 'mp-1184006 - Density of States'
set xlabel 'Energy (eV)'
set ylabel 'DOS (states/eV)'
set grid
set xrange [-10:10]
set yrange [0:92.962]
set xzeroaxis lt -1
set terminal png size 800,600
set output 'mp-1184006_dos_gnuplot.png'
plot '-' using 1:2 with lines title 'DOS'
-11.597400 0.000000
-11.567900 0.000000
-11.538400 0.000000
-11.509000 0.000000
-11.479500 0.000000
-11.450000 0.000000
-11.420500 0.000000
-11.391000 0.000000
-11.361500 0.000000
-11.332000 0.000000
-11.302500 0.000000
-11.273100 0.000000
-11.243600 0.000000
-11.214100 0.000000
-11.184600 0.000000
-11.155100 0.000000
-11.125600 0.000000
-11.096100 0.000000
-11.066600 0.000000
-11.037200 0.000000
-11.007700 0.000000
-10.978200 0.000000
-10.948700 0.000000
-10.919200 0.000000
-10.889700 0.000000
-10.860200 0.000000
-10.830700 0.000000
-10.801300 0.000000
-10.771800 0.000000
-10.742300 0.000000
-10.712800 0.000000
-10.683300 0.000000
-10.653800 0.000000
-10.624300 0.000000
-10.594800 0.000000
-10.565400 0.000000
-10.535900 0.000000
-10.506400 0.000000
-10.476900 0.000000
-10.447400 0.000000
-10.417900 0.000000
-10.388400 0.000000
-10.358900 0.000000
-10.329400 0.000000
-10.300000 0.000000
-10.270500 0.000000
-10.241000 0.000000
-10.211500 0.000000
-10.182000 0.000000
-10.152500 0.000000
-10.123000 0.000000
-10.093500 0.000000
-10.064100 0.000000
-10.034600 0.000000
-10.005100 0.000000
-9.975600 0.000000
-9.946100 0.000000
-9.916600 0.000000
-9.887100 0.000000
-9.857600 0.000000
-9.828200 0.000000
-9.798700 0.000000
-9.769200 0.000000
-9.739700 0.000000
-9.710200 0.000000
-9.680700 0.000000
-9.651200 0.000000
-9.621700 0.000000
-9.592300 0.000000
-9.562800 0.000000
-9.533300 0.000000
-9.503800 0.000000
-9.474300 0.000000
-9.444800 0.000000
-9.415300 0.000000
-9.385800 0.000000
-9.356400 0.000000
-9.326900 0.000000
-9.297400 0.000000
-9.267900 0.000000
-9.238400 0.000000
-9.208900 0.000000
-9.179400 0.000000
-9.149900 0.000000
-9.120500 0.000000
-9.091000 0.000000
-9.061500 0.000000
-9.032000 0.001600
-9.002500 0.038200
-8.973000 0.526500
-8.943500 4.171800
-8.914000 19.205200
-8.884600 51.990700
-8.855100 84.185700
-8.825600 84.511300
-8.796100 56.356900
-8.766600 26.838300
-8.737100 9.052500
-8.707600 1.973100
-8.678100 0.253800
-8.648700 0.018300
-8.619200 0.000700
-8.589700 0.000000
-8.560200 0.000000
-8.530700 0.000000
-8.501200 0.000000
-8.471700 0.000000
-8.442200 0.000000
-8.412700 0.000000
-8.383300 0.000000
-8.353800 0.000000
-8.324300 0.000000
-8.294800 0.000000
-8.265300 0.000000
-8.235800 0.000000
-8.206300 0.000000
-8.176800 0.000000
-8.147400 0.000000
-8.117900 0.000000
-8.088400 0.000000
-8.058900 0.000000
-8.029400 0.000000
-7.999900 0.000000
-7.970400 0.000000
-7.940900 0.000000
-7.911500 0.000000
-7.882000 0.000000
-7.852500 0.000000
-7.823000 0.000000
-7.793500 0.000000
-7.764000 0.000000
-7.734500 0.000000
-7.705000 0.000000
-7.675600 0.000000
-7.646100 0.000000
-7.616600 0.000000
-7.587100 0.000000
-7.557600 0.000000
-7.528100 0.000000
-7.498600 0.000000
-7.469100 0.000000
-7.439700 0.000000
-7.410200 0.000000
-7.380700 0.000000
-7.351200 0.000000
-7.321700 0.000000
-7.292200 0.000000
-7.262700 0.000000
-7.233200 0.000000
-7.203800 0.000000
-7.174300 0.000000
-7.144800 0.000000
-7.115300 0.000000
-7.085800 0.000000
-7.056300 0.000000
-7.026800 0.000000
-6.997300 0.000000
-6.967900 0.000000
-6.938400 0.000000
-6.908900 0.000000
-6.879400 0.000000
-6.849900 0.000000
-6.820400 0.000000
-6.790900 0.000000
-6.761400 0.000000
-6.732000 0.000000
-6.702500 0.000000
-6.673000 0.000000
-6.643500 0.000000
-6.614000 0.000000
-6.584500 0.000000
-6.555000 0.000000
-6.525500 0.000000
-6.496100 0.000000
-6.466600 0.000000
-6.437100 0.000000
-6.407600 0.000000
-6.378100 0.000000
-6.348600 0.000000
-6.319100 0.000000
-6.289600 0.000000
-6.260100 0.000000
-6.230700 0.000000
-6.201200 0.000000
-6.171700 0.000000
-6.142200 0.000000
-6.112700 0.000000
-6.083200 0.000000
-6.053700 0.000000
-6.024200 0.000000
-5.994800 0.000000
-5.965300 0.000000
-5.935800 0.000000
-5.906300 0.000000
-5.876800 0.000000
-5.847300 0.000000
-5.817800 0.000000
-5.788300 0.000000
-5.758900 0.000000
-5.729400 0.000000
-5.699900 0.000000
-5.670400 0.000000
-5.640900 0.000000
-5.611400 0.000000
-5.581900 0.000000
-5.552400 0.000000
-5.523000 0.000000
-5.493500 0.000000
-5.464000 0.000000
-5.434500 0.000000
-5.405000 0.000000
-5.375500 0.000000
-5.346000 0.000000
-5.316500 0.000000
-5.287100 0.000000
-5.257600 0.000000
-5.228100 0.000000
-5.198600 0.000000
-5.169100 0.000000
-5.139600 0.000000
-5.110100 0.000200
-5.080600 0.001900
-5.051200 0.008400
-5.021700 0.022100
-4.992200 0.039200
-4.962700 0.057800
-4.933200 0.092100
-4.903700 0.137800
-4.874200 0.135500
-4.844700 0.081200
-4.815300 0.060300
-4.785800 0.112900
-4.756300 0.186100
-4.726800 0.220200
-4.697300 0.227800
-4.667800 0.238400
-4.638300 0.215900
-4.608800 0.135300
-4.579400 0.072600
-4.549900 0.092800
-4.520400 0.172400
-4.490900 0.248700
-4.461400 0.297800
-4.431900 0.358500
-4.402400 0.400900
-4.372900 0.312400
-4.343400 0.165300
-4.314000 0.127100
-4.284500 0.192000
-4.255000 0.248300
-4.225500 0.267200
-4.196000 0.308500
-4.166500 0.357700
-4.137000 0.312400
-4.107500 0.203200
-4.078100 0.192100
-4.048600 0.318400
-4.019100 0.444100
-3.989600 0.478100
-3.960100 0.465700
-3.930600 0.389100
-3.901100 0.236600
-3.871600 0.155400
-3.842200 0.221100
-3.812700 0.327600
-3.783200 0.393000
-3.753700 0.452000
-3.724200 0.535400
-3.694700 0.554300
-3.665200 0.409600
-3.635700 0.223100
-3.606300 0.175500
-3.576800 0.260200
-3.547300 0.398100
-3.517800 0.576900
-3.488300 0.671800
-3.458800 0.515100
-3.429300 0.279400
-3.399800 0.253300
-3.370400 0.435600
-3.340900 0.603400
-3.311400 0.618800
-3.281900 0.564000
-3.252400 0.491200
-3.222900 0.377200
-3.193400 0.354800
-3.163900 0.486700
-3.134500 0.604000
-3.105000 0.655400
-3.075500 0.672300
-3.046000 0.542100
-3.016500 0.339000
-2.987000 0.302100
-2.957500 0.375300
-2.928000 0.423200
-2.898600 0.567400
-2.869100 0.782300
-2.839600 0.773800
-2.810100 0.673100
-2.780600 0.806800
-2.751100 0.995200
-2.721600 0.990600
-2.692100 0.855600
-2.662700 0.646700
-2.633200 0.405500
-2.603700 0.312600
-2.574200 0.456700
-2.544700 0.733000
-2.515200 0.956500
-2.485700 0.945300
-2.456200 0.742400
-2.426800 0.615900
-2.397300 0.646300
-2.367800 0.787000
-2.338300 0.914500
-2.308800 0.917100
-2.279300 0.950500
-2.249800 1.060800
-2.220300 1.158300
-2.190800 1.243500
-2.161400 1.171500
-2.131900 0.942600
-2.102400 0.831700
-2.072900 0.972400
-2.043400 1.154700
-2.013900 1.118000
-1.984400 0.982700
-1.954900 0.996000
-1.925500 1.146000
-1.896000 1.207600
-1.866500 1.093000
-1.837000 0.944300
-1.807500 0.847100
-1.778000 0.757200
-1.748500 0.753700
-1.719000 0.866000
-1.689600 0.827300
-1.660100 0.572100
-1.630600 0.404400
-1.601100 0.488700
-1.571600 0.722400
-1.542100 0.900500
-1.512600 0.840000
-1.483100 0.624800
-1.453700 0.465600
-1.424200 0.438100
-1.394700 0.508200
-1.365200 0.623600
-1.335700 0.673400
-1.306200 0.546000
-1.276700 0.336500
-1.247200 0.169000
-1.217800 0.063200
-1.188300 0.014800
-1.158800 0.001900
-1.129300 0.000100
-1.099800 0.000000
-1.070300 0.000000
-1.040800 0.000000
-1.011300 0.000100
-0.981900 0.000800
-0.952400 0.005800
-0.922900 0.021300
-0.893400 0.041800
-0.863900 0.044800
-0.834400 0.030600
-0.804900 0.031300
-0.775400 0.055100
-0.746000 0.068500
-0.716500 0.072400
-0.687000 0.126700
-0.657500 0.229100
-0.628000 0.276100
-0.598500 0.208600
-0.569000 0.105400
-0.539500 0.081700
-0.510100 0.167000
-0.480600 0.305100
-0.451100 0.473500
-0.421600 0.670400
-0.392100 0.743400
-0.362600 0.608100
-0.333100 0.407800
-0.303600 0.290700
-0.274100 0.370300
-0.244700 0.627200
-0.215200 0.827700
-0.185700 0.814000
-0.156200 0.672000
-0.126700 0.561700
-0.097200 0.593200
-0.067700 0.693700
-0.038200 0.750800
-0.008800 0.910400
0.020700 1.273700
0.050200 1.508600
0.079700 1.362300
0.109200 1.096700
0.138700 1.002600
0.168200 1.007700
0.197700 0.978500
0.227100 0.976800
0.256600 1.078000
0.286100 1.236600
0.315600 1.346500
0.345100 1.375200
0.374600 1.459800
0.404100 1.679500
0.433600 1.906200
0.463000 2.024300
0.492500 2.015900
0.522000 1.927600
0.551500 1.712900
0.581000 1.422900
0.610500 1.294000
0.640000 1.467500
0.669500 1.853800
0.698900 2.000800
0.728400 1.651600
0.757900 1.232500
0.787400 1.173200
0.816900 1.367300
0.846400 1.519900
0.875900 1.487800
0.905400 1.336200
0.934800 1.246100
0.964300 1.252700
0.993800 1.186000
1.023300 1.064000
1.052800 1.059800
1.082300 1.094900
1.111800 0.983600
1.141300 0.863600
1.170700 0.989400
1.200200 1.275500
1.229700 1.446000
1.259200 1.402500
1.288700 1.346600
1.318200 1.442300
1.347700 1.550100
1.377200 1.540300
1.406600 1.452900
1.436100 1.351700
1.465600 1.385500
1.495100 1.687100
1.524600 2.077400
1.554100 2.151400
1.583600 1.867300
1.613100 1.571800
1.642600 1.582600
1.672000 2.030000
1.701500 2.591300
1.731000 2.684200
1.760500 2.433400
1.790000 2.567400
1.819500 3.059000
1.849000 3.244300
1.878500 3.070800
1.907900 2.970500
1.937400 2.983800
1.966900 2.933700
1.996400 2.871000
2.025900 2.847600
2.055400 2.778400
2.084900 2.708800
2.114400 2.925700
2.143800 3.403300
2.173300 3.620500
2.202800 3.552900
2.232300 3.765500
2.261800 4.248400
2.291300 4.666700
2.320800 5.151300
2.350300 5.617000
2.379700 5.696800
2.409200 5.573800
2.438700 5.430400
2.468200 5.038200
2.497700 4.574300
2.527200 4.445200
2.556700 4.832100
2.586200 5.861400
2.615600 7.443200
2.645100 8.967700
2.674600 9.532600
2.704100 9.114400
2.733600 8.360700
2.763100 7.576200
2.792600 6.943000
2.822100 6.604000
2.851500 6.462700
2.881000 6.280500
2.910500 6.243100
2.940000 6.461800
2.969500 6.659400
2.999000 6.721400
3.028500 6.725000
3.058000 6.765200
3.087400 6.965900
3.116900 7.115400
3.146400 6.733800
3.175900 6.230800
3.205400 6.325400
3.234900 6.765800
3.264400 6.914200
3.293900 6.737500
3.323300 6.533700
3.352800 6.049300
3.382300 5.048000
3.411800 3.993600
3.441300 3.419400
3.470800 3.673500
3.500300 4.828800
3.529800 6.381700
3.559200 7.630300
3.588700 8.082800
3.618200 7.931800
3.647700 7.838700
3.677200 7.986600
3.706700 8.211200
3.736200 8.112400
3.765700 7.713000
3.795200 7.447600
3.824600 7.173700
3.854100 6.866500
3.883600 6.915800
3.913100 7.232800
3.942600 7.340100
3.972100 6.979100
4.001600 6.487600
4.031100 6.173900
4.060500 5.877900
4.090000 5.562700
4.119500 5.399600
4.149000 5.360900
4.178500 5.280600
4.208000 5.347000
4.237500 5.710800
4.267000 6.103200
4.296400 6.283000
4.325900 6.250100
4.355400 6.144700
4.384900 5.926300
4.414400 5.565800
4.443900 5.302400
4.473400 5.337900
4.502900 5.413600
4.532300 5.168400
4.561800 5.191100
4.591300 6.441300
4.620800 8.289100
4.650300 9.322700
4.679800 9.230200
4.709300 8.481200
4.738800 7.907000
4.768200 8.092500
4.797700 8.606300
4.827200 8.943300
4.856700 9.225700
4.886200 9.537000
4.915700 10.192700
4.945200 11.388200
4.974700 12.495500
5.004100 12.989800
5.033600 12.817200
5.063100 12.613700
5.092600 13.009600
5.122100 13.268100
5.151600 12.640600
5.181100 11.582600
5.210600 10.237000
5.240000 8.528700
5.269500 7.299200
5.299000 6.827300
5.328500 6.357400
5.358000 5.588900
5.387500 4.789300
5.417000 4.226300
5.446500 4.188400
5.475900 4.570600
5.505400 4.768100
5.534900 4.451400
5.564400 3.972200
5.593900 3.779900
5.623400 3.811300
5.652900 3.999600
5.682400 4.855200
5.711900 6.605500
5.741300 8.557800
5.770800 10.054200
5.800300 10.664600
5.829800 10.280700
5.859300 9.396100
5.888800 8.676800
5.918300 8.179100
5.947800 7.383500
5.977200 6.130300
6.006700 4.911500
6.036200 4.168000
6.065700 3.587000
6.095200 3.141500
6.124700 3.023800
6.154200 2.778700
6.183700 2.175100
6.213100 1.665100
6.242600 1.598100
6.272100 1.725200
6.301600 1.793800
6.331100 1.912100
6.360600 1.994800
6.390100 1.817200
6.419600 1.530900
6.449000 1.420400
6.478500 1.434000
6.508000 1.422900
6.537500 1.462600
6.567000 1.574100
6.596500 1.581400
6.626000 1.445100
6.655500 1.286100
6.684900 1.159900
6.714400 1.122500
6.743900 1.177900
6.773400 1.228500
6.802900 1.204600
6.832400 1.168500
6.861900 1.231600
6.891400 1.409200
6.920800 1.688300
6.950300 1.938000
6.979800 1.942500
7.009300 1.869500
7.038800 1.918100
7.068300 1.926800
7.097800 1.905400
7.127300 1.958500
7.156700 2.069700
7.186200 2.160900
7.215700 2.024300
7.245200 1.730700
7.274700 1.467300
7.304200 1.310700
7.333700 1.389400
7.363200 1.507700
7.392600 1.315000
7.422100 0.999700
7.451600 0.978500
7.481100 1.217100
7.510600 1.406200
7.540100 1.519500
7.569600 1.567200
7.599100 1.426500
7.628500 1.216400
7.658000 1.154000
7.687500 1.285900
7.717000 1.463200
7.746500 1.495500
7.776000 1.380600
7.805500 1.284300
7.835000 1.284400
7.864500 1.279300
7.893900 1.224800
7.923400 1.188800
7.952900 1.213000
7.982400 1.239600
8.011900 1.274900
8.041400 1.276000
8.070900 1.109000
8.100400 0.831400
8.129800 0.632400
8.159300 0.690600
8.188800 1.052400
8.218300 1.437800
8.247800 1.598800
8.277300 1.544100
8.306800 1.296700
8.336300 1.040300
8.365700 0.911100
8.395200 0.833600
8.424700 0.825900
8.454200 0.874800
8.483700 0.888100
8.513200 0.861500
8.542700 0.835600
8.572200 0.816700
8.601600 0.776500
8.631100 0.728500
8.660600 0.667400
8.690100 0.545200
8.719600 0.470700
8.749100 0.573200
8.778600 0.751400
8.808100 0.882900
8.837500 0.907700
8.867000 0.780500
8.896500 0.714300
8.926000 0.786700
8.955500 0.787600
8.985000 0.786800
9.014500 0.899500
9.044000 1.002800
9.073400 1.074800
9.102900 1.133900
9.132400 1.116200
9.161900 1.000600
9.191400 0.803500
9.220900 0.598000
9.250400 0.491500
9.279900 0.507500
9.309300 0.551300
9.338800 0.566100
9.368300 0.564800
9.397800 0.532600
9.427300 0.522100
9.456800 0.551100
9.486300 0.576000
9.515800 0.664700
9.545200 0.829300
9.574700 0.955700
9.604200 1.078100
9.633700 1.096900
9.663200 0.898400
9.692700 0.788800
9.722200 0.880900
9.751700 0.959600
9.781200 1.089800
9.810600 1.436500
9.840100 1.691300
9.869600 1.511700
9.899100 1.164900
9.928600 0.947900
9.958100 0.889000
9.987600 1.033700
10.017100 1.386800
10.046500 1.794300
10.076000 1.955100
10.105500 1.803400
10.135000 1.534500
10.164500 1.319700
10.194000 1.206200
10.223500 1.096800
10.253000 0.943300
10.282400 0.780300
10.311900 0.644200
10.341400 0.569800
10.370900 0.568500
10.400400 0.679400
10.429900 0.814000
10.459400 0.802100
10.488900 0.781000
10.518300 0.962300
10.547800 1.153900
10.577300 1.064400
10.606800 0.878600
10.636300 0.901700
10.665800 1.077500
10.695300 1.170200
10.724800 1.066500
10.754200 0.855400
10.783700 0.642800
10.813200 0.411100
10.842700 0.199900
10.872200 0.125100
10.901700 0.256500
10.931200 0.568900
10.960700 0.949000
10.990100 1.235100
11.019600 1.245500
11.049100 0.968600
11.078600 0.650700
11.108100 0.549500
11.137600 0.754900
11.167100 1.097900
11.196600 1.337700
11.226000 1.524900
11.255500 1.650600
11.285000 1.465300
11.314500 1.126700
11.344000 1.078500
11.373500 1.256500
11.403000 1.234100
11.432500 1.021100
11.461900 0.861700
11.491400 0.762700
11.520900 0.734500
11.550400 0.830900
11.579900 0.940300
11.609400 1.004500
11.638900 1.107500
11.668400 1.163800
11.697800 1.118700
11.727300 1.046200
11.756800 0.934200
11.786300 0.782200
11.815800 0.732500
11.845300 0.913200
11.874800 1.260800
11.904300 1.562600
11.933800 1.643700
11.963200 1.502000
11.992700 1.342600
12.022200 1.300800
12.051700 1.322600
12.081200 1.345200
12.110700 1.272000
12.140200 0.958100
12.169700 0.554400
12.199100 0.377700
12.228600 0.421200
12.258100 0.485200
12.287600 0.538100
12.317100 0.649600
12.346600 0.786800
12.376100 0.963600
12.405600 1.146800
12.435000 1.146200
12.464500 1.022400
12.494000 0.973100
12.523500 1.048600
12.553000 1.241000
12.582500 1.375800
12.612000 1.346300
12.641500 1.394100
12.670900 1.553000
12.700400 1.532100
12.729900 1.339400
12.759400 1.104500
12.788900 0.970000
12.818400 1.061200
12.847900 1.282700
12.877400 1.454600
12.906800 1.454200
12.936300 1.377400
12.965800 1.285700
12.995300 1.192400
13.024800 1.184500
13.054300 1.282500
13.083800 1.430400
13.113300 1.569300
13.142700 1.719500
13.172200 1.833300
13.201700 1.830300
13.231200 1.792300
13.260700 1.737500
13.290200 1.473600
13.319700 1.119800
13.349200 1.081700
13.378600 1.400700
13.408100 1.738500
13.437600 1.911500
13.467100 2.017100
13.496600 2.009100
13.526100 1.743600
13.555600 1.362600
13.585100 1.180900
13.614500 1.182500
13.644000 1.163800
13.673500 1.110600
13.703000 1.055900
13.732500 0.978200
13.762000 0.924900
13.791500 1.021300
13.821000 1.251100
13.850500 1.411800
13.879900 1.333200
13.909400 1.094000
13.938900 0.847500
13.968400 0.655900
13.997900 0.614800
14.027400 0.754000
14.056900 0.901700
14.086400 0.967200
14.115800 1.086900
14.145300 1.376400
14.174800 1.654100
14.204300 1.734300
14.233800 1.722800
14.263300 1.649800
14.292800 1.470000
14.322300 1.400200
14.351700 1.508900
14.381200 1.463600
14.410700 1.250300
14.440200 1.201900
14.469700 1.240200
14.499200 1.128200
14.528700 1.057600
14.558200 1.175800
14.587600 1.250400
14.617100 1.179500
14.646600 1.119600
14.676100 1.189100
14.705600 1.272700
14.735100 1.279900
14.764600 1.341500
14.794100 1.433100
14.823500 1.394100
14.853000 1.283800
14.882500 1.218400
14.912000 1.224600
14.941500 1.235500
14.971000 1.159300
15.000500 1.118500
15.030000 1.345900
15.059400 1.722600
15.088900 1.757400
15.118400 1.465800
15.147900 1.405200
15.177400 1.550000
15.206900 1.508500
15.236400 1.322500
15.265900 1.164400
15.295300 1.092000
15.324800 1.128100
15.354300 1.295700
15.383800 1.494000
15.413300 1.546000
15.442800 1.447200
15.472300 1.302300
15.501800 1.256300
15.531200 1.415700
15.560700 1.552700
15.590200 1.327600
15.619700 0.952500
15.649200 0.914300
15.678700 1.311500
15.708200 1.739300
15.737700 1.737100
15.767100 1.402300
15.796600 1.145500
15.826100 1.085500
15.855600 1.196500
15.885100 1.429600
15.914600 1.662800
15.944100 1.785700
15.973600 1.781700
16.003100 1.719300
16.032500 1.679900
16.062000 1.641500
16.091500 1.493900
16.121000 1.352600
16.150500 1.350900
16.180000 1.349400
16.209500 1.374500
16.239000 1.586800
16.268400 1.778800
16.297900 1.670200
16.327400 1.449100
16.356900 1.393900
16.386400 1.331000
16.415900 1.137600
16.445400 1.103100
16.474900 1.268500
16.504300 1.389600
16.533800 1.499100
16.563300 1.677300
16.592800 1.830600
16.622300 1.886400
16.651800 1.776600
16.681300 1.500000
16.710800 1.279300
16.740200 1.222900
16.769700 1.164600
16.799200 1.172500
16.828700 1.406400
16.858200 1.738900
16.887700 1.872400
16.917200 1.665100
16.946700 1.394300
16.976100 1.355600
17.005600 1.468800
17.035100 1.505900
17.064600 1.388800
17.094100 1.192500
17.123600 0.997100
17.153100 0.962100
17.182600 1.227100
17.212000 1.566700
17.241500 1.727000
17.271000 1.729300
17.300500 1.610800
17.330000 1.665000
17.359500 2.157800
17.389000 2.595000
17.418500 2.525400
17.447900 2.178500
17.477400 1.852200
17.506900 1.712100
17.536400 1.656600
17.565900 1.491200
17.595400 1.353500
17.624900 1.306500
17.654400 1.163900
17.683800 1.032500
17.713300 1.138600
17.742800 1.376300
17.772300 1.499700
17.801800 1.431500
17.831300 1.358900
17.860800 1.406600
17.890300 1.453200
17.919800 1.451500
17.949200 1.448800
17.978700 1.490700
18.008200 1.503800
18.037700 1.394800
18.067200 1.374200
18.096700 1.503200
18.126200 1.582500
18.155700 1.579000
18.185100 1.516800
18.214600 1.434800
18.244100 1.374300
18.273600 1.292300
18.303100 1.234300
18.332600 1.390100
18.362100 1.792000
18.391600 2.101500
18.421000 2.120900
18.450500 2.049900
18.480000 2.112400
18.509500 2.291800
18.539000 2.227300
18.568500 1.721600
18.598000 1.221900
18.627500 1.156900
18.656900 1.478300
18.686400 1.805000
18.715900 1.870800
18.745400 1.777100
18.774900 1.649600
18.804400 1.627200
18.833900 1.721300
18.863400 1.761500
18.892800 1.659900
18.922300 1.563000
18.951800 1.566000
18.981300 1.507100
19.010800 1.289600
19.040300 1.110000
19.069800 1.161900
19.099300 1.304700
19.128700 1.353800
19.158200 1.385500
19.187700 1.470900
19.217200 1.573400
19.246700 1.672500
19.276200 1.682400
19.305700 1.520900
19.335200 1.279900
19.364600 1.206100
