set title 'mp-1094057 - Density of States'
set xlabel 'Energy (eV)'
set ylabel 'DOS (states/eV)'
set grid
set xrange [-10:10]
set yrange [0:1.569]
set xzeroaxis lt -1
set terminal png size 800,600
set output 'mp-1094057_dos_gnuplot.png'
plot '-' using 1:2 with lines title 'DOS'
-7.251100 0.000000
-7.218000 0.000000
-7.184900 0.000000
-7.151800 0.000000
-7.118700 0.000000
-7.085600 0.000000
-7.052500 0.000000
-7.019400 0.000000
-6.986200 0.000000
-6.953100 0.000000
-6.920000 0.000000
-6.886900 0.000000
-6.853800 0.000000
-6.820700 0.000000
-6.787600 0.000000
-6.754500 0.000000
-6.721400 0.000000
-6.688300 0.000000
-6.655200 0.000000
-6.622100 0.000000
-6.589000 0.000000
-6.555900 0.000000
-6.522800 0.000000
-6.489700 0.000000
-6.456600 0.000000
-6.423500 0.000000
-6.390400 0.000000
-6.357300 0.000000
-6.324100 0.000000
-6.291000 0.000000
-6.257900 0.000000
-6.224800 0.000000
-6.191700 0.000000
-6.158600 0.000000
-6.125500 0.000000
-6.092400 0.000000
-6.059300 0.000000
-6.026200 0.000000
-5.993100 0.000000
-5.960000 0.000000
-5.926900 0.000000
-5.893800 0.000000
-5.860700 0.000000
-5.827600 0.000000
-5.794500 0.000000
-5.761400 0.000000
-5.728300 0.000000
-5.695200 0.000000
-5.662100 0.000000
-5.628900 0.000000
-5.595800 0.000000
-5.562700 0.000000
-5.529600 0.000000
-5.496500 0.000000
-5.463400 0.000000
-5.430300 0.000000
-5.397200 0.000000
-5.364100 0.000000
-5.331000 0.000000
-5.297900 0.000000
-5.264800 0.000000
-5.231700 0.000000
-5.198600 0.000000
-5.165500 0.000000
-5.132400 0.000000
-5.099300 0.000000
-5.066200 0.000000
-5.033100 0.000000
-5.000000 0.000000
-4.966800 0.000000
-4.933700 0.000000
-4.900600 0.000000
-4.867500 0.000000
-4.834400 0.000000
-4.801300 0.000000
-4.768200 0.000000
-4.735100 0.000000
-4.702000 0.000000
-4.668900 0.000000
-4.635800 0.000000
-4.602700 0.000000
-4.569600 0.000000
-4.536500 0.000000
-4.503400 0.000000
-4.470300 0.000000
-4.437200 0.000000
-4.404100 0.000000
-4.371000 0.000000
-4.337900 0.000000
-4.304800 0.000000
-4.271600 0.000000
-4.238500 0.000800
-4.205400 0.018700
-4.172300 0.047500
-4.139200 0.083900
-4.106100 0.120200
-4.073000 0.114500
-4.039900 0.123100
-4.006800 0.134400
-3.973700 0.144700
-3.940600 0.156400
-3.907500 0.168600
-3.874400 0.179700
-3.841300 0.191000
-3.808200 0.201400
-3.775100 0.209100
-3.742000 0.215000
-3.708900 0.219100
-3.675800 0.223900
-3.642700 0.230000
-3.609500 0.236600
-3.576400 0.244600
-3.543300 0.253800
-3.510200 0.262100
-3.477100 0.268200
-3.444000 0.271300
-3.410900 0.271500
-3.377800 0.269900
-3.344700 0.289700
-3.311600 0.303400
-3.278500 0.304700
-3.245400 0.307800
-3.212300 0.311700
-3.179200 0.316000
-3.146100 0.319700
-3.113000 0.323200
-3.079900 0.326600
-3.046800 0.330600
-3.013700 0.335300
-2.980600 0.340800
-2.947500 0.346600
-2.914300 0.351500
-2.881200 0.356700
-2.848100 0.361800
-2.815000 0.366600
-2.781900 0.371500
-2.748800 0.376400
-2.715700 0.381300
-2.682600 0.386300
-2.649500 0.391300
-2.616400 0.396200
-2.583300 0.400600
-2.550200 0.404300
-2.517100 0.407800
-2.484000 0.411000
-2.450900 0.413700
-2.417800 0.416800
-2.384700 0.420100
-2.351600 0.423700
-2.318500 0.427700
-2.285400 0.431600
-2.252300 0.435500
-2.219100 0.439300
-2.186000 0.442900
-2.152900 0.446500
-2.119800 0.450000
-2.086700 0.453700
-2.053600 0.457400
-2.020500 0.461200
-1.987400 0.465000
-1.954300 0.468900
-1.921200 0.472500
-1.888100 0.476100
-1.855000 0.479600
-1.821900 0.483300
-1.788800 0.487300
-1.755700 0.491500
-1.722600 0.495900
-1.689500 0.500000
-1.656400 0.504000
-1.623300 0.506500
-1.590200 0.509500
-1.557000 0.512500
-1.523900 0.515500
-1.490800 0.518400
-1.457700 0.521200
-1.424600 0.523900
-1.391500 0.528600
-1.358400 0.533600
-1.325300 0.537800
-1.292200 0.541200
-1.259100 0.543600
-1.226000 0.545100
-1.192900 0.545700
-1.159800 0.545500
-1.126700 0.546700
-1.093600 0.550100
-1.060500 0.551900
-1.027400 0.551900
-0.994300 0.596200
-0.961200 0.566300
-0.928100 0.567600
-0.895000 0.569500
-0.861800 0.572000
-0.828700 0.574700
-0.795600 0.578000
-0.762500 0.581800
-0.729400 0.586200
-0.696300 0.591000
-0.663200 0.595500
-0.630100 0.599500
-0.597000 0.602900
-0.563900 0.606600
-0.530800 0.609800
-0.497700 0.612600
-0.464600 0.615200
-0.431500 0.617600
-0.398400 0.620000
-0.365300 0.622400
-0.332200 0.624700
-0.299100 0.627100
-0.266000 0.629300
-0.232900 0.631300
-0.199700 0.633100
-0.166600 0.635900
-0.133500 0.638600
-0.100400 0.641300
-0.067300 0.644100
-0.034200 0.646900
-0.001100 0.649700
0.032000 0.652700
0.065100 0.655600
0.098200 0.658500
0.131300 0.661300
0.164400 0.664200
0.197500 0.667000
0.230600 0.669400
0.263700 0.671900
0.296800 0.674500
0.329900 0.677000
0.363000 0.679600
0.396100 0.682400
0.429200 0.685300
0.462300 0.688300
0.495500 0.691400
0.528600 0.694500
0.561700 0.697700
0.594800 0.700800
0.627900 0.704000
0.661000 0.707200
0.694100 0.710300
0.727200 0.713500
0.760300 0.716600
0.793400 0.718900
0.826500 0.721500
0.859600 0.724100
0.892700 0.726700
0.925800 0.729200
0.958900 0.731800
0.992000 0.734400
1.025100 0.737000
1.058200 0.739700
1.091300 0.742500
1.124400 0.745400
1.157500 0.748300
1.190700 0.751300
1.223800 0.754300
1.256900 0.757500
1.290000 0.760800
1.323100 0.764200
1.356200 0.767500
1.389300 0.770900
1.422400 0.774400
1.455500 0.778200
1.488600 0.782100
1.521700 0.786200
1.554800 0.790700
1.587900 0.799800
1.621000 0.815800
1.654100 0.836800
1.687200 0.851600
1.720300 0.861900
1.753400 0.870700
1.786500 0.878400
1.819600 0.885700
1.852800 0.893600
1.885900 0.902500
1.919000 0.909700
1.952100 0.912900
1.985200 0.915700
2.018300 0.919000
2.051400 0.918500
2.084500 0.914100
2.117600 0.906000
2.150700 0.893700
2.183800 0.877300
2.216900 0.863600
2.250000 0.850800
2.283100 0.838500
2.316200 0.827500
2.349300 0.818400
2.382400 0.818700
2.415500 0.831400
2.448600 0.860100
2.481700 0.872700
2.514800 0.872300
2.548000 0.867100
2.581100 0.857200
2.614200 0.841500
2.647300 0.834900
2.680400 0.843900
2.713500 0.848600
2.746600 0.850000
2.779700 0.850900
2.812800 0.855600
2.845900 0.845500
2.879000 0.822400
2.912100 0.805900
2.945200 0.799000
2.978300 0.794200
3.011400 0.793800
3.044500 0.793700
3.077600 0.799100
3.110700 0.799100
3.143800 0.794800
3.176900 0.789500
3.210100 0.792800
3.243200 0.808700
3.276300 0.799300
3.309400 0.800100
3.342500 0.799900
3.375600 0.797800
3.408700 0.801900
3.441800 0.801100
3.474900 0.794100
3.508000 0.792200
3.541100 0.797900
3.574200 0.809900
3.607300 0.824500
3.640400 0.842300
3.673500 0.863000
3.706600 0.883800
3.739700 0.903000
3.772800 0.908000
3.805900 0.919900
3.839000 0.967700
3.872100 0.996600
3.905300 1.003000
3.938400 0.988900
3.971500 0.950300
4.004600 0.930000
4.037700 0.926600
4.070800 0.926900
4.103900 0.927400
4.137000 0.931400
4.170100 0.938400
4.203200 0.944900
4.236300 1.017700
4.269400 0.931200
4.302500 0.921100
4.335600 0.963500
4.368700 0.974200
4.401800 0.941300
4.434900 0.940800
4.468000 0.944400
4.501100 0.950900
4.534200 1.016200
4.567300 1.005900
4.600500 0.989800
4.633600 0.971800
4.666700 0.958800
4.699800 0.957100
4.732900 0.951600
4.766000 0.934500
4.799100 0.908800
4.832200 0.896800
4.865300 0.882400
4.898400 0.865400
4.931500 0.868500
4.964600 0.882200
4.997700 0.899800
5.030800 0.917800
5.063900 0.931900
5.097000 0.965100
5.130100 0.967800
5.163200 0.989700
5.196300 0.992400
5.229400 1.000800
5.262600 1.012000
5.295700 1.010200
5.328800 0.970900
5.361900 0.950500
5.395000 0.946300
5.428100 0.946700
5.461200 0.944300
5.494300 0.938500
5.527400 0.929300
5.560500 0.913800
5.593600 0.932100
5.626700 0.916500
5.659800 0.901600
5.692900 0.906900
5.726000 0.914900
5.759100 0.925000
5.792200 0.966500
5.825300 0.993300
5.858400 1.023300
5.891500 1.051500
5.924600 1.080900
5.957800 1.107600
5.990900 1.132000
6.024000 1.158700
6.057100 1.189600
6.090200 1.221900
6.123300 1.252300
6.156400 1.241100
6.189500 1.204000
6.222600 1.183000
6.255700 1.177400
6.288800 1.183600
6.321900 1.198800
6.355000 1.223400
6.388100 1.252200
6.421200 1.252300
6.454300 1.276700
6.487400 1.290500
6.520500 1.160900
6.553600 1.133300
6.586700 1.116500
6.619900 1.098200
6.653000 1.078100
6.686100 1.081900
6.719200 1.072700
6.752300 1.060600
6.785400 1.070300
6.818500 1.062400
6.851600 1.036800
6.884700 1.013700
6.917800 1.019300
6.950900 1.006800
6.984000 0.999300
7.017100 1.002700
7.050200 1.010300
7.083300 1.054300
7.116400 1.111900
7.149500 1.111400
7.182600 1.065800
7.215700 1.039100
7.248800 1.018500
7.281900 0.995900
7.315100 0.977800
7.348200 0.968100
7.381300 1.017800
7.414400 1.008100
7.447500 0.998700
7.480600 0.999900
7.513700 1.007800
7.546800 1.039100
7.579900 1.068900
7.613000 1.074300
7.646100 1.102100
7.679200 1.148800
7.712300 1.221700
7.745400 1.277300
7.778500 1.193200
7.811600 1.185700
7.844700 1.184500
7.877800 1.187700
7.910900 1.200100
7.944000 1.217000
7.977200 1.245600
8.010300 1.264200
8.043400 1.275500
8.076500 1.273700
8.109600 1.275800
8.142700 1.263300
8.175800 1.238200
8.208900 1.212300
8.242000 1.193100
8.275100 1.169800
8.308200 1.140500
8.341300 1.121100
8.374400 1.151700
8.407500 1.204700
8.440600 1.225800
8.473700 1.210400
8.506800 1.198900
8.539900 1.188800
8.573000 1.175900
8.606100 1.163300
8.639200 1.143300
8.672400 1.123500
8.705500 1.109100
8.738600 1.104400
8.771700 1.097500
8.804800 1.100600
8.837900 1.110300
8.871000 1.123000
8.904100 1.151000
8.937200 1.170100
8.970300 1.179600
9.003400 1.185900
9.036500 1.186500
9.069600 1.184700
9.102700 1.186100
9.135800 1.187300
9.168900 1.189100
9.202000 1.191900
9.235100 1.197200
9.268200 1.203100
9.301300 1.208000
9.334400 1.217800
9.367600 1.228600
9.400700 1.238000
9.433800 1.242100
9.466900 1.240100
9.500000 1.230600
9.533100 1.218900
9.566200 1.211000
9.599300 1.207100
9.632400 1.208300
9.665500 1.217500
9.698600 1.230300
9.731700 1.244100
9.764800 1.261700
9.797900 1.284300
9.831000 1.310000
9.864100 1.338400
9.897200 1.373100
9.930300 1.410000
9.963400 1.426500
9.996500 1.420300
10.029700 1.397900
10.062800 1.389200
10.095900 1.374300
10.129000 1.358700
10.162100 1.353200
10.195200 1.364100
10.228300 1.405300
10.261400 1.404300
10.294500 1.383300
10.327600 1.353300
10.360700 1.321500
10.393800 1.291600
10.426900 1.270600
10.460000 1.250700
10.493100 1.230600
10.526200 1.210100
10.559300 1.195400
10.592400 1.189100
10.625500 1.187400
10.658600 1.190400
10.691700 1.201500
10.724900 1.206500
10.758000 1.207700
10.791100 1.215000
10.824200 1.228700
10.857300 1.255200
10.890400 1.271700
10.923500 1.282600
10.956600 1.289000
10.989700 1.296000
11.022800 1.306500
11.055900 1.315500
11.089000 1.323000
11.122100 1.320000
11.155200 1.331900
11.188300 1.339200
11.221400 1.344400
11.254500 1.349000
11.287600 1.355700
11.320700 1.366600
11.353800 1.373600
11.387000 1.378500
11.420100 1.380800
11.453200 1.380700
11.486300 1.380100
11.519400 1.382200
11.552500 1.388400
11.585600 1.395700
11.618700 1.402600
11.651800 1.412700
11.684900 1.415100
11.718000 1.414300
11.751100 1.406000
11.784200 1.389900
11.817300 1.379300
11.850400 1.374200
11.883500 1.370800
11.916600 1.371600
11.949700 1.380100
11.982800 1.384900
12.015900 1.383700
12.049000 1.383900
12.082200 1.383900
12.115300 1.387100
12.148400 1.385000
12.181500 1.382600
12.214600 1.367600
12.247700 1.345900
12.280800 1.336800
12.313900 1.312200
12.347000 1.296100
12.380100 1.284900
12.413200 1.272800
12.446300 1.264900
12.479400 1.261900
12.512500 1.266600
12.545600 1.277900
12.578700 1.303500
12.611800 1.334700
12.644900 1.333800
12.678000 1.340200
12.711100 1.350200
12.744200 1.364500
12.777400 1.381700
12.810500 1.399600
12.843600 1.418600
12.876700 1.439500
12.909800 1.431500
12.942900 1.436500
12.976000 1.435800
13.009100 1.430700
13.042200 1.438300
13.075300 1.452900
13.108400 1.466900
13.141500 1.480900
13.174600 1.450400
13.207700 1.445500
13.240800 1.452600
13.273900 1.467600
13.307000 1.498200
13.340100 1.538600
13.373200 1.585300
13.406300 1.626900
13.439500 1.653400
13.472600 1.666800
13.505700 1.664600
13.538800 1.649300
13.571900 1.639400
13.605000 1.634500
13.638100 1.638400
13.671200 1.643800
13.704300 1.654900
13.737400 1.664100
13.770500 1.665000
13.803600 1.650800
13.836700 1.630300
13.869800 1.624000
13.902900 1.616100
13.936000 1.614500
13.969100 1.600800
14.002200 1.578400
14.035300 1.553300
14.068400 1.544700
14.101500 1.541700
14.134700 1.529800
14.167800 1.525800
14.200900 1.522100
14.234000 1.518800
14.267100 1.518300
14.300200 1.518500
14.333300 1.519200
14.366400 1.523400
14.399500 1.530300
14.432600 1.535000
14.465700 1.540600
14.498800 1.548700
14.531900 1.555100
14.565000 1.558100
14.598100 1.558100
14.631200 1.555000
14.664300 1.557900
14.697400 1.583100
14.730500 1.606700
14.763600 1.609400
14.796800 1.608800
14.829900 1.608700
14.863000 1.611500
14.896100 1.616300
14.929200 1.699300
14.962300 1.719300
14.995400 1.701800
15.028500 1.693100
15.061600 1.711800
15.094700 1.718700
15.127800 1.713100
15.160900 1.684800
15.194000 1.658100
15.227100 1.639000
15.260200 1.608500
15.293300 1.573100
15.326400 1.554300
15.359500 1.541200
15.392600 1.529900
15.425700 1.520400
15.458800 1.512300
15.492000 1.505400
15.525100 1.499000
15.558200 1.494300
15.591300 1.489100
15.624400 1.482600
15.657500 1.474900
15.690600 1.465600
15.723700 1.462000
15.756800 1.445700
15.789900 1.423400
15.823000 1.430800
15.856100 1.439600
15.889200 1.443400
15.922300 1.440800
15.955400 1.441600
15.988500 1.445600
16.021600 1.453400
16.054700 1.448000
16.087800 1.436900
16.120900 1.433100
16.154000 1.429700
16.187200 1.429400
16.220300 1.436900
16.253400 1.488600
16.286500 1.447400
16.319600 1.468500
16.352700 1.496200
16.385800 1.539200
16.418900 1.564500
16.452000 1.580300
16.485100 1.567700
16.518200 1.567500
16.551300 1.556400
16.584400 1.563700
16.617500 1.573300
16.650600 1.585400
16.683700 1.599200
16.716800 1.615000
16.749900 1.632100
16.783000 1.673300
16.816100 1.694300
16.849300 1.693300
16.882400 1.685900
16.915500 1.665400
16.948600 1.661100
16.981700 1.660900
17.014800 1.647500
17.047900 1.634600
17.081000 1.620500
17.114100 1.641600
17.147200 1.666300
17.180300 1.618900
17.213400 1.587200
17.246500 1.540700
17.279600 1.453100
17.312700 1.398600
17.345800 1.380700
17.378900 1.374800
17.412000 1.331900
17.445100 1.306800
17.478200 1.307500
17.511300 1.312500
17.544500 1.317400
17.577600 1.327300
17.610700 1.354500
17.643800 1.388100
17.676900 1.421400
17.710000 1.458300
17.743100 1.494100
17.776200 1.491300
17.809300 1.458800
17.842400 1.438100
17.875500 1.445900
17.908600 1.437800
17.941700 1.414100
17.974800 1.401600
18.007900 1.393400
18.041000 1.386900
18.074100 1.402200
18.107200 1.379300
18.140300 1.361100
18.173400 1.354400
18.206600 1.355800
18.239700 1.359500
18.272800 1.363400
18.305900 1.372700
18.339000 1.380900
18.372100 1.389600
18.405200 1.394200
18.438300 1.398600
18.471400 1.410900
18.504500 1.432900
18.537600 1.475100
18.570700 1.494300
18.603800 1.512300
18.636900 1.531200
18.670000 1.551800
18.703100 1.574400
18.736200 1.598400
18.769300 1.627600
18.802400 1.642100
18.835500 1.597200
18.868600 1.573100
18.901800 1.559500
18.934900 1.550400
18.968000 1.549900
19.001100 1.552000
19.034200 1.551300
19.067300 1.548300
19.100400 1.545700
19.133500 1.548800
19.166600 1.559900
19.199700 1.572500
19.232800 1.578100
19.265900 1.575400
19.299000 1.567600
19.332100 1.562000
19.365200 1.560700
19.398300 1.550400
19.431400 1.546600
19.464500 1.543400
19.497600 1.540800
19.530700 1.539800
19.563900 1.537800
19.597000 1.536000
19.630100 1.537000
19.663200 1.533900
19.696300 1.522300
19.729400 1.515600
19.762500 1.510000
19.795600 1.503800
19.828700 1.499100
19.861800 1.497700
19.894900 1.502200
19.928000 1.508100
19.961100 1.518600
19.994200 1.529800
20.027300 1.540500
20.060400 1.550800
20.093500 1.560300
20.126600 1.570900
20.159700 1.577600
20.192800 1.579600
20.225900 1.575900
20.259100 1.576000
20.292200 1.569300
20.325300 1.551800
20.358400 1.528000
20.391500 1.533300
20.424600 1.545900
20.457700 1.564500
20.490800 1.580900
20.523900 1.597800
20.557000 1.617600
20.590100 1.629900
20.623200 1.721500
20.656300 1.667700
20.689400 1.667200
20.722500 1.682900
20.755600 1.705200
20.788700 1.718600
20.821800 1.727700
20.854900 1.732200
20.888000 1.798400
20.921100 1.798400
20.954300 1.770700
20.987400 1.768900
21.020500 1.769600
21.053600 1.773400
21.086700 1.775200
21.119800 1.763100
21.152900 1.795200
21.186000 1.716200
21.219100 1.718200
21.252200 1.722400
21.285300 1.728200
21.318400 1.730900
21.351500 1.733500
21.384600 1.736200
21.417700 1.749900
21.450800 1.769200
21.483900 1.786300
21.517000 1.798000
21.550100 1.807100
21.583200 1.815900
21.616400 1.833700
21.649500 1.848200
21.682600 1.871000
21.715700 1.899300
21.748800 1.860400
21.781900 1.865300
21.815000 1.869900
21.848100 1.874200
21.881200 1.885200
21.914300 1.925300
21.947400 1.949000
21.980500 1.988600
22.013600 1.882300
22.046700 1.855100
22.079800 1.821800
22.112900 1.790500
22.146000 1.791700
22.179100 1.735700
22.212200 1.730300
22.245300 1.709300
22.278400 1.698600
22.311600 1.697400
22.344700 1.706500
22.377800 1.762300
22.410900 1.799600
22.444000 1.750400
22.477100 1.795500
22.510200 1.760600
22.543300 1.746800
22.576400 1.802300
22.609500 1.819400
22.642600 1.822800
22.675700 1.824400
22.708800 1.837500
22.741900 1.859800
22.775000 1.892100
22.808100 1.941400
22.841200 2.016700
22.874300 2.043800
22.907400 2.040000
22.940500 2.031800
22.973700 2.009700
23.006800 1.995000
23.039900 1.975600
23.073000 1.913000
23.106100 1.871000
23.139200 1.898500
23.172300 1.945500
23.205400 1.927800
23.238500 1.895300
23.271600 1.860300
23.304700 1.837600
23.337800 1.818500
23.370900 1.853100
23.404000 1.897100
23.437100 1.956700
23.470200 1.930500
23.503300 1.892000
23.536400 1.914100
23.569500 2.023700
23.602600 2.015100
23.635700 2.002000
23.668900 1.953600
23.702000 1.935700
23.735100 1.924400
23.768200 1.909000
23.801300 1.886600
23.834400 1.885700
23.867500 1.918300
23.900600 1.863100
23.933700 1.809700
23.966800 1.765500
23.999900 1.727800
24.033000 1.688500
24.066100 1.655500
24.099200 1.648000
24.132300 1.715000
24.165400 1.894300
24.198500 2.045800
24.231600 2.032700
24.264700 1.932200
24.297800 1.873600
24.330900 1.820200
24.364100 1.800100
24.397200 1.791500
24.430300 1.742300
24.463400 1.714000
24.496500 1.737900
24.529600 1.769800
24.562700 1.810900
24.595800 1.862900
24.628900 1.893100
24.662000 1.915600
24.695100 1.937600
24.728200 2.053900
24.761300 2.050300
24.794400 2.062200
24.827500 1.938600
24.860600 1.881900
24.893700 1.895700
24.926800 1.915800
24.959900 2.065100
24.993000 1.921400
25.026200 1.951500
25.059300 1.962500
25.092400 1.943600
25.125500 1.904300
25.158600 1.838000
25.191700 1.771200
25.224800 1.724000
25.257900 1.704700
25.291000 1.723900
25.324100 1.749300
25.357200 1.808400
25.390300 1.880300
25.423400 1.892600
25.456500 1.902000
25.489600 1.962800
25.522700 2.005800
25.555800 2.079200
25.588900 2.130400
25.622000 2.112100
25.655100 2.095800
25.688200 2.073000
25.721400 2.046000
25.754500 2.012700
25.787600 1.986700
25.820700 1.978400
25.853800 1.991100
25.886900 2.041900
25.920000 2.016800
25.953100 1.992700
25.986200 1.990200
26.019300 1.995100
26.052400 1.986200
26.085500 1.952700
26.118600 1.941900
26.151700 1.946200
26.184800 1.966700
26.217900 1.960800
26.251000 1.970700
26.284100 1.995600
26.317200 1.983200
26.350300 1.975200
26.383500 1.965400
26.416600 1.959500
26.449700 1.945800
26.482800 1.925300
26.515900 1.904000
26.549000 1.934500
26.582100 1.883800
26.615200 1.885100
26.648300 1.887700
26.681400 1.881600
26.714500 1.873400
26.747600 1.859400
26.780700 1.855900
26.813800 1.857700
26.846900 1.846100
26.880000 1.857900
26.913100 1.835100
26.946200 1.815800
26.979300 1.801600
27.012400 1.816700
27.045500 1.857800
27.078700 1.886100
27.111800 1.842100
27.144900 1.833000
27.178000 1.834100
27.211100 1.843900
27.244200 1.862900
27.277300 1.893100
27.310400 1.924400
27.343500 1.940400
27.376600 1.932900
27.409700 1.962200
27.442800 1.892100
27.475900 1.846000
27.509000 1.829800
27.542100 1.819200
27.575200 1.815400
