set title 'mp-1184591 - Density of States'
set xlabel 'Energy (eV)'
set ylabel 'DOS (states/eV)'
set grid
set xrange [-10:10]
set yrange [0:25.845]
set xzeroaxis lt -1
set terminal png size 800,600
set output 'mp-1184591_dos_gnuplot.png'
plot '-' using 1:2 with lines title 'DOS'
-8.566300 0.000000
-8.540700 0.000000
-8.515000 0.000000
-8.489400 0.000000
-8.463800 0.000000
-8.438200 0.000000
-8.412600 0.000000
-8.387000 0.000000
-8.361300 0.000000
-8.335700 0.000000
-8.310100 0.000000
-8.284500 0.000000
-8.258900 0.000000
-8.233200 0.000000
-8.207600 0.000000
-8.182000 0.000000
-8.156400 0.000000
-8.130800 0.000000
-8.105200 0.000000
-8.079500 0.000000
-8.053900 0.000000
-8.028300 0.000000
-8.002700 0.000000
-7.977100 0.000000
-7.951500 0.000000
-7.925800 0.000000
-7.900200 0.000000
-7.874600 0.000000
-7.849000 0.000000
-7.823400 0.000000
-7.797700 0.000000
-7.772100 0.000000
-7.746500 0.000000
-7.720900 0.000000
-7.695300 0.000000
-7.669700 0.000000
-7.644000 0.000000
-7.618400 0.000000
-7.592800 0.000000
-7.567200 0.000000
-7.541600 0.000000
-7.516000 0.000000
-7.490300 0.000000
-7.464700 0.000000
-7.439100 0.000000
-7.413500 0.000000
-7.387900 0.000000
-7.362200 0.000000
-7.336600 0.000000
-7.311000 0.000000
-7.285400 0.000000
-7.259800 0.000000
-7.234200 0.000000
-7.208500 0.000000
-7.182900 0.000000
-7.157300 0.000000
-7.131700 0.000000
-7.106100 0.000000
-7.080400 0.000000
-7.054800 0.000000
-7.029200 0.000000
-7.003600 0.000000
-6.978000 0.000000
-6.952400 0.000000
-6.926700 0.000000
-6.901100 0.000000
-6.875500 0.000000
-6.849900 0.000000
-6.824300 0.000000
-6.798700 0.000000
-6.773000 0.000000
-6.747400 0.000000
-6.721800 0.000000
-6.696200 0.000000
-6.670600 0.000000
-6.644900 0.000000
-6.619300 0.000000
-6.593700 0.000000
-6.568100 0.000000
-6.542500 0.000000
-6.516900 0.000000
-6.491200 0.000000
-6.465600 0.000000
-6.440000 0.000000
-6.414400 0.000000
-6.388800 0.000000
-6.363100 0.000000
-6.337500 0.000400
-6.311900 0.002800
-6.286300 0.012300
-6.260700 0.035300
-6.235100 0.078800
-6.209400 0.182800
-6.183800 0.447200
-6.158200 0.963500
-6.132600 1.824700
-6.107000 3.388200
-6.081400 6.226200
-6.055700 10.169500
-6.030100 13.921300
-6.004500 16.681700
-5.978900 18.674100
-5.953300 19.600300
-5.927600 18.974500
-5.902000 17.615700
-5.876400 17.166800
-5.850800 17.945600
-5.825200 18.273200
-5.799600 17.117000
-5.773900 15.396900
-5.748300 13.915100
-5.722700 12.828100
-5.697100 12.372800
-5.671500 12.337000
-5.645900 12.184300
-5.620200 11.914200
-5.594600 11.789400
-5.569000 11.903800
-5.543400 12.371100
-5.517800 13.051700
-5.492100 13.627600
-5.466500 14.161600
-5.440900 14.556900
-5.415300 14.240600
-5.389700 13.310800
-5.364100 12.770400
-5.338400 13.151500
-5.312800 14.026500
-5.287200 14.851500
-5.261600 15.695200
-5.236000 17.135500
-5.210300 19.405500
-5.184700 21.726900
-5.159100 23.125000
-5.133500 23.495000
-5.107900 22.602300
-5.082300 20.026400
-5.056600 16.867500
-5.031000 14.566700
-5.005400 13.231600
-4.979800 12.585300
-4.954200 12.333300
-4.928600 11.749800
-4.902900 10.417600
-4.877300 8.766500
-4.851700 7.439600
-4.826100 6.718900
-4.800500 6.623100
-4.774800 7.017100
-4.749200 7.481000
-4.723600 7.485300
-4.698000 6.933000
-4.672400 6.000200
-4.646800 4.708400
-4.621100 3.337300
-4.595500 2.299200
-4.569900 1.560700
-4.544300 0.954800
-4.518700 0.510800
-4.493000 0.285200
-4.467400 0.224200
-4.441800 0.246000
-4.416200 0.335200
-4.390600 0.486200
-4.365000 0.622000
-4.339300 0.658400
-4.313700 0.606300
-4.288100 0.542700
-4.262500 0.524700
-4.236900 0.559800
-4.211300 0.595600
-4.185600 0.567200
-4.160000 0.463300
-4.134400 0.327900
-4.108800 0.265800
-4.083200 0.335900
-4.057500 0.458300
-4.031900 0.552700
-4.006300 0.624300
-3.980700 0.635300
-3.955100 0.523600
-3.929500 0.390300
-3.903800 0.390700
-3.878200 0.475600
-3.852600 0.500200
-3.827000 0.498300
-3.801400 0.592800
-3.775800 0.727900
-3.750100 0.729900
-3.724500 0.613600
-3.698900 0.593000
-3.673300 0.699100
-3.647700 0.706000
-3.622000 0.556500
-3.596400 0.420100
-3.570800 0.349500
-3.545200 0.301300
-3.519600 0.362100
-3.494000 0.639700
-3.468300 0.969200
-3.442700 1.010200
-3.417100 0.734100
-3.391500 0.452900
-3.365900 0.359100
-3.340200 0.399800
-3.314600 0.492600
-3.289000 0.596200
-3.263400 0.626300
-3.237800 0.547600
-3.212200 0.438200
-3.186500 0.329800
-3.160900 0.222600
-3.135300 0.186900
-3.109700 0.261400
-3.084100 0.403000
-3.058500 0.575800
-3.032800 0.732100
-3.007200 0.804200
-2.981600 0.823400
-2.956000 0.897200
-2.930400 1.074200
-2.904700 1.255900
-2.879100 1.222300
-2.853500 0.917600
-2.827900 0.594300
-2.802300 0.456400
-2.776700 0.438200
-2.751000 0.418100
-2.725400 0.399400
-2.699800 0.461800
-2.674200 0.637300
-2.648600 0.834000
-2.622900 0.907100
-2.597300 0.862700
-2.571700 0.815600
-2.546100 0.811100
-2.520500 0.817100
-2.494900 0.773800
-2.469200 0.653700
-2.443600 0.513000
-2.418000 0.479000
-2.392400 0.578300
-2.366800 0.673300
-2.341200 0.683700
-2.315500 0.654900
-2.289900 0.613300
-2.264300 0.598600
-2.238700 0.692800
-2.213100 0.841400
-2.187400 0.907700
-2.161800 0.908000
-2.136200 0.985600
-2.110600 1.129800
-2.085000 1.133900
-2.059400 0.993600
-2.033700 0.869800
-2.008100 0.729400
-1.982500 0.556900
-1.956900 0.497400
-1.931300 0.573100
-1.905700 0.696100
-1.880000 0.867300
-1.854400 1.096800
-1.828800 1.294700
-1.803200 1.364100
-1.777600 1.301600
-1.751900 1.174700
-1.726300 1.034300
-1.700700 0.909500
-1.675100 0.863600
-1.649500 0.929200
-1.623900 1.050900
-1.598200 1.125700
-1.572600 1.044900
-1.547000 0.816000
-1.521400 0.632000
-1.495800 0.656000
-1.470100 0.812100
-1.444500 0.883600
-1.418900 0.821500
-1.393300 0.810400
-1.367700 0.923000
-1.342100 1.021900
-1.316400 1.050900
-1.290800 1.091300
-1.265200 1.136200
-1.239600 1.103500
-1.214000 1.051100
-1.188400 1.127900
-1.162700 1.321600
-1.137100 1.416200
-1.111500 1.335800
-1.085900 1.290300
-1.060300 1.338300
-1.034600 1.217000
-1.009000 0.850500
-0.983400 0.506400
-0.957800 0.347100
-0.932200 0.306100
-0.906600 0.328600
-0.880900 0.390400
-0.855300 0.432300
-0.829700 0.436800
-0.804100 0.413400
-0.778500 0.376300
-0.752800 0.383400
-0.727200 0.454300
-0.701600 0.511800
-0.676000 0.463700
-0.650400 0.359600
-0.624800 0.347700
-0.599100 0.448400
-0.573500 0.527500
-0.547900 0.478500
-0.522300 0.375300
-0.496700 0.358000
-0.471100 0.458900
-0.445400 0.692100
-0.419800 1.033600
-0.394200 1.235400
-0.368600 1.068200
-0.343000 0.676800
-0.317300 0.361800
-0.291700 0.270500
-0.266100 0.471700
-0.240500 0.943900
-0.214900 1.363900
-0.189300 1.362600
-0.163600 1.081400
-0.138000 0.887500
-0.112400 0.751100
-0.086800 0.522800
-0.061200 0.326300
-0.035600 0.297300
-0.009900 0.352600
0.015700 0.368600
0.041300 0.370700
0.066900 0.409600
0.092500 0.462200
0.118200 0.538500
0.143800 0.639300
0.169400 0.680300
0.195000 0.634000
0.220600 0.553100
0.246200 0.451200
0.271900 0.338900
0.297500 0.264100
0.323100 0.231800
0.348700 0.189800
0.374300 0.140500
0.400000 0.171100
0.425600 0.331400
0.451200 0.535000
0.476800 0.688800
0.502400 0.848900
0.528000 1.013200
0.553700 0.995900
0.579300 0.749300
0.604900 0.495500
0.630500 0.410300
0.656100 0.424100
0.681700 0.411300
0.707400 0.360900
0.733000 0.322200
0.758600 0.351100
0.784200 0.432800
0.809800 0.447300
0.835500 0.366400
0.861100 0.339200
0.886700 0.414400
0.912300 0.460600
0.937900 0.433100
0.963500 0.405500
0.989200 0.389600
1.014800 0.356700
1.040400 0.307500
1.066000 0.265300
1.091600 0.267600
1.117300 0.299500
1.142900 0.299800
1.168500 0.269000
1.194100 0.282000
1.219700 0.403100
1.245300 0.627000
1.271000 0.880100
1.296600 1.072800
1.322200 1.143000
1.347800 1.081000
1.373400 0.955400
1.399000 0.914100
1.424700 1.014400
1.450300 1.104200
1.475900 1.067500
1.501500 0.982500
1.527100 0.959000
1.552800 1.006200
1.578400 1.000700
1.604000 0.785000
1.629600 0.434900
1.655200 0.201100
1.680800 0.173700
1.706500 0.231400
1.732100 0.248900
1.757700 0.282400
1.783300 0.473800
1.808900 0.776700
1.834500 0.990500
1.860200 1.056500
1.885800 1.062200
1.911400 1.011700
1.937000 0.856400
1.962600 0.681300
1.988300 0.614900
2.013900 0.664800
2.039500 0.795200
2.065100 0.995800
2.090700 1.201500
2.116300 1.285900
2.142000 1.196000
2.167600 0.982400
2.193200 0.725600
2.218800 0.547200
2.244400 0.533100
2.270100 0.670200
2.295700 0.899000
2.321300 1.068400
2.346900 1.083900
2.372500 1.067200
2.398100 1.088100
2.423800 1.051500
2.449400 0.929700
2.475000 0.788000
2.500600 0.720200
2.526200 0.833700
2.551800 1.075500
2.577500 1.170300
2.603100 0.989100
2.628700 0.723800
2.654300 0.537400
2.679900 0.474900
2.705600 0.558000
2.731200 0.662800
2.756800 0.628200
2.782400 0.541400
2.808000 0.642200
2.833600 0.932400
2.859300 1.117300
2.884900 1.025300
2.910500 0.810900
2.936100 0.691600
2.961700 0.755800
2.987400 0.994900
3.013000 1.299100
3.038600 1.510100
3.064200 1.572800
3.089800 1.552800
3.115400 1.536200
3.141100 1.472000
3.166700 1.221600
3.192300 0.833800
3.217900 0.513000
3.243500 0.394500
3.269100 0.487500
3.294800 0.700800
3.320400 0.882000
3.346000 0.968400
3.371600 1.063300
3.397200 1.233300
3.422900 1.415600
3.448500 1.503700
3.474100 1.388000
3.499700 1.118800
3.525300 0.936100
3.550900 0.932300
3.576600 0.945100
3.602200 0.898200
3.627800 0.932700
3.653400 1.163700
3.679000 1.474100
3.704600 1.597000
3.730300 1.425500
3.755900 1.132100
3.781500 0.951700
3.807100 0.983400
3.832700 1.141200
3.858400 1.282700
3.884000 1.325900
3.909600 1.214200
3.935200 1.002300
3.960800 0.864100
3.986400 0.904200
4.012100 1.078700
4.037700 1.220300
4.063300 1.231700
4.088900 1.230400
4.114500 1.290200
4.140200 1.278700
4.165800 1.081500
4.191400 0.820300
4.217000 0.777300
4.242600 1.076300
4.268200 1.505000
4.293900 1.714800
4.319500 1.566200
4.345100 1.217800
4.370700 0.953100
4.396300 0.944800
4.421900 1.110300
4.447600 1.234400
4.473200 1.232400
4.498800 1.211600
4.524400 1.235000
4.550000 1.172500
4.575700 0.947200
4.601300 0.759600
4.626900 0.799700
4.652500 0.979400
4.678100 1.099900
4.703700 1.080100
4.729400 1.025100
4.755000 1.067900
4.780600 1.170800
4.806200 1.147100
4.831800 0.913000
4.857500 0.640400
4.883100 0.547500
4.908700 0.652700
4.934300 0.876400
4.959900 1.205600
4.985500 1.550300
5.011200 1.639200
5.036800 1.341900
5.062400 0.917700
5.088000 0.641200
5.113600 0.530100
5.139200 0.540400
5.164900 0.702600
5.190500 1.025100
5.216100 1.380700
5.241700 1.625800
5.267300 1.685800
5.293000 1.491300
5.318600 1.104900
5.344200 0.815600
5.369800 0.823300
5.395400 0.955900
5.421000 0.950400
5.446700 0.817100
5.472300 0.698400
5.497900 0.630500
5.523500 0.644000
5.549100 0.808600
5.574700 1.022500
5.600400 1.113500
5.626000 1.088400
5.651600 1.000600
5.677200 0.904400
5.702800 0.905300
5.728500 0.961600
5.754100 0.988000
5.779700 1.056600
5.805300 1.194900
5.830900 1.328800
5.856500 1.395100
5.882200 1.328800
5.907800 1.156900
5.933400 1.018900
5.959000 0.975000
5.984600 0.987900
6.010300 1.018800
6.035900 1.039200
6.061500 0.997900
6.087100 0.828300
6.112700 0.602700
6.138300 0.503900
6.164000 0.571200
6.189600 0.670400
6.215200 0.721200
6.240800 0.817600
6.266400 0.985400
6.292000 1.065300
6.317700 1.046400
6.343300 1.065300
6.368900 1.075600
6.394500 1.004900
6.420100 1.004200
6.445800 1.165400
6.471400 1.329700
6.497000 1.350300
6.522600 1.231200
6.548200 1.039600
6.573800 0.885800
6.599500 0.867000
6.625100 0.991100
6.650700 1.188100
6.676300 1.287300
6.701900 1.168600
6.727600 0.938400
6.753200 0.715700
6.778800 0.560200
6.804400 0.578800
6.830000 0.804200
6.855600 1.093400
6.881300 1.226400
6.906900 1.119100
6.932500 0.942600
6.958100 0.985900
6.983700 1.265300
7.009300 1.449500
7.035000 1.379400
7.060600 1.266200
7.086200 1.254900
7.111800 1.176600
7.137400 0.884200
7.163100 0.594800
7.188700 0.592100
7.214300 0.800300
7.239900 0.945900
7.265500 0.917600
7.291100 0.771500
7.316800 0.621900
7.342400 0.587700
7.368000 0.709900
7.393600 0.946600
7.419200 1.178200
7.444800 1.294700
7.470500 1.339200
7.496100 1.363800
7.521700 1.311500
7.547300 1.230100
7.572900 1.334700
7.598600 1.657800
7.624200 1.801500
7.649800 1.466800
7.675400 0.957100
7.701000 0.703200
7.726600 0.748000
7.752300 0.899700
7.777900 1.035000
7.803500 1.104500
7.829100 1.053600
7.854700 0.935700
7.880400 0.886500
7.906000 0.916500
7.931600 0.919300
7.957200 0.881900
7.982800 0.982100
8.008400 1.306900
8.034100 1.575400
8.059700 1.517000
8.085300 1.281100
8.110900 1.110700
8.136500 1.022000
8.162100 1.004600
8.187800 1.084600
8.213400 1.168300
8.239000 1.146300
8.264600 1.047600
8.290200 0.998500
8.315900 1.061700
8.341500 1.163500
8.367100 1.240700
8.392700 1.344700
8.418300 1.474600
8.443900 1.486500
8.469600 1.359700
8.495200 1.311500
8.520800 1.481800
8.546400 1.702200
8.572000 1.749700
8.597700 1.634900
8.623300 1.481500
8.648900 1.385100
8.674500 1.390800
8.700100 1.458100
8.725700 1.478800
8.751400 1.317300
8.777000 0.987400
8.802600 0.738400
8.828200 0.784700
8.853800 1.135200
8.879400 1.625600
8.905100 1.933100
8.930700 1.878700
8.956300 1.701100
8.981900 1.688500
9.007500 1.855300
9.033200 2.039500
9.058800 2.023000
9.084400 1.769400
9.110000 1.518000
9.135600 1.453400
9.161200 1.606900
9.186900 1.954000
9.212500 2.209100
9.238100 2.014000
9.263700 1.492200
9.289300 1.046200
9.314900 0.893100
9.340600 1.089600
9.366200 1.533100
9.391800 1.957300
9.417400 2.232500
9.443000 2.396200
9.468700 2.377100
9.494300 2.096900
9.519900 1.662300
9.545500 1.301700
9.571100 1.234200
9.596700 1.416100
9.622400 1.510500
9.648000 1.317100
9.673600 1.019700
9.699200 0.922700
9.724800 1.147100
9.750500 1.537000
9.776100 1.752400
9.801700 1.570600
9.827300 1.173400
9.852900 0.939500
9.878500 0.945500
9.904200 1.004500
9.929800 1.054400
9.955400 1.165400
9.981000 1.336100
10.006600 1.495100
10.032200 1.576400
10.057900 1.592500
10.083500 1.624600
10.109100 1.658600
10.134700 1.648100
10.160300 1.618400
10.186000 1.592400
10.211600 1.537800
10.237200 1.430600
10.262800 1.379400
10.288400 1.476000
10.314000 1.602400
10.339700 1.568300
10.365300 1.409800
10.390900 1.331500
10.416500 1.317500
10.442100 1.187500
10.467800 0.971000
10.493400 0.805900
10.519000 0.714500
10.544600 0.683800
10.570200 0.683000
10.595800 0.639200
10.621500 0.569300
10.647100 0.635200
10.672700 0.952500
10.698300 1.424700
10.723900 1.845400
10.749500 2.030200
10.775200 1.920100
10.800800 1.722500
10.826400 1.685900
10.852000 1.781200
10.877600 1.874100
10.903300 1.916800
10.928900 1.845400
10.954500 1.627100
10.980100 1.425900
11.005700 1.364500
11.031300 1.336700
11.057000 1.307500
11.082600 1.370700
11.108200 1.468400
11.133800 1.408700
11.159400 1.223900
11.185000 1.178000
11.210700 1.336200
11.236300 1.547300
11.261900 1.687500
11.287500 1.657400
11.313100 1.442400
11.338800 1.234500
11.364400 1.274200
11.390000 1.545400
11.415600 1.738800
11.441200 1.696200
11.466800 1.698200
11.492500 1.909000
11.518100 2.046500
11.543700 1.957100
11.569300 1.829500
11.594900 1.791100
11.620600 1.766000
11.646200 1.670900
11.671800 1.573700
11.697400 1.536800
11.723000 1.502100
11.748600 1.534900
11.774300 1.759700
11.799900 2.052000
11.825500 2.128100
11.851100 1.806200
11.876700 1.304200
11.902300 1.120500
11.928000 1.425900
11.953600 1.926300
11.979200 2.138700
12.004800 1.847900
12.030400 1.416800
12.056100 1.261000
12.081700 1.354500
12.107300 1.481800
12.132900 1.508000
12.158500 1.382200
12.184100 1.217900
12.209800 1.267800
12.235400 1.533600
12.261000 1.686600
12.286600 1.544600
12.312200 1.397600
12.337900 1.592800
12.363500 1.944500
12.389100 2.015300
12.414700 1.785400
12.440300 1.593400
12.465900 1.632500
12.491600 1.837400
12.517200 2.041200
12.542800 2.130100
12.568400 2.161400
12.594000 2.148600
12.619600 1.917700
12.645300 1.461800
12.670900 1.104600
12.696500 1.141100
12.722100 1.542200
12.747700 1.951300
12.773400 1.994000
12.799000 1.761900
12.824600 1.644900
12.850200 1.766800
12.875800 1.966800
12.901400 2.009800
12.927100 1.769900
12.952700 1.473000
12.978300 1.428900
13.003900 1.530700
13.029500 1.499200
13.055100 1.356500
13.080800 1.314200
13.106400 1.423300
13.132000 1.485400
13.157600 1.425500
13.183200 1.497700
13.208900 1.785500
13.234500 1.977700
13.260100 1.900800
13.285700 1.715800
13.311300 1.565700
13.336900 1.512300
13.362600 1.548800
13.388200 1.511200
13.413800 1.249400
13.439400 0.905300
13.465000 0.799900
13.490700 0.962500
13.516300 1.116900
13.541900 1.132400
13.567500 1.076300
13.593100 0.987400
13.618700 0.939800
13.644400 0.991400
13.670000 1.054100
13.695600 1.100100
13.721200 1.164500
13.746800 1.118000
13.772400 0.931500
13.798100 0.881400
13.823700 1.083900
13.849300 1.345400
13.874900 1.551200
13.900500 1.680500
13.926200 1.657200
13.951800 1.452700
13.977400 1.155300
14.003000 0.939200
14.028600 0.925900
14.054200 1.074000
14.079900 1.292100
14.105500 1.547300
14.131100 1.718500
14.156700 1.607100
14.182300 1.262800
14.208000 0.968600
14.233600 0.892600
14.259200 0.980600
14.284800 1.098000
14.310400 1.170000
14.336000 1.214500
14.361700 1.233800
14.387300 1.207800
14.412900 1.161700
14.438500 1.082800
14.464100 0.957800
14.489700 0.897900
14.515400 1.033600
14.541000 1.295300
14.566600 1.414600
14.592200 1.260300
14.617800 1.044100
14.643500 0.987800
14.669100 1.048600
14.694700 1.066300
14.720300 0.974700
14.745900 0.853500
14.771500 0.848400
14.797200 1.070900
14.822800 1.431200
14.848400 1.584500
14.874000 1.383600
14.899600 1.157100
14.925200 1.121500
14.950900 1.121400
14.976500 1.141100
15.002100 1.334400
15.027700 1.620200
15.053300 1.762100
15.079000 1.663700
15.104600 1.437700
15.130200 1.293500
15.155800 1.310500
15.181400 1.391800
15.207000 1.471800
15.232700 1.561800
15.258300 1.622300
15.283900 1.590400
15.309500 1.492900
15.335100 1.448600
15.360800 1.515700
15.386400 1.616300
15.412000 1.747400
15.437600 2.020200
15.463200 2.461200
15.488800 2.869700
15.514500 2.901500
15.540100 2.445900
15.565700 1.796300
15.591300 1.393300
15.616900 1.499700
15.642500 2.044500
15.668200 2.594700
15.693800 2.657700
15.719400 2.271500
15.745000 1.868500
15.770600 1.670000
15.796300 1.643400
15.821900 1.685000
15.847500 1.752500
15.873100 1.858600
15.898700 1.877500
15.924300 1.679400
15.950000 1.447600
15.975600 1.442000
16.001200 1.606200
16.026800 1.743100
16.052400 1.847700
16.078100 2.006400
16.103700 2.241100
16.129300 2.527400
16.154900 2.717000
16.180500 2.676300
16.206100 2.523200
16.231800 2.438500
16.257400 2.429600
16.283000 2.472900
16.308600 2.532100
16.334200 2.519800
16.359800 2.494300
16.385500 2.531100
16.411100 2.546100
16.436700 2.546700
16.462300 2.619400
16.487900 2.715600
16.513600 2.729400
16.539200 2.617800
16.564800 2.434000
16.590400 2.343500
16.616000 2.543900
16.641600 2.950500
16.667300 3.172600
16.692900 3.027100
16.718500 2.784200
16.744100 2.764100
16.769700 2.984300
16.795300 3.218200
16.821000 3.179300
16.846600 2.740700
16.872200 2.086600
16.897800 1.567500
16.923400 1.343200
16.949100 1.350400
16.974700 1.534000
17.000300 1.808800
17.025900 2.038700
17.051500 2.189900
17.077100 2.245800
17.102800 2.185200
17.128400 2.207100
17.154000 2.459300
17.179600 2.629300
17.205200 2.380100
17.230900 1.858400
17.256500 1.370500
17.282100 1.000100
17.307700 0.758800
17.333300 0.743200
17.358900 0.949600
17.384600 1.196300
17.410200 1.359400
17.435800 1.500300
17.461400 1.660100
17.487000 1.742400
17.512600 1.754700
17.538300 1.858200
17.563900 2.072600
17.589500 2.221900
17.615100 2.196900
17.640700 2.107400
17.666400 2.072400
17.692000 2.057900
17.717600 2.034900
17.743200 2.051500
17.768800 2.108300
17.794400 2.227800
17.820100 2.493200
17.845700 2.764700
17.871300 2.758900
17.896900 2.388600
17.922500 1.861800
17.948200 1.548500
17.973800 1.534400
17.999400 1.499400
18.025000 1.284400
18.050600 1.118000
18.076200 1.205300
18.101900 1.451700
18.127500 1.618500
18.153100 1.631900
18.178700 1.587100
18.204300 1.546100
18.229900 1.484600
18.255600 1.357600
18.281200 1.294500
18.306800 1.464600
18.332400 1.698700
18.358000 1.734600
18.383700 1.616800
18.409300 1.555200
18.434900 1.643400
18.460500 1.808400
