set title 'mp-616440 - Density of States'
set xlabel 'Energy (eV)'
set ylabel 'DOS (states/eV)'
set grid
set xrange [-10:10]
set yrange [0:9.159]
set xzeroaxis lt -1
set terminal png size 800,600
set output 'mp-616440_dos_gnuplot.png'
plot '-' using 1:2 with lines title 'DOS'
-13.670500 0.000000
-13.649200 0.000000
-13.627900 0.000000
-13.606500 0.000000
-13.585200 0.000000
-13.563900 0.000000
-13.542600 0.000000
-13.521300 0.000000
-13.500000 0.000000
-13.478600 0.000000
-13.457300 0.000000
-13.436000 0.000000
-13.414700 0.000000
-13.393400 0.000000
-13.372000 0.000000
-13.350700 0.000000
-13.329400 0.000000
-13.308100 0.000000
-13.286800 0.000000
-13.265500 0.000000
-13.244100 0.000000
-13.222800 0.000000
-13.201500 0.000000
-13.180200 0.000000
-13.158900 0.000000
-13.137600 0.000000
-13.116200 0.000000
-13.094900 0.000000
-13.073600 0.000000
-13.052300 0.000000
-13.031000 0.000000
-13.009700 0.000000
-12.988300 0.000000
-12.967000 0.000000
-12.945700 0.000000
-12.924400 0.000000
-12.903100 0.000000
-12.881700 0.000000
-12.860400 0.000000
-12.839100 0.000000
-12.817800 0.000000
-12.796500 0.000000
-12.775200 0.000000
-12.753800 0.000000
-12.732500 0.000000
-12.711200 0.000000
-12.689900 0.000000
-12.668600 0.000000
-12.647300 0.000000
-12.625900 0.000000
-12.604600 0.000000
-12.583300 0.000000
-12.562000 0.000000
-12.540700 0.000000
-12.519400 0.000000
-12.498000 0.000000
-12.476700 0.000000
-12.455400 0.000000
-12.434100 0.000000
-12.412800 0.000000
-12.391500 0.000000
-12.370100 0.000000
-12.348800 0.000000
-12.327500 0.000000
-12.306200 0.000000
-12.284900 0.000000
-12.263500 0.000000
-12.242200 0.000000
-12.220900 0.000000
-12.199600 0.000000
-12.178300 0.000000
-12.157000 0.000000
-12.135600 0.000000
-12.114300 0.000000
-12.093000 0.000000
-12.071700 0.000000
-12.050400 0.000000
-12.029100 0.000000
-12.007700 0.000000
-11.986400 0.000000
-11.965100 0.000000
-11.943800 0.000000
-11.922500 0.000000
-11.901200 0.000000
-11.879800 0.000000
-11.858500 0.000000
-11.837200 0.000000
-11.815900 0.000000
-11.794600 0.000000
-11.773300 0.000000
-11.751900 0.000000
-11.730600 0.005500
-11.709300 0.066500
-11.688000 0.127400
-11.666700 0.188400
-11.645300 0.249300
-11.624000 0.310300
-11.602700 0.371200
-11.581400 0.432200
-11.560100 0.245200
-11.538800 0.250300
-11.517400 0.255400
-11.496100 0.260600
-11.474800 0.265700
-11.453500 0.270800
-11.432200 0.275900
-11.410900 0.281100
-11.389500 0.286200
-11.368200 0.291300
-11.346900 0.296400
-11.325600 0.301700
-11.304300 0.368100
-11.283000 0.434800
-11.261600 0.562800
-11.240300 0.690800
-11.219000 0.817600
-11.197700 0.934200
-11.176400 1.050800
-11.155100 0.922500
-11.133700 0.982900
-11.112400 0.797000
-11.091100 0.801100
-11.069800 0.805200
-11.048500 0.810500
-11.027100 0.822700
-11.005800 0.834900
-10.984500 0.847000
-10.963200 0.859200
-10.941900 0.871400
-10.920600 0.883600
-10.899200 0.895800
-10.877900 0.907900
-10.856600 0.920100
-10.835300 0.932300
-10.814000 0.943400
-10.792700 0.944100
-10.771300 0.943200
-10.750000 0.932500
-10.728700 0.921800
-10.707400 0.911200
-10.686100 0.900500
-10.664800 0.889800
-10.643400 0.880300
-10.622100 0.877700
-10.600800 0.877000
-10.579500 0.882500
-10.558200 0.888100
-10.536900 0.869200
-10.515500 0.872600
-10.494200 0.876100
-10.472900 0.879500
-10.451600 0.882900
-10.430300 0.886300
-10.408900 0.889700
-10.387600 0.893100
-10.366300 0.896500
-10.345000 0.899900
-10.323700 0.903300
-10.302400 0.906700
-10.281000 0.910100
-10.259700 0.913500
-10.238400 0.916900
-10.217100 0.920300
-10.195800 0.924400
-10.174500 0.929100
-10.153100 0.933800
-10.131800 0.913900
-10.110500 0.916400
-10.089200 0.894100
-10.067900 0.894400
-10.046600 0.934200
-10.025200 0.997600
-10.003900 1.071700
-9.982600 1.198400
-9.961300 1.325200
-9.940000 1.451900
-9.918700 1.578700
-9.897300 1.705400
-9.876000 1.541600
-9.854700 1.610700
-9.833400 1.413600
-9.812100 1.424700
-9.790700 1.436600
-9.769400 1.448900
-9.748100 1.462400
-9.726800 1.476000
-9.705500 1.489400
-9.684200 1.499900
-9.662800 1.510400
-9.641500 1.520900
-9.620200 1.531400
-9.598900 1.541900
-9.577600 1.552400
-9.556300 1.562300
-9.534900 1.561800
-9.513600 1.563000
-9.492300 1.556500
-9.471000 1.545900
-9.449700 1.535300
-9.428400 1.524700
-9.407000 1.514200
-9.385700 1.505500
-9.364400 1.503300
-9.343100 1.501000
-9.321800 1.505900
-9.300500 1.511100
-9.279100 1.514100
-9.257800 1.515400
-9.236500 1.515300
-9.215200 1.515200
-9.193900 1.515100
-9.172500 1.515000
-9.151200 1.514900
-9.129900 1.516100
-9.108600 1.518400
-9.087300 1.522800
-9.066000 1.527500
-9.044600 1.532300
-9.023300 1.537400
-9.002000 1.542500
-8.980700 1.547600
-8.959400 1.552700
-8.938100 1.557800
-8.916700 1.562900
-8.895400 1.568000
-8.874100 1.547400
-8.852800 1.550300
-8.831500 1.528200
-8.810200 1.529000
-8.788800 1.529700
-8.767500 1.530400
-8.746200 1.531100
-8.724900 1.531900
-8.703600 1.532600
-8.682300 1.533300
-8.660900 1.534000
-8.639600 1.534900
-8.618300 1.536000
-8.597000 1.537500
-8.575700 1.539000
-8.554300 1.533900
-8.533000 1.535900
-8.511700 1.538200
-8.490400 1.541500
-8.469100 1.544800
-8.447800 1.548100
-8.426400 1.551500
-8.405100 1.554800
-8.383800 1.558100
-8.362500 1.561400
-8.341200 1.564700
-8.319900 1.568000
-8.298500 1.571300
-8.277200 1.574600
-8.255900 1.578000
-8.234600 1.581300
-8.213300 1.585200
-8.192000 1.589200
-8.170600 1.593200
-8.149300 1.589800
-8.128000 1.586200
-8.106700 1.588700
-8.085400 1.591100
-8.064100 1.592200
-8.042700 1.591500
-8.021400 1.589900
-8.000100 1.597700
-7.978800 1.661200
-7.957500 1.792600
-7.936100 1.923900
-7.914800 2.055300
-7.893500 2.188700
-7.872200 2.322500
-7.850900 2.458200
-7.829600 2.305800
-7.808200 2.099600
-7.786900 2.113600
-7.765600 2.127600
-7.744300 2.141600
-7.723000 2.155500
-7.701700 2.169500
-7.680300 2.183500
-7.659000 2.197500
-7.637700 2.211500
-7.616400 2.225500
-7.595100 2.239700
-7.573800 2.254100
-7.552400 2.268600
-7.531100 2.283000
-7.509800 2.293000
-7.488500 2.291400
-7.467200 2.280800
-7.445900 2.270200
-7.424500 2.259800
-7.403200 2.249600
-7.381900 2.239700
-7.360600 2.230000
-7.339300 2.227300
-7.317900 2.233300
-7.296600 2.241300
-7.275300 2.249100
-7.254000 2.256500
-7.232700 2.263800
-7.211400 2.271400
-7.190000 2.280600
-7.168700 2.289800
-7.147400 2.299100
-7.126100 2.308800
-7.104800 2.319500
-7.083500 2.330200
-7.062100 2.340900
-7.040800 2.351600
-7.019500 2.362300
-6.998200 2.373000
-6.976900 2.383700
-6.955600 2.394400
-6.934200 2.398600
-6.912900 2.403300
-6.891600 2.413000
-6.870300 2.397900
-6.849000 2.380000
-6.827700 2.384500
-6.806300 2.389000
-6.785000 2.393600
-6.763700 2.398100
-6.742400 2.403100
-6.721100 2.413100
-6.699700 2.664400
-6.678400 2.657300
-6.657100 2.650100
-6.635800 2.644200
-6.614500 2.639300
-6.593200 2.635100
-6.571800 2.630900
-6.550500 2.627200
-6.529200 2.625200
-6.507900 2.623800
-6.486600 2.622300
-6.465300 2.620900
-6.443900 2.619400
-6.422600 2.618000
-6.401300 2.616500
-6.380000 2.615100
-6.358700 3.106200
-6.337400 3.021800
-6.316000 3.210100
-6.294700 3.103500
-6.273400 2.996800
-6.252100 2.890200
-6.230800 2.783500
-6.209400 2.676900
-6.188100 2.592700
-6.166800 2.567000
-6.145500 2.541400
-6.124200 2.515700
-6.102900 2.490100
-6.081500 2.463400
-6.060200 2.440900
-6.038900 2.435600
-6.017600 2.495500
-5.996300 2.555400
-5.975000 2.615300
-5.953600 2.675200
-5.932300 2.735500
-5.911000 2.799700
-5.889700 2.591200
-5.868400 2.601200
-5.847100 2.611200
-5.825700 2.621200
-5.804400 2.631100
-5.783100 3.606000
-5.761800 3.006400
-5.740500 2.608400
-5.719200 2.640800
-5.697800 2.683200
-5.676500 2.721500
-5.655200 2.759800
-5.633900 2.798000
-5.612600 2.861000
-5.591200 2.967100
-5.569900 3.061000
-5.548600 3.152900
-5.527300 3.244800
-5.506000 3.336700
-5.484700 3.342700
-5.463300 3.063700
-5.442000 6.219100
-5.420700 3.156000
-5.399400 3.272300
-5.378100 3.388600
-5.356800 2.704700
-5.335400 2.604100
-5.314100 2.503500
-5.292800 2.402900
-5.271500 2.302200
-5.250200 2.243600
-5.228900 2.208900
-5.207500 2.174300
-5.186200 2.139600
-5.164900 2.104900
-5.143600 2.070200
-5.122300 2.035600
-5.101000 2.000900
-5.079600 1.966200
-5.058300 1.931600
-5.037000 1.896900
-5.015700 1.873800
-4.994400 1.871100
-4.973000 1.840600
-4.951700 1.835300
-4.930400 1.830000
-4.909100 1.824700
-4.887800 1.819400
-4.866500 1.814000
-4.845100 1.808700
-4.823800 1.803400
-4.802500 1.816200
-4.781200 1.888100
-4.759900 1.981900
-4.738600 2.081400
-4.717200 2.181000
-4.695900 2.280500
-4.674600 2.381500
-4.653300 2.482600
-4.632000 2.814300
-4.610700 2.893300
-4.589300 2.972300
-4.568000 3.051300
-4.546700 3.130300
-4.525400 3.426900
-4.504100 4.156000
-4.482800 3.049200
-4.461400 2.711100
-4.440100 2.466200
-4.418800 2.313700
-4.397500 2.758200
-4.376200 3.296700
-4.354800 3.245400
-4.333500 2.980500
-4.312200 2.715500
-4.290900 2.450600
-4.269600 2.186600
-4.248300 1.905100
-4.226900 1.861300
-4.205600 1.817500
-4.184300 1.773700
-4.163000 1.779500
-4.141700 1.799100
-4.120400 1.818700
-4.099000 1.840000
-4.077700 1.862900
-4.056400 1.994400
-4.035100 2.201100
-4.013800 2.379700
-3.992500 2.520300
-3.971100 2.483300
-3.949800 2.821300
-3.928500 2.798700
-3.907200 2.776100
-3.885900 2.753400
-3.864600 2.730800
-3.843200 1.428600
-3.821900 1.424500
-3.800600 1.420400
-3.779300 1.416300
-3.758000 1.412200
-3.736600 1.408100
-3.715300 1.404000
-3.694000 1.400100
-3.672700 1.571400
-3.651400 1.908800
-3.630100 1.406100
-3.608700 1.828600
-3.587400 1.470600
-3.566100 1.518200
-3.544800 1.569400
-3.523500 1.629400
-3.502200 1.689300
-3.480800 1.749300
-3.459500 1.482700
-3.438200 1.648400
-3.416900 1.994700
-3.395600 2.341000
-3.374300 2.687300
-3.352900 1.722000
-3.331600 1.760300
-3.310300 1.798500
-3.289000 1.836800
-3.267700 1.875100
-3.246400 1.938300
-3.225000 1.999300
-3.203700 2.060300
-3.182400 2.121300
-3.161100 2.175200
-3.139800 2.223900
-3.118400 2.272600
-3.097100 2.328400
-3.075800 2.444600
-3.054500 2.474300
-3.033200 2.392800
-3.011900 2.316300
-2.990500 2.243700
-2.969200 2.205500
-2.947900 2.259400
-2.926600 2.306900
-2.905300 2.354500
-2.884000 2.576400
-2.862600 2.323900
-2.841300 2.481000
-2.820000 2.638100
-2.798700 2.753800
-2.777400 2.842100
-2.756100 2.052500
-2.734700 2.038700
-2.713400 2.024900
-2.692100 2.011100
-2.670800 1.997300
-2.649500 1.983500
-2.628200 1.969700
-2.606800 2.404200
-2.585500 2.710100
-2.564200 2.728700
-2.542900 2.747300
-2.521600 2.765900
-2.500200 2.803000
-2.478900 2.868300
-2.457600 2.933500
-2.436300 3.001000
-2.415000 3.069500
-2.393700 3.138100
-2.372300 3.206600
-2.351000 3.255000
-2.329700 3.264200
-2.308400 3.296000
-2.287100 3.329700
-2.265800 4.820300
-2.244400 3.140000
-2.223100 3.066600
-2.201800 3.025300
-2.180500 3.027600
-2.159200 3.031000
-2.137900 3.015000
-2.116500 2.988900
-2.095200 2.962900
-2.073900 2.936900
-2.052600 7.897300
-2.031300 5.785900
-2.010000 4.664300
-1.988600 4.585700
-1.967300 4.548300
-1.946000 4.603600
-1.924700 4.679700
-1.903400 8.326500
-1.882000 6.355800
-1.860700 4.762200
-1.839400 4.081200
-1.818100 3.529600
-1.796800 3.127300
-1.775500 2.741200
-1.754100 2.529400
-1.732800 2.360000
-1.711500 2.190700
-1.690200 1.604900
-1.668900 1.565200
-1.647600 1.584600
-1.626200 1.604000
-1.604900 1.629400
-1.583600 1.727200
-1.562300 1.884800
-1.541000 2.036600
-1.519700 2.179100
-1.498300 2.322800
-1.477000 2.466600
-1.455700 2.610300
-1.434400 2.767100
-1.413100 2.991200
-1.391800 3.215200
-1.370400 3.439300
-1.349100 3.532700
-1.327800 3.616700
-1.306500 3.700600
-1.285200 3.784600
-1.263800 3.474300
-1.242500 3.543600
-1.221200 3.612900
-1.199900 2.930200
-1.178600 2.584400
-1.157300 2.566500
-1.135900 2.548700
-1.114600 2.530800
-1.093300 2.512900
-1.072000 2.501200
-1.050700 2.100500
-1.029400 2.058900
-1.008000 2.017300
-0.986700 2.465500
-0.965400 2.522000
-0.944100 2.676500
-0.922800 2.832900
-0.901500 2.989500
-0.880100 3.146100
-0.858800 2.973500
-0.837500 3.042500
-0.816200 2.772100
-0.794900 2.772400
-0.773600 2.772700
-0.752200 2.769700
-0.730900 5.518500
-0.709600 4.184800
-0.688300 3.224000
-0.667000 3.245100
-0.645600 3.264900
-0.624300 3.284800
-0.603000 3.302800
-0.581700 3.309000
-0.560400 3.319900
-0.539100 3.314600
-0.517700 3.309200
-0.496400 3.303800
-0.475100 3.295700
-0.453800 3.292000
-0.432500 3.295700
-0.411200 3.303300
-0.389800 3.311000
-0.368500 3.318700
-0.347200 3.326400
-0.325900 3.337700
-0.304600 3.360800
-0.283300 3.384900
-0.261900 3.408900
-0.240600 3.433000
-0.219300 3.457100
-0.198000 3.484100
-0.176700 3.545400
-0.155400 3.717400
-0.134000 4.048500
-0.112700 4.405000
-0.091400 4.949200
-0.070100 5.470000
-0.048800 5.990900
-0.027400 5.743100
-0.006100 5.336500
0.015200 4.712200
0.036500 4.817200
0.057800 3.352900
0.079100 3.154700
0.100500 2.977300
0.121800 2.799800
0.143100 2.634500
0.164400 2.469200
0.185700 2.303900
0.207000 2.216700
0.228400 2.197000
0.249700 2.200900
0.271000 2.229700
0.292300 2.258400
0.313600 2.220000
0.334900 2.246100
0.356300 2.272200
0.377600 2.298300
0.398900 2.324500
0.420200 2.099900
0.441500 2.132400
0.462900 2.184400
0.484200 2.241000
0.505500 4.064700
0.526800 2.545400
0.548100 2.573700
0.569400 2.601900
0.590800 2.634400
0.612100 2.704100
0.633400 2.773800
0.654700 2.796300
0.676000 2.850200
0.697300 2.904200
0.718700 2.947200
0.740000 2.957300
0.761300 2.967300
0.782600 2.977300
0.803900 2.987300
0.825200 2.997400
0.846600 3.007400
0.867900 3.036100
0.889200 3.071800
0.910500 3.106800
0.931800 2.798700
0.953100 2.802700
0.974500 2.806400
0.995800 2.810200
1.017100 2.802100
1.038400 2.794000
1.059700 2.792700
1.081100 2.793500
1.102400 2.864900
1.123700 2.922300
1.145000 2.979600
1.166300 3.036900
1.187600 3.094200
1.209000 3.151600
1.230300 3.208900
1.251600 3.266200
1.272900 3.307800
1.294200 3.471000
1.315500 6.074700
1.336900 3.672700
1.358200 3.620100
1.379500 3.566700
1.400800 3.512500
1.422100 3.458400
1.443400 3.404000
1.464800 3.349600
1.486100 3.295200
1.507400 3.240900
1.528700 3.186500
1.550000 3.147600
1.571300 3.105400
1.592700 3.063200
1.614000 3.022000
1.635300 2.980800
1.656600 2.984500
1.677900 3.032200
1.699300 3.089400
1.720600 3.152300
1.741900 3.215200
1.763200 3.278000
1.784500 3.340900
1.805800 3.367200
1.827200 3.430600
1.848500 3.494100
1.869800 3.558600
1.891100 3.624300
1.912400 3.691100
1.933700 3.762100
1.955100 3.842100
1.976400 4.899500
1.997700 4.683900
2.019000 4.480000
2.040300 4.354600
2.061600 4.320600
2.083000 4.358900
2.104300 4.379400
2.125600 4.383400
2.146900 4.387400
2.168200 4.391500
2.189500 4.442500
2.210900 4.475400
2.232200 4.657600
2.253500 5.097700
2.274800 5.302100
2.296100 5.493000
2.317500 5.662100
2.338800 5.892000
2.360100 6.044700
2.381400 6.197500
2.402700 6.350200
2.424000 6.503000
2.445400 6.655700
2.466700 6.696800
2.488000 5.642700
2.509300 5.554700
2.530600 5.466700
2.551900 5.385300
2.573300 5.303700
2.594600 5.222100
2.615900 5.108000
2.637200 4.673900
2.658500 4.669600
2.679800 4.665400
2.701200 4.660700
2.722500 4.648500
2.743800 4.636400
2.765100 4.624200
2.786400 4.612100
2.807700 4.599900
2.829100 4.700700
2.850400 4.687800
2.871700 4.905600
2.893000 4.851200
2.914300 4.819700
2.935700 4.791800
2.957000 4.931900
2.978300 4.917100
2.999600 5.091500
3.020900 5.057400
3.042200 5.064400
3.063600 5.207800
3.084900 5.392200
3.106200 5.778300
3.127500 6.337400
3.148800 6.354600
3.170100 6.718200
3.191500 6.572000
3.212800 6.735400
3.234100 6.892300
3.255400 7.049900
3.276700 6.423000
3.298000 5.870800
3.319400 5.613200
3.340700 4.361600
3.362000 4.348100
3.383300 4.344000
3.404600 4.958400
3.425900 5.671800
3.447300 5.439500
3.468600 5.663400
3.489900 5.920700
3.511200 6.183100
3.532500 6.445500
3.553900 5.367200
3.575200 5.300100
3.596500 5.252400
3.617800 5.232900
3.639100 5.212200
3.660400 5.191600
3.681800 5.171000
3.703100 5.150400
3.724400 5.129700
3.745700 5.107700
3.767000 5.084100
3.788300 5.052100
3.809700 4.990400
3.831000 4.938900
3.852300 4.896400
3.873600 4.854800
3.894900 5.089800
3.916200 5.047600
3.937600 4.997200
3.958900 4.967700
3.980200 5.116800
4.001500 5.468600
4.022800 5.803600
4.044100 6.136700
4.065500 7.529000
4.086800 7.136500
4.108100 6.787700
4.129400 6.455600
4.150700 6.171700
4.172100 5.940700
4.193400 5.709800
4.214700 5.609200
4.236000 5.559200
4.257300 6.377300
4.278600 6.391400
4.300000 6.394700
4.321300 6.370000
4.342600 6.346500
4.363900 6.325500
4.385200 6.341000
4.406500 6.465300
4.427900 6.496600
4.449200 6.547800
4.470500 6.616500
4.491800 6.410900
4.513100 6.021800
4.534400 5.862100
4.555800 5.759800
4.577100 5.632700
4.598400 5.477200
4.619700 5.321600
4.641000 5.244200
4.662300 5.249100
4.683700 5.254400
4.705000 5.319700
4.726300 5.885300
4.747600 6.052200
4.768900 6.221400
4.790300 6.349000
4.811600 6.532300
4.832900 7.279000
4.854200 7.349600
4.875500 7.358700
4.896800 7.588200
4.918200 7.174600
4.939500 6.734200
4.960800 6.586300
4.982100 6.478600
5.003400 6.364600
5.024700 6.349400
5.046100 6.341500
5.067400 6.228600
5.088700 6.140900
5.110000 5.934600
5.131300 5.731000
5.152600 5.662400
5.174000 5.675000
5.195300 5.687900
5.216600 5.701500
5.237900 5.708900
5.259200 5.708400
5.280500 5.719300
5.301900 5.720800
5.323200 5.730400
5.344500 5.411000
5.365800 5.367900
5.387100 5.323100
5.408500 5.278400
5.429800 5.240500
5.451100 5.199400
5.472400 5.102900
5.493700 5.011900
5.515000 4.999500
5.536400 4.986500
5.557700 4.896000
5.579000 4.884900
5.600300 4.878900
5.621600 4.934900
5.642900 4.932300
5.664300 4.930300
5.685600 4.929500
5.706900 5.040500
5.728200 5.039700
5.749500 5.038900
5.770800 5.001800
5.792200 5.013500
5.813500 5.025300
5.834800 5.037000
5.856100 5.233600
5.877400 5.278300
5.898700 5.323500
5.920100 5.370900
5.941400 5.417800
5.962700 5.480900
5.984000 5.471400
6.005300 5.445800
6.026700 5.444900
6.048000 5.419400
6.069300 5.386100
6.090600 5.428100
6.111900 5.481300
6.133200 5.528400
6.154600 5.577000
6.175900 5.760700
6.197200 6.254300
6.218500 6.715200
6.239800 7.176200
6.261100 6.634100
6.282500 6.354500
6.303800 6.059300
6.325100 5.966700
6.346400 6.613700
6.367700 6.479800
6.389000 6.301200
6.410400 6.262300
6.431700 6.191000
6.453000 6.064400
6.474300 5.934500
6.495600 5.804700
6.516900 5.726800
6.538300 5.634300
6.559600 5.538100
6.580900 5.431800
6.602200 5.333300
6.623500 5.252800
6.644900 5.171800
6.666200 5.090900
6.687500 5.048000
6.708800 4.964300
6.730100 4.880600
6.751400 4.821200
6.772800 4.775200
6.794100 4.729300
6.815400 4.940000
6.836700 4.918200
6.858000 4.885700
6.879300 4.788000
6.900700 4.685100
6.922000 4.582800
6.943300 4.514700
6.964600 4.457600
6.985900 4.400600
7.007200 4.343600
7.028600 4.254600
7.049900 4.188900
7.071200 4.489500
7.092500 4.348400
7.113800 4.655900
7.135200 4.427200
7.156500 4.202200
7.177800 3.965900
7.199100 3.732900
7.220400 3.530000
7.241700 3.378400
7.263100 3.278800
7.284400 3.220700
7.305700 3.163800
7.327000 3.096200
7.348300 3.015300
7.369600 2.931800
7.391000 2.850500
7.412300 2.790900
7.433600 2.730000
7.454900 2.682900
7.476200 2.639600
7.497500 2.596200
7.518900 2.552800
7.540200 2.509500
7.561500 2.466500
7.582800 2.427200
7.604100 2.387900
7.625400 2.353300
7.646800 2.334800
7.668100 2.376800
7.689400 2.420700
7.710700 2.362300
7.732000 2.301800
7.753400 2.241200
7.774700 2.180700
7.796000 2.120100
7.817300 2.059600
7.838600 1.999100
7.859900 1.941200
7.881300 1.885000
7.902600 1.829600
7.923900 1.776300
7.945200 1.722500
7.966500 1.674200
7.987800 1.604400
8.009200 1.523000
8.030500 1.509000
8.051800 1.494900
8.073100 1.480900
8.094400 1.469200
8.115700 1.459300
8.137100 1.449400
8.158400 1.438400
8.179700 1.425200
8.201000 1.414400
8.222300 1.403500
8.243600 1.392700
8.265000 1.381800
8.286300 1.367800
8.307600 1.354400
8.328900 1.341000
8.350200 1.327600
8.371600 1.314200
8.392900 1.300900
8.414200 1.287500
8.435500 1.309800
8.456800 1.292800
8.478100 1.275700
8.499500 1.258700
8.520800 1.241700
8.542100 1.225200
8.563400 1.208400
8.584700 1.191900
8.606000 1.175300
8.627400 1.158700
8.648700 1.142100
8.670000 1.125500
8.691300 1.108900
