set title 'mp-10654 - Density of States'
set xlabel 'Energy (eV)'
set ylabel 'DOS (states/eV)'
set grid
set xrange [-10:10]
set yrange [0:1.122]
set xzeroaxis lt -1
set terminal png size 800,600
set output 'mp-10654_dos_gnuplot.png'
plot '-' using 1:2 with lines title 'DOS'
-14.406500 0.000000
-14.326800 0.000000
-14.247100 0.000000
-14.167400 0.000000
-14.087700 0.000000
-14.008000 0.000000
-13.928300 0.000000
-13.848600 0.000000
-13.768900 0.000000
-13.689200 0.000000
-13.609500 0.000000
-13.529800 0.000000
-13.450100 0.000000
-13.370400 0.000000
-13.290700 0.000000
-13.211000 0.000000
-13.131300 0.000000
-13.051600 0.000000
-12.971900 0.000000
-12.892200 0.000000
-12.812500 0.000000
-12.732800 0.000000
-12.653100 0.000000
-12.573400 0.000000
-12.493700 0.000000
-12.414000 0.000000
-12.334300 0.000000
-12.254600 0.000000
-12.174900 0.000000
-12.095200 0.000000
-12.015500 0.000000
-11.935900 0.000000
-11.856200 0.000000
-11.776500 0.000000
-11.696800 0.000000
-11.617100 0.000000
-11.537400 0.000000
-11.457700 0.000000
-11.378000 0.000000
-11.298300 0.000000
-11.218600 0.000000
-11.138900 0.000000
-11.059200 0.000000
-10.979500 0.000000
-10.899800 0.000000
-10.820100 0.000000
-10.740400 0.000000
-10.660700 0.000000
-10.581000 0.000000
-10.501300 0.000000
-10.421600 0.000000
-10.341900 0.000000
-10.262200 0.000000
-10.182500 0.000000
-10.102800 0.000000
-10.023100 0.000000
-9.943400 0.000000
-9.863700 0.000000
-9.784000 0.000000
-9.704300 0.000000
-9.624600 0.000000
-9.544900 0.000000
-9.465200 0.000000
-9.385500 0.000000
-9.305800 0.000000
-9.226100 0.000000
-9.146400 0.000000
-9.066700 0.000000
-8.987000 0.000000
-8.907300 0.000000
-8.827600 0.000000
-8.747900 0.000000
-8.668200 0.000000
-8.588500 0.000000
-8.508800 0.000000
-8.429100 0.000000
-8.349400 0.000000
-8.269700 0.000000
-8.190000 0.000000
-8.110300 0.000000
-8.030600 0.000000
-7.950900 0.000000
-7.871200 0.000000
-7.791500 0.000000
-7.711800 0.000000
-7.632100 0.000000
-7.552400 0.000000
-7.472700 0.000000
-7.393000 0.000000
-7.313300 0.000000
-7.233600 0.000000
-7.153900 0.000900
-7.074200 0.086000
-6.994500 0.114000
-6.914800 0.156600
-6.835100 0.174300
-6.755400 0.201300
-6.675700 0.228700
-6.596000 0.246300
-6.516300 0.267000
-6.436600 0.288700
-6.356900 0.312500
-6.277200 0.332300
-6.197500 0.353400
-6.117800 0.375500
-6.038100 0.399100
-5.958400 0.425700
-5.878700 0.454000
-5.799000 0.483700
-5.719300 0.513900
-5.639600 0.556000
-5.559900 0.617300
-5.480200 0.679700
-5.400500 0.797500
-5.320800 0.775800
-5.241100 0.761400
-5.161400 0.743300
-5.081700 0.734000
-5.002000 0.719800
-4.922300 0.701500
-4.842600 0.690000
-4.762900 0.679000
-4.683200 0.666700
-4.603500 0.650700
-4.523800 0.638300
-4.444100 0.626800
-4.364400 0.615500
-4.284700 0.605200
-4.205000 0.592300
-4.125300 0.579000
-4.045600 0.566100
-3.965900 0.557400
-3.886200 0.553800
-3.806500 0.526400
-3.726800 0.523400
-3.647100 0.404900
-3.567400 0.357400
-3.487700 0.313400
-3.408000 0.283600
-3.328300 0.256300
-3.248600 0.229800
-3.168900 0.210300
-3.089200 0.191300
-3.009500 0.173700
-2.929800 0.156200
-2.850100 0.142200
-2.770400 0.128900
-2.690700 0.116500
-2.611000 0.104500
-2.531300 0.093200
-2.451600 0.081600
-2.371900 0.071700
-2.292200 0.062200
-2.212500 0.052500
-2.132800 0.043500
-2.053100 0.029700
-1.973400 0.018000
-1.893700 0.000000
-1.814000 0.000000
-1.734300 0.000000
-1.654600 0.000000
-1.574900 0.000000
-1.495200 0.000000
-1.415500 0.000000
-1.335800 0.000000
-1.256100 0.000000
-1.176400 0.000000
-1.096700 0.000000
-1.017000 0.000000
-0.937300 0.000000
-0.857600 0.000000
-0.777900 0.000000
-0.698200 0.000000
-0.618500 0.000000
-0.538800 0.000000
-0.459100 0.000000
-0.379400 0.000000
-0.299700 0.000000
-0.220000 0.000000
-0.140300 0.000000
-0.060600 0.000000
0.019100 0.000000
0.098800 0.000000
0.178500 0.000000
0.258200 0.000000
0.337900 0.000000
0.417600 0.000000
0.497300 0.000000
0.577000 0.066800
0.656700 0.137600
0.736400 0.200400
0.816100 0.227000
0.895800 0.271700
0.975400 0.319900
1.055100 0.354900
1.134800 0.382000
1.214500 0.412000
1.294200 0.443300
1.373900 0.472400
1.453600 0.504100
1.533300 0.537700
1.613000 0.573400
1.692700 0.617300
1.772400 0.661100
1.852100 0.706900
1.931800 0.793600
2.011500 0.895000
2.091200 1.020000
2.170900 1.005300
2.250600 1.002500
2.330300 0.972900
2.410000 0.953800
2.489700 0.966600
2.569400 1.004500
2.649100 0.972300
2.728800 0.974800
2.808500 0.960000
2.888200 0.940600
2.967900 0.923700
3.047600 0.918300
3.127300 0.926700
3.207000 0.944100
3.286700 0.940800
3.366400 0.941000
3.446100 0.883000
3.525800 0.860700
3.605500 0.847700
3.685200 0.772000
3.764900 0.703300
3.844600 0.711400
3.924300 0.745500
4.004000 0.781200
4.083700 0.724600
4.163400 0.688500
4.243100 0.647300
4.322800 0.642300
4.402500 0.657300
4.482200 0.669200
4.561900 0.687100
4.641600 0.686000
4.721300 0.657900
4.801000 0.607500
4.880700 0.603700
4.960400 0.615200
5.040100 0.643000
5.119800 0.622300
5.199500 0.621500
5.279200 0.613700
5.358900 0.598400
5.438600 0.593400
5.518300 0.603600
5.598000 0.608100
5.677700 0.584800
5.757400 0.583300
5.837100 0.633500
5.916800 0.599800
5.996500 0.581600
6.076200 0.651000
6.155900 0.633500
6.235600 0.597700
6.315300 0.576200
6.395000 0.590100
6.474700 0.606200
6.554400 0.616300
6.634100 0.584900
6.713800 0.586200
6.793500 0.587300
6.873200 0.589500
6.952900 0.591600
7.032600 0.666300
7.112300 0.649900
7.192000 0.705600
7.271700 0.673700
7.351400 0.677000
7.431100 0.691300
7.510800 0.716200
7.590500 0.749400
7.670200 0.761900
7.749900 0.757500
7.829600 0.750900
7.909300 0.735800
7.989000 0.729500
8.068700 0.721600
8.148400 0.715200
8.228100 0.711000
8.307800 0.717100
8.387500 0.715400
8.467200 0.708700
8.546900 0.731600
8.626600 0.720600
8.706300 0.728600
8.786000 0.794600
8.865700 0.685100
8.945400 0.638600
9.025100 0.566000
9.104800 0.529400
9.184500 0.517800
9.264200 0.519400
9.343900 0.486300
9.423600 0.462800
9.503300 0.429900
9.583000 0.407300
9.662700 0.387000
9.742400 0.379800
9.822100 0.368700
9.901800 0.388800
9.981500 0.463600
10.061200 0.431300
10.140900 0.384200
10.220600 0.365500
10.300300 0.356500
10.380000 0.360800
10.459700 0.395200
10.539400 0.422400
10.619100 0.477600
10.698800 0.479900
10.778500 0.477900
10.858200 0.421500
10.937900 0.377700
11.017600 0.389900
11.097300 0.394500
11.177000 0.401300
11.256700 0.443200
11.336400 0.414000
11.416100 0.418700
11.495800 0.424100
11.575500 0.431700
11.655200 0.440900
11.734900 0.461300
11.814600 0.495200
11.894300 0.462200
11.974000 0.464500
12.053700 0.467000
12.133400 0.458800
12.213100 0.464300
12.292800 0.469800
12.372500 0.504300
12.452200 0.492900
12.531900 0.512800
12.611600 0.528900
12.691300 0.548200
12.771000 0.565200
12.850700 0.579900
12.930400 0.600800
13.010100 0.622500
13.089800 0.646100
13.169500 0.674700
13.249200 0.708300
13.328900 0.754900
13.408600 0.792400
13.488300 0.846400
13.568000 0.882900
13.647700 0.913900
13.727400 0.920100
13.807000 0.935000
13.886700 0.948300
13.966400 0.990600
14.046100 0.980000
14.125800 0.975800
14.205500 0.962800
14.285200 0.951500
14.364900 0.969100
14.444600 0.870900
14.524300 0.858800
14.604000 0.896200
14.683700 0.997100
14.763400 1.115200
14.843100 1.229500
14.922800 1.354500
15.002500 1.436800
15.082200 1.460200
15.161900 1.443500
15.241600 1.417500
15.321300 1.280400
15.401000 1.161500
15.480700 1.049400
15.560400 0.976700
15.640100 0.888500
15.719800 0.795200
15.799500 0.766800
15.879200 0.699500
15.958900 0.678700
16.038600 0.687700
16.118300 0.709800
16.198000 0.742800
16.277700 0.826300
16.357400 0.831900
16.437100 0.866100
16.516800 0.941500
16.596500 1.041300
16.676200 1.260900
16.755900 1.604000
16.835600 1.499200
16.915300 1.477100
16.995000 1.332000
17.074700 1.229600
17.154400 1.089900
17.234100 0.995900
17.313800 0.931900
17.393500 0.856400
17.473200 0.820000
17.552900 0.833700
17.632600 0.851300
17.712300 0.894700
17.792000 0.910600
17.871700 0.938000
17.951400 1.017100
18.031100 1.102300
18.110800 1.182900
18.190500 1.278100
18.270200 1.305600
18.349900 1.374400
18.429600 1.436300
18.509300 1.519700
18.589000 1.551700
18.668700 1.434900
18.748400 1.298800
18.828100 1.192000
18.907800 1.097500
18.987500 1.017600
19.067200 0.988000
19.146900 0.950900
19.226600 0.917600
19.306300 0.928200
19.386000 0.967400
19.465700 1.096200
19.545400 1.151600
19.625100 1.042600
19.704800 1.074800
19.784500 1.069400
19.864200 1.093900
19.943900 1.118300
20.023600 1.134800
20.103300 1.190900
20.183000 1.207000
20.262700 1.210300
20.342400 1.233900
20.422100 1.253800
20.501800 1.270300
20.581500 1.315900
20.661200 1.320600
20.740900 1.345700
20.820600 1.412100
20.900300 1.531400
20.980000 1.478700
21.059700 1.382300
21.139400 1.321900
21.219100 1.244300
21.298800 1.172200
21.378500 1.115100
21.458200 0.986900
21.537900 0.924100
21.617600 0.922800
21.697300 1.003500
21.777000 1.168000
21.856700 1.355500
21.936400 1.450900
22.016100 1.335800
22.095800 1.302200
22.175500 1.229700
22.255200 1.185100
22.334900 1.140800
22.414600 1.117700
22.494300 1.117200
22.574000 1.137900
22.653700 1.170300
22.733400 1.247100
22.813100 1.329100
22.892800 1.420700
22.972500 1.346500
23.052200 1.327400
23.131900 1.293100
23.211600 1.316200
23.291300 1.360400
23.371000 1.358700
23.450700 1.398700
23.530400 1.536900
23.610100 1.556400
23.689800 1.589600
23.769500 1.600700
23.849200 1.533300
23.928900 1.491200
24.008600 1.398100
24.088300 1.291400
24.168000 1.198100
24.247700 1.120800
24.327400 1.050400
24.407100 0.973700
24.486800 0.935400
24.566500 1.004400
24.646200 1.204400
24.725900 1.339100
24.805600 1.467700
24.885300 1.648000
24.965000 1.721400
25.044700 1.765600
25.124400 1.755600
25.204100 1.669600
25.283800 1.599100
25.363500 1.550300
25.443200 1.477900
25.522900 1.424500
25.602600 1.395100
25.682300 1.366400
25.762000 1.387800
25.841700 1.432000
25.921400 1.472300
26.001100 1.474500
26.080800 1.485600
26.160500 1.477200
26.240200 1.452000
26.319900 1.442100
26.399600 1.617000
26.479300 1.499100
26.559000 1.443700
26.638700 1.514600
26.718300 1.602500
26.798000 1.676400
26.877700 1.838600
26.957400 1.667000
27.037100 1.553400
27.116800 1.434000
27.196500 1.350800
27.276200 1.267900
27.355900 1.252000
27.435600 1.283200
27.515300 1.325900
27.595000 1.369000
27.674700 1.446400
27.754400 1.472400
27.834100 1.490700
27.913800 1.558400
27.993500 1.580400
28.073200 1.630800
28.152900 1.703600
28.232600 1.723600
28.312300 1.723300
28.392000 1.699800
28.471700 1.711600
28.551400 1.624400
28.631100 1.416600
28.710800 1.370900
28.790500 1.363300
28.870200 1.350500
28.949900 1.334600
29.029600 1.348700
29.109300 1.371600
29.189000 1.361400
29.268700 1.851100
29.348400 1.496800
29.428100 1.433700
29.507800 1.416900
29.587500 1.422700
29.667200 1.433400
29.746900 1.484300
29.826600 1.491900
29.906300 1.576600
29.986000 1.701500
30.065700 1.811300
30.145400 1.885600
30.225100 2.165000
30.304800 1.968400
30.384500 1.763100
30.464200 1.618700
30.543900 1.559700
30.623600 1.510400
30.703300 1.454900
30.783000 1.499400
30.862700 1.477500
30.942400 1.496100
31.022100 1.505500
31.101800 1.545100
31.181500 1.628300
31.261200 1.681600
31.340900 1.528400
31.420600 1.511300
31.500300 1.521400
31.580000 1.475500
31.659700 1.408500
31.739400 1.565700
31.819100 1.858500
31.898800 1.909800
31.978500 1.883800
32.058200 1.741800
32.137900 1.620300
32.217600 1.483500
32.297300 1.487300
32.377000 1.563200
32.456700 1.661700
32.536400 1.652700
32.616100 1.626500
32.695800 1.583900
32.775500 1.574500
32.855200 1.469600
32.934900 1.415300
33.014600 1.425500
33.094300 1.514700
33.174000 1.779700
33.253700 1.721300
33.333400 1.660800
33.413100 1.799600
33.492800 2.020700
33.572500 1.862500
33.652200 1.785100
33.731900 1.628900
33.811600 1.535700
33.891300 1.361000
33.971000 1.208300
34.050700 1.123200
34.130400 1.118300
34.210100 1.434700
34.289800 1.510000
34.369500 1.534200
34.449200 1.536700
34.528900 1.559900
34.608600 1.560000
34.688300 1.633100
34.768000 1.773400
34.847700 1.636400
34.927400 1.412800
35.007100 1.318400
35.086800 1.309700
35.166500 1.276000
35.246200 1.288000
35.325900 1.367900
35.405600 1.493300
35.485300 1.640000
35.565000 1.453000
35.644700 1.372000
35.724400 1.356500
35.804100 1.409600
35.883800 1.375200
35.963500 1.387500
36.043200 1.421800
36.122900 1.581100
36.202600 2.119000
36.282300 1.786400
36.362000 1.667900
36.441700 1.832800
36.521400 2.060400
36.601100 2.092900
36.680800 2.030300
36.760500 2.223400
36.840200 2.261900
36.919900 2.163400
36.999600 1.928700
37.079300 1.791600
37.159000 1.765200
37.238700 1.760100
37.318400 1.761100
37.398100 1.756200
37.477800 1.762600
37.557500 1.627600
37.637200 1.541700
37.716900 1.536900
37.796600 1.548400
37.876300 1.677400
37.956000 1.912200
38.035700 1.920000
38.115400 1.771000
38.195100 1.726500
38.274800 1.692600
38.354500 1.674600
38.434200 1.761800
38.513900 1.869700
38.593600 1.765000
38.673300 1.562100
38.753000 1.535000
38.832700 1.431700
38.912400 1.414700
38.992100 1.359400
39.071800 1.250700
39.151500 1.301900
39.231200 1.243500
39.310900 1.226500
39.390600 1.374600
39.470300 1.531300
39.550000 1.672000
39.629600 1.815800
39.709300 1.733100
39.789000 1.571200
39.868700 1.357400
39.948400 1.110200
40.028100 1.065300
40.107800 1.283000
40.187500 1.469600
40.267200 1.658200
40.346900 1.928800
40.426600 2.026100
40.506300 2.216900
40.586000 2.226900
40.665700 2.253700
40.745400 2.156300
40.825100 2.036700
40.904800 1.812700
40.984500 1.676900
41.064200 1.546700
41.143900 1.614100
41.223600 1.600500
41.303300 1.560000
41.383000 1.571700
41.462700 1.629900
41.542400 1.553500
41.622100 1.589100
41.701800 1.577900
41.781500 1.485200
41.861200 1.561100
41.940900 1.742700
42.020600 1.950800
42.100300 2.124200
42.180000 2.084600
42.259700 2.112700
42.339400 2.117900
42.419100 2.051100
42.498800 1.935100
42.578500 1.866200
42.658200 1.877900
42.737900 1.772000
42.817600 1.724700
42.897300 1.828400
42.977000 1.753800
43.056700 1.743800
43.136400 1.732900
43.216100 1.771400
43.295800 1.732700
43.375500 1.733600
43.455200 1.755500
43.534900 1.934800
43.614600 2.117400
43.694300 2.259300
43.774000 2.309700
43.853700 2.227700
43.933400 2.111300
44.013100 1.872200
44.092800 1.670300
44.172500 1.535200
44.252200 1.385800
44.331900 1.304000
44.411600 1.273100
44.491300 1.349500
44.571000 1.395400
44.650700 1.423000
44.730400 1.556100
44.810100 1.684100
44.889800 1.632900
44.969500 1.454800
45.049200 1.271500
45.128900 1.188600
45.208600 1.140200
45.288300 1.133100
45.368000 1.189000
45.447700 1.246400
45.527400 1.369700
45.607100 1.585700
45.686800 1.608000
45.766500 1.589200
45.846200 1.657500
45.925900 1.745900
46.005600 1.864000
46.085300 1.945800
46.165000 2.030200
46.244700 2.023000
46.324400 2.077400
46.404100 2.279100
46.483800 1.972800
46.563500 1.967500
46.643200 1.929900
46.722900 1.933000
46.802600 2.082200
46.882300 2.402200
46.962000 2.387100
47.041700 2.171700
47.121400 2.109300
47.201100 1.927400
47.280800 1.877000
47.360500 1.989100
47.440200 2.017200
47.519900 2.191100
47.599600 2.134900
47.679300 1.854800
47.759000 1.759200
47.838700 1.685200
47.918400 1.746100
47.998100 2.028000
48.077800 1.930000
48.157500 1.693300
48.237200 1.689000
48.316900 1.691800
48.396600 1.611800
48.476300 1.699900
48.556000 1.887700
48.635700 1.911800
48.715400 1.881600
48.795100 1.792000
48.874800 2.020600
48.954500 1.594400
49.034200 1.495100
49.113900 1.449200
49.193600 1.454000
49.273300 1.581800
49.353000 1.775000
49.432700 1.561700
49.512400 1.489900
49.592100 1.571700
49.671800 1.836600
49.751500 2.154000
49.831200 2.231100
49.910900 2.270900
49.990600 2.146300
50.070300 1.961300
50.150000 1.907300
50.229700 1.798800
50.309400 1.721500
50.389100 1.789800
50.468800 1.812600
50.548500 1.908300
50.628200 2.125600
50.707900 2.011400
50.787600 1.790200
50.867300 1.616600
50.947000 1.503500
51.026700 1.454800
51.106400 1.576900
51.186100 1.699600
51.265800 1.595900
51.345500 1.555000
51.425200 1.571900
51.504900 1.676600
51.584600 1.801700
51.664300 1.902500
51.744000 1.968300
51.823700 2.034600
51.903400 2.068800
51.983100 1.954800
52.062800 1.739300
52.142500 1.576100
52.222200 1.584100
52.301900 1.646600
52.381600 1.680300
52.461200 1.684000
52.540900 1.748600
52.620600 1.701700
52.700300 1.686500
52.780000 1.731200
52.859700 1.693200
52.939400 1.621500
53.019100 1.525300
53.098800 1.497500
53.178500 1.615000
53.258200 1.889100
53.337900 1.675400
53.417600 1.680800
53.497300 1.645100
53.577000 1.634300
53.656700 1.660100
53.736400 1.755900
53.816100 1.919300
53.895800 2.073900
53.975500 2.147100
54.055200 2.084100
54.134900 1.994400
54.214600 1.859300
54.294300 1.754100
54.374000 1.713400
54.453700 1.719500
54.533400 1.827300
54.613100 2.068500
54.692800 2.014800
54.772500 1.891000
54.852200 1.801900
54.931900 1.791600
55.011600 1.878400
55.091300 1.976400
55.171000 2.016700
55.250700 2.109700
55.330400 1.961100
55.410100 2.011100
55.489800 1.868100
55.569500 1.899300
55.649200 1.929200
55.728900 1.928700
55.808600 1.912900
55.888300 1.873100
55.968000 1.902200
56.047700 2.089500
56.127400 2.078100
56.207100 2.032400
56.286800 2.065700
56.366500 1.979400
56.446200 2.072100
56.525900 2.029100
56.605600 2.081800
56.685300 2.021100
56.765000 1.990700
56.844700 1.855400
56.924400 1.834400
57.004100 1.765300
57.083800 1.614900
57.163500 1.603000
57.243200 1.589500
57.322900 1.726800
57.402600 1.801300
57.482300 1.752700
57.562000 1.752100
57.641700 1.617000
57.721400 1.582400
57.801100 1.497500
57.880800 1.506200
57.960500 1.599500
58.040200 1.580800
58.119900 1.616800
58.199600 1.652400
58.279300 1.737500
58.359000 1.722400
58.438700 1.835700
58.518400 1.973300
58.598100 1.808700
58.677800 1.700400
58.757500 1.673200
58.837200 1.714700
58.916900 1.824600
58.996600 1.890600
59.076300 2.107900
59.156000 2.060600
59.235700 1.971800
59.315400 2.023600
59.395100 2.133800
59.474800 2.206200
59.554500 2.229800
59.634200 2.228800
59.713900 2.262000
59.793600 2.432000
59.873300 2.523200
59.953000 2.483900
60.032700 2.256500
60.112400 1.970600
60.192100 1.796600
60.271800 1.843400
60.351500 1.874300
60.431200 1.938700
60.510900 2.040600
60.590600 2.044400
60.670300 1.953500
60.750000 1.875400
60.829700 1.873000
60.909400 1.915400
60.989100 2.065900
61.068800 2.150000
61.148500 2.187700
61.228200 2.075000
61.307900 2.100300
61.387600 2.192800
61.467300 2.111100
61.547000 2.323500
61.626700 2.402600
61.706400 2.469500
61.786100 2.514000
61.865800 2.393300
61.945500 2.232300
62.025200 2.069600
62.104900 2.012300
62.184600 2.328700
62.264300 2.008400
62.344000 2.189100
62.423700 2.391500
62.503400 2.534100
62.583100 2.545300
62.662800 2.434300
62.742500 2.287400
62.822200 1.935300
62.901900 1.933500
62.981600 1.916200
63.061300 1.776700
63.141000 1.661100
63.220700 1.597700
63.300400 1.848900
63.380100 2.137000
63.459800 2.205100
63.539500 2.101400
63.619200 1.977200
63.698900 2.045200
63.778600 2.278700
63.858300 2.100200
63.938000 1.971300
64.017700 1.967000
64.097400 1.910400
64.177100 1.786500
64.256800 1.791900
64.336500 1.893700
64.416200 1.975600
64.495900 2.231700
64.575600 2.219100
64.655300 2.189500
64.735000 2.136000
64.814700 2.034900
64.894400 2.015800
64.974100 1.976200
65.053800 1.883300
65.133500 1.758800
65.213200 1.790000
65.292900 2.011200
65.372500 2.100400
65.452200 2.068600
65.531900 2.018800
65.611600 2.032800
65.691300 2.127900
65.771000 2.086000
65.850700 2.041500
65.930400 1.844400
66.010100 2.076800
66.089800 2.605300
66.169500 2.631400
66.249200 2.526300
66.328900 2.538700
66.408600 2.088800
66.488300 1.857300
66.568000 1.861600
66.647700 1.862600
66.727400 1.840200
66.807100 1.915700
66.886800 1.897700
66.966500 1.834200
67.046200 1.785500
67.125900 1.758700
67.205600 1.740300
67.285300 1.690400
67.365000 1.715900
67.444700 1.729200
67.524400 1.740900
67.604100 1.695300
67.683800 1.673100
67.763500 1.664500
67.843200 1.825100
67.922900 1.851000
68.002600 1.800000
68.082300 1.797000
68.162000 1.848500
68.241700 1.906300
68.321400 1.954300
68.401100 1.931600
68.480800 2.095300
