set title 'mp-997182 - Density of States'
set xlabel 'Energy (eV)'
set ylabel 'DOS (states/eV)'
set grid
set xrange [-10:10]
set yrange [0:5.792]
set xzeroaxis lt -1
set terminal png size 800,600
set output 'mp-997182_dos_gnuplot.png'
plot '-' using 1:2 with lines title 'DOS'
-22.529400 0.000000
-22.498800 0.000000
-22.468100 0.000000
-22.437500 0.000000
-22.406900 0.000000
-22.376200 0.000000
-22.345600 0.000000
-22.314900 0.000000
-22.284300 0.000000
-22.253600 0.000000
-22.223000 0.000000
-22.192300 0.000000
-22.161700 0.000000
-22.131100 0.000000
-22.100400 0.000000
-22.069800 0.000000
-22.039100 0.000000
-22.008500 0.000000
-21.977800 0.000000
-21.947200 0.000000
-21.916500 0.000000
-21.885900 0.000000
-21.855300 0.000000
-21.824600 0.000000
-21.794000 0.000000
-21.763300 0.000000
-21.732700 0.000000
-21.702000 0.000000
-21.671400 0.000000
-21.640700 0.000000
-21.610100 0.000000
-21.579500 0.000000
-21.548800 0.000000
-21.518200 0.000000
-21.487500 0.000000
-21.456900 0.000000
-21.426200 0.000000
-21.395600 0.000000
-21.364900 0.000000
-21.334300 0.000000
-21.303700 0.000000
-21.273000 0.000000
-21.242400 0.000000
-21.211700 0.000000
-21.181100 0.000000
-21.150400 0.000000
-21.119800 0.000000
-21.089200 0.000000
-21.058500 0.000000
-21.027900 0.000000
-20.997200 0.000000
-20.966600 0.000000
-20.935900 0.000000
-20.905300 0.000000
-20.874600 0.000000
-20.844000 0.000000
-20.813400 0.000000
-20.782700 0.000000
-20.752100 0.000000
-20.721400 0.000000
-20.690800 0.000000
-20.660100 0.000000
-20.629500 0.000000
-20.598800 0.000000
-20.568200 0.000000
-20.537600 0.000000
-20.506900 0.000000
-20.476300 0.000000
-20.445600 0.000000
-20.415000 0.000000
-20.384300 0.000000
-20.353700 0.000000
-20.323000 0.000000
-20.292400 0.000000
-20.261800 0.000000
-20.231100 0.000000
-20.200500 0.000000
-20.169800 0.000000
-20.139200 0.000000
-20.108500 0.000000
-20.077900 0.000000
-20.047200 0.000000
-20.016600 0.000000
-19.986000 0.000000
-19.955300 0.000000
-19.924700 0.000000
-19.894000 0.000000
-19.863400 0.000000
-19.832700 0.000000
-19.802100 0.000000
-19.771400 0.000000
-19.740800 0.052300
-19.710200 0.634800
-19.679500 0.525700
-19.648900 0.574300
-19.618200 0.623000
-19.587600 0.671700
-19.556900 0.627200
-19.526300 0.575500
-19.495600 0.592600
-19.465000 0.609700
-19.434400 0.626900
-19.403700 0.644000
-19.373100 0.661200
-19.342400 0.609400
-19.311800 0.605800
-19.281100 0.602100
-19.250500 0.603600
-19.219800 0.612300
-19.189200 0.621100
-19.158600 0.629800
-19.127900 0.638600
-19.097300 0.641100
-19.066600 0.618800
-19.036000 0.607700
-19.005300 0.609400
-18.974700 0.611100
-18.944000 0.612800
-18.913400 0.614500
-18.882800 0.617200
-18.852100 0.622500
-18.821500 0.627900
-18.790800 0.633200
-18.760200 0.638600
-18.729500 0.625500
-18.698900 0.621600
-18.668200 0.617700
-18.637600 0.613700
-18.607000 0.613700
-18.576300 0.615900
-18.545700 0.618200
-18.515000 0.620400
-18.484400 0.622600
-18.453700 0.624800
-18.423100 0.627000
-18.392400 0.630300
-18.361800 0.633900
-18.331200 0.637600
-18.300500 0.636800
-18.269900 0.626700
-18.239200 0.622500
-18.208600 0.622200
-18.177900 0.621800
-18.147300 0.621500
-18.116600 0.621200
-18.086000 0.621900
-18.055400 0.623900
-18.024700 0.625900
-17.994100 0.628000
-17.963400 0.630000
-17.932800 0.632000
-17.902100 0.634000
-17.871500 0.636000
-17.840800 0.638000
-17.810200 0.640600
-17.779600 0.633700
-17.748900 0.631600
-17.718300 0.629500
-17.687600 0.627400
-17.657000 0.627600
-17.626300 0.628300
-17.595700 0.628900
-17.565100 0.629600
-17.534400 0.630300
-17.503800 0.630900
-17.473100 0.631600
-17.442500 0.633400
-17.411800 0.635100
-17.381200 0.636900
-17.350500 0.638700
-17.319900 0.640400
-17.289300 0.642200
-17.258600 0.643900
-17.228000 0.645700
-17.197300 0.643000
-17.166700 0.637500
-17.136000 0.637000
-17.105400 0.636800
-17.074700 0.636700
-17.044100 0.636600
-17.013500 0.636500
-16.982800 0.637300
-16.952200 0.638400
-16.921500 0.639400
-16.890900 0.640400
-16.860200 0.641400
-16.829600 0.642400
-16.798900 0.643400
-16.768300 0.644400
-16.737700 0.645700
-16.707000 0.647300
-16.676400 0.648900
-16.645700 0.650500
-16.615100 0.652100
-16.584400 0.653700
-16.553800 0.655300
-16.523100 0.650200
-16.492500 0.649300
-16.461900 0.648300
-16.431200 0.648200
-16.400600 0.648700
-16.369900 0.649400
-16.339300 0.650100
-16.308600 0.650800
-16.278000 0.651500
-16.247300 0.652300
-16.216700 0.653500
-16.186100 0.654900
-16.155400 0.656200
-16.124800 0.657500
-16.094100 0.658800
-16.063500 0.660100
-16.032800 0.661400
-16.002200 0.662700
-15.971500 0.664000
-15.940900 0.665400
-15.910300 0.667200
-15.879600 0.669000
-15.849000 0.670900
-15.818300 0.669500
-15.787700 0.668600
-15.757000 0.669400
-15.726400 0.670300
-15.695700 0.671100
-15.665100 0.672000
-15.634500 0.673200
-15.603800 0.674800
-15.573200 0.676400
-15.542500 0.678200
-15.511900 0.680300
-15.481200 0.682400
-15.450600 0.684500
-15.419900 0.686600
-15.389300 0.689400
-15.358700 0.692600
-15.328000 0.695800
-15.297400 0.699000
-15.266700 0.702200
-15.236100 0.705400
-15.205400 0.708500
-15.174800 0.711700
-15.144100 0.714900
-15.113500 0.718100
-15.082900 0.721800
-15.052200 0.730200
-15.021600 0.739500
-14.990900 0.748800
-14.960300 0.758800
-14.929600 0.769800
-14.899000 0.780700
-14.868300 0.791600
-14.837700 0.802500
-14.807100 0.813500
-14.776400 0.830500
-14.745800 0.849700
-14.715100 1.083400
-14.684500 1.047000
-14.653800 1.010600
-14.623200 0.974200
-14.592500 0.937800
-14.561900 1.424000
-14.531300 1.134400
-14.500600 0.844800
-14.470000 0.639800
-14.439300 0.618100
-14.408700 0.596300
-14.378000 0.574600
-14.347400 0.552900
-14.316700 0.531100
-14.286100 0.509400
-14.255500 0.491200
-14.224800 0.483500
-14.194200 0.783400
-14.163500 0.447000
-14.132900 0.434000
-14.102200 0.421000
-14.071600 0.408000
-14.041000 0.394900
-14.010300 0.381900
-13.979700 0.368900
-13.949000 0.355900
-13.918400 0.342900
-13.887700 0.329900
-13.857100 0.316900
-13.826400 0.303800
-13.795800 0.290800
-13.765200 0.277800
-13.734500 0.264800
-13.703900 0.251800
-13.673200 0.238800
-13.642600 0.243100
-13.611900 0.273500
-13.581300 0.303900
-13.550600 0.334300
-13.520000 0.364700
-13.489400 0.395000
-13.458700 0.159000
-13.428100 0.159500
-13.397400 0.252700
-13.366800 0.345800
-13.336100 0.439000
-13.305500 0.532100
-13.274800 0.625300
-13.244200 0.718400
-13.213600 0.472100
-13.182900 0.492100
-13.152300 0.793800
-13.121600 1.350400
-13.091000 0.581900
-13.060300 0.585200
-13.029700 0.588600
-12.999000 0.592000
-12.968400 0.595400
-12.937800 0.598800
-12.907100 0.602100
-12.876500 0.605500
-12.845800 0.608900
-12.815200 0.628600
-12.784500 0.658000
-12.753900 0.687500
-12.723200 0.762000
-12.692600 0.799900
-12.662000 0.837800
-12.631300 0.875700
-12.600700 0.913600
-12.570000 0.951500
-12.539400 0.989400
-12.508700 1.027300
-12.478100 1.070900
-12.447400 1.116000
-12.416800 1.161100
-12.386200 0.829800
-12.355500 0.819300
-12.324900 0.808700
-12.294200 0.798200
-12.263600 0.787700
-12.232900 0.777300
-12.202300 0.767100
-12.171600 0.756900
-12.141000 0.746700
-12.110400 0.737200
-12.079700 0.728600
-12.049100 0.720100
-12.018400 0.711500
-11.987800 0.702900
-11.957100 0.694400
-11.926500 0.685800
-11.895800 0.677200
-11.865200 0.668700
-11.834600 0.660100
-11.803900 0.651300
-11.773300 0.642300
-11.742600 0.634700
-11.712000 0.632100
-11.681300 0.629500
-11.650700 0.627000
-11.620000 0.624500
-11.589400 0.622100
-11.558800 0.619700
-11.528100 0.617200
-11.497500 0.614800
-11.466800 0.612400
-11.436200 0.609900
-11.405500 0.607300
-11.374900 0.604700
-11.344200 0.602100
-11.313600 0.599400
-11.283000 0.596800
-11.252300 0.594200
-11.221700 0.555700
-11.191000 0.554600
-11.160400 0.553400
-11.129700 0.552200
-11.099100 0.551000
-11.068400 0.549800
-11.037800 0.548700
-11.007200 0.547500
-10.976500 0.546300
-10.945900 0.545000
-10.915200 0.543800
-10.884600 0.542500
-10.853900 0.541300
-10.823300 0.540000
-10.792700 0.538800
-10.762000 0.555800
-10.731400 0.581400
-10.700700 0.607000
-10.670100 0.632600
-10.639400 0.658200
-10.608800 0.683800
-10.578100 0.709300
-10.547500 0.734900
-10.516900 0.760500
-10.486200 0.786100
-10.455600 0.811700
-10.424900 0.721500
-10.394300 0.720900
-10.363600 0.721600
-10.333000 0.722400
-10.302300 0.722700
-10.271700 0.722600
-10.241100 0.722400
-10.210400 0.722300
-10.179800 0.722200
-10.149100 0.722100
-10.118500 0.722000
-10.087800 0.723800
-10.057200 0.729200
-10.026500 0.734600
-9.995900 0.740000
-9.965300 0.745500
-9.934600 0.750900
-9.904000 0.756300
-9.873300 0.761700
-9.842700 0.767100
-9.812000 0.772500
-9.781400 0.777700
-9.750700 0.756700
-9.720100 0.756000
-9.689500 0.755300
-9.658800 0.755300
-9.628200 0.755700
-9.597500 0.756000
-9.566900 0.756400
-9.536200 0.756800
-9.505600 0.757100
-9.474900 0.757500
-9.444300 0.757800
-9.413700 0.758200
-9.383000 0.782000
-9.352400 0.784100
-9.321700 0.786300
-9.291100 0.788400
-9.260400 0.790600
-9.229800 0.792700
-9.199100 0.794700
-9.168500 0.795800
-9.137900 0.795400
-9.107200 0.795100
-9.076600 0.794700
-9.045900 0.794300
-9.015300 0.793900
-8.984600 0.793600
-8.954000 0.793200
-8.923300 0.792800
-8.892700 0.792400
-8.862100 0.796800
-8.831400 0.801600
-8.800800 0.808100
-8.770100 0.814600
-8.739500 0.820200
-8.708800 0.825000
-8.678200 0.829700
-8.647500 0.834500
-8.616900 0.839300
-8.586300 0.843800
-8.555600 0.847800
-8.525000 0.851900
-8.494300 0.855900
-8.463700 0.858300
-8.433000 0.859800
-8.402400 0.861300
-8.371700 0.862700
-8.341100 0.864200
-8.310500 0.865700
-8.279800 0.867200
-8.249200 0.868700
-8.218500 0.870200
-8.187900 0.871700
-8.157200 0.873200
-8.126600 0.874600
-8.095900 0.876100
-8.065300 0.863400
-8.034700 0.892200
-8.004000 0.909600
-7.973400 0.919200
-7.942700 0.926400
-7.912100 0.933600
-7.881400 0.940900
-7.850800 0.948100
-7.820100 1.231400
-7.789500 1.644800
-7.758900 1.411800
-7.728200 1.451000
-7.697600 1.490200
-7.666900 1.529400
-7.636300 1.535800
-7.605600 1.498700
-7.575000 1.480800
-7.544300 1.497900
-7.513700 1.513800
-7.483100 1.529300
-7.452400 1.544800
-7.421800 1.560300
-7.391100 1.536700
-7.360500 1.545000
-7.329800 1.558700
-7.299200 1.624800
-7.268600 1.660500
-7.237900 1.704700
-7.207300 1.748100
-7.176600 1.780900
-7.146000 1.813700
-7.115300 1.843400
-7.084700 1.870300
-7.054000 1.878900
-7.023400 1.884200
-6.992800 1.944400
-6.962100 2.013800
-6.931500 2.083300
-6.900800 2.152800
-6.870200 2.222300
-6.839500 2.291700
-6.808900 2.352700
-6.778200 2.326400
-6.747600 2.210600
-6.717000 2.161700
-6.686300 2.112800
-6.655700 2.062300
-6.625000 1.474400
-6.594400 1.348800
-6.563700 1.287500
-6.533100 1.186500
-6.502400 1.249300
-6.471800 1.374600
-6.441200 1.500000
-6.410500 1.625300
-6.379900 1.750700
-6.349200 1.852100
-6.318600 2.313100
-6.287900 2.385300
-6.257300 2.391100
-6.226600 2.356600
-6.196000 2.322000
-6.165400 2.287500
-6.134700 2.094300
-6.104100 1.737800
-6.073400 1.516200
-6.042800 1.428500
-6.012100 1.318400
-5.981500 1.200000
-5.950800 1.084500
-5.920200 0.969000
-5.889600 0.970000
-5.858900 0.992400
-5.828300 1.014800
-5.797600 1.037200
-5.767000 1.059600
-5.736300 1.084200
-5.705700 1.109500
-5.675000 1.134900
-5.644400 1.160300
-5.613800 1.230700
-5.583100 1.733000
-5.552500 1.872800
-5.521800 1.756700
-5.491200 1.684800
-5.460500 1.612900
-5.429900 1.541100
-5.399200 1.500900
-5.368600 1.464400
-5.338000 1.428400
-5.307300 1.392400
-5.276700 1.356400
-5.246000 1.320400
-5.215400 1.284400
-5.184700 1.275000
-5.154100 1.272200
-5.123400 1.269900
-5.092800 1.267600
-5.062200 1.263300
-5.031500 1.257700
-5.000900 1.252000
-4.970200 1.246400
-4.939600 1.240700
-4.908900 1.235100
-4.878300 1.227400
-4.847600 1.217200
-4.817000 1.209300
-4.786400 1.202700
-4.755700 1.196000
-4.725100 1.189400
-4.694400 1.182700
-4.663800 1.177000
-4.633100 1.174600
-4.602500 1.171400
-4.571800 1.182000
-4.541200 1.196500
-4.510600 1.190300
-4.479900 1.184100
-4.449300 1.177900
-4.418600 1.171700
-4.388000 1.165800
-4.357300 1.160200
-4.326700 1.154600
-4.296000 1.149000
-4.265400 1.143400
-4.234800 1.137800
-4.204100 1.132200
-4.173500 1.126600
-4.142800 1.124000
-4.112200 1.125500
-4.081500 1.128300
-4.050900 1.131100
-4.020200 1.156400
-3.989600 1.151900
-3.959000 1.147400
-3.928300 1.142900
-3.897700 1.136700
-3.867000 1.128100
-3.836400 1.120200
-3.805700 1.112500
-3.775100 1.104800
-3.744500 1.097100
-3.713800 1.094700
-3.683200 1.114700
-3.652500 1.134600
-3.621900 1.140200
-3.591200 1.126100
-3.560600 1.113100
-3.529900 1.100300
-3.499300 1.191400
-3.468700 1.147300
-3.438000 1.103100
-3.407400 1.059000
-3.376700 1.154200
-3.346100 0.998200
-3.315400 0.843800
-3.284800 0.705900
-3.254100 0.711300
-3.223500 0.718900
-3.192900 0.728300
-3.162200 0.737700
-3.131600 0.747100
-3.100900 0.756500
-3.070300 0.765900
-3.039600 0.779500
-3.009000 0.794000
-2.978300 0.808500
-2.947700 0.822900
-2.917100 0.837400
-2.886400 0.851900
-2.855800 0.877900
-2.825100 0.919000
-2.794500 0.960100
-2.763800 1.001100
-2.733200 1.042200
-2.702500 1.083300
-2.671900 1.466300
-2.641300 1.315800
-2.610600 1.165200
-2.580000 1.014700
-2.549300 0.866400
-2.518700 1.175800
-2.488000 0.878400
-2.457400 0.845500
-2.426700 0.812600
-2.396100 0.779700
-2.365500 0.746800
-2.334800 0.714000
-2.304200 0.681100
-2.273500 0.648200
-2.242900 0.615300
-2.212200 0.582500
-2.181600 0.549600
-2.150900 0.523100
-2.120300 0.522900
-2.089700 0.522800
-2.059000 0.522700
-2.028400 0.522500
-1.997700 0.522400
-1.967100 0.522300
-1.936400 0.522100
-1.905800 0.399000
-1.875100 0.403600
-1.844500 0.408200
-1.813900 0.412700
-1.783200 0.417300
-1.752600 0.409800
-1.721900 0.398300
-1.691300 0.384900
-1.660600 0.371400
-1.630000 0.357900
-1.599300 0.344400
-1.568700 0.330900
-1.538100 0.317400
-1.507400 0.303900
-1.476800 0.290400
-1.446100 0.276900
-1.415500 0.263400
-1.384800 0.249900
-1.354200 0.247100
-1.323500 0.244700
-1.292900 0.242300
-1.262300 0.240000
-1.231600 0.237600
-1.201000 0.235200
-1.170300 0.232900
-1.139700 0.230500
-1.109000 0.228100
-1.078400 0.225700
-1.047700 0.223400
-1.017100 0.221000
-0.986500 0.136700
-0.955800 0.131100
-0.925200 0.125400
-0.894500 0.119800
-0.863900 0.114200
-0.833200 0.108600
-0.802600 0.103000
-0.771900 0.097400
-0.741300 0.091800
-0.710700 0.086200
-0.680000 0.080500
-0.649400 0.074900
-0.618700 0.069300
-0.588100 0.063700
-0.557400 0.058100
-0.526800 0.052500
-0.496200 0.046900
-0.465500 0.041300
-0.434900 0.035600
-0.404200 0.030000
-0.373600 0.024400
-0.342900 0.018800
-0.312300 0.013200
-0.281600 0.007600
-0.251000 0.002000
-0.220400 0.003800
-0.189700 0.009700
-0.159100 0.015700
-0.128400 0.021600
-0.097800 0.027500
-0.067100 0.033400
-0.036500 0.039400
-0.005800 0.045300
0.024800 0.051200
0.055400 0.057200
0.086100 0.063100
0.116700 0.069000
0.147400 0.074900
0.178000 0.080900
0.208700 0.086800
0.239300 0.092700
0.270000 0.098600
0.300600 0.104600
0.331200 0.110500
0.361900 0.116400
0.392500 0.122300
0.423200 0.128300
0.453800 0.134200
0.484500 0.140100
0.515100 0.258800
0.545800 0.258400
0.576400 0.258000
0.607000 0.257600
0.637700 0.257200
0.668300 0.256900
0.699000 0.256500
0.729600 0.256100
0.760300 0.255700
0.790900 0.255400
0.821600 0.267300
0.852200 0.288300
0.882800 0.309300
0.913500 0.330300
0.944100 0.351300
0.974800 0.372300
1.005400 0.393300
1.036100 0.414300
1.066700 0.435300
1.097400 0.456300
1.128000 0.477300
1.158600 0.498300
1.189300 0.519300
1.219900 1.163300
1.250600 0.811600
1.281200 0.566300
1.311900 0.586500
1.342500 0.656800
1.373200 0.727000
1.403800 0.797300
1.434400 1.105700
1.465100 1.888800
1.495700 1.420900
1.526400 1.568000
1.557000 1.168600
1.587700 1.115800
1.618300 1.062900
1.649000 1.010100
1.679600 0.957200
1.710200 0.916800
1.740900 0.883100
1.771500 0.849500
1.802200 0.815900
1.832800 0.785100
1.863500 0.770000
1.894100 0.754900
1.924800 0.739800
1.955400 0.726400
1.986000 0.713300
2.016700 0.700100
2.047300 0.687000
2.078000 0.673800
2.108600 0.655500
2.139300 0.646300
2.169900 0.637100
2.200600 0.627900
2.231200 0.620100
2.261800 0.613700
2.292500 0.608000
2.323100 0.603000
2.353800 0.597900
2.384400 0.592900
2.415100 0.587900
2.445700 0.582800
2.476400 0.577800
2.507000 0.572800
2.537600 0.567700
2.568300 0.562700
2.598900 0.557700
2.629600 0.554300
2.660200 0.571900
2.690900 0.616300
2.721500 0.645800
2.752200 0.695700
2.782800 0.756300
2.813400 0.729900
2.844100 0.739000
2.874700 0.744600
2.905400 0.745200
2.936000 0.741200
2.966700 0.731600
2.997300 0.717500
3.027900 0.707000
3.058600 0.707000
3.089200 0.709300
3.119900 0.767200
3.150500 0.831000
3.181200 0.801400
3.211800 0.812400
3.242500 0.823000
3.273100 0.828500
3.303700 0.841300
3.334400 0.846100
3.365000 0.849600
3.395700 0.856700
3.426300 0.868700
3.457000 0.880900
3.487600 0.893400
3.518300 0.905600
3.548900 0.912400
3.579500 0.910700
3.610200 0.901200
3.640800 0.895900
3.671500 0.890900
3.702100 0.887500
3.732800 0.884400
3.763400 0.881500
3.794100 0.879900
3.824700 0.879100
3.855300 0.878400
3.886000 0.878200
3.916600 0.882400
3.947300 0.892200
3.977900 0.896700
4.008600 0.894300
4.039200 0.898500
4.069900 0.904800
4.100500 0.911100
4.131100 0.914500
4.161800 0.919800
4.192400 0.925300
4.223100 0.931100
4.253700 0.937300
4.284400 0.944500
4.315000 0.952100
4.345700 0.959800
4.376300 0.967500
4.406900 0.974700
4.437600 0.982200
4.468200 0.987700
4.498900 1.008400
4.529500 1.066600
4.560200 1.120400
4.590800 1.065300
4.621500 1.070800
4.652100 1.075700
4.682700 1.082100
4.713400 1.084500
4.744000 1.079600
4.774700 1.075600
4.805300 1.080100
4.836000 1.084400
4.866600 1.088400
4.897300 1.093000
4.927900 1.107800
4.958500 1.135700
4.989200 1.159400
5.019800 1.195800
5.050500 1.232600
5.081100 1.257600
5.111800 1.275900
5.142400 1.296800
5.173100 1.319300
5.203700 1.342300
5.234300 1.365800
5.265000 1.327700
5.295600 1.279800
5.326300 1.260100
5.356900 1.201500
5.387600 1.200500
5.418200 1.130100
5.448900 1.034400
5.479500 0.979300
5.510100 0.932900
5.540800 0.895500
5.571400 0.866700
5.602100 0.845100
5.632700 0.821500
5.663400 0.804600
5.694000 0.789800
5.724700 0.772300
5.755300 0.654800
5.785900 0.641000
5.816600 0.771600
5.847200 0.877800
5.877900 0.962500
5.908500 1.036300
5.939200 1.103700
5.969800 1.182200
6.000500 1.215700
6.031100 1.226000
6.061700 1.252800
6.092400 1.647600
6.123000 1.595400
6.153700 1.583000
6.184300 1.548200
6.215000 1.510300
6.245600 1.427300
6.276200 1.346400
6.306900 1.298200
6.337500 1.272300
6.368200 1.244800
6.398800 1.214200
6.429500 1.145100
6.460100 1.081700
6.490800 1.019100
6.521400 1.025600
6.552000 1.035300
6.582700 1.035200
6.613300 1.034000
6.644000 1.056600
6.674600 1.112200
6.705300 1.179200
6.735900 1.243800
6.766600 1.306400
6.797200 1.364400
6.827800 1.388200
6.858500 1.407100
6.889100 1.420200
6.919800 1.426000
6.950400 1.424700
6.981100 1.416300
7.011700 1.427200
7.042400 1.462600
7.073000 1.591500
7.103600 1.739900
7.134300 2.020600
7.164900 2.079900
7.195600 2.080600
7.226200 2.158900
7.256900 2.213000
7.287500 2.182600
7.318200 2.156700
7.348800 2.062200
7.379400 1.797300
7.410100 1.669900
7.440700 1.684600
7.471400 1.844500
7.502000 1.986300
7.532700 2.127600
7.563300 2.210300
7.594000 2.270100
7.624600 2.302700
7.655200 2.317600
7.685900 2.345500
7.716500 2.361400
7.747200 2.366500
7.777800 2.424100
7.808500 2.486100
7.839100 2.541400
7.869800 2.657800
7.900400 2.750900
7.931000 2.780100
7.961700 2.776400
7.992300 2.797300
8.023000 2.937100
8.053600 3.797800
8.084300 4.276000
8.114900 5.026700
8.145600 4.598700
8.176200 4.367600
8.206800 4.051600
8.237500 3.621900
8.268100 3.128400
8.298800 2.959500
8.329400 2.848100
8.360100 2.737800
8.390700 2.640500
8.421400 2.546600
8.452000 2.449300
8.482600 2.365300
8.513300 2.298800
8.543900 2.271400
8.574600 2.278900
8.605200 2.286700
8.635900 2.293900
8.666500 2.348500
8.697200 2.428100
8.727800 2.563400
8.758400 2.619900
8.789100 2.672100
8.819700 2.627100
8.850400 2.630200
8.881000 2.632100
8.911700 2.632700
8.942300 2.631800
8.973000 2.597200
9.003600 2.533900
9.034200 2.508400
9.064900 2.480300
