set title 'mp-10631 - Density of States'
set xlabel 'Energy (eV)'
set ylabel 'DOS (states/eV)'
set grid
set xrange [-10:10]
set yrange [0:1.057]
set xzeroaxis lt -1
set terminal png size 800,600
set output 'mp-10631_dos_gnuplot.png'
plot '-' using 1:2 with lines title 'DOS'
-6.422900 0.000000
-6.403400 0.000000
-6.383900 0.000000
-6.364400 0.000000
-6.344900 0.000000
-6.325400 0.000000
-6.305900 0.000000
-6.286400 0.000000
-6.266900 0.000000
-6.247400 0.000000
-6.227900 0.000000
-6.208400 0.000000
-6.188900 0.000000
-6.169400 0.000000
-6.149900 0.000000
-6.130400 0.000000
-6.110900 0.000000
-6.091400 0.000000
-6.071900 0.000000
-6.052400 0.000000
-6.032900 0.000000
-6.013400 0.000000
-5.993900 0.000000
-5.974400 0.000000
-5.954900 0.000000
-5.935400 0.000000
-5.915900 0.000000
-5.896400 0.000000
-5.876900 0.000000
-5.857300 0.000000
-5.837800 0.000000
-5.818300 0.000000
-5.798800 0.000000
-5.779300 0.000000
-5.759800 0.000000
-5.740300 0.000000
-5.720800 0.000000
-5.701300 0.000000
-5.681800 0.000000
-5.662300 0.000000
-5.642800 0.000000
-5.623300 0.000000
-5.603800 0.000000
-5.584300 0.000000
-5.564800 0.000000
-5.545300 0.000000
-5.525800 0.000000
-5.506300 0.000000
-5.486800 0.000000
-5.467300 0.000000
-5.447800 0.000000
-5.428300 0.000000
-5.408800 0.000000
-5.389300 0.000000
-5.369800 0.000000
-5.350300 0.000000
-5.330800 0.000000
-5.311300 0.000000
-5.291800 0.000000
-5.272300 0.000000
-5.252800 0.000000
-5.233300 0.000000
-5.213800 0.000000
-5.194300 0.000000
-5.174800 0.000000
-5.155300 0.000000
-5.135800 0.000000
-5.116300 0.000000
-5.096800 0.000000
-5.077300 0.000000
-5.057800 0.000000
-5.038300 0.000000
-5.018800 0.000000
-4.999300 0.000000
-4.979800 0.000000
-4.960300 0.000000
-4.940800 0.000000
-4.921300 0.000000
-4.901800 0.000000
-4.882300 0.000000
-4.862800 0.000000
-4.843300 0.000000
-4.823800 0.000000
-4.804300 0.000000
-4.784800 0.000000
-4.765300 0.000000
-4.745800 0.000000
-4.726300 0.000000
-4.706800 0.000000
-4.687300 0.000000
-4.667700 0.000000
-4.648200 0.000100
-4.628700 0.008400
-4.609200 0.030700
-4.589700 0.042600
-4.570200 0.046900
-4.550700 0.054600
-4.531200 0.063800
-4.511700 0.072800
-4.492200 0.078000
-4.472700 0.079500
-4.453200 0.083400
-4.433700 0.087800
-4.414200 0.092700
-4.394700 0.097700
-4.375200 0.103000
-4.355700 0.107200
-4.336200 0.111400
-4.316700 0.114500
-4.297200 0.117100
-4.277700 0.119900
-4.258200 0.122700
-4.238700 0.125800
-4.219200 0.128900
-4.199700 0.132200
-4.180200 0.136200
-4.160700 0.139900
-4.141200 0.143100
-4.121700 0.146100
-4.102200 0.149300
-4.082700 0.151800
-4.063200 0.153900
-4.043700 0.156100
-4.024200 0.158300
-4.004700 0.160800
-3.985200 0.163300
-3.965700 0.166000
-3.946200 0.168800
-3.926700 0.171700
-3.907200 0.174600
-3.887700 0.177200
-3.868200 0.179600
-3.848700 0.182000
-3.829200 0.184500
-3.809700 0.187000
-3.790200 0.189400
-3.770700 0.191600
-3.751200 0.193500
-3.731700 0.195600
-3.712200 0.197800
-3.692700 0.200000
-3.673200 0.202200
-3.653700 0.204500
-3.634200 0.206800
-3.614700 0.209100
-3.595200 0.211500
-3.575700 0.213800
-3.556200 0.215800
-3.536700 0.217800
-3.517200 0.220000
-3.497700 0.222300
-3.478200 0.224600
-3.458600 0.226900
-3.439100 0.229300
-3.419600 0.231400
-3.400100 0.233300
-3.380600 0.235200
-3.361100 0.237100
-3.341600 0.239100
-3.322100 0.241000
-3.302600 0.243100
-3.283100 0.245100
-3.263600 0.247200
-3.244100 0.249400
-3.224600 0.251600
-3.205100 0.253800
-3.185600 0.255700
-3.166100 0.257700
-3.146600 0.259800
-3.127100 0.261800
-3.107600 0.263900
-3.088100 0.266000
-3.068600 0.268100
-3.049100 0.270300
-3.029600 0.272500
-3.010100 0.274600
-2.990600 0.276700
-2.971100 0.278500
-2.951600 0.280400
-2.932100 0.282400
-2.912600 0.284400
-2.893100 0.286500
-2.873600 0.288600
-2.854100 0.290700
-2.834600 0.292900
-2.815100 0.295100
-2.795600 0.297300
-2.776100 0.299400
-2.756600 0.301400
-2.737100 0.303400
-2.717600 0.305500
-2.698100 0.307600
-2.678600 0.309800
-2.659100 0.311900
-2.639600 0.314100
-2.620100 0.316300
-2.600600 0.318500
-2.581100 0.320800
-2.561600 0.323100
-2.542100 0.325500
-2.522600 0.327900
-2.503100 0.330100
-2.483600 0.332400
-2.464100 0.334700
-2.444600 0.337000
-2.425100 0.339400
-2.405600 0.341800
-2.386100 0.344200
-2.366600 0.346600
-2.347100 0.349100
-2.327600 0.351600
-2.308100 0.354000
-2.288600 0.356500
-2.269000 0.359000
-2.249500 0.361600
-2.230000 0.364100
-2.210500 0.366800
-2.191000 0.369500
-2.171500 0.372300
-2.152000 0.375100
-2.132500 0.378000
-2.113000 0.380900
-2.093500 0.383800
-2.074000 0.386800
-2.054500 0.389800
-2.035000 0.393000
-2.015500 0.396200
-1.996000 0.399500
-1.976500 0.402900
-1.957000 0.406400
-1.937500 0.409900
-1.918000 0.413500
-1.898500 0.417200
-1.879000 0.421000
-1.859500 0.424900
-1.840000 0.428900
-1.820500 0.433100
-1.801000 0.437500
-1.781500 0.442200
-1.762000 0.447100
-1.742500 0.452500
-1.723000 0.458300
-1.703500 0.464500
-1.684000 0.471000
-1.664500 0.478100
-1.645000 0.489800
-1.625500 0.508400
-1.606000 0.503500
-1.586500 0.504600
-1.567000 0.507200
-1.547500 0.513700
-1.528000 0.522200
-1.508500 0.516500
-1.489000 0.520700
-1.469500 0.524200
-1.450000 0.527200
-1.430500 0.529700
-1.411000 0.532100
-1.391500 0.534100
-1.372000 0.536500
-1.352500 0.540900
-1.333000 0.547200
-1.313500 0.552800
-1.294000 0.558400
-1.274500 0.563900
-1.255000 0.569600
-1.235500 0.575300
-1.216000 0.581200
-1.196500 0.587300
-1.177000 0.594300
-1.157500 0.602300
-1.138000 0.611200
-1.118500 0.621200
-1.099000 0.633000
-1.079400 0.652900
-1.059900 0.673200
-1.040400 0.696300
-1.020900 0.704800
-1.001400 0.711200
-0.981900 0.719600
-0.962400 0.723700
-0.942900 0.729400
-0.923400 0.717300
-0.903900 0.707700
-0.884400 0.701800
-0.864900 0.696400
-0.845400 0.691300
-0.825900 0.686100
-0.806400 0.683400
-0.786900 0.683400
-0.767400 0.679000
-0.747900 0.676500
-0.728400 0.674900
-0.708900 0.670400
-0.689400 0.666800
-0.669900 0.657300
-0.650400 0.657900
-0.630900 0.655000
-0.611400 0.649200
-0.591900 0.643300
-0.572400 0.641300
-0.552900 0.643800
-0.533400 0.623000
-0.513900 0.580000
-0.494400 0.550200
-0.474900 0.532300
-0.455400 0.516800
-0.435900 0.501400
-0.416400 0.486300
-0.396900 0.475100
-0.377400 0.466000
-0.357900 0.456400
-0.338400 0.446700
-0.318900 0.436700
-0.299400 0.427300
-0.279900 0.418400
-0.260400 0.410000
-0.240900 0.402700
-0.221400 0.396000
-0.201900 0.389800
-0.182400 0.383900
-0.162900 0.378200
-0.143400 0.370800
-0.123900 0.364100
-0.104400 0.357200
-0.084900 0.350600
-0.065400 0.344900
-0.045900 0.339800
-0.026400 0.335200
-0.006900 0.331000
0.012600 0.326800
0.032100 0.322600
0.051600 0.318100
0.071100 0.313400
0.090600 0.308400
0.110200 0.303700
0.129700 0.299200
0.149200 0.294800
0.168700 0.290300
0.188200 0.286100
0.207700 0.282100
0.227200 0.278400
0.246700 0.275000
0.266200 0.271700
0.285700 0.268400
0.305200 0.265000
0.324700 0.261700
0.344200 0.258300
0.363700 0.254900
0.383200 0.251400
0.402700 0.247800
0.422200 0.244700
0.441700 0.241600
0.461200 0.238400
0.480700 0.235200
0.500200 0.232000
0.519700 0.228900
0.539200 0.226000
0.558700 0.223900
0.578200 0.220900
0.597700 0.218200
0.617200 0.215500
0.636700 0.212900
0.656200 0.210400
0.675700 0.207900
0.695200 0.205500
0.714700 0.203100
0.734200 0.200700
0.753700 0.198200
0.773200 0.195700
0.792700 0.193200
0.812200 0.191300
0.831700 0.187900
0.851200 0.185400
0.870700 0.183000
0.890200 0.180500
0.909700 0.178200
0.929200 0.175900
0.948700 0.173500
0.968200 0.171600
0.987700 0.171100
1.007200 0.169500
1.026700 0.167900
1.046200 0.166000
1.065700 0.164700
1.085200 0.164200
1.104700 0.163500
1.124200 0.160800
1.143700 0.157600
1.163200 0.149300
1.182700 0.146700
1.202200 0.144300
1.221700 0.142100
1.241200 0.140400
1.260700 0.139900
1.280200 0.140600
1.299700 0.140600
1.319300 0.147300
1.338800 0.169400
1.358300 0.132700
1.377800 0.124000
1.397300 0.126200
1.416800 0.121400
1.436300 0.113800
1.455800 0.105500
1.475300 0.095700
1.494800 0.090000
1.514300 0.099100
1.533800 0.000000
1.553300 0.000000
1.572800 0.000000
1.592300 0.000000
1.611800 0.000000
1.631300 0.000000
1.650800 0.000000
1.670300 0.000000
1.689800 0.000000
1.709300 0.000000
1.728800 0.000000
1.748300 0.000000
1.767800 0.000000
1.787300 0.000000
1.806800 0.000000
1.826300 0.000000
1.845800 0.000000
1.865300 0.000000
1.884800 0.000000
1.904300 0.000000
1.923800 0.000000
1.943300 0.000000
1.962800 0.000000
1.982300 0.000000
2.001800 0.000000
2.021300 0.000000
2.040800 0.000000
2.060300 0.000000
2.079800 0.000000
2.099300 0.000000
2.118800 0.000000
2.138300 0.000000
2.157800 0.000000
2.177300 0.000000
2.196800 0.000000
2.216300 0.000000
2.235800 0.000000
2.255300 0.000000
2.274800 0.000000
2.294300 0.000000
2.313800 0.000000
2.333300 0.000000
2.352800 0.000000
2.372300 0.000000
2.391800 0.000000
2.411300 0.000000
2.430800 0.000000
2.450300 0.000000
2.469800 0.004600
2.489300 0.029100
2.508900 0.057500
2.528400 0.073100
2.547900 0.090200
2.567400 0.106800
2.586900 0.112900
2.606400 0.122400
2.625900 0.135200
2.645400 0.150000
2.664900 0.156800
2.684400 0.169800
2.703900 0.185900
2.723400 0.200200
2.742900 0.206500
2.762400 0.214400
2.781900 0.217500
2.801400 0.220500
2.820900 0.224600
2.840400 0.230300
2.859900 0.238300
2.879400 0.247200
2.898900 0.256000
2.918400 0.264200
2.937900 0.271500
2.957400 0.278300
2.976900 0.285300
2.996400 0.293200
3.015900 0.302100
3.035400 0.309000
3.054900 0.315200
3.074400 0.322200
3.093900 0.329400
3.113400 0.336700
3.132900 0.343700
3.152400 0.350300
3.171900 0.356700
3.191400 0.363700
3.210900 0.371100
3.230400 0.379000
3.249900 0.387400
3.269400 0.395200
3.288900 0.402700
3.308400 0.410000
3.327900 0.417800
3.347400 0.426400
3.366900 0.436300
3.386400 0.447600
3.405900 0.461100
3.425400 0.476300
3.444900 0.488800
3.464400 0.497600
3.483900 0.504100
3.503400 0.508200
3.522900 0.510500
3.542400 0.512900
3.561900 0.515900
3.581400 0.519600
3.600900 0.523400
3.620400 0.526300
3.639900 0.529200
3.659400 0.533500
3.678900 0.536000
3.698500 0.540700
3.718000 0.546900
3.737500 0.553400
3.757000 0.561200
3.776500 0.571100
3.796000 0.587000
3.815500 0.598200
3.835000 0.607500
3.854500 0.616300
3.874000 0.624100
3.893500 0.631500
3.913000 0.637600
3.932500 0.638800
3.952000 0.636300
3.971500 0.636700
3.991000 0.638200
4.010500 0.641000
4.030000 0.644600
4.049500 0.649700
4.069000 0.653700
4.088500 0.662300
4.108000 0.681400
4.127500 0.677400
4.147000 0.684500
4.166500 0.689200
4.186000 0.694100
4.205500 0.701200
4.225000 0.710900
4.244500 0.725800
4.264000 0.747800
4.283500 0.781700
4.303000 0.828500
4.322500 0.865400
4.342000 0.877100
4.361500 0.862900
4.381000 0.831200
4.400500 0.794900
4.420000 0.776400
4.439500 0.759500
4.459000 0.744100
4.478500 0.730800
4.498000 0.718500
4.517500 0.707200
4.537000 0.690400
4.556500 0.683700
4.576000 0.677200
4.595500 0.670100
4.615000 0.657700
4.634500 0.648400
4.654000 0.639300
4.673500 0.634200
4.693000 0.630400
4.712500 0.627800
4.732000 0.635800
4.751500 0.632500
4.771000 0.608900
4.790500 0.586600
4.810000 0.579800
4.829500 0.572500
4.849000 0.568400
4.868500 0.572800
4.888100 0.575400
4.907600 0.565300
4.927100 0.546100
4.946600 0.533600
4.966100 0.522300
4.985600 0.511600
5.005100 0.503600
5.024600 0.497600
5.044100 0.487200
5.063600 0.479500
5.083100 0.475400
5.102600 0.473300
5.122100 0.471300
5.141600 0.469600
5.161100 0.468100
5.180600 0.466800
5.200100 0.466000
5.219600 0.466500
5.239100 0.467700
5.258600 0.469500
5.278100 0.471900
5.297600 0.474800
5.317100 0.478400
5.336600 0.482700
5.356100 0.487700
5.375600 0.494500
5.395100 0.496800
5.414600 0.498100
5.434100 0.501700
5.453600 0.508400
5.473100 0.521900
5.492600 0.549400
5.512100 0.550800
5.531600 0.550500
5.551100 0.551800
5.570600 0.559600
5.590100 0.567400
5.609600 0.575100
5.629100 0.582100
5.648600 0.586400
5.668100 0.587600
5.687600 0.585300
5.707100 0.583400
5.726600 0.583900
5.746100 0.586100
5.765600 0.588600
5.785100 0.590700
5.804600 0.590200
5.824100 0.588600
5.843600 0.588400
5.863100 0.589700
5.882600 0.591100
5.902100 0.592500
5.921600 0.593800
5.941100 0.595100
5.960600 0.596500
5.980100 0.598100
5.999600 0.599600
6.019100 0.600800
6.038600 0.601600
6.058100 0.602000
6.077600 0.602300
6.097200 0.602800
6.116700 0.603400
6.136200 0.604200
6.155700 0.605400
6.175200 0.606400
6.194700 0.604600
6.214200 0.605600
6.233700 0.616500
6.253200 0.607100
6.272700 0.607800
6.292200 0.610200
6.311700 0.612800
6.331200 0.614200
6.350700 0.614000
6.370200 0.613900
6.389700 0.614100
6.409200 0.614100
6.428700 0.613400
6.448200 0.614900
6.467700 0.616600
6.487200 0.618600
6.506700 0.621900
6.526200 0.625900
6.545700 0.627700
6.565200 0.629200
6.584700 0.632600
6.604200 0.636900
6.623700 0.633200
6.643200 0.636700
6.662700 0.629400
6.682200 0.619300
6.701700 0.621700
6.721200 0.611000
6.740700 0.609600
6.760200 0.607900
6.779700 0.606200
6.799200 0.604300
6.818700 0.602500
6.838200 0.600800
6.857700 0.599200
6.877200 0.597900
6.896700 0.596900
6.916200 0.596000
6.935700 0.595200
6.955200 0.594400
6.974700 0.593800
6.994200 0.593500
7.013700 0.594100
7.033200 0.595900
7.052700 0.597100
7.072200 0.598900
7.091700 0.618200
7.111200 0.599000
7.130700 0.597300
7.150200 0.597200
7.169700 0.597300
7.189200 0.597300
7.208700 0.597200
7.228200 0.597000
7.247700 0.601600
7.267200 0.592700
7.286800 0.592600
7.306300 0.592900
7.325800 0.593300
7.345300 0.593800
7.364800 0.594400
7.384300 0.595100
7.403800 0.595900
7.423300 0.596700
7.442800 0.597600
7.462300 0.598900
7.481800 0.600300
7.501300 0.601600
7.520800 0.602600
7.540300 0.603400
7.559800 0.604200
7.579300 0.604900
7.598800 0.608800
7.618300 0.607000
7.637800 0.604700
7.657300 0.606500
7.676800 0.609700
7.696300 0.613900
7.715800 0.617800
7.735300 0.614500
7.754800 0.615800
7.774300 0.632300
7.793800 0.639200
7.813300 0.642000
7.832800 0.644100
7.852300 0.647400
7.871800 0.651700
7.891300 0.656300
7.910800 0.661300
7.930300 0.666700
7.949800 0.672500
7.969300 0.678100
7.988800 0.685000
8.008300 0.692300
8.027800 0.699900
8.047300 0.710300
8.066800 0.722200
8.086300 0.724600
8.105800 0.729700
8.125300 0.736600
8.144800 0.744600
8.164300 0.752700
8.183800 0.761400
8.203300 0.770800
8.222800 0.781700
8.242300 0.795000
8.261800 0.809300
8.281300 0.826900
8.300800 0.849200
8.320300 0.874000
8.339800 0.895400
8.359300 0.886100
8.378800 0.884900
8.398300 0.885300
8.417800 0.882800
8.437300 0.885700
8.456800 0.887800
8.476400 0.895600
8.495900 0.901300
8.515400 0.882300
8.534900 0.883000
8.554400 0.883700
8.573900 0.884900
8.593400 0.883000
8.612900 0.880800
8.632400 0.883100
8.651900 0.875600
8.671400 0.867000
8.690900 0.858500
8.710400 0.855900
8.729900 0.855600
8.749400 0.858700
8.768900 0.860500
8.788400 0.862200
8.807900 0.859400
8.827400 0.860100
8.846900 0.859500
8.866400 0.861600
8.885900 0.864800
8.905400 0.869300
8.924900 0.871800
8.944400 0.872900
8.963900 0.874400
8.983400 0.876100
9.002900 0.879100
9.022400 0.883400
9.041900 0.888800
9.061400 0.896100
9.080900 0.928700
9.100400 0.929300
9.119900 0.945200
9.139400 0.951000
9.158900 0.960500
9.178400 0.958300
9.197900 0.950200
9.217400 0.942600
9.236900 0.923800
9.256400 0.912500
9.275900 0.895500
9.295400 0.870000
9.314900 0.851600
9.334400 0.824300
9.353900 0.797800
9.373400 0.774000
9.392900 0.759000
9.412400 0.746600
9.431900 0.737800
9.451400 0.729100
9.470900 0.719900
9.490400 0.710500
9.509900 0.701500
9.529400 0.708800
9.548900 0.683200
9.568400 0.675500
9.587900 0.668800
9.607400 0.661500
9.626900 0.654000
9.646400 0.647000
9.666000 0.640400
9.685500 0.634700
9.705000 0.630100
9.724500 0.628000
9.744000 0.627800
9.763500 0.627100
9.783000 0.618100
9.802500 0.611100
9.822000 0.607700
9.841500 0.605800
9.861000 0.600400
9.880500 0.594800
9.900000 0.590800
9.919500 0.589100
9.939000 0.587800
9.958500 0.585600
9.978000 0.581600
9.997500 0.577600
10.017000 0.575700
10.036500 0.580700
10.056000 0.576000
10.075500 0.576400
10.095000 0.571600
10.114500 0.566800
10.134000 0.568800
10.153500 0.572700
10.173000 0.568100
10.192500 0.564100
10.212000 0.561700
10.231500 0.559600
10.251000 0.557900
10.270500 0.556200
10.290000 0.554500
10.309500 0.553400
10.329000 0.552800
10.348500 0.552200
10.368000 0.552000
10.387500 0.552200
10.407000 0.552700
10.426500 0.553500
10.446000 0.554500
10.465500 0.555600
10.485000 0.558500
10.504500 0.565800
10.524000 0.561100
10.543500 0.557500
10.563000 0.554700
10.582500 0.550100
10.602000 0.545800
10.621500 0.540400
10.641000 0.534900
10.660500 0.529800
10.680000 0.525200
10.699500 0.521000
10.719000 0.516900
10.738500 0.513100
10.758000 0.509600
10.777500 0.506800
10.797000 0.504600
10.816500 0.503300
10.836000 0.498400
10.855600 0.494100
10.875100 0.491000
10.894600 0.488600
10.914100 0.485900
10.933600 0.482900
10.953100 0.479800
10.972600 0.476500
10.992100 0.473900
11.011600 0.472900
11.031100 0.471100
11.050600 0.468000
11.070100 0.465100
11.089600 0.462100
11.109100 0.459000
11.128600 0.455800
11.148100 0.452700
11.167600 0.449600
11.187100 0.446700
11.206600 0.444200
11.226100 0.441900
11.245600 0.439800
11.265100 0.437700
11.284600 0.435700
11.304100 0.434100
11.323600 0.433300
11.343100 0.429900
11.362600 0.428100
11.382100 0.422700
11.401600 0.419600
11.421100 0.417100
11.440600 0.424500
11.460100 0.422900
11.479600 0.420300
11.499100 0.418500
11.518600 0.415200
11.538100 0.413600
11.557600 0.414600
11.577100 0.413800
11.596600 0.414700
11.616100 0.420100
11.635600 0.418300
11.655100 0.415400
11.674600 0.414500
11.694100 0.410300
11.713600 0.407200
11.733100 0.405000
11.752600 0.403400
11.772100 0.401900
11.791600 0.401500
11.811100 0.401600
11.830600 0.402000
11.850100 0.402400
11.869600 0.403200
11.889100 0.404400
11.908600 0.406100
11.928100 0.408100
11.947600 0.409800
11.967100 0.406800
11.986600 0.409100
12.006100 0.411600
12.025600 0.413200
12.045100 0.412400
12.064700 0.414600
12.084200 0.416200
12.103700 0.416900
12.123200 0.417000
12.142700 0.417900
12.162200 0.419400
12.181700 0.421100
12.201200 0.429000
12.220700 0.425000
12.240200 0.423100
12.259700 0.423500
12.279200 0.424900
12.298700 0.426200
12.318200 0.427700
12.337700 0.429400
12.357200 0.431300
12.376700 0.433400
12.396200 0.435400
12.415700 0.437300
12.435200 0.439900
12.454700 0.444000
12.474200 0.452500
12.493700 0.457600
12.513200 0.460900
12.532700 0.463300
12.552200 0.465500
12.571700 0.467800
12.591200 0.471100
12.610700 0.473800
12.630200 0.476700
12.649700 0.480700
12.669200 0.481500
12.688700 0.482400
12.708200 0.484600
12.727700 0.487200
12.747200 0.490200
12.766700 0.493600
12.786200 0.510900
12.805700 0.500700
12.825200 0.506000
12.844700 0.506800
12.864200 0.508000
12.883700 0.511400
12.903200 0.526100
12.922700 0.514300
12.942200 0.516600
12.961700 0.518900
12.981200 0.521200
13.000700 0.523500
13.020200 0.525300
13.039700 0.526400
13.059200 0.527600
13.078700 0.529100
13.098200 0.531000
13.117700 0.533100
13.137200 0.537000
13.156700 0.542600
13.176200 0.545000
13.195700 0.561700
13.215200 0.537100
13.234700 0.536800
13.254300 0.536800
13.273800 0.537700
13.293300 0.539100
13.312800 0.540800
13.332300 0.542700
13.351800 0.545400
13.371300 0.548600
13.390800 0.553100
13.410300 0.556300
13.429800 0.555900
13.449300 0.554400
13.468800 0.553500
13.488300 0.555800
13.507800 0.559100
13.527300 0.562100
13.546800 0.567500
13.566300 0.573000
13.585800 0.568500
13.605300 0.575500
13.624800 0.595500
13.644300 0.601400
13.663800 0.606500
13.683300 0.600800
13.702800 0.592400
13.722300 0.583300
13.741800 0.580300
13.761300 0.580500
13.780800 0.577500
13.800300 0.576200
13.819800 0.581200
13.839300 0.590300
13.858800 0.595800
13.878300 0.598700
13.897800 0.602600
13.917300 0.609200
13.936800 0.612900
13.956300 0.616700
13.975800 0.618200
13.995300 0.608200
14.014800 0.596400
14.034300 0.586000
14.053800 0.574200
14.073300 0.569200
14.092800 0.564400
14.112300 0.562500
14.131800 0.560200
14.151300 0.556400
14.170800 0.553400
14.190300 0.550300
14.209800 0.547800
14.229300 0.546800
14.248800 0.547600
14.268300 0.549800
14.287800 0.552800
14.307300 0.554900
14.326800 0.555300
