set title 'mp-567551 - Density of States'
set xlabel 'Energy (eV)'
set ylabel 'DOS (states/eV)'
set grid
set xrange [-10:10]
set yrange [0:44.783]
set xzeroaxis lt -1
set terminal png size 800,600
set output 'mp-567551_dos_gnuplot.png'
plot '-' using 1:2 with lines title 'DOS'
-8.789600 0.000000
-8.773700 0.000000
-8.757700 0.000000
-8.741800 0.000000
-8.725900 0.000000
-8.710000 0.000000
-8.694100 0.000000
-8.678100 0.000000
-8.662200 0.000000
-8.646300 0.000000
-8.630400 0.000000
-8.614400 0.000000
-8.598500 0.000000
-8.582600 0.000000
-8.566700 0.000000
-8.550800 0.000000
-8.534800 0.000000
-8.518900 0.000000
-8.503000 0.000000
-8.487100 0.000000
-8.471100 0.000000
-8.455200 0.000000
-8.439300 0.000000
-8.423400 0.000000
-8.407400 0.000000
-8.391500 0.000000
-8.375600 0.000000
-8.359700 0.000000
-8.343800 0.000000
-8.327800 0.000000
-8.311900 0.000000
-8.296000 0.000000
-8.280100 0.000000
-8.264100 0.000000
-8.248200 0.000000
-8.232300 0.000000
-8.216400 0.000000
-8.200500 0.000000
-8.184500 0.000000
-8.168600 0.000000
-8.152700 0.000000
-8.136800 0.000000
-8.120800 0.000000
-8.104900 0.000000
-8.089000 0.000000
-8.073100 0.000000
-8.057100 0.000000
-8.041200 0.000000
-8.025300 0.000000
-8.009400 0.000000
-7.993500 0.000000
-7.977500 0.000000
-7.961600 0.000000
-7.945700 0.000000
-7.929800 0.000000
-7.913800 0.000000
-7.897900 0.000000
-7.882000 0.000000
-7.866100 0.000000
-7.850200 0.000000
-7.834200 0.000000
-7.818300 0.000000
-7.802400 0.000000
-7.786500 0.000000
-7.770500 0.000000
-7.754600 0.000000
-7.738700 0.000000
-7.722800 0.000000
-7.706900 0.000000
-7.690900 0.000000
-7.675000 0.000000
-7.659100 0.000000
-7.643200 0.000000
-7.627200 0.000000
-7.611300 0.000000
-7.595400 0.000000
-7.579500 0.000000
-7.563500 0.000000
-7.547600 0.000000
-7.531700 0.000000
-7.515800 0.000000
-7.499900 0.000000
-7.483900 0.000000
-7.468000 0.000000
-7.452100 0.000000
-7.436200 0.000000
-7.420200 0.000000
-7.404300 0.000000
-7.388400 0.000000
-7.372500 0.000000
-7.356600 0.000000
-7.340600 0.004800
-7.324700 0.057400
-7.308800 0.110000
-7.292900 0.162600
-7.276900 0.215200
-7.261000 0.315800
-7.245100 0.459700
-7.229200 0.617900
-7.213300 0.776100
-7.197300 0.934400
-7.181400 1.092600
-7.165500 1.250900
-7.149600 1.409100
-7.133600 1.567300
-7.117700 1.341600
-7.101800 1.451800
-7.085900 1.562000
-7.069900 1.672200
-7.054000 1.405400
-7.038100 1.145300
-7.022200 1.230900
-7.006300 1.351500
-6.990300 1.472000
-6.974400 1.592600
-6.958500 1.713100
-6.942600 1.833700
-6.926600 1.954300
-6.910700 2.074800
-6.894800 2.195400
-6.878900 2.315900
-6.863000 2.436500
-6.847000 2.557100
-6.831100 2.296300
-6.815200 2.013400
-6.799300 2.036500
-6.783300 2.059500
-6.767400 2.082600
-6.751500 2.105600
-6.735600 2.128700
-6.719700 2.151700
-6.703700 2.170100
-6.687800 2.183600
-6.671900 2.223700
-6.656000 2.292000
-6.640000 2.410800
-6.624100 2.521700
-6.608200 2.625200
-6.592300 2.728600
-6.576300 2.832100
-6.560400 2.935500
-6.544500 3.039000
-6.528600 3.142400
-6.512700 3.245800
-6.496700 3.352800
-6.480800 3.463000
-6.464900 3.200100
-6.449000 3.260500
-6.433000 2.928300
-6.417100 2.941800
-6.401200 2.956100
-6.385300 2.961300
-6.369400 2.966400
-6.353400 2.971600
-6.337500 2.976700
-6.321600 2.981900
-6.305700 2.987000
-6.289700 2.992200
-6.273800 2.997300
-6.257900 3.002500
-6.242000 3.007600
-6.226100 3.012800
-6.210100 3.023300
-6.194200 3.036600
-6.178300 3.055400
-6.162400 3.082300
-6.146400 3.178700
-6.130500 3.309800
-6.114600 3.440900
-6.098700 3.572000
-6.082700 3.703100
-6.066800 3.834200
-6.050900 3.958500
-6.035000 4.079100
-6.019100 4.190900
-6.003100 4.302600
-5.987200 4.414300
-5.971300 4.526000
-5.955400 4.267600
-5.939400 3.946900
-5.923500 3.956200
-5.907600 3.965500
-5.891700 3.946300
-5.875800 3.954200
-5.859800 3.962500
-5.843900 3.977200
-5.828000 3.966300
-5.812100 3.958300
-5.796100 3.977100
-5.780200 3.995800
-5.764300 4.014600
-5.748400 4.033300
-5.732400 4.052000
-5.716500 4.070800
-5.700600 4.089500
-5.684700 4.108300
-5.668800 4.127000
-5.652800 4.145700
-5.636900 4.164500
-5.621000 4.156100
-5.605100 4.173400
-5.589100 4.163100
-5.573200 4.179100
-5.557300 4.195100
-5.541400 4.199800
-5.525500 4.253900
-5.509500 4.340200
-5.493600 4.455200
-5.477700 4.570300
-5.461800 4.685400
-5.445800 4.800500
-5.429900 4.916700
-5.414000 5.033900
-5.398100 5.151200
-5.382200 5.268500
-5.366200 5.385900
-5.350300 5.507300
-5.334400 5.251500
-5.318500 5.329200
-5.302500 4.994500
-5.286600 5.018800
-5.270700 5.017600
-5.254800 5.040600
-5.238800 5.037900
-5.222900 5.060800
-5.207000 5.084200
-5.191100 5.108300
-5.175200 5.132300
-5.159200 5.156400
-5.143300 5.180500
-5.127400 5.204500
-5.111500 5.228600
-5.095500 5.252700
-5.079600 5.276800
-5.063700 5.300800
-5.047800 5.324900
-5.031900 5.349000
-5.015900 5.373000
-5.000000 5.397100
-4.984100 5.421200
-4.968200 5.445300
-4.952200 5.469300
-4.936300 5.485200
-4.920400 5.496000
-4.904500 5.499500
-4.888600 5.504100
-4.872600 5.508800
-4.856700 5.514000
-4.840800 5.519300
-4.824900 5.543200
-4.808900 5.628300
-4.793000 5.759900
-4.777100 5.868500
-4.761200 5.977400
-4.745200 6.117000
-4.729300 6.259600
-4.713400 6.407600
-4.697500 6.558600
-4.681600 6.713100
-4.665600 6.869600
-4.649700 7.026000
-4.633800 6.801300
-4.617900 6.521000
-4.601900 6.563200
-4.586000 6.605400
-4.570100 6.647600
-4.554200 6.689700
-4.538300 6.731900
-4.522300 6.774100
-4.506400 6.821100
-4.490500 6.868400
-4.474600 6.919600
-4.458600 6.971100
-4.442700 7.022700
-4.426800 7.074400
-4.410900 7.127800
-4.395000 7.182200
-4.379000 7.236700
-4.363100 7.291200
-4.347200 7.347500
-4.331300 7.404500
-4.315300 7.462000
-4.299400 7.809700
-4.283500 7.847300
-4.267600 7.884800
-4.251600 8.222200
-4.235700 8.522300
-4.219800 8.493100
-4.203900 8.452000
-4.188000 8.430300
-4.172000 8.392700
-4.156100 8.374200
-4.140200 8.426900
-4.124300 8.547700
-4.108300 8.670100
-4.092400 9.139800
-4.076500 9.230700
-4.060600 9.328800
-4.044700 9.750800
-4.028700 9.827900
-4.012800 9.905100
-3.996900 9.982200
-3.981000 10.059300
-3.965000 9.720700
-3.949100 9.321200
-3.933200 9.272300
-3.917300 9.223500
-3.901400 9.179400
-3.885400 9.142300
-3.869500 9.109300
-3.853600 9.077300
-3.837700 9.480200
-3.821700 9.401300
-3.805800 9.391000
-3.789900 13.053400
-3.774000 9.885500
-3.758000 11.294000
-3.742100 13.591800
-3.726200 12.904600
-3.710300 9.578300
-3.694400 9.612600
-3.678400 9.821900
-3.662500 10.031200
-3.646600 10.240500
-3.630700 9.989100
-3.614700 10.241500
-3.598800 10.879300
-3.582900 10.173300
-3.567000 10.616200
-3.551100 8.929300
-3.535100 8.929500
-3.519200 8.968300
-3.503300 9.007200
-3.487400 9.697300
-3.471400 9.637000
-3.455500 10.166100
-3.439600 10.025600
-3.423700 9.892300
-3.407800 9.762400
-3.391800 9.653300
-3.375900 9.790200
-3.360000 9.454600
-3.344100 9.591000
-3.328100 9.727500
-3.312200 9.864000
-3.296300 8.632500
-3.280400 8.562700
-3.264400 8.506900
-3.248500 8.539900
-3.232600 8.601200
-3.216700 8.662500
-3.200800 8.786500
-3.184800 8.950700
-3.168900 9.114900
-3.153000 9.279100
-3.137100 10.896100
-3.121100 10.585200
-3.105200 10.274400
-3.089300 9.963500
-3.073400 9.652600
-3.057500 10.211500
-3.041500 9.602300
-3.025600 9.204200
-3.009700 8.889200
-2.993800 8.574100
-2.977800 8.294400
-2.961900 8.024000
-2.946000 7.730000
-2.930100 7.436000
-2.914100 7.192800
-2.898200 7.092900
-2.882300 7.005500
-2.866400 6.923500
-2.850500 6.967500
-2.834500 7.192900
-2.818600 7.442300
-2.802700 7.977700
-2.786800 9.744300
-2.770800 17.345800
-2.754900 19.018100
-2.739000 40.712200
-2.723100 9.636000
-2.707200 7.936900
-2.691200 6.602200
-2.675300 6.868600
-2.659400 7.248700
-2.643500 7.628900
-2.627500 8.009100
-2.611600 8.389300
-2.595700 8.769400
-2.579800 9.149600
-2.563900 9.529800
-2.547900 9.909900
-2.532000 10.290100
-2.516100 8.057400
-2.500200 14.062400
-2.484200 11.405000
-2.468300 13.409200
-2.452400 12.397500
-2.436500 11.385700
-2.420500 14.536700
-2.404600 18.743700
-2.388700 19.733100
-2.372800 16.624400
-2.356900 10.810500
-2.340900 5.743800
-2.325000 5.718900
-2.309100 5.694000
-2.293200 6.204900
-2.277200 6.526700
-2.261300 5.873500
-2.245400 1.923800
-2.229500 0.000000
-2.213600 0.000000
-2.197600 0.000000
-2.181700 0.000000
-2.165800 0.000000
-2.149900 0.000000
-2.133900 0.000000
-2.118000 0.000000
-2.102100 0.000000
-2.086200 0.000000
-2.070300 0.000000
-2.054300 0.000000
-2.038400 0.000000
-2.022500 0.000000
-2.006600 0.000000
-1.990600 0.000000
-1.974700 0.000000
-1.958800 0.000000
-1.942900 0.000000
-1.926900 0.000000
-1.911000 0.000000
-1.895100 0.000000
-1.879200 0.000000
-1.863300 0.000000
-1.847300 0.000000
-1.831400 0.000000
-1.815500 0.000000
-1.799600 0.000000
-1.783600 0.000000
-1.767700 0.000000
-1.751800 0.000000
-1.735900 0.000000
-1.720000 0.000000
-1.704000 0.000000
-1.688100 0.000000
-1.672200 0.000000
-1.656300 0.000000
-1.640300 0.000000
-1.624400 0.000000
-1.608500 0.000000
-1.592600 0.000000
-1.576700 0.000000
-1.560700 0.000000
-1.544800 0.000000
-1.528900 0.000000
-1.513000 0.000000
-1.497000 0.000000
-1.481100 0.000000
-1.465200 0.000000
-1.449300 0.000000
-1.433300 0.000000
-1.417400 0.000000
-1.401500 0.000000
-1.385600 0.000000
-1.369700 0.000000
-1.353700 0.000000
-1.337800 0.000000
-1.321900 0.000000
-1.306000 0.000000
-1.290000 0.000000
-1.274100 0.000000
-1.258200 0.000000
-1.242300 0.000000
-1.226400 0.000000
-1.210400 0.000000
-1.194500 0.000000
-1.178600 0.000000
-1.162700 0.000000
-1.146700 0.000000
-1.130800 0.000000
-1.114900 0.000000
-1.099000 0.000000
-1.083100 0.000000
-1.067100 0.000000
-1.051200 0.000000
-1.035300 0.000000
-1.019400 0.000000
-1.003400 0.000000
-0.987500 0.000000
-0.971600 0.000000
-0.955700 0.000000
-0.939700 0.000000
-0.923800 0.000000
-0.907900 0.000000
-0.892000 0.000000
-0.876100 0.000000
-0.860100 0.000000
-0.844200 0.000000
-0.828300 0.000000
-0.812400 0.000000
-0.796400 0.000000
-0.780500 0.000000
-0.764600 0.000000
-0.748700 0.000000
-0.732800 0.000000
-0.716800 0.000000
-0.700900 0.000000
-0.685000 0.000000
-0.669100 0.000000
-0.653100 0.000000
-0.637200 0.000000
-0.621300 0.000000
-0.605400 0.000000
-0.589400 0.000000
-0.573500 0.000000
-0.557600 0.000000
-0.541700 0.000000
-0.525800 0.000000
-0.509800 0.000000
-0.493900 0.036700
-0.478000 0.100600
-0.462100 0.164500
-0.446100 0.228400
-0.430200 0.292300
-0.414300 0.356200
-0.398400 0.420100
-0.382500 0.484000
-0.366500 0.547800
-0.350600 0.611700
-0.334700 0.675600
-0.318800 0.739500
-0.302800 0.406500
-0.286900 0.413000
-0.271000 0.419400
-0.255100 9.061900
-0.239200 0.926300
-0.223200 1.152400
-0.207300 1.667100
-0.191400 2.181900
-0.175500 2.696600
-0.159500 3.786200
-0.143600 6.198900
-0.127700 2.236200
-0.111800 2.297000
-0.095800 2.357900
-0.079900 2.418800
-0.064000 7.553900
-0.048100 3.131900
-0.032200 3.357300
-0.016200 3.583000
-0.000300 4.281500
0.015600 5.103900
0.031500 5.926200
0.047500 6.748600
0.063400 5.308400
0.079300 5.547000
0.095200 6.249100
0.111100 6.615500
0.127100 6.460300
0.143000 6.237800
0.158900 6.372000
0.174800 6.506300
0.190800 6.640600
0.206700 6.774800
0.222600 6.909100
0.238500 7.051900
0.254400 8.237800
0.270400 8.279600
0.286300 8.321500
0.302200 8.363300
0.318100 8.405200
0.334100 8.447000
0.350000 9.923700
0.365900 11.103600
0.381800 10.862600
0.397800 10.669200
0.413700 12.902800
0.429600 11.731600
0.445500 12.782700
0.461400 12.349100
0.477400 11.919100
0.493300 14.620700
0.509200 13.381600
0.525100 12.855200
0.541100 14.784500
0.557000 14.009100
0.572900 14.878100
0.588800 16.556400
0.604700 14.800600
0.620700 17.836900
0.636600 13.601400
0.652500 13.372200
0.668400 13.355400
0.684400 12.901600
0.700300 12.447800
0.716200 12.569300
0.732100 12.713900
0.748000 12.858600
0.764000 17.102000
0.779900 13.089100
0.795800 13.625500
0.811700 14.025900
0.827700 14.296500
0.843600 15.931100
0.859500 15.707600
0.875400 18.099100
0.891400 12.971500
0.907300 13.820600
0.923200 14.904200
0.939100 13.247000
0.955000 14.790500
0.971000 8.002800
0.986900 8.489300
1.002800 9.430800
1.018700 10.414000
1.034700 11.397100
1.050600 12.381700
1.066500 8.887200
1.082400 9.130500
1.098300 9.383200
1.114300 9.639900
1.130200 10.457900
1.146100 12.224600
1.162000 13.524500
1.178000 10.877100
1.193900 9.409200
1.209800 11.340800
1.225700 22.925400
1.241600 8.824500
1.257600 8.864500
1.273500 8.906100
1.289400 8.947700
1.305300 8.989300
1.321300 9.047900
1.337200 9.106900
1.353100 9.165800
1.369000 9.237200
1.385000 9.434100
1.400900 9.859000
1.416800 10.788500
1.432700 12.107200
1.448600 13.425900
1.464600 14.759500
1.480500 16.093900
1.496400 15.869500
1.512300 13.681700
1.528300 10.960300
1.544200 9.661300
1.560100 8.975900
1.576000 9.350800
1.591900 7.483600
1.607900 7.257400
1.623800 6.783700
1.639700 6.863300
1.655600 6.942900
1.671600 7.022500
1.687500 7.102100
1.703400 7.181700
1.719300 7.264700
1.735200 7.353600
1.751200 5.971000
1.767100 5.953000
1.783000 5.934900
1.798900 5.916800
1.814900 5.900500
1.830800 5.885300
1.846700 5.870100
1.862600 5.856400
1.878600 5.846200
1.894500 5.540900
1.910400 5.515700
1.926300 5.491200
1.942200 5.472800
1.958200 5.454400
1.974100 5.436200
1.990000 5.523400
2.005900 5.508300
2.021900 5.493200
2.037800 5.478100
2.053700 5.462900
2.069600 5.448100
2.085500 5.459000
2.101500 5.469900
2.117400 5.480900
2.133300 5.662700
2.149200 5.691600
2.165200 5.720500
2.181100 5.751400
2.197000 5.803000
2.212900 5.858300
2.228900 5.913700
2.244800 5.980600
2.260700 6.048700
2.276600 6.247700
2.292500 6.486100
2.308500 6.881200
2.324400 7.290400
2.340300 7.705300
2.356200 8.118800
2.372200 8.532200
2.388100 8.751300
2.404000 9.237000
2.419900 9.507000
2.435800 10.034500
2.451800 10.561900
2.467700 11.089400
2.483600 10.840900
2.499500 10.167700
2.515500 9.278700
2.531400 7.548800
2.547300 6.341700
2.563200 6.016800
2.579100 6.081000
2.595100 6.136200
2.611000 7.327400
2.626900 8.610100
2.642800 11.266300
2.658800 10.278300
2.674700 9.290200
2.690600 8.294600
2.706500 7.297900
2.722500 7.782900
2.738400 8.271500
2.754300 8.454200
2.770200 8.453300
2.786100 8.625900
2.802100 8.797800
2.818000 8.966200
2.833900 9.134700
2.849800 9.303200
2.865800 9.471700
2.881700 9.584200
2.897600 9.747900
2.913500 9.853300
2.929400 10.185200
2.945400 9.646900
2.961300 9.321800
2.977200 8.812700
2.993100 8.708000
3.009100 8.829300
3.025000 8.965100
3.040900 9.100800
3.056800 9.236600
3.072700 9.372300
3.088700 9.508100
3.104600 9.575900
3.120500 9.712100
3.136400 9.714100
3.152400 9.856300
3.168300 9.998500
3.184200 10.140800
3.200100 10.283000
3.216100 10.425200
3.232000 10.567500
3.247900 10.723500
3.263800 10.943200
3.279700 11.659100
3.295700 11.005600
3.311600 10.939200
3.327500 11.361000
3.343400 11.187400
3.359400 11.045400
3.375300 10.903500
3.391200 10.484700
3.407100 10.265000
3.423000 9.905200
3.439000 9.823200
3.454900 9.780300
3.470800 9.688500
3.486700 9.657100
3.502700 9.712600
3.518600 9.846400
3.534500 10.114200
3.550400 10.385300
3.566300 10.656400
3.582300 10.871000
3.598200 11.145200
3.614100 11.462500
3.630000 11.803800
3.646000 11.862300
3.661900 12.428500
3.677800 13.139600
3.693700 13.977000
3.709700 16.719600
3.725600 19.635800
3.741500 21.511000
3.757400 13.977000
3.773300 13.837900
3.789300 13.643600
3.805200 13.415600
3.821100 13.187100
3.837000 12.958700
3.853000 11.733000
3.868900 11.739900
3.884800 11.755200
3.900700 11.717900
3.916600 11.622300
3.932600 11.388800
3.948500 11.418800
3.964400 11.448800
3.980300 11.478700
3.996300 11.508700
4.012200 11.623000
4.028100 11.645000
4.044000 11.679000
4.059900 11.713600
4.075900 11.856100
4.091800 11.091300
4.107700 11.046400
4.123600 11.170700
4.139600 11.294900
4.155500 11.425500
4.171400 11.546400
4.187300 12.045100
4.203300 12.728800
4.219200 13.418000
4.235100 14.155800
4.251000 14.929300
4.266900 15.392900
4.282900 14.758800
4.298800 12.967800
4.314700 11.540600
4.330600 11.687400
4.346600 11.834000
4.362500 11.972000
4.378400 12.106700
4.394300 12.237800
4.410200 12.368200
4.426200 12.418400
4.442100 12.213100
4.458000 12.766800
4.473900 12.577000
4.489900 15.000900
4.505800 14.850100
4.521700 14.701000
4.537600 14.552000
4.553600 14.402900
4.569500 14.254900
4.585400 14.107600
4.601300 13.960400
4.617200 16.240000
4.633200 18.191900
4.649100 17.746400
4.665000 17.413500
4.680900 17.137300
4.696900 16.856700
4.712800 16.619600
4.728700 16.193000
4.744600 16.006000
4.760500 15.812800
4.776500 15.383000
4.792400 15.172500
4.808300 15.237000
4.824200 15.342800
4.840200 15.448100
4.856100 15.327100
4.872000 15.421800
4.887900 15.562600
4.903800 15.389300
4.919800 15.258600
4.935700 14.985400
4.951600 14.979500
4.967500 17.999700
4.983500 20.995600
4.999400 20.346100
5.015300 19.696600
5.031200 19.092400
5.047200 18.446300
5.063100 19.331900
5.079000 17.975100
5.094900 18.492300
5.110800 16.921900
5.126800 15.726600
5.142700 15.008900
5.158600 14.737400
5.174500 14.707500
5.190500 14.650600
5.206400 14.602700
5.222300 14.564600
5.238200 14.530200
5.254100 14.583500
5.270100 14.669400
5.286000 14.764100
5.301900 14.887700
5.317800 15.010200
5.333800 15.304700
5.349700 15.432000
5.365600 15.502600
5.381500 15.835400
5.397400 16.780300
5.413400 17.802700
5.429300 18.829800
5.445200 17.537700
5.461100 18.149100
5.477100 18.848500
5.493000 18.000700
5.508900 18.175700
5.524800 18.297200
5.540800 17.872500
5.556700 17.743800
5.572600 17.661500
5.588500 17.592100
5.604400 17.494900
5.620400 17.487500
5.636300 17.491800
5.652200 17.502400
5.668100 17.531200
5.684100 17.607900
5.700000 17.434400
5.715900 17.122700
5.731800 16.879900
5.747700 17.050300
5.763700 17.138500
5.779600 17.227600
5.795500 17.401800
5.811400 17.503800
5.827400 17.655700
5.843300 17.781800
5.859200 17.917500
5.875100 18.061200
5.891000 17.108000
5.907000 17.267900
5.922900 17.437600
5.938800 17.648200
5.954700 17.816000
5.970700 18.001500
5.986600 18.228800
6.002500 18.371800
6.018400 18.500500
6.034400 18.743700
6.050300 19.027300
6.066200 19.311600
6.082100 19.220600
6.098000 18.859000
6.114000 18.760400
6.129900 18.998200
6.145800 18.807000
6.161700 19.037500
6.177700 19.243200
6.193600 19.477900
6.209500 19.885000
6.225400 19.529800
6.241300 19.685500
6.257300 19.861600
6.273200 20.038700
6.289100 20.107400
6.305000 19.782000
6.321000 19.785800
6.336900 19.789700
6.352800 19.377200
6.368700 19.704900
6.384600 19.846600
6.400600 19.957300
6.416500 20.080900
6.432400 20.220100
6.448300 20.298100
6.464300 20.531000
6.480200 21.096600
6.496100 21.180500
6.512000 21.245900
6.528000 20.928600
6.543900 18.771600
6.559800 18.608000
6.575700 18.429500
6.591600 18.114900
6.607600 17.864200
6.623500 17.680600
6.639400 17.550100
6.655300 17.341900
6.671300 17.194900
6.687200 16.980000
6.703100 16.765200
6.719000 16.464300
6.734900 16.175900
6.750900 15.779800
6.766800 15.565900
6.782700 15.357700
6.798600 15.260300
6.814600 15.097300
6.830500 14.693900
6.846400 14.250200
6.862300 14.005300
6.878200 13.852700
6.894200 13.766800
6.910100 13.499100
6.926000 13.217700
6.941900 12.943200
6.957900 12.330600
6.973800 12.020900
6.989700 11.829300
7.005600 11.555100
7.021600 11.337800
7.037500 11.073400
7.053400 10.876600
7.069300 10.622700
7.085200 10.442100
7.101200 10.324100
7.117100 10.311200
7.133000 10.256200
7.148900 10.084900
7.164900 9.913700
7.180800 9.742400
7.196700 9.619800
7.212600 9.643000
7.228500 9.492900
7.244500 9.281200
7.260400 9.155900
7.276300 8.909200
7.292200 8.768200
7.308200 8.664600
7.324100 8.437100
7.340000 8.174900
7.355900 7.912600
7.371900 7.710000
7.387800 7.460800
7.403700 7.224600
7.419600 6.993100
7.435500 6.836600
7.451500 6.615200
7.467400 6.393800
7.483300 6.179900
7.499200 5.992000
7.515200 5.808200
7.531100 5.624500
7.547000 5.421700
7.562900 5.219800
7.578800 5.039400
7.594800 4.883000
7.610700 5.146600
7.626600 5.149900
7.642500 4.972700
7.658500 4.866700
7.674400 4.772400
7.690300 4.556700
7.706200 4.330800
7.722100 4.104900
7.738100 3.879000
7.754000 3.653100
7.769900 3.427200
7.785800 3.201300
7.801800 2.980700
7.817700 2.776200
7.833600 2.617600
7.849500 3.706700
