set title 'mp-1183710 - Density of States'
set xlabel 'Energy (eV)'
set ylabel 'DOS (states/eV)'
set grid
set xrange [-10:10]
set yrange [0:8.706]
set xzeroaxis lt -1
set terminal png size 800,600
set output 'mp-1183710_dos_gnuplot.png'
plot '-' using 1:2 with lines title 'DOS'
-5.882800 0.000000
-5.856500 0.000000
-5.830100 0.000000
-5.803800 0.000000
-5.777500 0.000000
-5.751200 0.000000
-5.724800 0.000000
-5.698500 0.000000
-5.672200 0.000000
-5.645800 0.000000
-5.619500 0.000000
-5.593200 0.000000
-5.566800 0.000000
-5.540500 0.000000
-5.514200 0.000000
-5.487800 0.000000
-5.461500 0.000000
-5.435200 0.000000
-5.408900 0.000000
-5.382500 0.000000
-5.356200 0.000000
-5.329900 0.000000
-5.303500 0.000000
-5.277200 0.000000
-5.250900 0.000000
-5.224500 0.000000
-5.198200 0.000000
-5.171900 0.000000
-5.145500 0.000000
-5.119200 0.000000
-5.092900 0.000000
-5.066600 0.000000
-5.040200 0.000000
-5.013900 0.000000
-4.987600 0.000000
-4.961200 0.000000
-4.934900 0.000000
-4.908600 0.000000
-4.882200 0.000000
-4.855900 0.000000
-4.829600 0.000000
-4.803200 0.000000
-4.776900 0.000000
-4.750600 0.000000
-4.724300 0.000000
-4.697900 0.000000
-4.671600 0.000000
-4.645300 0.000000
-4.618900 0.000000
-4.592600 0.000000
-4.566300 0.000000
-4.539900 0.000000
-4.513600 0.000000
-4.487300 0.000000
-4.460900 0.000000
-4.434600 0.000000
-4.408300 0.000000
-4.382000 0.000000
-4.355600 0.000000
-4.329300 0.000000
-4.303000 0.000000
-4.276600 0.000000
-4.250300 0.000000
-4.224000 0.000000
-4.197600 0.000000
-4.171300 0.000000
-4.145000 0.000000
-4.118700 0.000000
-4.092300 0.000000
-4.066000 0.000000
-4.039700 0.000000
-4.013300 0.000000
-3.987000 0.000000
-3.960700 0.000000
-3.934300 0.000000
-3.908000 0.000000
-3.881700 0.000000
-3.855300 0.000000
-3.829000 0.000000
-3.802700 0.000000
-3.776400 0.000000
-3.750000 0.000000
-3.723700 0.000000
-3.697400 0.000000
-3.671000 0.000000
-3.644700 0.000000
-3.618400 0.000000
-3.592000 0.000000
-3.565700 0.000000
-3.539400 0.000000
-3.513000 0.000000
-3.486700 0.000000
-3.460400 0.003800
-3.434100 0.014000
-3.407700 0.030300
-3.381400 0.039800
-3.355100 0.043000
-3.328700 0.043300
-3.302400 0.048500
-3.276100 0.054000
-3.249700 0.059600
-3.223400 0.065400
-3.197100 0.070600
-3.170700 0.073900
-3.144400 0.075500
-3.118100 0.076700
-3.091800 0.079200
-3.065400 0.082300
-3.039100 0.085500
-3.012800 0.088700
-2.986400 0.091900
-2.960100 0.095100
-2.933800 0.098400
-2.907400 0.101800
-2.881100 0.105300
-2.854800 0.107900
-2.828400 0.109900
-2.802100 0.111800
-2.775800 0.113800
-2.749500 0.116000
-2.723100 0.118200
-2.696800 0.120300
-2.670500 0.122500
-2.644100 0.124700
-2.617800 0.127000
-2.591500 0.129600
-2.565100 0.132200
-2.538800 0.134900
-2.512500 0.137600
-2.486100 0.140400
-2.459800 0.143200
-2.433500 0.145800
-2.407200 0.148100
-2.380800 0.150000
-2.354500 0.151700
-2.328200 0.153400
-2.301800 0.155500
-2.275500 0.157600
-2.249200 0.159700
-2.222800 0.161900
-2.196500 0.164000
-2.170200 0.166200
-2.143800 0.168400
-2.117500 0.170700
-2.091200 0.173000
-2.064900 0.175400
-2.038500 0.177800
-2.012200 0.180300
-1.985900 0.182700
-1.959500 0.185200
-1.933200 0.187600
-1.906900 0.190100
-1.880500 0.192300
-1.854200 0.194600
-1.827900 0.196900
-1.801500 0.199200
-1.775200 0.201300
-1.748900 0.203500
-1.722600 0.205800
-1.696200 0.208100
-1.669900 0.210400
-1.643600 0.212800
-1.617200 0.215200
-1.590900 0.217600
-1.564600 0.220000
-1.538200 0.222500
-1.511900 0.225000
-1.485600 0.227500
-1.459200 0.230000
-1.432900 0.232600
-1.406600 0.235300
-1.380300 0.238100
-1.353900 0.240900
-1.327600 0.243800
-1.301300 0.246600
-1.274900 0.249500
-1.248600 0.252300
-1.222300 0.255100
-1.195900 0.257700
-1.169600 0.260300
-1.143300 0.263300
-1.116900 0.266200
-1.090600 0.269100
-1.064300 0.272000
-1.038000 0.275000
-1.011600 0.278000
-0.985300 0.281000
-0.959000 0.284300
-0.932600 0.287800
-0.906300 0.291300
-0.880000 0.294800
-0.853600 0.298300
-0.827300 0.301900
-0.801000 0.305600
-0.774600 0.309200
-0.748300 0.313000
-0.722000 0.316700
-0.695700 0.320600
-0.669300 0.324400
-0.643000 0.328400
-0.616700 0.332300
-0.590300 0.336300
-0.564000 0.340600
-0.537700 0.345000
-0.511300 0.349700
-0.485000 0.354400
-0.458700 0.359600
-0.432300 0.364900
-0.406000 0.370300
-0.379700 0.375800
-0.353400 0.381500
-0.327000 0.387200
-0.300700 0.392900
-0.274400 0.398900
-0.248000 0.405000
-0.221700 0.411300
-0.195400 0.417700
-0.169000 0.424300
-0.142700 0.431000
-0.116400 0.437800
-0.090000 0.444800
-0.063700 0.451900
-0.037400 0.459100
-0.011100 0.466800
0.015300 0.475900
0.041600 0.485800
0.067900 0.495600
0.094300 0.506000
0.120600 0.517300
0.146900 0.529300
0.173300 0.541700
0.199600 0.554700
0.225900 0.568200
0.252300 0.582400
0.278600 0.597600
0.304900 0.613400
0.331200 0.629800
0.357600 0.647200
0.383900 0.666800
0.410200 0.689100
0.436600 0.714800
0.462900 0.742900
0.489200 0.772200
0.515600 0.803500
0.541900 0.838700
0.568200 0.876800
0.594600 0.917500
0.620900 0.963400
0.647200 1.016300
0.673500 1.068300
0.699900 1.245300
0.726200 1.434300
0.752500 1.567000
0.778900 1.703700
0.805200 2.043000
0.831500 1.956100
0.857900 1.913900
0.884200 1.957400
0.910500 1.971400
0.936900 1.873100
0.963200 1.833800
0.989500 1.781800
1.015800 1.799500
1.042200 1.844200
1.068500 2.017300
1.094800 2.175000
1.121200 2.314500
1.147500 2.321900
1.173800 2.344600
1.200200 2.377600
1.226500 2.228300
1.252800 2.236100
1.279200 2.251600
1.305500 2.261400
1.331800 2.268400
1.358100 2.287300
1.384500 2.324700
1.410800 2.363600
1.437100 2.475100
1.463500 2.622600
1.489800 2.724400
1.516100 2.677400
1.542500 2.725600
1.568800 2.739300
1.595100 2.770400
1.621500 2.843600
1.647800 3.009800
1.674100 3.612200
1.700400 3.523400
1.726800 3.393500
1.753100 3.474800
1.779400 3.672800
1.805800 3.886700
1.832100 3.839400
1.858400 3.607500
1.884800 3.822900
1.911100 3.827100
1.937400 3.709500
1.963800 3.534200
1.990100 3.506000
2.016400 3.434200
2.042700 3.149600
2.069100 2.857000
2.095400 2.746900
2.121700 2.603300
2.148100 3.267200
2.174400 3.351200
2.200700 3.496300
2.227100 3.438300
2.253400 2.614800
2.279700 2.436500
2.306100 2.341300
2.332400 2.433800
2.358700 2.688200
2.385000 2.828600
2.411400 3.085500
2.437700 2.952300
2.464000 2.873500
2.490400 2.876300
2.516700 2.863600
2.543000 2.785400
2.569400 2.769300
2.595700 2.783000
2.622000 2.884500
2.648400 3.212800
2.674700 3.559200
2.701000 3.732900
2.727300 3.696700
2.753700 3.677700
2.780000 3.681800
2.806300 3.653900
2.832700 3.760100
2.859000 3.511600
2.885300 3.255600
2.911700 3.218000
2.938000 3.520100
2.964300 4.191800
2.990700 5.984300
3.017000 4.900000
3.043300 3.917300
3.069600 4.243100
3.096000 4.913400
3.122300 5.116600
3.148600 5.445700
3.175000 6.219600
3.201300 5.898100
3.227600 5.598200
3.254000 5.294900
3.280300 5.399900
3.306600 5.302400
3.333000 4.878900
3.359300 4.483700
3.385600 4.499500
3.411900 3.843600
3.438300 3.873700
3.464600 3.505900
3.490900 3.776100
3.517300 3.970800
3.543600 3.335300
3.569900 3.111400
3.596300 3.899700
3.622600 5.225800
3.648900 7.418100
3.675300 7.306700
3.701600 6.108100
3.727900 5.997200
3.754200 6.581600
3.780600 7.174100
3.806900 5.043400
3.833200 6.257900
3.859600 5.837600
3.885900 5.626600
3.912200 5.285200
3.938600 4.511800
3.964900 4.291500
3.991200 4.371600
4.017600 4.390500
4.043900 4.521200
4.070200 4.567400
4.096500 4.310000
4.122900 4.654200
4.149200 4.023500
4.175500 3.688900
4.201900 3.318200
4.228200 3.288300
4.254500 3.422000
4.280900 3.074000
4.307200 3.065800
4.333500 3.209800
4.359900 3.296100
4.386200 3.554600
4.412500 3.582900
4.438800 3.538500
4.465200 3.476700
4.491500 3.675600
4.517800 3.988300
4.544200 3.574700
4.570500 3.376200
4.596800 3.566600
4.623200 4.045200
4.649500 4.310900
4.675800 4.964500
4.702200 5.399500
4.728500 4.823500
4.754800 4.718600
4.781100 4.549900
4.807500 4.429200
4.833800 4.297500
4.860100 4.229600
4.886500 3.914000
4.912800 3.986200
4.939100 4.033300
4.965500 4.014800
4.991800 3.930200
5.018100 3.930700
5.044500 3.815500
5.070800 4.231900
5.097100 4.527600
5.123400 4.636500
5.149800 4.863700
5.176100 5.025900
5.202400 5.002000
5.228800 5.077300
5.255100 5.248700
5.281400 5.394300
5.307800 5.557300
5.334100 5.744400
5.360400 6.549900
5.386800 7.402500
5.413100 7.898900
5.439400 7.769400
5.465700 6.783300
5.492100 7.124700
5.518400 7.914100
5.544700 7.878400
5.571100 7.045600
5.597400 6.584800
5.623700 6.248000
5.650100 6.083000
5.676400 3.184400
5.702700 1.031600
5.729100 0.991300
5.755400 0.930300
5.781700 0.896700
5.808000 0.870400
5.834400 0.849600
5.860700 0.825000
5.887000 0.811000
5.913400 0.799300
5.939700 0.787400
5.966000 0.775800
5.992400 0.765700
6.018700 0.757400
6.045000 0.751900
6.071400 0.748600
6.097700 0.746000
6.124000 0.743300
6.150300 0.740300
6.176700 0.737000
6.203000 0.732700
6.229300 0.726800
6.255700 0.723200
6.282000 0.716100
6.308300 0.708500
6.334700 0.701000
6.361000 0.692500
6.387300 0.680500
6.413700 0.673700
6.440000 0.670100
6.466300 0.668500
6.492600 0.667500
6.519000 0.667000
6.545300 0.666900
6.571600 0.667000
6.598000 0.667100
6.624300 0.667100
6.650600 0.666600
6.677000 0.665400
6.703300 0.664100
6.729600 0.664600
6.756000 0.666600
6.782300 0.667600
6.808600 0.668500
6.834900 0.669300
6.861300 0.670000
6.887600 0.670300
6.913900 0.670200
6.940300 0.669500
6.966600 0.667700
6.992900 0.665100
7.019300 0.661800
7.045600 0.664900
7.071900 0.658400
7.098300 0.653200
7.124600 0.649700
7.150900 0.647200
7.177200 0.643400
7.203600 0.605200
7.229900 0.583900
7.256200 0.580800
7.282600 0.577700
7.308900 0.574500
7.335200 0.571400
7.361600 0.568000
7.387900 0.564700
7.414200 0.561600
7.440600 0.558600
7.466900 0.555700
7.493200 0.553000
7.519500 0.550300
7.545900 0.547700
7.572200 0.544900
7.598500 0.540600
7.624900 0.536800
7.651200 0.533900
7.677500 0.531400
7.703900 0.529300
7.730200 0.527500
7.756500 0.525900
7.782900 0.524400
7.809200 0.523100
7.835500 0.522100
7.861800 0.520800
7.888200 0.519200
7.914500 0.517400
7.940800 0.515100
7.967200 0.513800
7.993500 0.512700
8.019800 0.512400
8.046200 0.519700
8.072500 0.525500
8.098800 0.530100
8.125200 0.530900
8.151500 0.529300
8.177800 0.527100
8.204100 0.524300
8.230500 0.520900
8.256800 0.516800
8.283100 0.518200
8.309500 0.518400
8.335800 0.514200
8.362100 0.508500
8.388500 0.502400
8.414800 0.497900
8.441100 0.494500
8.467500 0.492100
8.493800 0.490600
8.520100 0.489400
8.546400 0.488400
8.572800 0.487600
8.599100 0.487100
8.625400 0.488100
8.651800 0.490300
8.678100 0.492100
8.704400 0.492600
8.730800 0.492000
8.757100 0.492400
8.783400 0.495300
8.809800 0.495800
8.836100 0.495700
8.862400 0.495900
8.888700 0.496300
8.915100 0.493400
8.941400 0.490000
8.967700 0.488700
8.994100 0.487800
9.020400 0.487900
9.046700 0.490200
9.073100 0.495000
9.099400 0.493900
9.125700 0.493200
9.152100 0.496300
9.178400 0.505600
9.204700 0.510800
9.231000 0.508900
9.257400 0.491100
9.283700 0.468300
9.310000 0.465000
9.336400 0.463600
9.362700 0.461600
9.389000 0.459300
9.415400 0.457000
9.441700 0.455000
9.468000 0.453000
9.494400 0.451100
9.520700 0.449100
9.547000 0.447200
9.573300 0.445100
9.599700 0.443700
9.626000 0.442200
9.652300 0.440700
9.678700 0.439000
9.705000 0.437400
9.731300 0.435700
9.757700 0.435100
9.784000 0.435100
9.810300 0.434400
9.836700 0.433700
9.863000 0.442400
9.889300 0.437900
9.915600 0.431300
9.942000 0.424700
9.968300 0.418300
9.994600 0.412400
10.021000 0.433300
10.047300 0.406800
10.073600 0.402100
10.100000 0.399100
10.126300 0.393000
10.152600 0.390100
10.179000 0.387000
10.205300 0.383900
10.231600 0.381500
10.257900 0.377900
10.284300 0.374200
10.310600 0.371500
10.336900 0.378500
10.363300 0.375700
10.389600 0.418300
10.415900 0.329200
10.442300 0.327900
10.468600 0.327000
10.494900 0.326600
10.521300 0.326300
10.547600 0.326100
10.573900 0.325900
10.600200 0.325800
10.626600 0.325100
10.652900 0.323600
10.679200 0.323000
10.705600 0.323100
10.731900 0.323600
10.758200 0.324000
10.784600 0.327600
10.810900 0.339700
10.837200 0.332000
10.863600 0.326900
10.889900 0.322400
10.916200 0.317800
10.942500 0.313300
10.968900 0.308800
10.995200 0.305500
11.021500 0.337600
11.047900 0.345900
11.074200 0.334200
11.100500 0.329700
11.126900 0.322800
11.153200 0.320300
11.179500 0.302100
11.205900 0.272600
11.232200 0.265500
11.258500 0.260200
11.284800 0.256100
11.311200 0.251600
11.337500 0.246500
11.363800 0.241200
11.390200 0.235800
11.416500 0.230400
11.442800 0.219300
11.469200 0.212200
11.495500 0.205200
11.521800 0.198300
11.548200 0.191500
11.574500 0.184900
11.600800 0.178400
11.627100 0.172100
11.653500 0.171600
11.679800 0.170100
11.706100 0.169000
11.732500 0.168200
11.758800 0.167900
11.785100 0.170300
11.811500 0.168300
11.837800 0.166900
11.864100 0.161500
11.890500 0.155400
11.916800 0.150700
11.943100 0.146600
11.969400 0.142300
11.995800 0.133900
12.022100 0.121300
12.048400 0.119300
12.074800 0.117200
12.101100 0.115100
12.127400 0.120200
12.153800 0.133500
12.180100 0.144200
12.206400 0.154800
12.232800 0.163000
12.259100 0.171000
12.285400 0.179300
12.311700 0.186100
12.338100 0.192100
12.364400 0.198100
12.390700 0.204100
12.417100 0.210200
12.443400 0.216400
12.469700 0.219800
12.496100 0.224900
12.522400 0.230100
12.548700 0.231600
12.575100 0.234600
12.601400 0.248700
12.627700 0.256800
12.654000 0.251200
12.680400 0.255000
12.706700 0.258800
12.733000 0.275600
12.759400 0.323400
12.785700 0.473600
12.812000 0.544500
12.838400 0.598400
12.864700 0.652900
12.891000 0.713800
12.917400 0.801600
12.943700 0.905700
12.970000 1.004000
12.996300 1.104000
13.022700 1.081900
13.049000 1.117000
13.075300 1.134300
13.101700 1.105000
13.128000 1.096300
13.154300 1.108300
13.180700 1.136500
13.207000 1.143500
13.233300 1.137200
13.259700 1.125800
13.286000 1.065500
13.312300 1.020500
13.338600 0.979600
13.365000 0.929800
13.391300 0.908800
13.417600 0.901600
13.444000 0.890900
13.470300 0.831600
13.496600 0.797300
13.523000 0.761700
13.549300 0.726100
13.575600 0.691700
13.602000 0.657800
13.628300 0.631500
13.654600 0.617500
13.680900 0.606100
13.707300 0.591600
13.733600 0.578900
13.759900 0.564400
13.786300 0.551300
13.812600 0.541100
13.838900 0.530000
13.865300 0.522600
13.891600 0.515500
13.917900 0.508800
13.944300 0.502100
13.970600 0.495600
13.996900 0.489300
14.023200 0.484400
14.049600 0.481200
14.075900 0.480300
14.102200 0.481500
14.128600 0.484800
14.154900 0.489400
14.181200 0.492400
14.207600 0.490400
14.233900 0.479700
14.260200 0.477900
14.286600 0.478500
14.312900 0.479900
14.339200 0.481000
14.365500 0.481500
14.391900 0.480500
14.418200 0.474700
14.444500 0.505000
14.470900 0.502600
14.497200 0.499000
14.523500 0.496800
14.549900 0.499900
14.576200 0.520200
14.602500 0.486900
14.628900 0.467700
14.655200 0.461800
14.681500 0.456800
14.707800 0.451400
14.734200 0.445700
14.760500 0.440000
14.786800 0.434800
14.813200 0.431600
14.839500 0.429100
14.865800 0.430100
14.892200 0.431600
14.918500 0.433000
14.944800 0.434700
14.971200 0.436700
14.997500 0.443000
15.023800 0.454900
15.050100 0.478400
15.076500 0.507900
15.102800 0.541800
15.129100 0.584600
15.155500 0.617100
15.181800 0.633500
15.208100 0.657900
15.234500 0.684100
15.260800 0.728400
15.287100 0.730600
15.313500 0.725000
15.339800 0.716100
15.366100 0.704900
15.392400 0.698200
15.418800 0.695300
15.445100 0.693000
15.471400 0.690400
15.497800 0.685900
15.524100 0.679200
15.550400 0.670600
15.576800 0.660600
15.603100 0.646400
15.629400 0.632600
15.655800 0.620600
15.682100 0.609800
15.708400 0.600700
15.734700 0.593400
15.761100 0.587400
15.787400 0.582800
15.813700 0.579000
15.840100 0.576100
15.866400 0.572900
15.892700 0.569100
15.919100 0.566200
15.945400 0.565200
15.971700 0.566400
15.998100 0.571300
16.024400 0.582700
16.050700 0.596500
16.077000 0.610200
16.103400 0.623700
16.129700 0.637100
16.156000 0.650700
16.182400 0.664400
16.208700 0.678900
16.235000 0.700500
16.261400 0.729900
16.287700 0.765600
16.314000 0.804200
16.340400 0.848200
16.366700 0.875400
16.393000 0.884900
16.419300 0.896600
16.445700 0.903600
16.472000 0.910500
16.498300 0.908000
16.524700 0.897100
16.551000 0.882300
16.577300 0.863200
16.603700 0.841900
16.630000 0.817800
16.656300 0.795500
16.682700 0.775300
16.709000 0.761700
16.735300 0.750000
16.761600 0.739500
16.788000 0.737200
16.814300 0.724400
16.840600 0.718100
16.867000 0.720900
16.893300 0.731600
16.919600 0.740000
16.946000 0.744200
16.972300 0.740900
16.998600 0.733900
17.025000 0.716400
17.051300 0.697900
17.077600 0.682000
17.103900 0.667000
17.130300 0.658300
17.156600 0.652100
17.182900 0.646200
17.209300 0.639500
17.235600 0.632600
17.261900 0.629000
17.288300 0.626600
17.314600 0.624000
17.340900 0.621400
17.367300 0.618700
17.393600 0.615500
17.419900 0.610900
17.446200 0.606700
17.472600 0.603900
17.498900 0.601600
17.525200 0.611300
17.551600 0.614200
17.577900 0.617700
17.604200 0.621300
17.630600 0.617600
17.656900 0.614600
17.683200 0.610400
17.709600 0.605800
17.735900 0.601600
17.762200 0.599600
17.788500 0.600100
17.814900 0.601300
17.841200 0.600900
17.867500 0.601000
17.893900 0.599700
17.920200 0.598300
17.946500 0.598200
17.972900 0.600200
17.999200 0.604200
18.025500 0.610400
18.051900 0.615000
18.078200 0.619400
18.104500 0.624400
18.130800 0.633000
18.157200 0.646000
18.183500 0.661800
18.209800 0.666300
18.236200 0.679800
18.262500 0.693100
18.288800 0.705400
18.315200 0.714300
18.341500 0.722900
18.367800 0.731400
18.394200 0.738100
18.420500 0.743000
18.446800 0.746800
18.473100 0.748000
18.499500 0.746700
18.525800 0.743500
18.552100 0.738600
18.578500 0.735500
18.604800 0.758700
18.631100 0.755100
18.657500 0.755400
18.683800 0.748800
18.710100 0.738600
18.736500 0.727900
18.762800 0.717700
18.789100 0.705400
18.815400 0.699100
18.841800 0.696200
18.868100 0.696000
18.894400 0.696600
18.920800 0.698700
18.947100 0.701700
18.973400 0.704900
18.999800 0.708600
19.026100 0.713000
19.052400 0.717300
19.078800 0.722900
19.105100 0.729600
19.131400 0.737900
19.157700 0.751700
19.184100 0.765600
19.210400 0.779700
19.236700 0.792100
19.263100 0.790100
19.289400 0.791800
19.315700 0.807900
19.342100 0.806100
19.368400 0.804000
19.394700 0.801900
19.421100 0.800200
19.447400 0.799100
19.473700 0.798400
19.500000 0.799100
19.526400 0.803600
19.552700 0.806400
19.579000 0.808800
19.605400 0.807900
19.631700 0.807900
19.658000 0.809300
19.684400 0.812200
19.710700 0.816300
19.737000 0.821000
19.763400 0.827500
19.789700 0.833700
19.816000 0.837800
19.842300 0.838000
19.868700 0.839900
19.895000 0.844100
19.921300 0.847600
19.947700 0.850100
19.974000 0.848100
20.000300 0.843400
20.026700 0.844600
20.053000 0.848900
20.079300 0.852800
20.105700 0.859500
20.132000 0.874700
20.158300 0.878100
20.184600 0.879400
20.211000 0.881000
20.237300 0.883000
20.263600 0.884900
20.290000 0.886400
20.316300 0.890900
20.342600 0.895000
20.369000 0.898800
20.395300 0.902100
20.421600 0.902500
20.448000 0.903600
20.474300 0.904400
20.500600 0.903500
20.526900 0.900100
20.553300 0.900800
20.579600 0.903300
20.605900 0.908400
20.632300 0.917700
20.658600 0.927600
20.684900 0.936900
20.711300 0.944600
20.737600 0.942900
20.763900 0.944400
20.790300 0.949900
20.816600 0.957100
20.842900 0.962500
20.869200 0.965700
20.895600 0.967700
20.921900 0.913000
20.948200 0.901100
20.974600 0.889900
21.000900 0.876700
21.027200 0.861600
21.053600 0.848900
21.079900 0.839900
21.106200 0.834500
21.132600 0.830700
21.158900 0.828900
21.185200 0.828500
21.211500 0.828600
21.237900 0.827900
21.264200 0.826200
21.290500 0.823400
21.316900 0.820400
21.343200 0.818500
21.369500 0.817800
21.395900 0.817500
21.422200 0.817000
21.448500 0.814100
21.474900 0.809100
21.501200 0.805700
21.527500 0.804000
21.553800 0.803800
21.580200 0.804800
21.606500 0.803100
21.632800 0.800900
21.659200 0.800500
21.685500 0.801900
21.711800 0.801400
21.738200 0.798600
21.764500 0.795600
21.790800 0.795100
21.817200 0.796000
21.843500 0.796500
21.869800 0.797600
21.896100 0.798200
21.922500 0.798700
