set title 'mp-23313 - Density of States'
set xlabel 'Energy (eV)'
set ylabel 'DOS (states/eV)'
set grid
set xrange [-10:10]
set yrange [0:174.315]
set xzeroaxis lt -1
set terminal png size 800,600
set output 'mp-23313_dos_gnuplot.png'
plot '-' using 1:2 with lines title 'DOS'
-11.506600 0.000000
-11.473800 0.000000
-11.441100 0.000000
-11.408300 0.000000
-11.375500 0.000000
-11.342700 0.000000
-11.310000 0.000000
-11.277200 0.000000
-11.244400 0.000000
-11.211600 0.000000
-11.178900 0.000000
-11.146100 0.000000
-11.113300 0.000000
-11.080500 0.000000
-11.047800 0.000000
-11.015000 0.000000
-10.982200 0.000000
-10.949400 0.000000
-10.916700 0.000000
-10.883900 0.000000
-10.851100 0.000000
-10.818300 0.000000
-10.785600 0.000000
-10.752800 0.000000
-10.720000 0.000000
-10.687200 0.000000
-10.654500 0.000000
-10.621700 0.000000
-10.588900 0.000000
-10.556100 0.000000
-10.523400 0.000000
-10.490600 0.000000
-10.457800 0.000000
-10.425000 0.000000
-10.392300 0.000000
-10.359500 0.000000
-10.326700 0.000000
-10.293900 0.000000
-10.261200 0.000000
-10.228400 0.000000
-10.195600 0.000000
-10.162800 0.000000
-10.130100 0.000000
-10.097300 0.000000
-10.064500 0.000000
-10.031700 0.000000
-9.999000 0.000000
-9.966200 0.000000
-9.933400 0.000000
-9.900600 0.000000
-9.867900 0.000000
-9.835100 0.000000
-9.802300 0.000000
-9.769500 0.000000
-9.736800 0.000000
-9.704000 0.000000
-9.671200 0.000000
-9.638400 0.000000
-9.605700 0.000000
-9.572900 0.000000
-9.540100 0.000000
-9.507300 0.000000
-9.474600 0.000000
-9.441800 0.000000
-9.409000 0.000000
-9.376200 0.000000
-9.343500 0.000000
-9.310700 0.000000
-9.277900 0.000000
-9.245100 0.000000
-9.212400 0.000000
-9.179600 0.000000
-9.146800 0.000000
-9.114000 0.000000
-9.081300 0.000000
-9.048500 0.000000
-9.015700 0.000000
-8.982900 0.000000
-8.950200 0.000000
-8.917400 0.000000
-8.884600 0.000000
-8.851800 0.000000
-8.819100 0.000000
-8.786300 0.000000
-8.753500 0.000000
-8.720700 0.000000
-8.688000 0.000000
-8.655200 0.000000
-8.622400 0.000000
-8.589600 0.000000
-8.556900 0.000000
-8.524100 7.739600
-8.491300 39.247600
-8.458500 117.197500
-8.425800 78.982600
-8.393000 112.105200
-8.360200 158.468100
-8.327400 65.610900
-8.294700 33.304100
-8.261900 10.470000
-8.229100 0.000000
-8.196300 0.000000
-8.163600 0.000000
-8.130800 0.000000
-8.098000 0.000000
-8.065200 0.000000
-8.032500 0.000000
-7.999700 0.000000
-7.966900 0.000000
-7.934100 0.000000
-7.901400 0.000000
-7.868600 0.000000
-7.835800 0.000000
-7.803000 0.000000
-7.770300 0.000000
-7.737500 0.000000
-7.704700 0.000000
-7.671900 0.000000
-7.639200 0.000000
-7.606400 0.000000
-7.573600 0.000000
-7.540800 0.000000
-7.508100 0.000000
-7.475300 0.000000
-7.442500 0.000000
-7.409700 0.000000
-7.377000 0.000000
-7.344200 0.000000
-7.311400 0.000000
-7.278600 0.000000
-7.245900 0.000000
-7.213100 0.000000
-7.180300 0.000000
-7.147500 0.000000
-7.114800 0.000000
-7.082000 0.000000
-7.049200 0.000000
-7.016400 0.000000
-6.983700 0.000000
-6.950900 0.000000
-6.918100 0.000000
-6.885300 0.000000
-6.852600 0.000000
-6.819800 0.000000
-6.787000 0.000000
-6.754200 0.000000
-6.721500 0.000000
-6.688700 0.000000
-6.655900 0.000000
-6.623100 0.000000
-6.590400 0.000000
-6.557600 0.000000
-6.524800 0.000000
-6.492000 0.000000
-6.459300 0.000000
-6.426500 0.000000
-6.393700 0.000000
-6.360900 0.000000
-6.328200 0.000000
-6.295400 0.000000
-6.262600 0.000000
-6.229800 0.000000
-6.197100 0.000000
-6.164300 0.000000
-6.131500 0.000000
-6.098700 0.000000
-6.066000 0.000000
-6.033200 0.000000
-6.000400 0.000000
-5.967600 0.000000
-5.934900 0.000000
-5.902100 0.000000
-5.869300 0.193100
-5.836500 0.313600
-5.803800 0.426000
-5.771000 0.479100
-5.738200 0.536100
-5.705400 0.587000
-5.672700 0.653800
-5.639900 0.717100
-5.607100 0.789200
-5.574300 0.835200
-5.541600 0.886200
-5.508800 0.935600
-5.476000 1.008000
-5.443200 1.082800
-5.410500 1.162700
-5.377700 1.248200
-5.344900 1.391100
-5.312100 1.450000
-5.279400 1.491000
-5.246600 1.471700
-5.213800 1.493200
-5.181000 1.516100
-5.148300 1.545400
-5.115500 1.570600
-5.082700 1.582700
-5.049900 1.610900
-5.017200 1.647300
-4.984400 1.686500
-4.951600 2.025000
-4.918800 2.126900
-4.886100 2.004300
-4.853300 1.974900
-4.820500 1.980300
-4.787700 1.943700
-4.755000 1.905300
-4.722200 1.872000
-4.689400 1.869600
-4.656600 1.859400
-4.623900 1.832100
-4.591100 1.627600
-4.558300 2.279900
-4.525500 2.300700
-4.492800 2.477200
-4.460000 4.421600
-4.427200 3.415100
-4.394400 3.615800
-4.361700 3.802700
-4.328900 3.673900
-4.296100 3.675600
-4.263300 3.756900
-4.230600 4.073600
-4.197800 2.994300
-4.165000 3.348600
-4.132200 2.949300
-4.099500 2.734500
-4.066700 2.995200
-4.033900 2.280800
-4.001100 1.999500
-3.968400 1.780500
-3.935600 1.475400
-3.902800 1.331100
-3.870000 1.199800
-3.837300 1.028300
-3.804500 0.891500
-3.771700 0.795000
-3.738900 0.707700
-3.706200 0.624000
-3.673400 0.558000
-3.640600 0.502500
-3.607800 0.372100
-3.575100 0.278500
-3.542300 0.169000
-3.509500 0.000000
-3.476700 0.000000
-3.444000 0.000000
-3.411200 0.000000
-3.378400 0.000000
-3.345600 0.000000
-3.312900 0.000000
-3.280100 0.000000
-3.247300 0.000000
-3.214500 0.000000
-3.181800 0.000000
-3.149000 0.000000
-3.116200 0.000000
-3.083400 0.000000
-3.050700 0.000000
-3.017900 0.000000
-2.985100 0.000000
-2.952300 0.000000
-2.919600 0.000000
-2.886800 0.000000
-2.854000 0.000000
-2.821200 0.000000
-2.788500 0.000000
-2.755700 0.000000
-2.722900 0.000000
-2.690100 0.000000
-2.657400 0.000000
-2.624600 0.000000
-2.591800 0.000000
-2.559000 0.000000
-2.526300 0.000000
-2.493500 0.000000
-2.460700 0.000000
-2.427900 0.000000
-2.395200 0.000000
-2.362400 0.000000
-2.329600 0.000000
-2.296800 0.000000
-2.264100 0.000000
-2.231300 0.000000
-2.198500 0.000000
-2.165800 0.000000
-2.133000 0.000000
-2.100200 0.000000
-2.067400 0.000000
-2.034700 0.000000
-2.001900 0.000000
-1.969100 0.000000
-1.936300 0.000000
-1.903600 0.000000
-1.870800 0.000000
-1.838000 0.000000
-1.805200 0.000000
-1.772500 0.000000
-1.739700 0.000000
-1.706900 0.000000
-1.674100 0.000000
-1.641400 0.000000
-1.608600 0.000000
-1.575800 0.000000
-1.543000 0.000000
-1.510300 0.000000
-1.477500 0.000000
-1.444700 0.000000
-1.411900 0.000000
-1.379200 0.000000
-1.346400 0.000000
-1.313600 0.000000
-1.280800 0.000000
-1.248100 0.000000
-1.215300 0.000000
-1.182500 0.000000
-1.149700 0.000000
-1.117000 0.000000
-1.084200 0.000000
-1.051400 0.000000
-1.018600 0.000000
-0.985900 0.000000
-0.953100 0.000000
-0.920300 0.000000
-0.887500 0.000000
-0.854800 0.000000
-0.822000 0.000000
-0.789200 0.000000
-0.756400 0.000000
-0.723700 0.000000
-0.690900 0.000000
-0.658100 0.000000
-0.625300 0.000000
-0.592600 0.000000
-0.559800 0.000000
-0.527000 0.000000
-0.494200 0.000000
-0.461500 0.000000
-0.428700 0.000000
-0.395900 0.000000
-0.363100 0.000000
-0.330400 0.000000
-0.297600 0.000000
-0.264800 0.000000
-0.232000 0.000000
-0.199300 1.083600
-0.166500 1.343300
-0.133700 0.969700
-0.100900 1.032600
-0.068200 1.088000
-0.035400 1.116800
-0.002600 1.068400
0.030200 0.975300
0.062900 0.986100
0.095700 1.177400
0.128500 1.240000
0.161300 1.384100
0.194000 1.479000
0.226800 1.527400
0.259600 1.614900
0.292400 1.682100
0.325100 1.715300
0.357900 1.769800
0.390700 1.798700
0.423500 1.877400
0.456200 1.961000
0.489000 2.106400
0.521800 2.276800
0.554600 2.662500
0.587300 2.945200
0.620100 3.042500
0.652900 2.895800
0.685700 2.551000
0.718400 2.494400
0.751200 2.444300
0.784000 2.502300
0.816800 2.670000
0.849500 2.747000
0.882300 2.643000
0.915100 2.588600
0.947900 2.499000
0.980600 2.458600
1.013400 2.424700
1.046200 2.330800
1.079000 2.242000
1.111700 2.213100
1.144500 2.266100
1.177300 2.215000
1.210100 2.171600
1.242800 2.064700
1.275600 2.063600
1.308400 2.033800
1.341200 2.799700
1.373900 1.350300
1.406700 1.309700
1.439500 1.361300
1.472300 1.155400
1.505000 1.085500
1.537800 0.951300
1.570600 0.907200
1.603400 0.863300
1.636100 0.816200
1.668900 0.739700
1.701700 0.703300
1.734500 0.670300
1.767200 0.640000
1.800000 0.617100
1.832800 0.595300
1.865600 0.574600
1.898300 0.556300
1.931100 0.538300
1.963900 0.532100
1.996700 0.528400
2.029400 0.451100
2.062200 0.431600
2.095000 0.413100
2.127800 0.486200
2.160500 0.519200
2.193300 0.562800
2.226100 0.619000
2.258900 0.651800
2.291600 0.695200
2.324400 0.742900
2.357200 0.795100
2.390000 0.811600
2.422700 0.799800
2.455500 0.796600
2.488300 0.802900
2.521100 0.835700
2.553800 0.887700
2.586600 0.916400
2.619400 0.975400
2.652200 0.968300
2.684900 0.956400
2.717700 1.000700
2.750500 1.028800
2.783300 1.057500
2.816000 1.069600
2.848800 1.058500
2.881600 1.087000
2.914400 1.192800
2.947100 1.158000
2.979900 1.248400
3.012700 1.326100
3.045500 1.410000
3.078200 1.503000
3.111000 1.602100
3.143800 1.642900
3.176600 1.709400
3.209300 1.758100
3.242100 1.796500
3.274900 1.847000
3.307700 1.927200
3.340400 2.027400
3.373200 2.133700
3.406000 2.229700
3.438800 2.347500
3.471500 2.482500
3.504300 2.617900
3.537100 2.771400
3.569900 2.955400
3.602600 2.715400
3.635400 2.613300
3.668200 2.553800
3.701000 2.592600
3.733700 2.605700
3.766500 2.589300
3.799300 2.643800
3.832100 2.572600
3.864800 2.495800
3.897600 2.678100
3.930400 2.575300
3.963200 2.700700
3.995900 2.601200
4.028700 2.403500
4.061500 2.173900
4.094300 2.302400
4.127000 2.678100
4.159800 3.060400
4.192600 2.639500
4.225400 2.638900
4.258100 2.625700
4.290900 2.592700
4.323700 2.454600
4.356500 2.417700
4.389200 2.428500
4.422000 2.679100
4.454800 2.908200
4.487600 3.264200
4.520300 4.253900
4.553100 3.226700
4.585900 3.040900
4.618700 2.789200
4.651400 2.383100
4.684200 2.355800
4.717000 2.309300
4.749800 2.325100
4.782500 2.039200
4.815300 2.342400
4.848100 2.789100
4.880900 3.031100
4.913600 3.383900
4.946400 3.772700
4.979200 3.698500
5.012000 3.125000
5.044700 2.657700
5.077500 2.374600
5.110300 2.203000
5.143100 2.093000
5.175800 2.008300
5.208600 1.945900
5.241400 1.908400
5.274200 1.882800
5.306900 1.873700
5.339700 1.877700
5.372500 1.920800
5.405300 2.019200
5.438000 2.171900
5.470800 2.345600
5.503600 2.531100
5.536400 2.767900
5.569100 3.249700
5.601900 3.777700
5.634700 4.469500
5.667500 4.182300
5.700200 3.742500
5.733000 3.288400
5.765800 2.704800
5.798600 2.251000
5.831300 2.003600
5.864100 1.675700
5.896900 1.269500
5.929700 0.811200
5.962400 0.539000
5.995200 1.432500
6.028000 0.560700
6.060800 0.535100
6.093500 0.511800
6.126300 0.611600
6.159100 0.701000
6.191900 0.804500
6.224600 0.921500
6.257400 1.413800
6.290200 1.231300
6.323000 1.020100
6.355700 1.108100
6.388500 1.143200
6.421300 1.173700
6.454100 1.199500
6.486800 1.220700
6.519600 1.243200
6.552400 1.486000
6.585200 1.434600
6.617900 1.584800
6.650700 1.749900
6.683500 1.851000
6.716300 1.949400
6.749000 2.047200
6.781800 2.145900
6.814600 2.259200
6.847400 2.440800
6.880100 2.403500
6.912900 2.602900
6.945700 2.812400
6.978500 2.324700
7.011200 2.181700
7.044000 2.003500
7.076800 1.842500
7.109600 1.757700
7.142300 1.744300
7.175100 1.691200
7.207900 1.706400
7.240700 1.725100
7.273400 1.750000
7.306200 1.791700
7.339000 1.811400
7.371800 1.844600
7.404500 2.004800
7.437300 2.090100
7.470100 2.207000
7.502900 2.383700
7.535600 2.573600
7.568400 2.641100
7.601200 2.873500
7.634000 3.165400
7.666700 3.267000
7.699500 3.410100
7.732300 3.092000
7.765100 2.807600
7.797800 2.545300
7.830600 2.264100
7.863400 1.795600
7.896200 1.599200
7.928900 1.413700
7.961700 1.249600
7.994500 1.301300
8.027300 1.302200
8.060000 1.208700
8.092800 2.285800
8.125600 2.889600
8.158400 2.561200
8.191100 2.827200
8.223900 3.499100
8.256700 2.973500
8.289500 2.986700
8.322200 3.381200
8.355000 3.643700
8.387800 3.219600
8.420600 3.002000
8.453300 2.561600
8.486100 2.337000
8.518900 2.264800
8.551700 2.137300
8.584400 2.147200
8.617200 2.636300
8.650000 3.125100
8.682800 3.566900
8.715500 3.772200
8.748300 3.877900
8.781100 3.609600
8.813900 3.608900
8.846600 4.261900
8.879400 3.845900
8.912200 3.429800
8.945000 3.154200
8.977700 2.728600
9.010500 1.913500
9.043300 1.845000
9.076100 1.928700
9.108800 2.017400
9.141600 2.056900
9.174400 2.205500
9.207200 2.588000
9.239900 3.261400
9.272700 3.443200
9.305500 4.837300
9.338300 4.350800
9.371000 3.798600
9.403800 3.460500
9.436600 3.243200
9.469400 3.243800
9.502100 2.999400
9.534900 2.957900
9.567700 2.807500
9.600500 2.765300
9.633200 2.753500
9.666000 2.975700
9.698800 3.216100
9.731600 3.318800
9.764300 3.338000
9.797100 3.238800
9.829900 3.267300
9.862700 3.262200
9.895400 3.235200
9.928200 3.187300
9.961000 3.116100
9.993800 2.999600
10.026500 2.917200
10.059300 2.809500
10.092100 2.773700
10.124900 2.519300
10.157600 2.414500
10.190400 2.325900
10.223200 2.336400
10.256000 2.361900
10.288700 2.475200
10.321500 2.423400
10.354300 2.776300
10.387100 2.431300
10.419800 2.368400
10.452600 2.305100
10.485400 2.282900
10.518200 2.282700
10.550900 2.525100
10.583700 2.320800
10.616500 2.266500
10.649300 2.213100
10.682000 2.302200
10.714800 2.357200
10.747600 2.417000
10.780400 2.493900
10.813100 2.496400
10.845900 2.486600
10.878700 2.468000
10.911500 2.461100
10.944200 2.443300
10.977000 2.552500
11.009800 2.584500
11.042600 2.661000
11.075300 2.664500
11.108100 2.695000
11.140900 2.748000
11.173700 2.625800
11.206400 2.525200
11.239200 2.442300
11.272000 2.381700
11.304800 2.272600
11.337500 2.160100
11.370300 2.160800
11.403100 2.010500
11.435900 1.944600
11.468600 1.879700
11.501400 1.777500
11.534200 1.747600
11.567000 1.744900
11.599700 1.745600
11.632500 1.663200
11.665300 1.613600
11.698100 1.534900
11.730800 1.478400
11.763600 1.536800
11.796400 1.408600
11.829200 1.433900
11.861900 1.502700
11.894700 1.593800
11.927500 1.737200
11.960300 2.098400
11.993000 2.490000
12.025800 2.647300
12.058600 2.823100
12.091400 3.066300
12.124100 3.353100
12.156900 4.062000
12.189700 4.609400
12.222500 3.624500
12.255200 3.234300
12.288000 2.666400
12.320800 2.301200
12.353600 2.093900
12.386300 1.907500
12.419100 1.728400
12.451900 1.638400
12.484700 1.649900
12.517400 1.693100
12.550200 1.657800
12.583000 1.608500
12.615800 1.668700
12.648500 1.690300
12.681300 2.060700
12.714100 3.222700
12.746900 2.022400
12.779600 1.941100
12.812400 1.746600
12.845200 1.607100
12.878000 1.475400
12.910700 1.402300
12.943500 1.190600
12.976300 1.095100
13.009100 1.094700
13.041800 1.152800
13.074600 1.189000
13.107400 1.214300
13.140200 1.260500
13.172900 1.338700
13.205700 1.453500
13.238500 1.567000
13.271300 1.666700
13.304000 1.676200
13.336800 1.744800
13.369600 2.088500
13.402400 2.244200
13.435100 2.283200
13.467900 2.457700
13.500700 2.419700
13.533500 2.416200
13.566200 2.416600
13.599000 2.393500
13.631800 2.246000
13.664600 2.204000
13.697300 2.202200
13.730100 2.668600
13.762900 2.543600
13.795700 2.689800
13.828400 2.781200
13.861200 2.873000
13.894000 2.860200
13.926800 2.805600
13.959500 2.889000
13.992300 3.002800
14.025100 3.073900
14.057900 3.771700
14.090600 3.523100
14.123400 3.716700
14.156200 3.885000
14.189000 4.156900
14.221700 4.168600
14.254500 4.109400
14.287300 4.325800
14.320100 4.254500
14.352800 4.326700
14.385600 4.043700
14.418400 3.896200
14.451100 3.860100
14.483900 3.962100
14.516700 4.154000
14.549500 4.018400
14.582200 4.143700
14.615000 4.206800
14.647800 4.252900
14.680600 3.974900
14.713300 3.743400
14.746100 3.716100
14.778900 4.048400
14.811700 3.473300
14.844400 3.165500
14.877200 2.997500
14.910000 2.785300
14.942800 2.918100
14.975500 3.051700
15.008300 3.907600
15.041100 4.169900
15.073900 4.913200
15.106600 4.955200
15.139400 4.409100
15.172200 4.021600
15.205000 4.003100
15.237700 4.007100
15.270500 4.154100
15.303300 4.062700
15.336100 3.988500
15.368800 3.597100
15.401600 3.384200
15.434400 3.203200
15.467200 3.062800
15.499900 2.928000
15.532700 2.705300
15.565500 2.773400
15.598300 2.783900
15.631000 2.929800
15.663800 3.022400
15.696600 2.755000
15.729400 2.678800
15.762100 2.597100
15.794900 2.600900
15.827700 2.567700
15.860500 2.585400
15.893200 2.604800
15.926000 2.989100
15.958800 3.100100
15.991600 3.109300
16.024300 3.138100
16.057100 3.137800
16.089900 3.203900
16.122700 3.266100
16.155400 3.364300
16.188200 3.827700
16.221000 4.009800
16.253800 3.999100
16.286500 3.435200
16.319300 3.408800
16.352100 3.319400
16.384900 3.319900
16.417600 3.292600
16.450400 2.921800
16.483200 2.756400
16.516000 2.697200
16.548700 2.777300
16.581500 2.802500
16.614300 2.760600
16.647100 2.962600
16.679800 3.036000
16.712600 3.046700
16.745400 3.227700
16.778200 2.962700
16.810900 2.942500
16.843700 2.903900
16.876500 2.902200
16.909300 2.941300
16.942000 2.933800
16.974800 3.031300
17.007600 3.202700
17.040400 3.518700
17.073100 4.622300
17.105900 4.578900
17.138700 4.098600
17.171500 4.014600
17.204200 3.827000
17.237000 3.621600
17.269800 3.503000
17.302600 4.309600
17.335300 3.016000
17.368100 3.179400
17.400900 3.432600
17.433700 3.674700
17.466400 3.955400
17.499200 4.147900
17.532000 4.516300
17.564800 4.819800
17.597500 4.749800
17.630300 4.401600
17.663100 3.963200
17.695900 4.033000
17.728600 4.336000
17.761400 4.525300
17.794200 5.152500
17.827000 5.479800
17.859700 5.520000
17.892500 5.371900
17.925300 5.092900
17.958100 4.569400
17.990800 4.422000
18.023600 4.156100
18.056400 3.998700
18.089200 3.777700
18.121900 3.663800
18.154700 3.328400
18.187500 3.191300
18.220300 3.086900
18.253000 3.065700
18.285800 3.208700
18.318600 3.379100
18.351400 3.599000
18.384100 4.010700
18.416900 4.337300
18.449700 4.824400
18.482500 4.607400
18.515200 4.414400
18.548000 4.481100
18.580800 4.355600
18.613600 4.400800
18.646300 4.146600
18.679100 4.170900
18.711900 4.487000
18.744700 4.785900
18.777400 5.369600
18.810200 5.627300
18.843000 5.819600
18.875800 4.921600
18.908500 4.605000
18.941300 4.868200
18.974100 4.829900
19.006900 4.849700
19.039600 5.654900
19.072400 5.045200
19.105200 4.912200
19.138000 4.536700
19.170700 4.465100
19.203500 4.282800
19.236300 4.331200
19.269100 4.207900
19.301800 3.771700
19.334600 3.619200
19.367400 3.539400
19.400200 3.480100
19.432900 3.635600
19.465700 3.429900
19.498500 3.400700
19.531300 3.476000
19.564000 3.471700
19.596800 3.455200
19.629600 3.498300
19.662400 3.497000
19.695100 3.515600
19.727900 3.564200
19.760700 3.536200
19.793500 3.638200
19.826200 3.741800
19.859000 3.910000
19.891800 3.917100
19.924600 4.149200
19.957300 5.425100
19.990100 4.674400
20.022900 4.828600
20.055700 4.554300
20.088400 4.123000
20.121200 3.961700
20.154000 3.791400
20.186800 3.888300
20.219500 3.914100
20.252300 3.931800
20.285100 4.091800
20.317900 4.231500
20.350600 4.404300
20.383400 5.167500
20.416200 4.149400
20.449000 4.097800
20.481700 4.069000
20.514500 4.174600
20.547300 4.231700
20.580100 4.349700
20.612800 4.314900
20.645600 4.178600
20.678400 4.068700
20.711200 3.902100
20.743900 3.785400
20.776700 3.743100
20.809500 4.073100
20.842300 4.340800
20.875000 4.245300
20.907800 4.404600
20.940600 4.436500
20.973400 4.871000
21.006100 5.087800
21.038900 5.190700
21.071700 5.227400
21.104500 5.268400
21.137200 4.689700
21.170000 4.732300
21.202800 5.089500
21.235600 4.831900
21.268300 4.667700
21.301100 4.725100
21.333900 4.787200
21.366700 4.785900
21.399400 4.937400
21.432200 4.882400
21.465000 5.186000
21.497800 4.961000
21.530500 4.922100
21.563300 5.177700
21.596100 5.354500
21.628900 5.283400
21.661600 5.039800
21.694400 4.860900
21.727200 4.758500
21.760000 4.753700
21.792700 5.100500
21.825500 5.181900
21.858300 5.260500
21.891100 5.149100
21.923800 5.122900
21.956600 5.202200
21.989400 5.050300
22.022200 5.057200
22.054900 4.933000
22.087700 4.940000
22.120500 4.930300
22.153300 4.993300
22.186000 5.222600
22.218800 5.206800
22.251600 5.002200
22.284400 4.921900
22.317100 4.937100
22.349900 4.607600
22.382700 4.565000
22.415500 4.392800
22.448200 4.323300
22.481000 4.273400
22.513800 4.537500
22.546600 4.540000
22.579300 4.887200
22.612100 4.645500
22.644900 4.868000
22.677700 4.801700
22.710400 5.055000
22.743200 5.037500
22.776000 4.840300
22.808800 5.012600
22.841500 5.259000
22.874300 5.544900
22.907100 5.172200
