set title 'mp-1184904 - Density of States'
set xlabel 'Energy (eV)'
set ylabel 'DOS (states/eV)'
set grid
set xrange [-10:10]
set yrange [0:109.464]
set xzeroaxis lt -1
set terminal png size 800,600
set output 'mp-1184904_dos_gnuplot.png'
plot '-' using 1:2 with lines title 'DOS'
-10.252600 0.000000
-10.233500 0.000000
-10.214500 0.000000
-10.195400 0.000000
-10.176300 0.000000
-10.157200 0.000000
-10.138100 0.000000
-10.119000 0.000000
-10.100000 0.000000
-10.080900 0.000000
-10.061800 0.000000
-10.042700 0.000000
-10.023600 0.000000
-10.004500 0.000000
-9.985400 0.000000
-9.966400 0.000000
-9.947300 0.000000
-9.928200 0.000000
-9.909100 0.000000
-9.890000 0.000000
-9.870900 0.000000
-9.851900 0.000000
-9.832800 0.000000
-9.813700 0.000000
-9.794600 0.000000
-9.775500 0.000000
-9.756400 0.000000
-9.737400 0.000000
-9.718300 0.000000
-9.699200 0.000000
-9.680100 0.000000
-9.661000 0.000000
-9.641900 0.000000
-9.622900 0.000000
-9.603800 0.000000
-9.584700 0.000000
-9.565600 0.000000
-9.546500 0.000000
-9.527400 0.000000
-9.508400 0.000000
-9.489300 0.000000
-9.470200 0.000000
-9.451100 0.000000
-9.432000 0.000000
-9.412900 0.000000
-9.393900 0.000000
-9.374800 0.000000
-9.355700 0.000000
-9.336600 0.000000
-9.317500 0.000000
-9.298400 0.000000
-9.279400 0.000000
-9.260300 0.000000
-9.241200 0.000000
-9.222100 0.000000
-9.203000 0.000000
-9.183900 0.000000
-9.164800 0.000000
-9.145800 0.000000
-9.126700 0.000000
-9.107600 0.000000
-9.088500 0.000000
-9.069400 0.000000
-9.050300 0.000000
-9.031300 0.000000
-9.012200 0.000000
-8.993100 0.000000
-8.974000 0.000000
-8.954900 0.000000
-8.935800 0.000000
-8.916800 0.000000
-8.897700 0.000000
-8.878600 0.000000
-8.859500 0.000000
-8.840400 0.000000
-8.821300 0.000000
-8.802300 0.000000
-8.783200 0.000000
-8.764100 0.000000
-8.745000 0.000000
-8.725900 0.000000
-8.706800 0.000000
-8.687800 0.000000
-8.668700 0.000000
-8.649600 0.000200
-8.630500 0.002000
-8.611400 0.013800
-8.592300 0.073900
-8.573300 0.318200
-8.554200 1.126400
-8.535100 3.370900
-8.516000 8.743900
-8.496900 19.861300
-8.477800 39.091400
-8.458800 65.078900
-8.439700 89.362700
-8.420600 99.512700
-8.401500 89.864500
-8.382400 68.493200
-8.363300 50.409100
-8.344200 44.631700
-8.325200 49.695100
-8.306100 59.086300
-8.287000 67.504200
-8.267900 72.571000
-8.248800 73.688700
-8.229700 71.158200
-8.210700 66.307800
-8.191600 61.452100
-8.172500 58.959700
-8.153400 60.119900
-8.134300 64.695600
-8.115200 71.271800
-8.096200 77.857300
-8.077100 82.267200
-8.058000 82.586700
-8.038900 78.366000
-8.019800 71.773800
-8.000700 66.383300
-7.981700 63.647700
-7.962600 61.130700
-7.943500 54.954300
-7.924400 43.644200
-7.905300 29.456200
-7.886200 16.439300
-7.867200 7.428100
-7.848100 2.672600
-7.829000 0.756000
-7.809900 0.166500
-7.790800 0.028400
-7.771700 0.003700
-7.752700 0.000400
-7.733600 0.000000
-7.714500 0.000000
-7.695400 0.000000
-7.676300 0.000000
-7.657200 0.000000
-7.638200 0.000000
-7.619100 0.000000
-7.600000 0.000000
-7.580900 0.000000
-7.561800 0.000000
-7.542700 0.000000
-7.523600 0.000000
-7.504600 0.000000
-7.485500 0.000000
-7.466400 0.000000
-7.447300 0.000000
-7.428200 0.000000
-7.409100 0.000000
-7.390100 0.000000
-7.371000 0.000000
-7.351900 0.000000
-7.332800 0.000000
-7.313700 0.000000
-7.294600 0.000000
-7.275600 0.000000
-7.256500 0.000000
-7.237400 0.000000
-7.218300 0.000000
-7.199200 0.000000
-7.180100 0.000000
-7.161100 0.000000
-7.142000 0.000000
-7.122900 0.000000
-7.103800 0.000000
-7.084700 0.000000
-7.065600 0.000000
-7.046600 0.000000
-7.027500 0.000000
-7.008400 0.000000
-6.989300 0.000000
-6.970200 0.000000
-6.951100 0.000000
-6.932100 0.000000
-6.913000 0.000000
-6.893900 0.000000
-6.874800 0.000000
-6.855700 0.000000
-6.836600 0.000000
-6.817600 0.000000
-6.798500 0.000000
-6.779400 0.000000
-6.760300 0.000000
-6.741200 0.000000
-6.722100 0.000000
-6.703000 0.000000
-6.684000 0.000000
-6.664900 0.000000
-6.645800 0.000000
-6.626700 0.000000
-6.607600 0.000000
-6.588500 0.000000
-6.569500 0.000000
-6.550400 0.000000
-6.531300 0.000000
-6.512200 0.000000
-6.493100 0.000000
-6.474000 0.000000
-6.455000 0.000000
-6.435900 0.000000
-6.416800 0.000000
-6.397700 0.000000
-6.378600 0.000000
-6.359500 0.000000
-6.340500 0.000000
-6.321400 0.000000
-6.302300 0.000000
-6.283200 0.000000
-6.264100 0.000000
-6.245000 0.000000
-6.226000 0.000000
-6.206900 0.000000
-6.187800 0.000000
-6.168700 0.000000
-6.149600 0.000000
-6.130500 0.000000
-6.111500 0.000000
-6.092400 0.000000
-6.073300 0.000000
-6.054200 0.000000
-6.035100 0.000000
-6.016000 0.000000
-5.997000 0.000000
-5.977900 0.000000
-5.958800 0.000000
-5.939700 0.000000
-5.920600 0.000000
-5.901500 0.000000
-5.882400 0.000000
-5.863400 0.000000
-5.844300 0.000000
-5.825200 0.000000
-5.806100 0.000000
-5.787000 0.000000
-5.767900 0.000000
-5.748900 0.000000
-5.729800 0.000000
-5.710700 0.000000
-5.691600 0.000000
-5.672500 0.000000
-5.653400 0.000000
-5.634400 0.000000
-5.615300 0.000000
-5.596200 0.000000
-5.577100 0.000000
-5.558000 0.000000
-5.538900 0.000000
-5.519900 0.000000
-5.500800 0.000000
-5.481700 0.000000
-5.462600 0.000000
-5.443500 0.000000
-5.424400 0.000000
-5.405400 0.000000
-5.386300 0.000000
-5.367200 0.000000
-5.348100 0.000000
-5.329000 0.000000
-5.309900 0.000000
-5.290900 0.000000
-5.271800 0.000000
-5.252700 0.000000
-5.233600 0.000000
-5.214500 0.000000
-5.195400 0.000000
-5.176400 0.000000
-5.157300 0.000000
-5.138200 0.000000
-5.119100 0.000000
-5.100000 0.000000
-5.080900 0.000000
-5.061800 0.000000
-5.042800 0.000000
-5.023700 0.000000
-5.004600 0.000000
-4.985500 0.000000
-4.966400 0.000000
-4.947300 0.000000
-4.928300 0.000000
-4.909200 0.000000
-4.890100 0.000000
-4.871000 0.000000
-4.851900 0.000000
-4.832800 0.000000
-4.813800 0.000000
-4.794700 0.000000
-4.775600 0.000000
-4.756500 0.000000
-4.737400 0.000000
-4.718300 0.000000
-4.699300 0.000000
-4.680200 0.000000
-4.661100 0.000000
-4.642000 0.000000
-4.622900 0.000000
-4.603800 0.000000
-4.584800 0.000000
-4.565700 0.000000
-4.546600 0.000000
-4.527500 0.000000
-4.508400 0.000000
-4.489300 0.000000
-4.470300 0.000000
-4.451200 0.000000
-4.432100 0.000000
-4.413000 0.000000
-4.393900 0.000000
-4.374800 0.000000
-4.355800 0.000000
-4.336700 0.000000
-4.317600 0.000000
-4.298500 0.000000
-4.279400 0.000000
-4.260300 0.000000
-4.241200 0.000000
-4.222200 0.000000
-4.203100 0.000000
-4.184000 0.000000
-4.164900 0.000000
-4.145800 0.000000
-4.126700 0.000000
-4.107700 0.000000
-4.088600 0.000000
-4.069500 0.000000
-4.050400 0.000000
-4.031300 0.000000
-4.012200 0.000000
-3.993200 0.000000
-3.974100 0.000000
-3.955000 0.000000
-3.935900 0.000000
-3.916800 0.000000
-3.897700 0.000000
-3.878700 0.000000
-3.859600 0.000000
-3.840500 0.000000
-3.821400 0.000000
-3.802300 0.000000
-3.783200 0.000000
-3.764200 0.000000
-3.745100 0.000000
-3.726000 0.000000
-3.706900 0.000000
-3.687800 0.000000
-3.668700 0.000000
-3.649700 0.000000
-3.630600 0.000000
-3.611500 0.000000
-3.592400 0.000000
-3.573300 0.000000
-3.554200 0.000000
-3.535200 0.000000
-3.516100 0.000000
-3.497000 0.000000
-3.477900 0.000000
-3.458800 0.000000
-3.439700 0.000000
-3.420600 0.000000
-3.401600 0.000000
-3.382500 0.000000
-3.363400 0.000000
-3.344300 0.000000
-3.325200 0.000000
-3.306100 0.000100
-3.287100 0.000400
-3.268000 0.001700
-3.248900 0.006000
-3.229800 0.016000
-3.210700 0.033700
-3.191600 0.057700
-3.172600 0.083700
-3.153500 0.106100
-3.134400 0.122000
-3.115300 0.138600
-3.096200 0.178800
-3.077100 0.259100
-3.058100 0.352100
-3.039000 0.393300
-3.019900 0.344300
-3.000800 0.235000
-2.981700 0.133000
-2.962600 0.088600
-2.943600 0.118600
-2.924500 0.213900
-2.905400 0.340100
-2.886300 0.445800
-2.867200 0.494400
-2.848100 0.492900
-2.829100 0.482800
-2.810000 0.503200
-2.790900 0.555100
-2.771800 0.596800
-2.752700 0.577000
-2.733600 0.481000
-2.714600 0.344100
-2.695500 0.220400
-2.676400 0.148000
-2.657300 0.137700
-2.638200 0.177300
-2.619100 0.241300
-2.600000 0.314800
-2.581000 0.406000
-2.561900 0.524700
-2.542800 0.657300
-2.523700 0.777900
-2.504600 0.868300
-2.485500 0.910600
-2.466500 0.883100
-2.447400 0.790900
-2.428300 0.672800
-2.409200 0.557000
-2.390100 0.443800
-2.371000 0.350600
-2.352000 0.326300
-2.332900 0.391300
-2.313800 0.493400
-2.294700 0.554000
-2.275600 0.550400
-2.256500 0.528500
-2.237500 0.535900
-2.218400 0.562400
-2.199300 0.560700
-2.180200 0.520200
-2.161100 0.495800
-2.142000 0.538300
-2.123000 0.617700
-2.103900 0.659900
-2.084800 0.640100
-2.065700 0.594500
-2.046600 0.567900
-2.027500 0.594000
-2.008500 0.692100
-1.989400 0.843200
-1.970300 0.997000
-1.951200 1.115000
-1.932100 1.174100
-1.913000 1.140900
-1.894000 0.999400
-1.874900 0.802100
-1.855800 0.639700
-1.836700 0.553400
-1.817600 0.521700
-1.798500 0.523000
-1.779400 0.551800
-1.760400 0.576100
-1.741300 0.550300
-1.722200 0.484100
-1.703100 0.445300
-1.684000 0.476300
-1.664900 0.549300
-1.645900 0.616400
-1.626800 0.672700
-1.607700 0.749500
-1.588600 0.873000
-1.569500 1.029100
-1.550400 1.146400
-1.531400 1.140000
-1.512300 1.002400
-1.493200 0.816400
-1.474100 0.678500
-1.455000 0.638200
-1.435900 0.680800
-1.416900 0.745600
-1.397800 0.797500
-1.378700 0.867600
-1.359600 0.972600
-1.340500 1.047900
-1.321400 1.047200
-1.302400 1.042100
-1.283300 1.105800
-1.264200 1.160500
-1.245100 1.071100
-1.226000 0.853600
-1.206900 0.669400
-1.187900 0.626500
-1.168800 0.687100
-1.149700 0.767200
-1.130600 0.844500
-1.111500 0.936200
-1.092400 1.019300
-1.073400 1.025100
-1.054300 0.914800
-1.035200 0.739300
-1.016100 0.608900
-0.997000 0.594300
-0.977900 0.667800
-0.958800 0.751000
-0.939800 0.800100
-0.920700 0.815500
-0.901600 0.809500
-0.882500 0.812100
-0.863400 0.864700
-0.844300 0.968700
-0.825300 1.083300
-0.806200 1.191000
-0.787100 1.306900
-0.768000 1.413000
-0.748900 1.454300
-0.729800 1.412500
-0.710800 1.324700
-0.691700 1.221600
-0.672600 1.103100
-0.653500 0.984800
-0.634400 0.916500
-0.615300 0.913100
-0.596300 0.897900
-0.577200 0.773600
-0.558100 0.544500
-0.539000 0.320900
-0.519900 0.217800
-0.500800 0.287700
-0.481800 0.509500
-0.462700 0.789400
-0.443600 1.009300
-0.424500 1.132200
-0.405400 1.230000
-0.386300 1.359500
-0.367300 1.463200
-0.348200 1.446800
-0.329100 1.301700
-0.310000 1.103200
-0.290900 0.936900
-0.271800 0.863200
-0.252800 0.905900
-0.233700 1.037300
-0.214600 1.202600
-0.195500 1.373600
-0.176400 1.537400
-0.157300 1.635800
-0.138200 1.592700
-0.119200 1.410900
-0.100100 1.176700
-0.081000 0.977200
-0.061900 0.863000
-0.042800 0.853500
-0.023700 0.918900
-0.004700 0.981300
0.014400 0.973900
0.033500 0.899900
0.052600 0.832200
0.071700 0.847700
0.090800 0.953600
0.109800 1.092800
0.128900 1.220000
0.148000 1.328500
0.167100 1.391700
0.186200 1.350700
0.205300 1.195700
0.224300 0.999000
0.243400 0.849300
0.262500 0.809700
0.281600 0.909100
0.300700 1.098900
0.319800 1.253200
0.338800 1.281900
0.357900 1.214400
0.377000 1.130800
0.396100 1.057700
0.415200 0.981100
0.434300 0.915200
0.453300 0.898200
0.472400 0.948500
0.491500 1.066600
0.510600 1.246400
0.529700 1.444300
0.548800 1.574100
0.567800 1.561700
0.586900 1.402800
0.606000 1.177900
0.625100 1.002800
0.644200 0.942300
0.663300 0.995600
0.682400 1.153600
0.701400 1.395600
0.720500 1.624800
0.739600 1.701500
0.758700 1.582600
0.777800 1.378000
0.796900 1.252200
0.815900 1.303800
0.835000 1.515900
0.854100 1.750000
0.873200 1.809600
0.892300 1.618500
0.911400 1.338800
0.930400 1.224900
0.949500 1.357800
0.968600 1.574500
0.987700 1.637800
1.006800 1.441400
1.025900 1.078800
1.044900 0.755000
1.064000 0.632800
1.083100 0.733800
1.102200 0.942700
1.121300 1.083800
1.140400 1.031100
1.159400 0.801200
1.178500 0.548700
1.197600 0.466700
1.216700 0.678200
1.235800 1.156600
1.254900 1.688500
1.273900 1.981900
1.293000 1.909500
1.312100 1.615900
1.331200 1.337000
1.350300 1.186000
1.369400 1.152500
1.388400 1.202500
1.407500 1.302600
1.426600 1.392200
1.445700 1.411600
1.464800 1.375700
1.483900 1.372000
1.503000 1.460100
1.522000 1.607300
1.541100 1.730900
1.560200 1.778100
1.579300 1.777200
1.598400 1.796600
1.617500 1.831000
1.636500 1.794900
1.655600 1.673100
1.674700 1.583300
1.693800 1.626900
1.712900 1.764800
1.732000 1.892200
1.751000 1.952600
1.770100 1.930300
1.789200 1.806200
1.808300 1.575800
1.827400 1.284500
1.846500 1.013200
1.865500 0.827600
1.884600 0.755700
1.903700 0.791700
1.922800 0.892000
1.941900 0.988800
1.961000 1.050800
1.980000 1.144700
1.999100 1.413100
2.018200 1.935800
2.037300 2.595300
2.056400 3.120700
2.075500 3.286800
2.094500 3.059900
2.113600 2.577700
2.132700 2.017400
2.151800 1.483800
2.170900 1.020800
2.190000 0.694000
2.209000 0.602000
2.228100 0.787700
2.247200 1.157900
2.266300 1.521400
2.285400 1.722700
2.304500 1.712100
2.323600 1.506100
2.342600 1.178100
2.361700 0.887400
2.380800 0.800300
2.399900 0.952100
2.419000 1.227200
2.438100 1.459700
2.457100 1.540500
2.476200 1.480700
2.495300 1.418300
2.514400 1.526100
2.533500 1.842200
2.552600 2.194100
2.571600 2.354100
2.590700 2.271600
2.609800 2.084800
2.628900 1.928100
2.648000 1.815900
2.667100 1.696700
2.686100 1.525200
2.705200 1.283900
2.724300 1.009900
2.743400 0.810100
2.762500 0.796400
2.781600 0.977800
2.800600 1.241000
2.819700 1.455000
2.838800 1.586600
2.857900 1.701200
2.877000 1.864000
2.896100 2.063500
2.915100 2.211100
2.934200 2.183000
2.953300 1.903100
2.972400 1.434400
2.991500 0.957100
3.010600 0.631100
3.029600 0.510000
3.048700 0.570200
3.067800 0.752100
3.086900 0.956500
3.106000 1.077800
3.125100 1.096700
3.144200 1.106600
3.163200 1.204300
3.182300 1.371900
3.201400 1.501400
3.220500 1.525700
3.239600 1.477400
3.258700 1.414600
3.277700 1.345500
3.296800 1.256300
3.315900 1.175400
3.335000 1.157900
3.354100 1.204700
3.373200 1.256600
3.392200 1.291800
3.411300 1.360400
3.430400 1.484100
3.449500 1.585600
3.468600 1.574300
3.487700 1.472000
3.506700 1.413400
3.525800 1.520700
3.544900 1.784900
3.564000 2.075700
3.583100 2.261100
3.602200 2.290600
3.621200 2.166900
3.640300 1.914800
3.659400 1.605300
3.678500 1.326700
3.697600 1.104000
3.716700 0.901400
3.735700 0.705400
3.754800 0.560900
3.773900 0.528400
3.793000 0.643800
3.812100 0.907800
3.831200 1.256600
3.850200 1.532800
3.869300 1.571600
3.888400 1.361600
3.907500 1.070400
3.926600 0.901500
3.945700 0.965200
3.964700 1.252100
3.983800 1.669600
4.002900 2.084200
4.022000 2.346400
4.041100 2.348900
4.060200 2.127500
4.079300 1.862000
4.098300 1.716100
4.117400 1.703200
4.136500 1.734400
4.155600 1.744300
4.174700 1.728400
4.193800 1.693500
4.212800 1.619600
4.231900 1.498800
4.251000 1.381300
4.270100 1.339200
4.289200 1.391500
4.308300 1.495200
4.327300 1.597300
4.346400 1.675600
4.365500 1.739200
4.384600 1.801400
4.403700 1.846100
4.422800 1.822700
4.441800 1.693000
4.460900 1.485600
4.480000 1.282000
4.499100 1.151600
4.518200 1.110500
4.537300 1.122600
4.556300 1.152400
4.575400 1.237800
4.594500 1.453700
4.613600 1.761600
4.632700 1.961500
4.651800 1.878700
4.670800 1.575200
4.689900 1.300400
4.709000 1.227300
4.728100 1.302900
4.747200 1.367300
4.766300 1.335200
4.785300 1.231500
4.804400 1.139300
4.823500 1.149600
4.842600 1.280800
4.861700 1.429800
4.880800 1.469600
4.899900 1.377600
4.918900 1.218400
4.938000 1.049500
4.957100 0.900300
4.976200 0.797800
4.995300 0.756700
5.014400 0.757100
5.033400 0.760100
5.052500 0.741000
5.071600 0.709600
5.090700 0.727800
5.109800 0.896600
5.128900 1.277200
5.147900 1.815100
5.167000 2.358300
5.186100 2.730700
5.205200 2.795600
5.224300 2.535800
5.243400 2.114700
5.262400 1.793100
5.281500 1.726800
5.300600 1.859800
5.319700 2.019400
5.338800 2.102400
5.357900 2.151000
5.376900 2.239500
5.396000 2.341600
5.415100 2.353900
5.434200 2.216600
5.453300 1.982900
5.472400 1.774100
5.491400 1.654400
5.510500 1.567800
5.529600 1.454200
5.548700 1.402300
5.567800 1.585500
5.586900 2.037300
5.605900 2.573500
5.625000 2.964300
5.644100 3.115400
5.663200 3.055500
5.682300 2.865200
5.701400 2.688800
5.720500 2.674100
5.739500 2.781300
5.758600 2.761400
5.777700 2.439100
5.796800 1.947500
5.815900 1.586700
5.835000 1.516800
5.854000 1.674300
5.873100 1.907600
5.892200 2.083600
5.911300 2.125000
5.930400 2.060400
5.949500 1.998300
5.968500 1.982600
5.987600 1.938500
6.006700 1.812200
6.025800 1.675900
6.044900 1.626200
6.064000 1.639600
6.083000 1.624800
6.102100 1.597800
6.121200 1.689700
6.140300 1.945800
6.159400 2.211600
6.178500 2.280200
6.197500 2.095000
6.216600 1.765500
6.235700 1.454700
6.254800 1.292600
6.273900 1.308200
6.293000 1.402300
6.312000 1.440200
6.331100 1.370700
6.350200 1.227200
6.369300 1.065300
6.388400 0.935700
6.407500 0.867900
6.426500 0.857200
6.445600 0.884400
6.464700 0.939000
6.483800 1.016700
6.502900 1.122700
6.522000 1.281800
6.541100 1.532300
6.560100 1.898000
6.579200 2.327100
6.598300 2.653900
6.617400 2.685300
6.636500 2.361800
6.655600 1.819100
6.674600 1.301400
6.693700 1.028900
6.712800 1.121900
6.731900 1.590200
6.751000 2.311000
6.770100 3.009100
6.789100 3.362300
6.808200 3.210400
6.827300 2.659200
6.846400 1.985300
6.865500 1.444100
6.884600 1.149100
6.903600 1.101400
6.922700 1.277300
6.941800 1.633700
6.960900 2.066200
6.980000 2.434400
6.999100 2.625800
7.018100 2.589000
7.037200 2.373600
7.056300 2.147300
7.075400 2.078100
7.094500 2.184200
7.113600 2.365200
7.132600 2.540500
7.151700 2.672500
7.170800 2.739900
7.189900 2.791000
7.209000 2.913000
7.228100 3.066700
7.247100 3.085900
7.266200 2.917400
7.285300 2.726400
7.304400 2.662300
7.323500 2.646100
7.342600 2.520600
7.361700 2.304700
7.380700 2.148000
7.399800 2.106900
7.418900 2.098300
7.438000 2.023500
7.457100 1.836200
7.476200 1.535500
7.495200 1.183200
7.514300 0.909500
7.533400 0.822500
7.552500 0.888200
7.571600 0.938900
7.590700 0.839000
7.609700 0.620000
7.628800 0.437400
7.647900 0.429500
7.667000 0.625300
7.686100 0.936000
7.705200 1.218800
7.724200 1.379200
7.743300 1.431900
7.762400 1.457600
7.781500 1.501900
7.800600 1.548100
7.819700 1.601000
7.838700 1.718500
7.857800 1.890600
7.876900 1.989300
7.896000 1.945100
7.915100 1.883800
7.934200 1.972700
7.953200 2.205600
7.972300 2.437500
7.991400 2.563300
8.010500 2.561200
8.029600 2.433000
8.048700 2.212000
8.067700 1.988500
8.086800 1.855900
8.105900 1.846200
8.125000 1.913700
8.144100 1.957300
8.163200 1.905700
8.182300 1.818100
8.201300 1.879800
8.220400 2.273200
8.239500 3.004600
8.258600 3.819400
8.277700 4.341500
8.296800 4.364500
8.315800 3.982800
8.334900 3.429800
8.354000 2.871400
8.373100 2.370200
8.392200 1.941700
8.411300 1.602000
8.430300 1.400200
8.449400 1.390500
8.468500 1.540200
8.487600 1.716100
8.506700 1.823500
8.525800 1.932300
8.544800 2.174700
8.563900 2.517700
8.583000 2.751600
8.602100 2.737400
8.621200 2.575100
8.640300 2.473700
8.659300 2.516000
8.678400 2.621600
8.697500 2.692500
8.716600 2.690700
8.735700 2.597300
8.754800 2.401700
8.773800 2.133100
8.792900 1.849700
8.812000 1.606800
8.831100 1.449300
8.850200 1.388700
8.869300 1.375800
8.888300 1.345700
8.907400 1.296200
8.926500 1.290700
8.945600 1.388900
8.964700 1.586600
8.983800 1.828400
9.002900 2.074400
9.021900 2.322600
9.041000 2.559300
9.060100 2.717400
9.079200 2.699100
9.098300 2.444300
9.117400 1.994700
9.136400 1.492600
9.155500 1.102000
9.174600 0.910300
9.193700 0.904000
9.212800 1.029900
9.231900 1.250200
9.250900 1.528000
9.270000 1.802500
9.289100 2.020500
9.308200 2.182900
9.327300 2.326900
9.346400 2.455900
9.365400 2.517400
9.384500 2.491700
9.403600 2.447300
9.422700 2.441600
9.441800 2.441500
9.460900 2.411500
9.479900 2.389100
9.499000 2.410100
9.518100 2.441300
9.537200 2.451000
9.556300 2.508500
9.575400 2.756600
9.594400 3.249300
9.613500 3.811100
9.632600 4.117100
9.651700 3.981500
9.670800 3.528300
9.689900 3.050200
9.708900 2.764500
9.728000 2.706900
9.747100 2.767800
9.766200 2.811500
9.785300 2.783900
9.804400 2.700900
9.823500 2.584300
9.842500 2.486000
9.861600 2.525900
9.880700 2.786000
9.899800 3.172700
9.918900 3.445300
9.938000 3.377500
9.957000 2.919800
9.976100 2.259100
9.995200 1.693500
