set title 'mp-1206375 - Density of States'
set xlabel 'Energy (eV)'
set ylabel 'DOS (states/eV)'
set grid
set xrange [-10:10]
set yrange [0:4.484]
set xzeroaxis lt -1
set terminal png size 800,600
set output 'mp-1206375_dos_gnuplot.png'
plot '-' using 1:2 with lines title 'DOS'
-25.945700 0.000000
-25.908800 0.000000
-25.871900 0.000000
-25.835000 0.000000
-25.798100 0.000000
-25.761100 0.000000
-25.724200 0.000000
-25.687300 0.000000
-25.650400 0.000000
-25.613500 0.000000
-25.576500 0.000000
-25.539600 0.000000
-25.502700 0.000000
-25.465800 0.000000
-25.428900 0.000000
-25.392000 0.000000
-25.355000 0.000000
-25.318100 0.000000
-25.281200 0.000000
-25.244300 0.000000
-25.207400 0.000000
-25.170400 0.000000
-25.133500 0.000000
-25.096600 0.000000
-25.059700 0.000000
-25.022800 0.000000
-24.985800 0.000000
-24.948900 0.000000
-24.912000 0.000000
-24.875100 0.000000
-24.838200 0.000000
-24.801300 0.000000
-24.764300 0.000000
-24.727400 0.000000
-24.690500 0.000000
-24.653600 0.000000
-24.616700 0.000000
-24.579700 0.000000
-24.542800 0.000000
-24.505900 0.000000
-24.469000 0.000000
-24.432100 0.000000
-24.395200 0.000000
-24.358200 0.000000
-24.321300 0.000000
-24.284400 0.000000
-24.247500 0.000000
-24.210600 0.000000
-24.173600 0.000000
-24.136700 0.000000
-24.099800 0.000000
-24.062900 0.000000
-24.026000 0.000000
-23.989000 0.000000
-23.952100 0.000000
-23.915200 0.000000
-23.878300 0.000000
-23.841400 0.000000
-23.804500 0.000000
-23.767500 0.000000
-23.730600 0.000000
-23.693700 0.000000
-23.656800 0.000000
-23.619900 0.000000
-23.582900 0.000000
-23.546000 0.000000
-23.509100 0.000000
-23.472200 0.000000
-23.435300 0.000000
-23.398300 0.000000
-23.361400 0.000000
-23.324500 0.000000
-23.287600 0.000000
-23.250700 0.000000
-23.213800 0.000000
-23.176800 0.000000
-23.139900 0.000000
-23.103000 0.000000
-23.066100 0.000000
-23.029200 0.000000
-22.992200 0.000000
-22.955300 0.000000
-22.918400 0.000000
-22.881500 0.000000
-22.844600 0.000000
-22.807700 0.000000
-22.770700 0.000000
-22.733800 0.000000
-22.696900 0.000000
-22.660000 0.000000
-22.623100 0.000000
-22.586100 8.044700
-22.549200 30.427600
-22.512300 25.135200
-22.475400 24.236300
-22.438500 8.199600
-22.401500 10.244500
-22.364600 15.676000
-22.327700 19.026900
-22.290800 15.226900
-22.253900 0.000000
-22.217000 0.000000
-22.180000 0.000000
-22.143100 0.000000
-22.106200 0.000000
-22.069300 0.000000
-22.032400 0.000000
-21.995400 0.000000
-21.958500 0.000000
-21.921600 0.000000
-21.884700 0.000000
-21.847800 0.000000
-21.810800 0.000000
-21.773900 0.000000
-21.737000 0.000000
-21.700100 0.000000
-21.663200 0.000000
-21.626300 0.000000
-21.589300 0.000000
-21.552400 0.000000
-21.515500 0.000000
-21.478600 0.000000
-21.441700 0.000000
-21.404700 0.000000
-21.367800 0.000000
-21.330900 0.000000
-21.294000 0.000000
-21.257100 0.000000
-21.220200 0.000000
-21.183200 0.000000
-21.146300 0.000000
-21.109400 0.000000
-21.072500 0.000000
-21.035600 0.000000
-20.998600 0.000000
-20.961700 0.000000
-20.924800 0.000000
-20.887900 0.000000
-20.851000 0.000000
-20.814000 0.000000
-20.777100 0.000000
-20.740200 0.000000
-20.703300 0.000000
-20.666400 0.000000
-20.629500 0.000000
-20.592500 0.000000
-20.555600 0.000000
-20.518700 0.000000
-20.481800 0.000000
-20.444900 0.000000
-20.407900 0.000000
-20.371000 0.000000
-20.334100 0.000000
-20.297200 0.000000
-20.260300 0.000000
-20.223300 0.000000
-20.186400 0.000000
-20.149500 0.000000
-20.112600 0.000000
-20.075700 0.000000
-20.038800 0.000000
-20.001800 0.000000
-19.964900 0.000000
-19.928000 0.000000
-19.891100 0.000000
-19.854200 0.000000
-19.817200 0.000000
-19.780300 0.000000
-19.743400 0.000000
-19.706500 0.000000
-19.669600 0.000000
-19.632700 0.000000
-19.595700 0.000000
-19.558800 0.000000
-19.521900 0.000000
-19.485000 0.000000
-19.448100 0.000000
-19.411100 0.000000
-19.374200 0.000000
-19.337300 0.000000
-19.300400 0.000000
-19.263500 0.000000
-19.226500 0.000000
-19.189600 0.000000
-19.152700 0.000000
-19.115800 0.000000
-19.078900 0.000000
-19.042000 0.000000
-19.005000 0.000000
-18.968100 0.000000
-18.931200 0.000000
-18.894300 0.000000
-18.857400 0.000000
-18.820400 0.000000
-18.783500 0.000000
-18.746600 0.000000
-18.709700 0.000000
-18.672800 0.000000
-18.635800 0.000000
-18.598900 0.000000
-18.562000 0.000000
-18.525100 0.000000
-18.488200 0.000000
-18.451300 0.000000
-18.414300 0.000000
-18.377400 0.000000
-18.340500 0.000000
-18.303600 0.000000
-18.266700 0.000000
-18.229700 0.000000
-18.192800 0.000000
-18.155900 0.000000
-18.119000 0.000000
-18.082100 0.000000
-18.045200 0.000000
-18.008200 0.000000
-17.971300 0.000000
-17.934400 0.000000
-17.897500 0.000000
-17.860600 0.000000
-17.823600 0.000000
-17.786700 0.000000
-17.749800 0.000000
-17.712900 0.000000
-17.676000 0.000000
-17.639000 0.000000
-17.602100 0.000000
-17.565200 0.000000
-17.528300 0.000000
-17.491400 0.000000
-17.454500 0.000000
-17.417500 0.000000
-17.380600 0.000000
-17.343700 0.000000
-17.306800 0.000000
-17.269900 0.000000
-17.232900 0.000000
-17.196000 0.000000
-17.159100 0.000000
-17.122200 0.000000
-17.085300 0.000000
-17.048300 0.000000
-17.011400 0.000000
-16.974500 0.000000
-16.937600 0.000000
-16.900700 0.000000
-16.863800 0.000000
-16.826800 0.000000
-16.789900 0.000000
-16.753000 0.000000
-16.716100 0.000000
-16.679200 0.000000
-16.642200 0.000000
-16.605300 0.000000
-16.568400 0.000000
-16.531500 0.000000
-16.494600 0.000000
-16.457700 0.000000
-16.420700 0.000000
-16.383800 0.000000
-16.346900 0.000000
-16.310000 0.000000
-16.273100 0.000000
-16.236100 0.000000
-16.199200 0.000000
-16.162300 0.000000
-16.125400 0.000000
-16.088500 0.000000
-16.051500 0.000000
-16.014600 0.000000
-15.977700 0.000000
-15.940800 0.000000
-15.903900 0.000000
-15.867000 0.000000
-15.830000 0.000000
-15.793100 0.000000
-15.756200 0.000000
-15.719300 0.000000
-15.682400 0.000000
-15.645400 0.000000
-15.608500 0.000000
-15.571600 0.000000
-15.534700 0.000000
-15.497800 0.000000
-15.460800 0.000000
-15.423900 0.000000
-15.387000 0.000000
-15.350100 0.000000
-15.313200 0.000000
-15.276300 0.000000
-15.239300 0.000000
-15.202400 0.000000
-15.165500 0.000000
-15.128600 0.000000
-15.091700 0.000000
-15.054700 0.000000
-15.017800 0.000000
-14.980900 0.000000
-14.944000 0.000000
-14.907100 0.000000
-14.870200 0.000000
-14.833200 0.000000
-14.796300 0.000000
-14.759400 0.000000
-14.722500 0.000000
-14.685600 0.000000
-14.648600 0.000000
-14.611700 0.000000
-14.574800 0.000000
-14.537900 0.000000
-14.501000 0.000000
-14.464000 0.000000
-14.427100 0.000000
-14.390200 0.000000
-14.353300 0.000000
-14.316400 0.000000
-14.279500 0.000000
-14.242500 0.000000
-14.205600 0.000000
-14.168700 0.000000
-14.131800 0.000000
-14.094900 0.000000
-14.057900 0.000000
-14.021000 0.000000
-13.984100 0.000000
-13.947200 0.000000
-13.910300 0.000000
-13.873300 0.000000
-13.836400 0.000000
-13.799500 0.000000
-13.762600 0.000000
-13.725700 0.000000
-13.688800 0.000000
-13.651800 0.000000
-13.614900 0.000000
-13.578000 0.000000
-13.541100 0.000000
-13.504200 0.000000
-13.467200 0.000000
-13.430300 0.000000
-13.393400 0.000000
-13.356500 0.000000
-13.319600 0.000000
-13.282700 0.000000
-13.245700 0.000000
-13.208800 0.000000
-13.171900 0.000000
-13.135000 0.000000
-13.098100 0.000000
-13.061100 0.000000
-13.024200 0.000000
-12.987300 0.000000
-12.950400 0.000000
-12.913500 0.000000
-12.876500 0.000000
-12.839600 0.000000
-12.802700 0.000000
-12.765800 0.000000
-12.728900 0.000000
-12.692000 0.000000
-12.655000 0.000000
-12.618100 0.000000
-12.581200 0.000000
-12.544300 0.000000
-12.507400 0.000000
-12.470400 0.000000
-12.433500 0.000000
-12.396600 0.000000
-12.359700 0.000000
-12.322800 0.000000
-12.285800 0.000000
-12.248900 0.000000
-12.212000 0.000000
-12.175100 0.000000
-12.138200 0.000000
-12.101300 0.000000
-12.064300 0.000000
-12.027400 0.000000
-11.990500 0.000000
-11.953600 0.000000
-11.916700 0.000000
-11.879700 0.000000
-11.842800 0.000000
-11.805900 0.000000
-11.769000 0.000000
-11.732100 0.000000
-11.695200 0.000000
-11.658200 0.000000
-11.621300 0.000000
-11.584400 0.000000
-11.547500 0.000000
-11.510600 0.000000
-11.473600 0.000000
-11.436700 0.000000
-11.399800 0.000000
-11.362900 0.000000
-11.326000 0.000000
-11.289000 0.000000
-11.252100 0.000000
-11.215200 0.000000
-11.178300 0.000000
-11.141400 0.000000
-11.104500 0.000000
-11.067500 0.000000
-11.030600 0.000000
-10.993700 0.000000
-10.956800 0.000000
-10.919900 0.000000
-10.882900 0.000000
-10.846000 0.000000
-10.809100 0.000000
-10.772200 0.000000
-10.735300 0.000000
-10.698300 0.000000
-10.661400 0.000000
-10.624500 0.000000
-10.587600 0.000000
-10.550700 0.000000
-10.513800 0.000000
-10.476800 0.000000
-10.439900 0.000000
-10.403000 0.000000
-10.366100 0.000000
-10.329200 0.000000
-10.292200 0.000000
-10.255300 0.000000
-10.218400 0.000000
-10.181500 0.000000
-10.144600 0.000000
-10.107700 0.000000
-10.070700 0.000000
-10.033800 0.000000
-9.996900 0.000000
-9.960000 0.000000
-9.923100 0.000000
-9.886100 0.000000
-9.849200 0.000000
-9.812300 0.000000
-9.775400 0.000000
-9.738500 0.000000
-9.701500 0.000000
-9.664600 0.000000
-9.627700 0.000000
-9.590800 0.000000
-9.553900 0.000000
-9.517000 0.000000
-9.480000 0.000000
-9.443100 0.000000
-9.406200 0.000000
-9.369300 0.000000
-9.332400 0.000000
-9.295400 0.000000
-9.258500 0.000000
-9.221600 0.000000
-9.184700 0.000000
-9.147800 0.000000
-9.110800 0.000000
-9.073900 0.000000
-9.037000 0.000000
-9.000100 0.000000
-8.963200 0.000000
-8.926300 0.000000
-8.889300 0.000000
-8.852400 0.000000
-8.815500 0.000000
-8.778600 0.000000
-8.741700 0.000000
-8.704700 0.000000
-8.667800 0.000000
-8.630900 0.000000
-8.594000 0.000000
-8.557100 0.000000
-8.520200 0.000000
-8.483200 0.000000
-8.446300 0.000000
-8.409400 0.000000
-8.372500 0.000000
-8.335600 0.000000
-8.298600 0.000000
-8.261700 0.000000
-8.224800 0.000000
-8.187900 0.000000
-8.151000 0.000000
-8.114000 0.000000
-8.077100 0.000000
-8.040200 0.000000
-8.003300 0.000000
-7.966400 0.000000
-7.929500 0.000000
-7.892500 0.000000
-7.855600 0.000000
-7.818700 0.000000
-7.781800 0.000000
-7.744900 0.000000
-7.707900 0.000000
-7.671000 0.000000
-7.634100 0.000000
-7.597200 0.000000
-7.560300 0.000000
-7.523300 0.000000
-7.486400 0.000000
-7.449500 0.000000
-7.412600 0.000000
-7.375700 0.000000
-7.338800 0.000000
-7.301800 0.000000
-7.264900 0.000000
-7.228000 0.000000
-7.191100 0.000000
-7.154200 0.000000
-7.117200 0.000000
-7.080300 0.000000
-7.043400 0.000000
-7.006500 0.000000
-6.969600 0.000000
-6.932700 0.000000
-6.895700 0.000000
-6.858800 0.000000
-6.821900 0.000000
-6.785000 0.000000
-6.748100 0.000000
-6.711100 0.000000
-6.674200 0.000000
-6.637300 0.000000
-6.600400 0.000000
-6.563500 0.000000
-6.526500 0.000000
-6.489600 0.000000
-6.452700 0.000000
-6.415800 0.000000
-6.378900 0.000000
-6.342000 0.000000
-6.305000 0.000000
-6.268100 0.000000
-6.231200 0.000000
-6.194300 0.000000
-6.157400 0.000000
-6.120400 0.004400
-6.083500 0.038000
-6.046600 0.087700
-6.009700 0.125500
-5.972800 0.133700
-5.935800 0.154500
-5.898900 0.173700
-5.862000 0.197400
-5.825100 0.222300
-5.788200 0.247700
-5.751300 0.270900
-5.714300 0.296500
-5.677400 0.335000
-5.640500 0.374400
-5.603600 0.400500
-5.566700 0.383500
-5.529700 0.384900
-5.492800 0.393500
-5.455900 0.401600
-5.419000 0.408900
-5.382100 0.414100
-5.345200 0.415300
-5.308200 0.414300
-5.271300 0.414000
-5.234400 0.415600
-5.197500 0.420200
-5.160600 0.425500
-5.123600 0.430900
-5.086700 0.436200
-5.049800 0.441500
-5.012900 0.446800
-4.976000 0.451500
-4.939000 0.456100
-4.902100 0.458600
-4.865200 0.462600
-4.828300 0.467300
-4.791400 0.472700
-4.754500 0.478400
-4.717500 0.484500
-4.680600 0.491200
-4.643700 0.498100
-4.606800 0.505100
-4.569900 0.512400
-4.532900 0.519800
-4.496000 0.527500
-4.459100 0.535200
-4.422200 0.543100
-4.385300 0.551100
-4.348300 0.560100
-4.311400 0.571300
-4.274500 0.583200
-4.237600 0.596000
-4.200700 0.609900
-4.163800 0.624700
-4.126800 0.640200
-4.089900 0.656800
-4.053000 0.675100
-4.016100 0.694900
-3.979200 0.716000
-3.942200 0.738600
-3.905300 0.763000
-3.868400 0.789300
-3.831500 0.821300
-3.794600 0.898400
-3.757700 1.037800
-3.720700 1.120100
-3.683800 1.134500
-3.646900 1.126600
-3.610000 1.139300
-3.573100 1.157400
-3.536100 1.178200
-3.499200 1.197900
-3.462300 1.197900
-3.425400 1.237600
-3.388500 1.342100
-3.351500 1.255600
-3.314600 1.054900
-3.277700 0.941500
-3.240800 0.892600
-3.203900 0.969100
-3.167000 1.026000
-3.130000 1.034300
-3.093100 1.031200
-3.056200 1.088400
-3.019300 1.106100
-2.982400 1.113900
-2.945400 1.132200
-2.908500 1.170300
-2.871600 1.241600
-2.834700 1.318500
-2.797800 1.429800
-2.760800 2.283700
-2.723900 3.886600
-2.687000 3.334300
-2.650100 2.921700
-2.613200 2.882600
-2.576300 2.992900
-2.539300 3.273000
-2.502400 3.509500
-2.465500 3.568900
-2.428600 4.076600
-2.391700 3.577100
-2.354700 3.371100
-2.317800 3.321600
-2.280900 3.255800
-2.244000 3.202000
-2.207100 3.284500
-2.170200 2.971700
-2.133200 2.437500
-2.096300 2.256900
-2.059400 1.958100
-2.022500 1.807400
-1.985600 1.729300
-1.948600 1.783300
-1.911700 1.666700
-1.874800 0.891200
-1.837900 0.898200
-1.801000 0.909800
-1.764000 0.924000
-1.727100 0.934600
-1.690200 0.950500
-1.653300 0.951400
-1.616400 0.956700
-1.579500 0.963700
-1.542500 0.978500
-1.505600 0.997100
-1.468700 1.020800
-1.431800 1.107900
-1.394900 1.325300
-1.357900 1.421000
-1.321000 1.389600
-1.284100 1.161600
-1.247200 1.092400
-1.210300 1.055600
-1.173300 1.044200
-1.136400 1.025900
-1.099500 0.974600
-1.062600 0.911500
-1.025700 0.818300
-0.988800 0.684100
-0.951800 0.546000
-0.914900 0.414200
-0.878000 0.337200
-0.841100 0.278000
-0.804200 0.252000
-0.767200 0.247500
-0.730300 0.242900
-0.693400 0.238400
-0.656500 0.233800
-0.619600 0.229300
-0.582700 0.223800
-0.545700 0.217000
-0.508800 0.209500
-0.471900 0.201400
-0.435000 0.192700
-0.398100 0.183000
-0.361100 0.173600
-0.324200 0.166300
-0.287300 0.160000
-0.250400 0.154600
-0.213500 0.150000
-0.176500 0.146900
-0.139600 0.144100
-0.102700 0.141300
-0.065800 0.138500
-0.028900 0.135700
0.008000 0.132900
0.045000 0.130100
0.081900 0.127300
0.118800 0.124500
0.155700 0.121700
0.192600 0.118900
0.229600 0.116100
0.266500 0.113300
0.303400 0.111000
0.340300 0.109900
0.377200 0.106400
0.414200 0.102100
0.451100 0.097100
0.488000 0.091700
0.524900 0.085100
0.561800 0.078600
0.598700 0.072000
0.635700 0.065500
0.672600 0.058900
0.709500 0.052400
0.746400 0.045800
0.783300 0.039300
0.820300 0.032700
0.857200 0.026200
0.894100 0.092600
0.931000 0.146000
0.967900 0.210400
1.004800 0.224100
1.041800 0.275400
1.078700 0.331600
1.115600 0.359400
1.152500 0.391800
1.189400 0.435900
1.226400 0.484100
1.263300 0.521500
1.300200 0.564200
1.337100 0.610500
1.374000 0.706900
1.411000 0.828800
1.447900 0.867900
1.484800 0.868400
1.521700 0.879400
1.558600 0.838900
1.595500 0.827000
1.632500 0.815100
1.669400 0.801200
1.706300 0.792100
1.743200 0.792200
1.780100 0.795100
1.817100 0.780100
1.854000 0.772100
1.890900 0.771600
1.927800 0.772400
1.964700 0.776800
2.001600 0.811700
2.038600 0.826500
2.075500 0.826800
2.112400 0.841200
2.149300 0.854900
2.186200 0.866500
2.223200 0.878700
2.260100 0.892000
2.297000 0.901700
2.333900 0.918800
2.370800 0.937500
2.407800 0.955700
2.444700 0.974100
2.481600 0.991700
2.518500 1.028000
2.555400 1.156900
2.592300 1.332700
2.629300 1.495500
2.666200 1.637900
2.703100 1.742100
2.740000 1.715600
2.776900 1.788100
2.813900 1.851600
2.850800 1.921000
2.887700 1.985200
2.924600 2.083600
2.961500 1.961500
2.998500 1.665100
3.035400 1.364600
3.072300 1.197000
3.109200 1.128700
3.146100 1.082200
3.183000 1.102100
3.220000 1.245600
3.256900 1.566100
3.293800 1.772100
3.330700 1.767700
3.367600 1.874700
3.404600 1.568200
3.441500 1.302000
3.478400 1.340900
3.515300 1.412300
3.552200 1.499600
3.589100 1.580900
3.626100 1.687000
3.663000 1.800800
3.699900 1.915500
3.736800 2.001100
3.773700 2.004300
3.810700 1.941500
3.847600 1.835000
3.884500 1.882000
3.921400 1.453800
3.958300 1.289200
3.995300 1.298500
4.032200 1.395700
4.069100 1.589900
4.106000 1.806100
4.142900 1.779100
4.179800 1.786600
4.216800 1.817600
4.253700 1.838900
4.290600 1.800800
4.327500 1.714800
4.364400 1.727400
4.401400 1.704500
4.438300 1.710900
4.475200 1.783500
4.512100 2.005000
4.549000 2.187100
4.586000 2.246200
4.622900 2.406700
4.659800 2.563100
4.696700 2.701900
4.733600 2.603900
4.770500 2.852600
4.807500 2.910000
4.844400 2.846000
4.881300 2.658300
4.918200 2.445300
4.955100 2.224300
4.992100 1.756700
5.029000 1.691100
5.065900 1.789600
5.102800 1.926500
5.139700 1.887300
5.176600 1.734600
5.213600 1.625500
5.250500 1.640400
5.287400 1.690200
5.324300 1.926300
5.361200 1.544100
5.398200 1.447400
5.435100 1.436900
5.472000 1.446400
5.508900 1.419100
5.545800 1.406400
5.582800 1.399500
5.619700 1.413000
5.656600 1.616400
5.693500 1.631600
5.730400 1.414600
5.767300 1.221600
5.804300 1.073900
5.841200 0.966500
5.878100 0.906100
5.915000 0.989600
5.951900 1.179100
5.988900 1.345700
6.025800 1.542500
6.062700 1.627700
6.099600 1.563100
6.136500 1.633100
6.173500 1.725600
6.210400 1.816500
6.247300 1.916500
6.284200 1.744900
6.321100 1.633600
6.358000 1.403200
6.395000 1.356300
6.431900 1.327200
6.468800 1.298900
6.505700 1.279800
6.542600 1.297000
6.579600 1.326100
6.616500 1.344800
6.653400 1.375700
6.690300 1.397400
6.727200 1.386300
6.764100 1.370200
6.801100 1.401700
6.838000 1.437200
6.874900 1.472000
6.911800 1.483800
6.948700 1.490600
6.985700 1.537800
7.022600 1.593200
7.059500 1.536600
7.096400 1.421300
7.133300 1.278000
7.170300 1.222300
7.207200 1.106200
7.244100 1.135900
7.281000 1.170000
7.317900 1.241800
7.354800 1.300600
7.391800 1.404800
7.428700 1.557300
7.465600 1.760100
7.502500 1.986200
7.539400 2.238900
7.576400 2.376700
7.613300 2.451400
7.650200 2.542500
7.687100 2.573400
7.724000 2.366500
7.761000 2.089100
7.797900 1.915700
7.834800 1.666500
7.871700 1.506600
7.908600 1.327900
7.945500 1.065700
7.982500 1.057700
8.019400 1.084400
8.056300 1.152200
8.093200 1.291200
8.130100 1.413100
8.167100 1.495900
8.204000 1.664900
8.240900 1.884200
8.277800 2.231800
8.314700 2.723800
8.351600 3.320500
8.388600 3.670500
8.425500 3.688700
8.462400 3.737600
8.499300 3.004700
8.536200 2.279900
8.573200 1.873100
8.610100 1.698500
8.647000 1.601800
8.683900 1.597400
8.720800 1.784200
8.757800 1.691000
8.794700 1.561900
8.831600 1.227100
8.868500 1.074300
8.905400 1.073200
8.942300 1.160500
8.979300 1.232500
9.016200 1.401800
9.053100 1.693300
9.090000 2.140400
9.126900 2.339000
9.163900 2.443800
9.200800 2.535100
9.237700 2.521800
9.274600 2.400200
9.311500 2.424600
9.348500 2.437600
9.385400 2.452400
9.422300 2.315000
9.459200 2.203400
9.496100 2.185100
9.533000 2.347100
9.570000 2.304200
9.606900 2.247200
9.643800 2.245700
9.680700 2.325300
9.717600 2.368100
9.754600 2.345000
9.791500 2.290700
9.828400 2.314400
9.865300 2.270900
9.902200 2.234800
9.939100 2.314900
9.976100 2.246600
10.013000 2.189300
10.049900 2.030300
10.086800 1.905700
10.123700 1.763100
10.160700 1.646800
10.197600 1.528400
10.234500 1.297000
10.271400 1.144000
10.308300 1.098500
10.345300 1.064600
10.382200 1.034100
10.419100 1.028100
10.456000 1.034200
10.492900 1.048600
10.529800 1.069000
10.566800 1.094100
10.603700 1.088500
10.640600 1.062000
10.677500 1.039900
10.714400 1.006800
10.751400 0.917800
10.788300 0.949700
10.825200 1.028300
10.862100 1.155900
10.899000 1.164100
10.936000 1.154300
10.972900 1.146900
11.009800 1.143100
11.046700 1.137500
11.083600 1.132300
11.120500 1.133200
11.157500 1.139100
11.194400 1.157300
11.231300 1.179400
11.268200 1.181100
11.305100 1.203900
11.342100 1.221700
11.379000 1.254500
11.415900 1.299500
11.452800 1.383800
11.489700 1.347400
11.526600 1.276300
11.563600 1.229600
11.600500 1.210900
11.637400 1.191900
11.674300 1.172500
11.711200 1.157000
11.748200 1.145800
11.785100 1.132800
11.822000 1.124700
11.858900 1.120700
11.895800 1.120700
11.932800 1.126400
11.969700 1.136600
12.006600 1.153200
