set title 'mp-1181996 - Density of States'
set xlabel 'Energy (eV)'
set ylabel 'DOS (states/eV)'
set grid
set xrange [-10:10]
set yrange [0:0.715]
set xzeroaxis lt -1
set terminal png size 800,600
set output 'mp-1181996_dos_gnuplot.png'
plot '-' using 1:2 with lines title 'DOS'
-24.098900 0.000000
-23.989200 0.000000
-23.879600 0.000000
-23.770000 0.000000
-23.660400 0.000000
-23.550800 0.000000
-23.441200 0.000000
-23.331600 0.000000
-23.222000 0.000000
-23.112400 0.000000
-23.002800 0.000000
-22.893200 0.000000
-22.783600 0.000000
-22.674000 0.000000
-22.564400 0.000000
-22.454800 0.000000
-22.345200 0.000000
-22.235600 0.000000
-22.126000 0.000000
-22.016400 0.000000
-21.906800 0.000000
-21.797200 0.000000
-21.687500 0.000000
-21.577900 0.000000
-21.468300 0.000000
-21.358700 0.000000
-21.249100 0.000000
-21.139500 0.000000
-21.029900 0.000000
-20.920300 0.000000
-20.810700 0.000000
-20.701100 0.000000
-20.591500 0.000000
-20.481900 0.000000
-20.372300 0.000000
-20.262700 0.000000
-20.153100 0.000000
-20.043500 0.000000
-19.933900 0.000000
-19.824300 0.000000
-19.714700 0.000000
-19.605100 0.000000
-19.495500 0.000000
-19.385800 0.000000
-19.276200 0.000000
-19.166600 0.000000
-19.057000 0.000000
-18.947400 0.000000
-18.837800 0.000000
-18.728200 0.000000
-18.618600 0.000000
-18.509000 0.000000
-18.399400 0.000000
-18.289800 0.000000
-18.180200 0.000000
-18.070600 0.000000
-17.961000 0.000000
-17.851400 0.000000
-17.741800 0.000000
-17.632200 0.000000
-17.522600 0.000000
-17.413000 0.000000
-17.303400 0.000000
-17.193800 0.000000
-17.084100 0.000000
-16.974500 0.000000
-16.864900 0.000000
-16.755300 0.000000
-16.645700 0.000000
-16.536100 0.000000
-16.426500 0.000000
-16.316900 0.000000
-16.207300 0.000000
-16.097700 0.000000
-15.988100 0.000000
-15.878500 0.000000
-15.768900 0.000000
-15.659300 0.000000
-15.549700 0.000000
-15.440100 0.000000
-15.330500 0.000000
-15.220900 0.000000
-15.111300 0.000000
-15.001700 0.000000
-14.892100 0.000000
-14.782400 0.000000
-14.672800 0.000000
-14.563200 0.000000
-14.453600 0.000000
-14.344000 0.000000
-14.234400 0.000000
-14.124800 0.003600
-14.015200 0.033000
-13.905600 0.059200
-13.796000 0.067000
-13.686400 0.122600
-13.576800 0.110600
-13.467200 0.133700
-13.357600 0.154500
-13.248000 0.170600
-13.138400 0.122500
-13.028800 0.141300
-12.919200 0.135400
-12.809600 0.162000
-12.700000 0.147800
-12.590400 0.163700
-12.480700 0.134800
-12.371100 0.134900
-12.261500 0.112700
-12.151900 0.184600
-12.042300 0.155600
-11.932700 0.120300
-11.823100 0.166100
-11.713500 0.182300
-11.603900 0.111500
-11.494300 0.134300
-11.384700 0.127200
-11.275100 0.153300
-11.165500 0.133200
-11.055900 0.184800
-10.946300 0.194500
-10.836700 0.143100
-10.727100 0.118000
-10.617500 0.169200
-10.507900 0.086600
-10.398300 0.085700
-10.288700 0.186500
-10.179000 0.160300
-10.069400 0.210600
-9.959800 0.198300
-9.850200 0.139600
-9.740600 0.164500
-9.631000 0.092100
-9.521400 0.079600
-9.411800 0.112500
-9.302200 0.141200
-9.192600 0.207600
-9.083000 0.189200
-8.973400 0.191700
-8.863800 0.191000
-8.754200 0.100100
-8.644600 0.150400
-8.535000 0.156900
-8.425400 0.123500
-8.315800 0.136400
-8.206200 0.113600
-8.096600 0.131800
-7.987000 0.153800
-7.877300 0.129300
-7.767700 0.250900
-7.658100 0.216900
-7.548500 0.108200
-7.438900 0.228700
-7.329300 0.178700
-7.219700 0.099900
-7.110100 0.135900
-7.000500 0.044300
-6.890900 0.065200
-6.781300 0.137200
-6.671700 0.232200
-6.562100 0.259200
-6.452500 0.270700
-6.342900 0.169100
-6.233300 0.158300
-6.123700 0.152000
-6.014100 0.124000
-5.904500 0.127500
-5.794900 0.081300
-5.685300 0.082500
-5.575600 0.141600
-5.466000 0.272700
-5.356400 0.320100
-5.246800 0.258200
-5.137200 0.183400
-5.027600 0.103600
-4.918000 0.109200
-4.808400 0.186600
-4.698800 0.303800
-4.589200 0.196300
-4.479600 0.190100
-4.370000 0.155900
-4.260400 0.173500
-4.150800 0.170400
-4.041200 0.245300
-3.931600 0.088900
-3.822000 0.044000
-3.712400 0.006700
-3.602800 0.093100
-3.493200 0.261200
-3.383600 0.162500
-3.273900 0.132300
-3.164300 0.107200
-3.054700 0.079500
-2.945100 0.068400
-2.835500 0.150800
-2.725900 0.177500
-2.616300 0.138500
-2.506700 0.034900
-2.397100 0.069000
-2.287500 0.133100
-2.177900 0.175500
-2.068300 0.163100
-1.958700 0.261100
-1.849100 0.164000
-1.739500 0.133900
-1.629900 0.078900
-1.520300 0.071200
-1.410700 0.065600
-1.301100 0.097400
-1.191500 0.179800
-1.081900 0.314700
-0.972200 0.422400
-0.862600 0.262300
-0.753000 0.190400
-0.643400 0.198600
-0.533800 0.113200
-0.424200 0.214500
-0.314600 0.303900
-0.205000 0.388900
-0.095400 0.375900
0.014200 0.519300
0.123800 0.423500
0.233400 0.218800
0.343000 0.235900
0.452600 0.353000
0.562200 0.177000
0.671800 0.135600
0.781400 0.297100
0.891000 0.440100
1.000600 0.276100
1.110200 0.240300
1.219800 0.333700
1.329500 0.471600
1.439100 0.446000
1.548700 0.295500
1.658300 0.304000
1.767900 0.593200
1.877500 0.382700
1.987100 0.237100
2.096700 0.311200
2.206300 0.343400
2.315900 0.340600
2.425500 0.347000
2.535100 0.414400
2.644700 0.348100
2.754300 0.443700
2.863900 0.503600
2.973500 0.137400
3.083100 0.218900
3.192700 0.414700
3.302300 0.486000
3.411900 0.535200
3.521500 0.511600
3.631200 0.339700
3.740800 0.190500
3.850400 0.271000
3.960000 0.281300
4.069600 0.207500
4.179200 0.324900
4.288800 0.301600
4.398400 0.210300
4.508000 0.365600
4.617600 0.500900
4.727200 0.271500
4.836800 0.129900
4.946400 0.163500
5.056000 0.105600
5.165600 0.190500
5.275200 0.188000
5.384800 0.445300
5.494400 0.449400
5.604000 0.379800
5.713600 0.297300
5.823200 0.286900
5.932900 0.472600
6.042500 0.489400
6.152100 0.407400
6.261700 0.214400
6.371300 0.146700
6.480900 0.194600
6.590500 0.213900
6.700100 0.255900
6.809700 0.205100
6.919300 0.219600
7.028900 0.285600
7.138500 0.331900
7.248100 0.320800
7.357700 0.184100
7.467300 0.277800
7.576900 0.487800
7.686500 0.616800
7.796100 0.477900
7.905700 0.584600
8.015300 0.386700
8.124900 0.119600
8.234600 0.095000
8.344200 0.237500
8.453800 0.184900
8.563400 0.121400
8.673000 0.117100
8.782600 0.060200
8.892200 0.130000
9.001800 0.246200
9.111400 0.204100
9.221000 0.121700
9.330600 0.101200
9.440200 0.105700
9.549800 0.099000
9.659400 0.231900
9.769000 0.279400
9.878600 0.419100
9.988200 0.650000
10.097800 0.306600
10.207400 0.104000
10.317000 0.104400
10.426600 0.088100
10.536300 0.062100
10.645900 0.097800
10.755500 0.183500
10.865100 0.044400
10.974700 0.061700
11.084300 0.203000
11.193900 0.177000
11.303500 0.111800
11.413100 0.134300
11.522700 0.112500
11.632300 0.268600
11.741900 0.143000
11.851500 0.151800
11.961100 0.352800
12.070700 0.248900
12.180300 0.258000
12.289900 0.397900
12.399500 0.168600
12.509100 0.191800
12.618700 0.167800
12.728300 0.049900
12.838000 0.062500
12.947600 0.085200
13.057200 0.079700
13.166800 0.108700
13.276400 0.196100
13.386000 0.241800
13.495600 0.199300
13.605200 0.154400
13.714800 0.112500
13.824400 0.097500
13.934000 0.392200
14.043600 0.216200
14.153200 0.247800
14.262800 0.156900
14.372400 0.173300
14.482000 0.120000
14.591600 0.335500
14.701200 0.649600
14.810800 0.325000
14.920400 0.123400
15.030000 0.068400
15.139700 0.183000
15.249300 0.407900
15.358900 0.207900
15.468500 0.366800
15.578100 0.234100
15.687700 0.358700
15.797300 0.363000
15.906900 0.385800
16.016500 0.347300
16.126100 0.274100
16.235700 0.195600
16.345300 0.158100
16.454900 0.225500
16.564500 0.357500
16.674100 0.201600
16.783700 0.228800
16.893300 0.425100
17.002900 0.462500
17.112500 0.385000
17.222100 0.174000
17.331800 0.224900
17.441400 0.403900
17.551000 0.230800
17.660600 0.224000
17.770200 0.230100
17.879800 0.242800
17.989400 0.199900
18.099000 0.209100
18.208600 0.370700
18.318200 0.475300
18.427800 0.343400
18.537400 0.436800
18.647000 0.354800
18.756600 0.297700
18.866200 0.408600
18.975800 0.349300
19.085400 0.398300
19.195000 0.484500
19.304600 0.629000
19.414200 0.513800
19.523800 0.468200
19.633500 0.428700
19.743100 0.507700
19.852700 0.483100
19.962300 0.328700
20.071900 0.360700
20.181500 0.416500
20.291100 0.538200
20.400700 0.333800
20.510300 0.483300
20.619900 0.375900
20.729500 0.499600
20.839100 0.422000
20.948700 0.426400
21.058300 0.616600
21.167900 0.540100
21.277500 0.632300
21.387100 0.805200
21.496700 0.770200
21.606300 0.396900
21.715900 0.343400
21.825500 0.755900
21.935200 0.657000
22.044800 0.637000
22.154400 0.644400
22.264000 0.464800
22.373600 0.358600
22.483200 0.429500
22.592800 0.585700
22.702400 0.576400
22.812000 0.527500
22.921600 0.384000
23.031200 0.405400
23.140800 0.574600
23.250400 0.353500
23.360000 0.413100
23.469600 0.303000
23.579200 0.375500
23.688800 0.382100
23.798400 0.422500
23.908000 0.458100
24.017600 0.215800
24.127200 0.333700
24.236900 0.407200
24.346500 0.538000
24.456100 0.429000
24.565700 0.279600
24.675300 0.515400
24.784900 0.336900
24.894500 0.269600
25.004100 0.315200
25.113700 0.295200
25.223300 0.284600
25.332900 0.377600
25.442500 0.166600
25.552100 0.227300
25.661700 0.198100
25.771300 0.203000
25.880900 0.255400
25.990500 0.283000
26.100100 0.186900
26.209700 0.172800
26.319300 0.195400
26.428900 0.393300
26.538600 0.287500
26.648200 0.274300
26.757800 0.246500
26.867400 0.203700
26.977000 0.213100
27.086600 0.193000
27.196200 0.166100
27.305800 0.240200
27.415400 0.249500
27.525000 0.293000
27.634600 0.197300
27.744200 0.181600
27.853800 0.231600
27.963400 0.343900
28.073000 0.229200
28.182600 0.166400
28.292200 0.179300
28.401800 0.211000
28.511400 0.291700
28.621000 0.199000
28.730600 0.149400
28.840300 0.148300
28.949900 0.161000
29.059500 0.168000
29.169100 0.143900
29.278700 0.209700
29.388300 0.168100
29.497900 0.157200
29.607500 0.187200
29.717100 0.262400
29.826700 0.171100
29.936300 0.200600
30.045900 0.294400
30.155500 0.237300
30.265100 0.215500
30.374700 0.200600
30.484300 0.157900
30.593900 0.303300
30.703500 0.334400
30.813100 0.321700
30.922700 0.327100
31.032300 0.264600
31.142000 0.301100
31.251600 0.331100
31.361200 0.312100
31.470800 0.383500
31.580400 0.442300
31.690000 0.349300
31.799600 0.264400
31.909200 0.246800
32.018800 0.348500
32.128400 0.365800
32.238000 0.373600
32.347600 0.352900
32.457200 0.380400
32.566800 0.364200
32.676400 0.350500
32.786000 0.291200
32.895600 0.380400
33.005200 0.440500
33.114800 0.444300
33.224400 0.340800
33.334000 0.343400
33.443700 0.306200
33.553300 0.280600
33.662900 0.303500
33.772500 0.274000
33.882100 0.255200
33.991700 0.189300
34.101300 0.262600
34.210900 0.221300
34.320500 0.343200
34.430100 0.400600
34.539700 0.290200
34.649300 0.327800
34.758900 0.274000
34.868500 0.341000
34.978100 0.257300
35.087700 0.369200
35.197300 0.414800
35.306900 0.398100
35.416500 0.322000
35.526100 0.287500
35.635700 0.310200
35.745400 0.341100
35.855000 0.508400
35.964600 0.424200
36.074200 0.351100
36.183800 0.374500
36.293400 0.364900
36.403000 0.313100
36.512600 0.454800
36.622200 0.397700
36.731800 0.442600
36.841400 0.435200
36.951000 0.367800
37.060600 0.328100
37.170200 0.468400
37.279800 0.392400
37.389400 0.295200
37.499000 0.329400
37.608600 0.380500
37.718200 0.501000
37.827800 0.411800
37.937400 0.378500
38.047100 0.340000
38.156700 0.442900
38.266300 0.427900
38.375900 0.388600
38.485500 0.297000
38.595100 0.391900
38.704700 0.255900
38.814300 0.379000
38.923900 0.356400
39.033500 0.308200
39.143100 0.278800
39.252700 0.259600
39.362300 0.237900
39.471900 0.259300
39.581500 0.299000
39.691100 0.291700
39.800700 0.266800
39.910300 0.430100
40.019900 0.398700
40.129500 0.425400
40.239100 0.438200
40.348800 0.330900
40.458400 0.336400
40.568000 0.398300
40.677600 0.412800
40.787200 0.466300
40.896800 0.396100
41.006400 0.416200
41.116000 0.319000
41.225600 0.370200
41.335200 0.322300
41.444800 0.408000
41.554400 0.503700
41.664000 0.379600
41.773600 0.218200
41.883200 0.397900
41.992800 0.448500
42.102400 0.468700
42.212000 0.423900
42.321600 0.474700
42.431200 0.392100
42.540800 0.356300
42.650500 0.528100
42.760100 0.561000
42.869700 0.455100
42.979300 0.531600
43.088900 0.426700
43.198500 0.350000
43.308100 0.260800
43.417700 0.332100
43.527300 0.493500
43.636900 0.313400
43.746500 0.295500
43.856100 0.447100
43.965700 0.435000
44.075300 0.420400
44.184900 0.342400
44.294500 0.478100
44.404100 0.521100
44.513700 0.582900
44.623300 0.494700
44.732900 0.407400
44.842500 0.418400
44.952200 0.410900
45.061800 0.322000
45.171400 0.337500
45.281000 0.357500
45.390600 0.408800
45.500200 0.476100
45.609800 0.516700
45.719400 0.438200
45.829000 0.413300
45.938600 0.426900
46.048200 0.478600
46.157800 0.417600
46.267400 0.431800
46.377000 0.451600
46.486600 0.396200
46.596200 0.450100
46.705800 0.507500
46.815400 0.562900
46.925000 0.477400
47.034600 0.510100
47.144200 0.434700
47.253900 0.574700
47.363500 0.466900
47.473100 0.453800
47.582700 0.492400
47.692300 0.489600
47.801900 0.510000
47.911500 0.430300
48.021100 0.560900
48.130700 0.420900
48.240300 0.381500
48.349900 0.446600
48.459500 0.313300
48.569100 0.473300
48.678700 0.442600
48.788300 0.402700
48.897900 0.347000
49.007500 0.344000
49.117100 0.424300
49.226700 0.498600
49.336300 0.391700
49.445900 0.550400
49.555600 0.522900
49.665200 0.551400
49.774800 0.414400
49.884400 0.450200
49.994000 0.483500
50.103600 0.498900
50.213200 0.459200
50.322800 0.461100
50.432400 0.475000
50.542000 0.452400
50.651600 0.491200
50.761200 0.387700
50.870800 0.483000
50.980400 0.410600
51.090000 0.316800
51.199600 0.266600
51.309200 0.322100
51.418800 0.316200
51.528400 0.327700
51.638000 0.343900
51.747600 0.338800
51.857300 0.342900
51.966900 0.343100
52.076500 0.264400
52.186100 0.351200
52.295700 0.295300
52.405300 0.296700
52.514900 0.219700
52.624500 0.239200
52.734100 0.406900
52.843700 0.360700
52.953300 0.340100
53.062900 0.301100
53.172500 0.339700
53.282100 0.407700
53.391700 0.438900
53.501300 0.345200
53.610900 0.399100
53.720500 0.319700
53.830100 0.290700
53.939700 0.283000
54.049300 0.316700
54.159000 0.417800
54.268600 0.288400
54.378200 0.366200
54.487800 0.279100
54.597400 0.286700
54.707000 0.335800
54.816600 0.412200
54.926200 0.338900
55.035800 0.249800
55.145400 0.253200
55.255000 0.376300
55.364600 0.488700
55.474200 0.456400
55.583800 0.478000
55.693400 0.375500
55.803000 0.465600
55.912600 0.545900
56.022200 0.494300
56.131800 0.436100
56.241400 0.451600
56.351000 0.673800
56.460700 0.433100
56.570300 0.565400
56.679900 0.588500
56.789500 0.617100
56.899100 0.597600
57.008700 0.560700
57.118300 0.691100
57.227900 0.799400
57.337500 0.695600
57.447100 0.828400
57.556700 0.495700
57.666300 0.556000
57.775900 0.568900
57.885500 0.560600
57.995100 0.589900
58.104700 0.579000
58.214300 0.717400
58.323900 0.625800
58.433500 0.674700
58.543100 0.515500
58.652700 0.778100
58.762400 0.533400
58.872000 0.542100
58.981600 0.520400
59.091200 0.589500
59.200800 0.658000
59.310400 0.844700
59.420000 0.800300
59.529600 0.501700
59.639200 0.536400
59.748800 0.384600
59.858400 0.509500
59.968000 0.550600
60.077600 0.687300
60.187200 0.645100
60.296800 0.484800
60.406400 0.412400
60.516000 0.367400
60.625600 0.462000
60.735200 0.497100
60.844800 0.450200
60.954500 0.482700
61.064100 0.340300
61.173700 0.448000
61.283300 0.361900
61.392900 0.386300
61.502500 0.439200
61.612100 0.428100
61.721700 0.527200
61.831300 0.591300
61.940900 0.422300
62.050500 0.344100
62.160100 0.429400
62.269700 0.372400
62.379300 0.367000
62.488900 0.475500
62.598500 0.440600
62.708100 0.338900
62.817700 0.407500
62.927300 0.442100
63.036900 0.403600
63.146500 0.421700
63.256200 0.468300
63.365800 0.496000
63.475400 0.300500
63.585000 0.370000
63.694600 0.473200
63.804200 0.592800
63.913800 0.526200
64.023400 0.417400
64.133000 0.404000
64.242600 0.453500
64.352200 0.554100
64.461800 0.458800
64.571400 0.359500
64.681000 0.412800
64.790600 0.434000
64.900200 0.366100
65.009800 0.375800
65.119400 0.553400
65.229000 0.592400
65.338600 0.535800
65.448200 0.383900
65.557900 0.460700
65.667500 0.505300
65.777100 0.567200
65.886700 0.539900
65.996300 0.441100
66.105900 0.598800
66.215500 0.561300
66.325100 0.597000
66.434700 0.581200
66.544300 0.611800
66.653900 0.489200
66.763500 0.619600
66.873100 0.538400
66.982700 0.540100
67.092300 0.506400
67.201900 0.584900
67.311500 0.669300
67.421100 0.389700
67.530700 0.501900
67.640300 0.494900
67.749900 0.453000
67.859600 0.540400
67.969200 0.716000
68.078800 0.499700
68.188400 0.473100
68.298000 0.548600
68.407600 0.632900
68.517200 0.573600
68.626800 0.523000
68.736400 0.609100
68.846000 0.515300
68.955600 0.434900
69.065200 0.633100
69.174800 0.511100
69.284400 0.454100
69.394000 0.569500
69.503600 0.528500
69.613200 0.603100
69.722800 0.478200
69.832400 0.384400
69.942000 0.529600
70.051600 0.540300
70.161300 0.411600
70.270900 0.512400
70.380500 0.567600
70.490100 0.595300
70.599700 0.589200
70.709300 0.537800
70.818900 0.491100
70.928500 0.656300
71.038100 0.458400
71.147700 0.448800
71.257300 0.589500
71.366900 0.614600
71.476500 0.576600
71.586100 0.580100
71.695700 0.499200
71.805300 0.438400
71.914900 0.558700
72.024500 0.466500
72.134100 0.481200
72.243700 0.505700
72.353300 0.502100
72.463000 0.590900
72.572600 0.485800
72.682200 0.457200
72.791800 0.480800
72.901400 0.644900
73.011000 0.560400
73.120600 0.520400
73.230200 0.511800
73.339800 0.547900
73.449400 0.573700
73.559000 0.678900
73.668600 0.502800
73.778200 0.555400
73.887800 0.435400
73.997400 0.628700
74.107000 0.578600
74.216600 0.601800
74.326200 0.622900
74.435800 0.587100
74.545400 0.647600
74.655000 0.569500
74.764700 0.538500
74.874300 0.587500
74.983900 0.546900
75.093500 0.507300
75.203100 0.556000
75.312700 0.443500
75.422300 0.337600
75.531900 0.362400
75.641500 0.442000
75.751100 0.357700
75.860700 0.429700
75.970300 0.381000
76.079900 0.313000
76.189500 0.270100
76.299100 0.511700
76.408700 0.443400
76.518300 0.419900
76.627900 0.443900
76.737500 0.389100
76.847100 0.360600
76.956700 0.509600
77.066400 0.475100
77.176000 0.370600
77.285600 0.391200
77.395200 0.404900
77.504800 0.448100
77.614400 0.543200
77.724000 0.479600
77.833600 0.540200
77.943200 0.480500
78.052800 0.322100
78.162400 0.422200
78.272000 0.591500
78.381600 0.595000
78.491200 0.536400
78.600800 0.560500
78.710400 0.484600
78.820000 0.449200
78.929600 0.505900
79.039200 0.444100
79.148800 0.530900
79.258400 0.533800
79.368100 0.466100
79.477700 0.522000
79.587300 0.636600
79.696900 0.568600
79.806500 0.564800
79.916100 0.503800
80.025700 0.470700
80.135300 0.491200
80.244900 0.392900
80.354500 0.567500
80.464100 0.539400
80.573700 0.427700
80.683300 0.399000
80.792900 0.737000
80.902500 0.467600
81.012100 0.671200
81.121700 0.707200
81.231300 0.726500
81.340900 0.474800
81.450500 0.602600
81.560100 0.735700
81.669800 0.582800
81.779400 0.535300
81.889000 0.564000
81.998600 0.563700
82.108200 0.592300
82.217800 0.539500
82.327400 0.416400
82.437000 0.426300
82.546600 0.398000
82.656200 0.473400
82.765800 0.562700
82.875400 0.627200
82.985000 0.566600
83.094600 0.446000
83.204200 0.447100
83.313800 0.571000
83.423400 0.614700
83.533000 0.654500
83.642600 0.434700
83.752200 0.559900
83.861800 0.619800
83.971500 0.514100
84.081100 0.518200
84.190700 0.562800
84.300300 0.593200
84.409900 0.749200
84.519500 0.787200
84.629100 0.501400
84.738700 0.506100
84.848300 0.745700
84.957900 0.604300
85.067500 0.481200
85.177100 0.535900
85.286700 0.486700
85.396300 0.409800
85.505900 0.520800
85.615500 0.529900
85.725100 0.620900
85.834700 0.589900
85.944300 0.458300
86.053900 0.562800
86.163500 0.501400
86.273200 0.467500
86.382800 0.430600
86.492400 0.553700
86.602000 0.682200
86.711600 0.451400
86.821200 0.505300
86.930800 0.467000
87.040400 0.437500
87.150000 0.691300
87.259600 0.607900
87.369200 0.515200
87.478800 0.485500
87.588400 0.719100
87.698000 0.633100
87.807600 0.745000
87.917200 0.619600
88.026800 0.582900
88.136400 0.686900
88.246000 0.724000
88.355600 0.850800
88.465200 0.671900
88.574900 0.483900
88.684500 0.698800
88.794100 0.613700
88.903700 0.666400
89.013300 0.706400
89.122900 0.565700
89.232500 0.506500
89.342100 0.577300
