set title 'mp-1019097 - Density of States'
set xlabel 'Energy (eV)'
set ylabel 'DOS (states/eV)'
set grid
set xrange [-10:10]
set yrange [0:6.584]
set xzeroaxis lt -1
set terminal png size 800,600
set output 'mp-1019097_dos_gnuplot.png'
plot '-' using 1:2 with lines title 'DOS'
-12.523300 0.000000
-12.498300 0.000000
-12.473300 0.000000
-12.448400 0.000000
-12.423400 0.000000
-12.398400 0.000000
-12.373400 0.000000
-12.348400 0.000000
-12.323500 0.000000
-12.298500 0.000000
-12.273500 0.000000
-12.248500 0.000000
-12.223600 0.000000
-12.198600 0.000000
-12.173600 0.000000
-12.148600 0.000000
-12.123600 0.000000
-12.098700 0.000000
-12.073700 0.000000
-12.048700 0.000000
-12.023700 0.000000
-11.998800 0.000000
-11.973800 0.000000
-11.948800 0.000000
-11.923800 0.000000
-11.898900 0.000000
-11.873900 0.000000
-11.848900 0.000000
-11.823900 0.000000
-11.798900 0.000000
-11.774000 0.000000
-11.749000 0.000000
-11.724000 0.000000
-11.699000 0.000000
-11.674100 0.000000
-11.649100 0.000000
-11.624100 0.000000
-11.599100 0.000000
-11.574100 0.000000
-11.549200 0.000000
-11.524200 0.000000
-11.499200 0.000000
-11.474200 0.000000
-11.449300 0.000000
-11.424300 0.000000
-11.399300 0.000000
-11.374300 0.000000
-11.349300 0.000000
-11.324400 0.000000
-11.299400 0.000000
-11.274400 0.000000
-11.249400 0.000000
-11.224500 0.000000
-11.199500 0.000000
-11.174500 0.000000
-11.149500 0.000000
-11.124500 0.000000
-11.099600 0.000000
-11.074600 0.000000
-11.049600 0.000000
-11.024600 0.000000
-10.999700 0.000000
-10.974700 0.000000
-10.949700 0.000000
-10.924700 0.000000
-10.899700 0.000000
-10.874800 0.000000
-10.849800 0.000000
-10.824800 0.000000
-10.799800 0.000000
-10.774900 0.000000
-10.749900 0.000000
-10.724900 0.000000
-10.699900 0.000000
-10.675000 0.000000
-10.650000 0.000000
-10.625000 0.000000
-10.600000 0.000000
-10.575000 0.000000
-10.550100 0.000000
-10.525100 0.000000
-10.500100 0.000000
-10.475100 0.000000
-10.450200 0.000000
-10.425200 0.000000
-10.400200 0.000000
-10.375200 0.000000
-10.350200 0.000000
-10.325300 0.000000
-10.300300 0.000000
-10.275300 0.000000
-10.250300 0.000400
-10.225400 0.056600
-10.200400 0.187000
-10.175400 0.252300
-10.150400 0.267900
-10.125400 0.312800
-10.100500 0.370200
-10.075500 0.419300
-10.050500 0.442800
-10.025500 0.461100
-10.000600 0.490700
-9.975600 0.522700
-9.950600 0.554000
-9.925600 0.585700
-9.900600 0.618800
-9.875700 0.646800
-9.850700 0.706300
-9.825700 0.817000
-9.800700 0.800900
-9.775800 0.797200
-9.750800 0.814900
-9.725800 0.833800
-9.700800 0.837400
-9.675800 0.841700
-9.650900 0.853900
-9.625900 0.863800
-9.600900 0.874500
-9.575900 0.884800
-9.551000 0.981200
-9.526000 1.064800
-9.501000 1.063700
-9.476000 1.108300
-9.451100 1.155100
-9.426100 1.190800
-9.401100 1.211500
-9.376100 1.251300
-9.351100 1.293900
-9.326200 1.340200
-9.301200 1.389800
-9.276200 1.442600
-9.251200 1.482800
-9.226300 1.527900
-9.201300 1.577200
-9.176300 1.634800
-9.151300 1.709500
-9.126300 1.805400
-9.101400 1.902500
-9.076400 2.007800
-9.051400 2.123000
-9.026400 2.270300
-9.001500 2.569200
-8.976500 3.025900
-8.951500 2.852000
-8.926500 2.360100
-8.901500 2.320200
-8.876600 2.294600
-8.851600 2.235600
-8.826600 2.190200
-8.801600 2.221200
-8.776700 2.286500
-8.751700 2.345400
-8.726700 2.376000
-8.701700 2.368200
-8.676700 2.345000
-8.651800 2.333800
-8.626800 2.354600
-8.601800 2.392900
-8.576800 2.448900
-8.551900 2.506300
-8.526900 2.586100
-8.501900 2.655500
-8.476900 2.775000
-8.451900 2.976700
-8.427000 3.175700
-8.402000 3.497700
-8.377000 5.985600
-8.352000 3.680800
-8.327100 3.428800
-8.302100 2.901700
-8.277100 2.782600
-8.252100 2.667600
-8.227200 2.501800
-8.202200 2.362300
-8.177200 2.267800
-8.152200 2.186100
-8.127200 2.109100
-8.102300 2.026000
-8.077300 1.949800
-8.052300 1.911000
-8.027300 1.965400
-8.002400 1.831200
-7.977400 1.642600
-7.952400 1.719300
-7.927400 2.765300
-7.902400 1.221500
-7.877500 0.000000
-7.852500 0.000000
-7.827500 0.000000
-7.802500 0.000000
-7.777600 0.000000
-7.752600 0.000000
-7.727600 0.000000
-7.702600 0.000000
-7.677600 0.000000
-7.652700 0.000000
-7.627700 0.000000
-7.602700 0.000000
-7.577700 0.000000
-7.552800 0.000000
-7.527800 0.000000
-7.502800 0.000000
-7.477800 0.000000
-7.452800 0.000000
-7.427900 0.000000
-7.402900 0.000000
-7.377900 0.000000
-7.352900 0.000000
-7.328000 0.000000
-7.303000 0.000000
-7.278000 0.000000
-7.253000 0.000000
-7.228100 0.000000
-7.203100 0.000000
-7.178100 0.000000
-7.153100 0.000000
-7.128100 0.000000
-7.103200 0.000000
-7.078200 0.000000
-7.053200 0.000000
-7.028200 0.000000
-7.003300 0.000000
-6.978300 0.000000
-6.953300 0.000000
-6.928300 0.000000
-6.903300 0.000000
-6.878400 0.000000
-6.853400 0.000200
-6.828400 0.007500
-6.803400 0.025600
-6.778500 0.045400
-6.753500 0.061900
-6.728500 0.078100
-6.703500 0.095500
-6.678500 0.114300
-6.653600 0.134300
-6.628600 0.154300
-6.603600 0.170600
-6.578600 0.179100
-6.553700 0.185400
-6.528700 0.193800
-6.503700 0.202700
-6.478700 0.210900
-6.453700 0.218500
-6.428800 0.226300
-6.403800 0.237500
-6.378800 0.249000
-6.353800 0.258600
-6.328900 0.267500
-6.303900 0.276300
-6.278900 0.284900
-6.253900 0.293500
-6.228900 0.301600
-6.204000 0.309900
-6.179000 0.319600
-6.154000 0.330500
-6.129000 0.341900
-6.104100 0.353900
-6.079100 0.366300
-6.054100 0.378300
-6.029100 0.387800
-6.004200 0.396100
-5.979200 0.404600
-5.954200 0.412600
-5.929200 0.420300
-5.904200 0.428300
-5.879300 0.437800
-5.854300 0.448300
-5.829300 0.459200
-5.804300 0.470600
-5.779400 0.482400
-5.754400 0.494600
-5.729400 0.507200
-5.704400 0.519700
-5.679400 0.532100
-5.654500 0.544500
-5.629500 0.556300
-5.604500 0.567600
-5.579500 0.578700
-5.554600 0.592200
-5.529600 0.613000
-5.504600 0.635400
-5.479600 0.654300
-5.454600 0.673400
-5.429700 0.693000
-5.404700 0.713200
-5.379700 0.734000
-5.354700 0.754400
-5.329800 0.913000
-5.304800 0.929800
-5.279800 1.143400
-5.254800 1.331500
-5.229800 1.422700
-5.204900 1.607100
-5.179900 1.891900
-5.154900 1.872200
-5.129900 1.748000
-5.105000 1.771000
-5.080000 1.753000
-5.055000 1.897600
-5.030000 1.763200
-5.005000 1.469100
-4.980100 1.374800
-4.955100 1.327700
-4.930100 1.287800
-4.905100 1.241400
-4.880200 1.171500
-4.855200 1.133900
-4.830200 1.057000
-4.805200 0.988300
-4.780300 0.945100
-4.755300 0.894500
-4.730300 0.844800
-4.705300 0.799900
-4.680300 0.763000
-4.655400 0.735300
-4.630400 0.716200
-4.605400 0.698500
-4.580400 0.681200
-4.555500 0.664500
-4.530500 0.872800
-4.505500 0.822300
-4.480500 0.853000
-4.455500 0.841400
-4.430600 0.829500
-4.405600 0.827400
-4.380600 0.836900
-4.355600 0.809800
-4.330700 0.814500
-4.305700 0.819900
-4.280700 0.834100
-4.255700 0.847600
-4.230700 0.840200
-4.205800 0.842900
-4.180800 0.850700
-4.155800 0.859200
-4.130800 0.868400
-4.105900 0.878300
-4.080900 0.896900
-4.055900 0.915500
-4.030900 0.949300
-4.005900 0.889300
-3.981000 0.908800
-3.956000 0.932000
-3.931000 0.956700
-3.906000 0.982700
-3.881100 1.005900
-3.856100 1.029100
-3.831100 1.081000
-3.806100 1.096500
-3.781100 1.127300
-3.756200 1.188900
-3.731200 1.258700
-3.706200 1.337300
-3.681200 1.411800
-3.656300 1.460100
-3.631300 1.529100
-3.606300 1.607600
-3.581300 1.994900
-3.556400 2.224500
-3.531400 2.512800
-3.506400 2.883100
-3.481400 3.057500
-3.456400 2.537000
-3.431500 2.372100
-3.406500 2.301700
-3.381500 2.195800
-3.356500 2.238900
-3.331600 2.405700
-3.306600 2.448300
-3.281600 2.472800
-3.256600 2.492500
-3.231600 2.465200
-3.206700 2.370800
-3.181700 2.143300
-3.156700 1.894300
-3.131700 1.680100
-3.106800 1.577900
-3.081800 1.509900
-3.056800 1.453100
-3.031800 1.599200
-3.006800 1.481300
-2.981900 1.408700
-2.956900 1.135200
-2.931900 1.098000
-2.906900 1.068100
-2.882000 1.044900
-2.857000 1.037300
-2.832000 1.068500
-2.807000 1.057700
-2.782000 1.129500
-2.757100 0.984300
-2.732100 0.999600
-2.707100 1.029500
-2.682100 1.064100
-2.657200 1.101400
-2.632200 1.142300
-2.607200 1.627900
-2.582200 3.313000
-2.557300 1.447700
-2.532300 1.384400
-2.507300 1.348200
-2.482300 1.296400
-2.457300 1.265700
-2.432400 1.166300
-2.407400 1.134300
-2.382400 1.095100
-2.357400 1.051600
-2.332500 1.037200
-2.307500 1.007900
-2.282500 0.958700
-2.257500 0.916900
-2.232500 0.918200
-2.207600 0.925500
-2.182600 0.931500
-2.157600 0.935900
-2.132600 0.940000
-2.107700 0.943700
-2.082700 0.979900
-2.057700 0.983000
-2.032700 1.155900
-2.007700 1.673300
-1.982800 0.934600
-1.957800 0.921000
-1.932800 0.911500
-1.907800 0.904200
-1.882900 0.902300
-1.857900 0.912900
-1.832900 0.912200
-1.807900 0.905900
-1.782900 0.904400
-1.758000 0.902400
-1.733000 0.900000
-1.708000 0.897500
-1.683000 0.891300
-1.658100 0.886000
-1.633100 0.879300
-1.608100 0.870600
-1.583100 0.865000
-1.558100 0.858200
-1.533200 0.860700
-1.508200 0.864800
-1.483200 0.868900
-1.458200 0.873700
-1.433300 0.887300
-1.408300 0.898600
-1.383300 0.909100
-1.358300 0.918900
-1.333400 0.934600
-1.308400 0.933300
-1.283400 0.930700
-1.258400 0.928300
-1.233400 0.926100
-1.208500 0.924200
-1.183500 0.918800
-1.158500 0.918500
-1.133500 0.944200
-1.108600 1.027700
-1.083600 1.130100
-1.058600 1.238100
-1.033600 1.344400
-1.008600 1.453500
-0.983700 1.595700
-0.958700 1.729000
-0.933700 1.871900
-0.908700 2.536300
-0.883800 2.149000
-0.858800 2.234900
-0.833800 2.331500
-0.808800 2.434100
-0.783800 2.521500
-0.758900 2.633300
-0.733900 2.896400
-0.708900 3.119400
-0.683900 3.382000
-0.659000 3.330200
-0.634000 3.301500
-0.609000 2.970200
-0.584000 2.449400
-0.559000 2.026400
-0.534100 1.669600
-0.509100 1.415000
-0.484100 1.277200
-0.459100 1.226100
-0.434200 1.205600
-0.409200 1.148900
-0.384200 1.088400
-0.359200 1.043600
-0.334200 1.011800
-0.309300 1.266900
-0.284300 1.272600
-0.259300 1.699800
-0.234300 1.970900
-0.209400 2.105700
-0.184400 2.205200
-0.159400 2.381300
-0.134400 2.529100
-0.109500 2.632200
-0.084500 2.601300
-0.059500 2.624000
-0.034500 2.559500
-0.009500 2.515700
0.015400 2.592000
0.040400 2.650800
0.065400 2.666600
0.090400 2.715600
0.115300 2.797400
0.140300 2.875100
0.165300 3.439400
0.190300 3.708500
0.215300 4.118600
0.240200 3.899500
0.265200 3.520500
0.290200 3.254900
0.315200 2.962900
0.340100 2.661500
0.365100 2.493200
0.390100 2.365900
0.415100 2.147100
0.440100 2.136500
0.465000 2.109500
0.490000 2.094200
0.515000 2.085300
0.540000 2.143300
0.564900 2.116100
0.589900 2.065900
0.614900 2.063100
0.639900 2.062200
0.664900 2.060400
0.689800 2.057900
0.714800 2.034600
0.739800 2.106600
0.764800 2.118600
0.789700 2.058800
0.814700 2.101100
0.839700 2.174100
0.864700 2.148700
0.889700 2.074800
0.914600 2.036300
0.939600 2.026700
0.964600 1.997700
0.989600 1.980000
1.014500 2.048800
1.039500 2.068500
1.064500 2.033300
1.089500 2.142100
1.114400 2.095900
1.139400 2.095600
1.164400 2.174400
1.189400 2.308400
1.214400 2.363800
1.239300 2.416900
1.264300 2.527500
1.289300 2.698500
1.314300 2.671500
1.339200 2.739300
1.364200 2.728700
1.389200 2.688300
1.414200 2.625800
1.439200 2.447300
1.464100 2.383100
1.489100 2.318800
1.514100 2.439000
1.539100 2.731900
1.564000 2.975400
1.589000 3.901900
1.614000 3.275600
1.639000 3.404100
1.664000 3.305500
1.688900 3.177800
1.713900 3.147900
1.738900 3.069400
1.763900 2.972300
1.788800 2.951400
1.813800 2.875200
1.838800 2.608100
1.863800 2.443300
1.888800 2.317300
1.913700 2.303600
1.938700 2.310000
1.963700 2.297900
1.988700 2.218000
2.013600 2.351200
2.038600 2.205400
2.063600 2.216900
2.088600 2.257400
2.113500 2.307900
2.138500 2.344700
2.163500 2.403600
2.188500 2.417700
2.213500 2.466400
2.238400 2.501700
2.263400 2.496000
2.288400 2.522300
2.313400 2.518200
2.338300 2.620000
2.363300 2.628000
2.388300 2.629000
2.413300 2.626400
2.438300 2.515900
2.463200 2.357400
2.488200 2.354700
2.513200 2.407800
2.538200 2.426900
2.563100 2.402900
2.588100 2.405900
2.613100 2.403500
2.638100 2.383400
2.663100 2.374100
2.688000 2.377700
2.713000 2.357100
2.738000 2.352300
2.763000 2.402900
2.787900 2.356000
2.812900 2.323800
2.837900 2.284800
2.862900 2.264100
2.887900 2.227100
2.912800 2.373200
2.937800 2.250500
2.962800 2.247900
2.987800 2.268500
3.012700 2.292400
3.037700 2.331400
3.062700 2.318000
3.087700 2.375500
3.112700 2.328000
3.137600 2.327600
3.162600 2.334000
3.187600 2.343600
3.212600 2.349100
3.237500 2.357400
3.262500 2.361900
3.287500 2.325400
3.312500 2.281200
3.337400 2.257800
3.362400 2.273700
3.387400 2.270300
3.412400 2.268300
3.437400 2.264500
3.462300 2.253900
3.487300 2.255300
3.512300 2.252700
3.537300 2.247000
3.562200 2.246500
3.587200 2.264000
3.612200 2.259600
3.637200 2.240600
3.662200 2.190900
3.687100 2.135000
3.712100 2.099200
3.737100 2.164900
3.762100 2.161300
3.787000 2.007100
3.812000 2.073600
3.837000 2.049200
3.862000 2.000100
3.887000 2.047700
3.911900 2.129200
3.936900 2.145200
3.961900 2.119100
3.986900 2.076100
4.011800 2.035300
4.036800 2.096000
4.061800 1.954700
4.086800 2.020900
4.111800 1.937600
4.136700 1.855600
4.161700 1.821900
4.186700 1.829900
4.211700 1.719300
4.236600 1.844100
4.261600 1.878500
4.286600 1.935100
4.311600 1.984400
4.336600 1.948600
4.361500 1.880300
4.386500 1.805900
4.411500 1.731800
4.436500 1.648300
4.461400 1.495500
4.486400 1.412500
4.511400 1.333900
4.536400 1.266000
4.561300 1.223000
4.586300 1.209000
4.611300 1.218000
4.636300 1.222700
4.661300 1.229000
4.686200 1.237800
4.711200 1.254600
4.736200 1.252100
4.761200 1.254100
4.786100 1.252300
4.811100 1.249700
4.836100 1.246000
4.861100 1.241000
4.886100 1.231600
4.911000 1.223900
4.936000 1.218100
4.961000 1.222800
4.986000 1.219800
5.010900 1.216500
5.035900 1.217700
5.060900 1.220300
5.085900 1.226300
5.110900 1.232800
5.135800 1.238400
5.160800 1.242500
5.185800 1.250000
5.210800 1.278200
5.235700 1.336600
5.260700 1.412700
5.285700 1.495300
5.310700 1.508400
5.335700 1.502900
5.360600 1.485000
5.385600 1.464500
5.410600 1.433700
5.435600 1.384500
5.460500 1.296500
5.485500 0.989400
5.510500 0.918400
5.535500 0.857100
5.560500 0.802900
5.585400 0.759300
5.610400 0.722800
5.635400 0.689000
5.660400 0.658200
5.685300 0.636300
5.710300 0.709900
5.735300 0.609200
5.760300 0.568300
5.785200 0.530300
5.810200 0.490000
5.835200 0.454000
5.860200 0.408900
5.885200 0.345500
5.910100 0.263500
5.935100 0.272300
5.960100 0.281300
5.985100 0.290400
6.010000 0.299600
6.035000 0.309300
6.060000 0.319300
6.085000 0.329400
6.110000 0.341300
6.134900 0.356000
6.159900 0.371800
6.184900 0.388600
6.209900 0.406600
6.234800 0.425700
6.259800 0.447500
6.284800 0.490600
6.309800 0.535900
6.334800 0.627000
6.359700 0.657700
6.384700 0.686500
6.409700 0.713300
6.434700 0.738300
6.459600 0.750400
6.484600 0.752900
6.509600 0.748400
6.534600 0.765600
6.559600 0.779800
6.584500 0.785400
6.609500 0.789200
6.634500 0.793900
6.659500 0.799800
6.684400 0.808900
6.709400 0.824000
6.734400 0.941000
6.759400 0.988200
6.784300 0.976700
6.809300 0.987200
6.834300 1.000300
6.859300 1.027800
6.884300 1.049300
6.909200 1.070700
6.934200 1.087700
6.959200 1.106800
6.984200 1.131300
7.009100 1.162100
7.034100 1.192300
7.059100 1.222100
7.084100 1.308900
7.109100 1.356900
7.134000 2.023300
7.159000 1.618800
7.184000 1.467300
7.209000 1.218500
7.233900 1.219000
7.258900 1.169100
7.283900 1.119200
7.308900 1.049100
7.333900 0.975600
7.358800 0.926700
7.383800 0.923800
7.408800 0.923800
7.433800 0.923800
7.458700 0.923200
7.483700 0.921600
7.508700 0.917500
7.533700 0.898100
7.558700 1.681600
7.583600 1.406800
7.608600 1.083500
7.633600 1.062300
7.658600 1.076300
7.683500 1.097300
7.708500 1.120600
7.733500 1.146200
7.758500 1.177000
7.783500 1.225600
7.808400 1.217200
7.833400 1.257600
7.858400 1.313700
7.883400 1.340900
7.908300 1.371000
7.933300 1.398200
7.958300 1.428900
7.983300 1.479800
8.008200 1.514800
8.033200 1.408100
8.058200 1.394900
8.083200 1.343500
8.108200 1.285900
8.133100 1.266000
8.158100 1.250600
8.183100 1.279900
8.208100 1.290000
8.233000 1.331500
8.258000 1.341100
8.283000 1.393900
8.308000 1.440900
8.333000 1.484400
8.357900 1.522600
8.382900 1.554100
8.407900 1.598500
8.432900 1.785300
8.457800 1.817900
8.482800 2.046400
8.507800 2.181700
8.532800 2.055800
8.557800 2.088700
8.582700 2.250700
8.607700 2.410100
8.632700 2.556100
8.657700 2.682800
8.682600 2.809300
8.707600 2.898100
8.732600 2.819000
8.757600 2.738900
8.782600 2.606400
8.807500 2.512500
8.832500 2.465800
8.857500 2.418400
8.882500 2.374200
8.907400 2.343200
8.932400 2.313800
8.957400 2.284100
8.982400 2.261700
9.007400 2.222300
9.032300 2.202400
9.057300 2.181800
9.082300 2.184400
9.107300 2.226600
9.132200 2.272100
9.157200 2.317100
9.182200 2.362400
9.207200 2.489700
9.232100 2.444300
9.257100 2.255700
9.282100 2.039500
9.307100 1.977600
9.332100 2.305500
9.357000 2.173900
9.382000 2.081400
9.407000 1.950300
9.432000 1.850800
9.456900 1.759700
9.481900 1.663700
9.506900 1.626600
9.531900 1.622400
9.556900 1.638500
9.581800 1.584600
9.606800 1.531100
9.631800 1.508000
9.656800 1.486500
9.681700 1.464700
9.706700 1.434400
9.731700 1.416900
9.756700 1.404700
9.781700 1.392100
9.806600 1.383200
9.831600 1.378900
9.856600 1.376400
9.881600 1.370100
9.906500 1.380300
9.931500 1.391900
9.956500 1.406400
9.981500 1.420200
10.006500 1.430900
10.031400 1.441500
10.056400 1.457900
10.081400 1.476600
10.106400 1.496500
10.131300 1.522100
10.156300 1.556800
10.181300 1.599700
10.206300 1.644100
10.231300 1.731200
10.256200 1.823000
10.281200 1.888500
10.306200 1.916500
10.331200 1.950200
10.356100 1.983600
10.381100 2.057000
10.406100 2.088400
10.431100 2.108500
10.456000 2.109500
10.481000 2.165300
10.506000 1.822200
10.531000 1.606300
10.556000 1.455700
10.580900 1.350500
10.605900 1.210600
10.630900 0.998200
10.655900 0.882400
10.680800 0.827300
10.705800 0.843200
10.730800 0.859700
10.755800 0.880500
10.780800 0.902700
10.805700 0.923200
10.830700 0.943500
10.855700 0.963800
10.880700 1.000300
10.905600 1.016100
10.930600 1.023500
10.955600 1.029300
10.980600 1.035200
11.005600 1.043100
11.030500 1.049900
11.055500 1.065300
11.080500 1.075000
11.105500 1.084100
11.130400 1.097300
11.155400 1.113600
11.180400 1.145000
11.205400 1.168600
11.230400 1.194800
11.255300 1.220600
11.280300 1.252000
11.305300 1.288600
11.330300 1.394900
11.355200 1.386700
11.380200 1.420800
11.405200 1.386100
11.430200 1.389800
11.455200 1.389300
11.480100 1.386400
11.505100 1.382900
11.530100 1.386100
11.555100 1.384800
11.580000 1.332600
11.605000 1.337600
11.630000 1.621300
11.655000 1.567800
11.679900 1.611800
11.704900 1.655400
11.729900 1.708700
11.754900 1.737800
11.779900 1.785200
11.804800 1.848100
11.829800 1.985000
11.854800 1.915200
11.879800 1.896300
11.904700 1.865300
11.929700 1.829100
11.954700 1.792900
11.979700 1.761500
12.004700 1.738200
12.029600 1.750500
12.054600 1.779600
12.079600 1.816000
12.104600 1.883600
12.129500 1.947800
12.154500 2.059400
12.179500 2.166800
12.204500 2.322300
12.229500 2.513600
12.254400 2.732200
12.279400 2.833100
12.304400 2.919100
12.329400 2.942500
12.354300 2.976500
12.379300 2.985100
12.404300 3.012400
12.429300 2.921600
12.454300 2.924700
12.479200 2.749700
12.504200 2.818700
12.529200 2.669600
12.554200 2.490200
12.579100 2.303600
12.604100 2.177100
12.629100 2.034700
12.654100 1.929100
12.679000 1.843700
12.704000 2.010100
12.729000 2.438500
12.754000 2.579600
12.779000 2.850100
12.803900 2.886900
12.828900 2.917300
12.853900 2.945700
12.878900 2.938000
12.903800 2.738900
12.928800 2.598600
12.953800 2.900300
12.978800 2.652900
13.003800 2.654100
13.028700 2.754200
13.053700 2.647600
13.078700 2.524300
13.103700 2.411500
13.128600 2.315200
13.153600 2.271700
13.178600 2.259400
13.203600 2.269500
13.228600 2.288100
13.253500 2.337200
13.278500 2.439600
13.303500 2.498100
13.328500 2.629800
13.353400 2.673600
13.378400 2.669400
13.403400 2.695900
13.428400 2.699100
13.453400 2.688800
13.478300 2.618800
13.503300 2.645600
13.528300 2.655400
13.553300 2.677100
13.578200 2.667900
13.603200 2.636300
13.628200 2.710800
13.653200 3.047500
13.678200 3.537200
13.703100 2.901400
13.728100 3.022200
13.753100 3.244600
