set title 'mp-1017541 - Density of States'
set xlabel 'Energy (eV)'
set ylabel 'DOS (states/eV)'
set grid
set xrange [-10:10]
set yrange [0:4.765]
set xzeroaxis lt -1
set terminal png size 800,600
set output 'mp-1017541_dos_gnuplot.png'
plot '-' using 1:2 with lines title 'DOS'
-48.495000 0.000000
-48.425200 0.000000
-48.355300 0.000000
-48.285400 0.000000
-48.215600 0.000000
-48.145700 0.000000
-48.075900 0.000000
-48.006000 0.000000
-47.936200 0.000000
-47.866300 0.000000
-47.796500 0.000000
-47.726600 0.000000
-47.656800 0.000000
-47.586900 0.000000
-47.517100 0.000000
-47.447200 0.000000
-47.377400 0.000000
-47.307500 0.000000
-47.237700 0.000000
-47.167800 0.000000
-47.097900 0.000000
-47.028100 0.000000
-46.958200 0.000000
-46.888400 0.000000
-46.818500 0.000000
-46.748700 0.000000
-46.678800 0.000000
-46.609000 0.000000
-46.539100 0.000000
-46.469300 0.000000
-46.399400 0.000000
-46.329600 0.000000
-46.259700 0.000000
-46.189900 0.000000
-46.120000 0.000000
-46.050200 0.000000
-45.980300 0.000000
-45.910500 0.000000
-45.840600 0.000000
-45.770700 0.000000
-45.700900 0.000000
-45.631000 0.000000
-45.561200 0.000000
-45.491300 0.000000
-45.421500 0.000000
-45.351600 0.000000
-45.281800 0.000000
-45.211900 0.000000
-45.142100 0.000000
-45.072200 0.000000
-45.002400 0.000000
-44.932500 0.000000
-44.862700 0.000000
-44.792800 0.000000
-44.723000 0.000000
-44.653100 0.000000
-44.583200 0.000000
-44.513400 0.000000
-44.443500 0.000000
-44.373700 0.000000
-44.303800 0.000000
-44.234000 0.000000
-44.164100 0.000000
-44.094300 0.000000
-44.024400 0.000000
-43.954600 0.000000
-43.884700 0.000000
-43.814900 0.000000
-43.745000 0.000000
-43.675200 0.000000
-43.605300 0.000000
-43.535500 0.000000
-43.465600 0.000000
-43.395700 0.000000
-43.325900 0.000000
-43.256000 0.000000
-43.186200 0.000000
-43.116300 0.000000
-43.046500 0.000000
-42.976600 0.000000
-42.906800 0.000000
-42.836900 0.000000
-42.767100 0.000000
-42.697200 0.000000
-42.627400 0.000000
-42.557500 0.000000
-42.487700 0.000000
-42.417800 0.000000
-42.348000 0.000000
-42.278100 0.000000
-42.208200 0.000000
-42.138400 4.495400
-42.068500 23.749500
-41.998700 0.000000
-41.928800 0.000000
-41.859000 0.000000
-41.789100 0.000000
-41.719300 0.000000
-41.649400 0.000000
-41.579600 0.000000
-41.509700 0.000000
-41.439900 0.000000
-41.370000 0.000000
-41.300200 0.000000
-41.230300 0.000000
-41.160500 0.000000
-41.090600 0.000000
-41.020800 0.000000
-40.950900 0.000000
-40.881000 0.000000
-40.811200 0.000000
-40.741300 0.000000
-40.671500 0.000000
-40.601600 0.000000
-40.531800 0.000000
-40.461900 0.000000
-40.392100 0.000000
-40.322200 0.000000
-40.252400 0.000000
-40.182500 0.000000
-40.112700 0.000000
-40.042800 0.000000
-39.973000 0.000000
-39.903100 0.000000
-39.833300 0.000000
-39.763400 0.000000
-39.693500 0.000000
-39.623700 0.000000
-39.553800 0.000000
-39.484000 0.000000
-39.414100 0.000000
-39.344300 0.000000
-39.274400 0.000000
-39.204600 0.000000
-39.134700 0.000000
-39.064900 0.000000
-38.995000 0.000000
-38.925200 0.000000
-38.855300 0.000000
-38.785500 0.000000
-38.715600 0.000000
-38.645800 0.000000
-38.575900 0.000000
-38.506000 0.000000
-38.436200 0.000000
-38.366300 0.000000
-38.296500 0.000000
-38.226600 0.000000
-38.156800 0.000000
-38.086900 0.000000
-38.017100 0.000000
-37.947200 0.000000
-37.877400 0.000000
-37.807500 0.000000
-37.737700 0.000000
-37.667800 0.000000
-37.598000 0.000000
-37.528100 0.000000
-37.458300 0.000000
-37.388400 0.000000
-37.318600 0.000000
-37.248700 0.000000
-37.178800 0.000000
-37.109000 0.000000
-37.039100 0.000000
-36.969300 0.000000
-36.899400 0.000000
-36.829600 0.000000
-36.759700 0.000000
-36.689900 0.000000
-36.620000 0.000000
-36.550200 0.000000
-36.480300 0.000000
-36.410500 0.000000
-36.340600 0.000000
-36.270800 0.000000
-36.200900 0.000000
-36.131100 0.000000
-36.061200 0.000000
-35.991300 0.000000
-35.921500 0.000000
-35.851600 0.000000
-35.781800 0.000000
-35.711900 0.000000
-35.642100 0.000000
-35.572200 0.000000
-35.502400 0.000000
-35.432500 0.000000
-35.362700 0.000000
-35.292800 0.000000
-35.223000 0.000000
-35.153100 0.000000
-35.083300 0.000000
-35.013400 0.000000
-34.943600 0.000000
-34.873700 0.000000
-34.803800 0.000000
-34.734000 0.000000
-34.664100 0.000000
-34.594300 0.000000
-34.524400 0.000000
-34.454600 0.000000
-34.384700 0.000000
-34.314900 0.000000
-34.245000 0.000000
-34.175200 0.000000
-34.105300 0.000000
-34.035500 0.000000
-33.965600 0.000000
-33.895800 0.000000
-33.825900 0.000000
-33.756100 0.000000
-33.686200 0.000000
-33.616300 0.000000
-33.546500 0.000000
-33.476600 0.000000
-33.406800 0.000000
-33.336900 0.000000
-33.267100 0.000000
-33.197200 0.000000
-33.127400 0.000000
-33.057500 0.000000
-32.987700 0.000000
-32.917800 0.000000
-32.848000 0.000000
-32.778100 0.000000
-32.708300 0.000000
-32.638400 0.000000
-32.568600 0.000000
-32.498700 0.000000
-32.428900 0.000000
-32.359000 0.000000
-32.289100 0.000000
-32.219300 0.000000
-32.149400 0.000000
-32.079600 0.000000
-32.009700 0.000000
-31.939900 0.000000
-31.870000 0.000000
-31.800200 0.000000
-31.730300 0.000000
-31.660500 0.000000
-31.590600 0.000000
-31.520800 0.000000
-31.450900 0.000000
-31.381100 0.000000
-31.311200 0.000000
-31.241400 0.000000
-31.171500 0.000000
-31.101600 0.000000
-31.031800 0.000000
-30.961900 0.000000
-30.892100 0.000000
-30.822200 0.000000
-30.752400 0.000000
-30.682500 0.000000
-30.612700 0.000000
-30.542800 0.000000
-30.473000 0.000000
-30.403100 0.000000
-30.333300 0.000000
-30.263400 0.000000
-30.193600 0.000000
-30.123700 0.000000
-30.053900 0.000000
-29.984000 0.000000
-29.914100 0.000000
-29.844300 0.000000
-29.774400 0.000000
-29.704600 0.000000
-29.634700 0.000000
-29.564900 0.000000
-29.495000 0.000000
-29.425200 0.000000
-29.355300 0.000000
-29.285500 0.000000
-29.215600 0.000000
-29.145800 0.000000
-29.075900 0.000000
-29.006100 0.000000
-28.936200 0.000000
-28.866400 0.000000
-28.796500 0.000000
-28.726700 0.000000
-28.656800 0.000000
-28.586900 0.000000
-28.517100 0.000000
-28.447200 0.000000
-28.377400 0.000000
-28.307500 0.000000
-28.237700 0.000000
-28.167800 0.000000
-28.098000 0.000000
-28.028100 0.000000
-27.958300 0.000000
-27.888400 0.000000
-27.818600 0.000000
-27.748700 0.000000
-27.678900 0.000000
-27.609000 0.000000
-27.539200 0.000000
-27.469300 0.000000
-27.399400 0.000000
-27.329600 0.000000
-27.259700 0.000000
-27.189900 0.000000
-27.120000 0.000000
-27.050200 0.000000
-26.980300 0.000000
-26.910500 0.000000
-26.840600 0.000000
-26.770800 0.000000
-26.700900 0.000000
-26.631100 0.000000
-26.561200 0.000000
-26.491400 0.000000
-26.421500 0.000000
-26.351700 0.000000
-26.281800 0.000000
-26.211900 0.000000
-26.142100 0.000000
-26.072200 0.000000
-26.002400 0.000000
-25.932500 0.000000
-25.862700 0.000000
-25.792800 0.000000
-25.723000 0.000000
-25.653100 0.000000
-25.583300 0.000000
-25.513400 0.000000
-25.443600 0.000000
-25.373700 0.000000
-25.303900 0.000000
-25.234000 0.000000
-25.164200 0.000000
-25.094300 0.000000
-25.024400 0.000000
-24.954600 0.000000
-24.884700 0.000000
-24.814900 0.000000
-24.745000 0.000000
-24.675200 0.000000
-24.605300 0.000000
-24.535500 0.000000
-24.465600 0.000000
-24.395800 0.000000
-24.325900 0.000000
-24.256100 0.000000
-24.186200 0.000000
-24.116400 0.000000
-24.046500 0.000000
-23.976700 0.000000
-23.906800 0.000000
-23.837000 0.000000
-23.767100 0.000000
-23.697200 0.000000
-23.627400 0.000000
-23.557500 0.000000
-23.487700 0.000000
-23.417800 0.000000
-23.348000 0.000000
-23.278100 0.000000
-23.208300 0.000000
-23.138400 0.000000
-23.068600 0.000000
-22.998700 0.000000
-22.928900 0.000000
-22.859000 0.000000
-22.789200 0.000000
-22.719300 0.000000
-22.649500 0.000000
-22.579600 0.000000
-22.509700 0.000000
-22.439900 0.000000
-22.370000 0.000000
-22.300200 0.000000
-22.230300 0.000000
-22.160500 0.000000
-22.090600 0.000000
-22.020800 0.000000
-21.950900 0.000000
-21.881100 0.000000
-21.811200 0.000000
-21.741400 0.000000
-21.671500 0.000000
-21.601700 0.000000
-21.531800 0.000000
-21.462000 0.000000
-21.392100 0.000000
-21.322200 0.000000
-21.252400 0.000000
-21.182500 0.000000
-21.112700 0.000000
-21.042800 0.000000
-20.973000 0.000000
-20.903100 0.000000
-20.833300 0.000000
-20.763400 0.000000
-20.693600 0.000000
-20.623700 1.895200
-20.553900 7.785500
-20.484000 6.210700
-20.414200 5.005200
-20.344300 6.879000
-20.274500 14.499200
-20.204600 17.013300
-20.134800 9.346200
-20.064900 5.983400
-19.995000 10.263400
-19.925200 3.779500
-19.855300 0.000000
-19.785500 0.000000
-19.715600 0.000000
-19.645800 0.000000
-19.575900 0.000000
-19.506100 0.000000
-19.436200 0.000000
-19.366400 0.000000
-19.296500 0.000000
-19.226700 0.000000
-19.156800 0.000000
-19.087000 0.000000
-19.017100 0.000000
-18.947300 0.000000
-18.877400 0.000000
-18.807500 0.000000
-18.737700 0.000000
-18.667800 0.000000
-18.598000 0.000000
-18.528100 0.000000
-18.458300 0.000000
-18.388400 0.000000
-18.318600 0.000000
-18.248700 0.000000
-18.178900 0.000000
-18.109000 0.000000
-18.039200 0.000000
-17.969300 0.000000
-17.899500 0.000000
-17.829600 0.000000
-17.759800 0.000000
-17.689900 0.000000
-17.620000 0.000000
-17.550200 0.000000
-17.480300 0.000000
-17.410500 0.000000
-17.340600 0.000000
-17.270800 0.000000
-17.200900 0.000000
-17.131100 0.000000
-17.061200 0.000000
-16.991400 0.000000
-16.921500 0.000000
-16.851700 0.000000
-16.781800 0.000000
-16.712000 0.000000
-16.642100 0.000000
-16.572300 0.000000
-16.502400 0.000000
-16.432500 0.000000
-16.362700 0.000000
-16.292800 0.000000
-16.223000 0.000000
-16.153100 0.000000
-16.083300 0.000000
-16.013400 0.000000
-15.943600 0.000000
-15.873700 0.000000
-15.803900 0.000000
-15.734000 0.000000
-15.664200 0.000000
-15.594300 0.000000
-15.524500 0.000000
-15.454600 0.000000
-15.384800 0.000000
-15.314900 0.000000
-15.245100 0.000000
-15.175200 0.000000
-15.105300 0.000000
-15.035500 0.000000
-14.965600 0.000000
-14.895800 0.000000
-14.825900 0.000000
-14.756100 0.000000
-14.686200 0.000000
-14.616400 0.000000
-14.546500 0.000000
-14.476700 0.000000
-14.406800 0.000000
-14.337000 0.000000
-14.267100 0.000000
-14.197300 0.000000
-14.127400 0.000000
-14.057600 0.000000
-13.987700 0.000000
-13.917800 0.000000
-13.848000 0.000000
-13.778100 0.000000
-13.708300 0.000000
-13.638400 0.000000
-13.568600 0.000000
-13.498700 0.000000
-13.428900 0.000000
-13.359000 0.000000
-13.289200 0.000000
-13.219300 0.000000
-13.149500 0.000000
-13.079600 0.000000
-13.009800 0.000000
-12.939900 0.000000
-12.870100 0.000000
-12.800200 0.000000
-12.730300 0.000000
-12.660500 0.000000
-12.590600 0.000000
-12.520800 0.000000
-12.450900 0.000000
-12.381100 0.000000
-12.311200 0.000000
-12.241400 0.000000
-12.171500 0.000000
-12.101700 0.000000
-12.031800 0.000000
-11.962000 0.000000
-11.892100 0.000000
-11.822300 0.000000
-11.752400 0.000000
-11.682600 0.000000
-11.612700 0.000000
-11.542800 0.000000
-11.473000 0.000000
-11.403100 0.000000
-11.333300 0.000000
-11.263400 0.000000
-11.193600 0.000000
-11.123700 0.000000
-11.053900 0.000000
-10.984000 0.000000
-10.914200 0.000000
-10.844300 0.000000
-10.774500 0.000000
-10.704600 0.000000
-10.634800 0.000000
-10.564900 0.000000
-10.495100 0.000000
-10.425200 0.000000
-10.355400 0.000000
-10.285500 0.000000
-10.215600 0.000000
-10.145800 0.000000
-10.075900 0.000000
-10.006100 0.000000
-9.936200 0.000000
-9.866400 0.000000
-9.796500 0.000000
-9.726700 0.000000
-9.656800 0.000000
-9.587000 0.000000
-9.517100 0.000000
-9.447300 0.000000
-9.377400 0.000000
-9.307600 0.000000
-9.237700 0.000000
-9.167900 0.000000
-9.098000 0.000000
-9.028100 0.000000
-8.958300 0.000000
-8.888400 0.000000
-8.818600 0.000000
-8.748700 0.000000
-8.678900 0.000000
-8.609000 0.000000
-8.539200 0.000000
-8.469300 0.000000
-8.399500 0.000000
-8.329600 0.000000
-8.259800 0.000000
-8.189900 0.000000
-8.120100 0.000000
-8.050200 0.000000
-7.980400 0.000000
-7.910500 0.000000
-7.840600 0.000000
-7.770800 0.000000
-7.700900 0.000000
-7.631100 0.000000
-7.561200 0.000000
-7.491400 0.000000
-7.421500 0.000000
-7.351700 0.000000
-7.281800 0.000000
-7.212000 0.000000
-7.142100 0.000000
-7.072300 0.000000
-7.002400 0.000000
-6.932600 0.000000
-6.862700 0.000000
-6.792900 0.000000
-6.723000 0.000000
-6.653200 0.000000
-6.583300 0.000000
-6.513400 0.000000
-6.443600 0.000000
-6.373700 0.000000
-6.303900 0.000000
-6.234000 0.000000
-6.164200 0.000000
-6.094300 0.000000
-6.024500 0.000000
-5.954600 0.000000
-5.884800 0.000000
-5.814900 0.000000
-5.745100 0.000000
-5.675200 0.000000
-5.605400 0.000000
-5.535500 0.000000
-5.465700 0.000000
-5.395800 0.000000
-5.325900 0.000000
-5.256100 0.000000
-5.186200 0.000000
-5.116400 0.000000
-5.046500 0.000000
-4.976700 0.000000
-4.906800 0.000000
-4.837000 0.000000
-4.767100 0.000000
-4.697300 0.000000
-4.627400 0.000000
-4.557600 0.000000
-4.487700 0.000000
-4.417900 0.000000
-4.348000 0.000000
-4.278200 0.000000
-4.208300 0.000000
-4.138400 0.000000
-4.068600 0.000000
-3.998700 0.000000
-3.928900 0.000000
-3.859000 0.000000
-3.789200 0.000000
-3.719300 0.000000
-3.649500 0.000000
-3.579600 0.000000
-3.509800 0.000000
-3.439900 0.000000
-3.370100 0.000000
-3.300200 0.000000
-3.230400 0.000000
-3.160500 0.000000
-3.090700 0.000000
-3.020800 0.000000
-2.950900 0.000000
-2.881100 0.000000
-2.811200 0.000000
-2.741400 0.000000
-2.671500 0.000000
-2.601700 0.000000
-2.531800 0.000000
-2.462000 0.000000
-2.392100 0.000000
-2.322300 0.000000
-2.252400 0.000000
-2.182600 0.000000
-2.112700 0.000000
-2.042900 0.000000
-1.973000 0.000000
-1.903200 0.000000
-1.833300 0.000000
-1.763500 0.000000
-1.693600 0.000000
-1.623700 0.000000
-1.553900 0.000000
-1.484000 0.000000
-1.414200 0.000000
-1.344300 0.000000
-1.274500 0.000000
-1.204600 0.000000
-1.134800 0.000000
-1.064900 0.004300
-0.995100 0.032500
-0.925200 0.054900
-0.855400 0.059200
-0.785500 0.071500
-0.715700 0.086900
-0.645800 0.098400
-0.576000 0.102900
-0.506100 0.111400
-0.436200 0.120500
-0.366400 0.129500
-0.296500 0.139200
-0.226700 0.151100
-0.156800 0.160100
-0.087000 0.167800
-0.017100 0.176200
0.052700 0.184400
0.122600 0.195300
0.192400 0.207300
0.262300 0.219300
0.332100 0.231700
0.402000 0.244000
0.471800 0.256800
0.541700 0.272300
0.611500 0.289300
0.681400 0.306300
0.751300 0.323600
0.821100 0.345200
0.891000 0.373700
0.960800 0.403300
1.030700 0.439500
1.100500 0.630100
1.170400 0.846600
1.240200 1.125500
1.310100 1.166700
1.379900 1.211600
1.449800 1.262400
1.519600 1.200700
1.589500 1.211100
1.659300 1.330600
1.729200 1.351400
1.799000 1.390200
1.868900 1.590600
1.938700 1.756200
2.008600 1.872200
2.078500 1.989900
2.148300 2.179600
2.218200 2.130400
2.288000 2.008700
2.357900 2.182400
2.427700 2.460000
2.497600 3.079900
2.567400 3.533400
2.637300 3.575100
2.707100 3.554000
2.777000 3.557500
2.846800 3.301400
2.916700 3.099300
2.986500 2.756000
3.056400 2.191500
3.126200 2.154700
3.196100 2.196300
3.266000 3.177700
3.335800 3.642300
3.405700 2.794000
3.475500 2.849500
3.545400 3.281400
3.615200 3.089200
3.685100 4.325400
3.754900 3.195500
3.824800 3.246800
3.894600 3.330400
3.964500 3.052400
4.034300 3.205000
4.104200 4.074000
4.174000 3.957700
4.243900 3.201000
4.313700 3.249100
4.383600 3.496900
4.453500 3.870400
4.523300 4.331700
4.593200 3.651300
4.663000 3.488500
4.732900 2.618900
4.802700 2.383400
4.872600 2.577800
4.942400 2.680500
5.012300 2.435800
5.082100 2.062100
5.152000 1.950000
5.221800 1.745300
5.291700 1.521800
5.361500 1.226300
5.431400 1.025300
5.501200 0.859700
5.571100 0.783500
5.641000 0.753600
5.710800 0.802100
5.780700 0.737000
5.850500 1.221300
5.920400 0.985600
5.990200 0.792900
6.060100 0.800800
6.129900 0.813900
6.199800 0.823100
6.269600 0.847500
6.339500 0.871500
6.409300 0.897200
6.479200 0.939400
6.549000 0.998200
6.618900 1.082900
6.688700 1.195600
6.758600 1.340100
6.828400 1.620400
6.898300 1.898000
6.968200 2.302500
7.038000 2.040400
7.107900 2.045900
7.177700 2.103700
7.247600 2.250300
7.317400 2.406900
7.387300 2.670700
7.457100 2.900300
7.527000 2.469800
7.596800 2.350600
7.666700 2.403300
7.736500 2.466400
7.806400 2.354200
7.876200 2.312500
7.946100 2.430300
8.015900 2.297700
8.085800 2.156200
8.155700 1.987400
8.225500 1.507200
8.295400 1.404600
8.365200 1.486700
8.435100 1.611700
8.504900 1.911400
8.574800 2.218400
8.644600 2.810500
8.714500 3.035000
8.784300 2.589800
8.854200 2.123000
8.924000 1.971100
8.993900 1.808100
9.063700 1.629000
9.133600 1.378500
9.203400 1.283000
9.273300 1.335900
9.343200 1.359100
9.413000 1.424700
9.482900 1.405700
9.552700 1.278300
9.622600 1.213000
9.692400 1.207200
9.762300 1.184800
9.832100 1.174900
9.902000 1.110300
9.971800 1.129200
10.041700 1.240000
10.111500 1.574800
10.181400 1.570200
10.251200 1.587800
10.321100 1.572700
10.390900 1.621200
10.460800 1.663200
10.530600 1.769100
10.600500 1.969700
10.670400 2.131900
10.740200 2.167200
10.810100 2.087600
10.879900 2.127700
10.949800 2.144100
11.019600 2.143700
11.089500 2.106900
11.159300 2.026100
11.229200 1.898000
11.299000 1.698300
11.368900 1.354000
11.438700 1.223300
11.508600 0.765200
11.578400 0.722800
11.648300 0.676600
11.718100 0.636100
11.788000 0.606300
11.857900 0.643700
11.927700 0.620600
11.997600 0.611500
12.067400 0.602300
12.137300 0.604300
12.207100 0.578900
12.277000 0.568600
12.346800 0.575700
12.416700 0.658300
12.486500 0.677900
12.556400 0.741200
12.626200 0.823600
12.696100 0.931200
12.765900 1.105600
12.835800 1.192000
12.905600 1.241400
12.975500 1.385100
13.045400 1.677900
13.115200 1.025300
13.185100 0.908900
13.254900 0.825100
13.324800 0.771900
13.394600 0.739400
13.464500 0.783900
13.534300 0.873700
13.604200 0.888100
13.674000 0.863200
13.743900 0.819300
13.813700 0.764100
13.883600 0.729500
13.953400 0.679300
14.023300 0.634900
14.093100 0.589200
14.163000 0.654900
14.232900 0.643200
14.302700 0.624300
14.372600 0.602600
14.442400 0.586800
14.512300 0.579300
14.582100 0.573700
14.652000 0.601900
14.721800 0.566300
14.791700 0.538100
14.861500 0.533800
14.931400 0.543500
15.001200 0.533500
15.071100 0.537600
15.140900 0.539200
15.210800 0.557300
15.280600 0.609000
15.350500 0.665700
15.420300 0.746000
15.490200 0.861100
15.560100 0.958200
15.629900 1.003900
15.699800 1.086600
15.769600 1.062500
15.839500 0.972300
15.909300 0.901300
15.979200 0.834000
16.049000 0.770000
16.118900 0.724600
16.188700 0.689100
16.258600 0.656000
16.328400 0.627500
16.398300 0.599300
16.468100 0.564900
16.538000 0.529200
16.607800 0.497500
16.677700 0.469700
16.747600 0.587000
16.817400 0.601300
16.887300 0.642400
16.957100 0.641900
17.027000 0.642700
17.096800 0.672900
17.166700 0.713200
17.236500 0.833800
17.306400 0.816900
17.376200 0.843600
17.446100 0.797500
17.515900 0.790600
17.585800 0.809900
17.655600 0.831700
17.725500 0.846500
17.795300 0.842500
17.865200 0.845600
17.935100 0.862300
18.004900 0.925600
18.074800 0.990200
18.144600 1.188900
18.214500 0.994700
18.284300 1.026200
18.354200 1.073900
18.424000 1.139400
18.493900 1.482100
18.563700 1.290000
18.633600 1.305600
18.703400 1.330200
18.773300 1.303800
18.843100 1.344400
18.913000 1.310800
18.982800 1.290300
19.052700 1.229800
19.122500 1.245400
19.192400 1.247900
19.262300 1.263000
19.332100 1.313900
19.402000 1.294600
19.471800 1.300200
19.541700 1.400400
19.611500 1.453400
19.681400 1.455400
19.751200 1.418200
19.821100 1.402900
19.890900 1.416600
19.960800 1.454000
20.030600 1.461900
20.100500 1.489600
20.170300 1.442300
20.240200 1.431800
20.310000 1.444200
20.379900 1.449100
20.449800 1.488100
20.519600 1.509100
20.589500 1.509200
20.659300 1.510200
20.729200 1.504400
20.799000 1.494900
20.868900 1.492100
20.938700 1.510300
21.008600 1.574300
21.078400 1.661100
21.148300 1.689000
21.218100 1.709800
21.288000 1.708900
21.357800 1.701600
21.427700 1.690900
21.497500 1.695500
21.567400 1.645500
21.637300 1.644100
21.707100 1.541800
21.777000 1.413800
21.846800 1.318300
21.916700 1.274900
21.986500 1.275900
22.056400 1.304900
22.126200 1.485400
22.196100 1.591100
22.265900 1.512000
22.335800 1.517400
22.405600 1.490800
