set title 'mp-1009641 - Density of States'
set xlabel 'Energy (eV)'
set ylabel 'DOS (states/eV)'
set grid
set xrange [-10:10]
set yrange [0:19.481]
set xzeroaxis lt -1
set terminal png size 800,600
set output 'mp-1009641_dos_gnuplot.png'
plot '-' using 1:2 with lines title 'DOS'
-7.763300 0.000000
-7.748500 0.000000
-7.733800 0.000000
-7.719000 0.000000
-7.704300 0.000000
-7.689500 0.000000
-7.674800 0.000000
-7.660000 0.000000
-7.645300 0.000000
-7.630500 0.000000
-7.615800 0.000000
-7.601000 0.000000
-7.586300 0.000000
-7.571500 0.000000
-7.556800 0.000000
-7.542000 0.000000
-7.527300 0.000000
-7.512500 0.000000
-7.497800 0.000000
-7.483100 0.000000
-7.468300 0.000000
-7.453600 0.000000
-7.438800 0.000000
-7.424100 0.000000
-7.409300 0.000000
-7.394600 0.000000
-7.379800 0.000000
-7.365100 0.000000
-7.350300 0.000000
-7.335600 0.000000
-7.320800 0.000000
-7.306100 0.000000
-7.291300 0.000000
-7.276600 0.000000
-7.261800 0.000000
-7.247100 0.000000
-7.232300 0.000000
-7.217600 0.000000
-7.202800 0.000000
-7.188100 0.000000
-7.173300 0.000000
-7.158600 0.000000
-7.143800 0.000000
-7.129100 0.000000
-7.114300 0.000000
-7.099600 0.000000
-7.084800 0.000000
-7.070100 0.000000
-7.055300 0.000000
-7.040600 0.000000
-7.025800 0.000000
-7.011100 0.000000
-6.996300 0.000000
-6.981600 0.000000
-6.966900 0.000000
-6.952100 0.000000
-6.937400 0.000000
-6.922600 0.000000
-6.907900 0.000000
-6.893100 0.000000
-6.878400 0.000000
-6.863600 0.000000
-6.848900 0.000000
-6.834100 0.000000
-6.819400 0.000000
-6.804600 0.000000
-6.789900 0.000000
-6.775100 0.000000
-6.760400 0.000000
-6.745600 0.000000
-6.730900 0.000000
-6.716100 0.000000
-6.701400 0.000000
-6.686600 0.000000
-6.671900 0.000000
-6.657100 0.000000
-6.642400 0.000000
-6.627600 0.000000
-6.612900 0.000000
-6.598100 0.000000
-6.583400 0.000000
-6.568600 0.000000
-6.553900 0.000000
-6.539100 0.000000
-6.524400 0.000000
-6.509600 0.000000
-6.494900 0.000000
-6.480100 0.000000
-6.465400 0.000000
-6.450600 0.000000
-6.435900 0.000000
-6.421200 0.000100
-6.406400 0.020000
-6.391700 0.073400
-6.376900 0.130600
-6.362200 0.144500
-6.347400 0.150400
-6.332700 0.173000
-6.317900 0.196700
-6.303200 0.221200
-6.288400 0.241500
-6.273700 0.252400
-6.258900 0.258900
-6.244200 0.268900
-6.229400 0.281800
-6.214700 0.295800
-6.199900 0.309800
-6.185200 0.323800
-6.170400 0.338200
-6.155700 0.352800
-6.140900 0.366800
-6.126200 0.375800
-6.111400 0.384800
-6.096700 0.395800
-6.081900 0.406600
-6.067200 0.417000
-6.052400 0.427400
-6.037700 0.438400
-6.022900 0.450200
-6.008200 0.462700
-5.993400 0.476700
-5.978700 0.492500
-5.963900 0.508500
-5.949200 0.524100
-5.934400 0.539400
-5.919700 0.553200
-5.905000 0.566100
-5.890200 0.579800
-5.875500 0.616100
-5.860700 0.657000
-5.846000 0.689400
-5.831200 0.648300
-5.816500 0.653900
-5.801700 0.659000
-5.787000 0.663500
-5.772200 0.667700
-5.757500 0.667200
-5.742700 0.665600
-5.728000 0.665200
-5.713200 0.669300
-5.698500 0.673400
-5.683700 0.677300
-5.669000 0.679700
-5.654200 0.681500
-5.639500 0.683700
-5.624700 0.685500
-5.610000 0.682700
-5.595200 0.684200
-5.580500 0.686000
-5.565700 0.688100
-5.551000 0.690300
-5.536200 0.692900
-5.521500 0.695900
-5.506700 0.698800
-5.492000 0.701700
-5.477200 0.704600
-5.462500 0.707300
-5.447700 0.710000
-5.433000 0.712800
-5.418200 0.714400
-5.403500 0.716000
-5.388800 0.718100
-5.374000 0.721000
-5.359300 0.723600
-5.344500 0.726400
-5.329800 0.729300
-5.315000 0.732300
-5.300300 0.735400
-5.285500 0.738400
-5.270800 0.741600
-5.256000 0.744800
-5.241300 0.748100
-5.226500 0.751400
-5.211800 0.754800
-5.197000 0.758100
-5.182300 0.761200
-5.167500 0.763800
-5.152800 0.767200
-5.138000 0.770700
-5.123300 0.774400
-5.108500 0.778200
-5.093800 0.782300
-5.079000 0.786400
-5.064300 0.790600
-5.049500 0.795100
-5.034800 0.799800
-5.020000 0.804500
-5.005300 0.809300
-4.990500 0.814200
-4.975800 0.819300
-4.961000 0.824500
-4.946300 0.829800
-4.931500 0.835100
-4.916800 0.840500
-4.902000 0.845900
-4.887300 0.851500
-4.872500 0.857500
-4.857800 0.863600
-4.843100 0.869900
-4.828300 0.876300
-4.813600 0.882900
-4.798800 0.889500
-4.784100 0.896400
-4.769300 0.903400
-4.754600 0.910500
-4.739800 0.917700
-4.725100 0.925500
-4.710300 0.935300
-4.695600 0.983800
-4.680800 1.077400
-4.666100 1.065300
-4.651300 1.094300
-4.636600 1.124700
-4.621800 1.157700
-4.607100 1.178800
-4.592300 1.200400
-4.577600 1.230100
-4.562800 1.260700
-4.548100 1.292200
-4.533300 1.326600
-4.518600 1.365200
-4.503800 1.399200
-4.489100 1.440000
-4.474300 1.481000
-4.459600 1.522000
-4.444800 1.566900
-4.430100 1.678000
-4.415300 1.730800
-4.400600 1.751600
-4.385800 1.766800
-4.371100 1.792400
-4.356300 1.985600
-4.341600 1.864300
-4.326900 1.871800
-4.312100 1.878000
-4.297400 1.863500
-4.282600 1.858600
-4.267900 1.854500
-4.253100 1.850100
-4.238400 1.846000
-4.223600 1.835500
-4.208900 1.831400
-4.194100 1.841400
-4.179400 1.856400
-4.164600 1.872700
-4.149900 1.889200
-4.135100 1.865400
-4.120400 1.875400
-4.105600 1.870800
-4.090900 1.826500
-4.076100 1.791000
-4.061400 1.891900
-4.046600 1.671100
-4.031900 1.649700
-4.017100 1.631600
-4.002400 1.616300
-3.987600 1.604800
-3.972900 1.599200
-3.958100 1.605700
-3.943400 1.755600
-3.928600 1.689500
-3.913900 1.668200
-3.899100 1.757100
-3.884400 2.059300
-3.869600 2.429700
-3.854900 2.421800
-3.840100 2.465900
-3.825400 2.574800
-3.810700 2.523300
-3.795900 2.628600
-3.781200 2.784900
-3.766400 2.961500
-3.751700 4.749200
-3.736900 4.234300
-3.722200 3.980800
-3.707400 3.909500
-3.692700 4.003500
-3.677900 4.125600
-3.663200 4.619300
-3.648400 4.288900
-3.633700 3.716600
-3.618900 3.393300
-3.604200 3.184600
-3.589400 2.969000
-3.574700 2.810600
-3.559900 2.706800
-3.545200 2.658000
-3.530400 2.616000
-3.515700 2.576200
-3.500900 2.557100
-3.486200 2.566200
-3.471400 2.471200
-3.456700 2.343700
-3.441900 2.231700
-3.427200 2.164600
-3.412400 2.143000
-3.397700 2.165400
-3.382900 2.182000
-3.368200 2.306700
-3.353400 1.780400
-3.338700 1.099000
-3.323900 0.119500
-3.309200 0.000000
-3.294400 0.000000
-3.279700 0.000000
-3.265000 0.000000
-3.250200 0.000000
-3.235500 0.000000
-3.220700 0.000000
-3.206000 0.000000
-3.191200 0.000000
-3.176500 0.000000
-3.161700 0.000000
-3.147000 0.000000
-3.132200 0.000000
-3.117500 0.000000
-3.102700 0.000000
-3.088000 0.000000
-3.073200 0.000000
-3.058500 0.000000
-3.043700 0.000000
-3.029000 0.000000
-3.014200 0.000000
-2.999500 0.000000
-2.984700 0.000000
-2.970000 0.000000
-2.955200 0.000000
-2.940500 0.000000
-2.925700 0.000000
-2.911000 0.000000
-2.896200 0.000000
-2.881500 0.000000
-2.866700 0.000000
-2.852000 0.000000
-2.837200 0.000000
-2.822500 0.000000
-2.807700 0.000000
-2.793000 0.000000
-2.778200 0.000000
-2.763500 0.000000
-2.748800 0.000000
-2.734000 0.000000
-2.719300 0.000000
-2.704500 0.000000
-2.689800 0.000000
-2.675000 0.000000
-2.660300 0.000000
-2.645500 0.000000
-2.630800 0.000000
-2.616000 0.000000
-2.601300 0.000000
-2.586500 0.000000
-2.571800 0.000000
-2.557000 0.000000
-2.542300 0.000000
-2.527500 0.000000
-2.512800 0.000000
-2.498000 0.000000
-2.483300 0.000000
-2.468500 0.000000
-2.453800 0.000000
-2.439000 0.000000
-2.424300 0.000000
-2.409500 0.000000
-2.394800 0.000000
-2.380000 0.000000
-2.365300 0.000000
-2.350500 0.000000
-2.335800 0.000000
-2.321000 0.000000
-2.306300 0.000000
-2.291500 0.000000
-2.276800 0.000000
-2.262000 0.000000
-2.247300 0.000000
-2.232600 0.000000
-2.217800 0.000000
-2.203100 0.000000
-2.188300 0.000000
-2.173600 0.000000
-2.158800 0.000000
-2.144100 0.000000
-2.129300 0.000000
-2.114600 0.000000
-2.099800 0.000000
-2.085100 0.000000
-2.070300 0.000000
-2.055600 0.000000
-2.040800 0.000000
-2.026100 0.000000
-2.011300 0.000000
-1.996600 0.000000
-1.981800 0.000000
-1.967100 0.000000
-1.952300 0.000000
-1.937600 0.000000
-1.922800 0.000000
-1.908100 0.000000
-1.893300 0.000000
-1.878600 0.000000
-1.863800 0.000000
-1.849100 0.000000
-1.834300 0.000000
-1.819600 0.000000
-1.804800 0.000000
-1.790100 0.000000
-1.775300 0.000000
-1.760600 0.000000
-1.745800 0.000000
-1.731100 0.000000
-1.716400 0.000000
-1.701600 0.000000
-1.686900 0.000000
-1.672100 0.000000
-1.657400 0.000000
-1.642600 0.000000
-1.627900 0.000000
-1.613100 0.000000
-1.598400 0.000000
-1.583600 0.000000
-1.568900 0.000000
-1.554100 0.000000
-1.539400 0.000000
-1.524600 0.000000
-1.509900 0.000000
-1.495100 0.000000
-1.480400 0.000000
-1.465600 0.000000
-1.450900 0.000000
-1.436100 0.000000
-1.421400 0.000000
-1.406600 0.000000
-1.391900 0.000000
-1.377100 0.000000
-1.362400 0.000000
-1.347600 0.000000
-1.332900 0.000000
-1.318100 0.000000
-1.303400 0.000000
-1.288600 0.000000
-1.273900 0.000000
-1.259100 0.000000
-1.244400 0.000000
-1.229600 0.000000
-1.214900 0.000000
-1.200100 0.000000
-1.185400 0.000000
-1.170700 0.000000
-1.155900 0.000000
-1.141200 0.000000
-1.126400 0.000000
-1.111700 0.000000
-1.096900 0.000000
-1.082200 0.000000
-1.067400 0.000000
-1.052700 0.000000
-1.037900 0.000000
-1.023200 0.000000
-1.008400 0.000000
-0.993700 0.000000
-0.978900 0.000000
-0.964200 0.000000
-0.949400 0.000000
-0.934700 0.000000
-0.919900 0.000000
-0.905200 0.000000
-0.890400 0.000000
-0.875700 0.000000
-0.860900 0.000000
-0.846200 0.000000
-0.831400 0.000000
-0.816700 0.000000
-0.801900 0.000000
-0.787200 0.000000
-0.772400 0.000000
-0.757700 0.000000
-0.742900 0.000000
-0.728200 0.000000
-0.713400 0.000000
-0.698700 0.000000
-0.683900 0.000000
-0.669200 0.000000
-0.654500 0.000000
-0.639700 0.000000
-0.625000 0.000000
-0.610200 0.000000
-0.595500 0.000000
-0.580700 0.000000
-0.566000 0.000000
-0.551200 0.000000
-0.536500 0.000000
-0.521700 0.000000
-0.507000 0.000000
-0.492200 0.000000
-0.477500 0.000000
-0.462700 0.000000
-0.448000 0.000000
-0.433200 0.000000
-0.418500 0.000000
-0.403700 0.000000
-0.389000 0.000000
-0.374200 0.000000
-0.359500 0.000000
-0.344700 0.000000
-0.330000 0.000000
-0.315200 0.000000
-0.300500 0.000000
-0.285700 0.000000
-0.271000 0.000000
-0.256200 0.000000
-0.241500 0.000000
-0.226700 0.000000
-0.212000 0.000000
-0.197200 0.000000
-0.182500 0.000000
-0.167700 0.000000
-0.153000 0.000000
-0.138300 0.000000
-0.123500 0.000000
-0.108800 0.000000
-0.094000 0.000000
-0.079300 0.000000
-0.064500 0.000000
-0.049800 0.000000
-0.035000 0.000000
-0.020300 0.000000
-0.005500 0.000000
0.009200 0.000000
0.024000 0.000000
0.038700 0.000000
0.053500 0.000000
0.068200 0.000000
0.083000 0.000000
0.097700 0.000000
0.112500 0.000000
0.127200 0.000000
0.142000 0.000000
0.156700 0.000000
0.171500 0.000000
0.186200 0.000000
0.201000 0.000000
0.215700 0.000000
0.230500 0.000000
0.245200 0.000000
0.260000 0.000000
0.274700 0.000000
0.289500 0.000000
0.304200 0.000000
0.319000 0.000000
0.333700 0.000000
0.348500 0.000000
0.363200 0.000000
0.378000 0.000000
0.392700 0.000000
0.407400 0.000000
0.422200 0.000000
0.436900 0.000000
0.451700 0.000000
0.466400 0.000000
0.481200 0.000000
0.495900 0.000000
0.510700 0.000000
0.525400 0.000000
0.540200 0.000000
0.554900 0.000000
0.569700 0.000000
0.584400 0.000000
0.599200 0.000000
0.613900 0.000000
0.628700 0.000000
0.643400 0.000000
0.658200 0.000000
0.672900 0.000000
0.687700 0.000000
0.702400 0.000000
0.717200 0.000000
0.731900 0.000000
0.746700 0.000000
0.761400 0.000000
0.776200 0.000000
0.790900 0.000000
0.805700 0.000000
0.820400 0.000000
0.835200 0.000000
0.849900 0.000000
0.864700 0.000000
0.879400 0.000000
0.894200 0.000000
0.908900 0.000000
0.923600 0.000000
0.938400 0.000000
0.953100 0.000000
0.967900 0.000000
0.982600 0.000000
0.997400 0.000000
1.012100 0.000000
1.026900 0.000000
1.041600 0.010500
1.056400 0.283100
1.071100 0.227800
1.085900 0.266900
1.100600 0.292600
1.115400 0.326000
1.130100 0.369800
1.144900 0.416800
1.159600 0.466900
1.174400 0.500700
1.189100 0.515200
1.203900 0.522000
1.218600 0.542300
1.233400 0.562300
1.248100 0.580800
1.262900 0.600600
1.277600 0.623800
1.292400 0.649500
1.307100 0.681000
1.321900 0.718200
1.336600 0.757200
1.351400 0.794100
1.366100 0.832400
1.380900 0.871100
1.395600 0.909800
1.410400 0.947000
1.425100 0.983400
1.439800 1.020600
1.454600 1.058500
1.469300 1.092800
1.484100 1.135800
1.498800 1.204000
1.513600 1.266800
1.528300 1.332400
1.543100 1.403600
1.557800 1.437500
1.572600 1.454000
1.587300 1.497700
1.602100 1.536800
1.616800 1.563000
1.631600 1.559800
1.646300 1.557800
1.661100 1.657400
1.675800 1.808300
1.690600 2.027900
1.705300 2.359100
1.720100 2.060800
1.734800 1.994000
1.749600 1.929100
1.764300 1.904400
1.779100 1.922900
1.793800 1.939500
1.808600 1.945100
1.823300 1.942100
1.838100 1.935500
1.852800 1.922000
1.867600 1.936800
1.882300 1.904400
1.897100 2.063300
1.911800 1.680800
1.926600 1.673900
1.941300 1.671300
1.956100 1.681200
1.970800 1.753600
1.985500 1.849300
2.000300 1.966000
2.015000 2.107600
2.029800 2.334400
2.044500 2.602000
2.059300 2.736700
2.074000 2.630600
2.088800 2.575400
2.103500 2.532500
2.118300 2.584400
2.133000 2.761600
2.147800 2.644900
2.162500 2.624800
2.177300 2.586700
2.192000 2.554800
2.206800 2.534600
2.221500 2.538500
2.236300 2.592000
2.251000 2.649400
2.265800 2.467200
2.280500 2.344600
2.295300 2.238200
2.310000 2.146300
2.324800 2.051300
2.339500 1.939300
2.354300 1.905500
2.369000 1.857300
2.383800 1.823500
2.398500 1.771000
2.413300 1.725400
2.428000 1.681100
2.442800 1.645700
2.457500 1.602900
2.472300 1.566100
2.487000 1.531500
2.501700 1.499500
2.516500 1.473000
2.531200 1.452400
2.546000 1.433800
2.560700 1.416900
2.575500 1.401300
2.590200 1.388200
2.605000 1.387500
2.619700 1.388400
2.634500 1.388300
2.649200 1.393300
2.664000 1.401200
2.678700 1.412000
2.693500 1.430800
2.708200 1.459500
2.723000 1.497200
2.737700 1.538600
2.752500 1.584400
2.767200 1.640000
2.782000 1.711900
2.796700 1.769700
2.811500 1.833900
2.826200 1.897800
2.841000 1.960500
2.855700 2.028400
2.870500 2.061200
2.885200 2.071800
2.900000 2.059600
2.914700 2.025400
2.929500 2.015400
2.944200 1.996300
2.959000 1.968800
2.973700 1.937700
2.988500 1.895900
3.003200 1.858600
3.017900 1.834700
3.032700 1.808100
3.047400 1.800800
3.062200 1.790500
3.076900 1.792600
3.091700 1.799900
3.106400 1.810200
3.121200 1.823200
3.135900 1.826900
3.150700 1.834100
3.165400 1.845300
3.180200 1.873900
3.194900 1.894600
3.209700 1.897900
3.224400 1.861200
3.239200 1.803400
3.253900 1.732200
3.268700 1.646400
3.283400 1.472300
3.298200 1.348200
3.312900 1.361700
3.327700 1.384400
3.342400 1.412300
3.357200 1.442100
3.371900 1.474200
3.386700 1.513900
3.401400 1.567900
3.416200 1.627000
3.430900 1.690500
3.445700 1.754000
3.460400 1.814100
3.475200 1.864800
3.489900 1.899100
3.504700 1.909900
3.519400 1.883600
3.534100 1.855500
3.548900 1.858900
3.563600 1.889700
3.578400 1.916700
3.593100 1.959200
3.607900 1.962700
3.622600 1.943200
3.637400 1.924600
3.652100 1.904900
3.666900 1.890100
3.681600 1.882200
3.696400 1.874500
3.711100 1.925100
3.725900 1.932300
3.740600 1.949000
3.755400 1.968200
3.770100 2.025300
3.784900 2.176500
3.799600 2.196600
3.814400 2.280600
3.829100 2.368600
3.843900 2.422100
3.858600 2.458200
3.873400 2.494000
3.888100 2.543500
3.902900 2.610100
3.917600 2.698600
3.932400 2.851900
3.947100 2.964500
3.961900 2.995100
3.976600 2.902400
3.991400 2.950000
4.006100 3.009400
4.020900 3.104500
4.035600 3.206200
4.050400 3.253300
4.065100 3.301400
4.079800 3.326100
4.094600 4.120500
4.109300 4.761400
4.124100 6.041200
4.138800 6.437000
4.153600 6.241800
4.168300 6.219100
4.183100 6.339700
4.197800 6.114700
4.212600 5.989600
4.227300 5.788900
4.242100 5.754500
4.256800 5.803300
4.271600 5.292800
4.286300 5.142700
4.301100 5.035000
4.315800 4.797500
4.330600 4.563700
4.345300 4.483200
4.360100 4.490800
4.374800 4.475900
4.389600 4.363100
4.404300 4.063300
4.419100 3.577400
4.433800 3.183200
4.448600 2.792300
4.463300 2.328700
4.478100 2.037600
4.492800 1.910800
4.507600 1.834400
4.522300 1.823200
4.537100 1.883200
4.551800 1.947900
4.566600 2.177600
4.581300 2.542300
4.596000 2.679500
4.610800 2.728600
4.625500 2.771400
4.640300 2.894600
4.655000 3.013800
4.669800 3.194500
4.684500 3.525600
4.699300 3.605900
4.714000 3.725700
4.728800 3.733500
4.743500 3.600600
4.758300 3.445800
4.773000 3.295000
4.787800 3.120900
4.802500 3.062400
4.817300 3.020200
4.832000 3.167100
4.846800 3.235700
4.861500 3.411400
4.876300 3.570500
4.891000 3.647200
4.905800 3.693500
4.920500 3.733300
4.935300 3.738800
4.950000 3.691400
4.964800 3.626700
4.979500 3.619600
4.994300 3.642900
5.009000 3.679900
5.023800 3.726100
5.038500 3.777400
5.053300 3.835900
5.068000 3.916900
5.082800 4.049200
5.097500 4.104300
5.112200 4.168900
5.127000 4.285700
5.141700 3.869300
5.156500 3.689200
5.171200 3.505500
5.186000 3.407900
5.200700 3.007200
5.215500 2.971200
5.230200 2.948600
5.245000 2.978800
5.259700 2.895600
5.274500 2.813300
5.289200 2.682300
5.304000 2.586500
5.318700 2.519100
5.333500 2.494700
5.348200 2.466900
5.363000 2.439300
5.377700 2.409500
5.392500 2.382300
5.407200 2.357600
5.422000 2.334500
5.436700 2.314200
5.451500 2.299200
5.466200 2.303800
5.481000 2.310700
5.495700 2.317100
5.510500 2.322300
5.525200 2.328300
5.540000 2.340000
5.554700 2.358500
5.569500 2.375800
5.584200 2.381100
5.599000 2.405800
5.613700 2.425800
5.628500 2.459100
5.643200 2.404400
5.657900 2.401100
5.672700 2.446800
5.687400 2.411000
5.702200 2.352600
5.716900 2.359100
5.731700 2.548800
5.746400 2.685200
5.761200 2.344300
5.775900 1.745800
5.790700 1.761600
5.805400 1.930000
5.820200 2.086000
5.834900 2.242100
5.849700 2.444000
5.864400 2.675800
5.879200 3.194400
5.893900 3.666900
5.908700 4.609400
5.923400 6.690700
5.938200 6.741400
5.952900 6.697800
5.967700 7.456700
5.982400 8.300600
5.997200 9.501100
6.011900 12.169800
6.026700 16.074300
6.041400 17.710400
6.056200 15.272200
6.070900 9.817700
6.085700 8.471300
6.100400 7.819200
6.115200 7.715500
6.129900 7.983300
6.144700 7.118800
6.159400 6.764000
6.174100 6.854700
6.188900 6.641500
6.203600 6.676800
6.218400 6.496200
6.233100 6.560100
6.247900 5.531400
6.262600 4.905700
6.277400 4.483000
6.292100 4.546200
6.306900 4.740300
6.321600 5.044000
6.336400 4.959500
6.351100 5.096300
6.365900 5.175700
6.380600 5.193300
6.395400 5.024600
6.410100 4.937400
6.424900 4.865600
6.439600 4.809800
6.454400 4.743500
6.469100 4.683500
6.483900 4.640200
6.498600 4.612400
6.513400 4.561200
6.528100 4.498500
6.542900 4.397300
6.557600 4.297800
6.572400 4.403700
6.587100 4.061000
6.601900 3.815700
6.616600 3.645600
6.631400 3.529100
6.646100 3.376700
6.660900 3.249400
6.675600 3.096700
6.690300 2.909400
6.705100 2.725700
6.719800 2.613500
6.734600 2.510000
6.749300 2.408700
6.764100 2.321300
6.778800 2.240800
6.793600 2.167500
6.808300 2.105200
6.823100 2.050100
6.837800 2.000000
6.852600 1.951400
6.867300 1.904300
6.882100 1.858900
6.896800 1.819200
6.911600 1.780200
6.926300 1.747800
6.941100 1.718300
6.955800 1.689300
6.970600 1.659400
6.985300 1.629600
7.000100 1.599900
7.014800 1.569800
7.029600 1.538700
7.044300 1.510700
7.059100 1.486700
7.073800 1.465800
7.088600 1.448500
7.103300 1.432300
7.118100 1.418000
7.132800 1.398700
7.147600 1.376500
7.162300 1.351100
7.177100 1.327100
7.191800 1.304100
7.206600 1.281800
7.221300 1.260400
7.236000 1.242300
7.250800 1.227700
7.265500 1.217500
7.280300 1.216800
7.295000 1.222100
7.309800 1.220300
7.324500 1.210300
7.339300 1.201500
7.354000 1.195300
7.368800 1.190300
7.383500 1.185100
7.398300 1.214500
7.413000 1.173800
7.427800 1.150200
7.442500 1.131800
7.457300 1.112700
7.472000 1.028600
7.486800 1.002400
7.501500 0.980400
7.516300 0.962100
7.531000 0.968900
7.545800 0.969200
7.560500 0.991000
7.575300 1.009800
7.590000 1.009500
7.604800 0.984000
7.619500 0.909600
7.634300 0.990900
7.649000 1.103900
7.663800 1.217100
7.678500 1.151200
7.693300 1.170500
7.708000 1.218900
7.722800 1.239500
7.737500 1.276700
7.752200 1.289800
7.767000 1.314700
7.781700 1.363900
7.796500 1.431000
7.811200 1.510300
7.826000 1.597400
7.840700 1.689400
7.855500 1.736800
7.870200 1.758600
7.885000 1.749500
7.899700 1.719700
7.914500 1.714700
7.929200 1.749900
7.944000 1.832200
