set title 'mp-972472 - Density of States'
set xlabel 'Energy (eV)'
set ylabel 'DOS (states/eV)'
set grid
set xrange [-10:10]
set yrange [0:3.513]
set xzeroaxis lt -1
set terminal png size 800,600
set output 'mp-972472_dos_gnuplot.png'
plot '-' using 1:2 with lines title 'DOS'
-17.801800 0.000000
-17.775700 0.000000
-17.749700 0.000000
-17.723600 0.000000
-17.697500 0.000000
-17.671500 0.000000
-17.645400 0.000000
-17.619300 0.000000
-17.593300 0.000000
-17.567200 0.000000
-17.541100 0.000000
-17.515100 0.000000
-17.489000 0.000000
-17.462900 0.000000
-17.436800 0.000000
-17.410800 0.000000
-17.384700 0.000000
-17.358600 0.000000
-17.332600 0.000000
-17.306500 0.000000
-17.280400 0.000000
-17.254400 0.000000
-17.228300 0.000000
-17.202200 0.000000
-17.176200 0.000000
-17.150100 0.000000
-17.124000 0.000000
-17.097900 0.000000
-17.071900 0.000000
-17.045800 0.000000
-17.019700 0.000000
-16.993700 0.000000
-16.967600 0.000000
-16.941500 0.000000
-16.915500 0.000000
-16.889400 0.000000
-16.863300 0.000000
-16.837300 0.000000
-16.811200 0.000000
-16.785100 0.000000
-16.759000 0.000000
-16.733000 0.000000
-16.706900 0.000000
-16.680800 0.000000
-16.654800 0.000000
-16.628700 0.000000
-16.602600 0.000000
-16.576600 0.000000
-16.550500 0.000000
-16.524400 0.000000
-16.498400 0.000000
-16.472300 0.000000
-16.446200 0.000000
-16.420100 0.000000
-16.394100 0.000000
-16.368000 0.000000
-16.341900 0.000000
-16.315900 0.000000
-16.289800 0.000000
-16.263700 0.000000
-16.237700 0.000000
-16.211600 0.000000
-16.185500 0.000000
-16.159500 0.000000
-16.133400 0.000000
-16.107300 0.000000
-16.081200 0.000000
-16.055200 0.000000
-16.029100 0.000000
-16.003000 0.000000
-15.977000 0.000000
-15.950900 0.000000
-15.924800 0.000000
-15.898800 0.000000
-15.872700 0.000000
-15.846600 0.000000
-15.820600 0.000000
-15.794500 0.000000
-15.768400 0.000000
-15.742300 0.000000
-15.716300 0.000000
-15.690200 0.000000
-15.664100 0.000000
-15.638100 0.000000
-15.612000 0.000000
-15.585900 0.000000
-15.559900 0.000000
-15.533800 0.000000
-15.507700 0.000000
-15.481700 0.000000
-15.455600 0.000000
-15.429500 42.906300
-15.403500 61.472100
-15.377400 336.459700
-15.351300 37.724100
-15.325200 36.706400
-15.299200 32.025500
-15.273100 0.000000
-15.247000 0.000000
-15.221000 0.000000
-15.194900 0.000000
-15.168800 0.000000
-15.142800 0.000000
-15.116700 0.000000
-15.090600 0.000000
-15.064600 0.000000
-15.038500 0.000000
-15.012400 0.000000
-14.986300 0.000000
-14.960300 0.000000
-14.934200 0.000000
-14.908100 0.000000
-14.882100 0.000000
-14.856000 0.000000
-14.829900 0.000000
-14.803900 0.000000
-14.777800 0.000000
-14.751700 0.000000
-14.725700 0.000000
-14.699600 0.000000
-14.673500 0.000000
-14.647400 0.000000
-14.621400 0.000000
-14.595300 0.000000
-14.569200 0.000000
-14.543200 0.000000
-14.517100 0.000000
-14.491000 0.000000
-14.465000 0.000000
-14.438900 0.000000
-14.412800 0.000000
-14.386800 0.000000
-14.360700 0.000000
-14.334600 0.000000
-14.308500 0.000000
-14.282500 0.000000
-14.256400 0.000000
-14.230300 0.000000
-14.204300 0.000000
-14.178200 0.000000
-14.152100 0.000000
-14.126100 0.000000
-14.100000 0.000000
-14.073900 0.000000
-14.047900 0.000000
-14.021800 0.000000
-13.995700 0.000000
-13.969600 0.000000
-13.943600 0.000000
-13.917500 0.000000
-13.891400 0.000000
-13.865400 0.000000
-13.839300 0.000000
-13.813200 0.000000
-13.787200 0.000000
-13.761100 0.000000
-13.735000 0.000000
-13.709000 0.000000
-13.682900 0.000000
-13.656800 0.000000
-13.630700 0.000000
-13.604700 0.000000
-13.578600 0.000000
-13.552500 0.000000
-13.526500 0.000000
-13.500400 0.000000
-13.474300 0.000000
-13.448300 0.000000
-13.422200 0.000000
-13.396100 0.000000
-13.370100 0.000000
-13.344000 0.000000
-13.317900 0.000000
-13.291800 0.000000
-13.265800 0.000000
-13.239700 0.000000
-13.213600 0.000000
-13.187600 0.000000
-13.161500 0.000000
-13.135400 0.000000
-13.109400 0.000000
-13.083300 0.000000
-13.057200 0.000000
-13.031200 0.000000
-13.005100 0.000000
-12.979000 0.000000
-12.952900 0.000000
-12.926900 0.000000
-12.900800 0.000000
-12.874700 0.000000
-12.848700 0.000000
-12.822600 0.000000
-12.796500 0.000000
-12.770500 0.000000
-12.744400 0.000000
-12.718300 0.000000
-12.692300 0.000000
-12.666200 0.000000
-12.640100 0.000000
-12.614000 0.000000
-12.588000 0.000000
-12.561900 0.000000
-12.535800 0.000000
-12.509800 0.000000
-12.483700 0.000000
-12.457600 0.000000
-12.431600 0.000000
-12.405500 0.000000
-12.379400 0.000000
-12.353400 0.000000
-12.327300 0.000000
-12.301200 0.000000
-12.275100 0.000000
-12.249100 0.000000
-12.223000 0.000000
-12.196900 0.000000
-12.170900 0.000000
-12.144800 0.000000
-12.118700 0.000000
-12.092700 0.000000
-12.066600 0.000000
-12.040500 0.000000
-12.014500 0.000000
-11.988400 0.000000
-11.962300 0.000000
-11.936300 0.000000
-11.910200 0.000000
-11.884100 0.000000
-11.858000 0.000000
-11.832000 0.000000
-11.805900 0.000000
-11.779800 0.000000
-11.753800 0.000000
-11.727700 0.000000
-11.701600 0.000000
-11.675600 0.000000
-11.649500 0.000000
-11.623400 0.000000
-11.597400 0.000000
-11.571300 0.000000
-11.545200 0.000000
-11.519100 0.000000
-11.493100 0.000000
-11.467000 0.000000
-11.440900 0.000000
-11.414900 0.000000
-11.388800 0.000000
-11.362700 0.000000
-11.336700 0.000000
-11.310600 0.000000
-11.284500 0.000000
-11.258500 0.000000
-11.232400 0.000000
-11.206300 0.000000
-11.180200 0.000000
-11.154200 0.000000
-11.128100 0.000000
-11.102000 0.000000
-11.076000 0.000000
-11.049900 0.000000
-11.023800 0.000000
-10.997800 0.000000
-10.971700 0.000000
-10.945600 0.000000
-10.919600 0.000000
-10.893500 0.000000
-10.867400 0.000000
-10.841300 0.000000
-10.815300 0.000000
-10.789200 0.000000
-10.763100 0.000000
-10.737100 0.000000
-10.711000 0.000000
-10.684900 0.000000
-10.658900 0.000000
-10.632800 0.000000
-10.606700 0.000000
-10.580700 0.000000
-10.554600 0.000000
-10.528500 0.000000
-10.502400 0.000000
-10.476400 0.000000
-10.450300 0.000000
-10.424200 0.000000
-10.398200 0.000000
-10.372100 0.000000
-10.346000 0.000000
-10.320000 0.000000
-10.293900 0.000000
-10.267800 0.000000
-10.241800 0.000000
-10.215700 0.000000
-10.189600 0.000000
-10.163500 0.000000
-10.137500 0.000000
-10.111400 0.000000
-10.085300 0.000000
-10.059300 0.000000
-10.033200 0.000000
-10.007100 0.000000
-9.981100 0.000000
-9.955000 0.000000
-9.928900 0.000000
-9.902900 0.000000
-9.876800 0.000000
-9.850700 0.000000
-9.824600 0.000000
-9.798600 0.000000
-9.772500 0.000000
-9.746400 0.000000
-9.720400 0.000000
-9.694300 0.000000
-9.668200 0.000000
-9.642200 0.000000
-9.616100 0.000000
-9.590000 0.000000
-9.564000 0.000000
-9.537900 0.000000
-9.511800 0.000000
-9.485700 0.000000
-9.459700 0.000000
-9.433600 0.000000
-9.407500 0.000000
-9.381500 0.000000
-9.355400 0.000000
-9.329300 0.000000
-9.303300 0.000000
-9.277200 0.000000
-9.251100 0.000000
-9.225100 0.000000
-9.199000 0.000000
-9.172900 0.000000
-9.146800 0.000000
-9.120800 0.000000
-9.094700 0.000000
-9.068600 0.000000
-9.042600 0.000000
-9.016500 0.000000
-8.990400 0.000000
-8.964400 0.000000
-8.938300 0.000000
-8.912200 0.000000
-8.886200 0.000000
-8.860100 0.000000
-8.834000 0.000000
-8.808000 0.000000
-8.781900 0.000000
-8.755800 0.000000
-8.729700 0.000000
-8.703700 0.000000
-8.677600 0.000000
-8.651500 0.000000
-8.625500 0.000000
-8.599400 0.000000
-8.573300 0.000000
-8.547300 0.000000
-8.521200 0.000000
-8.495100 0.000000
-8.469100 0.000000
-8.443000 0.000000
-8.416900 0.000000
-8.390800 0.000000
-8.364800 0.000000
-8.338700 0.000000
-8.312600 0.000000
-8.286600 0.000000
-8.260500 0.000000
-8.234400 0.000000
-8.208400 0.000000
-8.182300 0.000000
-8.156200 0.000000
-8.130200 0.000000
-8.104100 0.000000
-8.078000 0.000000
-8.051900 0.000000
-8.025900 0.000000
-7.999800 0.000000
-7.973700 0.000000
-7.947700 0.000000
-7.921600 0.000000
-7.895500 0.000000
-7.869500 0.000000
-7.843400 0.000000
-7.817300 0.000000
-7.791300 0.000000
-7.765200 0.000000
-7.739100 0.000000
-7.713000 0.000000
-7.687000 0.000000
-7.660900 0.000000
-7.634800 0.000000
-7.608800 0.000000
-7.582700 0.000000
-7.556600 0.000000
-7.530600 0.000000
-7.504500 0.000000
-7.478400 0.000000
-7.452400 0.002600
-7.426300 0.048100
-7.400200 0.118700
-7.374100 0.197000
-7.348100 0.238300
-7.322000 0.259900
-7.295900 0.267100
-7.269900 0.294400
-7.243800 0.324900
-7.217700 0.356800
-7.191700 0.382000
-7.165600 0.413400
-7.139500 0.434500
-7.113500 0.448400
-7.087400 0.462500
-7.061300 0.479200
-7.035200 0.495400
-7.009200 0.514900
-6.983100 0.534800
-6.957000 0.555200
-6.931000 0.575900
-6.904900 0.597600
-6.878800 0.620700
-6.852800 0.659500
-6.826700 0.707500
-6.800600 0.738200
-6.774600 0.748300
-6.748500 0.743700
-6.722400 0.740000
-6.696300 0.731700
-6.670300 0.736400
-6.644200 0.740500
-6.618100 0.744500
-6.592100 0.748300
-6.566000 0.749200
-6.539900 0.742100
-6.513900 0.738800
-6.487800 0.738500
-6.461700 0.741800
-6.435700 0.746800
-6.409600 0.751800
-6.383500 0.756800
-6.357400 0.761700
-6.331400 0.766400
-6.305300 0.769500
-6.279200 0.770000
-6.253200 0.769600
-6.227100 0.769100
-6.201000 0.768300
-6.175000 0.767200
-6.148900 0.765300
-6.122800 0.768000
-6.096800 0.770800
-6.070700 0.826000
-6.044600 0.860100
-6.018500 0.889100
-5.992500 0.912800
-5.966400 0.931500
-5.940300 0.952800
-5.914300 0.970900
-5.888200 0.994200
-5.862100 1.018000
-5.836100 1.037300
-5.810000 1.048400
-5.783900 1.068100
-5.757900 1.088400
-5.731800 1.109900
-5.705700 1.136400
-5.679600 1.166700
-5.653600 1.203100
-5.627500 1.246000
-5.601400 1.294200
-5.575400 1.409700
-5.549300 1.465400
-5.523200 1.504500
-5.497200 1.527200
-5.471100 1.511000
-5.445000 1.478000
-5.419000 1.468900
-5.392900 1.461400
-5.366800 1.455800
-5.340800 1.452500
-5.314700 1.431200
-5.288600 1.411000
-5.262500 1.391300
-5.236500 1.372500
-5.210400 1.356000
-5.184300 1.361900
-5.158300 1.379300
-5.132200 1.401800
-5.106100 1.432300
-5.080100 1.472300
-5.054000 1.501000
-5.027900 1.523600
-5.001900 1.536500
-4.975800 1.588200
-4.949700 1.625600
-4.923600 1.658000
-4.897600 1.728700
-4.871500 1.725000
-4.845400 1.742100
-4.819400 1.787500
-4.793300 1.850300
-4.767200 1.910900
-4.741200 1.955800
-4.715100 1.976700
-4.689000 1.963800
-4.663000 1.944200
-4.636900 1.931900
-4.610800 1.924000
-4.584700 1.921600
-4.558700 1.914200
-4.532600 1.893500
-4.506500 1.860900
-4.480500 1.844400
-4.454400 1.827000
-4.428300 1.810500
-4.402300 1.808500
-4.376200 1.830900
-4.350100 1.846900
-4.324100 1.855400
-4.298000 1.805600
-4.271900 1.748500
-4.245800 1.673700
-4.219800 1.455300
-4.193700 1.422800
-4.167600 1.569300
-4.141600 1.730500
-4.115500 1.717700
-4.089400 1.810900
-4.063400 2.034700
-4.037300 2.264500
-4.011200 2.191500
-3.985200 2.115400
-3.959100 2.281000
-3.933000 2.478000
-3.906900 2.225300
-3.880900 2.205600
-3.854800 2.303500
-3.828700 2.804300
-3.802700 2.972000
-3.776600 3.193200
-3.750500 2.952500
-3.724500 2.278900
-3.698400 1.930500
-3.672300 1.755800
-3.646300 1.600400
-3.620200 1.461600
-3.594100 1.332500
-3.568000 1.176600
-3.542000 1.046200
-3.515900 0.946000
-3.489800 0.850000
-3.463800 0.753600
-3.437700 0.740500
-3.411600 0.727400
-3.385600 0.714400
-3.359500 0.701300
-3.333400 0.688200
-3.307400 0.675200
-3.281300 0.662100
-3.255200 0.649000
-3.229100 0.635900
-3.203100 0.622900
-3.177000 0.609800
-3.150900 0.596800
-3.124900 0.587000
-3.098800 0.579800
-3.072700 0.574500
-3.046700 0.571700
-3.020600 0.571500
-2.994500 0.571300
-2.968500 0.571100
-2.942400 0.570900
-2.916300 0.546300
-2.890200 0.533800
-2.864200 0.521400
-2.838100 0.507800
-2.812000 0.488200
-2.786000 0.478200
-2.759900 0.475100
-2.733800 0.470800
-2.707800 0.465400
-2.681700 0.457800
-2.655600 0.450100
-2.629600 0.442400
-2.603500 0.434800
-2.577400 0.427100
-2.551300 0.419400
-2.525300 0.411700
-2.499200 0.404100
-2.473100 0.396400
-2.447100 0.388700
-2.421000 0.381100
-2.394900 0.373400
-2.368900 0.365700
-2.342800 0.359400
-2.316700 0.355000
-2.290700 0.352000
-2.264600 0.351000
-2.238500 0.350600
-2.212500 0.350100
-2.186400 0.349700
-2.160300 0.349200
-2.134200 0.348800
-2.108200 0.348300
-2.082100 0.347900
-2.056000 0.333800
-2.030000 0.327500
-2.003900 0.324500
-1.977800 0.318700
-1.951800 0.314900
-1.925700 0.316800
-1.899600 0.316300
-1.873600 0.312400
-1.847500 0.305900
-1.821400 0.299400
-1.795300 0.292900
-1.769300 0.286400
-1.743200 0.279800
-1.717100 0.400300
-1.691100 0.751800
-1.665000 0.989800
-1.638900 1.074200
-1.612900 1.025800
-1.586800 1.032900
-1.560700 1.033200
-1.534700 1.022900
-1.508600 1.025000
-1.482500 1.071800
-1.456400 1.127700
-1.430400 1.116800
-1.404300 1.127100
-1.378200 1.157400
-1.352200 1.216700
-1.326100 1.278200
-1.300000 1.332700
-1.274000 1.376800
-1.247900 1.383700
-1.221800 1.382900
-1.195800 1.545300
-1.169700 1.766100
-1.143600 1.917800
-1.117500 1.940000
-1.091500 1.922600
-1.065400 1.857000
-1.039300 1.729500
-1.013300 1.623700
-0.987200 1.547500
-0.961100 1.496500
-0.935100 1.466600
-0.909000 1.447500
-0.882900 1.437000
-0.856900 1.433700
-0.830800 1.443200
-0.804700 1.445500
-0.778600 1.439700
-0.752600 1.474900
-0.726500 1.519500
-0.700400 1.463700
-0.674400 1.243400
-0.648300 1.061200
-0.622200 0.941800
-0.596200 0.838900
-0.570100 0.744700
-0.544000 0.656300
-0.518000 0.635300
-0.491900 0.615500
-0.465800 0.591300
-0.439700 0.585600
-0.413700 0.570300
-0.387600 0.552300
-0.361500 0.493400
-0.335500 0.481200
-0.309400 0.469200
-0.283300 0.457300
-0.257300 0.445500
-0.231200 0.434900
-0.205100 0.425500
-0.179100 0.417000
-0.153000 0.408900
-0.126900 0.401100
-0.100800 0.393800
-0.074800 0.386800
-0.048700 0.380000
-0.022600 0.373500
0.003400 0.367200
0.029500 0.361100
0.055600 0.355400
0.081600 0.349900
0.107700 0.344800
0.133800 0.340000
0.159800 0.335500
0.185900 0.331400
0.212000 0.327800
0.238100 0.321700
0.264100 0.318000
0.290200 0.315800
0.316300 0.314400
0.342300 0.314400
0.368400 0.315700
0.394500 0.319000
0.420500 0.328900
0.446600 0.342400
0.472700 0.353300
0.498700 0.389700
0.524800 0.431200
0.550900 0.445700
0.577000 0.460900
0.603000 0.504700
0.629100 0.539500
0.655200 0.494300
0.681200 0.494300
0.707300 0.520400
0.733400 0.460600
0.759400 0.483100
0.785500 0.518600
0.811600 0.557600
0.837600 0.794100
0.863700 0.724300
0.889800 0.740800
0.915900 0.738800
0.941900 0.767600
0.968000 0.823800
0.994100 0.850300
1.020100 0.870300
1.046200 0.908000
1.072300 0.962100
1.098300 1.044400
1.124400 1.142600
1.150500 1.191700
1.176500 1.334100
1.202600 1.420100
1.228700 1.337600
1.254700 1.372000
1.280800 1.411700
1.306900 1.416800
1.333000 1.407000
1.359000 1.440900
1.385100 1.491000
1.411200 1.559500
1.437200 1.603000
1.463300 1.580100
1.489400 1.575600
1.515400 1.570900
1.541500 1.576400
1.567600 1.584300
1.593600 1.563000
1.619700 1.573800
1.645800 1.726800
1.671900 1.621700
1.697900 1.639600
1.724000 1.677700
1.750100 1.759500
1.776100 1.737800
1.802200 1.720900
1.828300 1.730000
1.854300 1.792600
1.880400 1.841000
1.906500 1.856800
1.932500 1.864200
1.958600 1.858900
1.984700 1.865600
2.010800 1.871400
2.036800 1.831900
2.062900 1.831700
2.089000 1.835300
2.115000 1.844200
2.141100 1.853100
2.167200 1.866000
2.193200 1.874400
2.219300 1.885800
2.245400 1.904400
2.271400 1.922000
2.297500 1.936200
2.323600 1.945600
2.349700 1.965100
2.375700 1.945000
2.401800 1.954500
2.427900 1.968700
2.453900 1.992600
2.480000 2.015600
2.506100 2.079400
2.532100 2.218700
2.558200 2.105500
2.584300 2.090700
2.610300 2.112300
2.636400 2.155300
2.662500 2.213500
2.688600 2.209000
2.714600 2.247500
2.740700 2.283800
2.766800 2.375700
2.792800 2.454100
2.818900 2.597400
2.845000 2.787100
2.871000 2.599600
2.897100 2.568100
2.923200 2.546500
2.949200 2.611800
2.975300 2.586500
3.001400 2.584400
3.027500 2.584200
3.053500 2.649600
3.079600 2.539000
3.105700 2.458600
3.131700 2.417800
3.157800 2.421900
3.183900 2.419400
3.209900 2.424400
3.236000 2.517500
3.262100 2.581300
3.288100 2.567300
3.314200 2.501600
3.340300 2.379900
3.366400 2.255700
3.392400 2.148900
3.418500 2.095300
3.444600 2.047500
3.470600 2.004300
3.496700 1.967300
3.522800 1.938700
3.548800 1.910300
3.574900 1.882900
3.601000 1.857800
3.627000 1.833700
3.653100 1.812600
3.679200 1.807000
3.705300 1.801700
3.731300 1.803000
3.757400 1.804000
3.783500 1.798100
3.809500 1.816500
3.835600 1.843900
3.861700 1.898600
3.887700 1.952600
3.913800 1.956000
3.939900 1.955700
3.965900 1.956200
3.992000 1.960300
4.018100 1.971200
4.044200 1.989800
4.070200 1.999500
4.096300 2.009000
4.122400 2.029400
4.148400 2.043800
4.174500 2.035200
4.200600 2.042400
4.226600 2.062800
4.252700 2.118200
4.278800 2.145200
4.304800 2.157600
4.330900 2.178400
4.357000 2.199200
4.383100 2.208500
4.409100 2.212900
4.435200 2.212300
4.461300 2.203800
4.487300 2.183500
4.513400 2.192900
4.539500 2.211500
4.565500 2.136100
4.591600 2.087300
4.617700 1.982800
4.643700 2.051100
4.669800 2.105700
4.695900 2.157100
4.721900 2.221400
4.748000 2.232400
4.774100 2.088200
4.800200 2.097800
4.826200 2.200300
4.852300 2.267600
4.878400 2.234900
4.904400 2.252900
4.930500 2.319300
4.956600 2.408200
4.982600 2.532300
5.008700 2.850100
5.034800 2.565600
5.060800 2.552700
5.086900 2.512500
5.113000 2.481600
5.139100 2.449500
5.165100 2.415700
5.191200 2.397400
5.217300 2.397800
5.243300 2.329000
5.269400 2.273200
5.295500 2.258800
5.321500 2.205000
5.347600 2.137600
5.373700 2.067100
5.399700 2.252000
5.425800 2.250300
5.451900 2.283000
5.478000 2.369400
5.504000 2.499100
5.530100 2.641900
5.556200 2.578600
5.582200 2.637700
5.608300 2.709700
5.634400 2.757100
5.660400 2.742700
5.686500 2.671000
5.712600 2.587400
5.738600 2.475700
5.764700 2.340200
5.790800 2.165000
5.816900 1.981800
5.842900 1.853000
5.869000 1.785400
5.895100 1.763300
5.921100 1.767800
5.947200 1.748000
5.973300 1.759000
5.999300 1.789400
6.025400 1.802000
6.051500 1.814600
6.077500 1.824900
6.103600 1.892900
6.129700 1.924800
6.155800 1.942400
6.181800 1.968000
6.207900 2.029400
6.234000 2.067300
6.260000 2.127100
6.286100 2.222300
6.312200 2.212000
6.338200 2.216200
6.364300 2.376600
6.390400 2.423200
6.416400 2.411600
6.442500 2.468100
6.468600 2.667800
6.494700 2.664700
6.520700 2.722500
6.546800 2.763500
6.572900 2.790100
6.598900 2.768300
6.625000 2.718400
6.651100 2.685000
6.677100 2.603600
6.703200 2.617300
6.729300 2.693600
6.755300 2.673400
6.781400 2.629800
6.807500 2.596000
6.833600 2.578100
6.859600 2.610900
6.885700 2.656500
6.911800 2.605400
6.937800 2.555100
6.963900 2.481800
6.990000 2.454200
7.016000 2.441300
7.042100 2.455400
7.068200 2.541300
7.094200 2.641700
7.120300 2.754500
7.146400 3.036100
7.172500 2.918100
7.198500 2.910400
7.224600 2.950600
7.250700 3.002400
7.276700 3.154100
7.302800 3.122100
7.328900 3.109500
7.354900 3.058100
7.381000 2.968700
7.407100 2.873200
7.433100 2.752700
7.459200 2.653700
7.485300 2.513200
7.511400 2.347200
7.537400 2.197100
7.563500 2.079700
7.589600 2.065700
7.615600 1.986400
7.641700 1.842500
7.667800 1.841900
7.693800 1.857100
7.719900 1.881000
7.746000 1.984600
7.772000 2.078000
7.798100 2.174400
7.824200 2.269600
7.850200 2.340400
7.876300 2.498900
7.902400 2.629100
7.928500 2.723700
7.954500 2.495100
7.980600 2.224900
8.006700 2.215100
8.032700 2.245400
8.058800 2.281400
8.084900 2.292800
8.110900 2.292700
8.137000 2.263100
8.163100 2.204200
8.189100 2.152600
8.215200 2.115900
8.241300 2.103400
8.267400 2.112800
8.293400 2.121100
8.319500 2.141300
8.345600 2.241600
8.371600 2.401600
8.397700 2.350300
8.423800 2.341200
8.449800 2.337900
8.475900 2.352400
8.502000 2.359400
8.528000 2.278000
8.554100 2.188600
8.580200 2.170100
8.606300 2.176800
8.632300 2.199500
8.658400 2.134600
8.684500 2.056300
8.710500 1.993500
8.736600 1.979100
8.762700 2.036300
8.788700 2.175800
8.814800 2.266300
8.840900 2.348100
8.866900 2.276600
8.893000 2.159300
8.919100 2.139400
8.945200 2.087100
8.971200 1.961500
8.997300 1.941800
9.023400 1.955100
9.049400 1.995100
9.075500 2.043900
9.101600 2.024600
9.127600 1.962900
9.153700 1.911600
9.179800 1.910800
9.205800 1.907600
9.231900 1.902200
9.258000 1.891800
9.284100 1.883900
